SpectraSuite Data File
++++++++++++++++++++++++++++++++++++
Date: Fri Oct 04 11:42:04 GMT-05:00 2013
User: price-jones
Dark Spectrum Present: No
Reference Spectrum Present: No
Number of Sampled Component Spectra: 1
Spectrometers: USB2+H05261
Integration Time (usec): 100000 (USB2+H05261)
Spectra Averaged: 1 (USB2+H05261)
Boxcar Smoothing: 0 (USB2+H05261)
Correct for Electrical Dark: No (USB2+H05261)
Strobe/Lamp Enabled: No (USB2+H05261)
Correct for Detector Non-linearity: No (USB2+H05261)
Correct for Stray Light: No (USB2+H05261)
Number of Pixels in Processed Spectrum: 2048
>>>>>Begin Processed Spectral Data<<<<<
365.73	0.00
365.92	0.00
366.12	0.00
366.32	0.00
366.52	0.00
366.72	0.00
366.91	0.00
367.11	0.00
367.31	0.00
367.51	0.00
367.70	0.00
367.90	28.09
368.10	46.81
368.30	0.00
368.49	0.00
368.69	0.00
368.89	0.00
369.09	0.00
369.28	0.00
369.48	0.00
369.68	0.00
369.87	0.00
370.07	0.00
370.27	0.00
370.47	0.00
370.66	4.68
370.86	70.22
371.06	81.92
371.25	112.35
371.45	72.56
371.65	49.15
371.84	72.56
372.04	81.92
372.24	119.37
372.44	86.60
372.63	117.03
372.83	182.56
373.03	154.48
373.22	138.09
373.42	124.05
373.62	135.75
373.81	86.60
374.01	152.13
374.21	95.96
374.40	67.88
374.60	201.29
374.79	79.58
374.99	98.30
375.19	95.96
375.38	133.41
375.58	140.43
375.78	196.60
375.97	170.86
376.17	175.54
376.37	51.49
376.56	163.84
376.76	121.71
376.95	131.07
377.15	128.73
377.35	100.64
377.54	114.69
377.74	93.62
377.93	53.83
378.13	112.35
378.33	133.41
378.52	77.24
378.72	161.50
378.91	168.52
379.11	117.03
379.31	100.64
379.50	84.26
379.70	79.58
379.89	110.01
380.09	142.77
380.28	131.07
380.48	95.96
380.68	100.64
380.87	140.43
381.07	121.71
381.26	117.03
381.46	100.64
381.65	133.41
381.85	46.81
382.04	114.69
382.24	86.60
382.43	110.01
382.63	147.45
382.83	84.26
383.02	161.50
383.22	135.75
383.41	95.96
383.61	46.81
383.80	138.09
384.00	114.69
384.19	105.32
384.39	117.03
384.58	25.75
384.78	126.39
384.97	154.48
385.17	70.22
385.36	145.11
385.56	114.69
385.75	37.45
385.95	102.98
386.14	112.35
386.34	60.85
386.53	175.54
386.72	39.79
386.92	161.50
387.11	133.41
387.31	163.84
387.50	93.62
387.70	163.84
387.89	131.07
388.09	117.03
388.28	117.03
388.48	93.62
388.67	170.86
388.86	131.07
389.06	173.20
389.25	110.01
389.45	110.01
389.64	112.35
389.84	119.37
390.03	135.75
390.22	117.03
390.42	117.03
390.61	180.22
390.81	117.03
391.00	72.56
391.19	138.09
391.39	95.96
391.58	182.56
391.78	128.73
391.97	131.07
392.16	112.35
392.36	170.86
392.55	182.56
392.75	60.85
392.94	51.49
393.13	63.19
393.33	67.88
393.52	81.92
393.71	156.82
393.91	105.32
394.10	102.98
394.29	65.54
394.49	81.92
394.68	98.30
394.88	126.39
395.07	119.37
395.26	121.71
395.46	159.16
395.65	189.58
395.84	124.05
396.04	248.10
396.23	105.32
396.42	86.60
396.62	117.03
396.81	119.37
397.00	105.32
397.19	124.05
397.39	121.71
397.58	212.99
397.77	135.75
397.97	112.35
398.16	91.28
398.35	63.19
398.55	138.09
398.74	135.75
398.93	142.77
399.12	91.28
399.32	168.52
399.51	159.16
399.70	147.45
399.90	145.11
400.09	135.75
400.28	100.64
400.47	133.41
400.67	187.24
400.86	166.18
401.05	93.62
401.24	145.11
401.44	93.62
401.63	126.39
401.82	152.13
402.01	124.05
402.21	131.07
402.40	119.37
402.59	250.44
402.78	133.41
402.97	154.48
403.17	168.52
403.36	168.52
403.55	184.90
403.74	454.06
403.93	1184.31
404.13	2502.03
404.32	2881.20
404.51	2459.90
404.70	1476.88
404.89	571.09
405.09	278.52
405.28	168.52
405.47	112.35
405.66	140.43
405.85	215.33
406.05	145.11
406.24	156.82
406.43	119.37
406.62	135.75
406.81	220.01
407.00	301.93
407.20	383.85
407.39	505.56
407.58	440.02
407.77	285.55
407.96	250.44
408.15	159.16
408.34	140.43
408.54	182.56
408.73	133.41
408.92	187.24
409.11	154.48
409.30	210.65
409.49	142.77
409.68	161.50
409.87	145.11
410.07	117.03
410.26	77.24
410.45	138.09
410.64	142.77
410.83	198.95
411.02	135.75
411.21	152.13
411.40	140.43
411.59	177.88
411.78	201.29
411.98	147.45
412.17	110.01
412.36	117.03
412.55	126.39
412.74	161.50
412.93	241.08
413.12	203.63
413.31	259.80
413.50	119.37
413.69	147.45
413.88	175.54
414.07	159.16
414.26	241.08
414.45	166.18
414.64	177.88
414.83	175.54
415.02	196.60
415.22	194.26
415.41	238.73
415.60	184.90
415.79	177.88
415.98	215.33
416.17	217.67
416.36	163.84
416.55	161.50
416.74	227.03
416.93	182.56
417.12	182.56
417.31	173.20
417.50	173.20
417.69	194.26
417.88	205.97
418.07	170.86
418.26	166.18
418.45	191.92
418.64	257.46
418.83	212.99
419.02	210.65
419.21	175.54
419.39	201.29
419.58	236.39
419.77	168.52
419.96	217.67
420.15	257.46
420.34	173.20
420.53	182.56
420.72	241.08
420.91	196.60
421.10	238.73
421.29	212.99
421.48	203.63
421.67	168.52
421.86	154.48
422.05	184.90
422.24	222.35
422.43	229.37
422.61	152.13
422.80	215.33
422.99	220.01
423.18	248.10
423.37	229.37
423.56	189.58
423.75	208.31
423.94	205.97
424.13	163.84
424.32	173.20
424.50	266.82
424.69	217.67
424.88	285.55
425.07	231.71
425.26	191.92
425.45	208.31
425.64	264.48
425.83	154.48
426.01	292.57
426.20	276.18
426.39	224.69
426.58	189.58
426.77	238.73
426.96	248.10
427.15	201.29
427.33	273.84
427.52	212.99
427.71	285.55
427.90	147.45
428.09	238.73
428.28	133.41
428.46	180.22
428.65	220.01
428.84	269.16
429.03	184.90
429.22	175.54
429.40	236.39
429.59	184.90
429.78	297.25
429.97	266.82
430.16	175.54
430.34	250.44
430.53	227.03
430.72	222.35
430.91	262.14
431.10	224.69
431.28	252.78
431.47	276.18
431.66	259.80
431.85	252.78
432.03	259.80
432.22	308.95
432.41	285.55
432.60	283.20
432.79	210.65
432.97	315.97
433.16	369.80
433.35	287.89
433.54	322.99
433.72	393.21
433.91	404.91
434.10	407.25
434.28	430.66
434.47	475.13
434.66	543.00
434.85	737.27
435.03	2127.55
435.22	7410.14
435.41	13303.60
435.59	11641.82
435.78	7478.01
435.97	3705.07
436.16	1413.68
436.34	629.60
436.53	428.32
436.72	409.59
436.90	285.55
437.09	325.33
437.28	348.74
437.46	259.80
437.65	320.65
437.84	325.33
438.02	280.86
438.21	255.12
438.40	301.93
438.58	257.46
438.77	234.05
438.96	273.84
439.14	248.10
439.33	304.27
439.52	308.95
439.70	245.76
439.89	257.46
440.08	280.86
440.26	227.03
440.45	299.59
440.63	283.20
440.82	269.16
441.01	278.52
441.19	304.27
441.38	320.65
441.57	330.02
441.75	311.29
441.94	365.12
442.12	330.02
442.31	259.80
442.50	227.03
442.68	280.86
442.87	266.82
443.05	229.37
443.24	320.65
443.43	386.19
443.61	327.68
443.80	290.23
443.98	287.89
444.17	287.89
444.35	313.63
444.54	276.18
444.73	238.73
444.91	315.97
445.10	257.46
445.28	245.76
445.47	266.82
445.65	229.37
445.84	287.89
446.02	297.25
446.21	234.05
446.39	241.08
446.58	322.99
446.77	330.02
446.95	252.78
447.14	301.93
447.32	320.65
447.51	250.44
447.69	308.95
447.88	294.91
448.06	245.76
448.25	297.25
448.43	278.52
448.62	156.82
448.80	313.63
448.99	241.08
449.17	248.10
449.36	259.80
449.54	278.52
449.73	306.61
449.91	365.12
450.10	252.78
450.28	402.57
450.46	269.16
450.65	341.72
450.83	292.57
451.02	262.14
451.20	266.82
451.39	224.69
451.57	290.23
451.76	257.46
451.94	301.93
452.13	229.37
452.31	337.04
452.49	278.52
452.68	269.16
452.86	285.55
453.05	325.33
453.23	250.44
453.42	245.76
453.60	241.08
453.78	271.50
453.97	304.27
454.15	250.44
454.34	301.93
454.52	278.52
454.70	294.91
454.89	187.24
455.07	259.80
455.26	311.29
455.44	292.57
455.62	208.31
455.81	255.12
455.99	243.42
456.17	243.42
456.36	297.25
456.54	229.37
456.73	255.12
456.91	243.42
457.09	257.46
457.28	299.59
457.46	308.95
457.64	301.93
457.83	252.78
458.01	266.82
458.19	283.20
458.38	217.67
458.56	264.48
458.74	299.59
458.93	285.55
459.11	262.14
459.29	196.60
459.48	301.93
459.66	297.25
459.84	283.20
460.03	311.29
460.21	269.16
460.39	322.99
460.57	259.80
460.76	257.46
460.94	227.03
461.12	334.70
461.31	299.59
461.49	252.78
461.67	255.12
461.85	266.82
462.04	222.35
462.22	723.23
462.40	285.55
462.59	250.44
462.77	287.89
462.95	236.39
463.13	292.57
463.32	301.93
463.50	334.70
463.68	341.72
463.86	271.50
464.05	215.33
464.23	313.63
464.41	290.23
464.59	313.63
464.78	294.91
464.96	322.99
465.14	301.93
465.32	231.71
465.50	276.18
465.69	262.14
465.87	241.08
466.05	306.61
466.23	322.99
466.41	292.57
466.60	299.59
466.78	264.48
466.96	290.23
467.14	248.10
467.32	269.16
467.51	276.18
467.69	257.46
467.87	245.76
468.05	278.52
468.23	332.36
468.41	290.23
468.60	271.50
468.78	231.71
468.96	311.29
469.14	276.18
469.32	198.95
469.50	222.35
469.69	290.23
469.87	264.48
470.05	196.60
470.23	189.58
470.41	262.14
470.59	208.31
470.77	287.89
470.95	255.12
471.14	252.78
471.32	308.95
471.50	374.49
471.68	212.99
471.86	285.55
472.04	290.23
472.22	320.65
472.40	276.18
472.58	224.69
472.77	334.70
472.95	325.33
473.13	301.93
473.31	348.74
473.49	255.12
473.67	175.54
473.85	264.48
474.03	332.36
474.21	238.73
474.39	245.76
474.57	311.29
474.75	290.23
474.93	255.12
475.12	243.42
475.30	222.35
475.48	255.12
475.66	306.61
475.84	273.84
476.02	255.12
476.20	276.18
476.38	248.10
476.56	351.08
476.74	231.71
476.92	367.46
477.10	353.42
477.28	283.20
477.46	245.76
477.64	290.23
477.82	222.35
478.00	234.05
478.18	287.89
478.36	292.57
478.54	294.91
478.72	313.63
478.90	285.55
479.08	278.52
479.26	341.72
479.44	325.33
479.62	397.89
479.80	332.36
479.98	287.89
480.16	416.62
480.34	369.80
480.52	325.33
480.70	346.40
480.88	404.91
481.06	294.91
481.24	372.15
481.41	428.32
481.59	414.27
481.77	425.98
481.95	379.17
482.13	465.77
482.31	418.96
482.49	498.53
482.67	561.73
482.85	650.67
483.03	676.41
483.21	655.35
483.39	664.71
483.57	699.82
483.74	779.40
483.92	751.31
484.10	847.27
484.28	898.77
484.46	964.30
484.64	882.38
484.82	898.77
485.00	1015.79
485.18	1121.12
485.35	1219.42
485.53	1156.22
485.71	1210.06
485.89	1313.04
486.07	1270.91
486.25	1383.26
486.43	1287.29
486.61	1296.66
486.78	1308.36
486.96	1289.64
487.14	1331.76
487.32	1301.34
487.50	1270.91
487.68	1254.53
487.85	1345.81
488.03	1366.87
488.21	1289.64
488.39	1322.40
488.57	1149.20
488.75	1153.88
488.92	1418.36
489.10	1130.48
489.28	1167.93
489.46	1057.92
489.64	1076.65
489.81	1050.90
489.99	1048.56
490.17	971.32
490.35	1118.78
490.53	1004.09
490.70	940.90
490.88	1137.50
491.06	1146.86
491.24	1118.78
491.41	1247.51
491.59	1053.24
491.77	959.62
491.95	945.58
492.13	936.21
492.30	889.40
492.48	976.00
492.66	945.58
492.84	894.08
493.01	933.87
493.19	873.02
493.37	903.45
493.54	912.81
493.72	877.70
493.90	922.17
494.08	866.00
494.25	833.23
494.43	812.17
494.61	760.67
494.79	788.76
494.96	830.89
495.14	851.96
495.32	835.57
495.49	723.23
495.67	774.72
495.85	697.48
496.02	718.54
496.20	788.76
496.38	699.82
496.55	706.84
496.73	730.25
496.91	648.33
497.09	713.86
497.26	720.88
497.44	627.26
497.62	634.29
497.79	557.05
497.97	737.27
498.14	709.18
498.32	660.03
498.50	580.45
498.67	653.01
498.85	624.92
499.03	617.90
499.20	545.34
499.38	547.69
499.56	608.54
499.73	620.24
499.91	535.98
500.08	554.71
500.26	468.11
500.44	475.13
500.61	463.43
500.79	395.55
500.97	503.22
501.14	491.51
501.32	423.64
501.49	468.11
501.67	468.11
501.84	444.70
502.02	421.30
502.20	468.11
502.37	496.19
502.55	440.02
502.72	390.87
502.90	423.64
503.07	367.46
503.25	479.81
503.43	395.55
503.60	301.93
503.78	313.63
503.95	367.46
504.13	330.02
504.30	297.25
504.48	320.65
504.65	376.83
504.83	360.44
505.01	358.10
505.18	294.91
505.36	374.49
505.53	351.08
505.71	346.40
505.88	360.44
506.06	320.65
506.23	362.78
506.41	266.82
506.58	311.29
506.76	255.12
506.93	374.49
507.11	362.78
507.28	250.44
507.46	276.18
507.63	383.85
507.81	266.82
507.98	344.06
508.16	332.36
508.33	358.10
508.50	344.06
508.68	344.06
508.85	367.46
509.03	297.25
509.20	299.59
509.38	348.74
509.55	297.25
509.73	306.61
509.90	327.68
510.08	257.46
510.25	269.16
510.42	290.23
510.60	337.04
510.77	287.89
510.95	285.55
511.12	320.65
511.30	362.78
511.47	292.57
511.64	276.18
511.82	236.39
511.99	250.44
512.17	301.93
512.34	259.80
512.51	271.50
512.69	290.23
512.86	383.85
513.04	285.55
513.21	313.63
513.38	276.18
513.56	332.36
513.73	287.89
513.90	243.42
514.08	177.88
514.25	306.61
514.43	287.89
514.60	327.68
514.77	259.80
514.95	259.80
515.12	294.91
515.29	283.20
515.47	304.27
515.64	348.74
515.81	304.27
515.99	344.06
516.16	290.23
516.33	255.12
516.51	266.82
516.68	283.20
516.85	332.36
517.03	287.89
517.20	273.84
517.37	208.31
517.54	376.83
517.72	264.48
517.89	220.01
518.06	236.39
518.24	330.02
518.41	332.36
518.58	231.71
518.75	238.73
518.93	231.71
519.10	278.52
519.27	294.91
519.45	269.16
519.62	327.68
519.79	306.61
519.96	229.37
520.14	217.67
520.31	304.27
520.48	287.89
520.65	283.20
520.83	304.27
521.00	245.76
521.17	250.44
521.34	280.86
521.52	320.65
521.69	280.86
521.86	278.52
522.03	348.74
522.20	269.16
522.38	215.33
522.55	334.70
522.72	234.05
522.89	231.71
523.07	344.06
523.24	271.50
523.41	271.50
523.58	280.86
523.75	217.67
523.92	346.40
524.10	234.05
524.27	318.31
524.44	248.10
524.61	280.86
524.78	292.57
524.96	315.97
525.13	283.20
525.30	332.36
525.47	222.35
525.64	322.99
525.81	327.68
525.98	201.29
526.16	334.70
526.33	290.23
526.50	346.40
526.67	280.86
526.84	224.69
527.01	301.93
527.18	315.97
527.36	292.57
527.53	348.74
527.70	337.04
527.87	294.91
528.04	355.76
528.21	301.93
528.38	395.55
528.55	339.38
528.72	395.55
528.89	400.23
529.07	322.99
529.24	308.95
529.41	358.10
529.58	360.44
529.75	346.40
529.92	344.06
530.09	346.40
530.26	365.12
530.43	330.02
530.60	334.70
530.77	322.99
530.94	411.93
531.11	358.10
531.28	332.36
531.46	287.89
531.63	308.95
531.80	390.87
531.97	404.91
532.14	433.00
532.31	543.00
532.48	587.47
532.65	540.66
532.82	653.01
532.99	744.29
533.16	814.51
533.33	901.11
533.50	842.59
533.67	657.69
533.84	660.03
534.01	557.05
534.18	566.41
534.35	610.88
534.52	566.41
534.69	545.34
534.86	587.47
535.03	596.84
535.20	638.97
535.37	638.97
535.54	662.37
535.71	638.97
535.88	739.61
536.05	807.48
536.22	840.25
536.38	847.27
536.55	917.49
536.72	1053.24
536.89	1121.12
537.06	1139.84
537.23	1306.02
537.40	1392.62
537.57	1460.49
537.74	1694.55
537.91	1610.29
538.08	1614.97
538.25	1661.78
538.42	1636.03
538.59	1629.01
538.75	1732.00
538.92	1846.68
539.09	2101.80
539.26	2270.32
539.43	2502.03
539.60	2843.75
539.77	3243.98
539.94	3496.76
540.11	3754.22
540.28	4215.30
540.44	4608.51
540.61	4938.53
540.78	5720.27
540.95	6815.64
541.12	8084.21
541.29	8872.97
541.46	9263.84
541.62	8823.82
541.79	8669.34
541.96	8037.40
542.13	7648.87
542.30	7047.35
542.47	6792.23
542.63	6424.77
542.80	6253.91
542.97	6282.00
543.14	6122.84
543.31	6171.99
543.48	6282.00
543.64	6441.15
543.81	6310.08
543.98	6382.64
544.15	6520.73
544.32	6539.46
544.48	6347.53
544.65	6340.51
544.82	6237.53
544.99	6232.85
545.16	6319.45
545.32	6890.54
545.49	13476.80
545.66	22457.44
545.83	24444.56
546.00	19499.00
546.16	13397.23
546.33	9980.04
546.50	7588.02
546.67	6239.87
546.83	5659.42
547.00	5380.89
547.17	5198.33
547.34	4873.00
547.50	4847.25
547.67	4561.70
547.84	4269.14
548.00	4161.47
548.17	4098.28
548.34	3953.16
548.51	3798.69
548.67	3632.51
548.84	3433.57
549.01	3377.39
549.18	3239.30
549.34	3012.27
549.51	2874.18
549.68	2906.95
549.84	2698.64
550.01	2616.72
550.18	2558.21
550.34	2502.03
550.51	2230.53
550.68	2310.11
550.84	2127.55
551.01	2010.52
551.18	2024.56
551.34	1799.87
551.51	1689.87
551.68	1678.16
551.84	1675.82
552.01	1523.69
552.18	1465.18
552.34	1500.28
552.51	1493.26
552.68	1359.85
552.84	1296.66
553.01	1317.72
553.18	1329.42
553.34	1306.02
553.51	1231.12
553.67	1174.95
553.84	1233.46
554.01	1053.24
554.17	903.45
554.34	919.83
554.51	936.21
554.67	816.85
554.84	816.85
555.00	763.01
555.17	676.41
555.33	760.67
555.50	727.91
555.67	732.59
555.83	692.80
556.00	709.18
556.16	793.44
556.33	674.07
556.50	629.60
556.66	606.20
556.83	613.22
556.99	528.96
557.16	489.17
557.32	568.75
557.49	514.92
557.65	608.54
557.82	479.81
557.98	500.87
558.15	451.72
558.32	531.30
558.48	437.68
558.65	451.72
558.81	545.34
558.98	514.92
559.14	477.47
559.31	456.40
559.47	458.74
559.64	437.68
559.80	475.13
559.97	374.49
560.13	479.81
560.30	444.70
560.46	383.85
560.63	351.08
560.79	390.87
560.96	458.74
561.12	470.45
561.29	503.22
561.45	468.11
561.61	463.43
561.78	571.09
561.94	423.64
562.11	472.79
562.27	407.25
562.44	386.19
562.60	409.59
562.77	407.25
562.93	507.90
563.10	360.44
563.26	416.62
563.42	348.74
563.59	353.42
563.75	362.78
563.92	367.46
564.08	414.27
564.24	351.08
564.41	463.43
564.57	390.87
564.74	381.51
564.90	402.57
565.07	369.80
565.23	381.51
565.39	409.59
565.56	411.93
565.72	376.83
565.88	407.25
566.05	351.08
566.21	255.12
566.38	358.10
566.54	299.59
566.70	388.53
566.87	358.10
567.03	444.70
567.19	355.76
567.36	376.83
567.52	318.31
567.68	334.70
567.85	322.99
568.01	353.42
568.17	334.70
568.34	290.23
568.50	421.30
568.66	332.36
568.83	430.66
568.99	437.68
569.15	341.72
569.32	306.61
569.48	290.23
569.64	315.97
569.81	465.77
569.97	334.70
570.13	393.21
570.30	344.06
570.46	320.65
570.62	320.65
570.78	311.29
570.95	264.48
571.11	264.48
571.27	418.96
571.43	287.89
571.60	308.95
571.76	341.72
571.92	365.12
572.09	320.65
572.25	301.93
572.41	238.73
572.57	299.59
572.74	365.12
572.90	367.46
573.06	301.93
573.22	372.15
573.38	362.78
573.55	304.27
573.71	322.99
573.87	425.98
574.03	283.20
574.20	273.84
574.36	372.15
574.52	362.78
574.68	360.44
574.84	327.68
575.01	325.33
575.17	360.44
575.33	341.72
575.49	395.55
575.65	456.40
575.82	451.72
575.98	442.36
576.14	484.49
576.30	1093.03
576.46	2995.89
576.62	3983.59
576.79	3808.05
576.95	2916.31
577.11	2040.95
577.27	1432.41
577.43	1088.35
577.59	828.55
577.75	699.82
577.92	653.01
578.08	627.26
578.24	643.65
578.40	1123.46
578.56	2930.35
578.72	3768.26
578.88	3679.32
579.04	2593.31
579.21	1940.30
579.37	1495.60
579.53	1268.57
579.69	1371.55
579.85	1493.26
580.01	1717.95
580.17	1533.05
580.33	1451.13
580.49	1287.29
580.65	1107.07
580.82	1062.60
580.98	1057.92
581.14	1090.69
581.30	1193.67
581.46	1221.76
581.62	1266.23
581.78	1322.40
581.94	1425.39
582.10	1472.20
582.26	1462.83
582.42	1593.90
582.58	1652.42
582.74	1624.33
582.90	1659.44
583.06	1664.12
583.22	1645.40
583.38	1708.59
583.54	1612.63
583.70	1717.95
583.86	1565.82
584.02	1526.03
584.18	1600.93
584.34	1570.50
584.50	1530.71
584.66	1504.96
584.82	1511.99
584.98	1345.81
585.14	1432.41
585.30	1495.60
585.46	1369.21
585.62	1324.74
585.78	1238.14
585.94	1401.98
586.10	1500.28
586.26	1570.50
586.42	1757.74
586.58	2017.54
586.74	2389.69
586.90	2827.37
587.06	3087.17
587.22	3019.29
587.38	2576.93
587.54	2253.94
587.70	1989.46
587.86	1671.14
588.02	1401.98
588.18	1329.42
588.34	1212.40
588.49	1165.59
588.65	1062.60
588.81	1008.77
588.97	957.28
589.13	1006.43
589.29	947.92
589.45	959.62
589.61	968.98
589.77	1001.75
589.93	1004.09
590.08	1032.18
590.24	1027.50
590.40	1107.07
590.56	1130.48
590.72	1128.14
590.88	1144.52
591.04	1320.06
591.20	1196.01
591.35	1254.53
591.51	1299.00
591.67	1366.87
591.83	1486.24
591.99	1535.39
592.15	1614.97
592.31	1741.36
592.46	1968.39
592.62	2106.48
592.78	2129.89
592.94	2237.55
593.10	1998.82
593.26	2094.78
593.41	1881.79
593.57	1694.55
593.73	1404.32
593.89	1357.51
594.05	1238.14
594.20	1146.86
594.36	1074.31
594.52	971.32
594.68	1020.47
594.84	922.17
594.99	994.73
595.15	936.21
595.31	894.08
595.47	938.55
595.62	861.32
595.78	854.30
595.94	924.51
596.10	847.27
596.25	823.87
596.41	922.17
596.57	966.64
596.73	791.10
596.88	830.89
597.04	957.28
597.20	875.36
597.36	936.21
597.51	1015.79
597.67	990.05
597.83	983.02
597.99	1081.33
598.14	1088.35
598.30	1135.16
598.46	1252.19
598.61	1193.67
598.77	1315.38
598.93	1327.08
599.09	1324.74
599.24	1357.51
599.40	1427.73
599.56	1334.11
599.71	1226.44
599.87	1174.95
600.03	1184.31
600.18	1008.77
600.34	1027.50
600.50	957.28
600.65	950.26
600.81	903.45
600.97	891.74
601.12	786.42
601.28	802.80
601.44	718.54
601.59	711.52
601.75	725.57
601.91	741.95
602.06	699.82
602.22	784.08
602.37	681.10
602.53	645.99
602.69	655.35
602.84	615.56
603.00	664.71
603.16	648.33
603.31	629.60
603.47	648.33
603.62	648.33
603.78	688.12
603.94	690.46
604.09	706.84
604.25	690.46
604.40	681.10
604.56	739.61
604.71	713.86
604.87	664.71
605.03	774.72
605.18	664.71
605.34	674.07
605.49	800.46
605.65	840.25
605.80	777.06
605.96	800.46
606.12	788.76
606.27	896.43
606.43	922.17
606.58	1011.11
606.74	1036.86
606.89	1015.79
607.05	1060.26
607.20	1109.41
607.36	1132.82
607.51	1270.91
607.67	1275.59
607.82	1371.55
607.98	1582.20
