SpectraSuite Data File
++++++++++++++++++++++++++++++++++++
Date: Fri Oct 04 11:41:40 GMT-05:00 2013
User: price-jones
Dark Spectrum Present: No
Reference Spectrum Present: No
Number of Sampled Component Spectra: 1
Spectrometers: USB2+H05261
Integration Time (usec): 100000 (USB2+H05261)
Spectra Averaged: 1 (USB2+H05261)
Boxcar Smoothing: 0 (USB2+H05261)
Correct for Electrical Dark: No (USB2+H05261)
Strobe/Lamp Enabled: No (USB2+H05261)
Correct for Detector Non-linearity: No (USB2+H05261)
Correct for Stray Light: No (USB2+H05261)
Number of Pixels in Processed Spectrum: 2048
>>>>>Begin Processed Spectral Data<<<<<
365.73	119.37
365.92	119.37
366.12	119.37
366.32	0.00
366.52	0.00
366.72	0.00
366.91	0.00
367.11	0.00
367.31	0.00
367.51	0.00
367.70	0.00
367.90	0.00
368.10	0.00
368.30	0.00
368.49	0.00
368.69	0.00
368.89	0.00
369.09	0.00
369.28	9.36
369.48	0.00
369.68	0.00
369.87	0.00
370.07	37.45
370.27	30.43
370.47	11.70
370.66	72.56
370.86	0.00
371.06	56.17
371.25	124.05
371.45	74.90
371.65	102.98
371.84	0.00
372.04	32.77
372.24	70.22
372.44	91.28
372.63	88.94
372.83	138.09
373.03	86.60
373.22	154.48
373.42	102.98
373.62	70.22
373.81	121.71
374.01	58.51
374.21	184.90
374.40	166.18
374.60	173.20
374.79	145.11
374.99	107.66
375.19	131.07
375.38	102.98
375.58	93.62
375.78	142.77
375.97	182.56
376.17	152.13
376.37	138.09
376.56	191.92
376.76	46.81
376.95	28.09
377.15	128.73
377.35	56.17
377.54	91.28
377.74	79.58
377.93	121.71
378.13	112.35
378.33	114.69
378.52	135.75
378.72	140.43
378.91	105.32
379.11	149.79
379.31	72.56
379.50	60.85
379.70	149.79
379.89	119.37
380.09	56.17
380.28	114.69
380.48	72.56
380.68	81.92
380.87	114.69
381.07	84.26
381.26	79.58
381.46	63.19
381.65	107.66
381.85	142.77
382.04	60.85
382.24	72.56
382.43	79.58
382.63	100.64
382.83	161.50
383.02	110.01
383.22	173.20
383.41	91.28
383.61	88.94
383.80	121.71
384.00	102.98
384.19	102.98
384.39	147.45
384.58	81.92
384.78	70.22
384.97	86.60
385.17	67.88
385.36	114.69
385.56	86.60
385.75	42.13
385.95	67.88
386.14	60.85
386.34	72.56
386.53	154.48
386.72	84.26
386.92	67.88
387.11	147.45
387.31	70.22
387.50	42.13
387.70	56.17
387.89	133.41
388.09	56.17
388.28	81.92
388.48	112.35
388.67	131.07
388.86	121.71
389.06	32.77
389.25	30.43
389.45	133.41
389.64	124.05
389.84	119.37
390.03	77.24
390.22	121.71
390.42	70.22
390.61	77.24
390.81	23.41
391.00	81.92
391.19	238.73
391.39	124.05
391.58	79.58
391.78	93.62
391.97	131.07
392.16	51.49
392.36	100.64
392.55	124.05
392.75	100.64
392.94	81.92
393.13	210.65
393.33	79.58
393.52	91.28
393.71	145.11
393.91	88.94
394.10	81.92
394.29	128.73
394.49	100.64
394.68	102.98
394.88	110.01
395.07	131.07
395.26	140.43
395.46	121.71
395.65	184.90
395.84	124.05
396.04	168.52
396.23	102.98
396.42	117.03
396.62	135.75
396.81	110.01
397.00	93.62
397.19	138.09
397.39	156.82
397.58	140.43
397.77	121.71
397.97	84.26
398.16	119.37
398.35	177.88
398.55	63.19
398.74	161.50
398.93	112.35
399.12	147.45
399.32	77.24
399.51	51.49
399.70	128.73
399.90	175.54
400.09	110.01
400.28	119.37
400.47	98.30
400.67	182.56
400.86	124.05
401.05	205.97
401.24	128.73
401.44	231.71
401.63	100.64
401.82	145.11
402.01	119.37
402.21	77.24
402.40	79.58
402.59	93.62
402.78	121.71
402.97	112.35
403.17	133.41
403.36	135.75
403.55	74.90
403.74	110.01
403.93	173.20
404.13	248.10
404.32	248.10
404.51	248.10
404.70	138.09
404.89	121.71
405.09	217.67
405.28	170.86
405.47	98.30
405.66	128.73
405.85	234.05
406.05	53.83
406.24	95.96
406.43	100.64
406.62	131.07
406.81	259.80
407.00	147.45
407.20	168.52
407.39	154.48
407.58	145.11
407.77	156.82
407.96	145.11
408.15	147.45
408.34	93.62
408.54	105.32
408.73	138.09
408.92	63.19
409.11	182.56
409.30	135.75
409.49	135.75
409.68	91.28
409.87	156.82
410.07	88.94
410.26	149.79
410.45	91.28
410.64	46.81
410.83	72.56
411.02	95.96
411.21	156.82
411.40	128.73
411.59	114.69
411.78	124.05
411.98	95.96
412.17	88.94
412.36	133.41
412.55	81.92
412.74	84.26
412.93	105.32
413.12	140.43
413.31	159.16
413.50	170.86
413.69	114.69
413.88	163.84
414.07	222.35
414.26	105.32
414.45	154.48
414.64	93.62
414.83	117.03
415.02	191.92
415.22	135.75
415.41	187.24
415.60	88.94
415.79	117.03
415.98	224.69
416.17	152.13
416.36	154.48
416.55	156.82
416.74	184.90
416.93	112.35
417.12	154.48
417.31	117.03
417.50	161.50
417.69	191.92
417.88	147.45
418.07	156.82
418.26	170.86
418.45	117.03
418.64	212.99
418.83	175.54
419.02	154.48
419.21	126.39
419.39	156.82
419.58	117.03
419.77	121.71
419.96	112.35
420.15	121.71
420.34	154.48
420.53	128.73
420.72	182.56
420.91	119.37
421.10	102.98
421.29	58.51
421.48	180.22
421.67	154.48
421.86	140.43
422.05	234.05
422.24	77.24
422.43	208.31
422.61	107.66
422.80	133.41
422.99	133.41
423.18	145.11
423.37	222.35
423.56	175.54
423.75	138.09
423.94	140.43
424.13	60.85
424.32	124.05
424.50	208.31
424.69	128.73
424.88	210.65
425.07	86.60
425.26	196.60
425.45	149.79
425.64	100.64
425.83	194.26
426.01	208.31
426.20	128.73
426.39	102.98
426.58	100.64
426.77	156.82
426.96	131.07
427.15	194.26
427.33	100.64
427.52	168.52
427.71	161.50
427.90	201.29
428.09	128.73
428.28	149.79
428.46	135.75
428.65	147.45
428.84	194.26
429.03	203.63
429.22	159.16
429.40	98.30
429.59	159.16
429.78	152.13
429.97	105.32
430.16	102.98
430.34	201.29
430.53	133.41
430.72	128.73
430.91	203.63
431.10	135.75
431.28	131.07
431.47	227.03
431.66	170.86
431.85	100.64
432.03	182.56
432.22	184.90
432.41	154.48
432.60	198.95
432.79	147.45
432.97	161.50
433.16	194.26
433.35	175.54
433.54	191.92
433.72	166.18
433.91	210.65
434.10	95.96
434.28	182.56
434.47	159.16
434.66	128.73
434.85	154.48
435.03	301.93
435.22	709.18
435.41	1256.87
435.59	1336.45
435.78	903.45
435.97	512.58
436.16	322.99
436.34	271.50
436.53	210.65
436.72	168.52
436.90	154.48
437.09	231.71
437.28	203.63
437.46	168.52
437.65	161.50
437.84	154.48
438.02	70.22
438.21	154.48
438.40	135.75
438.58	147.45
438.77	102.98
438.96	140.43
439.14	84.26
439.33	191.92
439.52	208.31
439.70	191.92
439.89	119.37
440.08	182.56
440.26	203.63
440.45	147.45
440.63	145.11
440.82	191.92
441.01	95.96
441.19	156.82
441.38	152.13
441.57	154.48
441.75	168.52
441.94	191.92
442.12	149.79
442.31	168.52
442.50	224.69
442.68	133.41
442.87	203.63
443.05	163.84
443.24	198.95
443.43	177.88
443.61	175.54
443.80	163.84
443.98	128.73
444.17	205.97
444.35	93.62
444.54	231.71
444.73	93.62
444.91	114.69
445.10	227.03
445.28	187.24
445.47	152.13
445.65	91.28
445.84	180.22
446.02	231.71
446.21	210.65
446.39	166.18
446.58	248.10
446.77	163.84
446.95	234.05
447.14	114.69
447.32	215.33
447.51	161.50
447.69	163.84
447.88	163.84
448.06	224.69
448.25	147.45
448.43	198.95
448.62	114.69
448.80	175.54
448.99	163.84
449.17	145.11
449.36	194.26
449.54	180.22
449.73	166.18
449.91	245.76
450.10	194.26
450.28	161.50
450.46	243.42
450.65	212.99
450.83	145.11
451.02	173.20
451.20	205.97
451.39	163.84
451.57	184.90
451.76	170.86
451.94	166.18
452.13	208.31
452.31	163.84
452.49	124.05
452.68	140.43
452.86	149.79
453.05	241.08
453.23	196.60
453.42	133.41
453.60	248.10
453.78	161.50
453.97	145.11
454.15	105.32
454.34	222.35
454.52	224.69
454.70	163.84
454.89	231.71
455.07	196.60
455.26	126.39
455.44	152.13
455.62	196.60
455.81	201.29
455.99	175.54
456.17	121.71
456.36	168.52
456.54	177.88
456.73	166.18
456.91	229.37
457.09	112.35
457.28	205.97
457.46	135.75
457.64	117.03
457.83	196.60
458.01	191.92
458.19	152.13
458.38	196.60
458.56	262.14
458.74	117.03
458.93	191.92
459.11	128.73
459.29	196.60
459.48	121.71
459.66	231.71
459.84	238.73
460.03	283.20
460.21	177.88
460.39	252.78
460.57	196.60
460.76	180.22
460.94	201.29
461.12	173.20
461.31	234.05
461.49	170.86
461.67	236.39
461.85	145.11
462.04	149.79
462.22	355.76
462.40	187.24
462.59	114.69
462.77	257.46
462.95	180.22
463.13	173.20
463.32	161.50
463.50	180.22
463.68	210.65
463.86	173.20
464.05	191.92
464.23	241.08
464.41	208.31
464.59	189.58
464.78	126.39
464.96	271.50
465.14	243.42
465.32	222.35
465.50	208.31
465.69	170.86
465.87	135.75
466.05	163.84
466.23	142.77
466.41	110.01
466.60	156.82
466.78	163.84
466.96	201.29
467.14	133.41
467.32	231.71
467.51	163.84
467.69	231.71
467.87	175.54
468.05	180.22
468.23	255.12
468.41	245.76
468.60	210.65
468.78	273.84
468.96	194.26
469.14	222.35
469.32	79.58
469.50	154.48
469.69	297.25
469.87	156.82
470.05	173.20
470.23	128.73
470.41	98.30
470.59	112.35
470.77	128.73
470.95	231.71
471.14	140.43
471.32	138.09
471.50	231.71
471.68	159.16
471.86	191.92
472.04	180.22
472.22	187.24
472.40	210.65
472.58	191.92
472.77	175.54
472.95	173.20
473.13	203.63
473.31	175.54
473.49	175.54
473.67	163.84
473.85	191.92
474.03	140.43
474.21	180.22
474.39	241.08
474.57	168.52
474.75	238.73
474.93	149.79
475.12	168.52
475.30	205.97
475.48	161.50
475.66	276.18
475.84	203.63
476.02	196.60
476.20	224.69
476.38	180.22
476.56	222.35
476.74	234.05
476.92	135.75
477.10	170.86
477.28	220.01
477.46	212.99
477.64	161.50
477.82	266.82
478.00	224.69
478.18	145.11
478.36	177.88
478.54	180.22
478.72	95.96
478.90	203.63
479.08	189.58
479.26	184.90
479.44	182.56
479.62	241.08
479.80	194.26
479.98	138.09
480.16	198.95
480.34	220.01
480.52	161.50
480.70	245.76
480.88	152.13
481.06	215.33
481.24	205.97
481.41	262.14
481.59	287.89
481.77	220.01
481.95	191.92
482.13	217.67
482.31	255.12
482.49	191.92
482.67	269.16
482.85	311.29
483.03	250.44
483.21	238.73
483.39	222.35
483.57	217.67
483.74	271.50
483.92	212.99
484.10	238.73
484.28	278.52
484.46	358.10
484.64	280.86
484.82	334.70
485.00	290.23
485.18	332.36
485.35	290.23
485.53	294.91
485.71	341.72
485.89	297.25
486.07	322.99
486.25	358.10
486.43	304.27
486.61	346.40
486.78	330.02
486.96	290.23
487.14	285.55
487.32	334.70
487.50	332.36
487.68	318.31
487.85	327.68
488.03	330.02
488.21	337.04
488.39	294.91
488.57	313.63
488.75	348.74
488.92	585.13
489.10	304.27
489.28	334.70
489.46	306.61
489.64	304.27
489.81	318.31
489.99	315.97
490.17	283.20
490.35	390.87
490.53	313.63
490.70	337.04
490.88	362.78
491.06	381.51
491.24	344.06
491.41	381.51
491.59	304.27
491.77	369.80
491.95	241.08
492.13	339.38
492.30	327.68
492.48	318.31
492.66	283.20
492.84	250.44
493.01	341.72
493.19	269.16
493.37	229.37
493.54	304.27
493.72	220.01
493.90	229.37
494.08	308.95
494.25	334.70
494.43	306.61
494.61	203.63
494.79	271.50
494.96	238.73
495.14	266.82
495.32	248.10
495.49	280.86
495.67	351.08
495.85	241.08
496.02	292.57
496.20	299.59
496.38	313.63
496.55	299.59
496.73	257.46
496.91	236.39
497.09	339.38
497.26	278.52
497.44	201.29
497.62	276.18
497.79	250.44
497.97	266.82
498.14	299.59
498.32	269.16
498.50	276.18
498.67	290.23
498.85	252.78
499.03	257.46
499.20	166.18
499.38	243.42
499.56	290.23
499.73	301.93
499.91	266.82
500.08	351.08
500.26	290.23
500.44	241.08
500.61	271.50
500.79	276.18
500.97	257.46
501.14	264.48
501.32	236.39
501.49	227.03
501.67	229.37
501.84	262.14
502.02	227.03
502.20	290.23
502.37	287.89
502.55	252.78
502.72	152.13
502.90	252.78
503.07	215.33
503.25	152.13
503.43	147.45
503.60	294.91
503.78	278.52
503.95	259.80
504.13	257.46
504.30	266.82
504.48	325.33
504.65	257.46
504.83	306.61
505.01	212.99
505.18	227.03
505.36	220.01
505.53	280.86
505.71	255.12
505.88	287.89
506.06	234.05
506.23	205.97
506.41	220.01
506.58	212.99
506.76	252.78
506.93	234.05
507.11	205.97
507.28	184.90
507.46	215.33
507.63	287.89
507.81	222.35
507.98	217.67
508.16	248.10
508.33	217.67
508.50	304.27
508.68	241.08
508.85	245.76
509.03	220.01
509.20	229.37
509.38	262.14
509.55	227.03
509.73	351.08
509.90	325.33
510.08	259.80
510.25	257.46
510.42	273.84
510.60	201.29
510.77	196.60
510.95	245.76
511.12	255.12
511.30	208.31
511.47	224.69
511.64	287.89
511.82	262.14
511.99	236.39
512.17	250.44
512.34	257.46
512.51	217.67
512.69	196.60
512.86	308.95
513.04	236.39
513.21	212.99
513.38	257.46
513.56	212.99
513.73	180.22
513.90	220.01
514.08	168.52
514.25	227.03
514.43	198.95
514.60	236.39
514.77	224.69
514.95	264.48
515.12	212.99
515.29	191.92
515.47	224.69
515.64	187.24
515.81	229.37
515.99	337.04
516.16	236.39
516.33	297.25
516.51	273.84
516.68	227.03
516.85	215.33
517.03	229.37
517.20	236.39
517.37	297.25
517.54	308.95
517.72	234.05
517.89	266.82
518.06	250.44
518.24	257.46
518.41	325.33
518.58	266.82
518.75	238.73
518.93	203.63
519.10	229.37
519.27	243.42
519.45	278.52
519.62	227.03
519.79	243.42
519.96	196.60
520.14	224.69
520.31	257.46
520.48	255.12
520.65	210.65
520.83	250.44
521.00	252.78
521.17	224.69
521.34	231.71
521.52	241.08
521.69	294.91
521.86	224.69
522.03	280.86
522.20	271.50
522.38	276.18
522.55	205.97
522.72	224.69
522.89	278.52
523.07	344.06
523.24	238.73
523.41	210.65
523.58	262.14
523.75	248.10
523.92	187.24
524.10	269.16
524.27	304.27
524.44	269.16
524.61	280.86
524.78	285.55
524.96	266.82
525.13	306.61
525.30	269.16
525.47	236.39
525.64	243.42
525.81	276.18
525.98	257.46
526.16	184.90
526.33	140.43
526.50	231.71
526.67	184.90
526.84	273.84
527.01	285.55
527.18	259.80
527.36	220.01
527.53	243.42
527.70	262.14
527.87	224.69
528.04	330.02
528.21	187.24
528.38	278.52
528.55	308.95
528.72	341.72
528.89	315.97
529.07	269.16
529.24	294.91
529.41	299.59
529.58	287.89
529.75	224.69
529.92	325.33
530.09	327.68
530.26	299.59
530.43	290.23
530.60	276.18
530.77	315.97
530.94	290.23
531.11	196.60
531.28	290.23
531.46	220.01
531.63	290.23
531.80	241.08
531.97	196.60
532.14	250.44
532.31	238.73
532.48	222.35
532.65	227.03
532.82	255.12
532.99	322.99
533.16	330.02
533.33	358.10
533.50	299.59
533.67	290.23
533.84	367.46
534.01	276.18
534.18	285.55
534.35	238.73
534.52	381.51
534.69	449.38
534.86	337.04
535.03	283.20
535.20	308.95
535.37	320.65
535.54	248.10
535.71	280.86
535.88	353.42
536.05	318.31
536.22	374.49
536.38	311.29
536.55	360.44
536.72	390.87
536.89	285.55
537.06	365.12
537.23	423.64
537.40	425.98
537.57	395.55
537.74	407.25
537.91	461.09
538.08	477.47
538.25	447.04
538.42	414.27
538.59	404.91
538.75	552.37
538.92	465.77
539.09	519.60
539.26	451.72
539.43	550.03
539.60	559.39
539.77	690.46
539.94	676.41
540.11	720.88
540.28	774.72
540.44	828.55
540.61	823.87
540.78	929.19
540.95	994.73
541.12	1334.11
541.29	1455.81
541.46	1453.47
541.62	1280.27
541.79	1359.85
541.96	1294.32
542.13	1329.42
542.30	1263.89
542.47	1231.12
542.63	1266.23
542.80	1214.74
542.97	1261.55
543.14	1247.51
543.31	1212.40
543.48	1097.71
543.64	1203.04
543.81	1132.82
543.98	1165.59
544.15	1177.29
544.32	1088.35
544.48	1179.63
544.65	1177.29
544.82	1043.88
544.99	1125.80
545.16	1142.18
545.32	1163.25
545.49	1844.34
545.66	2775.88
545.83	3426.54
546.00	3059.08
546.16	2176.70
546.33	1600.93
546.50	1254.53
546.67	1034.52
546.83	964.30
547.00	884.72
547.17	961.96
547.34	786.42
547.50	875.36
547.67	809.83
547.84	711.52
548.00	875.36
548.17	704.50
548.34	763.01
548.51	828.55
548.67	709.18
548.84	566.41
549.01	718.54
549.18	657.69
549.34	617.90
549.51	636.63
549.68	720.88
549.84	540.66
550.01	550.03
550.18	662.37
550.34	622.58
550.51	547.69
550.68	519.60
550.84	491.51
551.01	526.62
551.18	528.96
551.34	456.40
551.51	505.56
551.68	526.62
551.84	505.56
552.01	409.59
552.18	521.94
552.34	479.81
552.51	463.43
552.68	404.91
552.84	400.23
553.01	440.02
553.18	409.59
553.34	411.93
553.51	421.30
553.67	449.38
553.84	411.93
554.01	339.38
554.17	290.23
554.34	351.08
554.51	297.25
554.67	388.53
554.84	351.08
555.00	255.12
555.17	297.25
555.33	351.08
555.50	341.72
555.67	313.63
555.83	304.27
556.00	311.29
556.16	397.89
556.33	318.31
556.50	353.42
556.66	334.70
556.83	327.68
556.99	238.73
557.16	273.84
557.32	180.22
557.49	259.80
557.65	266.82
557.82	210.65
557.98	255.12
558.15	269.16
558.32	273.84
558.48	287.89
558.65	229.37
558.81	299.59
558.98	334.70
559.14	315.97
559.31	255.12
559.47	280.86
559.64	276.18
559.80	266.82
559.97	210.65
560.13	257.46
560.30	170.86
560.46	262.14
560.63	278.52
560.79	248.10
560.96	304.27
561.12	255.12
561.29	238.73
561.45	245.76
561.61	266.82
561.78	390.87
561.94	332.36
562.11	292.57
562.27	327.68
562.44	269.16
562.60	266.82
562.77	243.42
562.93	351.08
563.10	259.80
563.26	250.44
563.42	297.25
563.59	348.74
563.75	224.69
563.92	297.25
564.08	285.55
564.24	278.52
564.41	330.02
564.57	236.39
564.74	266.82
564.90	234.05
565.07	304.27
565.23	257.46
565.39	180.22
565.56	292.57
565.72	250.44
565.88	259.80
566.05	184.90
566.21	259.80
566.38	264.48
566.54	220.01
566.70	266.82
566.87	236.39
567.03	294.91
567.19	325.33
567.36	266.82
567.52	215.33
567.68	248.10
567.85	229.37
568.01	238.73
568.17	227.03
568.34	203.63
568.50	259.80
568.66	212.99
568.83	355.76
568.99	257.46
569.15	262.14
569.32	271.50
569.48	140.43
569.64	257.46
569.81	299.59
569.97	301.93
570.13	262.14
570.30	210.65
570.46	238.73
570.62	222.35
570.78	220.01
570.95	248.10
571.11	308.95
571.27	257.46
571.43	182.56
571.60	290.23
571.76	243.42
571.92	250.44
572.09	201.29
572.25	325.33
572.41	271.50
572.57	201.29
572.74	325.33
572.90	238.73
573.06	292.57
573.22	276.18
573.38	229.37
573.55	255.12
573.71	330.02
573.87	222.35
574.03	236.39
574.20	203.63
574.36	318.31
574.52	241.08
574.68	297.25
574.84	241.08
575.01	175.54
575.17	252.78
575.33	311.29
575.49	194.26
575.65	266.82
575.82	245.76
575.98	234.05
576.14	304.27
576.30	367.46
576.46	517.26
576.62	718.54
576.79	802.80
576.95	655.35
577.11	552.37
577.27	444.70
577.43	365.12
577.59	320.65
577.75	440.02
577.92	280.86
578.08	252.78
578.24	297.25
578.40	283.20
578.56	533.64
578.72	779.40
578.88	779.40
579.04	636.63
579.21	465.77
579.37	416.62
579.53	411.93
579.69	381.51
579.85	414.27
580.01	468.11
580.17	425.98
580.33	477.47
580.49	418.96
580.65	395.55
580.82	294.91
580.98	330.02
581.14	381.51
581.30	325.33
581.46	414.27
581.62	423.64
581.78	388.53
581.94	421.30
582.10	465.77
582.26	463.43
582.42	451.72
582.58	421.30
582.74	381.51
582.90	524.28
583.06	472.79
583.22	477.47
583.38	468.11
583.54	425.98
583.70	514.92
583.86	435.34
584.02	477.47
584.18	510.24
584.34	411.93
584.50	484.49
584.66	451.72
584.82	397.89
584.98	482.15
585.14	381.51
585.30	430.66
585.46	454.06
585.62	360.44
585.78	442.36
585.94	395.55
586.10	379.17
586.26	360.44
586.42	514.92
586.58	440.02
586.74	486.83
586.90	636.63
587.06	685.78
587.22	709.18
587.38	638.97
587.54	543.00
587.70	514.92
587.86	472.79
588.02	423.64
588.18	351.08
588.34	372.15
588.49	320.65
588.65	290.23
588.81	461.09
588.97	292.57
589.13	337.04
589.29	290.23
589.45	360.44
589.61	400.23
589.77	367.46
589.93	337.04
590.08	308.95
590.24	308.95
590.40	355.76
590.56	381.51
590.72	341.72
590.88	311.29
591.04	344.06
591.20	334.70
591.35	465.77
591.51	330.02
591.67	337.04
591.83	351.08
591.99	388.53
592.15	395.55
592.31	468.11
592.46	533.64
592.62	489.17
592.78	514.92
592.94	514.92
593.10	505.56
593.26	496.19
593.41	491.51
593.57	423.64
593.73	409.59
593.89	404.91
594.05	451.72
594.20	397.89
594.36	353.42
594.52	287.89
594.68	250.44
594.84	292.57
594.99	306.61
595.15	346.40
595.31	259.80
595.47	294.91
595.62	348.74
595.78	325.33
595.94	346.40
596.10	397.89
596.25	332.36
596.41	264.48
596.57	294.91
596.73	318.31
596.88	362.78
597.04	320.65
597.20	337.04
597.36	355.76
597.51	325.33
597.67	278.52
597.83	318.31
597.99	304.27
598.14	393.21
598.30	353.42
598.46	271.50
598.61	355.76
598.77	334.70
598.93	365.12
599.09	360.44
599.24	318.31
599.40	400.23
599.56	393.21
599.71	458.74
599.87	411.93
600.03	367.46
600.18	287.89
600.34	299.59
600.50	320.65
600.65	308.95
600.81	386.19
600.97	266.82
601.12	285.55
601.28	294.91
601.44	212.99
601.59	262.14
601.75	301.93
601.91	348.74
602.06	266.82
602.22	320.65
602.37	280.86
602.53	297.25
602.69	271.50
602.84	264.48
603.00	294.91
603.16	299.59
603.31	259.80
603.47	297.25
603.62	318.31
603.78	229.37
603.94	266.82
604.09	344.06
604.25	315.97
604.40	290.23
604.56	208.31
604.71	330.02
604.87	313.63
605.03	294.91
605.18	243.42
605.34	348.74
605.49	376.83
605.65	299.59
605.80	259.80
605.96	388.53
606.12	280.86
606.27	320.65
606.43	374.49
606.58	353.42
606.74	334.70
606.89	222.35
607.05	332.36
607.20	339.38
607.36	327.68
607.51	301.93
607.67	393.21
607.82	322.99
607.98	477.47
608.13	353.42
608.29	477.47
608.44	512.58
608.60	540.66
608.75	521.94
608.91	535.98
609.06	545.34
609.22	608.54
609.37	608.54
609.53	667.05
609.68	676.41
609.84	774.72
609.99	910.47
610.15	1039.20
610.30	1277.93
610.46	1504.96
610.61	1973.07
610.76	2303.09
610.92	2738.43
611.07	3187.81
611.23	3166.74
