SpectraSuite Data File
++++++++++++++++++++++++++++++++++++
Date: Fri Oct 04 11:42:01 GMT-05:00 2013
User: price-jones
Dark Spectrum Present: No
Reference Spectrum Present: No
Number of Sampled Component Spectra: 1
Spectrometers: USB2+H05261
Integration Time (usec): 100000 (USB2+H05261)
Spectra Averaged: 1 (USB2+H05261)
Boxcar Smoothing: 0 (USB2+H05261)
Correct for Electrical Dark: No (USB2+H05261)
Strobe/Lamp Enabled: No (USB2+H05261)
Correct for Detector Non-linearity: No (USB2+H05261)
Correct for Stray Light: No (USB2+H05261)
Number of Pixels in Processed Spectrum: 2048
>>>>>Begin Processed Spectral Data<<<<<
365.73	44.47
365.92	44.47
366.12	44.47
366.32	0.00
366.52	0.00
366.72	9.36
366.91	0.00
367.11	0.00
367.31	0.00
367.51	0.00
367.70	0.00
367.90	9.36
368.10	0.00
368.30	0.00
368.49	0.00
368.69	0.00
368.89	0.00
369.09	0.00
369.28	2.34
369.48	0.00
369.68	0.00
369.87	0.00
370.07	0.00
370.27	51.49
370.47	79.58
370.66	0.00
370.86	0.00
371.06	110.01
371.25	98.30
371.45	49.15
371.65	142.77
371.84	46.81
372.04	119.37
372.24	166.18
372.44	65.54
372.63	154.48
372.83	180.22
373.03	105.32
373.22	51.49
373.42	180.22
373.62	74.90
373.81	133.41
374.01	159.16
374.21	105.32
374.40	110.01
374.60	138.09
374.79	133.41
374.99	117.03
375.19	201.29
375.38	105.32
375.58	100.64
375.78	135.75
375.97	126.39
376.17	145.11
376.37	184.90
376.56	121.71
376.76	154.48
376.95	84.26
377.15	88.94
377.35	173.20
377.54	184.90
377.74	205.97
377.93	114.69
378.13	198.95
378.33	189.58
378.52	140.43
378.72	93.62
378.91	170.86
379.11	107.66
379.31	102.98
379.50	201.29
379.70	161.50
379.89	86.60
380.09	175.54
380.28	98.30
380.48	110.01
380.68	107.66
380.87	81.92
381.07	142.77
381.26	170.86
381.46	145.11
381.65	145.11
381.85	128.73
382.04	105.32
382.24	107.66
382.43	72.56
382.63	102.98
382.83	107.66
383.02	212.99
383.22	201.29
383.41	114.69
383.61	245.76
383.80	194.26
384.00	135.75
384.19	131.07
384.39	107.66
384.58	142.77
384.78	126.39
384.97	51.49
385.17	147.45
385.36	91.28
385.56	163.84
385.75	60.85
385.95	119.37
386.14	100.64
386.34	112.35
386.53	149.79
386.72	170.86
386.92	133.41
387.11	205.97
387.31	208.31
387.50	100.64
387.70	110.01
387.89	142.77
388.09	140.43
388.28	131.07
388.48	135.75
388.67	126.39
388.86	126.39
389.06	152.13
389.25	156.82
389.45	114.69
389.64	175.54
389.84	191.92
390.03	135.75
390.22	147.45
390.42	159.16
390.61	110.01
390.81	119.37
391.00	131.07
391.19	105.32
391.39	105.32
391.58	126.39
391.78	112.35
391.97	105.32
392.16	93.62
392.36	170.86
392.55	140.43
392.75	131.07
392.94	166.18
393.13	154.48
393.33	124.05
393.52	98.30
393.71	187.24
393.91	91.28
394.10	67.88
394.29	147.45
394.49	114.69
394.68	121.71
394.88	126.39
395.07	189.58
395.26	119.37
395.46	102.98
395.65	180.22
395.84	210.65
396.04	147.45
396.23	140.43
396.42	42.13
396.62	210.65
396.81	121.71
397.00	81.92
397.19	107.66
397.39	102.98
397.58	166.18
397.77	51.49
397.97	100.64
398.16	156.82
398.35	205.97
398.55	124.05
398.74	149.79
398.93	166.18
399.12	81.92
399.32	98.30
399.51	110.01
399.70	149.79
399.90	156.82
400.09	77.24
400.28	252.78
400.47	56.17
400.67	149.79
400.86	177.88
401.05	187.24
401.24	198.95
401.44	177.88
401.63	262.14
401.82	142.77
402.01	145.11
402.21	166.18
402.40	245.76
402.59	152.13
402.78	168.52
402.97	180.22
403.17	231.71
403.36	245.76
403.55	325.33
403.74	690.46
403.93	2092.44
404.13	5128.11
404.32	6970.12
404.51	6197.74
404.70	3861.88
404.89	1423.05
405.09	514.92
405.28	306.61
405.47	102.98
405.66	248.10
405.85	271.50
406.05	191.92
406.24	215.33
406.43	142.77
406.62	159.16
406.81	227.03
407.00	292.57
407.20	608.54
407.39	931.53
407.58	983.02
407.77	774.72
407.96	393.21
408.15	203.63
408.34	173.20
408.54	154.48
408.73	196.60
408.92	142.77
409.11	227.03
409.30	248.10
409.49	163.84
409.68	210.65
409.87	145.11
410.07	135.75
410.26	173.20
410.45	205.97
410.64	161.50
410.83	140.43
411.02	234.05
411.21	205.97
411.40	243.42
411.59	217.67
411.78	163.84
411.98	191.92
412.17	196.60
412.36	205.97
412.55	124.05
412.74	229.37
412.93	208.31
413.12	203.63
413.31	203.63
413.50	184.90
413.69	177.88
413.88	266.82
414.07	210.65
414.26	173.20
414.45	227.03
414.64	252.78
414.83	248.10
415.02	238.73
415.22	236.39
415.41	259.80
415.60	231.71
415.79	191.92
415.98	290.23
416.17	180.22
416.36	318.31
416.55	236.39
416.74	252.78
416.93	301.93
417.12	248.10
417.31	250.44
417.50	355.76
417.69	222.35
417.88	184.90
418.07	220.01
418.26	243.42
418.45	224.69
418.64	234.05
418.83	325.33
419.02	262.14
419.21	224.69
419.39	266.82
419.58	353.42
419.77	187.24
419.96	337.04
420.15	271.50
420.34	311.29
420.53	287.89
420.72	292.57
420.91	264.48
421.10	308.95
421.29	315.97
421.48	322.99
421.67	395.55
421.86	299.59
422.05	259.80
422.24	306.61
422.43	320.65
422.61	276.18
422.80	266.82
422.99	252.78
423.18	313.63
423.37	353.42
423.56	248.10
423.75	243.42
423.94	294.91
424.13	332.36
424.32	285.55
424.50	257.46
424.69	337.04
424.88	285.55
425.07	259.80
425.26	313.63
425.45	339.38
425.64	362.78
425.83	283.20
426.01	344.06
426.20	330.02
426.39	308.95
426.58	322.99
426.77	348.74
426.96	430.66
427.15	322.99
427.33	344.06
427.52	365.12
427.71	322.99
427.90	280.86
428.09	280.86
428.28	358.10
428.46	358.10
428.65	311.29
428.84	425.98
429.03	334.70
429.22	379.17
429.40	348.74
429.59	285.55
429.78	381.51
429.97	332.36
430.16	339.38
430.34	353.42
430.53	308.95
430.72	344.06
430.91	325.33
431.10	320.65
431.28	397.89
431.47	418.96
431.66	449.38
431.85	344.06
432.03	425.98
432.22	425.98
432.41	348.74
432.60	477.47
432.79	411.93
432.97	496.19
433.16	416.62
433.35	531.30
433.54	627.26
433.72	610.88
433.91	575.77
434.10	671.73
434.28	884.72
434.47	938.55
434.66	1090.69
434.85	1226.44
435.03	3243.98
435.22	12416.54
435.41	28746.46
435.59	32694.94
435.78	20954.82
435.97	10120.48
436.16	3913.38
436.34	1425.39
436.53	870.68
436.72	697.48
436.90	613.22
437.09	573.43
437.28	552.37
437.46	400.23
437.65	491.51
437.84	535.98
438.02	484.49
438.21	482.15
438.40	477.47
438.58	503.22
438.77	482.15
438.96	470.45
439.14	451.72
439.33	465.77
439.52	376.83
439.70	407.25
439.89	451.72
440.08	456.40
440.26	500.87
440.45	442.36
440.63	430.66
440.82	451.72
441.01	526.62
441.19	475.13
441.38	390.87
441.57	414.27
441.75	414.27
441.94	442.36
442.12	442.36
442.31	411.93
442.50	468.11
442.68	437.68
442.87	514.92
443.05	468.11
443.24	559.39
443.43	479.81
443.61	376.83
443.80	407.25
443.98	463.43
444.17	458.74
444.35	470.45
444.54	421.30
444.73	440.02
444.91	444.70
445.10	383.85
445.28	458.74
445.47	463.43
445.65	496.19
445.84	454.06
446.02	447.04
446.21	486.83
446.39	465.77
446.58	440.02
446.77	376.83
446.95	369.80
447.14	390.87
447.32	545.34
447.51	437.68
447.69	428.32
447.88	409.59
448.06	559.39
448.25	416.62
448.43	404.91
448.62	344.06
448.80	437.68
448.99	435.34
449.17	486.83
449.36	386.19
449.54	578.11
449.73	451.72
449.91	491.51
450.10	482.15
450.28	463.43
450.46	519.60
450.65	465.77
450.83	411.93
451.02	409.59
451.20	557.05
451.39	479.81
451.57	458.74
451.76	440.02
451.94	393.21
452.13	463.43
452.31	507.90
452.49	428.32
452.68	510.24
452.86	437.68
453.05	449.38
453.23	430.66
453.42	437.68
453.60	402.57
453.78	414.27
453.97	379.17
454.15	447.04
454.34	369.80
454.52	411.93
454.70	489.17
454.89	531.30
455.07	365.12
455.26	484.49
455.44	451.72
455.62	402.57
455.81	379.17
455.99	388.53
456.17	468.11
456.36	437.68
456.54	454.06
456.73	388.53
456.91	468.11
457.09	433.00
457.28	491.51
457.46	472.79
457.64	505.56
457.83	421.30
458.01	367.46
458.19	526.62
458.38	421.30
458.56	447.04
458.74	468.11
458.93	447.04
459.11	435.34
459.29	451.72
459.48	493.85
459.66	449.38
459.84	468.11
460.03	484.49
460.21	388.53
460.39	423.64
460.57	430.66
460.76	442.36
460.94	442.36
461.12	477.47
461.31	503.22
461.49	320.65
461.67	362.78
461.85	327.68
462.04	510.24
462.22	842.59
462.40	489.17
462.59	418.96
462.77	388.53
462.95	468.11
463.13	374.49
463.32	440.02
463.50	433.00
463.68	395.55
463.86	425.98
464.05	358.10
464.23	493.85
464.41	491.51
464.59	442.36
464.78	484.49
464.96	386.19
465.14	425.98
465.32	388.53
465.50	365.12
465.69	416.62
465.87	355.76
466.05	325.33
466.23	318.31
466.41	418.96
466.60	540.66
466.78	503.22
466.96	470.45
467.14	491.51
467.32	479.81
467.51	437.68
467.69	407.25
467.87	365.12
468.05	393.21
468.23	489.17
468.41	442.36
468.60	458.74
468.78	376.83
468.96	402.57
469.14	341.72
469.32	360.44
469.50	395.55
469.69	365.12
469.87	360.44
470.05	390.87
470.23	425.98
470.41	414.27
470.59	367.46
470.77	395.55
470.95	425.98
471.14	393.21
471.32	425.98
471.50	482.15
471.68	383.85
471.86	425.98
472.04	404.91
472.22	414.27
472.40	430.66
472.58	463.43
472.77	386.19
472.95	395.55
473.13	440.02
473.31	442.36
473.49	402.57
473.67	379.17
473.85	482.15
474.03	454.06
474.21	383.85
474.39	423.64
474.57	465.77
474.75	428.32
474.93	428.32
475.12	430.66
475.30	416.62
475.48	297.25
475.66	376.83
475.84	386.19
476.02	327.68
476.20	418.96
476.38	461.09
476.56	491.51
476.74	479.81
476.92	369.80
477.10	409.59
477.28	489.17
477.46	472.79
477.64	458.74
477.82	437.68
478.00	388.53
478.18	425.98
478.36	430.66
478.54	444.70
478.72	496.19
478.90	496.19
479.08	475.13
479.26	533.64
479.44	521.94
479.62	489.17
479.80	599.18
479.98	543.00
480.16	594.50
480.34	582.79
480.52	603.86
480.70	718.54
480.88	681.10
481.06	786.42
481.24	814.51
481.41	849.61
481.59	812.17
481.77	917.49
481.95	915.15
482.13	987.71
482.31	997.07
482.49	1090.69
482.67	1165.59
482.85	1214.74
483.03	1406.66
483.21	1444.11
483.39	1528.37
483.57	1556.46
483.74	1748.38
483.92	1689.87
484.10	1881.79
484.28	1851.36
484.46	2066.69
484.64	2108.82
484.82	2298.41
485.00	2307.77
485.18	2438.84
485.35	2813.32
485.53	2651.83
485.71	2796.94
485.89	3054.40
486.07	3012.27
486.25	3089.51
486.43	3056.74
486.61	2981.84
486.78	3012.27
486.96	3143.34
487.14	3108.23
487.32	3122.27
487.50	3042.70
487.68	2925.67
487.85	2963.12
488.03	2764.17
488.21	2988.86
488.39	2953.76
488.57	2780.56
488.75	2792.26
488.92	2986.52
489.10	2691.62
489.28	2581.61
489.46	2614.38
489.64	2436.50
489.81	2518.42
489.99	2387.35
490.17	2420.11
490.35	2441.18
490.53	2349.90
490.70	2459.90
490.88	2275.00
491.06	2466.92
491.24	2672.89
491.41	2712.68
491.59	2476.29
491.77	2319.47
491.95	2319.47
492.13	2172.02
492.30	2106.48
492.48	2120.53
492.66	2143.93
492.84	2087.76
493.01	2141.59
493.19	1991.80
493.37	2054.99
493.54	2054.99
493.72	2024.56
493.90	1919.24
494.08	1928.60
494.25	1933.28
494.43	1874.77
494.61	1715.61
494.79	1741.36
494.96	1762.42
495.14	1706.25
495.32	1692.21
495.49	1657.10
495.67	1666.46
495.85	1561.14
496.02	1603.27
496.20	1561.14
496.38	1575.18
496.55	1493.26
496.73	1582.20
496.91	1409.00
497.09	1315.38
497.26	1455.81
497.44	1486.24
497.62	1425.39
497.79	1434.75
497.97	1362.19
498.14	1205.38
498.32	1287.29
498.50	1219.42
498.67	1233.46
498.85	1259.21
499.03	1153.88
499.20	1055.58
499.38	1032.18
499.56	1123.46
499.73	1139.84
499.91	1090.69
500.08	980.68
500.26	1060.26
500.44	987.71
500.61	978.34
500.79	910.47
500.97	868.34
501.14	910.47
501.32	875.36
501.49	896.43
501.67	866.00
501.84	805.14
502.02	720.88
502.20	741.95
502.37	774.72
502.55	786.42
502.72	688.12
502.90	631.94
503.07	716.20
503.25	648.33
503.43	613.22
503.60	617.90
503.78	622.58
503.95	573.43
504.13	606.20
504.30	620.24
504.48	561.73
504.65	660.03
504.83	559.39
505.01	557.05
505.18	540.66
505.36	477.47
505.53	514.92
505.71	552.37
505.88	566.41
506.06	428.32
506.23	503.22
506.41	543.00
506.58	519.60
506.76	535.98
506.93	409.59
507.11	486.83
507.28	486.83
507.46	500.87
507.63	489.17
507.81	493.85
507.98	397.89
508.16	463.43
508.33	456.40
508.50	479.81
508.68	461.09
508.85	421.30
509.03	493.85
509.20	514.92
509.38	416.62
509.55	543.00
509.73	479.81
509.90	531.30
510.08	430.66
510.25	425.98
510.42	454.06
510.60	404.91
510.77	395.55
510.95	507.90
511.12	430.66
511.30	447.04
511.47	440.02
511.64	479.81
511.82	425.98
511.99	397.89
512.17	437.68
512.34	404.91
512.51	449.38
512.69	503.22
512.86	517.26
513.04	362.78
513.21	472.79
513.38	472.79
513.56	411.93
513.73	449.38
513.90	376.83
514.08	351.08
514.25	477.47
514.43	430.66
514.60	388.53
514.77	402.57
514.95	386.19
515.12	362.78
515.29	390.87
515.47	365.12
515.64	374.49
515.81	362.78
515.99	397.89
516.16	421.30
516.33	500.87
516.51	442.36
516.68	372.15
516.85	456.40
517.03	327.68
517.20	407.25
517.37	367.46
517.54	402.57
517.72	353.42
517.89	301.93
518.06	400.23
518.24	369.80
518.41	463.43
518.58	386.19
518.75	381.51
518.93	339.38
519.10	341.72
519.27	386.19
519.45	341.72
519.62	416.62
519.79	430.66
519.96	327.68
520.14	367.46
520.31	423.64
520.48	402.57
520.65	409.59
520.83	402.57
521.00	341.72
521.17	355.76
521.34	365.12
521.52	304.27
521.69	348.74
521.86	458.74
522.03	355.76
522.20	393.21
522.38	358.10
522.55	409.59
522.72	390.87
522.89	367.46
523.07	411.93
523.24	390.87
523.41	397.89
523.58	304.27
523.75	442.36
523.92	390.87
524.10	447.04
524.27	374.49
524.44	339.38
524.61	421.30
524.78	344.06
524.96	376.83
525.13	386.19
525.30	388.53
525.47	447.04
525.64	351.08
525.81	433.00
525.98	397.89
526.16	416.62
526.33	334.70
526.50	416.62
526.67	430.66
526.84	390.87
527.01	390.87
527.18	447.04
527.36	440.02
527.53	538.32
527.70	521.94
527.87	451.72
528.04	540.66
528.21	496.19
528.38	461.09
528.55	524.28
528.72	512.58
528.89	507.90
529.07	393.21
529.24	414.27
529.41	493.85
529.58	425.98
529.75	428.32
529.92	491.51
530.09	491.51
530.26	538.32
530.43	524.28
530.60	545.34
530.77	566.41
530.94	564.07
531.11	638.97
531.28	575.77
531.46	608.54
531.63	594.50
531.80	713.86
531.97	711.52
532.14	821.53
532.31	873.02
532.48	1041.54
532.65	1245.16
532.82	1533.05
532.99	1647.74
533.16	1820.94
533.33	1973.07
533.50	1774.13
533.67	1619.65
533.84	1306.02
534.01	1217.08
534.18	1156.22
534.35	1088.35
534.52	1053.24
534.69	1160.91
534.86	1203.04
535.03	1287.29
535.20	1359.85
535.37	1404.32
535.54	1387.94
535.71	1507.30
535.88	1507.30
536.05	1586.88
536.22	1802.21
536.38	1966.05
536.55	2059.67
536.72	2389.69
536.89	2513.74
537.06	2789.92
537.23	3164.40
537.40	3433.57
537.57	3775.28
537.74	4035.08
537.91	4035.08
538.08	4170.83
538.25	4229.35
538.42	4266.80
538.59	4498.51
538.75	4538.30
538.92	4821.50
539.09	5331.74
539.26	5731.97
539.43	6597.97
539.60	7424.18
539.77	8416.57
539.94	9242.78
540.11	10209.42
540.28	11360.96
540.44	12477.40
540.61	13493.19
540.78	15815.00
540.95	18611.94
541.12	22871.72
541.29	26022.08
541.46	26625.93
541.62	26438.69
541.79	25429.92
541.96	23426.42
542.13	21956.57
542.30	20510.11
542.47	19131.54
542.63	18319.37
542.80	17617.21
542.97	17355.07
543.14	17413.59
543.31	17083.57
543.48	17483.80
543.64	17975.31
543.81	17914.46
543.98	17813.82
544.15	17706.15
544.32	18090.00
544.48	18169.58
544.65	18106.38
544.82	17804.46
544.99	17809.14
545.16	17919.14
545.32	19051.96
545.49	31220.41
545.66	54520.44
545.83	61450.77
546.00	57279.93
546.16	43449.70
546.33	31749.37
546.50	23711.97
546.67	18064.25
546.83	16350.98
547.00	15358.60
547.17	14815.59
547.34	14272.59
547.50	13455.74
547.67	12858.90
547.84	12503.14
548.00	12039.72
548.17	11754.17
548.34	11185.42
548.51	10846.04
548.67	10300.70
548.84	9696.84
549.01	9341.08
549.18	8795.73
549.34	8388.48
549.51	8201.24
549.68	7852.50
549.84	7723.77
550.01	7255.66
550.18	6925.65
550.34	6796.92
550.51	6204.76
550.68	6097.10
550.84	5731.97
551.01	5373.87
551.18	5284.93
551.34	4933.85
551.51	4732.56
551.68	4561.70
551.84	4477.44
552.01	4217.65
552.18	4121.68
552.34	3763.58
552.51	3789.33
552.68	3487.40
552.84	3419.52
553.01	3241.64
553.18	3272.07
553.34	3122.27
553.51	3019.29
553.67	2970.14
553.84	2855.45
554.01	2548.84
554.17	2413.09
554.34	2237.55
554.51	2127.55
554.67	2040.95
554.84	1926.26
555.00	1851.36
555.17	1830.30
555.33	1717.95
555.50	1619.65
555.67	1537.73
555.83	1451.13
556.00	1385.60
556.16	1493.26
556.33	1401.98
556.50	1357.51
556.66	1254.53
556.83	1263.89
556.99	1181.97
557.16	1151.54
557.32	1109.41
557.49	1130.48
557.65	973.66
557.82	1050.90
557.98	1149.20
558.15	1018.13
558.32	924.51
558.48	945.58
558.65	933.87
558.81	933.87
558.98	901.11
559.14	847.27
559.31	770.04
559.47	835.57
559.64	823.87
559.80	919.83
559.97	823.87
560.13	805.14
560.30	774.72
560.46	753.65
560.63	636.63
560.79	833.23
560.96	786.42
561.12	718.54
561.29	744.29
561.45	638.97
561.61	779.40
561.78	912.81
561.94	711.52
562.11	737.27
562.27	746.63
562.44	828.55
562.60	713.86
562.77	753.65
562.93	770.04
563.10	760.67
563.26	760.67
563.42	718.54
563.59	643.65
563.75	636.63
563.92	627.26
564.08	704.50
564.24	697.48
564.41	753.65
564.57	671.73
564.74	617.90
564.90	622.58
565.07	692.80
565.23	601.52
565.39	564.07
565.56	690.46
565.72	667.05
565.88	561.73
566.05	496.19
566.21	613.22
566.38	627.26
566.54	587.47
566.70	582.79
566.87	606.20
567.03	617.90
567.19	554.71
567.36	711.52
567.52	622.58
567.68	660.03
567.85	610.88
568.01	671.73
568.17	622.58
568.34	645.99
568.50	674.07
568.66	692.80
568.83	760.67
568.99	559.39
569.15	667.05
569.32	559.39
569.48	524.28
569.64	528.96
569.81	535.98
569.97	517.26
570.13	510.24
570.30	482.15
570.46	545.34
570.62	510.24
570.78	514.92
570.95	421.30
571.11	454.06
571.27	484.49
571.43	442.36
571.60	479.81
571.76	489.17
571.92	524.28
572.09	512.58
572.25	433.00
572.41	393.21
572.57	493.85
572.74	531.30
572.90	451.72
573.06	470.45
573.22	475.13
573.38	505.56
573.55	500.87
573.71	638.97
573.87	538.32
574.03	491.51
574.20	503.22
574.36	620.24
574.52	547.69
574.68	578.11
574.84	624.92
575.01	681.10
575.17	709.18
575.33	744.29
575.49	770.04
575.65	842.59
575.82	880.04
575.98	933.87
576.14	1064.94
576.30	2146.27
576.46	6417.75
576.62	11815.02
576.79	13603.19
576.95	9329.38
577.11	6026.88
577.27	4271.48
577.43	2923.33
577.59	1879.45
577.75	1476.88
577.92	1425.39
578.08	1343.47
578.24	1390.28
578.40	2076.06
578.56	5853.68
578.72	10654.12
578.88	11854.81
579.04	8762.97
579.21	5893.47
579.37	4503.19
579.53	3379.73
579.69	3218.24
579.85	4044.45
580.01	4606.17
580.17	4456.38
580.33	3878.27
580.49	3358.67
580.65	2871.84
580.82	2731.41
580.98	2703.32
581.14	2719.70
581.30	2902.26
581.46	2930.35
581.62	3183.13
581.78	3370.37
581.94	3735.50
582.10	3976.57
582.26	4269.14
582.42	4418.93
582.58	4404.89
582.74	4580.43
582.90	4720.86
583.06	4620.22
583.22	4526.60
583.38	4603.83
583.54	4425.95
583.70	4594.47
583.86	4421.27
584.02	4381.48
584.18	4313.61
584.34	4154.45
584.50	4154.45
584.66	4217.65
584.82	4025.72
584.98	4074.87
585.14	3953.16
585.30	3974.23
585.46	3936.78
585.62	3838.48
585.78	3817.41
585.94	3812.73
586.10	3850.18
586.26	4140.41
586.42	4751.29
586.58	5490.90
586.74	6740.74
586.90	8203.58
587.06	9107.02
587.22	8765.31
587.38	7920.37
587.54	6876.49
587.70	5781.12
587.86	4910.44
588.02	4196.58
588.18	3744.86
588.34	3403.14
588.49	3094.19
588.65	2967.80
588.81	2733.75
588.97	2705.66
589.13	2583.95
589.29	2476.29
589.45	2612.04
589.61	2572.25
589.77	2644.81
589.93	2520.76
590.08	2597.99
590.24	2651.83
590.40	2787.58
590.56	2967.80
590.72	2988.86
590.88	3000.57
591.04	3023.97
591.20	3246.32
591.35	3300.16
591.51	3508.46
591.67	3728.47
591.83	3962.53
591.99	4198.92
592.15	4706.82
592.31	4870.65
592.46	5357.49
592.62	5923.90
592.78	6085.39
592.94	6291.36
593.10	6230.51
593.26	5998.79
593.41	5661.76
593.57	4968.96
593.73	4554.68
593.89	4007.00
594.05	3463.99
594.20	3129.30
594.36	2878.86
594.52	2647.15
594.68	2532.46
594.84	2483.31
594.99	2389.69
595.15	2354.58
595.31	2317.13
595.47	2305.43
595.62	2267.98
595.78	2310.11
595.94	2291.38
596.10	2300.75
596.25	2370.96
596.41	2310.11
596.57	2249.25
596.73	2256.28
596.88	2279.68
597.04	2232.87
597.20	2237.55
597.36	2242.23
597.51	2340.54
597.67	2478.63
597.83	2677.57
597.99	2750.13
598.14	2799.28
598.30	2923.33
598.46	3316.54
598.61	3452.29
598.77	3541.23
598.93	3758.90
599.09	3922.74
599.24	3899.33
599.40	3815.07
599.56	3768.26
599.71	3592.72
599.87	3321.22
600.03	3176.11
600.18	2932.69
600.34	2860.13
600.50	2544.16
600.65	2534.80
600.81	2356.92
600.97	2211.81
601.12	2031.58
601.28	2031.58
601.44	1877.11
601.59	1767.10
601.75	1809.23
601.91	1722.63
602.06	1685.19
602.22	1657.10
602.37	1521.35
602.53	1530.71
602.69	1514.33
602.84	1572.84
603.00	1563.48
603.16	1584.54
603.31	1617.31
603.47	1537.73
603.62	1542.41
603.78	1619.65
603.94	1607.95
604.09	1696.89
604.25	1746.04
604.40	1825.62
604.56	1806.89
604.71	1774.13
604.87	1820.94
605.03	1893.49
605.18	1809.23
