SpectraSuite Data File
++++++++++++++++++++++++++++++++++++
Date: Fri Oct 04 11:41:43 GMT-05:00 2013
User: price-jones
Dark Spectrum Present: No
Reference Spectrum Present: No
Number of Sampled Component Spectra: 1
Spectrometers: USB2+H05261
Integration Time (usec): 100000 (USB2+H05261)
Spectra Averaged: 1 (USB2+H05261)
Boxcar Smoothing: 0 (USB2+H05261)
Correct for Electrical Dark: No (USB2+H05261)
Strobe/Lamp Enabled: No (USB2+H05261)
Correct for Detector Non-linearity: No (USB2+H05261)
Correct for Stray Light: No (USB2+H05261)
Number of Pixels in Processed Spectrum: 2048
>>>>>Begin Processed Spectral Data<<<<<
365.73	60.85
365.92	60.85
366.12	60.85
366.32	0.00
366.52	0.00
366.72	0.00
366.91	0.00
367.11	0.00
367.31	0.00
367.51	0.00
367.70	0.00
367.90	0.00
368.10	0.00
368.30	0.00
368.49	0.00
368.69	0.00
368.89	0.00
369.09	0.00
369.28	0.00
369.48	0.00
369.68	0.00
369.87	21.06
370.07	0.00
370.27	9.36
370.47	56.17
370.66	42.13
370.86	44.47
371.06	74.90
371.25	131.07
371.45	88.94
371.65	112.35
371.84	105.32
372.04	102.98
372.24	110.01
372.44	93.62
372.63	93.62
372.83	100.64
373.03	72.56
373.22	140.43
373.42	119.37
373.62	107.66
373.81	140.43
374.01	126.39
374.21	182.56
374.40	102.98
374.60	182.56
374.79	102.98
374.99	140.43
375.19	184.90
375.38	140.43
375.58	128.73
375.78	152.13
375.97	149.79
376.17	205.97
376.37	128.73
376.56	159.16
376.76	203.63
376.95	81.92
377.15	114.69
377.35	140.43
377.54	114.69
377.74	107.66
377.93	84.26
378.13	154.48
378.33	112.35
378.52	189.58
378.72	117.03
378.91	182.56
379.11	110.01
379.31	65.54
379.50	79.58
379.70	145.11
379.89	208.31
380.09	32.77
380.28	74.90
380.48	100.64
380.68	105.32
380.87	100.64
381.07	107.66
381.26	121.71
381.46	208.31
381.65	161.50
381.85	131.07
382.04	128.73
382.24	114.69
382.43	156.82
382.63	152.13
382.83	117.03
383.02	145.11
383.22	149.79
383.41	126.39
383.61	84.26
383.80	147.45
384.00	110.01
384.19	140.43
384.39	91.28
384.58	114.69
384.78	110.01
384.97	166.18
385.17	133.41
385.36	187.24
385.56	117.03
385.75	177.88
385.95	126.39
386.14	133.41
386.34	147.45
386.53	100.64
386.72	100.64
386.92	121.71
387.11	170.86
387.31	205.97
387.50	105.32
387.70	49.15
387.89	149.79
388.09	112.35
388.28	124.05
388.48	149.79
388.67	163.84
388.86	149.79
389.06	72.56
389.25	117.03
389.45	187.24
389.64	88.94
389.84	102.98
390.03	173.20
390.22	140.43
390.42	184.90
390.61	117.03
390.81	142.77
391.00	110.01
391.19	156.82
391.39	105.32
391.58	156.82
391.78	168.52
391.97	138.09
392.16	44.47
392.36	163.84
392.55	102.98
392.75	100.64
392.94	154.48
393.13	198.95
393.33	156.82
393.52	119.37
393.71	201.29
393.91	147.45
394.10	131.07
394.29	93.62
394.49	117.03
394.68	166.18
394.88	142.77
395.07	217.67
395.26	170.86
395.46	170.86
395.65	102.98
395.84	145.11
396.04	173.20
396.23	191.92
396.42	119.37
396.62	177.88
396.81	138.09
397.00	110.01
397.19	107.66
397.39	131.07
397.58	191.92
397.77	152.13
397.97	177.88
398.16	173.20
398.35	203.63
398.55	147.45
398.74	212.99
398.93	217.67
399.12	107.66
399.32	140.43
399.51	72.56
399.70	180.22
399.90	236.39
400.09	184.90
400.28	191.92
400.47	161.50
400.67	191.92
400.86	161.50
401.05	112.35
401.24	187.24
401.44	191.92
401.63	198.95
401.82	255.12
402.01	191.92
402.21	227.03
402.40	227.03
402.59	177.88
402.78	170.86
402.97	231.71
403.17	255.12
403.36	360.44
403.55	451.72
403.74	692.80
403.93	2333.51
404.13	6106.46
404.32	10417.72
404.51	11564.59
404.70	7569.29
404.89	2612.04
405.09	713.86
405.28	386.19
405.47	245.76
405.66	306.61
405.85	234.05
406.05	236.39
406.24	259.80
406.43	231.71
406.62	252.78
406.81	264.48
407.00	477.47
407.20	720.88
407.39	1329.42
407.58	1748.38
407.77	1196.01
407.96	617.90
408.15	266.82
408.34	203.63
408.54	203.63
408.73	252.78
408.92	290.23
409.11	220.01
409.30	210.65
409.49	166.18
409.68	250.44
409.87	243.42
410.07	170.86
410.26	266.82
410.45	234.05
410.64	290.23
410.83	259.80
411.02	292.57
411.21	259.80
411.40	220.01
411.59	262.14
411.78	297.25
411.98	283.20
412.17	212.99
412.36	287.89
412.55	292.57
412.74	315.97
412.93	229.37
413.12	234.05
413.31	271.50
413.50	278.52
413.69	353.42
413.88	271.50
414.07	273.84
414.26	280.86
414.45	257.46
414.64	320.65
414.83	276.18
415.02	266.82
415.22	339.38
415.41	337.04
415.60	294.91
415.79	325.33
415.98	285.55
416.17	334.70
416.36	341.72
416.55	327.68
416.74	334.70
416.93	372.15
417.12	351.08
417.31	255.12
417.50	208.31
417.69	351.08
417.88	381.51
418.07	308.95
418.26	236.39
418.45	306.61
418.64	355.76
418.83	299.59
419.02	269.16
419.21	346.40
419.39	428.32
419.58	334.70
419.77	306.61
419.96	311.29
420.15	397.89
420.34	397.89
420.53	332.36
420.72	315.97
420.91	362.78
421.10	416.62
421.29	383.85
421.48	355.76
421.67	353.42
421.86	360.44
422.05	372.15
422.24	393.21
422.43	362.78
422.61	278.52
422.80	379.17
422.99	311.29
423.18	407.25
423.37	362.78
423.56	358.10
423.75	418.96
423.94	418.96
424.13	322.99
424.32	339.38
424.50	475.13
424.69	402.57
424.88	430.66
425.07	379.17
425.26	440.02
425.45	430.66
425.64	437.68
425.83	475.13
426.01	456.40
426.20	493.85
426.39	423.64
426.58	430.66
426.77	386.19
426.96	437.68
427.15	418.96
427.33	397.89
427.52	437.68
427.71	437.68
427.90	498.53
428.09	444.70
428.28	365.12
428.46	475.13
428.65	496.19
428.84	512.58
429.03	479.81
429.22	456.40
429.40	442.36
429.59	454.06
429.78	578.11
429.97	533.64
430.16	468.11
430.34	454.06
430.53	454.06
430.72	491.51
430.91	585.13
431.10	475.13
431.28	535.98
431.47	545.34
431.66	552.37
431.85	552.37
432.03	627.26
432.22	617.90
432.41	571.09
432.60	585.13
432.79	667.05
432.97	657.69
433.16	702.16
433.35	802.80
433.54	849.61
433.72	877.70
433.91	908.13
434.10	990.05
434.28	1177.29
434.47	1418.36
434.66	1584.54
434.85	1881.79
435.03	4119.34
435.22	15197.10
435.41	38167.12
435.59	53373.58
435.78	45240.21
435.97	18958.34
436.16	6960.75
436.34	2326.49
436.53	1254.53
436.72	973.66
436.90	917.49
437.09	741.95
437.28	748.97
437.46	732.59
437.65	692.80
437.84	748.97
438.02	660.03
438.21	725.57
438.40	582.79
438.58	643.65
438.77	685.78
438.96	615.56
439.14	566.41
439.33	643.65
439.52	631.94
439.70	645.99
439.89	653.01
440.08	622.58
440.26	596.84
440.45	601.52
440.63	627.26
440.82	678.76
441.01	662.37
441.19	667.05
441.38	575.77
441.57	603.86
441.75	643.65
441.94	620.24
442.12	587.47
442.31	622.58
442.50	641.31
442.68	638.97
442.87	596.84
443.05	514.92
443.24	655.35
443.43	741.95
443.61	706.84
443.80	678.76
443.98	631.94
444.17	638.97
444.35	730.25
444.54	748.97
444.73	634.29
444.91	660.03
445.10	589.82
445.28	667.05
445.47	678.76
445.65	650.67
445.84	547.69
446.02	723.23
446.21	620.24
446.39	678.76
446.58	641.31
446.77	613.22
446.95	610.88
447.14	629.60
447.32	613.22
447.51	601.52
447.69	587.47
447.88	655.35
448.06	692.80
448.25	573.43
448.43	648.33
448.62	650.67
448.80	641.31
448.99	664.71
449.17	638.97
449.36	564.07
449.54	608.54
449.73	664.71
449.91	596.84
450.10	592.16
450.28	627.26
450.46	732.59
450.65	657.69
450.83	629.60
451.02	603.86
451.20	596.84
451.39	531.30
451.57	681.10
451.76	615.56
451.94	648.33
452.13	606.20
452.31	566.41
452.49	650.67
452.68	599.18
452.86	624.92
453.05	662.37
453.23	671.73
453.42	603.86
453.60	566.41
453.78	599.18
453.97	571.09
454.15	561.73
454.34	596.84
454.52	571.09
454.70	631.94
454.89	660.03
455.07	514.92
455.26	601.52
455.44	688.12
455.62	629.60
455.81	653.01
455.99	585.13
456.17	575.77
456.36	603.86
456.54	582.79
456.73	559.39
456.91	638.97
457.09	613.22
457.28	650.67
457.46	631.94
457.64	622.58
457.83	606.20
458.01	624.92
458.19	650.67
458.38	634.29
458.56	676.41
458.74	657.69
458.93	519.60
459.11	580.45
459.29	601.52
459.48	634.29
459.66	685.78
459.84	559.39
460.03	601.52
460.21	592.16
460.39	601.52
460.57	606.20
460.76	667.05
460.94	638.97
461.12	671.73
461.31	667.05
461.49	657.69
461.67	585.13
461.85	603.86
462.04	550.03
462.22	751.31
462.40	580.45
462.59	589.82
462.77	557.05
462.95	601.52
463.13	599.18
463.32	627.26
463.50	631.94
463.68	578.11
463.86	601.52
464.05	636.63
464.23	575.77
464.41	704.50
464.59	585.13
464.78	683.44
464.96	643.65
465.14	617.90
465.32	519.60
465.50	585.13
465.69	524.28
465.87	554.71
466.05	615.56
466.23	521.94
466.41	655.35
466.60	636.63
466.78	622.58
466.96	608.54
467.14	660.03
467.32	603.86
467.51	622.58
467.69	608.54
467.87	580.45
468.05	538.32
468.23	650.67
468.41	491.51
468.60	533.64
468.78	531.30
468.96	559.39
469.14	543.00
469.32	571.09
469.50	585.13
469.69	500.87
469.87	615.56
470.05	629.60
470.23	496.19
470.41	484.49
470.59	582.79
470.77	496.19
470.95	564.07
471.14	648.33
471.32	594.50
471.50	596.84
471.68	629.60
471.86	592.16
472.04	592.16
472.22	521.94
472.40	582.79
472.58	585.13
472.77	575.77
472.95	554.71
473.13	603.86
473.31	638.97
473.49	589.82
473.67	592.16
473.85	589.82
474.03	615.56
474.21	554.71
474.39	552.37
474.57	550.03
474.75	620.24
474.93	587.47
475.12	493.85
475.30	571.09
475.48	629.60
475.66	610.88
475.84	589.82
476.02	603.86
476.20	599.18
476.38	559.39
476.56	622.58
476.74	578.11
476.92	486.83
477.10	582.79
477.28	629.60
477.46	599.18
477.64	669.39
477.82	645.99
478.00	615.56
478.18	629.60
478.36	645.99
478.54	603.86
478.72	580.45
478.90	739.61
479.08	748.97
479.26	744.29
479.44	751.31
479.62	807.48
479.80	800.46
479.98	849.61
480.16	873.02
480.34	889.40
480.52	873.02
480.70	957.28
480.88	950.26
481.06	985.37
481.24	1078.99
481.41	1060.26
481.59	1217.08
481.77	1263.89
481.95	1371.55
482.13	1472.20
482.31	1451.13
482.49	1596.25
482.67	1720.29
482.85	1858.39
483.03	1970.73
483.21	2104.14
483.39	2153.29
483.57	2476.29
483.74	2459.90
483.92	2628.42
484.10	2846.09
484.28	2906.95
484.46	3087.17
484.64	3344.63
484.82	3473.36
485.00	3751.88
485.18	3838.48
485.35	4124.02
485.53	4297.22
485.71	4346.37
485.89	4622.56
486.07	4634.26
486.25	4847.25
486.43	4905.76
486.61	4954.91
486.78	4798.10
486.96	4933.85
487.14	5001.72
487.32	4889.38
487.50	4800.44
487.68	4849.59
487.85	4805.12
488.03	4755.97
488.21	4599.15
488.39	4545.32
488.57	4631.92
488.75	4187.22
488.92	4337.01
489.10	4119.34
489.28	3875.93
489.46	4009.34
489.64	3971.89
489.81	3885.29
489.99	3581.02
490.17	3779.97
490.35	3737.84
490.53	3566.98
490.70	3742.52
490.88	3737.84
491.06	3733.15
491.24	4016.36
491.41	4297.22
491.59	3946.14
491.77	3597.40
491.95	3461.65
492.13	3442.93
492.30	3379.73
492.48	3337.60
492.66	3204.19
492.84	3218.24
493.01	3108.23
493.19	3150.36
493.37	3040.36
493.54	2935.03
493.72	2981.84
493.90	2977.16
494.08	2937.37
494.25	2895.24
494.43	2822.69
494.61	2628.42
494.79	2693.96
494.96	2626.08
495.14	2635.44
495.32	2499.69
495.49	2513.74
495.67	2555.86
495.85	2541.82
496.02	2434.16
496.20	2380.32
496.38	2422.45
496.55	2377.98
496.73	2345.22
496.91	2223.51
497.09	2263.30
497.26	2169.68
497.44	2153.29
497.62	2099.46
497.79	2052.65
497.97	1888.81
498.14	1989.46
498.32	1884.13
498.50	1806.89
498.67	1940.30
498.85	1767.10
499.03	1706.25
499.20	1640.72
499.38	1774.13
499.56	1657.10
499.73	1673.48
499.91	1572.84
500.08	1610.29
500.26	1511.99
500.44	1423.05
500.61	1277.93
500.79	1310.70
500.97	1299.00
501.14	1289.64
501.32	1249.85
501.49	1177.29
501.67	1060.26
501.84	1174.95
502.02	1034.52
502.20	1046.22
502.37	1015.79
502.55	1011.11
502.72	915.15
502.90	959.62
503.07	976.00
503.25	945.58
503.43	964.30
503.60	835.57
503.78	791.10
503.95	875.36
504.13	863.66
504.30	821.53
504.48	866.00
504.65	788.76
504.83	788.76
505.01	741.95
505.18	695.14
505.36	793.44
505.53	690.46
505.71	699.82
505.88	739.61
506.06	704.50
506.23	702.16
506.41	716.20
506.58	674.07
506.76	638.97
506.93	662.37
507.11	650.67
507.28	690.46
507.46	606.20
507.63	671.73
507.81	692.80
507.98	610.88
508.16	641.31
508.33	620.24
508.50	599.18
508.68	594.50
508.85	730.25
509.03	671.73
509.20	748.97
509.38	620.24
509.55	624.92
509.73	599.18
509.90	564.07
510.08	603.86
510.25	587.47
510.42	608.54
510.60	578.11
510.77	589.82
510.95	596.84
511.12	566.41
511.30	526.62
511.47	571.09
511.64	559.39
511.82	543.00
511.99	631.94
512.17	475.13
512.34	559.39
512.51	498.53
512.69	496.19
512.86	648.33
513.04	564.07
513.21	554.71
513.38	512.58
513.56	573.43
513.73	425.98
513.90	479.81
514.08	521.94
514.25	510.24
514.43	493.85
514.60	479.81
514.77	402.57
514.95	496.19
515.12	475.13
515.29	477.47
515.47	491.51
515.64	461.09
515.81	442.36
515.99	472.79
516.16	489.17
516.33	468.11
516.51	433.00
516.68	519.60
516.85	526.62
517.03	440.02
517.20	484.49
517.37	423.64
517.54	425.98
517.72	423.64
517.89	449.38
518.06	383.85
518.24	411.93
518.41	500.87
518.58	510.24
518.75	381.51
518.93	463.43
519.10	500.87
519.27	362.78
519.45	355.76
519.62	435.34
519.79	409.59
519.96	428.32
520.14	411.93
520.31	369.80
520.48	465.77
520.65	386.19
520.83	395.55
521.00	472.79
521.17	365.12
521.34	430.66
521.52	421.30
521.69	346.40
521.86	433.00
522.03	369.80
522.20	512.58
522.38	365.12
522.55	479.81
522.72	367.46
522.89	414.27
523.07	463.43
523.24	367.46
523.41	421.30
523.58	442.36
523.75	414.27
523.92	362.78
524.10	470.45
524.27	454.06
524.44	386.19
524.61	409.59
524.78	489.17
524.96	486.83
525.13	491.51
525.30	463.43
525.47	418.96
525.64	507.90
525.81	458.74
525.98	517.26
526.16	458.74
526.33	456.40
526.50	514.92
526.67	493.85
526.84	461.09
527.01	491.51
527.18	608.54
527.36	645.99
527.53	582.79
527.70	638.97
527.87	524.28
528.04	582.79
528.21	528.96
528.38	564.07
528.55	554.71
528.72	514.92
528.89	601.52
529.07	662.37
529.24	575.77
529.41	622.58
529.58	606.20
529.75	645.99
529.92	660.03
530.09	608.54
530.26	695.14
530.43	753.65
530.60	645.99
530.77	671.73
530.94	706.84
531.11	741.95
531.28	826.21
531.46	774.72
531.63	856.64
531.80	915.15
531.97	945.58
532.14	1036.86
532.31	1289.64
532.48	1523.69
532.65	1792.85
532.82	1970.73
532.99	2342.88
533.16	2761.83
533.33	2923.33
533.50	2881.20
533.67	2326.49
533.84	2054.99
534.01	1743.70
534.18	1614.97
534.35	1586.88
534.52	1540.07
534.69	1668.80
534.86	1706.25
535.03	1689.87
535.20	1802.21
535.37	1891.15
535.54	1912.22
535.71	2069.03
535.88	2225.85
536.05	2422.45
536.22	2888.22
536.38	2815.66
536.55	3152.70
536.72	3384.41
536.89	3908.69
537.06	4341.69
537.23	4798.10
537.40	5385.57
537.57	5804.53
537.74	6218.80
537.91	6450.52
538.08	6544.14
538.25	6422.43
538.42	6679.89
538.59	6806.28
538.75	6829.68
538.92	7353.96
539.09	8009.31
539.26	8898.72
539.43	9856.00
539.60	11602.04
539.77	12959.55
539.94	14637.71
540.11	16098.20
540.28	17816.16
540.44	19791.57
540.61	21544.63
540.78	24954.79
540.95	29488.41
541.12	35590.19
541.29	41624.09
541.46	44032.50
541.62	43372.47
541.79	41830.05
541.96	38649.27
542.13	36041.91
542.30	33399.44
542.47	31063.59
542.63	29769.27
542.80	28507.72
542.97	28350.91
543.14	27927.27
543.31	27978.76
543.48	27620.66
543.64	28154.30
543.81	28369.63
543.98	28460.91
544.15	28528.79
544.32	29832.47
544.48	29156.05
544.65	28666.88
544.82	28364.95
544.99	28563.90
545.16	29195.84
545.32	30188.23
545.49	43358.42
545.66	61708.22
545.83	65535.00
546.00	65535.00
546.16	64196.21
546.33	48676.12
546.50	37572.62
546.67	29572.67
546.83	25898.03
547.00	24819.04
547.17	24091.13
547.34	22771.07
547.50	21949.54
547.67	21235.68
547.84	20198.82
548.00	19576.24
548.17	18841.31
548.34	18031.49
548.51	17191.23
548.67	16491.41
548.84	15831.38
549.01	14836.66
549.18	14588.56
549.34	13736.60
549.51	13266.16
549.68	12870.61
549.84	12121.63
550.01	11681.61
550.18	11040.31
550.34	10665.82
550.51	10078.35
550.68	9469.81
550.84	9128.09
551.01	8723.18
551.18	8205.92
551.34	7772.92
551.51	7407.80
551.68	7131.61
551.84	6970.12
552.01	6595.63
552.18	6403.71
552.34	6083.05
552.51	5776.44
552.68	5416.00
552.84	5317.70
553.01	5118.75
553.18	4947.89
553.34	4933.85
553.51	4746.61
553.67	4430.63
553.84	4472.76
554.01	4131.05
554.17	3789.33
554.34	3676.98
554.51	3330.58
554.67	3213.56
554.84	2988.86
555.00	2787.58
555.17	2593.31
555.33	2530.12
555.50	2546.50
555.67	2321.81
555.83	2314.79
556.00	2176.70
556.16	2221.17
556.33	1842.00
556.50	1949.67
556.66	1851.36
556.83	1820.94
556.99	1767.10
557.16	1804.55
557.32	1645.40
557.49	1633.69
557.65	1575.18
557.82	1530.71
557.98	1404.32
558.15	1476.88
558.32	1324.74
558.48	1418.36
558.65	1406.66
558.81	1284.95
558.98	1277.93
559.14	1231.12
559.31	1184.31
559.47	1268.57
559.64	1242.82
559.80	1231.12
559.97	1151.54
560.13	1036.86
560.30	1116.44
560.46	1184.31
560.63	1081.33
560.79	1062.60
560.96	1158.57
561.12	1034.52
561.29	1004.09
561.45	1086.01
561.61	1118.78
561.78	1146.86
561.94	1149.20
562.11	1067.28
562.27	1043.88
562.44	1029.84
562.60	1011.11
562.77	1055.58
562.93	1001.75
563.10	1043.88
563.26	1011.11
563.42	994.73
563.59	999.41
563.75	901.11
563.92	1039.20
564.08	901.11
564.24	950.26
564.41	947.92
564.57	919.83
564.74	856.64
564.90	884.72
565.07	791.10
565.23	849.61
565.39	851.96
565.56	849.61
565.72	819.19
565.88	851.96
566.05	802.80
566.21	798.12
566.38	805.14
566.54	868.34
566.70	861.32
566.87	863.66
567.03	741.95
567.19	922.17
567.36	861.32
567.52	823.87
567.68	858.98
567.85	812.17
568.01	826.21
568.17	901.11
568.34	901.11
568.50	868.34
568.66	915.15
568.83	1001.75
568.99	873.02
569.15	844.93
569.32	751.31
569.48	720.88
569.64	690.46
569.81	725.57
569.97	685.78
570.13	713.86
570.30	667.05
570.46	648.33
570.62	615.56
570.78	559.39
570.95	571.09
571.11	601.52
571.27	667.05
571.43	613.22
571.60	592.16
571.76	596.84
571.92	641.31
572.09	622.58
572.25	603.86
572.41	592.16
572.57	603.86
572.74	617.90
572.90	606.20
573.06	627.26
573.22	594.50
573.38	709.18
573.55	746.63
573.71	671.73
573.87	770.04
574.03	744.29
574.20	688.12
574.36	758.33
574.52	786.42
574.68	814.51
574.84	784.08
575.01	788.76
575.17	985.37
575.33	924.51
575.49	1025.15
575.65	1146.86
575.82	1153.88
575.98	1277.93
576.14	1432.41
576.30	2541.82
576.46	7683.98
576.62	16379.07
576.79	25174.80
576.95	17446.35
577.11	9900.47
577.27	6752.45
577.43	4376.80
577.59	2801.62
577.75	2197.76
577.92	2099.46
578.08	1942.64
578.24	1977.75
578.40	2881.20
578.56	7559.93
578.72	15033.26
578.88	23133.86
579.04	16177.78
579.21	9659.39
579.37	6764.15
579.53	5273.23
579.69	4545.32
579.85	6022.20
580.01	7541.21
580.17	7726.11
580.33	6555.84
580.49	5350.46
580.65	4711.50
580.82	4091.26
580.98	4037.42
581.14	4049.13
581.30	4236.37
581.46	4629.58
581.62	5039.17
581.78	5455.79
581.94	5928.58
582.10	6164.97
582.26	6595.63
582.42	6848.41
582.58	6923.30
582.74	7108.21
582.90	7232.26
583.06	7183.10
583.22	7234.60
583.38	7302.47
583.54	7330.56
583.70	7227.57
583.86	6979.48
584.02	6932.67
584.18	7087.14
584.34	6654.14
584.50	6651.80
584.66	6743.08
584.82	6494.99
584.98	6541.80
585.14	6403.71
585.30	6429.45
585.46	6132.20
585.62	5879.43
585.78	6200.08
585.94	6071.35
586.10	6066.67
586.26	6518.39
586.42	7171.40
586.58	8341.67
586.74	10340.49
586.90	12739.54
587.06	14752.40
587.22	14848.36
587.38	13172.54
587.54	11290.74
587.70	9425.34
587.86	7976.55
588.02	6693.93
588.18	5900.49
588.34	5266.21
588.49	4830.87
588.65	4629.58
588.81	4397.87
588.97	4243.39
589.13	4021.04
589.29	3936.78
589.45	3922.74
589.61	3812.73
589.77	4025.72
589.93	4016.36
590.08	4128.70
590.24	4269.14
590.40	4344.03
590.56	4624.90
590.72	4500.85
590.88	4767.67
591.04	4849.59
591.20	4870.65
591.35	5181.95
591.51	5563.45
591.67	5668.78
591.83	6092.41
591.99	6539.46
592.15	7283.75
592.31	7826.75
592.46	8430.61
592.62	9198.31
592.78	9956.64
592.94	10553.48
593.10	10335.81
593.26	9778.76
593.41	9025.11
593.57	8152.09
593.73	7250.98
593.89	6366.26
594.05	5687.50
594.20	4952.57
594.36	4699.80
594.52	4201.26
594.68	4145.09
594.84	3749.54
594.99	3824.44
595.15	3681.66
595.31	3609.11
595.47	3737.84
595.62	3529.53
595.78	3492.08
595.94	3524.85
596.10	3538.89
596.25	3592.72
596.41	3590.38
596.57	3564.64
596.73	3459.31
596.88	3445.27
597.04	3386.76
597.20	3461.65
597.36	3543.57
597.51	3747.20
597.67	3857.20
597.83	3988.27
597.99	4358.08
598.14	4561.70
598.30	4833.21
598.46	4903.42
598.61	5282.59
598.77	5488.56
598.93	5713.25
599.09	5987.09
599.24	6115.82
599.40	6230.51
599.56	5947.30
599.71	5757.72
599.87	5528.35
600.03	4940.87
600.18	4802.78
600.34	4437.66
600.50	4079.55
600.65	3770.60
600.81	3627.83
600.97	3389.10
601.12	3272.07
601.28	3164.40
601.44	2801.62
601.59	2829.71
601.75	2661.19
601.91	2569.91
602.06	2560.55
602.22	2546.50
602.37	2422.45
602.53	2289.04
602.69	2317.13
602.84	2256.28
603.00	2305.43
603.16	2352.24
603.31	2230.53
603.47	2286.70
603.62	2377.98
603.78	2567.57
603.94	2523.10
604.09	2492.67
604.25	2590.97
