SpectraSuite Data File
++++++++++++++++++++++++++++++++++++
Date: Fri Oct 04 11:42:28 GMT-05:00 2013
User: price-jones
Dark Spectrum Present: No
Reference Spectrum Present: No
Number of Sampled Component Spectra: 1
Spectrometers: USB2+H05261
Integration Time (usec): 100000 (USB2+H05261)
Spectra Averaged: 1 (USB2+H05261)
Boxcar Smoothing: 0 (USB2+H05261)
Correct for Electrical Dark: No (USB2+H05261)
Strobe/Lamp Enabled: No (USB2+H05261)
Correct for Detector Non-linearity: No (USB2+H05261)
Correct for Stray Light: No (USB2+H05261)
Number of Pixels in Processed Spectrum: 2048
>>>>>Begin Processed Spectral Data<<<<<
365.73	46.81
365.92	46.81
366.12	46.81
366.32	0.00
366.52	0.00
366.72	0.00
366.91	0.00
367.11	0.00
367.31	0.00
367.51	0.00
367.70	0.00
367.90	0.00
368.10	0.00
368.30	37.45
368.49	0.00
368.69	0.00
368.89	0.00
369.09	0.00
369.28	0.00
369.48	0.00
369.68	0.00
369.87	0.00
370.07	21.06
370.27	0.00
370.47	0.00
370.66	11.70
370.86	0.00
371.06	44.47
371.25	81.92
371.45	0.00
371.65	102.98
371.84	42.13
372.04	58.51
372.24	70.22
372.44	51.49
372.63	51.49
372.83	42.13
373.03	98.30
373.22	46.81
373.42	58.51
373.62	95.96
373.81	51.49
374.01	88.94
374.21	156.82
374.40	133.41
374.60	175.54
374.79	112.35
374.99	65.54
375.19	147.45
375.38	35.11
375.58	128.73
375.78	112.35
375.97	131.07
376.17	163.84
376.37	133.41
376.56	131.07
376.76	135.75
376.95	105.32
377.15	149.79
377.35	145.11
377.54	163.84
377.74	93.62
377.93	121.71
378.13	107.66
378.33	112.35
378.52	86.60
378.72	91.28
378.91	88.94
379.11	74.90
379.31	105.32
379.50	86.60
379.70	121.71
379.89	210.65
380.09	107.66
380.28	100.64
380.48	51.49
380.68	67.88
380.87	133.41
381.07	112.35
381.26	161.50
381.46	65.54
381.65	131.07
381.85	95.96
382.04	98.30
382.24	105.32
382.43	131.07
382.63	149.79
382.83	11.70
383.02	112.35
383.22	152.13
383.41	2.34
383.61	217.67
383.80	95.96
384.00	159.16
384.19	124.05
384.39	105.32
384.58	70.22
384.78	124.05
384.97	49.15
385.17	114.69
385.36	86.60
385.56	173.20
385.75	121.71
385.95	70.22
386.14	138.09
386.34	88.94
386.53	138.09
386.72	56.17
386.92	196.60
387.11	95.96
387.31	191.92
387.50	65.54
387.70	84.26
387.89	102.98
388.09	126.39
388.28	156.82
388.48	84.26
388.67	154.48
388.86	102.98
389.06	133.41
389.25	67.88
389.45	25.75
389.64	182.56
389.84	159.16
390.03	110.01
390.22	86.60
390.42	100.64
390.61	72.56
390.81	58.51
391.00	135.75
391.19	142.77
391.39	140.43
391.58	119.37
391.78	88.94
391.97	88.94
392.16	100.64
392.36	142.77
392.55	119.37
392.75	100.64
392.94	84.26
393.13	77.24
393.33	0.00
393.52	163.84
393.71	229.37
393.91	126.39
394.10	112.35
394.29	147.45
394.49	81.92
394.68	105.32
394.88	161.50
395.07	156.82
395.26	79.58
395.46	93.62
395.65	117.03
395.84	159.16
396.04	168.52
396.23	98.30
396.42	131.07
396.62	159.16
396.81	79.58
397.00	182.56
397.19	98.30
397.39	159.16
397.58	124.05
397.77	126.39
397.97	32.77
398.16	121.71
398.35	91.28
398.55	93.62
398.74	67.88
398.93	77.24
399.12	145.11
399.32	173.20
399.51	72.56
399.70	145.11
399.90	149.79
400.09	154.48
400.28	100.64
400.47	133.41
400.67	138.09
400.86	170.86
401.05	156.82
401.24	149.79
401.44	173.20
401.63	126.39
401.82	98.30
402.01	114.69
402.21	168.52
402.40	131.07
402.59	121.71
402.78	79.58
402.97	126.39
403.17	170.86
403.36	180.22
403.55	161.50
403.74	220.01
403.93	636.63
404.13	1465.18
404.32	2118.18
404.51	1844.34
404.70	1181.97
404.89	442.36
405.09	234.05
405.28	145.11
405.47	135.75
405.66	166.18
405.85	252.78
406.05	152.13
406.24	149.79
406.43	102.98
406.62	191.92
406.81	184.90
407.00	229.37
407.20	262.14
407.39	425.98
407.58	348.74
407.77	355.76
407.96	283.20
408.15	133.41
408.34	81.92
408.54	149.79
408.73	154.48
408.92	88.94
409.11	177.88
409.30	189.58
409.49	133.41
409.68	163.84
409.87	133.41
410.07	133.41
410.26	133.41
410.45	124.05
410.64	147.45
410.83	203.63
411.02	156.82
411.21	124.05
411.40	208.31
411.59	163.84
411.78	170.86
411.98	189.58
412.17	63.19
412.36	58.51
412.55	142.77
412.74	168.52
412.93	262.14
413.12	135.75
413.31	194.26
413.50	227.03
413.69	142.77
413.88	126.39
414.07	177.88
414.26	170.86
414.45	198.95
414.64	175.54
414.83	259.80
415.02	154.48
415.22	149.79
415.41	131.07
415.60	133.41
415.79	177.88
415.98	140.43
416.17	124.05
416.36	215.33
416.55	117.03
416.74	227.03
416.93	156.82
417.12	128.73
417.31	138.09
417.50	138.09
417.69	205.97
417.88	166.18
418.07	135.75
418.26	152.13
418.45	102.98
418.64	173.20
418.83	126.39
419.02	168.52
419.21	133.41
419.39	133.41
419.58	196.60
419.77	205.97
419.96	205.97
420.15	187.24
420.34	161.50
420.53	163.84
420.72	184.90
420.91	124.05
421.10	187.24
421.29	189.58
421.48	154.48
421.67	180.22
421.86	163.84
422.05	198.95
422.24	224.69
422.43	184.90
422.61	163.84
422.80	252.78
422.99	128.73
423.18	135.75
423.37	161.50
423.56	182.56
423.75	124.05
423.94	180.22
424.13	135.75
424.32	238.73
424.50	234.05
424.69	205.97
424.88	173.20
425.07	210.65
425.26	210.65
425.45	156.82
425.64	184.90
425.83	135.75
426.01	220.01
426.20	203.63
426.39	208.31
426.58	182.56
426.77	201.29
426.96	194.26
427.15	184.90
427.33	147.45
427.52	161.50
427.71	110.01
427.90	224.69
428.09	184.90
428.28	201.29
428.46	177.88
428.65	180.22
428.84	187.24
429.03	248.10
429.22	182.56
429.40	126.39
429.59	53.83
429.78	215.33
429.97	196.60
430.16	163.84
430.34	234.05
430.53	210.65
430.72	224.69
430.91	290.23
431.10	252.78
431.28	248.10
431.47	203.63
431.66	238.73
431.85	182.56
432.03	180.22
432.22	140.43
432.41	273.84
432.60	299.59
432.79	215.33
432.97	208.31
433.16	196.60
433.35	217.67
433.54	306.61
433.72	348.74
433.91	217.67
434.10	306.61
434.28	330.02
434.47	390.87
434.66	465.77
434.85	458.74
435.03	1018.13
435.22	3431.23
435.41	7632.49
435.59	8587.43
435.78	5860.70
435.97	2885.88
436.16	1242.82
436.34	437.68
436.53	402.57
436.72	334.70
436.90	315.97
437.09	271.50
437.28	255.12
437.46	285.55
437.65	250.44
437.84	358.10
438.02	248.10
438.21	252.78
438.40	313.63
438.58	205.97
438.77	231.71
438.96	222.35
439.14	250.44
439.33	231.71
439.52	189.58
439.70	229.37
439.89	234.05
440.08	287.89
440.26	201.29
440.45	220.01
440.63	189.58
440.82	231.71
441.01	234.05
441.19	198.95
441.38	210.65
441.57	229.37
441.75	248.10
441.94	280.86
442.12	269.16
442.31	250.44
442.50	217.67
442.68	257.46
442.87	330.02
443.05	322.99
443.24	210.65
443.43	231.71
443.61	290.23
443.80	306.61
443.98	250.44
444.17	229.37
444.35	259.80
444.54	257.46
444.73	273.84
444.91	234.05
445.10	301.93
445.28	208.31
445.47	308.95
445.65	280.86
445.84	236.39
446.02	283.20
446.21	234.05
446.39	217.67
446.58	196.60
446.77	222.35
446.95	255.12
447.14	238.73
447.32	287.89
447.51	306.61
447.69	287.89
447.88	236.39
448.06	325.33
448.25	210.65
448.43	194.26
448.62	234.05
448.80	259.80
448.99	241.08
449.17	236.39
449.36	180.22
449.54	241.08
449.73	353.42
449.91	266.82
450.10	271.50
450.28	301.93
450.46	386.19
450.65	241.08
450.83	318.31
451.02	276.18
451.20	250.44
451.39	208.31
451.57	250.44
451.76	227.03
451.94	315.97
452.13	280.86
452.31	311.29
452.49	245.76
452.68	177.88
452.86	198.95
453.05	332.36
453.23	320.65
453.42	224.69
453.60	236.39
453.78	372.15
453.97	276.18
454.15	255.12
454.34	175.54
454.52	278.52
454.70	301.93
454.89	257.46
455.07	194.26
455.26	229.37
455.44	299.59
455.62	252.78
455.81	280.86
455.99	250.44
456.17	236.39
456.36	266.82
456.54	327.68
456.73	308.95
456.91	259.80
457.09	252.78
457.28	285.55
457.46	248.10
457.64	285.55
457.83	229.37
458.01	152.13
458.19	217.67
458.38	243.42
458.56	266.82
458.74	224.69
458.93	227.03
459.11	285.55
459.29	292.57
459.48	269.16
459.66	198.95
459.84	301.93
460.03	369.80
460.21	236.39
460.39	210.65
460.57	250.44
460.76	266.82
460.94	257.46
461.12	299.59
461.31	315.97
461.49	203.63
461.67	180.22
461.85	224.69
462.04	243.42
462.22	416.62
462.40	285.55
462.59	266.82
462.77	299.59
462.95	238.73
463.13	224.69
463.32	245.76
463.50	217.67
463.68	287.89
463.86	294.91
464.05	262.14
464.23	299.59
464.41	269.16
464.59	126.39
464.78	210.65
464.96	220.01
465.14	245.76
465.32	231.71
465.50	227.03
465.69	276.18
465.87	203.63
466.05	231.71
466.23	161.50
466.41	203.63
466.60	187.24
466.78	255.12
466.96	290.23
467.14	224.69
467.32	222.35
467.51	269.16
467.69	224.69
467.87	285.55
468.05	236.39
468.23	325.33
468.41	243.42
468.60	208.31
468.78	177.88
468.96	285.55
469.14	229.37
469.32	236.39
469.50	196.60
469.69	229.37
469.87	234.05
470.05	152.13
470.23	231.71
470.41	227.03
470.59	184.90
470.77	264.48
470.95	248.10
471.14	201.29
471.32	229.37
471.50	299.59
471.68	259.80
471.86	241.08
472.04	301.93
472.22	212.99
472.40	255.12
472.58	198.95
472.77	182.56
472.95	175.54
473.13	259.80
473.31	297.25
473.49	287.89
473.67	203.63
473.85	341.72
474.03	299.59
474.21	243.42
474.39	360.44
474.57	334.70
474.75	241.08
474.93	220.01
475.12	175.54
475.30	238.73
475.48	250.44
475.66	304.27
475.84	177.88
476.02	234.05
476.20	224.69
476.38	227.03
476.56	322.99
476.74	262.14
476.92	259.80
477.10	264.48
477.28	184.90
477.46	264.48
477.64	266.82
477.82	205.97
478.00	210.65
478.18	271.50
478.36	212.99
478.54	299.59
478.72	187.24
478.90	236.39
479.08	332.36
479.26	285.55
479.44	299.59
479.62	280.86
479.80	259.80
479.98	297.25
480.16	318.31
480.34	238.73
480.52	212.99
480.70	273.84
480.88	224.69
481.06	297.25
481.24	266.82
481.41	315.97
481.59	294.91
481.77	381.51
481.95	353.42
482.13	430.66
482.31	393.21
482.49	383.85
482.67	540.66
482.85	440.02
483.03	517.26
483.21	545.34
483.39	599.18
483.57	594.50
483.74	566.41
483.92	650.67
484.10	629.60
484.28	755.99
484.46	784.08
484.64	763.01
484.82	823.87
485.00	793.44
485.18	957.28
485.35	994.73
485.53	987.71
485.71	1015.79
485.89	1032.18
486.07	992.39
486.25	1057.92
486.43	1100.05
486.61	1102.39
486.78	1233.46
486.96	1233.46
487.14	1181.97
487.32	1163.25
487.50	1081.33
487.68	1191.33
487.85	1130.48
488.03	1231.12
488.21	1165.59
488.39	1125.80
488.57	1086.01
488.75	1118.78
488.92	1364.53
489.10	1114.10
489.28	1181.97
489.46	1118.78
489.64	1233.46
489.81	1027.50
489.99	1090.69
490.17	1015.79
490.35	1081.33
490.53	1097.71
490.70	1043.88
490.88	1050.90
491.06	1064.94
491.24	1240.48
491.41	1116.44
491.59	1046.22
491.77	985.37
491.95	994.73
492.13	973.66
492.30	915.15
492.48	961.96
492.66	933.87
492.84	957.28
493.01	842.59
493.19	957.28
493.37	795.78
493.54	877.70
493.72	858.98
493.90	922.17
494.08	898.77
494.25	873.02
494.43	870.68
494.61	781.74
494.79	809.83
494.96	758.33
495.14	788.76
495.32	840.25
495.49	720.88
495.67	767.70
495.85	770.04
496.02	711.52
496.20	699.82
496.38	795.78
496.55	755.99
496.73	781.74
496.91	702.16
497.09	723.23
497.26	741.95
497.44	748.97
497.62	690.46
497.79	697.48
497.97	676.41
498.14	690.46
498.32	634.29
498.50	671.73
498.67	596.84
498.85	552.37
499.03	505.56
499.20	447.04
499.38	540.66
499.56	526.62
499.73	610.88
499.91	400.23
500.08	463.43
500.26	425.98
500.44	491.51
500.61	397.89
500.79	454.06
500.97	388.53
501.14	470.45
501.32	374.49
501.49	437.68
501.67	397.89
501.84	369.80
502.02	320.65
502.20	330.02
502.37	390.87
502.55	367.46
502.72	365.12
502.90	407.25
503.07	395.55
503.25	337.04
503.43	334.70
503.60	276.18
503.78	353.42
503.95	344.06
504.13	360.44
504.30	334.70
504.48	327.68
504.65	327.68
504.83	379.17
505.01	248.10
505.18	292.57
505.36	308.95
505.53	217.67
505.71	269.16
505.88	264.48
506.06	276.18
506.23	276.18
506.41	245.76
506.58	306.61
506.76	306.61
506.93	278.52
507.11	374.49
507.28	259.80
507.46	266.82
507.63	287.89
507.81	248.10
507.98	241.08
508.16	280.86
508.33	259.80
508.50	322.99
508.68	222.35
508.85	276.18
509.03	301.93
509.20	297.25
509.38	330.02
509.55	367.46
509.73	313.63
509.90	315.97
510.08	297.25
510.25	301.93
510.42	238.73
510.60	327.68
510.77	278.52
510.95	285.55
511.12	283.20
511.30	332.36
511.47	262.14
511.64	355.76
511.82	280.86
511.99	276.18
512.17	273.84
512.34	238.73
512.51	306.61
512.69	273.84
512.86	234.05
513.04	262.14
513.21	301.93
513.38	241.08
513.56	315.97
513.73	271.50
513.90	241.08
514.08	234.05
514.25	292.57
514.43	238.73
514.60	236.39
514.77	210.65
514.95	287.89
515.12	236.39
515.29	248.10
515.47	285.55
515.64	304.27
515.81	304.27
515.99	299.59
516.16	287.89
516.33	257.46
516.51	248.10
516.68	217.67
516.85	252.78
517.03	341.72
517.20	259.80
517.37	271.50
517.54	264.48
517.72	222.35
517.89	187.24
518.06	205.97
518.24	201.29
518.41	301.93
518.58	339.38
518.75	285.55
518.93	276.18
519.10	269.16
519.27	262.14
519.45	182.56
519.62	238.73
519.79	269.16
519.96	290.23
520.14	222.35
520.31	308.95
520.48	208.31
520.65	264.48
520.83	259.80
521.00	220.01
521.17	292.57
521.34	283.20
521.52	252.78
521.69	304.27
521.86	271.50
522.03	255.12
522.20	292.57
522.38	287.89
522.55	332.36
522.72	294.91
522.89	255.12
523.07	339.38
523.24	257.46
523.41	255.12
523.58	250.44
523.75	177.88
523.92	262.14
524.10	290.23
524.27	250.44
524.44	264.48
524.61	243.42
524.78	205.97
524.96	250.44
525.13	292.57
525.30	266.82
525.47	322.99
525.64	304.27
525.81	269.16
525.98	255.12
526.16	266.82
526.33	222.35
526.50	327.68
526.67	182.56
526.84	257.46
527.01	278.52
527.18	292.57
527.36	168.52
527.53	212.99
527.70	395.55
527.87	334.70
528.04	306.61
528.21	224.69
528.38	360.44
528.55	327.68
528.72	285.55
528.89	243.42
529.07	334.70
529.24	285.55
529.41	362.78
529.58	227.03
529.75	372.15
529.92	304.27
530.09	245.76
530.26	315.97
530.43	337.04
530.60	273.84
530.77	339.38
530.94	322.99
531.11	346.40
531.28	369.80
531.46	283.20
531.63	290.23
531.80	243.42
531.97	341.72
532.14	325.33
532.31	383.85
532.48	454.06
532.65	505.56
532.82	440.02
532.99	421.30
533.16	608.54
533.33	674.07
533.50	552.37
533.67	482.15
533.84	458.74
534.01	400.23
534.18	339.38
534.35	390.87
534.52	393.21
534.69	440.02
534.86	383.85
535.03	383.85
535.20	472.79
535.37	458.74
535.54	435.34
535.71	498.53
535.88	507.90
536.05	496.19
536.22	596.84
536.38	531.30
536.55	564.07
536.72	657.69
536.89	641.31
537.06	699.82
537.23	767.70
537.40	798.12
537.57	905.79
537.74	999.41
537.91	1006.43
538.08	1130.48
538.25	1287.29
538.42	1322.40
538.59	1413.68
538.75	1416.02
538.92	1486.24
539.09	1441.77
539.26	1605.61
539.43	1689.87
539.60	1774.13
539.77	1959.03
539.94	2251.60
540.11	2275.00
540.28	2420.11
540.44	2654.17
540.61	2700.98
540.78	3033.33
540.95	3236.96
541.12	3831.46
541.29	4449.36
541.46	5322.38
541.62	5902.83
541.79	6693.93
541.96	7536.52
542.13	8023.36
542.30	8177.83
542.47	8236.35
542.63	7887.61
542.80	7918.03
542.97	8039.74
543.14	8079.53
543.31	8098.25
543.48	8287.84
543.64	8217.62
543.81	7803.35
543.98	7588.02
544.15	7431.20
544.32	7236.94
544.48	7096.50
544.65	6642.44
544.82	6310.08
544.99	6143.91
545.16	5959.00
545.32	5994.11
545.49	8580.40
545.66	15037.94
545.83	19665.18
546.00	16226.93
546.16	10525.39
546.33	7321.20
546.50	5186.63
546.67	3747.20
546.83	3204.19
547.00	2986.52
547.17	2738.43
547.34	2597.99
547.50	2429.48
547.67	2410.75
547.84	2324.15
548.00	2417.77
548.17	2349.90
548.34	2434.16
548.51	2553.52
548.67	2663.53
548.84	2635.44
549.01	2808.64
549.18	2607.36
549.34	2623.74
549.51	2457.56
549.68	2333.51
549.84	2249.25
550.01	1935.62
550.18	2085.42
550.34	1977.75
550.51	1919.24
550.68	1886.47
550.84	1811.57
551.01	1727.32
551.18	1706.25
551.34	1717.95
551.51	1804.55
551.68	1795.19
551.84	1750.72
552.01	1675.82
552.18	1659.44
552.34	1596.25
552.51	1413.68
552.68	1511.99
552.84	1462.83
553.01	1273.25
553.18	1366.87
553.34	1217.08
553.51	1081.33
553.67	1083.67
553.84	1060.26
554.01	903.45
554.17	889.40
554.34	753.65
554.51	777.06
554.67	674.07
554.84	557.05
555.00	594.50
555.17	645.99
555.33	543.00
555.50	512.58
555.67	454.06
555.83	449.38
556.00	482.15
556.16	645.99
556.33	449.38
556.50	449.38
556.66	477.47
556.83	390.87
556.99	360.44
557.16	428.32
557.32	435.34
557.49	409.59
557.65	451.72
557.82	351.08
557.98	339.38
558.15	393.21
558.32	397.89
558.48	400.23
558.65	390.87
558.81	365.12
558.98	374.49
559.14	479.81
559.31	362.78
559.47	351.08
559.64	332.36
559.80	440.02
559.97	369.80
560.13	355.76
560.30	379.17
560.46	416.62
560.63	332.36
560.79	306.61
560.96	404.91
561.12	325.33
561.29	308.95
561.45	348.74
561.61	337.04
561.78	430.66
561.94	374.49
562.11	322.99
562.27	362.78
562.44	283.20
562.60	334.70
562.77	315.97
562.93	414.27
563.10	367.46
563.26	252.78
563.42	320.65
563.59	315.97
563.75	311.29
563.92	276.18
564.08	322.99
564.24	257.46
564.41	367.46
564.57	283.20
564.74	262.14
564.90	294.91
565.07	269.16
565.23	390.87
565.39	255.12
565.56	278.52
565.72	290.23
565.88	266.82
566.05	290.23
566.21	285.55
566.38	313.63
566.54	299.59
566.70	276.18
566.87	311.29
567.03	346.40
567.19	259.80
567.36	269.16
567.52	297.25
567.68	355.76
567.85	332.36
568.01	273.84
568.17	280.86
568.34	311.29
568.50	308.95
568.66	290.23
568.83	308.95
568.99	325.33
569.15	330.02
569.32	243.42
569.48	224.69
569.64	271.50
569.81	315.97
569.97	273.84
570.13	252.78
570.30	301.93
570.46	210.65
570.62	334.70
570.78	224.69
570.95	271.50
571.11	339.38
571.27	390.87
571.43	339.38
571.60	294.91
571.76	278.52
571.92	257.46
572.09	241.08
572.25	327.68
572.41	339.38
572.57	280.86
572.74	311.29
572.90	327.68
573.06	325.33
573.22	355.76
573.38	369.80
573.55	456.40
573.71	407.25
573.87	390.87
574.03	383.85
574.20	376.83
574.36	341.72
574.52	322.99
574.68	325.33
574.84	351.08
575.01	433.00
575.17	435.34
575.33	435.34
575.49	383.85
575.65	479.81
575.82	421.30
575.98	472.79
576.14	498.53
576.30	711.52
576.46	1666.46
576.62	3068.44
576.79	3445.27
576.95	2361.60
577.11	1572.84
577.27	1163.25
577.43	814.51
577.59	709.18
577.75	519.60
577.92	552.37
578.08	615.56
578.24	526.62
578.40	765.36
578.56	1774.13
578.72	2759.49
578.88	3136.32
579.04	2520.76
579.21	1846.68
579.37	1502.62
579.53	1284.95
579.69	1256.87
579.85	1462.83
580.01	1699.23
580.17	1640.72
580.33	1542.41
580.49	1313.04
580.65	1137.50
580.82	1055.58
580.98	1078.99
581.14	1107.07
581.30	1151.54
581.46	1158.57
581.62	1165.59
581.78	1156.22
581.94	1366.87
582.10	1287.29
582.26	1320.06
582.42	1357.51
582.58	1493.26
582.74	1516.67
582.90	1659.44
583.06	1739.02
583.22	1764.76
583.38	1778.81
583.54	1678.16
583.70	1797.53
583.86	1802.21
584.02	1664.12
584.18	1668.80
584.34	1650.08
584.50	1589.22
584.66	1427.73
584.82	1465.18
584.98	1427.73
585.14	1394.96
585.30	1336.45
585.46	1404.32
585.62	1221.76
585.78	1303.68
585.94	1369.21
586.10	1383.26
586.26	1394.96
586.42	1521.35
586.58	1790.51
586.74	2122.87
586.90	2455.22
587.06	2768.85
587.22	2796.94
587.38	2574.59
587.54	2410.75
587.70	2214.15
587.86	1975.41
588.02	1710.93
588.18	1600.93
588.34	1486.24
588.49	1411.34
588.65	1355.17
588.81	1252.19
588.97	1207.72
589.13	1163.25
589.29	1163.25
589.45	1200.69
589.61	1177.29
589.77	1093.03
589.93	1167.93
590.08	1125.80
590.24	1022.81
590.40	1083.67
590.56	1081.33
590.72	1053.24
590.88	971.32
591.04	1062.60
591.20	1029.84
591.35	1018.13
591.51	1062.60
591.67	1128.14
591.83	1076.65
591.99	1247.51
592.15	1111.75
592.31	1411.34
592.46	1371.55
592.62	1533.05
592.78	1636.03
592.94	1647.74
593.10	1706.25
593.26	1652.42
593.41	1486.24
593.57	1284.95
593.73	1231.12
593.89	1062.60
594.05	985.37
594.20	842.59
594.36	819.19
594.52	793.44
594.68	748.97
594.84	655.35
594.99	655.35
595.15	734.93
595.31	727.91
595.47	725.57
595.62	599.18
595.78	573.43
595.94	613.22
596.10	653.01
596.25	720.88
596.41	615.56
596.57	613.22
596.73	592.16
596.88	550.03
597.04	617.90
597.20	601.52
597.36	608.54
597.51	606.20
597.67	667.05
597.83	746.63
597.99	755.99
598.14	737.27
598.30	858.98
598.46	814.51
598.61	908.13
598.77	968.98
598.93	919.83
599.09	954.94
599.24	1109.41
599.40	1165.59
599.56	985.37
599.71	966.64
599.87	1011.11
600.03	933.87
600.18	812.17
600.34	777.06
600.50	734.93
600.65	685.78
600.81	685.78
600.97	615.56
601.12	603.86
601.28	596.84
601.44	596.84
601.59	519.60
601.75	545.34
601.91	538.32
602.06	526.62
602.22	486.83
602.37	477.47
602.53	493.85
602.69	524.28
602.84	498.53
603.00	484.49
603.16	482.15
603.31	433.00
603.47	496.19
603.62	547.69
603.78	564.07
603.94	510.24
604.09	592.16
604.25	561.73
604.40	627.26
604.56	589.82
604.71	554.71
604.87	545.34
605.03	521.94
605.18	545.34
605.34	578.11
605.49	608.54
605.65	566.41
605.80	638.97
605.96	606.20
606.12	629.60
606.27	723.23
606.43	685.78
606.58	809.83
606.74	676.41
606.89	753.65
607.05	802.80
607.20	866.00
607.36	821.53
607.51	844.93
607.67	908.13
607.82	1041.54
607.98	1104.73
608.13	1158.57
608.29	1196.01
608.44	1259.21
608.60	1385.60
