SpectraSuite Data File
++++++++++++++++++++++++++++++++++++
Date: Fri Oct 04 11:42:03 GMT-05:00 2013
User: price-jones
Dark Spectrum Present: No
Reference Spectrum Present: No
Number of Sampled Component Spectra: 1
Spectrometers: USB2+H05261
Integration Time (usec): 100000 (USB2+H05261)
Spectra Averaged: 1 (USB2+H05261)
Boxcar Smoothing: 0 (USB2+H05261)
Correct for Electrical Dark: No (USB2+H05261)
Strobe/Lamp Enabled: No (USB2+H05261)
Correct for Detector Non-linearity: No (USB2+H05261)
Correct for Stray Light: No (USB2+H05261)
Number of Pixels in Processed Spectrum: 2048
>>>>>Begin Processed Spectral Data<<<<<
365.73	86.60
365.92	86.60
366.12	86.60
366.32	4.68
366.52	0.00
366.72	9.36
366.91	0.00
367.11	0.00
367.31	0.00
367.51	0.00
367.70	0.00
367.90	0.00
368.10	0.00
368.30	0.00
368.49	0.00
368.69	0.00
368.89	0.00
369.09	0.00
369.28	0.00
369.48	0.00
369.68	42.13
369.87	0.00
370.07	0.00
370.27	0.00
370.47	9.36
370.66	14.04
370.86	39.79
371.06	70.22
371.25	124.05
371.45	77.24
371.65	79.58
371.84	49.15
372.04	42.13
372.24	105.32
372.44	107.66
372.63	102.98
372.83	156.82
373.03	84.26
373.22	84.26
373.42	121.71
373.62	49.15
373.81	173.20
374.01	107.66
374.21	142.77
374.40	95.96
374.60	147.45
374.79	105.32
374.99	131.07
375.19	201.29
375.38	173.20
375.58	128.73
375.78	177.88
375.97	126.39
376.17	161.50
376.37	117.03
376.56	156.82
376.76	105.32
376.95	74.90
377.15	110.01
377.35	100.64
377.54	100.64
377.74	107.66
377.93	58.51
378.13	147.45
378.33	133.41
378.52	159.16
378.72	147.45
378.91	65.54
379.11	126.39
379.31	84.26
379.50	114.69
379.70	189.58
379.89	177.88
380.09	114.69
380.28	135.75
380.48	70.22
380.68	117.03
380.87	138.09
381.07	74.90
381.26	126.39
381.46	187.24
381.65	194.26
381.85	107.66
382.04	163.84
382.24	124.05
382.43	191.92
382.63	128.73
382.83	161.50
383.02	114.69
383.22	203.63
383.41	152.13
383.61	112.35
383.80	135.75
384.00	117.03
384.19	112.35
384.39	145.11
384.58	196.60
384.78	161.50
384.97	84.26
385.17	81.92
385.36	117.03
385.56	86.60
385.75	121.71
385.95	173.20
386.14	173.20
386.34	107.66
386.53	194.26
386.72	149.79
386.92	105.32
387.11	117.03
387.31	100.64
387.50	95.96
387.70	79.58
387.89	119.37
388.09	72.56
388.28	131.07
388.48	168.52
388.67	152.13
388.86	163.84
389.06	107.66
389.25	140.43
389.45	154.48
389.64	138.09
389.84	166.18
390.03	175.54
390.22	117.03
390.42	180.22
390.61	140.43
390.81	140.43
391.00	67.88
391.19	161.50
391.39	112.35
391.58	107.66
391.78	128.73
391.97	159.16
392.16	161.50
392.36	156.82
392.55	159.16
392.75	161.50
392.94	110.01
393.13	177.88
393.33	58.51
393.52	128.73
393.71	105.32
393.91	175.54
394.10	203.63
394.29	135.75
394.49	35.11
394.68	88.94
394.88	128.73
395.07	63.19
395.26	217.67
395.46	126.39
395.65	72.56
395.84	159.16
396.04	224.69
396.23	198.95
396.42	180.22
396.62	142.77
396.81	128.73
397.00	156.82
397.19	93.62
397.39	175.54
397.58	212.99
397.77	102.98
397.97	147.45
398.16	154.48
398.35	105.32
398.55	177.88
398.74	159.16
398.93	198.95
399.12	187.24
399.32	145.11
399.51	119.37
399.70	203.63
399.90	100.64
400.09	98.30
400.28	128.73
400.47	163.84
400.67	163.84
400.86	170.86
401.05	152.13
401.24	194.26
401.44	124.05
401.63	257.46
401.82	173.20
402.01	238.73
402.21	194.26
402.40	180.22
402.59	182.56
402.78	208.31
402.97	161.50
403.17	292.57
403.36	229.37
403.55	369.80
403.74	739.61
403.93	2319.47
404.13	5781.12
404.32	9453.42
404.51	10080.69
404.70	6429.45
404.89	2298.41
405.09	702.16
405.28	292.57
405.47	290.23
405.66	374.49
405.85	175.54
406.05	259.80
406.24	241.08
406.43	194.26
406.62	255.12
406.81	290.23
407.00	418.96
407.20	692.80
407.39	1207.72
407.58	1523.69
407.77	1130.48
407.96	603.86
408.15	308.95
408.34	290.23
408.54	259.80
408.73	266.82
408.92	217.67
409.11	266.82
409.30	170.86
409.49	168.52
409.68	170.86
409.87	215.33
410.07	133.41
410.26	273.84
410.45	252.78
410.64	229.37
410.83	252.78
411.02	222.35
411.21	299.59
411.40	318.31
411.59	234.05
411.78	248.10
411.98	224.69
412.17	210.65
412.36	238.73
412.55	231.71
412.74	255.12
412.93	198.95
413.12	220.01
413.31	203.63
413.50	297.25
413.69	259.80
413.88	236.39
414.07	231.71
414.26	308.95
414.45	266.82
414.64	220.01
414.83	264.48
415.02	212.99
415.22	285.55
415.41	379.17
415.60	297.25
415.79	243.42
415.98	273.84
416.17	374.49
416.36	294.91
416.55	294.91
416.74	280.86
416.93	306.61
417.12	271.50
417.31	344.06
417.50	236.39
417.69	313.63
417.88	330.02
418.07	250.44
418.26	278.52
418.45	231.71
418.64	266.82
418.83	297.25
419.02	346.40
419.21	290.23
419.39	355.76
419.58	266.82
419.77	348.74
419.96	297.25
420.15	294.91
420.34	337.04
420.53	367.46
420.72	388.53
420.91	339.38
421.10	304.27
421.29	339.38
421.48	339.38
421.67	367.46
421.86	358.10
422.05	318.31
422.24	353.42
422.43	379.17
422.61	222.35
422.80	393.21
422.99	311.29
423.18	297.25
423.37	334.70
423.56	355.76
423.75	348.74
423.94	379.17
424.13	355.76
424.32	360.44
424.50	325.33
424.69	322.99
424.88	278.52
425.07	301.93
425.26	353.42
425.45	346.40
425.64	379.17
425.83	362.78
426.01	418.96
426.20	362.78
426.39	355.76
426.58	409.59
426.77	428.32
426.96	416.62
427.15	348.74
427.33	325.33
427.52	395.55
427.71	428.32
427.90	379.17
428.09	362.78
428.28	388.53
428.46	433.00
428.65	404.91
428.84	397.89
429.03	447.04
429.22	411.93
429.40	456.40
429.59	442.36
429.78	409.59
429.97	435.34
430.16	416.62
430.34	421.30
430.53	489.17
430.72	470.45
430.91	561.73
431.10	475.13
431.28	463.43
431.47	414.27
431.66	557.05
431.85	500.87
432.03	538.32
432.22	589.82
432.41	528.96
432.60	615.56
432.79	524.28
432.97	545.34
433.16	638.97
433.35	709.18
433.54	788.76
433.72	840.25
433.91	821.53
434.10	952.60
434.28	1135.16
434.47	1277.93
434.66	1516.67
434.85	1652.42
435.03	3880.61
435.22	13532.98
435.41	35920.20
435.59	49422.75
435.78	37598.37
435.97	16596.74
436.16	6197.74
436.34	2078.40
436.53	1186.65
436.72	875.36
436.90	835.57
437.09	702.16
437.28	690.46
437.46	674.07
437.65	650.67
437.84	587.47
438.02	620.24
438.21	631.94
438.40	606.20
438.58	638.97
438.77	627.26
438.96	571.09
439.14	547.69
439.33	629.60
439.52	554.71
439.70	552.37
439.89	489.17
440.08	543.00
440.26	620.24
440.45	594.50
440.63	592.16
440.82	578.11
441.01	636.63
441.19	578.11
441.38	554.71
441.57	669.39
441.75	699.82
441.94	636.63
442.12	564.07
442.31	517.26
442.50	592.16
442.68	617.90
442.87	528.96
443.05	645.99
443.24	564.07
443.43	566.41
443.61	592.16
443.80	596.84
443.98	507.90
444.17	575.77
444.35	580.45
444.54	606.20
444.73	543.00
444.91	608.54
445.10	503.22
445.28	566.41
445.47	631.94
445.65	603.86
445.84	559.39
446.02	636.63
446.21	571.09
446.39	601.52
446.58	564.07
446.77	573.43
446.95	514.92
447.14	599.18
447.32	571.09
447.51	615.56
447.69	568.75
447.88	528.96
448.06	547.69
448.25	585.13
448.43	603.86
448.62	585.13
448.80	580.45
448.99	578.11
449.17	617.90
449.36	561.73
449.54	585.13
449.73	503.22
449.91	580.45
450.10	594.50
450.28	709.18
450.46	627.26
450.65	540.66
450.83	552.37
451.02	470.45
451.20	538.32
451.39	615.56
451.57	503.22
451.76	533.64
451.94	582.79
452.13	585.13
452.31	592.16
452.49	617.90
452.68	535.98
452.86	566.41
453.05	587.47
453.23	582.79
453.42	517.26
453.60	465.77
453.78	557.05
453.97	554.71
454.15	545.34
454.34	498.53
454.52	486.83
454.70	557.05
454.89	571.09
455.07	543.00
455.26	559.39
455.44	510.24
455.62	627.26
455.81	543.00
455.99	566.41
456.17	561.73
456.36	617.90
456.54	624.92
456.73	573.43
456.91	543.00
457.09	580.45
457.28	622.58
457.46	585.13
457.64	617.90
457.83	533.64
458.01	491.51
458.19	496.19
458.38	552.37
458.56	521.94
458.74	557.05
458.93	545.34
459.11	510.24
459.29	594.50
459.48	566.41
459.66	514.92
459.84	510.24
460.03	554.71
460.21	582.79
460.39	528.96
460.57	543.00
460.76	575.77
460.94	580.45
461.12	622.58
461.31	568.75
461.49	463.43
461.67	543.00
461.85	582.79
462.04	526.62
462.22	973.66
462.40	526.62
462.59	631.94
462.77	526.62
462.95	545.34
463.13	517.26
463.32	561.73
463.50	587.47
463.68	528.96
463.86	514.92
464.05	500.87
464.23	533.64
464.41	566.41
464.59	592.16
464.78	557.05
464.96	603.86
465.14	505.56
465.32	533.64
465.50	514.92
465.69	512.58
465.87	575.77
466.05	582.79
466.23	503.22
466.41	552.37
466.60	571.09
466.78	657.69
466.96	648.33
467.14	578.11
467.32	575.77
467.51	667.05
467.69	531.30
467.87	566.41
468.05	571.09
468.23	507.90
468.41	624.92
468.60	547.69
468.78	486.83
468.96	589.82
469.14	479.81
469.32	526.62
469.50	423.64
469.69	461.09
469.87	526.62
470.05	465.77
470.23	500.87
470.41	566.41
470.59	482.15
470.77	458.74
470.95	564.07
471.14	472.79
471.32	603.86
471.50	458.74
471.68	486.83
471.86	498.53
472.04	458.74
472.22	489.17
472.40	521.94
472.58	505.56
472.77	484.49
472.95	636.63
473.13	664.71
473.31	547.69
473.49	500.87
473.67	589.82
473.85	582.79
474.03	610.88
474.21	599.18
474.39	627.26
474.57	496.19
474.75	552.37
474.93	503.22
475.12	531.30
475.30	519.60
475.48	547.69
475.66	535.98
475.84	585.13
476.02	454.06
476.20	512.58
476.38	582.79
476.56	580.45
476.74	517.26
476.92	524.28
477.10	500.87
477.28	524.28
477.46	552.37
477.64	503.22
477.82	557.05
478.00	580.45
478.18	589.82
478.36	645.99
478.54	622.58
478.72	540.66
478.90	547.69
479.08	573.43
479.26	657.69
479.44	685.78
479.62	629.60
479.80	741.95
479.98	737.27
480.16	793.44
480.34	917.49
480.52	826.21
480.70	957.28
480.88	847.27
481.06	919.83
481.24	971.32
481.41	1025.15
481.59	1144.52
481.77	1153.88
481.95	1221.76
482.13	1369.21
482.31	1409.00
482.49	1439.43
482.67	1610.29
482.85	1657.10
483.03	1778.81
483.21	1930.94
483.39	1968.39
483.57	2073.71
483.74	2284.36
483.92	2392.03
484.10	2492.67
484.28	2670.55
484.46	2904.60
484.64	2928.01
484.82	3073.12
485.00	3183.13
485.18	3569.32
485.35	3676.98
485.53	3747.20
485.71	4133.39
485.89	4145.09
486.07	4318.29
486.25	4273.82
486.43	4360.42
486.61	4362.76
486.78	4205.94
486.96	4205.94
487.14	4425.95
487.32	4318.29
487.50	4255.09
487.68	4334.67
487.85	4180.20
488.03	4203.60
488.21	4187.22
488.39	4058.49
488.57	3911.04
488.75	3775.28
488.92	3913.38
489.10	3644.21
489.28	3574.00
489.46	3604.42
489.64	3459.31
489.81	3269.73
489.99	3377.39
490.17	3272.07
490.35	3267.39
490.53	3258.03
490.70	3141.00
490.88	3262.71
491.06	3337.60
491.24	3595.06
491.41	3726.13
491.59	3517.83
491.77	3286.11
491.95	3185.47
492.13	3019.29
492.30	2946.73
492.48	2874.18
492.66	2775.88
492.84	2808.64
493.01	2871.84
493.19	2862.48
493.37	2869.50
493.54	2913.97
493.72	2633.10
493.90	2532.46
494.08	2649.49
494.25	2567.57
494.43	2534.80
494.61	2490.33
494.79	2403.73
494.96	2431.82
495.14	2389.69
495.32	2368.62
495.49	2370.96
495.67	2218.83
495.85	2136.91
496.02	2125.21
496.20	2050.31
496.38	2069.03
496.55	2150.95
496.73	2080.74
496.91	2104.14
497.09	1968.39
497.26	2047.97
497.44	1893.49
497.62	1799.87
497.79	1830.30
497.97	1668.80
498.14	1844.34
498.32	1764.76
498.50	1736.68
498.67	1631.35
498.85	1561.14
499.03	1537.73
499.20	1549.43
499.38	1432.41
499.56	1460.49
499.73	1549.43
499.91	1460.49
500.08	1355.17
500.26	1430.07
500.44	1165.59
500.61	1203.04
500.79	1181.97
500.97	1135.16
501.14	1181.97
501.32	1081.33
501.49	1090.69
501.67	985.37
501.84	1076.65
502.02	959.62
502.20	1018.13
502.37	968.98
502.55	966.64
502.72	968.98
502.90	875.36
503.07	940.90
503.25	770.04
503.43	819.19
503.60	816.85
503.78	777.06
503.95	835.57
504.13	791.10
504.30	765.36
504.48	748.97
504.65	763.01
504.83	753.65
505.01	725.57
505.18	716.20
505.36	704.50
505.53	645.99
505.71	606.20
505.88	678.76
506.06	627.26
506.23	622.58
506.41	601.52
506.58	638.97
506.76	507.90
506.93	603.86
507.11	559.39
507.28	603.86
507.46	636.63
507.63	533.64
507.81	634.29
507.98	589.82
508.16	585.13
508.33	531.30
508.50	547.69
508.68	547.69
508.85	592.16
509.03	550.03
509.20	622.58
509.38	634.29
509.55	613.22
509.73	631.94
509.90	638.97
510.08	521.94
510.25	575.77
510.42	449.38
510.60	510.24
510.77	561.73
510.95	517.26
511.12	528.96
511.30	566.41
511.47	629.60
511.64	564.07
511.82	484.49
511.99	547.69
512.17	493.85
512.34	493.85
512.51	463.43
512.69	538.32
512.86	503.22
513.04	472.79
513.21	482.15
513.38	491.51
513.56	444.70
513.73	414.27
513.90	519.60
514.08	526.62
514.25	524.28
514.43	433.00
514.60	367.46
514.77	428.32
514.95	463.43
515.12	369.80
515.29	472.79
515.47	386.19
515.64	402.57
515.81	395.55
515.99	468.11
516.16	550.03
516.33	451.72
516.51	451.72
516.68	421.30
516.85	444.70
517.03	390.87
517.20	416.62
517.37	430.66
517.54	353.42
517.72	407.25
517.89	421.30
518.06	334.70
518.24	409.59
518.41	458.74
518.58	437.68
518.75	395.55
518.93	433.00
519.10	491.51
519.27	461.09
519.45	395.55
519.62	454.06
519.79	369.80
519.96	355.76
520.14	451.72
520.31	512.58
520.48	430.66
520.65	355.76
520.83	528.96
521.00	421.30
521.17	400.23
521.34	475.13
521.52	447.04
521.69	386.19
521.86	372.15
522.03	421.30
522.20	535.98
522.38	397.89
522.55	376.83
522.72	379.17
522.89	486.83
523.07	503.22
523.24	402.57
523.41	454.06
523.58	386.19
523.75	367.46
523.92	404.91
524.10	414.27
524.27	416.62
524.44	442.36
524.61	472.79
524.78	400.23
524.96	472.79
525.13	369.80
525.30	447.04
525.47	461.09
525.64	489.17
525.81	526.62
525.98	578.11
526.16	524.28
526.33	407.25
526.50	496.19
526.67	463.43
526.84	526.62
527.01	547.69
527.18	561.73
527.36	580.45
527.53	554.71
527.70	582.79
527.87	629.60
528.04	524.28
528.21	578.11
528.38	463.43
528.55	613.22
528.72	617.90
528.89	608.54
529.07	519.60
529.24	608.54
529.41	667.05
529.58	711.52
529.75	524.28
529.92	650.67
530.09	594.50
530.26	685.78
530.43	606.20
530.60	636.63
530.77	704.50
530.94	751.31
531.11	631.94
531.28	702.16
531.46	664.71
531.63	854.30
531.80	809.83
531.97	812.17
532.14	1078.99
532.31	1179.63
532.48	1420.71
532.65	1659.44
532.82	1865.41
532.99	2148.61
533.16	2469.27
533.33	2780.56
533.50	2511.39
533.67	2155.63
533.84	1806.89
534.01	1565.82
534.18	1453.47
534.35	1453.47
534.52	1458.15
534.69	1430.07
534.86	1591.56
535.03	1654.76
535.20	1729.66
535.37	1816.26
535.54	1853.70
535.71	1900.52
535.88	2235.21
536.05	2209.47
536.22	2347.56
536.38	2630.76
536.55	2785.24
536.72	3150.36
536.89	3534.21
537.06	3852.52
537.23	4236.37
537.40	4578.09
537.57	5191.31
537.74	5472.17
537.91	5671.12
538.08	5851.34
538.25	5830.27
538.42	5893.47
538.59	6155.61
538.75	6127.52
538.92	6651.80
539.09	7194.81
539.26	8018.68
539.43	9041.49
539.60	10256.23
539.77	11796.30
539.94	13027.42
540.11	14394.29
540.28	16011.60
540.44	17296.56
540.61	18941.96
540.78	21479.10
540.95	25490.77
541.12	31332.75
541.29	35798.49
541.46	38141.37
541.62	38363.72
541.79	36711.30
541.96	33942.45
542.13	31271.90
542.30	29415.85
542.47	27136.17
542.63	26120.38
542.80	25242.68
542.97	24788.61
543.14	24596.69
543.31	24276.04
543.48	24034.96
543.64	24896.28
543.81	25230.98
543.98	25418.22
544.15	25165.44
544.32	25568.01
544.48	25722.49
544.65	25170.12
544.82	24428.17
544.99	24489.03
545.16	25614.82
545.32	26803.82
545.49	39119.71
545.66	59700.04
545.83	65535.00
546.00	65535.00
546.16	61226.07
546.33	44252.51
546.50	33289.44
546.67	26153.15
546.83	23119.81
547.00	22267.86
547.17	21404.20
547.34	20280.74
547.50	19850.08
547.67	18925.57
547.84	17848.93
548.00	17174.85
548.17	16573.33
548.34	16259.70
548.51	15655.84
548.67	14581.54
548.84	13949.59
549.01	13261.48
549.18	12402.50
549.34	11953.12
549.51	11583.31
549.68	11293.08
549.84	10757.10
550.01	10153.24
550.18	9736.63
550.34	9460.45
550.51	8814.46
550.68	8442.31
550.84	7950.80
551.01	7714.41
551.18	7337.58
551.34	6944.37
551.51	6546.48
551.68	6324.13
551.84	6043.26
552.01	5844.32
552.18	5483.88
552.34	5224.08
552.51	5121.09
552.68	5046.20
552.84	4718.52
553.01	4622.56
553.18	4262.12
553.34	4332.33
553.51	4058.49
553.67	4025.72
553.84	3782.31
554.01	3522.51
554.17	3349.31
554.34	3262.71
554.51	2988.86
554.67	2895.24
554.84	2658.85
555.00	2588.63
555.17	2377.98
555.33	2382.67
555.50	2204.78
555.67	2214.15
555.83	2038.61
556.00	1980.09
556.16	2012.86
556.33	1741.36
556.50	1799.87
556.66	1706.25
556.83	1514.33
556.99	1533.05
557.16	1497.94
557.32	1514.33
557.49	1535.39
557.65	1437.09
557.82	1427.73
557.98	1261.55
558.15	1299.00
558.32	1245.16
558.48	1219.42
558.65	1137.50
558.81	1212.40
558.98	1167.93
559.14	1210.06
559.31	1095.37
559.47	1064.94
559.64	1055.58
559.80	1008.77
559.97	999.41
560.13	1071.97
560.30	1015.79
560.46	966.64
560.63	1039.20
560.79	954.94
560.96	976.00
561.12	912.81
561.29	1022.81
561.45	990.05
561.61	959.62
561.78	1055.58
561.94	1001.75
562.11	1029.84
562.27	1081.33
562.44	1036.86
562.60	950.26
562.77	922.17
562.93	1074.31
563.10	947.92
563.26	924.51
563.42	957.28
563.59	889.40
563.75	826.21
563.92	826.21
564.08	835.57
564.24	858.98
564.41	856.64
564.57	847.27
564.74	781.74
564.90	765.36
565.07	882.38
565.23	723.23
565.39	704.50
565.56	816.85
565.72	727.91
565.88	713.86
566.05	676.41
566.21	711.52
566.38	774.72
566.54	821.53
566.70	826.21
566.87	826.21
567.03	744.29
567.19	786.42
567.36	786.42
567.52	767.70
567.68	774.72
567.85	765.36
568.01	800.46
568.17	795.78
568.34	833.23
568.50	896.43
568.66	814.51
568.83	873.02
568.99	699.82
569.15	709.18
569.32	688.12
569.48	688.12
569.64	667.05
569.81	676.41
569.97	634.29
570.13	650.67
570.30	669.39
570.46	573.43
570.62	601.52
570.78	561.73
570.95	552.37
571.11	601.52
571.27	725.57
571.43	566.41
571.60	561.73
571.76	606.20
571.92	629.60
572.09	582.79
572.25	634.29
572.41	617.90
572.57	587.47
572.74	692.80
572.90	566.41
573.06	664.71
573.22	575.77
573.38	617.90
573.55	650.67
573.71	657.69
573.87	671.73
574.03	660.03
574.20	723.23
574.36	695.14
574.52	720.88
574.68	667.05
574.84	767.70
575.01	802.80
575.17	814.51
575.33	868.34
575.49	894.08
575.65	1013.45
575.82	1090.69
575.98	1228.78
576.14	1331.76
576.30	2326.49
576.46	7377.37
576.62	14944.32
576.79	21551.65
576.95	14576.86
577.11	8725.52
577.27	5989.43
577.43	3997.64
577.59	2586.29
577.75	2010.52
577.92	1771.79
578.08	1678.16
578.24	1809.23
578.40	2644.81
578.56	6881.18
578.72	13977.68
578.88	19620.71
579.04	14153.22
579.21	8671.68
579.37	6202.42
579.53	4692.77
579.69	4325.31
579.85	5399.62
580.01	6717.34
580.17	6619.04
580.33	5650.05
580.49	4688.09
580.65	4126.36
580.82	3861.88
580.98	3602.08
581.14	3651.24
581.30	3976.57
581.46	4257.43
581.62	4531.28
581.78	4870.65
581.94	5224.08
582.10	5469.83
582.26	5626.65
582.42	5966.03
582.58	6225.82
582.74	6211.78
582.90	6331.15
583.06	6443.49
583.22	6387.32
583.38	6609.67
583.54	6232.85
583.70	6298.38
583.86	6115.82
584.02	6155.61
584.18	6120.50
584.34	5891.13
584.50	5849.00
584.66	5643.03
584.82	5701.54
584.98	5666.44
585.14	5603.24
585.30	5472.17
585.46	5242.80
585.62	5221.74
585.78	5425.36
585.94	5397.28
586.10	5430.04
586.26	5671.12
586.42	6085.39
586.58	7449.93
586.74	9062.55
586.90	11138.61
587.06	12999.34
587.22	12847.20
587.38	11410.11
587.54	9935.57
587.70	8170.81
587.86	7049.69
588.02	5734.31
588.18	5214.71
588.34	4734.90
588.49	4346.37
588.65	3845.50
588.81	3843.16
588.97	3581.02
589.13	3712.09
589.29	3534.21
589.45	3471.01
589.61	3398.46
589.77	3435.91
589.93	3618.47
590.08	3592.72
590.24	3719.11
590.40	3744.86
590.56	3861.88
590.72	3913.38
590.88	3988.27
591.04	4308.93
591.20	4383.82
591.35	4772.35
591.51	4760.65
591.67	5025.13
591.83	5336.42
591.99	5849.00
592.15	6286.68
592.31	6693.93
592.46	7309.49
592.62	8105.28
592.78	8826.16
592.94	9022.77
593.10	8945.53
593.26	8456.36
593.41	7957.82
593.57	7229.91
593.73	6174.33
593.89	5682.82
594.05	4985.34
594.20	4404.89
594.36	4042.11
594.52	3747.20
594.68	3576.34
594.84	3557.61
594.99	3398.46
595.15	3185.47
595.31	3274.41
595.47	3183.13
595.62	3258.03
595.78	3110.57
595.94	3122.27
596.10	3096.53
596.25	3155.04
596.41	3248.66
596.57	3028.65
596.73	3103.55
596.88	2946.73
597.04	3005.25
597.20	3143.34
597.36	3101.21
597.51	3246.32
597.67	3391.44
597.83	3482.72
597.99	3836.14
598.14	3864.22
598.30	4264.46
598.46	4440.00
598.61	4676.39
598.77	4865.97
598.93	5144.50
599.09	5270.89
599.24	5397.28
599.40	5514.30
599.56	5221.74
599.71	4889.38
599.87	4870.65
600.03	4491.49
600.18	4163.81
600.34	4067.85
600.50	3763.58
600.65	3363.35
600.81	3112.91
600.97	2911.63
601.12	2895.24
601.28	2740.77
601.44	2626.08
601.59	2415.43
601.75	2338.20
601.91	2408.41
602.06	2319.47
602.22	2331.17
602.37	2043.29
602.53	2066.69
602.69	2099.46
602.84	2033.93
603.00	1952.01
603.16	2050.31
603.31	2136.91
603.47	2069.03
603.62	2167.34
603.78	2225.85
603.94	2242.23
604.09	2272.66
604.25	2459.90
604.40	2483.31
604.56	2331.17
