SpectraSuite Data File
++++++++++++++++++++++++++++++++++++
Date: Mon Oct 07 15:00:09 GMT-05:00 2013
User: price-jones
Dark Spectrum Present: No
Reference Spectrum Present: No
Number of Sampled Component Spectra: 1
Spectrometers: USB2+H05261
Integration Time (usec): 1000000 (USB2+H05261)
Spectra Averaged: 1 (USB2+H05261)
Boxcar Smoothing: 0 (USB2+H05261)
Correct for Electrical Dark: No (USB2+H05261)
Strobe/Lamp Enabled: No (USB2+H05261)
Correct for Detector Non-linearity: No (USB2+H05261)
Correct for Stray Light: No (USB2+H05261)
Number of Pixels in Processed Spectrum: 2048
>>>>>Begin Processed Spectral Data<<<<<
365.73	0.00
365.92	0.00
366.12	0.00
366.32	0.00
366.52	0.00
366.72	191.92
366.91	0.00
367.11	74.90
367.31	74.90
367.51	81.92
367.70	198.95
367.90	423.64
368.10	126.39
368.30	210.65
368.49	0.00
368.69	362.78
368.89	177.88
369.09	4.68
369.28	159.16
369.48	0.00
369.68	28.09
369.87	168.52
370.07	0.00
370.27	528.96
370.47	255.12
370.66	306.61
370.86	435.34
371.06	713.86
371.25	1015.79
371.45	390.87
371.65	645.99
371.84	292.57
372.04	217.67
372.24	512.58
372.44	355.76
372.63	500.87
372.83	866.00
373.03	430.66
373.22	337.04
373.42	388.53
373.62	451.72
373.81	568.75
374.01	786.42
374.21	692.80
374.40	444.70
374.60	709.18
374.79	444.70
374.99	451.72
375.19	594.50
375.38	592.16
375.58	582.79
375.78	692.80
375.97	559.39
376.17	1060.26
376.37	470.45
376.56	676.41
376.76	365.12
376.95	416.62
377.15	704.50
377.35	575.77
377.54	627.26
377.74	330.02
377.93	402.57
378.13	564.07
378.33	767.70
378.52	475.13
378.72	823.87
378.91	662.37
379.11	444.70
379.31	454.06
379.50	271.50
379.70	751.31
379.89	758.33
380.09	484.49
380.28	255.12
380.48	524.28
380.68	423.64
380.87	327.68
381.07	493.85
381.26	912.81
381.46	299.59
381.65	559.39
381.85	402.57
382.04	648.33
382.24	650.67
382.43	407.25
382.63	367.46
382.83	456.40
383.02	819.19
383.22	772.38
383.41	334.70
383.61	444.70
383.80	866.00
384.00	517.26
384.19	409.59
384.39	470.45
384.58	437.68
384.78	641.31
384.97	557.05
385.17	500.87
385.36	449.38
385.56	704.50
385.75	315.97
385.95	468.11
386.14	791.10
386.34	355.76
386.53	624.92
386.72	351.08
386.92	812.17
387.11	638.97
387.31	716.20
387.50	414.27
387.70	369.80
387.89	503.22
388.09	294.91
388.28	346.40
388.48	308.95
388.67	716.20
388.86	416.62
389.06	477.47
389.25	589.82
389.45	524.28
389.64	580.45
389.84	826.21
390.03	709.18
390.22	587.47
390.42	507.90
390.61	290.23
390.81	332.36
391.00	571.09
391.19	805.14
391.39	613.22
391.58	697.48
391.78	552.37
391.97	592.16
392.16	367.46
392.36	826.21
392.55	819.19
392.75	461.09
392.94	372.15
393.13	737.27
393.33	418.96
393.52	461.09
393.71	919.83
393.91	571.09
394.10	362.78
394.29	482.15
394.49	461.09
394.68	638.97
394.88	889.40
395.07	772.38
395.26	676.41
395.46	608.54
395.65	816.85
395.84	695.14
396.04	1451.13
396.23	578.11
396.42	397.89
396.62	636.63
396.81	573.43
397.00	620.24
397.19	676.41
397.39	580.45
397.58	994.73
397.77	622.58
397.97	678.76
398.16	599.18
398.35	837.91
398.55	620.24
398.74	711.52
398.93	947.92
399.12	601.52
399.32	763.01
399.51	674.07
399.70	833.23
399.90	704.50
400.09	765.36
400.28	919.83
400.47	634.29
400.67	880.04
400.86	688.12
401.05	856.64
401.24	882.38
401.44	964.30
401.63	954.94
401.82	1053.24
402.01	575.77
402.21	971.32
402.40	800.46
402.59	650.67
402.78	716.20
402.97	674.07
403.17	816.85
403.36	849.61
403.55	631.94
403.74	755.99
403.93	798.12
404.13	1034.52
404.32	599.18
404.51	655.35
404.70	1043.88
404.89	685.78
405.09	1376.24
405.28	753.65
405.47	575.77
405.66	849.61
405.85	1004.09
406.05	774.72
406.24	713.86
406.43	945.58
406.62	936.21
406.81	1439.43
407.00	1020.47
407.20	800.46
407.39	739.61
407.58	755.99
407.77	950.26
407.96	1196.01
408.15	1020.47
408.34	894.08
408.54	959.62
408.73	954.94
408.92	856.64
409.11	1102.39
409.30	1118.78
409.49	627.26
409.68	788.76
409.87	973.66
410.07	716.20
410.26	786.42
410.45	809.83
410.64	641.31
410.83	971.32
411.02	807.48
411.21	1074.31
411.40	1132.82
411.59	837.91
411.78	840.25
411.98	943.24
412.17	791.10
412.36	826.21
412.55	781.74
412.74	1132.82
412.93	1256.87
413.12	891.74
413.31	1186.65
413.50	1093.03
413.69	926.85
413.88	1289.64
414.07	971.32
414.26	1057.92
414.45	835.57
414.64	1060.26
414.83	1125.80
415.02	1076.65
415.22	1153.88
415.41	1294.32
415.60	924.51
415.79	1006.43
415.98	1390.28
416.17	1027.50
416.36	1043.88
416.55	844.93
416.74	1196.01
416.93	1273.25
417.12	870.68
417.31	1025.15
417.50	926.85
417.69	1537.73
417.88	1074.31
418.07	854.30
418.26	1025.15
418.45	976.00
418.64	1383.26
418.83	1200.69
419.02	1139.84
419.21	992.39
419.39	1160.91
419.58	887.06
419.77	922.17
419.96	1287.29
420.15	1432.41
420.34	1121.12
420.53	1238.14
420.72	1320.06
420.91	1266.23
421.10	1090.69
421.29	1235.80
421.48	1350.49
421.67	1334.11
421.86	1064.94
422.05	1057.92
422.24	931.53
422.43	1081.33
422.61	940.90
422.80	1071.97
422.99	1139.84
423.18	964.30
423.37	1486.24
423.56	1160.91
423.75	1153.88
423.94	917.49
424.13	1064.94
424.32	1086.01
424.50	966.64
424.69	1020.47
424.88	1547.09
425.07	1128.14
425.26	1249.85
425.45	1259.21
425.64	880.04
425.83	1078.99
426.01	1392.62
426.20	1125.80
426.39	1074.31
426.58	1039.20
426.77	1064.94
426.96	1123.46
427.15	1163.25
427.33	961.96
427.52	1170.27
427.71	1076.65
427.90	1093.03
428.09	1078.99
428.28	1029.84
428.46	1100.05
428.65	1275.59
428.84	1043.88
429.03	1551.78
429.22	922.17
429.40	868.34
429.59	709.18
429.78	1121.12
429.97	830.89
430.16	823.87
430.34	903.45
430.53	954.94
430.72	882.38
430.91	1256.87
431.10	945.58
431.28	1247.51
431.47	1439.43
431.66	1303.68
431.85	1039.20
432.03	1165.59
432.22	1797.53
432.41	1153.88
432.60	1591.56
432.79	1114.10
432.97	1231.12
433.16	1069.62
433.35	908.13
433.54	1039.20
433.72	1324.74
433.91	1359.85
434.10	1097.71
434.28	1238.14
434.47	1118.78
434.66	1404.32
434.85	1128.14
435.03	1181.97
435.22	1708.59
435.41	1842.00
435.59	1579.86
435.78	1528.37
435.97	1219.42
436.16	1589.22
436.34	1219.42
436.53	1385.60
436.72	1568.16
436.90	1486.24
437.09	1341.13
437.28	1322.40
437.46	1191.33
437.65	1444.11
437.84	1390.28
438.02	1284.95
438.21	1446.45
438.40	1118.78
438.58	978.34
438.77	1343.47
438.96	1465.18
439.14	1219.42
439.33	1474.54
439.52	1226.44
439.70	1409.00
439.89	1444.11
440.08	1362.19
440.26	1378.58
440.45	1816.26
440.63	1565.82
440.82	1526.03
441.01	1458.15
441.19	1409.00
441.38	1329.42
441.57	1310.70
441.75	1689.87
441.94	1825.62
442.12	1483.90
442.31	1547.09
442.50	1549.43
442.68	1406.66
442.87	1469.86
443.05	1535.39
443.24	1537.73
443.43	1722.63
443.61	1905.20
443.80	1563.48
443.98	1502.62
444.17	1467.52
444.35	1853.70
444.54	1577.52
444.73	1479.22
444.91	1914.56
445.10	1324.74
445.28	1392.62
445.47	1547.09
445.65	1488.58
445.84	1397.30
446.02	1519.01
446.21	1530.71
446.39	1404.32
446.58	1703.91
446.77	1507.30
446.95	1614.97
447.14	1699.23
447.32	1970.73
447.51	1511.99
447.69	1692.21
447.88	1572.84
448.06	2083.08
448.25	1732.00
448.43	1490.92
448.62	1409.00
448.80	1612.63
448.99	1832.64
449.17	1533.05
449.36	1469.86
449.54	1818.60
449.73	1462.83
449.91	1694.55
450.10	1600.93
450.28	2375.64
450.46	2249.25
450.65	1930.94
450.83	1778.81
451.02	1640.72
451.20	1619.65
451.39	1687.53
451.57	1614.97
451.76	1645.40
451.94	1617.31
452.13	1820.94
452.31	1966.05
452.49	1732.00
452.68	1399.64
452.86	1741.36
453.05	2188.40
453.23	1673.48
453.42	1462.83
453.60	1570.50
453.78	1729.66
453.97	1483.90
454.15	1465.18
454.34	1610.29
454.52	1530.71
454.70	2029.24
454.89	1870.09
455.07	1584.54
455.26	1846.68
455.44	1961.37
455.62	1689.87
455.81	1830.30
455.99	1935.62
456.17	1919.24
456.36	1696.89
456.54	1746.04
456.73	1708.59
456.91	1633.69
457.09	1877.11
457.28	2157.97
457.46	1729.66
457.64	1973.07
457.83	1748.38
458.01	1636.03
458.19	1839.66
458.38	1722.63
458.56	1834.98
458.74	1523.69
458.93	1863.07
459.11	2108.82
459.29	1633.69
459.48	1952.01
459.66	2289.04
459.84	2005.84
460.03	2761.83
460.21	2031.58
460.39	1732.00
460.57	2172.02
460.76	1928.60
460.94	1818.60
461.12	2223.51
461.31	2134.57
461.49	1870.09
461.67	1802.21
461.85	1909.88
462.04	1785.83
462.22	8402.52
462.40	2176.70
462.59	2186.06
462.77	1673.48
462.95	1989.46
463.13	1619.65
463.32	2209.47
463.50	1902.86
463.68	1940.30
463.86	1902.86
464.05	1818.60
464.23	2010.52
464.41	2010.52
464.59	1757.74
464.78	1699.23
464.96	1783.49
465.14	1888.81
465.32	1774.13
465.50	1977.75
465.69	1984.77
465.87	1675.82
466.05	1921.58
466.23	1591.56
466.41	1699.23
466.60	1771.79
466.78	1849.02
466.96	1994.14
467.14	2099.46
467.32	2230.53
467.51	1914.56
467.69	2064.35
467.87	2401.39
468.05	1928.60
468.23	2380.32
468.41	2062.01
468.60	1980.09
468.78	1895.83
468.96	2143.93
469.14	2071.37
469.32	1605.61
469.50	1629.01
469.69	1944.99
469.87	1830.30
470.05	1970.73
470.23	1851.36
470.41	1790.51
470.59	1806.89
470.77	1944.99
470.95	1926.26
471.14	2279.68
471.32	1956.69
471.50	2335.85
471.68	2064.35
471.86	2141.59
472.04	1802.21
472.22	1961.37
472.40	1717.95
472.58	1732.00
472.77	1905.20
472.95	1980.09
473.13	2497.35
473.31	2230.53
473.49	1802.21
473.67	1865.41
473.85	2181.38
474.03	2335.85
474.21	2029.24
474.39	2319.47
474.57	2562.89
474.75	2113.50
474.93	1937.96
475.12	1884.13
475.30	2139.25
475.48	2043.29
475.66	2146.27
475.84	2076.06
476.02	2099.46
476.20	2256.28
476.38	2062.01
476.56	2768.85
476.74	2111.16
476.92	2087.76
477.10	2157.97
477.28	2314.79
477.46	2195.42
477.64	2291.38
477.82	2326.49
478.00	2249.25
478.18	2284.36
478.36	2279.68
478.54	2141.59
478.72	2153.29
478.90	2317.13
479.08	2392.03
479.26	2396.71
479.44	2368.62
479.62	2104.14
479.80	2267.98
479.98	2104.14
480.16	2216.49
480.34	2572.25
480.52	2270.32
480.70	2392.03
480.88	2356.92
481.06	2333.51
481.24	2298.41
481.41	2436.50
481.59	2682.25
481.77	2476.29
481.95	2455.22
482.13	2839.07
482.31	2427.14
482.49	2352.24
482.67	2597.99
482.85	2679.91
483.03	2525.44
483.21	2555.86
483.39	2438.84
483.57	2565.23
483.74	2993.55
483.92	2679.91
484.10	2462.24
484.28	2841.41
484.46	3506.12
484.64	2593.31
484.82	2633.10
485.00	2452.88
485.18	2616.72
485.35	2574.59
485.53	2197.76
485.71	2506.71
485.89	2038.61
486.07	2272.66
486.25	3077.80
486.43	2644.81
486.61	2717.36
486.78	2815.66
486.96	2342.88
487.14	2546.50
487.32	2712.68
487.50	2574.59
487.68	2984.18
487.85	2710.34
488.03	2963.12
488.21	3103.55
488.39	2637.78
488.57	2970.14
488.75	2745.45
488.92	6499.67
489.10	3119.93
489.28	3723.79
489.46	2885.88
489.64	3103.55
489.81	3063.76
489.99	3332.92
490.17	3028.65
490.35	3934.44
490.53	2984.18
490.70	2834.39
490.88	3220.58
491.06	3096.53
491.24	3243.98
491.41	3442.93
491.59	3129.30
491.77	2778.22
491.95	2724.38
492.13	2925.67
492.30	3162.06
492.48	3290.79
492.66	3407.82
492.84	3122.27
493.01	3269.73
493.19	3126.96
493.37	3676.98
493.54	3442.93
493.72	3368.03
493.90	3302.50
494.08	3262.71
494.25	3597.40
494.43	3508.46
494.61	3407.82
494.79	3283.77
494.96	3091.85
495.14	3604.42
495.32	3215.90
495.49	3368.03
495.67	3480.38
495.85	3372.71
496.02	3311.86
496.20	3812.73
496.38	3613.79
496.55	3641.87
496.73	3712.09
496.91	3501.44
497.09	3866.56
497.26	3543.57
497.44	3578.68
497.62	3569.32
497.79	3524.85
497.97	3393.78
498.14	3538.89
498.32	3590.38
498.50	3749.54
498.67	3456.97
498.85	3772.94
499.03	3669.96
499.20	3641.87
499.38	3686.34
499.56	3618.47
499.73	4107.64
499.91	3719.11
500.08	3679.32
500.26	3487.40
500.44	3405.48
500.61	3674.64
500.79	3435.91
500.97	3719.11
501.14	3782.31
501.32	3604.42
501.49	3915.72
501.67	3658.26
501.84	3632.51
502.02	3459.31
502.20	4238.71
502.37	3840.82
502.55	3634.85
502.72	3815.07
502.90	4063.17
503.07	3840.82
503.25	3798.69
503.43	3379.73
503.60	3517.83
503.78	3782.31
503.95	3707.41
504.13	3620.81
504.30	3915.72
504.48	4093.60
504.65	4105.30
504.83	4173.18
505.01	3817.41
505.18	3915.72
505.36	3892.31
505.53	3899.33
505.71	3934.44
505.88	4430.63
506.06	3962.53
506.23	3822.09
506.41	3730.81
506.58	4060.83
506.76	3896.99
506.93	3826.78
507.11	4046.79
507.28	3716.77
507.46	3688.68
507.63	3829.12
507.81	3581.02
507.98	3730.81
508.16	3805.71
508.33	3927.42
508.50	4271.48
508.68	4081.89
508.85	3943.80
509.03	3922.74
509.20	3906.35
509.38	4074.87
509.55	4210.62
509.73	4276.16
509.90	4327.65
510.08	3964.87
510.25	4177.86
510.42	3859.54
510.60	4105.30
510.77	4098.28
510.95	4180.20
511.12	4128.70
511.30	4287.86
511.47	4351.06
511.64	4809.80
511.82	4161.47
511.99	4046.79
512.17	3999.98
512.34	3840.82
512.51	3885.29
512.69	4014.02
512.86	4458.72
513.04	3929.76
513.21	4098.28
513.38	3962.53
513.56	3962.53
513.73	3981.25
513.90	3798.69
514.08	3833.80
514.25	4098.28
514.43	4112.32
514.60	3941.46
514.77	3922.74
514.95	4234.03
515.12	3887.63
515.29	4138.07
515.47	4187.22
515.64	4224.67
515.81	4100.62
515.99	4468.08
516.16	4016.36
516.33	3838.48
516.51	3339.94
516.68	3349.31
516.85	3405.48
517.03	3576.34
517.20	4142.75
517.37	4194.24
517.54	4313.61
517.72	3971.89
517.89	3597.40
518.06	3468.67
518.24	4507.87
518.41	4458.72
518.58	4126.36
518.75	3843.16
518.93	4117.00
519.10	4117.00
519.27	4011.68
519.45	4168.49
519.62	4191.90
519.79	4128.70
519.96	3906.35
520.14	4262.12
520.31	4322.97
520.48	4088.92
520.65	4280.84
520.83	4414.25
521.00	4479.79
521.17	4528.94
521.34	4250.41
521.52	4250.41
521.69	4456.38
521.86	4404.89
522.03	4517.23
522.20	4676.39
522.38	4056.15
522.55	4224.67
522.72	4126.36
522.89	4528.94
523.07	4816.82
523.24	4292.54
523.41	4175.52
523.58	4517.23
523.75	4327.65
523.92	4365.10
524.10	4493.83
524.27	4683.41
524.44	4444.68
524.61	4777.03
524.78	4465.74
524.96	4627.24
525.13	4528.94
525.30	4795.76
525.47	4791.08
525.64	4479.79
525.81	4493.83
525.98	4262.12
526.16	4126.36
526.33	3932.10
526.50	3730.81
526.67	3929.76
526.84	3740.18
527.01	3948.48
527.18	4390.84
527.36	4369.78
527.53	4215.30
527.70	4732.56
527.87	4463.40
528.04	4975.98
528.21	4285.52
528.38	4891.72
528.55	5018.11
528.72	5130.45
528.89	5268.55
529.07	4622.56
529.24	4421.27
529.41	5088.32
529.58	4596.81
529.75	4322.97
529.92	4711.50
530.09	4660.01
530.26	4945.55
530.43	4727.88
530.60	4718.52
530.77	4580.43
530.94	5027.47
531.11	4655.33
531.28	4613.20
531.46	4421.27
531.63	4746.61
531.80	4601.49
531.97	4711.50
532.14	4491.49
532.31	4472.76
532.48	4271.48
532.65	4437.66
532.82	4222.33
532.99	4437.66
533.16	4664.69
533.33	4744.27
533.50	4580.43
533.67	4423.61
533.84	4531.28
534.01	4638.94
534.18	4489.15
534.35	4561.70
534.52	4652.98
534.69	5315.36
534.86	4730.22
535.03	4676.39
535.20	4823.84
535.37	5130.45
535.54	5043.85
535.71	4636.60
535.88	5324.72
536.05	4521.92
536.22	4814.48
536.38	4383.82
536.55	4585.11
536.72	4706.82
536.89	4372.12
537.06	4526.60
537.23	4531.28
537.40	4723.20
537.57	4601.49
537.74	4908.10
537.91	4877.68
538.08	4655.33
538.25	4814.48
538.42	4615.54
538.59	4760.65
538.75	4580.43
538.92	4678.73
539.09	4884.70
539.26	4526.60
539.43	4950.23
539.60	4734.90
539.77	4671.71
539.94	4470.42
540.11	4594.47
540.28	4814.48
540.44	4891.72
540.61	4395.53
540.78	4451.70
540.95	4503.19
541.12	5186.63
541.29	4428.29
541.46	5097.69
541.62	4641.28
541.79	4444.68
541.96	4351.06
542.13	4550.00
542.30	4531.28
542.47	4863.63
542.63	4683.41
542.80	4898.74
542.97	5064.92
543.14	4461.06
543.31	4727.88
543.48	4723.20
543.64	5020.45
543.81	4805.12
543.98	4706.82
544.15	4451.70
544.32	4767.67
544.48	4762.99
544.65	4706.82
544.82	4774.69
544.99	4568.73
545.16	4994.70
545.32	4657.67
545.49	4873.00
545.66	4774.69
545.83	4734.90
546.00	4489.15
546.16	4688.09
546.33	4720.86
546.50	4755.97
546.67	5172.58
546.83	5093.01
547.00	4873.00
547.17	4327.65
547.34	4449.36
547.50	4697.46
547.67	4638.94
547.84	4664.69
548.00	4947.89
548.17	4685.75
548.34	4805.12
548.51	5270.89
548.67	5193.65
548.84	4887.04
549.01	4823.84
549.18	4816.82
549.34	4905.76
549.51	4858.95
549.68	4795.76
549.84	4744.27
550.01	4608.51
550.18	6338.17
550.34	5572.82
550.51	4877.68
550.68	5324.72
550.84	4821.50
551.01	4723.20
551.18	4854.27
551.34	4755.97
551.51	4753.63
551.68	4802.78
551.84	5111.73
552.01	4662.35
552.18	4664.69
552.34	4809.80
552.51	4702.14
552.68	4863.63
552.84	4587.45
553.01	4718.52
553.18	4992.36
553.34	4788.74
553.51	4456.38
553.67	4957.25
553.84	5430.04
554.01	5144.50
554.17	4922.15
554.34	4692.77
554.51	5001.72
554.67	5132.79
554.84	5027.47
555.00	4891.72
555.17	4805.12
555.33	5090.67
555.50	4770.01
555.67	4959.60
555.83	4514.89
556.00	4802.78
556.16	6906.92
556.33	4755.97
556.50	4683.41
556.66	4592.13
556.83	4477.44
556.99	4440.00
557.16	4631.92
557.32	4671.71
557.49	4657.67
557.65	4568.73
557.82	4587.45
557.98	4641.28
558.15	4524.26
558.32	4458.72
558.48	4257.43
558.65	4561.70
558.81	4688.09
558.98	4510.21
559.14	4809.80
559.31	4681.07
559.47	4770.01
559.64	4348.72
559.80	4610.86
559.97	4297.22
560.13	4599.15
560.30	4554.68
560.46	4606.17
560.63	4758.31
560.79	4725.54
560.96	4645.96
561.12	4255.09
561.29	4671.71
561.45	4465.74
561.61	4690.43
561.78	5687.50
561.94	4540.64
562.11	4664.69
562.27	4699.80
562.44	4442.34
562.60	4727.88
562.77	4540.64
562.93	5516.64
563.10	4816.82
563.26	4613.20
563.42	4971.30
563.59	4760.65
563.75	4538.30
563.92	4978.32
564.08	4727.88
564.24	4844.91
564.41	5327.06
564.57	4454.04
564.74	4533.62
564.90	4737.24
565.07	4802.78
565.23	4683.41
565.39	4404.89
565.56	4608.51
565.72	4287.86
565.88	4449.36
566.05	4428.29
566.21	4594.47
566.38	4685.75
566.54	4746.61
566.70	4566.39
566.87	4573.41
567.03	4379.14
567.19	4671.71
567.36	4788.74
567.52	4545.32
567.68	4655.33
567.85	4730.22
568.01	4358.08
568.17	4194.24
568.34	4358.08
568.50	4882.36
568.66	4463.40
568.83	5467.49
568.99	4341.69
569.15	4725.54
569.32	4557.02
569.48	4454.04
569.64	4367.44
569.81	4472.76
569.97	4355.74
570.13	4568.73
570.30	4367.44
570.46	4245.73
570.62	4304.25
570.78	4299.56
570.95	4182.54
571.11	4922.15
571.27	5153.86
571.43	4189.56
571.60	4652.98
571.76	4425.95
571.92	4636.60
572.09	4458.72
572.25	4589.79
572.41	4730.22
572.57	4594.47
572.74	5062.58
572.90	4870.65
573.06	4634.26
573.22	4671.71
573.38	4868.31
573.55	4823.84
573.71	4990.02
573.87	4723.20
574.03	4500.85
574.20	4482.13
574.36	4877.68
574.52	4437.66
574.68	4421.27
574.84	4564.04
575.01	4376.80
575.17	4615.54
575.33	4475.10
575.49	4772.35
575.65	4636.60
575.82	4643.62
575.98	5247.48
576.14	4517.23
576.30	4564.04
576.46	4669.37
576.62	4615.54
576.79	4608.51
576.95	4835.55
577.11	4383.82
577.27	4283.18
577.43	4788.74
577.59	4798.10
577.75	4627.24
577.92	4290.20
578.08	4259.78
578.24	4304.25
578.40	4589.79
578.56	4564.04
578.72	4819.16
578.88	4521.92
579.04	4447.02
579.21	4592.13
579.37	4491.49
579.53	4517.23
579.69	4744.27
579.85	4437.66
580.01	4720.86
580.17	4421.27
580.33	4329.99
580.49	4610.86
580.65	4615.54
580.82	4550.00
580.98	4283.18
581.14	4545.32
581.30	4875.34
581.46	4617.88
581.62	4851.93
581.78	4290.20
581.94	4702.14
582.10	4285.52
582.26	4514.89
582.42	4442.34
582.58	4720.86
582.74	4500.85
582.90	4652.98
583.06	4741.93
583.22	4685.75
583.38	4510.21
583.54	4486.81
583.70	5055.56
583.86	4643.62
584.02	4699.80
584.18	5006.41
584.34	4454.04
584.50	4631.92
584.66	4503.19
584.82	4290.20
584.98	4627.24
585.14	4346.37
585.30	4624.90
585.46	4290.20
585.62	4224.67
585.78	4262.12
585.94	4699.80
586.10	4540.64
586.26	4617.88
586.42	5048.54
586.58	4629.58
586.74	4449.36
586.90	4545.32
587.06	4660.01
587.22	4566.39
587.38	4379.14
587.54	4241.05
587.70	4690.43
587.86	4617.88
588.02	4318.29
588.18	4451.70
588.34	4376.80
588.49	3569.32
588.65	3756.56
588.81	3817.41
588.97	3672.30
589.13	3754.22
589.29	4014.02
589.45	4369.78
589.61	4102.96
589.77	4418.93
589.93	4105.30
590.08	4100.62
590.24	4063.17
590.40	4299.56
590.56	4491.49
590.72	4203.60
590.88	4112.32
591.04	4390.84
591.20	4222.33
591.35	4713.84
591.51	4327.65
591.67	4039.76
591.83	4201.26
591.99	4393.19
592.15	4379.14
592.31	4365.10
592.46	4250.41
592.62	4582.77
592.78	4126.36
592.94	4124.02
593.10	4269.14
593.26	4145.09
593.41	4360.42
593.57	4147.43
593.73	4210.62
593.89	4496.17
594.05	4241.05
594.20	4084.23
594.36	4592.13
594.52	4105.30
594.68	4098.28
594.84	4587.45
594.99	4777.03
595.15	4409.57
595.31	4521.92
595.47	4589.79
595.62	4257.43
595.78	4344.03
595.94	4215.30
596.10	4571.07
596.25	4236.37
596.41	4482.13
596.57	4114.66
596.73	4161.47
596.88	4278.50
597.04	4351.06
597.20	3974.23
597.36	4215.30
597.51	4095.94
597.67	4086.58
597.83	4088.92
597.99	4344.03
598.14	4250.41
598.30	4582.77
598.46	4084.23
598.61	4542.98
