SpectraSuite Data File
++++++++++++++++++++++++++++++++++++
Date: Mon Oct 07 15:00:13 GMT-05:00 2013
User: price-jones
Dark Spectrum Present: No
Reference Spectrum Present: No
Number of Sampled Component Spectra: 1
Spectrometers: USB2+H05261
Integration Time (usec): 1000000 (USB2+H05261)
Spectra Averaged: 1 (USB2+H05261)
Boxcar Smoothing: 0 (USB2+H05261)
Correct for Electrical Dark: No (USB2+H05261)
Strobe/Lamp Enabled: No (USB2+H05261)
Correct for Detector Non-linearity: No (USB2+H05261)
Correct for Stray Light: No (USB2+H05261)
Number of Pixels in Processed Spectrum: 2048
>>>>>Begin Processed Spectral Data<<<<<
365.73	0.00
365.92	0.00
366.12	0.00
366.32	0.00
366.52	0.00
366.72	168.52
366.91	0.00
367.11	128.73
367.31	32.77
367.51	145.11
367.70	203.63
367.90	463.43
368.10	198.95
368.30	119.37
368.49	0.00
368.69	337.04
368.89	156.82
369.09	0.00
369.28	119.37
369.48	0.00
369.68	11.70
369.87	280.86
370.07	77.24
370.27	531.30
370.47	241.08
370.66	177.88
370.86	430.66
371.06	760.67
371.25	966.64
371.45	304.27
371.65	571.09
371.84	152.13
372.04	177.88
372.24	390.87
372.44	173.20
372.63	491.51
372.83	896.43
373.03	346.40
373.22	276.18
373.42	255.12
373.62	362.78
373.81	521.94
374.01	723.23
374.21	603.86
374.40	341.72
374.60	777.06
374.79	325.33
374.99	369.80
375.19	496.19
375.38	503.22
375.58	365.12
375.78	617.90
375.97	566.41
376.17	973.66
376.37	421.30
376.56	482.15
376.76	212.99
376.95	238.73
377.15	624.92
377.35	524.28
377.54	545.34
377.74	231.71
377.93	283.20
378.13	489.17
378.33	727.91
378.52	395.55
378.72	606.20
378.91	559.39
379.11	285.55
379.31	306.61
379.50	198.95
379.70	674.07
379.89	662.37
380.09	292.57
380.28	135.75
380.48	358.10
380.68	337.04
380.87	152.13
381.07	491.51
381.26	692.80
381.46	273.84
381.65	510.24
381.85	273.84
382.04	561.73
382.24	477.47
382.43	346.40
382.63	196.60
382.83	395.55
383.02	638.97
383.22	793.44
383.41	231.71
383.61	388.53
383.80	734.93
384.00	376.83
384.19	313.63
384.39	437.68
384.58	348.74
384.78	449.38
384.97	463.43
385.17	376.83
385.36	339.38
385.56	561.73
385.75	227.03
385.95	386.19
386.14	676.41
386.34	241.08
386.53	486.83
386.72	318.31
386.92	650.67
387.11	430.66
387.31	561.73
387.50	210.65
387.70	217.67
387.89	416.62
388.09	325.33
388.28	297.25
388.48	210.65
388.67	627.26
388.86	383.85
389.06	257.46
389.25	430.66
389.45	475.13
389.64	397.89
389.84	704.50
390.03	566.41
390.22	475.13
390.42	262.14
390.61	292.57
390.81	301.93
391.00	402.57
391.19	727.91
391.39	344.06
391.58	592.16
391.78	451.72
391.97	468.11
392.16	245.76
392.36	758.33
392.55	748.97
392.75	425.98
392.94	285.55
393.13	582.79
393.33	201.29
393.52	337.04
393.71	758.33
393.91	346.40
394.10	227.03
394.29	278.52
394.49	337.04
394.68	496.19
394.88	681.10
395.07	669.39
395.26	437.68
395.46	337.04
395.65	699.82
395.84	580.45
396.04	1212.40
396.23	360.44
396.42	355.76
396.62	505.56
396.81	517.26
397.00	514.92
397.19	458.74
397.39	430.66
397.58	856.64
397.77	327.68
397.97	444.70
398.16	393.21
398.35	645.99
398.55	205.97
398.74	493.85
398.93	791.10
399.12	407.25
399.32	664.71
399.51	461.09
399.70	620.24
399.90	638.97
400.09	575.77
400.28	720.88
400.47	407.25
400.67	643.65
400.86	540.66
401.05	571.09
401.24	648.33
401.44	697.48
401.63	734.93
401.82	840.25
402.01	365.12
402.21	664.71
402.40	676.41
402.59	458.74
402.78	484.49
402.97	472.79
403.17	486.83
403.36	503.22
403.55	538.32
403.74	489.17
403.93	395.55
404.13	887.06
404.32	376.83
404.51	355.76
404.70	678.76
404.89	451.72
405.09	1013.45
405.28	507.90
405.47	360.44
405.66	669.39
405.85	795.78
406.05	524.28
406.24	505.56
406.43	557.05
406.62	615.56
406.81	1200.69
407.00	800.46
407.20	550.03
407.39	475.13
407.58	402.57
407.77	725.57
407.96	901.11
408.15	758.33
408.34	631.94
408.54	645.99
408.73	613.22
408.92	458.74
409.11	753.65
409.30	805.14
409.49	386.19
409.68	482.15
409.87	535.98
410.07	442.36
410.26	564.07
410.45	528.96
410.64	465.77
410.83	573.43
411.02	477.47
411.21	706.84
411.40	835.57
411.59	543.00
411.78	479.81
411.98	528.96
412.17	407.25
412.36	564.07
412.55	468.11
412.74	739.61
412.93	1071.97
413.12	444.70
413.31	826.21
413.50	678.76
413.69	505.56
413.88	964.30
414.07	681.10
414.26	622.58
414.45	475.13
414.64	730.25
414.83	711.52
415.02	617.90
415.22	744.29
415.41	912.81
415.60	512.58
415.79	550.03
415.98	1018.13
416.17	585.13
416.36	685.78
416.55	475.13
416.74	854.30
416.93	922.17
417.12	716.20
417.31	578.11
417.50	550.03
417.69	1123.46
417.88	704.50
418.07	465.77
418.26	531.30
418.45	653.01
418.64	1125.80
418.83	777.06
419.02	814.51
419.21	739.61
419.39	688.12
419.58	465.77
419.77	514.92
419.96	889.40
420.15	1118.78
420.34	730.25
420.53	784.08
420.72	896.43
420.91	763.01
421.10	641.31
421.29	755.99
421.48	826.21
421.67	898.77
421.86	571.09
422.05	580.45
422.24	601.52
422.43	692.80
422.61	454.06
422.80	634.29
422.99	641.31
423.18	622.58
423.37	1020.47
423.56	791.10
423.75	823.87
423.94	451.72
424.13	575.77
424.32	552.37
424.50	617.90
424.69	655.35
424.88	1078.99
425.07	592.16
425.26	767.70
425.45	887.06
425.64	552.37
425.83	601.52
426.01	1025.15
426.20	779.40
426.39	641.31
426.58	622.58
426.77	737.27
426.96	786.42
427.15	737.27
427.33	568.75
427.52	753.65
427.71	657.69
427.90	795.78
428.09	671.73
428.28	454.06
428.46	608.54
428.65	791.10
428.84	559.39
429.03	1130.48
429.22	585.13
429.40	454.06
429.59	451.72
429.78	870.68
429.97	571.09
430.16	547.69
430.34	599.18
430.53	608.54
430.72	631.94
430.91	922.17
431.10	627.26
431.28	720.88
431.47	896.43
431.66	788.76
431.85	634.29
432.03	781.74
432.22	1441.77
432.41	723.23
432.60	1001.75
432.79	622.58
432.97	861.32
433.16	676.41
433.35	477.47
433.54	606.20
433.72	870.68
433.91	952.60
434.10	613.22
434.28	807.48
434.47	669.39
434.66	1001.75
434.85	624.92
435.03	805.14
435.22	1130.48
435.41	1296.66
435.59	957.28
435.78	826.21
435.97	645.99
436.16	1060.26
436.34	706.84
436.53	774.72
436.72	1043.88
436.90	856.64
437.09	842.59
437.28	758.33
437.46	739.61
437.65	978.34
437.84	849.61
438.02	814.51
438.21	830.89
438.40	709.18
438.58	615.56
438.77	763.01
438.96	732.59
439.14	596.84
439.33	987.71
439.52	732.59
439.70	835.57
439.89	1039.20
440.08	823.87
440.26	847.27
440.45	1181.97
440.63	880.04
440.82	779.40
441.01	933.87
441.19	793.44
441.38	730.25
441.57	828.55
441.75	1284.95
441.94	1306.02
442.12	905.79
442.31	772.38
442.50	812.17
442.68	774.72
442.87	849.61
443.05	896.43
443.24	929.19
443.43	1050.90
443.61	1284.95
443.80	868.34
443.98	791.10
444.17	894.08
444.35	1151.54
444.54	840.25
444.73	812.17
444.91	1259.21
445.10	755.99
445.28	741.95
445.47	814.51
445.65	819.19
445.84	844.93
446.02	858.98
446.21	788.76
446.39	819.19
446.58	997.07
446.77	847.27
446.95	877.70
447.14	1022.81
447.32	1280.27
447.51	901.11
447.69	959.62
447.88	933.87
448.06	1343.47
448.25	1050.90
448.43	727.91
448.62	704.50
448.80	1104.73
448.99	1114.10
449.17	734.93
449.36	844.93
449.54	1181.97
449.73	868.34
449.91	992.39
450.10	842.59
450.28	1643.06
450.46	1547.09
450.65	1203.04
450.83	1034.52
451.02	894.08
451.20	999.41
451.39	917.49
451.57	971.32
451.76	884.72
451.94	933.87
452.13	1118.78
452.31	1224.10
452.49	1050.90
452.68	791.10
452.86	1046.22
453.05	1530.71
453.23	884.72
453.42	695.14
453.60	898.77
453.78	1118.78
453.97	755.99
454.15	645.99
454.34	788.76
454.52	777.06
454.70	1369.21
454.89	1167.93
455.07	760.67
455.26	1104.73
455.44	1289.64
455.62	959.62
455.81	1118.78
455.99	1090.69
456.17	1132.82
456.36	966.64
456.54	851.96
456.73	933.87
456.91	842.59
457.09	1081.33
457.28	1259.21
457.46	1025.15
457.64	1296.66
457.83	868.34
458.01	868.34
458.19	1029.84
458.38	912.81
458.56	1001.75
458.74	908.13
458.93	1095.37
459.11	1261.55
459.29	791.10
459.48	1102.39
459.66	1528.37
459.84	1128.14
460.03	2162.66
460.21	1268.57
460.39	1011.11
460.57	1394.96
460.76	1144.52
460.94	1137.50
461.12	1523.69
461.31	1423.05
461.49	1086.01
461.67	858.98
461.85	1121.12
462.04	1198.35
462.22	7442.90
462.40	1345.81
462.59	1434.75
462.77	1025.15
462.95	1177.29
463.13	826.21
463.32	1179.63
463.50	1071.97
463.68	1135.16
463.86	1064.94
464.05	973.66
464.23	1373.89
464.41	1224.10
464.59	976.00
464.78	903.45
464.96	905.79
465.14	1067.28
465.32	926.85
465.50	1228.78
465.69	1259.21
465.87	880.04
466.05	1158.57
466.23	844.93
466.41	1011.11
466.60	943.24
466.78	973.66
466.96	1310.70
467.14	1086.01
467.32	1329.42
467.51	1268.57
467.69	1233.46
467.87	1420.71
468.05	1142.18
468.23	1434.75
468.41	1315.38
468.60	1071.97
468.78	1095.37
468.96	1345.81
469.14	1219.42
469.32	741.95
469.50	793.44
469.69	1086.01
469.87	1043.88
470.05	1083.67
470.23	1008.77
470.41	910.47
470.59	933.87
470.77	1156.22
470.95	1093.03
471.14	1275.59
471.32	1048.56
471.50	1479.22
471.68	1090.69
471.86	1226.44
472.04	877.70
472.22	1179.63
472.40	814.51
472.58	1018.13
472.77	968.98
472.95	1071.97
473.13	1631.35
473.31	1453.47
473.49	833.23
473.67	919.83
473.85	1219.42
474.03	1350.49
474.21	1205.38
474.39	1416.02
474.57	1657.10
474.75	1233.46
474.93	1025.15
475.12	880.04
475.30	1100.05
475.48	1095.37
475.66	1221.76
475.84	1118.78
476.02	1111.75
476.20	1284.95
476.38	1188.99
476.56	1888.81
476.74	1153.88
476.92	1050.90
477.10	1282.61
477.28	1387.94
477.46	1114.10
477.64	1308.36
477.82	1184.31
478.00	1177.29
478.18	1306.02
478.36	1235.80
478.54	1034.52
478.72	1252.19
478.90	1191.33
479.08	1357.51
479.26	1291.98
479.44	1238.14
479.62	1043.88
479.80	1149.20
479.98	1121.12
480.16	1247.51
480.34	1535.39
480.52	1177.29
480.70	1423.05
480.88	1086.01
481.06	1114.10
481.24	1221.76
481.41	1294.32
481.59	1348.15
481.77	1174.95
481.95	1235.80
482.13	1692.21
482.31	1334.11
482.49	1074.31
482.67	1420.71
482.85	1474.54
483.03	1490.92
483.21	1315.38
483.39	1158.57
483.57	1303.68
483.74	1769.44
483.92	1364.53
484.10	1177.29
484.28	1612.63
484.46	2038.61
484.64	1254.53
484.82	1348.15
485.00	1291.98
485.18	1296.66
485.35	1289.64
485.53	994.73
485.71	1558.80
485.89	997.07
486.07	1090.69
486.25	1998.82
486.43	1533.05
486.61	1699.23
486.78	1418.36
486.96	1165.59
487.14	1336.45
487.32	1352.83
487.50	1387.94
487.68	1624.33
487.85	1315.38
488.03	1521.35
488.21	1827.96
488.39	1409.00
488.57	1563.48
488.75	1266.23
488.92	5036.83
489.10	1739.02
489.28	2125.21
489.46	1427.73
489.64	1596.25
489.81	1584.54
489.99	1675.82
490.17	1610.29
490.35	2394.37
490.53	1556.46
490.70	1511.99
490.88	1797.53
491.06	1551.78
491.24	1734.34
491.41	1949.67
491.59	1619.65
491.77	1401.98
491.95	1310.70
492.13	1387.94
492.30	1596.25
492.48	1563.48
492.66	1626.67
492.84	1530.71
493.01	1694.55
493.19	1519.01
493.37	2118.18
493.54	1853.70
493.72	1811.57
493.90	1610.29
494.08	1547.09
494.25	1856.04
494.43	1839.66
494.61	1767.10
494.79	1533.05
494.96	1582.20
495.14	1930.94
495.32	1661.78
495.49	1858.39
495.67	1666.46
495.85	1640.72
496.02	1577.52
496.20	1956.69
496.38	1916.90
496.55	1734.34
496.73	1921.58
496.91	1678.16
497.09	2080.74
497.26	1788.17
497.44	1708.59
497.62	1797.53
497.79	1797.53
497.97	1849.02
498.14	1870.09
498.32	1830.30
498.50	1947.33
498.67	1778.81
498.85	1902.86
499.03	1755.40
499.20	1842.00
499.38	1748.38
499.56	1839.66
499.73	2317.13
499.91	1937.96
500.08	2012.86
500.26	1802.21
500.44	1614.97
500.61	1909.88
500.79	1624.33
500.97	2092.44
501.14	2179.04
501.32	1895.83
501.49	2200.10
501.67	1771.79
501.84	1933.28
502.02	1624.33
502.20	2338.20
502.37	1966.05
502.55	1755.40
502.72	1963.71
502.90	2033.93
503.07	1926.26
503.25	1799.87
503.43	1664.12
503.60	1792.85
503.78	1851.36
503.95	1825.62
504.13	1755.40
504.30	2017.54
504.48	2204.78
504.65	2326.49
504.83	2179.04
505.01	1842.00
505.18	1933.28
505.36	1916.90
505.53	1905.20
505.71	1816.26
505.88	2401.39
506.06	1853.70
506.23	1926.26
506.41	1795.19
506.58	1954.35
506.76	2029.24
506.93	1959.03
507.11	2022.22
507.28	1767.10
507.46	1837.32
507.63	1982.43
507.81	1692.21
507.98	1881.79
508.16	1977.75
508.33	1825.62
508.50	2174.36
508.68	2008.18
508.85	2069.03
509.03	1895.83
509.20	1849.02
509.38	1940.30
509.55	2293.72
509.73	2258.62
509.90	2373.30
510.08	1905.20
510.25	2221.17
510.42	1818.60
510.60	1907.54
510.77	2403.73
510.95	2235.21
511.12	1907.54
511.30	2172.02
511.47	2097.12
511.64	2480.97
511.82	1987.11
511.99	1900.52
512.17	1860.73
512.34	1767.10
512.51	1853.70
512.69	1895.83
512.86	2387.35
513.04	1846.68
513.21	2113.50
513.38	1839.66
513.56	1998.82
513.73	1888.81
513.90	1837.32
514.08	1624.33
514.25	2083.08
514.43	2045.63
514.60	1825.62
514.77	1900.52
514.95	2104.14
515.12	1933.28
515.29	2108.82
515.47	2094.78
515.64	2118.18
515.81	1980.09
515.99	2296.07
516.16	2031.58
516.33	2073.71
516.51	1591.56
516.68	1467.52
516.85	1696.89
517.03	1743.70
517.20	2076.06
517.37	1991.80
517.54	2172.02
517.72	1949.67
517.89	1650.08
518.06	1736.68
518.24	2363.94
518.41	2452.88
518.58	2120.53
518.75	1696.89
518.93	2076.06
519.10	2047.97
519.27	1884.13
519.45	2015.20
519.62	2162.66
519.79	2298.41
519.96	1811.57
520.14	2118.18
520.31	2265.64
520.48	2129.89
520.65	2183.72
520.83	2188.40
521.00	2113.50
521.17	2293.72
521.34	2033.93
521.52	2125.21
521.69	2099.46
521.86	2129.89
522.03	2239.89
522.20	2492.67
522.38	2033.93
522.55	2078.40
522.72	1816.26
522.89	2239.89
523.07	2656.51
523.24	2169.68
523.41	2181.38
523.58	2181.38
523.75	2136.91
523.92	2104.14
524.10	2251.60
524.27	2202.44
524.44	1984.77
524.61	2431.82
524.78	2038.61
524.96	2232.87
525.13	2169.68
525.30	2392.03
525.47	2300.75
525.64	2125.21
525.81	2202.44
525.98	2064.35
526.16	1872.43
526.33	1748.38
526.50	1743.70
526.67	1732.00
526.84	1685.19
527.01	1851.36
527.18	2066.69
527.36	2188.40
527.53	1942.64
527.70	2293.72
527.87	2087.76
528.04	2789.92
528.21	1942.64
528.38	2406.07
528.55	2473.95
528.72	2567.57
528.89	2825.03
529.07	2263.30
529.24	2111.16
529.41	2551.18
529.58	2101.80
529.75	2134.57
529.92	2347.56
530.09	2218.83
530.26	2389.69
530.43	2389.69
530.60	2167.34
530.77	2186.06
530.94	2471.61
531.11	2312.45
531.28	2160.31
531.46	2193.08
531.63	2228.19
531.80	2253.94
531.97	2317.13
532.14	2115.84
532.31	2225.85
532.48	2104.14
532.65	2125.21
532.82	1944.99
532.99	2239.89
533.16	2076.06
533.33	2195.42
533.50	2129.89
533.67	1994.14
533.84	2289.04
534.01	2174.36
534.18	2211.81
534.35	2307.77
534.52	2188.40
534.69	2878.86
534.86	2214.15
535.03	2113.50
535.20	2157.97
535.37	2612.04
535.54	2272.66
535.71	2267.98
535.88	2642.46
536.05	2101.80
536.22	2333.51
536.38	2066.69
536.55	2188.40
536.72	2485.65
536.89	1982.43
537.06	2087.76
537.23	2148.61
537.40	2045.63
537.57	2057.33
537.74	2434.16
537.91	2345.22
538.08	2235.21
538.25	2368.62
538.42	2174.36
538.59	2200.10
538.75	2033.93
538.92	2193.08
539.09	2420.11
539.26	2237.55
539.43	2485.65
539.60	2157.97
539.77	2345.22
539.94	2132.23
540.11	2211.81
540.28	2487.99
540.44	2452.88
540.61	2148.61
540.78	2143.93
540.95	2047.97
541.12	2640.12
541.29	2139.25
541.46	2544.16
541.62	2235.21
541.79	2052.65
541.96	2050.31
542.13	2073.71
542.30	1998.82
542.47	2359.26
542.63	2057.33
542.80	2179.04
542.97	2392.03
543.14	2148.61
543.31	2256.28
543.48	2125.21
543.64	2284.36
543.81	2321.81
543.98	2090.10
544.15	1973.07
544.32	2122.87
544.48	2193.08
544.65	2090.10
544.82	1989.46
544.99	2165.00
545.16	2429.48
545.32	2132.23
545.49	2223.51
545.66	2186.06
545.83	2054.99
546.00	1994.14
546.16	2097.12
546.33	2129.89
546.50	2153.29
546.67	2523.10
546.83	2312.45
547.00	2183.72
547.17	1872.43
547.34	1973.07
547.50	2136.91
547.67	2045.63
547.84	2040.95
548.00	2349.90
548.17	2106.48
548.34	2012.86
548.51	2602.68
548.67	2471.61
548.84	2113.50
549.01	2235.21
549.18	2310.11
549.34	2251.60
549.51	2169.68
549.68	2338.20
549.84	2157.97
550.01	1926.26
550.18	3665.28
550.34	3056.74
550.51	2225.85
550.68	2743.11
550.84	2165.00
551.01	2186.06
551.18	2385.01
551.34	2101.80
551.51	2106.48
551.68	2106.48
551.84	2356.92
552.01	2111.16
552.18	2111.16
552.34	2216.49
552.51	2176.70
552.68	2328.83
552.84	2045.63
553.01	2221.17
553.18	2420.11
553.34	2134.57
553.51	2017.54
553.67	2319.47
553.84	2752.47
554.01	2443.52
554.17	2251.60
554.34	2031.58
554.51	2354.58
554.67	2495.01
554.84	2314.79
555.00	2359.26
555.17	2197.76
555.33	2457.56
555.50	2279.68
555.67	2267.98
555.83	1926.26
556.00	2232.87
556.16	4304.25
556.33	2270.32
556.50	2050.31
556.66	2092.44
556.83	1996.48
556.99	2101.80
557.16	2141.59
557.32	2097.12
557.49	2078.40
557.65	1975.41
557.82	1966.05
557.98	2148.61
558.15	1874.77
558.32	1970.73
558.48	1973.07
558.65	1961.37
558.81	2335.85
558.98	1959.03
559.14	2186.06
559.31	2176.70
559.47	2270.32
559.64	2017.54
559.80	2272.66
559.97	1947.33
560.13	2216.49
560.30	1900.52
560.46	1942.64
560.63	2083.08
560.79	2167.34
560.96	2087.76
561.12	1949.67
561.29	2207.13
561.45	1961.37
561.61	2115.84
561.78	3026.31
561.94	2033.93
562.11	2017.54
562.27	2120.53
562.44	1956.69
562.60	2073.71
562.77	2181.38
562.93	2855.45
563.10	2312.45
563.26	2101.80
563.42	2413.09
563.59	2193.08
563.75	1947.33
563.92	2300.75
564.08	2120.53
564.24	2389.69
564.41	2600.34
564.57	1874.77
564.74	1989.46
564.90	2221.17
565.07	2165.00
565.23	2176.70
565.39	1919.24
565.56	2148.61
565.72	1930.94
565.88	2078.40
566.05	1849.02
566.21	1975.41
566.38	2146.27
566.54	2076.06
566.70	1998.82
566.87	1874.77
567.03	1914.56
567.19	2050.31
567.36	2263.30
567.52	1975.41
567.68	2150.95
567.85	2284.36
568.01	1881.79
568.17	1710.93
568.34	1975.41
568.50	2457.56
568.66	1886.47
568.83	2757.15
568.99	1977.75
569.15	2246.91
569.32	1987.11
569.48	2036.27
569.64	1783.49
569.81	2001.16
569.97	1886.47
570.13	2150.95
570.30	1947.33
570.46	1846.68
570.62	1905.20
570.78	1884.13
570.95	1678.16
571.11	2417.77
571.27	2476.29
571.43	1804.55
571.60	2246.91
571.76	1919.24
571.92	1956.69
572.09	1975.41
572.25	1956.69
572.41	2071.37
572.57	1956.69
572.74	2588.63
572.90	2188.40
573.06	2073.71
573.22	2197.76
573.38	2328.83
573.55	2310.11
573.71	2375.64
573.87	2221.17
574.03	1813.92
574.20	1968.39
574.36	2298.41
574.52	1851.36
574.68	1907.54
574.84	2139.25
575.01	1830.30
575.17	2160.31
575.33	1886.47
575.49	2349.90
575.65	2403.73
575.82	2225.85
575.98	2532.46
576.14	1975.41
576.30	1966.05
576.46	1959.03
576.62	1940.30
576.79	2153.29
576.95	2368.62
577.11	1802.21
577.27	1703.91
577.43	2204.78
577.59	2340.54
577.75	2127.55
577.92	1816.26
578.08	1820.94
578.24	1856.04
578.40	2256.28
578.56	2291.38
578.72	2335.85
578.88	2155.63
579.04	1898.17
579.21	2026.90
579.37	1834.98
579.53	1877.11
579.69	2270.32
579.85	1755.40
580.01	2054.99
580.17	1886.47
580.33	1778.81
580.49	1982.43
580.65	2010.52
580.82	1956.69
580.98	1879.45
581.14	1783.49
581.30	2256.28
581.46	2005.84
581.62	2244.57
581.78	1827.96
581.94	2064.35
582.10	1834.98
582.26	1942.64
582.42	1863.07
582.58	2155.63
582.74	1973.07
582.90	2024.56
583.06	2026.90
583.22	2101.80
583.38	1797.53
583.54	1781.15
583.70	2328.83
583.86	1994.14
584.02	2031.58
584.18	2436.50
584.34	1923.92
584.50	1952.01
584.66	1863.07
584.82	1802.21
584.98	1977.75
585.14	1802.21
585.30	2209.47
585.46	1891.15
585.62	1732.00
585.78	1739.02
585.94	2045.63
586.10	1970.73
586.26	1963.71
586.42	2354.58
586.58	1980.09
586.74	1909.88
586.90	1994.14
587.06	1954.35
587.22	2076.06
587.38	1774.13
587.54	1823.28
587.70	2113.50
587.86	2132.23
588.02	1877.11
588.18	1902.86
588.34	2001.16
588.49	1509.65
588.65	1664.12
588.81	1645.40
588.97	1458.15
589.13	1734.34
589.29	1724.97
589.45	2078.40
589.61	1806.89
589.77	2256.28
589.93	1790.51
590.08	1694.55
590.24	1746.04
590.40	1900.52
590.56	2040.95
590.72	1802.21
590.88	1563.48
591.04	1893.49
591.20	1687.53
591.35	2267.98
591.51	1804.55
591.67	1556.46
591.83	1879.45
591.99	2010.52
592.15	2080.74
592.31	1968.39
592.46	1788.17
592.62	2057.33
592.78	1741.36
592.94	1741.36
593.10	1783.49
593.26	1631.35
593.41	1881.79
593.57	1816.26
593.73	1802.21
593.89	2111.16
594.05	1851.36
594.20	1708.59
594.36	2136.91
594.52	1722.63
594.68	1696.89
594.84	2120.53
594.99	2239.89
595.15	1952.01
595.31	2043.29
595.47	2333.51
595.62	1877.11
595.78	1743.70
595.94	1886.47
596.10	2183.72
596.25	1860.73
596.41	2047.97
596.57	1839.66
596.73	1760.08
596.88	1769.44
597.04	1795.19
597.20	1631.35
597.36	1755.40
597.51	1790.51
597.67	1778.81
597.83	1624.33
597.99	2045.63
598.14	1856.04
598.30	2143.93
598.46	1659.44
598.61	2080.74
598.77	1898.17
598.93	1636.03
599.09	1842.00
599.24	1895.83
599.40	2141.59
599.56	1804.55
599.71	1870.09
599.87	1708.59
600.03	1860.73
600.18	1776.47
600.34	1865.41
600.50	1565.82
600.65	1570.50
