SpectraSuite Data File
++++++++++++++++++++++++++++++++++++
Date: Mon Oct 07 15:00:26 GMT-05:00 2013
User: price-jones
Dark Spectrum Present: No
Reference Spectrum Present: No
Number of Sampled Component Spectra: 1
Spectrometers: USB2+H05261
Integration Time (usec): 1000000 (USB2+H05261)
Spectra Averaged: 1 (USB2+H05261)
Boxcar Smoothing: 0 (USB2+H05261)
Correct for Electrical Dark: No (USB2+H05261)
Strobe/Lamp Enabled: No (USB2+H05261)
Correct for Detector Non-linearity: No (USB2+H05261)
Correct for Stray Light: No (USB2+H05261)
Number of Pixels in Processed Spectrum: 2048
>>>>>Begin Processed Spectral Data<<<<<
365.73	0.00
365.92	0.00
366.12	0.00
366.32	0.00
366.52	0.00
366.72	208.31
366.91	0.00
367.11	105.32
367.31	100.64
367.51	102.98
367.70	187.24
367.90	486.83
368.10	128.73
368.30	187.24
368.49	0.00
368.69	402.57
368.89	194.26
369.09	0.00
369.28	110.01
369.48	0.00
369.68	98.30
369.87	222.35
370.07	51.49
370.27	440.02
370.47	168.52
370.66	105.32
370.86	351.08
371.06	753.65
371.25	947.92
371.45	308.95
371.65	606.20
371.84	159.16
372.04	100.64
372.24	276.18
372.44	191.92
372.63	444.70
372.83	863.66
373.03	346.40
373.22	198.95
373.42	217.67
373.62	388.53
373.81	456.40
374.01	690.46
374.21	587.47
374.40	224.69
374.60	681.10
374.79	327.68
374.99	334.70
375.19	418.96
375.38	507.90
375.58	381.51
375.78	610.88
375.97	484.49
376.17	992.39
376.37	299.59
376.56	421.30
376.76	327.68
376.95	215.33
377.15	543.00
377.35	411.93
377.54	472.79
377.74	231.71
377.93	245.76
378.13	433.00
378.33	550.03
378.52	367.46
378.72	653.01
378.91	610.88
379.11	271.50
379.31	217.67
379.50	140.43
379.70	627.26
379.89	503.22
380.09	287.89
380.28	149.79
380.48	383.85
380.68	128.73
380.87	58.51
381.07	430.66
381.26	669.39
381.46	138.09
381.65	512.58
381.85	262.14
382.04	552.37
382.24	512.58
382.43	297.25
382.63	142.77
382.83	280.86
383.02	650.67
383.22	608.54
383.41	278.52
383.61	365.12
383.80	716.20
384.00	339.38
384.19	315.97
384.39	353.42
384.58	241.08
384.78	437.68
384.97	442.36
385.17	390.87
385.36	276.18
385.56	559.39
385.75	177.88
385.95	285.55
386.14	636.63
386.34	379.17
386.53	390.87
386.72	215.33
386.92	615.56
387.11	489.17
387.31	465.77
387.50	156.82
387.70	177.88
387.89	388.53
388.09	194.26
388.28	194.26
388.48	102.98
388.67	531.30
388.86	280.86
389.06	355.76
389.25	386.19
389.45	409.59
389.64	238.73
389.84	641.31
390.03	547.69
390.22	372.15
390.42	306.61
390.61	182.56
390.81	117.03
391.00	404.91
391.19	592.16
391.39	365.12
391.58	514.92
391.78	428.32
391.97	395.55
392.16	196.60
392.36	690.46
392.55	587.47
392.75	372.15
392.94	229.37
393.13	454.06
393.33	184.90
393.52	208.31
393.71	653.01
393.91	337.04
394.10	175.54
394.29	217.67
394.49	241.08
394.68	564.07
394.88	678.76
395.07	617.90
395.26	367.46
395.46	407.25
395.65	608.54
395.84	512.58
396.04	1228.78
396.23	344.06
396.42	297.25
396.62	510.24
396.81	484.49
397.00	353.42
397.19	397.89
397.39	362.78
397.58	585.13
397.77	255.12
397.97	322.99
398.16	416.62
398.35	477.47
398.55	201.29
398.74	421.30
398.93	732.59
399.12	339.38
399.32	482.15
399.51	353.42
399.70	603.86
399.90	493.85
400.09	547.69
400.28	650.67
400.47	315.97
400.67	601.52
400.86	386.19
401.05	545.34
401.24	606.20
401.44	505.56
401.63	601.52
401.82	662.37
402.01	278.52
402.21	543.00
402.40	447.04
402.59	397.89
402.78	341.72
402.97	395.55
403.17	447.04
403.36	489.17
403.55	386.19
403.74	355.76
403.93	440.02
404.13	716.20
404.32	301.93
404.51	311.29
404.70	578.11
404.89	395.55
405.09	929.19
405.28	348.74
405.47	241.08
405.66	627.26
405.85	713.86
406.05	409.59
406.24	390.87
406.43	547.69
406.62	603.86
406.81	1102.39
407.00	709.18
407.20	447.04
407.39	304.27
407.58	351.08
407.77	521.94
407.96	793.44
408.15	704.50
408.34	582.79
408.54	547.69
408.73	491.51
408.92	407.25
409.11	613.22
409.30	746.63
409.49	278.52
409.68	379.17
409.87	514.92
410.07	440.02
410.26	540.66
410.45	358.10
410.64	280.86
410.83	477.47
411.02	379.17
411.21	624.92
411.40	699.82
411.59	465.77
411.78	339.38
411.98	425.98
412.17	304.27
412.36	407.25
412.55	440.02
412.74	603.86
412.93	947.92
413.12	344.06
413.31	657.69
413.50	449.38
413.69	444.70
413.88	830.89
414.07	545.34
414.26	505.56
414.45	355.76
414.64	624.92
414.83	688.12
415.02	573.43
415.22	676.41
415.41	823.87
415.60	341.72
415.79	472.79
415.98	800.46
416.17	512.58
416.36	507.90
416.55	437.68
416.74	678.76
416.93	854.30
417.12	545.34
417.31	538.32
417.50	510.24
417.69	978.34
417.88	566.41
418.07	351.08
418.26	470.45
418.45	442.36
418.64	961.96
418.83	564.07
419.02	594.50
419.21	582.79
419.39	634.29
419.58	376.83
419.77	346.40
419.96	713.86
420.15	1015.79
420.34	496.19
420.53	610.88
420.72	882.38
420.91	601.52
421.10	575.77
421.29	645.99
421.48	727.91
421.67	791.10
421.86	489.17
422.05	484.49
422.24	477.47
422.43	603.86
422.61	344.06
422.80	444.70
422.99	622.58
423.18	486.83
423.37	894.08
423.56	653.01
423.75	706.84
423.94	411.93
424.13	458.74
424.32	383.85
424.50	463.43
424.69	479.81
424.88	915.15
425.07	440.02
425.26	589.82
425.45	709.18
425.64	454.06
425.83	512.58
426.01	828.55
426.20	561.73
426.39	533.64
426.58	388.53
426.77	587.47
426.96	711.52
427.15	648.33
427.33	428.32
427.52	582.79
427.71	643.65
427.90	578.11
428.09	444.70
428.28	339.38
428.46	533.64
428.65	737.27
428.84	484.49
429.03	938.55
429.22	493.85
429.40	400.23
429.59	322.99
429.78	725.57
429.97	538.32
430.16	365.12
430.34	362.78
430.53	397.89
430.72	535.98
430.91	816.85
431.10	367.46
431.28	498.53
431.47	887.06
431.66	676.41
431.85	449.38
432.03	514.92
432.22	1156.22
432.41	594.50
432.60	926.85
432.79	447.04
432.97	498.53
433.16	454.06
433.35	390.87
433.54	423.64
433.72	674.07
433.91	777.06
434.10	493.85
434.28	571.09
434.47	526.62
434.66	739.61
434.85	498.53
435.03	629.60
435.22	992.39
435.41	1015.79
435.59	758.33
435.78	627.26
435.97	418.96
436.16	863.66
436.34	557.05
436.53	695.14
436.72	933.87
436.90	814.51
437.09	727.91
437.28	610.88
437.46	564.07
437.65	770.04
437.84	713.86
438.02	676.41
438.21	753.65
438.40	475.13
438.58	416.62
438.77	695.14
438.96	657.69
439.14	500.87
439.33	854.30
439.52	571.09
439.70	641.31
439.89	802.80
440.08	713.86
440.26	650.67
440.45	1043.88
440.63	788.76
440.82	692.80
441.01	786.42
441.19	617.90
441.38	678.76
441.57	592.16
441.75	990.05
441.94	1015.79
442.12	653.01
442.31	554.71
442.50	695.14
442.68	681.10
442.87	620.24
443.05	521.94
443.24	681.10
443.43	833.23
443.61	997.07
443.80	617.90
443.98	592.16
444.17	690.46
444.35	961.96
444.54	695.14
444.73	610.88
444.91	987.71
445.10	526.62
445.28	573.43
445.47	706.84
445.65	657.69
445.84	582.79
446.02	713.86
446.21	669.39
446.39	561.73
446.58	903.45
446.77	615.56
446.95	727.91
447.14	777.06
447.32	1174.95
447.51	734.93
447.69	746.63
447.88	795.78
448.06	1057.92
448.25	847.27
448.43	535.98
448.62	547.69
448.80	812.17
448.99	912.81
449.17	617.90
449.36	533.64
449.54	938.55
449.73	491.51
449.91	863.66
450.10	676.41
450.28	1313.04
450.46	1336.45
450.65	992.39
450.83	861.32
451.02	622.58
451.20	678.76
451.39	725.57
451.57	702.16
451.76	608.54
451.94	704.50
452.13	746.63
452.31	1022.81
452.49	805.14
452.68	500.87
452.86	854.30
453.05	1198.35
453.23	767.70
453.42	603.86
453.60	685.78
453.78	800.46
453.97	477.47
454.15	545.34
454.34	575.77
454.52	697.48
454.70	1151.54
454.89	1013.45
455.07	669.39
455.26	952.60
455.44	943.24
455.62	678.76
455.81	840.25
455.99	905.79
456.17	919.83
456.36	720.88
456.54	702.16
456.73	638.97
456.91	730.25
457.09	812.17
457.28	1048.56
457.46	744.29
457.64	1020.47
457.83	660.03
458.01	608.54
458.19	837.91
458.38	627.26
458.56	795.78
458.74	557.05
458.93	844.93
459.11	994.73
459.29	655.35
459.48	964.30
459.66	1270.91
459.84	919.83
460.03	1858.39
460.21	1060.26
460.39	678.76
460.57	1067.28
460.76	847.27
460.94	720.88
461.12	1226.44
461.31	1142.18
461.49	765.36
461.67	631.94
461.85	903.45
462.04	690.46
462.22	2736.09
462.40	999.41
462.59	1090.69
462.77	674.07
462.95	849.61
463.13	589.82
463.32	973.66
463.50	856.64
463.68	889.40
463.86	807.48
464.05	716.20
464.23	1111.75
464.41	1015.79
464.59	716.20
464.78	755.99
464.96	557.05
465.14	833.23
465.32	692.80
465.50	908.13
465.69	889.40
465.87	627.26
466.05	931.53
466.23	521.94
466.41	779.40
466.60	713.86
466.78	861.32
466.96	1015.79
467.14	866.00
467.32	1060.26
467.51	884.72
467.69	1022.81
467.87	1224.10
468.05	681.10
468.23	1299.00
468.41	950.26
468.60	821.53
468.78	821.53
468.96	1041.54
469.14	828.55
469.32	447.04
469.50	634.29
469.69	912.81
469.87	884.72
470.05	798.12
470.23	781.74
470.41	617.90
470.59	655.35
470.77	840.25
470.95	767.70
471.14	1093.03
471.32	791.10
471.50	1266.23
471.68	807.48
471.86	922.17
472.04	667.05
472.22	849.61
472.40	613.22
472.58	697.48
472.77	662.37
472.95	802.80
473.13	1387.94
473.31	1104.73
473.49	695.14
473.67	589.82
473.85	983.02
474.03	1001.75
474.21	812.17
474.39	1142.18
474.57	1301.34
474.75	933.87
474.93	706.84
475.12	573.43
475.30	830.89
475.48	854.30
475.66	809.83
475.84	884.72
476.02	882.38
476.20	1015.79
476.38	767.70
476.56	1680.50
476.74	861.32
476.92	826.21
477.10	763.01
477.28	1050.90
477.46	924.51
477.64	1174.95
477.82	837.91
478.00	779.40
478.18	1004.09
478.36	1008.77
478.54	709.18
478.72	767.70
478.90	887.06
479.08	959.62
479.26	971.32
479.44	858.98
479.62	704.50
479.80	793.44
479.98	674.07
480.16	744.29
480.34	1062.60
480.52	744.29
480.70	1116.44
480.88	744.29
481.06	711.52
481.24	833.23
481.41	882.38
481.59	1022.81
481.77	915.15
481.95	947.92
482.13	1451.13
482.31	990.05
482.49	805.14
482.67	987.71
482.85	1156.22
483.03	1088.35
483.21	1074.31
483.39	884.72
483.57	915.15
483.74	1364.53
483.92	936.21
484.10	791.10
484.28	1256.87
484.46	1713.27
484.64	866.00
484.82	957.28
485.00	1032.18
485.18	1046.22
485.35	1048.56
485.53	709.18
485.71	1156.22
485.89	629.60
486.07	821.53
486.25	1678.16
486.43	1181.97
486.61	1256.87
486.78	1167.93
486.96	800.46
487.14	1027.50
487.32	971.32
487.50	884.72
487.68	1245.16
487.85	826.21
488.03	1135.16
488.21	1430.07
488.39	971.32
488.57	1181.97
488.75	952.60
488.92	4699.80
489.10	1348.15
489.28	1696.89
489.46	1015.79
489.64	1086.01
489.81	1142.18
489.99	1188.99
490.17	1078.99
490.35	1891.15
490.53	1146.86
490.70	880.04
490.88	1430.07
491.06	1001.75
491.24	1228.78
491.41	1427.73
491.59	1181.97
491.77	849.61
491.95	919.83
492.13	1011.11
492.30	1086.01
492.48	1097.71
492.66	1067.28
492.84	973.66
493.01	1235.80
493.19	1034.52
493.37	1643.06
493.54	1336.45
493.72	1357.51
493.90	1086.01
494.08	1020.47
494.25	1270.91
494.43	1409.00
494.61	1214.74
494.79	1027.50
494.96	1025.15
495.14	1406.66
495.32	1128.14
495.49	1238.14
495.67	1287.29
495.85	1165.59
496.02	1034.52
496.20	1439.43
496.38	1420.71
496.55	1324.74
496.73	1306.02
496.91	1100.05
497.09	1423.05
497.26	1275.59
497.44	1203.04
497.62	1324.74
497.79	1219.42
497.97	1483.90
498.14	1416.02
498.32	1331.76
498.50	1261.55
498.67	1032.18
498.85	1242.82
499.03	1172.61
499.20	1362.19
499.38	1291.98
499.56	1268.57
499.73	1844.34
499.91	1458.15
500.08	1313.04
500.26	1254.53
500.44	1109.41
500.61	1343.47
500.79	1177.29
500.97	1481.56
501.14	1694.55
501.32	1273.25
501.49	1678.16
501.67	1256.87
501.84	1427.73
502.02	1095.37
502.20	1774.13
502.37	1441.77
502.55	1249.85
502.72	1334.11
502.90	1530.71
503.07	1418.36
503.25	1394.96
503.43	1111.75
503.60	1249.85
503.78	1371.55
503.95	1191.33
504.13	1186.65
504.30	1558.80
504.48	1511.99
504.65	1774.13
504.83	1607.95
505.01	1263.89
505.18	1430.07
505.36	1345.81
505.53	1224.10
505.71	1198.35
505.88	1739.02
506.06	1327.08
506.23	1334.11
506.41	1256.87
506.58	1380.92
506.76	1511.99
506.93	1170.27
507.11	1411.34
507.28	1252.19
507.46	1343.47
507.63	1359.85
507.81	1055.58
507.98	1275.59
508.16	1345.81
508.33	1390.28
508.50	1523.69
508.68	1366.87
508.85	1366.87
509.03	1261.55
509.20	1275.59
509.38	1441.77
509.55	1612.63
509.73	1748.38
509.90	1661.78
510.08	1207.72
510.25	1493.26
510.42	1348.15
510.60	1359.85
510.77	1610.29
510.95	1696.89
511.12	1308.36
511.30	1554.12
511.47	1558.80
511.64	1827.96
511.82	1317.72
511.99	1287.29
512.17	1219.42
512.34	1238.14
512.51	1247.51
512.69	1226.44
512.86	1767.10
513.04	1245.16
513.21	1493.26
513.38	1254.53
513.56	1207.72
513.73	1245.16
513.90	1135.16
514.08	1196.01
514.25	1460.49
514.43	1544.75
514.60	1184.31
514.77	1296.66
514.95	1483.90
515.12	1174.95
515.29	1453.47
515.47	1495.60
515.64	1392.62
515.81	1345.81
515.99	1727.32
516.16	1533.05
516.33	1614.97
516.51	1027.50
516.68	1132.82
516.85	1212.40
517.03	1149.20
517.20	1563.48
517.37	1479.22
517.54	1497.94
517.72	1299.00
517.89	1036.86
518.06	1114.10
518.24	1813.92
518.41	1832.64
518.58	1598.59
518.75	1170.27
518.93	1373.89
519.10	1453.47
519.27	1277.93
519.45	1411.34
519.62	1423.05
519.79	1519.01
519.96	1196.01
520.14	1434.75
520.31	1750.72
520.48	1383.26
520.65	1441.77
520.83	1708.59
521.00	1671.14
521.17	1769.44
521.34	1296.66
521.52	1474.54
521.69	1455.81
521.86	1406.66
522.03	1661.78
522.20	1842.00
522.38	1320.06
522.55	1568.16
522.72	1196.01
522.89	1673.48
523.07	1947.33
523.24	1521.35
523.41	1394.96
523.58	1362.19
523.75	1411.34
523.92	1315.38
524.10	1439.43
524.27	1497.94
524.44	1355.17
524.61	1739.02
524.78	1350.49
524.96	1558.80
525.13	1500.28
525.30	1757.74
525.47	1689.87
525.64	1528.37
525.81	1526.03
525.98	1488.58
526.16	1357.51
526.33	1224.10
526.50	1146.86
526.67	1078.99
526.84	1196.01
527.01	1282.61
527.18	1516.67
527.36	1486.24
527.53	1266.23
527.70	1694.55
527.87	1481.56
528.04	2054.99
528.21	1369.21
528.38	1769.44
528.55	1781.15
528.72	1888.81
528.89	2157.97
529.07	1437.09
529.24	1521.35
529.41	1977.75
529.58	1596.25
529.75	1509.65
529.92	1659.44
530.09	1437.09
530.26	1724.97
530.43	1589.22
530.60	1535.39
530.77	1570.50
530.94	1792.85
531.11	1614.97
531.28	1467.52
531.46	1385.60
531.63	1502.62
531.80	1502.62
531.97	1593.90
532.14	1462.83
532.31	1547.09
532.48	1497.94
532.65	1451.13
532.82	1252.19
532.99	1369.21
533.16	1451.13
533.33	1544.75
533.50	1439.43
533.67	1364.53
533.84	1549.43
534.01	1533.05
534.18	1437.09
534.35	1547.09
534.52	1483.90
534.69	2019.88
534.86	1521.35
535.03	1451.13
535.20	1427.73
535.37	1764.76
535.54	1593.90
535.71	1542.41
535.88	1987.11
536.05	1465.18
536.22	1582.20
536.38	1383.26
536.55	1579.86
536.72	1884.13
536.89	1401.98
537.06	1348.15
537.23	1348.15
537.40	1392.62
537.57	1409.00
537.74	1771.79
537.91	1652.42
538.08	1509.65
538.25	1584.54
538.42	1488.58
538.59	1572.84
538.75	1401.98
538.92	1383.26
539.09	1816.26
539.26	1479.22
539.43	1776.47
539.60	1554.12
539.77	1544.75
539.94	1446.45
540.11	1526.03
540.28	1849.02
540.44	1748.38
540.61	1453.47
540.78	1355.17
540.95	1289.64
541.12	1912.22
541.29	1427.73
541.46	1879.45
541.62	1619.65
541.79	1245.16
541.96	1238.14
542.13	1401.98
542.30	1334.11
542.47	1715.61
542.63	1455.81
542.80	1493.26
542.97	1823.28
543.14	1446.45
543.31	1575.18
543.48	1404.32
543.64	1643.06
543.81	1542.41
543.98	1320.06
544.15	1350.49
544.32	1483.90
544.48	1357.51
544.65	1273.25
544.82	1331.76
544.99	1448.79
545.16	1813.92
545.32	1404.32
545.49	1617.31
545.66	1413.68
545.83	1394.96
546.00	1233.46
546.16	1378.58
546.33	1418.36
546.50	1343.47
546.67	1792.85
546.83	1739.02
547.00	1427.73
547.17	1291.98
547.34	1266.23
547.50	1343.47
547.67	1551.78
547.84	1345.81
548.00	1605.61
548.17	1369.21
548.34	1418.36
548.51	1870.09
548.67	1736.68
548.84	1343.47
549.01	1563.48
549.18	1481.56
549.34	1621.99
549.51	1558.80
549.68	1523.69
549.84	1549.43
550.01	1203.04
550.18	3026.31
550.34	2359.26
550.51	1600.93
550.68	2029.24
550.84	1411.34
551.01	1542.41
551.18	1626.67
551.34	1544.75
551.51	1397.30
551.68	1441.77
551.84	1650.08
552.01	1345.81
552.18	1320.06
552.34	1451.13
552.51	1577.52
552.68	1612.63
552.84	1385.60
553.01	1451.13
553.18	1699.23
553.34	1329.42
553.51	1394.96
553.67	1612.63
553.84	2097.12
554.01	1584.54
554.17	1668.80
554.34	1409.00
554.51	1612.63
554.67	1715.61
554.84	1703.91
555.00	1439.43
555.17	1565.82
555.33	1706.25
555.50	1497.94
555.67	1502.62
555.83	1259.21
556.00	1425.39
556.16	3482.72
556.33	1678.16
556.50	1401.98
556.66	1263.89
556.83	1495.60
556.99	1509.65
557.16	1486.24
557.32	1362.19
557.49	1397.30
557.65	1366.87
557.82	1284.95
557.98	1511.99
558.15	1210.06
558.32	1364.53
558.48	1301.34
558.65	1355.17
558.81	1647.74
558.98	1256.87
559.14	1593.90
559.31	1462.83
559.47	1551.78
559.64	1259.21
559.80	1593.90
559.97	1252.19
560.13	1472.20
560.30	1177.29
560.46	1350.49
560.63	1387.94
560.79	1481.56
560.96	1465.18
561.12	1341.13
561.29	1455.81
561.45	1273.25
561.61	1420.71
561.78	2466.92
561.94	1444.11
562.11	1277.93
562.27	1556.46
562.44	1275.59
562.60	1444.11
562.77	1416.02
562.93	2202.44
563.10	1582.20
563.26	1373.89
563.42	1668.80
563.59	1474.54
563.75	1238.14
563.92	1689.87
564.08	1397.30
564.24	1547.09
564.41	1909.88
564.57	1205.38
564.74	1331.76
564.90	1495.60
565.07	1586.88
565.23	1474.54
565.39	1221.76
565.56	1444.11
565.72	1158.57
565.88	1362.19
566.05	1240.48
566.21	1294.32
566.38	1394.96
566.54	1451.13
566.70	1336.45
566.87	1210.06
567.03	1100.05
567.19	1380.92
567.36	1558.80
567.52	1291.98
567.68	1451.13
567.85	1544.75
568.01	1275.59
568.17	1245.16
568.34	1394.96
568.50	1652.42
568.66	1100.05
568.83	2113.50
568.99	1313.04
569.15	1589.22
569.32	1270.91
569.48	1350.49
569.64	1252.19
569.81	1359.85
569.97	1235.80
570.13	1476.88
570.30	1254.53
570.46	1334.11
570.62	1275.59
570.78	1275.59
570.95	1100.05
571.11	1816.26
571.27	1696.89
571.43	1184.31
571.60	1409.00
571.76	1207.72
571.92	1320.06
572.09	1233.46
572.25	1329.42
572.41	1444.11
572.57	1275.59
572.74	1769.44
572.90	1521.35
573.06	1371.55
573.22	1476.88
573.38	1596.25
573.55	1474.54
573.71	1561.14
573.87	1486.24
574.03	1200.69
574.20	1238.14
574.36	1652.42
574.52	1149.20
574.68	1294.32
574.84	1448.79
575.01	1177.29
575.17	1409.00
575.33	1137.50
575.49	1610.29
575.65	1563.48
575.82	1476.88
575.98	1928.60
576.14	1275.59
576.30	1212.40
576.46	1303.68
576.62	1299.00
576.79	1329.42
576.95	1671.14
577.11	1249.85
577.27	1067.28
577.43	1570.50
577.59	1713.27
577.75	1451.13
577.92	1224.10
578.08	1252.19
578.24	1083.67
578.40	1549.43
578.56	1699.23
578.72	1713.27
578.88	1526.03
579.04	1158.57
579.21	1299.00
579.37	1235.80
579.53	1252.19
579.69	1540.07
579.85	1064.94
580.01	1406.66
580.17	1270.91
580.33	1224.10
580.49	1324.74
580.65	1385.60
580.82	1256.87
580.98	1123.46
581.14	1170.27
581.30	1757.74
581.46	1275.59
581.62	1619.65
581.78	1266.23
581.94	1359.85
582.10	1095.37
582.26	1284.95
582.42	1214.74
582.58	1493.26
582.74	1226.44
582.90	1308.36
583.06	1416.02
583.22	1364.53
583.38	1160.91
583.54	1125.80
583.70	1713.27
583.86	1341.13
584.02	1282.61
584.18	1577.52
584.34	1235.80
584.50	1413.68
584.66	1266.23
584.82	1022.81
584.98	1418.36
585.14	1277.93
585.30	1577.52
585.46	1165.59
585.62	1144.52
585.78	1210.06
585.94	1474.54
586.10	1214.74
586.26	1390.28
586.42	1724.97
586.58	1437.09
586.74	1380.92
586.90	1256.87
587.06	1411.34
587.22	1343.47
587.38	1095.37
587.54	1207.72
587.70	1488.58
587.86	1551.78
588.02	1165.59
588.18	1327.08
588.34	1341.13
588.49	830.89
588.65	1160.91
588.81	1020.47
588.97	990.05
589.13	1174.95
589.29	1128.14
589.45	1481.56
589.61	1341.13
589.77	1600.93
589.93	1139.84
590.08	1118.78
590.24	1114.10
590.40	1188.99
590.56	1390.28
590.72	1153.88
590.88	1020.47
591.04	1352.83
591.20	1172.61
591.35	1680.50
591.51	1303.68
591.67	1008.77
591.83	1107.07
591.99	1324.74
592.15	1338.79
592.31	1308.36
592.46	1231.12
592.62	1455.81
592.78	1153.88
592.94	1036.86
593.10	1083.67
593.26	990.05
593.41	1327.08
593.57	1231.12
593.73	1109.41
593.89	1392.62
594.05	1142.18
594.20	1053.24
594.36	1519.01
594.52	1076.65
594.68	1118.78
594.84	1565.82
594.99	1673.48
595.15	1348.15
595.31	1460.49
595.47	1661.78
595.62	1317.72
595.78	1118.78
595.94	1193.67
596.10	1528.37
596.25	1306.02
596.41	1387.94
596.57	1142.18
596.73	1142.18
596.88	1210.06
597.04	1306.02
597.20	1165.59
597.36	1329.42
597.51	1022.81
597.67	994.73
597.83	1172.61
597.99	1497.94
598.14	1315.38
598.30	1516.67
598.46	1191.33
598.61	1479.22
598.77	1336.45
598.93	1060.26
599.09	1158.57
599.24	1345.81
599.40	1577.52
599.56	1188.99
599.71	1219.42
599.87	1104.73
600.03	1252.19
600.18	1210.06
600.34	1338.79
600.50	1025.15
600.65	1071.97
600.81	1362.19
600.97	1067.28
601.12	1144.52
601.28	1500.28
601.44	1247.51
601.59	997.07
601.75	1270.91
601.91	1050.90
602.06	1226.44
602.22	2024.56
