SpectraSuite Data File
++++++++++++++++++++++++++++++++++++
Date: Mon Oct 07 14:59:57 GMT-05:00 2013
User: price-jones
Dark Spectrum Present: No
Reference Spectrum Present: No
Number of Sampled Component Spectra: 1
Spectrometers: USB2+H05261
Integration Time (usec): 100000 (USB2+H05261)
Spectra Averaged: 1 (USB2+H05261)
Boxcar Smoothing: 0 (USB2+H05261)
Correct for Electrical Dark: No (USB2+H05261)
Strobe/Lamp Enabled: No (USB2+H05261)
Correct for Detector Non-linearity: No (USB2+H05261)
Correct for Stray Light: No (USB2+H05261)
Number of Pixels in Processed Spectrum: 2048
>>>>>Begin Processed Spectral Data<<<<<
365.73	0.00
365.92	0.00
366.12	0.00
366.32	0.00
366.52	0.00
366.72	0.00
366.91	0.00
367.11	0.00
367.31	0.00
367.51	0.00
367.70	0.00
367.90	0.00
368.10	0.00
368.30	0.00
368.49	0.00
368.69	0.00
368.89	0.00
369.09	0.00
369.28	0.00
369.48	0.00
369.68	0.00
369.87	0.00
370.07	0.00
370.27	0.00
370.47	0.00
370.66	0.00
370.86	0.00
371.06	0.00
371.25	0.00
371.45	0.00
371.65	0.00
371.84	0.00
372.04	0.00
372.24	0.00
372.44	0.00
372.63	0.00
372.83	0.00
373.03	0.00
373.22	0.00
373.42	0.00
373.62	0.00
373.81	0.00
374.01	0.00
374.21	0.00
374.40	0.00
374.60	0.00
374.79	0.00
374.99	0.00
375.19	0.00
375.38	0.00
375.58	0.00
375.78	0.00
375.97	0.00
376.17	0.00
376.37	0.00
376.56	0.00
376.76	0.00
376.95	0.00
377.15	0.00
377.35	0.00
377.54	0.00
377.74	0.00
377.93	0.00
378.13	0.00
378.33	0.00
378.52	0.00
378.72	0.00
378.91	0.00
379.11	0.00
379.31	0.00
379.50	0.00
379.70	0.00
379.89	0.00
380.09	0.00
380.28	0.00
380.48	0.00
380.68	0.00
380.87	0.00
381.07	0.00
381.26	0.00
381.46	0.00
381.65	0.00
381.85	0.00
382.04	0.00
382.24	0.00
382.43	0.00
382.63	0.00
382.83	0.00
383.02	0.00
383.22	0.00
383.41	0.00
383.61	0.00
383.80	0.00
384.00	0.00
384.19	0.00
384.39	0.00
384.58	0.00
384.78	0.00
384.97	0.00
385.17	0.00
385.36	0.00
385.56	0.00
385.75	0.00
385.95	0.00
386.14	0.00
386.34	0.00
386.53	0.00
386.72	0.00
386.92	0.00
387.11	0.00
387.31	0.00
387.50	0.00
387.70	0.00
387.89	0.00
388.09	0.00
388.28	0.00
388.48	0.00
388.67	0.00
388.86	0.00
389.06	0.00
389.25	0.00
389.45	0.00
389.64	0.00
389.84	0.00
390.03	0.00
390.22	0.00
390.42	0.00
390.61	0.00
390.81	0.00
391.00	0.00
391.19	0.00
391.39	0.00
391.58	0.00
391.78	0.00
391.97	0.00
392.16	0.00
392.36	0.00
392.55	0.00
392.75	0.00
392.94	0.00
393.13	0.00
393.33	0.00
393.52	0.00
393.71	0.00
393.91	0.00
394.10	0.00
394.29	0.00
394.49	0.00
394.68	0.00
394.88	0.00
395.07	0.00
395.26	0.00
395.46	0.00
395.65	0.00
395.84	0.00
396.04	0.00
396.23	0.00
396.42	0.00
396.62	0.00
396.81	0.00
397.00	0.00
397.19	0.00
397.39	0.00
397.58	0.00
397.77	0.00
397.97	0.00
398.16	0.00
398.35	0.00
398.55	0.00
398.74	0.00
398.93	0.00
399.12	0.00
399.32	0.00
399.51	0.00
399.70	0.00
399.90	0.00
400.09	0.00
400.28	0.00
400.47	0.00
400.67	0.00
400.86	0.00
401.05	0.00
401.24	0.00
401.44	0.00
401.63	0.00
401.82	0.00
402.01	0.00
402.21	0.00
402.40	0.00
402.59	0.00
402.78	0.00
402.97	0.00
403.17	0.00
403.36	0.00
403.55	0.00
403.74	0.00
403.93	0.00
404.13	0.00
404.32	0.00
404.51	0.00
404.70	0.00
404.89	0.00
405.09	0.00
405.28	0.00
405.47	0.00
405.66	0.00
405.85	0.00
406.05	0.00
406.24	0.00
406.43	0.00
406.62	0.00
406.81	0.00
407.00	0.00
407.20	0.00
407.39	0.00
407.58	0.00
407.77	0.00
407.96	0.00
408.15	0.00
408.34	0.00
408.54	0.00
408.73	0.00
408.92	0.00
409.11	0.00
409.30	0.00
409.49	0.00
409.68	0.00
409.87	0.00
410.07	0.00
410.26	0.00
410.45	0.00
410.64	0.00
410.83	0.00
411.02	0.00
411.21	0.00
411.40	0.00
411.59	0.00
411.78	0.00
411.98	0.00
412.17	0.00
412.36	0.00
412.55	0.00
412.74	0.00
412.93	0.00
413.12	0.00
413.31	0.00
413.50	0.00
413.69	0.00
413.88	0.00
414.07	0.00
414.26	0.00
414.45	0.00
414.64	0.00
414.83	0.00
415.02	0.00
415.22	0.00
415.41	0.00
415.60	0.00
415.79	0.00
415.98	0.00
416.17	0.00
416.36	0.00
416.55	0.00
416.74	0.00
416.93	0.00
417.12	0.00
417.31	0.00
417.50	0.00
417.69	0.00
417.88	0.00
418.07	0.00
418.26	0.00
418.45	0.00
418.64	0.00
418.83	0.00
419.02	0.00
419.21	0.00
419.39	0.00
419.58	0.00
419.77	0.00
419.96	0.00
420.15	0.00
420.34	0.00
420.53	0.00
420.72	0.00
420.91	0.00
421.10	0.00
421.29	0.00
421.48	0.00
421.67	0.00
421.86	0.00
422.05	0.00
422.24	0.00
422.43	0.00
422.61	0.00
422.80	0.00
422.99	0.00
423.18	0.00
423.37	0.00
423.56	0.00
423.75	0.00
423.94	0.00
424.13	0.00
424.32	0.00
424.50	0.00
424.69	0.00
424.88	0.00
425.07	0.00
425.26	0.00
425.45	0.00
425.64	0.00
425.83	0.00
426.01	0.00
426.20	0.00
426.39	0.00
426.58	0.00
426.77	0.00
426.96	0.00
427.15	0.00
427.33	0.00
427.52	0.00
427.71	0.00
427.90	0.00
428.09	0.00
428.28	0.00
428.46	0.00
428.65	0.00
428.84	0.00
429.03	0.00
429.22	0.00
429.40	0.00
429.59	0.00
429.78	0.00
429.97	0.00
430.16	0.00
430.34	0.00
430.53	0.00
430.72	0.00
430.91	0.00
431.10	0.00
431.28	0.00
431.47	0.00
431.66	0.00
431.85	0.00
432.03	0.00
432.22	16.38
432.41	0.00
432.60	0.00
432.79	0.00
432.97	0.00
433.16	0.00
433.35	0.00
433.54	0.00
433.72	0.00
433.91	0.00
434.10	0.00
434.28	0.00
434.47	0.00
434.66	0.00
434.85	0.00
435.03	0.00
435.22	0.00
435.41	0.00
435.59	0.00
435.78	0.00
435.97	0.00
436.16	0.00
436.34	0.00
436.53	0.00
436.72	0.00
436.90	0.00
437.09	0.00
437.28	0.00
437.46	0.00
437.65	0.00
437.84	0.00
438.02	0.00
438.21	0.00
438.40	0.00
438.58	0.00
438.77	0.00
438.96	0.00
439.14	0.00
439.33	0.00
439.52	0.00
439.70	0.00
439.89	0.00
440.08	0.00
440.26	0.00
440.45	0.00
440.63	4.68
440.82	0.00
441.01	0.00
441.19	0.00
441.38	0.00
441.57	0.00
441.75	0.00
441.94	0.00
442.12	0.00
442.31	0.00
442.50	0.00
442.68	0.00
442.87	37.45
443.05	0.00
443.24	0.00
443.43	0.00
443.61	23.41
443.80	0.00
443.98	0.00
444.17	0.00
444.35	0.00
444.54	0.00
444.73	0.00
444.91	32.77
445.10	0.00
445.28	0.00
445.47	0.00
445.65	0.00
445.84	0.00
446.02	0.00
446.21	0.00
446.39	0.00
446.58	0.00
446.77	0.00
446.95	0.00
447.14	0.00
447.32	56.17
447.51	0.00
447.69	4.68
447.88	0.00
448.06	63.19
448.25	0.00
448.43	0.00
448.62	0.00
448.80	0.00
448.99	0.00
449.17	0.00
449.36	0.00
449.54	9.36
449.73	0.00
449.91	0.00
450.10	0.00
450.28	0.00
450.46	0.00
450.65	0.00
450.83	0.00
451.02	0.00
451.20	0.00
451.39	0.00
451.57	0.00
451.76	0.00
451.94	0.00
452.13	0.00
452.31	0.00
452.49	0.00
452.68	0.00
452.86	0.00
453.05	58.51
453.23	0.00
453.42	0.00
453.60	0.00
453.78	0.00
453.97	0.00
454.15	0.00
454.34	0.00
454.52	0.00
454.70	0.00
454.89	0.00
455.07	0.00
455.26	56.17
455.44	0.00
455.62	32.77
455.81	0.00
455.99	0.00
456.17	0.00
456.36	0.00
456.54	0.00
456.73	0.00
456.91	0.00
457.09	2.34
457.28	0.00
457.46	0.00
457.64	4.68
457.83	0.00
458.01	0.00
458.19	0.00
458.38	0.00
458.56	0.00
458.74	0.00
458.93	0.00
459.11	0.00
459.29	0.00
459.48	7.02
459.66	25.75
459.84	0.00
460.03	51.49
460.21	0.00
460.39	0.00
460.57	0.00
460.76	32.77
460.94	9.36
461.12	51.49
461.31	0.00
461.49	9.36
461.67	9.36
461.85	0.00
462.04	14.04
462.22	533.64
462.40	7.02
462.59	0.00
462.77	0.00
462.95	0.00
463.13	0.00
463.32	0.00
463.50	0.00
463.68	0.00
463.86	18.72
464.05	0.00
464.23	77.24
464.41	0.00
464.59	0.00
464.78	0.00
464.96	0.00
465.14	0.00
465.32	0.00
465.50	0.00
465.69	0.00
465.87	0.00
466.05	0.00
466.23	0.00
466.41	0.00
466.60	0.00
466.78	0.00
466.96	63.19
467.14	67.88
467.32	44.47
467.51	37.45
467.69	18.72
467.87	28.09
468.05	0.00
468.23	51.49
468.41	0.00
468.60	0.00
468.78	4.68
468.96	2.34
469.14	16.38
469.32	0.00
469.50	0.00
469.69	0.00
469.87	0.00
470.05	0.00
470.23	0.00
470.41	0.00
470.59	0.00
470.77	0.00
470.95	39.79
471.14	11.70
471.32	0.00
471.50	14.04
471.68	0.00
471.86	21.06
472.04	56.17
472.22	11.70
472.40	0.00
472.58	0.00
472.77	0.00
472.95	0.00
473.13	4.68
473.31	4.68
473.49	0.00
473.67	0.00
473.85	86.60
474.03	79.58
474.21	0.00
474.39	77.24
474.57	46.81
474.75	0.00
474.93	0.00
475.12	0.00
475.30	0.00
475.48	32.77
475.66	42.13
475.84	16.38
476.02	0.00
476.20	0.00
476.38	0.00
476.56	98.30
476.74	0.00
476.92	0.00
477.10	0.00
477.28	4.68
477.46	0.00
477.64	0.00
477.82	30.43
478.00	0.00
478.18	65.54
478.36	0.00
478.54	88.94
478.72	14.04
478.90	39.79
479.08	35.11
479.26	25.75
479.44	0.00
479.62	14.04
479.80	51.49
479.98	28.09
480.16	51.49
480.34	56.17
480.52	18.72
480.70	86.60
480.88	42.13
481.06	46.81
481.24	0.00
481.41	102.98
481.59	84.26
481.77	131.07
481.95	0.00
482.13	74.90
482.31	0.00
482.49	51.49
482.67	100.64
482.85	0.00
483.03	42.13
483.21	138.09
483.39	44.47
483.57	0.00
483.74	86.60
483.92	119.37
484.10	46.81
484.28	114.69
484.46	105.32
484.64	126.39
484.82	95.96
485.00	56.17
485.18	77.24
485.35	46.81
485.53	39.79
485.71	60.85
485.89	23.41
486.07	63.19
486.25	243.42
486.43	79.58
486.61	53.83
486.78	42.13
486.96	37.45
487.14	102.98
487.32	98.30
487.50	65.54
487.68	81.92
487.85	56.17
488.03	105.32
488.21	138.09
488.39	81.92
488.57	173.20
488.75	119.37
488.92	465.77
489.10	168.52
489.28	161.50
489.46	142.77
489.64	84.26
489.81	102.98
489.99	112.35
490.17	117.03
490.35	194.26
490.53	135.75
490.70	156.82
490.88	184.90
491.06	168.52
491.24	168.52
491.41	163.84
491.59	142.77
491.77	140.43
491.95	147.45
492.13	102.98
492.30	161.50
492.48	128.73
492.66	184.90
492.84	131.07
493.01	241.08
493.19	168.52
493.37	189.58
493.54	98.30
493.72	163.84
493.90	100.64
494.08	138.09
494.25	173.20
494.43	159.16
494.61	224.69
494.79	159.16
494.96	210.65
495.14	210.65
495.32	159.16
495.49	152.13
495.67	163.84
495.85	166.18
496.02	114.69
496.20	203.63
496.38	196.60
496.55	184.90
496.73	224.69
496.91	154.48
497.09	154.48
497.26	208.31
497.44	194.26
497.62	229.37
497.79	203.63
497.97	196.60
498.14	133.41
498.32	98.30
498.50	177.88
498.67	191.92
498.85	184.90
499.03	177.88
499.20	168.52
499.38	301.93
499.56	182.56
499.73	227.03
499.91	255.12
500.08	280.86
500.26	257.46
500.44	187.24
500.61	285.55
500.79	264.48
500.97	210.65
501.14	280.86
501.32	72.56
501.49	210.65
501.67	175.54
501.84	224.69
502.02	215.33
502.20	255.12
502.37	285.55
502.55	255.12
502.72	184.90
502.90	196.60
503.07	212.99
503.25	248.10
503.43	238.73
503.60	262.14
503.78	234.05
503.95	107.66
504.13	212.99
504.30	301.93
504.48	203.63
504.65	203.63
504.83	259.80
505.01	241.08
505.18	325.33
505.36	301.93
505.53	287.89
505.71	245.76
505.88	222.35
506.06	198.95
506.23	210.65
506.41	217.67
506.58	304.27
506.76	262.14
506.93	229.37
507.11	241.08
507.28	212.99
507.46	205.97
507.63	180.22
507.81	191.92
507.98	205.97
508.16	234.05
508.33	203.63
508.50	229.37
508.68	224.69
508.85	299.59
509.03	285.55
509.20	231.71
509.38	198.95
509.55	299.59
509.73	245.76
509.90	290.23
510.08	224.69
510.25	308.95
510.42	180.22
510.60	276.18
510.77	234.05
510.95	271.50
511.12	250.44
511.30	327.68
511.47	339.38
511.64	322.99
511.82	269.16
511.99	299.59
512.17	337.04
512.34	227.03
512.51	252.78
512.69	184.90
512.86	259.80
513.04	262.14
513.21	308.95
513.38	196.60
513.56	198.95
513.73	283.20
513.90	241.08
514.08	290.23
514.25	287.89
514.43	271.50
514.60	215.33
514.77	269.16
514.95	259.80
515.12	266.82
515.29	285.55
515.47	330.02
515.64	276.18
515.81	222.35
515.99	320.65
516.16	304.27
516.33	259.80
516.51	152.13
516.68	156.82
516.85	210.65
517.03	184.90
517.20	196.60
517.37	241.08
517.54	327.68
517.72	231.71
517.89	234.05
518.06	201.29
518.24	243.42
518.41	299.59
518.58	212.99
518.75	250.44
518.93	255.12
519.10	290.23
519.27	276.18
519.45	257.46
519.62	222.35
519.79	358.10
519.96	210.65
520.14	339.38
520.31	301.93
520.48	337.04
520.65	271.50
520.83	269.16
521.00	271.50
521.17	367.46
521.34	245.76
521.52	278.52
521.69	264.48
521.86	297.25
522.03	327.68
522.20	292.57
522.38	262.14
522.55	241.08
522.72	243.42
522.89	320.65
523.07	322.99
523.24	297.25
523.41	262.14
523.58	280.86
523.75	299.59
523.92	318.31
524.10	351.08
524.27	353.42
524.44	367.46
524.61	330.02
524.78	208.31
524.96	344.06
525.13	315.97
525.30	341.72
525.47	402.57
525.64	292.57
525.81	330.02
525.98	259.80
526.16	259.80
526.33	283.20
526.50	222.35
526.67	224.69
526.84	280.86
527.01	264.48
527.18	322.99
527.36	376.83
527.53	294.91
527.70	334.70
527.87	332.36
528.04	330.02
528.21	351.08
528.38	325.33
528.55	330.02
528.72	388.53
528.89	381.51
529.07	388.53
529.24	248.10
529.41	311.29
529.58	341.72
529.75	301.93
529.92	327.68
530.09	250.44
530.26	360.44
530.43	362.78
530.60	416.62
530.77	365.12
530.94	346.40
531.11	308.95
531.28	285.55
531.46	437.68
531.63	344.06
531.80	344.06
531.97	292.57
532.14	360.44
532.31	315.97
532.48	341.72
532.65	304.27
532.82	243.42
532.99	304.27
533.16	348.74
533.33	341.72
533.50	344.06
533.67	320.65
533.84	365.12
534.01	313.63
534.18	311.29
534.35	374.49
534.52	257.46
534.69	428.32
534.86	311.29
535.03	414.27
535.20	306.61
535.37	348.74
535.54	365.12
535.71	418.96
535.88	390.87
536.05	381.51
536.22	315.97
536.38	292.57
536.55	318.31
536.72	355.76
536.89	395.55
537.06	414.27
537.23	383.85
537.40	348.74
537.57	292.57
537.74	341.72
537.91	334.70
538.08	290.23
538.25	409.59
538.42	325.33
538.59	332.36
538.75	297.25
538.92	360.44
539.09	334.70
539.26	241.08
539.43	332.36
539.60	372.15
539.77	360.44
539.94	332.36
540.11	311.29
540.28	367.46
540.44	325.33
540.61	337.04
540.78	301.93
540.95	339.38
541.12	346.40
541.29	341.72
541.46	332.36
541.62	374.49
541.79	308.95
541.96	306.61
542.13	299.59
542.30	376.83
542.47	325.33
542.63	330.02
542.80	362.78
542.97	388.53
543.14	297.25
543.31	278.52
543.48	322.99
543.64	358.10
543.81	369.80
543.98	414.27
544.15	266.82
544.32	348.74
544.48	393.21
544.65	337.04
544.82	369.80
544.99	332.36
545.16	287.89
545.32	334.70
545.49	383.85
545.66	365.12
545.83	290.23
546.00	255.12
546.16	369.80
546.33	332.36
546.50	334.70
546.67	397.89
546.83	409.59
547.00	325.33
547.17	339.38
547.34	287.89
547.50	348.74
547.67	292.57
547.84	379.17
548.00	325.33
548.17	372.15
548.34	292.57
548.51	451.72
548.67	458.74
548.84	355.76
549.01	386.19
549.18	376.83
549.34	397.89
549.51	346.40
549.68	393.21
549.84	388.53
550.01	315.97
550.18	507.90
550.34	409.59
550.51	304.27
550.68	409.59
550.84	231.71
551.01	297.25
551.18	367.46
551.34	365.12
551.51	372.15
551.68	320.65
551.84	383.85
552.01	360.44
552.18	341.72
552.34	365.12
552.51	306.61
552.68	217.67
552.84	266.82
553.01	423.64
553.18	374.49
553.34	322.99
553.51	433.00
553.67	425.98
553.84	388.53
554.01	351.08
554.17	299.59
554.34	414.27
554.51	339.38
554.67	503.22
554.84	304.27
555.00	376.83
555.17	425.98
555.33	379.17
555.50	327.68
555.67	339.38
555.83	330.02
556.00	332.36
556.16	557.05
556.33	320.65
556.50	358.10
556.66	257.46
556.83	337.04
556.99	330.02
557.16	395.55
557.32	358.10
557.49	301.93
557.65	290.23
557.82	351.08
557.98	353.42
558.15	355.76
558.32	308.95
558.48	250.44
558.65	332.36
558.81	325.33
558.98	346.40
559.14	304.27
559.31	290.23
559.47	362.78
559.64	287.89
559.80	407.25
559.97	304.27
560.13	297.25
560.30	355.76
560.46	388.53
560.63	341.72
560.79	341.72
560.96	390.87
561.12	423.64
561.29	376.83
561.45	320.65
561.61	346.40
561.78	425.98
561.94	332.36
562.11	362.78
562.27	334.70
562.44	327.68
562.60	428.32
562.77	362.78
562.93	451.72
563.10	360.44
563.26	308.95
563.42	388.53
563.59	322.99
563.75	276.18
563.92	444.70
564.08	353.42
564.24	337.04
564.41	372.15
564.57	346.40
564.74	351.08
564.90	430.66
565.07	376.83
565.23	360.44
565.39	308.95
565.56	400.23
565.72	259.80
565.88	283.20
566.05	266.82
566.21	175.54
566.38	395.55
566.54	351.08
566.70	297.25
566.87	383.85
567.03	339.38
567.19	304.27
567.36	388.53
567.52	318.31
567.68	299.59
567.85	304.27
568.01	278.52
568.17	264.48
568.34	283.20
568.50	339.38
568.66	311.29
568.83	425.98
568.99	252.78
569.15	318.31
569.32	308.95
569.48	299.59
569.64	294.91
569.81	320.65
569.97	337.04
570.13	339.38
570.30	271.50
570.46	269.16
570.62	290.23
570.78	294.91
570.95	241.08
571.11	283.20
571.27	231.71
571.43	306.61
571.60	395.55
571.76	273.84
571.92	351.08
572.09	322.99
572.25	388.53
572.41	294.91
572.57	393.21
572.74	308.95
572.90	353.42
573.06	306.61
573.22	351.08
573.38	374.49
573.55	390.87
573.71	339.38
573.87	299.59
574.03	311.29
574.20	348.74
574.36	337.04
574.52	322.99
574.68	332.36
574.84	322.99
575.01	369.80
575.17	297.25
575.33	318.31
575.49	383.85
575.65	287.89
575.82	285.55
575.98	463.43
576.14	355.76
576.30	351.08
576.46	334.70
576.62	311.29
576.79	402.57
576.95	414.27
577.11	245.76
577.27	301.93
577.43	369.80
577.59	306.61
577.75	306.61
577.92	287.89
578.08	278.52
578.24	234.05
578.40	313.63
578.56	330.02
578.72	290.23
578.88	397.89
579.04	367.46
579.21	313.63
579.37	365.12
579.53	320.65
579.69	386.19
579.85	301.93
580.01	341.72
580.17	332.36
580.33	285.55
580.49	334.70
580.65	404.91
580.82	308.95
580.98	339.38
581.14	285.55
581.30	322.99
581.46	369.80
581.62	397.89
581.78	269.16
581.94	365.12
582.10	264.48
582.26	308.95
582.42	369.80
582.58	414.27
582.74	327.68
582.90	337.04
583.06	304.27
583.22	348.74
583.38	318.31
583.54	344.06
583.70	411.93
583.86	320.65
584.02	337.04
584.18	423.64
584.34	283.20
584.50	313.63
584.66	308.95
584.82	381.51
584.98	358.10
585.14	304.27
585.30	374.49
585.46	231.71
585.62	269.16
585.78	285.55
585.94	327.68
586.10	353.42
586.26	301.93
586.42	355.76
586.58	425.98
586.74	374.49
586.90	414.27
587.06	332.36
587.22	327.68
587.38	290.23
587.54	346.40
587.70	294.91
587.86	283.20
588.02	313.63
588.18	381.51
588.34	320.65
588.49	177.88
588.65	231.71
588.81	255.12
588.97	222.35
589.13	236.39
589.29	308.95
589.45	273.84
589.61	259.80
589.77	252.78
589.93	245.76
590.08	278.52
590.24	266.82
590.40	198.95
590.56	250.44
590.72	241.08
590.88	306.61
591.04	297.25
591.20	203.63
591.35	238.73
591.51	269.16
591.67	325.33
591.83	184.90
591.99	241.08
592.15	423.64
592.31	280.86
592.46	257.46
592.62	301.93
592.78	236.39
592.94	245.76
593.10	330.02
593.26	273.84
593.41	383.85
593.57	280.86
593.73	266.82
593.89	194.26
594.05	313.63
594.20	276.18
594.36	320.65
594.52	259.80
594.68	299.59
594.84	304.27
594.99	374.49
595.15	416.62
595.31	322.99
595.47	386.19
595.62	234.05
595.78	273.84
595.94	259.80
596.10	353.42
596.25	294.91
596.41	290.23
596.57	315.97
596.73	264.48
596.88	306.61
597.04	311.29
597.20	264.48
597.36	285.55
597.51	203.63
597.67	243.42
597.83	299.59
597.99	292.57
598.14	259.80
598.30	407.25
598.46	163.84
598.61	255.12
598.77	358.10
598.93	269.16
599.09	241.08
599.24	248.10
599.40	332.36
599.56	241.08
599.71	332.36
599.87	301.93
600.03	271.50
600.18	273.84
600.34	273.84
600.50	271.50
600.65	304.27
600.81	351.08
600.97	290.23
601.12	236.39
601.28	236.39
601.44	273.84
601.59	245.76
601.75	266.82
601.91	287.89
602.06	280.86
602.22	423.64
602.37	250.44
602.53	234.05
602.69	341.72
602.84	262.14
603.00	313.63
603.16	271.50
603.31	334.70
603.47	257.46
603.62	238.73
603.78	271.50
603.94	374.49
604.09	245.76
604.25	315.97
604.40	374.49
604.56	299.59
604.71	238.73
604.87	257.46
605.03	299.59
605.18	257.46
605.34	351.08
605.49	257.46
605.65	257.46
605.80	215.33
605.96	332.36
606.12	330.02
606.27	297.25
606.43	262.14
606.58	264.48
606.74	217.67
606.89	297.25
607.05	358.10
607.20	227.03
607.36	243.42
607.51	259.80
607.67	257.46
607.82	250.44
607.98	238.73
608.13	248.10
608.29	208.31
608.44	220.01
608.60	278.52
608.75	306.61
608.91	259.80
609.06	287.89
609.22	220.01
609.37	334.70
609.53	264.48
609.68	198.95
609.84	159.16
609.99	194.26
610.15	252.78
610.30	229.37
610.46	304.27
610.61	325.33
610.76	238.73
610.92	245.76
611.07	208.31
611.23	353.42
611.38	304.27
611.54	173.20
611.69	276.18
611.84	201.29
612.00	273.84
612.15	156.82
612.31	283.20
612.46	243.42
612.62	231.71
612.77	285.55
612.92	285.55
613.08	264.48
613.23	290.23
613.39	248.10
613.54	259.80
613.69	184.90
613.85	208.31
614.00	250.44
614.15	203.63
614.31	215.33
614.46	152.13
614.62	262.14
614.77	271.50
614.92	166.18
615.08	278.52
615.23	175.54
615.38	100.64
615.54	252.78
615.69	203.63
615.84	173.20
616.00	217.67
616.15	248.10
616.30	201.29
616.46	243.42
616.61	152.13
616.76	271.50
616.92	224.69
617.07	220.01
617.22	252.78
617.37	227.03
617.53	264.48
617.68	229.37
617.83	133.41
617.99	255.12
618.14	273.84
618.29	203.63
618.45	212.99
618.60	229.37
618.75	243.42
618.90	187.24
619.06	145.11
619.21	311.29
619.36	304.27
619.51	236.39
619.67	252.78
619.82	208.31
619.97	159.16
620.12	86.60
620.28	241.08
620.43	184.90
620.58	182.56
620.73	201.29
620.89	180.22
621.04	313.63
621.19	220.01
621.34	210.65
621.49	154.48
621.65	184.90
621.80	170.86
621.95	189.58
622.10	177.88
622.25	280.86
622.41	187.24
622.56	170.86
622.71	273.84
622.86	266.82
623.01	198.95
623.16	238.73
623.32	145.11
