SpectraSuite Data File
++++++++++++++++++++++++++++++++++++
Date: Mon Oct 07 15:00:00 GMT-05:00 2013
User: price-jones
Dark Spectrum Present: No
Reference Spectrum Present: No
Number of Sampled Component Spectra: 1
Spectrometers: USB2+H05261
Integration Time (usec): 100000 (USB2+H05261)
Spectra Averaged: 1 (USB2+H05261)
Boxcar Smoothing: 0 (USB2+H05261)
Correct for Electrical Dark: No (USB2+H05261)
Strobe/Lamp Enabled: No (USB2+H05261)
Correct for Detector Non-linearity: No (USB2+H05261)
Correct for Stray Light: No (USB2+H05261)
Number of Pixels in Processed Spectrum: 2048
>>>>>Begin Processed Spectral Data<<<<<
365.73	0.00
365.92	0.00
366.12	0.00
366.32	0.00
366.52	0.00
366.72	0.00
366.91	0.00
367.11	0.00
367.31	0.00
367.51	0.00
367.70	0.00
367.90	0.00
368.10	0.00
368.30	0.00
368.49	0.00
368.69	0.00
368.89	0.00
369.09	0.00
369.28	0.00
369.48	0.00
369.68	0.00
369.87	0.00
370.07	0.00
370.27	0.00
370.47	0.00
370.66	0.00
370.86	0.00
371.06	0.00
371.25	0.00
371.45	0.00
371.65	0.00
371.84	0.00
372.04	0.00
372.24	0.00
372.44	0.00
372.63	0.00
372.83	0.00
373.03	0.00
373.22	0.00
373.42	0.00
373.62	0.00
373.81	0.00
374.01	0.00
374.21	0.00
374.40	0.00
374.60	0.00
374.79	0.00
374.99	0.00
375.19	0.00
375.38	0.00
375.58	0.00
375.78	0.00
375.97	0.00
376.17	0.00
376.37	0.00
376.56	0.00
376.76	0.00
376.95	0.00
377.15	0.00
377.35	0.00
377.54	0.00
377.74	0.00
377.93	0.00
378.13	0.00
378.33	0.00
378.52	0.00
378.72	0.00
378.91	0.00
379.11	0.00
379.31	0.00
379.50	0.00
379.70	0.00
379.89	0.00
380.09	0.00
380.28	0.00
380.48	0.00
380.68	0.00
380.87	0.00
381.07	0.00
381.26	0.00
381.46	0.00
381.65	0.00
381.85	0.00
382.04	0.00
382.24	0.00
382.43	0.00
382.63	0.00
382.83	0.00
383.02	0.00
383.22	0.00
383.41	0.00
383.61	0.00
383.80	0.00
384.00	0.00
384.19	0.00
384.39	0.00
384.58	0.00
384.78	0.00
384.97	0.00
385.17	0.00
385.36	0.00
385.56	0.00
385.75	0.00
385.95	0.00
386.14	0.00
386.34	0.00
386.53	0.00
386.72	0.00
386.92	0.00
387.11	0.00
387.31	0.00
387.50	0.00
387.70	0.00
387.89	0.00
388.09	0.00
388.28	0.00
388.48	0.00
388.67	0.00
388.86	0.00
389.06	0.00
389.25	0.00
389.45	0.00
389.64	0.00
389.84	0.00
390.03	0.00
390.22	0.00
390.42	0.00
390.61	0.00
390.81	0.00
391.00	0.00
391.19	0.00
391.39	0.00
391.58	0.00
391.78	0.00
391.97	0.00
392.16	0.00
392.36	0.00
392.55	0.00
392.75	0.00
392.94	0.00
393.13	0.00
393.33	0.00
393.52	0.00
393.71	0.00
393.91	0.00
394.10	0.00
394.29	0.00
394.49	0.00
394.68	0.00
394.88	0.00
395.07	0.00
395.26	0.00
395.46	0.00
395.65	0.00
395.84	0.00
396.04	0.00
396.23	0.00
396.42	0.00
396.62	0.00
396.81	0.00
397.00	0.00
397.19	0.00
397.39	0.00
397.58	0.00
397.77	0.00
397.97	0.00
398.16	0.00
398.35	0.00
398.55	0.00
398.74	0.00
398.93	0.00
399.12	0.00
399.32	0.00
399.51	0.00
399.70	0.00
399.90	0.00
400.09	0.00
400.28	0.00
400.47	0.00
400.67	0.00
400.86	0.00
401.05	0.00
401.24	0.00
401.44	0.00
401.63	0.00
401.82	0.00
402.01	0.00
402.21	0.00
402.40	0.00
402.59	0.00
402.78	0.00
402.97	0.00
403.17	0.00
403.36	0.00
403.55	0.00
403.74	0.00
403.93	0.00
404.13	0.00
404.32	0.00
404.51	0.00
404.70	0.00
404.89	0.00
405.09	0.00
405.28	0.00
405.47	0.00
405.66	0.00
405.85	0.00
406.05	0.00
406.24	0.00
406.43	0.00
406.62	0.00
406.81	0.00
407.00	0.00
407.20	0.00
407.39	0.00
407.58	0.00
407.77	0.00
407.96	0.00
408.15	0.00
408.34	0.00
408.54	0.00
408.73	0.00
408.92	0.00
409.11	0.00
409.30	0.00
409.49	0.00
409.68	0.00
409.87	0.00
410.07	0.00
410.26	0.00
410.45	0.00
410.64	0.00
410.83	0.00
411.02	0.00
411.21	0.00
411.40	0.00
411.59	0.00
411.78	0.00
411.98	0.00
412.17	0.00
412.36	0.00
412.55	0.00
412.74	0.00
412.93	0.00
413.12	0.00
413.31	0.00
413.50	0.00
413.69	0.00
413.88	0.00
414.07	0.00
414.26	0.00
414.45	0.00
414.64	0.00
414.83	0.00
415.02	0.00
415.22	0.00
415.41	0.00
415.60	0.00
415.79	0.00
415.98	0.00
416.17	0.00
416.36	0.00
416.55	0.00
416.74	0.00
416.93	0.00
417.12	0.00
417.31	0.00
417.50	0.00
417.69	4.68
417.88	0.00
418.07	0.00
418.26	0.00
418.45	0.00
418.64	0.00
418.83	0.00
419.02	0.00
419.21	0.00
419.39	0.00
419.58	0.00
419.77	0.00
419.96	0.00
420.15	0.00
420.34	0.00
420.53	0.00
420.72	0.00
420.91	0.00
421.10	0.00
421.29	0.00
421.48	0.00
421.67	0.00
421.86	0.00
422.05	0.00
422.24	0.00
422.43	0.00
422.61	0.00
422.80	0.00
422.99	0.00
423.18	0.00
423.37	0.00
423.56	0.00
423.75	0.00
423.94	0.00
424.13	0.00
424.32	0.00
424.50	0.00
424.69	0.00
424.88	0.00
425.07	0.00
425.26	0.00
425.45	0.00
425.64	0.00
425.83	0.00
426.01	0.00
426.20	0.00
426.39	0.00
426.58	0.00
426.77	0.00
426.96	0.00
427.15	0.00
427.33	0.00
427.52	0.00
427.71	0.00
427.90	0.00
428.09	0.00
428.28	0.00
428.46	0.00
428.65	0.00
428.84	0.00
429.03	0.00
429.22	0.00
429.40	0.00
429.59	0.00
429.78	0.00
429.97	0.00
430.16	0.00
430.34	0.00
430.53	0.00
430.72	0.00
430.91	0.00
431.10	0.00
431.28	0.00
431.47	0.00
431.66	0.00
431.85	0.00
432.03	0.00
432.22	0.00
432.41	0.00
432.60	0.00
432.79	0.00
432.97	0.00
433.16	0.00
433.35	0.00
433.54	0.00
433.72	0.00
433.91	0.00
434.10	0.00
434.28	0.00
434.47	0.00
434.66	0.00
434.85	0.00
435.03	0.00
435.22	0.00
435.41	0.00
435.59	0.00
435.78	0.00
435.97	0.00
436.16	0.00
436.34	0.00
436.53	0.00
436.72	0.00
436.90	0.00
437.09	0.00
437.28	0.00
437.46	0.00
437.65	0.00
437.84	0.00
438.02	0.00
438.21	0.00
438.40	0.00
438.58	0.00
438.77	0.00
438.96	0.00
439.14	0.00
439.33	0.00
439.52	0.00
439.70	0.00
439.89	0.00
440.08	0.00
440.26	0.00
440.45	0.00
440.63	58.51
440.82	0.00
441.01	0.00
441.19	0.00
441.38	0.00
441.57	0.00
441.75	0.00
441.94	0.00
442.12	0.00
442.31	0.00
442.50	0.00
442.68	0.00
442.87	0.00
443.05	0.00
443.24	0.00
443.43	0.00
443.61	0.00
443.80	0.00
443.98	0.00
444.17	0.00
444.35	0.00
444.54	0.00
444.73	0.00
444.91	0.00
445.10	0.00
445.28	0.00
445.47	0.00
445.65	0.00
445.84	0.00
446.02	0.00
446.21	0.00
446.39	0.00
446.58	0.00
446.77	0.00
446.95	0.00
447.14	0.00
447.32	0.00
447.51	0.00
447.69	0.00
447.88	0.00
448.06	0.00
448.25	0.00
448.43	0.00
448.62	0.00
448.80	0.00
448.99	0.00
449.17	0.00
449.36	0.00
449.54	0.00
449.73	0.00
449.91	0.00
450.10	0.00
450.28	0.00
450.46	0.00
450.65	0.00
450.83	0.00
451.02	0.00
451.20	0.00
451.39	14.04
451.57	0.00
451.76	0.00
451.94	0.00
452.13	0.00
452.31	4.68
452.49	0.00
452.68	0.00
452.86	0.00
453.05	0.00
453.23	0.00
453.42	0.00
453.60	11.70
453.78	0.00
453.97	0.00
454.15	0.00
454.34	0.00
454.52	0.00
454.70	30.43
454.89	0.00
455.07	0.00
455.26	28.09
455.44	0.00
455.62	0.00
455.81	0.00
455.99	0.00
456.17	0.00
456.36	0.00
456.54	0.00
456.73	0.00
456.91	0.00
457.09	0.00
457.28	0.00
457.46	0.00
457.64	0.00
457.83	0.00
458.01	0.00
458.19	0.00
458.38	0.00
458.56	30.43
458.74	0.00
458.93	0.00
459.11	0.00
459.29	0.00
459.48	0.00
459.66	0.00
459.84	0.00
460.03	67.88
460.21	30.43
460.39	0.00
460.57	0.00
460.76	0.00
460.94	0.00
461.12	0.00
461.31	4.68
461.49	0.00
461.67	0.00
461.85	0.00
462.04	0.00
462.22	592.16
462.40	16.38
462.59	77.24
462.77	0.00
462.95	0.00
463.13	0.00
463.32	0.00
463.50	0.00
463.68	0.00
463.86	35.11
464.05	0.00
464.23	44.47
464.41	0.00
464.59	0.00
464.78	0.00
464.96	0.00
465.14	0.00
465.32	0.00
465.50	0.00
465.69	30.43
465.87	7.02
466.05	0.00
466.23	0.00
466.41	0.00
466.60	0.00
466.78	0.00
466.96	0.00
467.14	0.00
467.32	39.79
467.51	0.00
467.69	18.72
467.87	0.00
468.05	0.00
468.23	102.98
468.41	9.36
468.60	0.00
468.78	4.68
468.96	0.00
469.14	0.00
469.32	0.00
469.50	0.00
469.69	11.70
469.87	11.70
470.05	0.00
470.23	0.00
470.41	0.00
470.59	44.47
470.77	0.00
470.95	0.00
471.14	63.19
471.32	0.00
471.50	0.00
471.68	65.54
471.86	42.13
472.04	9.36
472.22	0.00
472.40	0.00
472.58	0.00
472.77	0.00
472.95	0.00
473.13	42.13
473.31	0.00
473.49	0.00
473.67	7.02
473.85	0.00
474.03	0.00
474.21	0.00
474.39	49.15
474.57	46.81
474.75	0.00
474.93	0.00
475.12	0.00
475.30	0.00
475.48	0.00
475.66	11.70
475.84	14.04
476.02	0.00
476.20	0.00
476.38	0.00
476.56	98.30
476.74	16.38
476.92	0.00
477.10	0.00
477.28	65.54
477.46	0.00
477.64	30.43
477.82	105.32
478.00	16.38
478.18	21.06
478.36	102.98
478.54	0.00
478.72	63.19
478.90	0.00
479.08	49.15
479.26	72.56
479.44	60.85
479.62	18.72
479.80	39.79
479.98	28.09
480.16	0.00
480.34	0.00
480.52	16.38
480.70	49.15
480.88	44.47
481.06	39.79
481.24	67.88
481.41	56.17
481.59	60.85
481.77	18.72
481.95	16.38
482.13	79.58
482.31	0.00
482.49	65.54
482.67	91.28
482.85	131.07
483.03	84.26
483.21	102.98
483.39	60.85
483.57	28.09
483.74	86.60
483.92	81.92
484.10	14.04
484.28	135.75
484.46	194.26
484.64	133.41
484.82	39.79
485.00	7.02
485.18	49.15
485.35	9.36
485.53	30.43
485.71	67.88
485.89	0.00
486.07	35.11
486.25	131.07
486.43	124.05
486.61	86.60
486.78	63.19
486.96	86.60
487.14	56.17
487.32	46.81
487.50	124.05
487.68	191.92
487.85	72.56
488.03	77.24
488.21	138.09
488.39	81.92
488.57	79.58
488.75	56.17
488.92	458.74
489.10	156.82
489.28	119.37
489.46	86.60
489.64	135.75
489.81	126.39
489.99	74.90
490.17	147.45
490.35	238.73
490.53	156.82
490.70	23.41
490.88	112.35
491.06	84.26
491.24	131.07
491.41	152.13
491.59	81.92
491.77	81.92
491.95	42.13
492.13	117.03
492.30	124.05
492.48	191.92
492.66	79.58
492.84	128.73
493.01	161.50
493.19	196.60
493.37	149.79
493.54	100.64
493.72	112.35
493.90	131.07
494.08	138.09
494.25	149.79
494.43	117.03
494.61	131.07
494.79	156.82
494.96	166.18
495.14	262.14
495.32	142.77
495.49	147.45
495.67	173.20
495.85	93.62
496.02	163.84
496.20	203.63
496.38	142.77
496.55	194.26
496.73	203.63
496.91	114.69
497.09	227.03
497.26	95.96
497.44	124.05
497.62	168.52
497.79	194.26
497.97	231.71
498.14	166.18
498.32	124.05
498.50	173.20
498.67	175.54
498.85	203.63
499.03	198.95
499.20	250.44
499.38	212.99
499.56	194.26
499.73	224.69
499.91	177.88
500.08	159.16
500.26	156.82
500.44	177.88
500.61	194.26
500.79	173.20
500.97	217.67
501.14	255.12
501.32	159.16
501.49	301.93
501.67	205.97
501.84	255.12
502.02	117.03
502.20	248.10
502.37	222.35
502.55	189.58
502.72	170.86
502.90	227.03
503.07	227.03
503.25	135.75
503.43	138.09
503.60	149.79
503.78	133.41
503.95	110.01
504.13	220.01
504.30	177.88
504.48	308.95
504.65	322.99
504.83	250.44
505.01	227.03
505.18	222.35
505.36	203.63
505.53	189.58
505.71	224.69
505.88	191.92
506.06	259.80
506.23	257.46
506.41	276.18
506.58	257.46
506.76	264.48
506.93	245.76
507.11	273.84
507.28	273.84
507.46	215.33
507.63	189.58
507.81	149.79
507.98	276.18
508.16	273.84
508.33	201.29
508.50	332.36
508.68	262.14
508.85	229.37
509.03	205.97
509.20	182.56
509.38	175.54
509.55	238.73
509.73	297.25
509.90	283.20
510.08	212.99
510.25	238.73
510.42	163.84
510.60	271.50
510.77	252.78
510.95	182.56
511.12	276.18
511.30	322.99
511.47	304.27
511.64	308.95
511.82	227.03
511.99	177.88
512.17	245.76
512.34	241.08
512.51	184.90
512.69	266.82
512.86	287.89
513.04	220.01
513.21	196.60
513.38	280.86
513.56	191.92
513.73	154.48
513.90	285.55
514.08	203.63
514.25	292.57
514.43	283.20
514.60	175.54
514.77	252.78
514.95	304.27
515.12	252.78
515.29	210.65
515.47	280.86
515.64	355.76
515.81	241.08
515.99	285.55
516.16	231.71
516.33	201.29
516.51	187.24
516.68	79.58
516.85	182.56
517.03	110.01
517.20	236.39
517.37	299.59
517.54	234.05
517.72	191.92
517.89	191.92
518.06	182.56
518.24	313.63
518.41	313.63
518.58	292.57
518.75	191.92
518.93	234.05
519.10	154.48
519.27	330.02
519.45	173.20
519.62	280.86
519.79	245.76
519.96	301.93
520.14	292.57
520.31	280.86
520.48	229.37
520.65	280.86
520.83	264.48
521.00	330.02
521.17	285.55
521.34	201.29
521.52	301.93
521.69	248.10
521.86	346.40
522.03	243.42
522.20	266.82
522.38	227.03
522.55	259.80
522.72	222.35
522.89	327.68
523.07	365.12
523.24	290.23
523.41	283.20
523.58	177.88
523.75	299.59
523.92	353.42
524.10	278.52
524.27	262.14
524.44	234.05
524.61	294.91
524.78	315.97
524.96	383.85
525.13	304.27
525.30	257.46
525.47	325.33
525.64	280.86
525.81	259.80
525.98	290.23
526.16	231.71
526.33	189.58
526.50	269.16
526.67	177.88
526.84	229.37
527.01	224.69
527.18	346.40
527.36	325.33
527.53	271.50
527.70	320.65
527.87	334.70
528.04	334.70
528.21	315.97
528.38	416.62
528.55	351.08
528.72	325.33
528.89	262.14
529.07	311.29
529.24	252.78
529.41	360.44
529.58	245.76
529.75	248.10
529.92	271.50
530.09	376.83
530.26	341.72
530.43	409.59
530.60	400.23
530.77	308.95
530.94	297.25
531.11	362.78
531.28	376.83
531.46	308.95
531.63	351.08
531.80	306.61
531.97	280.86
532.14	301.93
532.31	238.73
532.48	374.49
532.65	234.05
532.82	297.25
532.99	248.10
533.16	339.38
533.33	292.57
533.50	301.93
533.67	322.99
533.84	306.61
534.01	250.44
534.18	262.14
534.35	334.70
534.52	278.52
534.69	458.74
534.86	362.78
535.03	294.91
535.20	337.04
535.37	379.17
535.54	362.78
535.71	301.93
535.88	444.70
536.05	248.10
536.22	320.65
536.38	283.20
536.55	411.93
536.72	325.33
536.89	229.37
537.06	217.67
537.23	402.57
537.40	337.04
537.57	306.61
537.74	346.40
537.91	365.12
538.08	241.08
538.25	276.18
538.42	362.78
538.59	369.80
538.75	353.42
538.92	330.02
539.09	304.27
539.26	381.51
539.43	315.97
539.60	287.89
539.77	344.06
539.94	332.36
540.11	348.74
540.28	290.23
540.44	287.89
540.61	393.21
540.78	397.89
540.95	348.74
541.12	313.63
541.29	327.68
541.46	358.10
541.62	337.04
541.79	294.91
541.96	220.01
542.13	255.12
542.30	285.55
542.47	269.16
542.63	250.44
542.80	220.01
542.97	325.33
543.14	355.76
543.31	313.63
543.48	341.72
543.64	346.40
543.81	388.53
543.98	407.25
544.15	271.50
544.32	250.44
544.48	353.42
544.65	330.02
544.82	283.20
544.99	320.65
545.16	311.29
545.32	245.76
545.49	318.31
545.66	322.99
545.83	294.91
546.00	313.63
546.16	306.61
546.33	262.14
546.50	325.33
546.67	381.51
546.83	463.43
547.00	376.83
547.17	262.14
547.34	299.59
547.50	376.83
547.67	332.36
547.84	257.46
548.00	353.42
548.17	351.08
548.34	447.04
548.51	348.74
548.67	400.23
548.84	346.40
549.01	315.97
549.18	411.93
549.34	348.74
549.51	395.55
549.68	299.59
549.84	334.70
550.01	271.50
550.18	470.45
550.34	447.04
550.51	271.50
550.68	386.19
550.84	318.31
551.01	358.10
551.18	421.30
551.34	271.50
551.51	330.02
551.68	280.86
551.84	344.06
552.01	367.46
552.18	320.65
552.34	346.40
552.51	266.82
552.68	365.12
552.84	308.95
553.01	311.29
553.18	311.29
553.34	358.10
553.51	315.97
553.67	374.49
553.84	383.85
554.01	337.04
554.17	360.44
554.34	290.23
554.51	365.12
554.67	339.38
554.84	465.77
555.00	308.95
555.17	278.52
555.33	369.80
555.50	320.65
555.67	369.80
555.83	379.17
556.00	353.42
556.16	545.34
556.33	365.12
556.50	278.52
556.66	315.97
556.83	301.93
556.99	257.46
557.16	376.83
557.32	315.97
557.49	297.25
557.65	351.08
557.82	304.27
557.98	330.02
558.15	304.27
558.32	271.50
558.48	351.08
558.65	280.86
558.81	320.65
558.98	395.55
559.14	372.15
559.31	301.93
559.47	313.63
559.64	351.08
559.80	322.99
559.97	231.71
560.13	390.87
560.30	365.12
560.46	297.25
560.63	301.93
560.79	259.80
560.96	273.84
561.12	243.42
561.29	353.42
561.45	362.78
561.61	262.14
561.78	325.33
561.94	311.29
562.11	315.97
562.27	381.51
562.44	194.26
562.60	318.31
562.77	320.65
562.93	395.55
563.10	315.97
563.26	297.25
563.42	315.97
563.59	330.02
563.75	358.10
563.92	372.15
564.08	273.84
564.24	262.14
564.41	397.89
564.57	278.52
564.74	344.06
564.90	374.49
565.07	360.44
565.23	332.36
565.39	362.78
565.56	299.59
565.72	290.23
565.88	276.18
566.05	304.27
566.21	297.25
566.38	315.97
566.54	341.72
566.70	383.85
566.87	280.86
567.03	280.86
567.19	332.36
567.36	351.08
567.52	315.97
567.68	306.61
567.85	315.97
568.01	351.08
568.17	311.29
568.34	332.36
568.50	294.91
568.66	304.27
568.83	376.83
568.99	227.03
569.15	348.74
569.32	229.37
569.48	250.44
569.64	224.69
569.81	360.44
569.97	220.01
570.13	238.73
570.30	250.44
570.46	196.60
570.62	294.91
570.78	327.68
570.95	231.71
571.11	344.06
571.27	433.00
571.43	217.67
571.60	271.50
571.76	257.46
571.92	266.82
572.09	191.92
572.25	423.64
572.41	306.61
572.57	313.63
572.74	381.51
572.90	280.86
573.06	306.61
573.22	271.50
573.38	397.89
573.55	346.40
573.71	348.74
573.87	311.29
574.03	290.23
574.20	367.46
574.36	386.19
574.52	313.63
574.68	330.02
574.84	388.53
575.01	273.84
575.17	322.99
575.33	351.08
575.49	259.80
575.65	294.91
575.82	358.10
575.98	346.40
576.14	337.04
576.30	339.38
576.46	362.78
576.62	360.44
576.79	332.36
576.95	278.52
577.11	297.25
577.27	273.84
577.43	337.04
577.59	351.08
577.75	266.82
577.92	339.38
578.08	217.67
578.24	217.67
578.40	287.89
578.56	306.61
578.72	276.18
578.88	327.68
579.04	334.70
579.21	322.99
579.37	318.31
579.53	337.04
579.69	278.52
579.85	322.99
580.01	334.70
580.17	369.80
580.33	372.15
580.49	341.72
580.65	306.61
580.82	315.97
580.98	280.86
581.14	344.06
581.30	379.17
581.46	325.33
581.62	313.63
581.78	313.63
581.94	367.46
582.10	306.61
582.26	285.55
582.42	271.50
582.58	278.52
582.74	325.33
582.90	304.27
583.06	273.84
583.22	259.80
583.38	283.20
583.54	334.70
583.70	315.97
583.86	320.65
584.02	301.93
584.18	290.23
584.34	208.31
584.50	313.63
584.66	407.25
584.82	255.12
584.98	306.61
585.14	304.27
585.30	447.04
585.46	262.14
585.62	304.27
585.78	238.73
585.94	334.70
586.10	301.93
586.26	374.49
586.42	386.19
586.58	344.06
586.74	290.23
586.90	194.26
587.06	257.46
587.22	297.25
587.38	241.08
587.54	245.76
587.70	383.85
587.86	390.87
588.02	262.14
588.18	287.89
588.34	299.59
588.49	257.46
588.65	299.59
588.81	201.29
588.97	170.86
589.13	175.54
589.29	269.16
589.45	212.99
589.61	201.29
589.77	262.14
589.93	224.69
590.08	245.76
590.24	238.73
590.40	327.68
590.56	351.08
590.72	315.97
590.88	212.99
591.04	278.52
591.20	276.18
591.35	362.78
591.51	294.91
591.67	234.05
591.83	308.95
591.99	330.02
592.15	285.55
592.31	280.86
592.46	262.14
592.62	252.78
592.78	243.42
592.94	280.86
593.10	315.97
593.26	320.65
593.41	238.73
593.57	290.23
593.73	236.39
593.89	322.99
594.05	320.65
594.20	315.97
594.36	194.26
594.52	285.55
594.68	330.02
594.84	367.46
594.99	416.62
595.15	308.95
595.31	346.40
595.47	315.97
595.62	264.48
595.78	283.20
595.94	236.39
596.10	362.78
596.25	306.61
596.41	386.19
596.57	292.57
596.73	308.95
596.88	175.54
597.04	332.36
597.20	210.65
597.36	278.52
597.51	355.76
597.67	255.12
597.83	229.37
597.99	271.50
598.14	255.12
598.30	241.08
598.46	308.95
598.61	262.14
598.77	287.89
598.93	257.46
599.09	306.61
599.24	264.48
599.40	341.72
599.56	308.95
599.71	306.61
599.87	304.27
600.03	280.86
600.18	273.84
600.34	318.31
600.50	273.84
600.65	203.63
600.81	311.29
600.97	220.01
601.12	245.76
601.28	348.74
601.44	191.92
601.59	299.59
601.75	236.39
601.91	180.22
602.06	273.84
602.22	372.15
602.37	280.86
602.53	194.26
602.69	297.25
602.84	311.29
603.00	297.25
603.16	334.70
603.31	313.63
603.47	330.02
603.62	339.38
603.78	315.97
603.94	341.72
604.09	271.50
604.25	196.60
604.40	283.20
604.56	290.23
604.71	224.69
604.87	224.69
605.03	299.59
605.18	238.73
605.34	306.61
605.49	255.12
605.65	311.29
605.80	252.78
605.96	187.24
606.12	236.39
606.27	269.16
606.43	322.99
606.58	325.33
606.74	294.91
606.89	227.03
607.05	264.48
607.20	259.80
607.36	79.58
607.51	154.48
607.67	259.80
607.82	322.99
607.98	341.72
608.13	330.02
608.29	266.82
608.44	292.57
608.60	222.35
608.75	262.14
608.91	325.33
609.06	276.18
609.22	297.25
609.37	191.92
609.53	297.25
609.68	166.18
609.84	243.42
609.99	196.60
610.15	280.86
610.30	285.55
610.46	318.31
610.61	236.39
610.76	269.16
610.92	271.50
611.07	236.39
611.23	358.10
611.38	271.50
611.54	198.95
611.69	168.52
611.84	135.75
612.00	283.20
612.15	191.92
612.31	287.89
612.46	161.50
612.62	248.10
612.77	252.78
612.92	222.35
613.08	280.86
613.23	196.60
613.39	182.56
613.54	88.94
613.69	161.50
613.85	205.97
614.00	297.25
614.15	238.73
614.31	222.35
614.46	262.14
614.62	269.16
614.77	273.84
614.92	269.16
615.08	264.48
615.23	241.08
615.38	252.78
615.54	231.71
615.69	212.99
615.84	205.97
616.00	215.33
616.15	168.52
616.30	238.73
616.46	210.65
616.61	131.07
616.76	257.46
616.92	194.26
617.07	255.12
617.22	140.43
617.37	191.92
617.53	280.86
617.68	201.29
617.83	311.29
617.99	287.89
618.14	290.23
618.29	182.56
618.45	156.82
618.60	234.05
618.75	163.84
618.90	156.82
619.06	166.18
619.21	320.65
619.36	259.80
619.51	212.99
619.67	266.82
619.82	182.56
619.97	156.82
620.12	243.42
620.28	264.48
620.43	290.23
620.58	229.37
620.73	180.22
620.89	168.52
621.04	271.50
621.19	306.61
621.34	210.65
621.49	161.50
621.65	187.24
621.80	184.90
621.95	161.50
622.10	138.09
622.25	187.24
622.41	173.20
622.56	196.60
622.71	159.16
622.86	191.92
623.01	184.90
623.16	180.22
623.32	154.48
623.47	142.77
