SpectraSuite Data File
++++++++++++++++++++++++++++++++++++
Date: Mon Oct 07 14:59:59 GMT-05:00 2013
User: price-jones
Dark Spectrum Present: No
Reference Spectrum Present: No
Number of Sampled Component Spectra: 1
Spectrometers: USB2+H05261
Integration Time (usec): 100000 (USB2+H05261)
Spectra Averaged: 1 (USB2+H05261)
Boxcar Smoothing: 0 (USB2+H05261)
Correct for Electrical Dark: No (USB2+H05261)
Strobe/Lamp Enabled: No (USB2+H05261)
Correct for Detector Non-linearity: No (USB2+H05261)
Correct for Stray Light: No (USB2+H05261)
Number of Pixels in Processed Spectrum: 2048
>>>>>Begin Processed Spectral Data<<<<<
365.73	0.00
365.92	0.00
366.12	0.00
366.32	0.00
366.52	0.00
366.72	0.00
366.91	0.00
367.11	0.00
367.31	0.00
367.51	0.00
367.70	0.00
367.90	0.00
368.10	0.00
368.30	0.00
368.49	0.00
368.69	0.00
368.89	0.00
369.09	0.00
369.28	0.00
369.48	0.00
369.68	0.00
369.87	0.00
370.07	0.00
370.27	0.00
370.47	0.00
370.66	0.00
370.86	0.00
371.06	0.00
371.25	0.00
371.45	0.00
371.65	0.00
371.84	0.00
372.04	0.00
372.24	0.00
372.44	0.00
372.63	0.00
372.83	0.00
373.03	0.00
373.22	0.00
373.42	0.00
373.62	0.00
373.81	0.00
374.01	0.00
374.21	0.00
374.40	0.00
374.60	0.00
374.79	0.00
374.99	0.00
375.19	0.00
375.38	0.00
375.58	0.00
375.78	0.00
375.97	0.00
376.17	0.00
376.37	0.00
376.56	0.00
376.76	0.00
376.95	0.00
377.15	0.00
377.35	0.00
377.54	0.00
377.74	0.00
377.93	0.00
378.13	0.00
378.33	0.00
378.52	0.00
378.72	0.00
378.91	0.00
379.11	0.00
379.31	0.00
379.50	0.00
379.70	0.00
379.89	0.00
380.09	0.00
380.28	0.00
380.48	0.00
380.68	0.00
380.87	0.00
381.07	0.00
381.26	0.00
381.46	0.00
381.65	0.00
381.85	0.00
382.04	0.00
382.24	0.00
382.43	0.00
382.63	0.00
382.83	0.00
383.02	0.00
383.22	0.00
383.41	0.00
383.61	0.00
383.80	0.00
384.00	0.00
384.19	0.00
384.39	0.00
384.58	0.00
384.78	0.00
384.97	0.00
385.17	0.00
385.36	0.00
385.56	0.00
385.75	0.00
385.95	0.00
386.14	0.00
386.34	0.00
386.53	0.00
386.72	0.00
386.92	0.00
387.11	0.00
387.31	0.00
387.50	0.00
387.70	0.00
387.89	0.00
388.09	0.00
388.28	0.00
388.48	0.00
388.67	0.00
388.86	0.00
389.06	0.00
389.25	0.00
389.45	0.00
389.64	0.00
389.84	0.00
390.03	0.00
390.22	0.00
390.42	0.00
390.61	0.00
390.81	0.00
391.00	0.00
391.19	0.00
391.39	0.00
391.58	0.00
391.78	0.00
391.97	0.00
392.16	0.00
392.36	0.00
392.55	0.00
392.75	0.00
392.94	0.00
393.13	0.00
393.33	0.00
393.52	0.00
393.71	0.00
393.91	0.00
394.10	0.00
394.29	0.00
394.49	0.00
394.68	0.00
394.88	0.00
395.07	0.00
395.26	0.00
395.46	0.00
395.65	0.00
395.84	0.00
396.04	0.00
396.23	0.00
396.42	0.00
396.62	0.00
396.81	0.00
397.00	0.00
397.19	0.00
397.39	0.00
397.58	0.00
397.77	0.00
397.97	0.00
398.16	0.00
398.35	0.00
398.55	0.00
398.74	0.00
398.93	0.00
399.12	0.00
399.32	0.00
399.51	0.00
399.70	0.00
399.90	0.00
400.09	0.00
400.28	0.00
400.47	0.00
400.67	0.00
400.86	0.00
401.05	0.00
401.24	0.00
401.44	0.00
401.63	0.00
401.82	0.00
402.01	0.00
402.21	0.00
402.40	0.00
402.59	0.00
402.78	0.00
402.97	0.00
403.17	0.00
403.36	0.00
403.55	0.00
403.74	0.00
403.93	0.00
404.13	0.00
404.32	0.00
404.51	0.00
404.70	0.00
404.89	0.00
405.09	0.00
405.28	0.00
405.47	0.00
405.66	0.00
405.85	0.00
406.05	0.00
406.24	0.00
406.43	0.00
406.62	0.00
406.81	0.00
407.00	0.00
407.20	0.00
407.39	0.00
407.58	0.00
407.77	0.00
407.96	0.00
408.15	0.00
408.34	0.00
408.54	0.00
408.73	0.00
408.92	0.00
409.11	0.00
409.30	0.00
409.49	0.00
409.68	0.00
409.87	0.00
410.07	0.00
410.26	0.00
410.45	0.00
410.64	0.00
410.83	0.00
411.02	0.00
411.21	0.00
411.40	0.00
411.59	0.00
411.78	0.00
411.98	0.00
412.17	0.00
412.36	0.00
412.55	0.00
412.74	0.00
412.93	0.00
413.12	0.00
413.31	0.00
413.50	0.00
413.69	0.00
413.88	0.00
414.07	0.00
414.26	0.00
414.45	0.00
414.64	0.00
414.83	0.00
415.02	0.00
415.22	0.00
415.41	0.00
415.60	0.00
415.79	0.00
415.98	0.00
416.17	0.00
416.36	0.00
416.55	0.00
416.74	0.00
416.93	0.00
417.12	0.00
417.31	0.00
417.50	0.00
417.69	0.00
417.88	0.00
418.07	0.00
418.26	0.00
418.45	0.00
418.64	0.00
418.83	0.00
419.02	0.00
419.21	0.00
419.39	0.00
419.58	0.00
419.77	0.00
419.96	0.00
420.15	0.00
420.34	0.00
420.53	0.00
420.72	0.00
420.91	0.00
421.10	0.00
421.29	0.00
421.48	0.00
421.67	0.00
421.86	0.00
422.05	0.00
422.24	0.00
422.43	0.00
422.61	0.00
422.80	0.00
422.99	0.00
423.18	0.00
423.37	0.00
423.56	0.00
423.75	0.00
423.94	0.00
424.13	0.00
424.32	0.00
424.50	0.00
424.69	0.00
424.88	0.00
425.07	0.00
425.26	0.00
425.45	0.00
425.64	0.00
425.83	0.00
426.01	0.00
426.20	0.00
426.39	0.00
426.58	0.00
426.77	0.00
426.96	0.00
427.15	0.00
427.33	0.00
427.52	0.00
427.71	0.00
427.90	0.00
428.09	0.00
428.28	0.00
428.46	0.00
428.65	0.00
428.84	0.00
429.03	0.00
429.22	0.00
429.40	0.00
429.59	0.00
429.78	0.00
429.97	0.00
430.16	0.00
430.34	0.00
430.53	0.00
430.72	0.00
430.91	0.00
431.10	0.00
431.28	0.00
431.47	0.00
431.66	0.00
431.85	0.00
432.03	0.00
432.22	0.00
432.41	0.00
432.60	0.00
432.79	0.00
432.97	0.00
433.16	0.00
433.35	0.00
433.54	0.00
433.72	0.00
433.91	0.00
434.10	0.00
434.28	0.00
434.47	0.00
434.66	0.00
434.85	0.00
435.03	0.00
435.22	0.00
435.41	0.00
435.59	0.00
435.78	0.00
435.97	0.00
436.16	0.00
436.34	0.00
436.53	0.00
436.72	0.00
436.90	0.00
437.09	0.00
437.28	0.00
437.46	0.00
437.65	0.00
437.84	0.00
438.02	0.00
438.21	0.00
438.40	0.00
438.58	0.00
438.77	0.00
438.96	0.00
439.14	0.00
439.33	0.00
439.52	0.00
439.70	0.00
439.89	0.00
440.08	0.00
440.26	0.00
440.45	11.70
440.63	0.00
440.82	0.00
441.01	0.00
441.19	0.00
441.38	0.00
441.57	0.00
441.75	0.00
441.94	0.00
442.12	0.00
442.31	0.00
442.50	0.00
442.68	0.00
442.87	0.00
443.05	0.00
443.24	0.00
443.43	0.00
443.61	11.70
443.80	0.00
443.98	0.00
444.17	0.00
444.35	0.00
444.54	0.00
444.73	18.72
444.91	0.00
445.10	0.00
445.28	0.00
445.47	0.00
445.65	0.00
445.84	0.00
446.02	0.00
446.21	0.00
446.39	0.00
446.58	0.00
446.77	0.00
446.95	0.00
447.14	0.00
447.32	0.00
447.51	0.00
447.69	0.00
447.88	0.00
448.06	0.00
448.25	0.00
448.43	0.00
448.62	0.00
448.80	0.00
448.99	0.00
449.17	0.00
449.36	0.00
449.54	0.00
449.73	0.00
449.91	0.00
450.10	0.00
450.28	28.09
450.46	0.00
450.65	0.00
450.83	0.00
451.02	0.00
451.20	0.00
451.39	0.00
451.57	0.00
451.76	0.00
451.94	0.00
452.13	0.00
452.31	0.00
452.49	0.00
452.68	0.00
452.86	0.00
453.05	0.00
453.23	0.00
453.42	0.00
453.60	0.00
453.78	0.00
453.97	0.00
454.15	0.00
454.34	0.00
454.52	0.00
454.70	0.00
454.89	0.00
455.07	0.00
455.26	0.00
455.44	0.00
455.62	0.00
455.81	14.04
455.99	0.00
456.17	0.00
456.36	0.00
456.54	0.00
456.73	0.00
456.91	0.00
457.09	0.00
457.28	58.51
457.46	0.00
457.64	42.13
457.83	67.88
458.01	0.00
458.19	0.00
458.38	0.00
458.56	0.00
458.74	0.00
458.93	0.00
459.11	44.47
459.29	4.68
459.48	53.83
459.66	86.60
459.84	0.00
460.03	14.04
460.21	0.00
460.39	0.00
460.57	44.47
460.76	21.06
460.94	0.00
461.12	0.00
461.31	49.15
461.49	9.36
461.67	0.00
461.85	0.00
462.04	32.77
462.22	620.24
462.40	30.43
462.59	0.00
462.77	0.00
462.95	0.00
463.13	0.00
463.32	0.00
463.50	0.00
463.68	14.04
463.86	2.34
464.05	0.00
464.23	35.11
464.41	0.00
464.59	0.00
464.78	0.00
464.96	0.00
465.14	0.00
465.32	0.00
465.50	0.00
465.69	30.43
465.87	0.00
466.05	0.00
466.23	0.00
466.41	42.13
466.60	0.00
466.78	0.00
466.96	67.88
467.14	44.47
467.32	0.00
467.51	11.70
467.69	0.00
467.87	32.77
468.05	0.00
468.23	46.81
468.41	0.00
468.60	0.00
468.78	14.04
468.96	0.00
469.14	56.17
469.32	0.00
469.50	0.00
469.69	0.00
469.87	0.00
470.05	0.00
470.23	0.00
470.41	21.06
470.59	0.00
470.77	16.38
470.95	0.00
471.14	21.06
471.32	0.00
471.50	37.45
471.68	0.00
471.86	0.00
472.04	4.68
472.22	0.00
472.40	0.00
472.58	0.00
472.77	0.00
472.95	0.00
473.13	81.92
473.31	14.04
473.49	0.00
473.67	0.00
473.85	9.36
474.03	32.77
474.21	58.51
474.39	86.60
474.57	98.30
474.75	2.34
474.93	0.00
475.12	9.36
475.30	0.00
475.48	0.00
475.66	16.38
475.84	0.00
476.02	25.75
476.20	0.00
476.38	0.00
476.56	93.62
476.74	0.00
476.92	51.49
477.10	0.00
477.28	0.00
477.46	0.00
477.64	95.96
477.82	77.24
478.00	16.38
478.18	63.19
478.36	32.77
478.54	0.00
478.72	63.19
478.90	110.01
479.08	112.35
479.26	56.17
479.44	0.00
479.62	0.00
479.80	25.75
479.98	4.68
480.16	14.04
480.34	42.13
480.52	0.00
480.70	0.00
480.88	37.45
481.06	35.11
481.24	0.00
481.41	98.30
481.59	65.54
481.77	93.62
481.95	98.30
482.13	133.41
482.31	46.81
482.49	46.81
482.67	21.06
482.85	119.37
483.03	23.41
483.21	91.28
483.39	67.88
483.57	25.75
483.74	105.32
483.92	49.15
484.10	49.15
484.28	93.62
484.46	95.96
484.64	56.17
484.82	88.94
485.00	23.41
485.18	32.77
485.35	0.00
485.53	18.72
485.71	63.19
485.89	0.00
486.07	60.85
486.25	91.28
486.43	63.19
486.61	70.22
486.78	147.45
486.96	35.11
487.14	37.45
487.32	88.94
487.50	58.51
487.68	201.29
487.85	25.75
488.03	168.52
488.21	154.48
488.39	98.30
488.57	110.01
488.75	135.75
488.92	390.87
489.10	159.16
489.28	180.22
489.46	95.96
489.64	107.66
489.81	152.13
489.99	110.01
490.17	84.26
490.35	220.01
490.53	173.20
490.70	105.32
490.88	149.79
491.06	79.58
491.24	166.18
491.41	156.82
491.59	105.32
491.77	65.54
491.95	56.17
492.13	152.13
492.30	126.39
492.48	105.32
492.66	114.69
492.84	142.77
493.01	173.20
493.19	102.98
493.37	145.11
493.54	112.35
493.72	142.77
493.90	170.86
494.08	175.54
494.25	135.75
494.43	161.50
494.61	168.52
494.79	142.77
494.96	152.13
495.14	173.20
495.32	74.90
495.49	70.22
495.67	205.97
495.85	152.13
496.02	88.94
496.20	222.35
496.38	227.03
496.55	175.54
496.73	63.19
496.91	121.71
497.09	217.67
497.26	138.09
497.44	189.58
497.62	191.92
497.79	168.52
497.97	217.67
498.14	182.56
498.32	196.60
498.50	227.03
498.67	128.73
498.85	142.77
499.03	234.05
499.20	222.35
499.38	250.44
499.56	259.80
499.73	262.14
499.91	182.56
500.08	189.58
500.26	215.33
500.44	187.24
500.61	222.35
500.79	138.09
500.97	161.50
501.14	217.67
501.32	100.64
501.49	215.33
501.67	119.37
501.84	215.33
502.02	170.86
502.20	351.08
502.37	248.10
502.55	224.69
502.72	168.52
502.90	245.76
503.07	259.80
503.25	220.01
503.43	248.10
503.60	215.33
503.78	208.31
503.95	220.01
504.13	133.41
504.30	182.56
504.48	215.33
504.65	276.18
504.83	290.23
505.01	194.26
505.18	236.39
505.36	198.95
505.53	255.12
505.71	250.44
505.88	306.61
506.06	191.92
506.23	196.60
506.41	196.60
506.58	215.33
506.76	208.31
506.93	182.56
507.11	205.97
507.28	203.63
507.46	269.16
507.63	248.10
507.81	135.75
507.98	243.42
508.16	252.78
508.33	248.10
508.50	212.99
508.68	205.97
508.85	166.18
509.03	297.25
509.20	238.73
509.38	327.68
509.55	255.12
509.73	257.46
509.90	212.99
510.08	264.48
510.25	248.10
510.42	292.57
510.60	262.14
510.77	269.16
510.95	306.61
511.12	278.52
511.30	294.91
511.47	306.61
511.64	308.95
511.82	241.08
511.99	238.73
512.17	159.16
512.34	266.82
512.51	210.65
512.69	220.01
512.86	292.57
513.04	262.14
513.21	222.35
513.38	212.99
513.56	166.18
513.73	322.99
513.90	236.39
514.08	250.44
514.25	259.80
514.43	327.68
514.60	135.75
514.77	287.89
514.95	227.03
515.12	212.99
515.29	236.39
515.47	245.76
515.64	241.08
515.81	262.14
515.99	346.40
516.16	262.14
516.33	259.80
516.51	212.99
516.68	170.86
516.85	180.22
517.03	182.56
517.20	276.18
517.37	243.42
517.54	330.02
517.72	283.20
517.89	105.32
518.06	208.31
518.24	184.90
518.41	367.46
518.58	297.25
518.75	264.48
518.93	278.52
519.10	238.73
519.27	252.78
519.45	222.35
519.62	252.78
519.79	201.29
519.96	271.50
520.14	189.58
520.31	252.78
520.48	220.01
520.65	212.99
520.83	250.44
521.00	292.57
521.17	325.33
521.34	266.82
521.52	262.14
521.69	344.06
521.86	325.33
522.03	301.93
522.20	365.12
522.38	215.33
522.55	315.97
522.72	229.37
522.89	287.89
523.07	318.31
523.24	259.80
523.41	271.50
523.58	311.29
523.75	330.02
523.92	243.42
524.10	262.14
524.27	299.59
524.44	327.68
524.61	290.23
524.78	311.29
524.96	278.52
525.13	369.80
525.30	339.38
525.47	252.78
525.64	334.70
525.81	252.78
525.98	308.95
526.16	229.37
526.33	184.90
526.50	243.42
526.67	255.12
526.84	208.31
527.01	222.35
527.18	304.27
527.36	334.70
527.53	252.78
527.70	255.12
527.87	252.78
528.04	409.59
528.21	322.99
528.38	292.57
528.55	367.46
528.72	334.70
528.89	367.46
529.07	315.97
529.24	386.19
529.41	360.44
529.58	313.63
529.75	280.86
529.92	351.08
530.09	308.95
530.26	320.65
530.43	407.25
530.60	318.31
530.77	442.36
530.94	339.38
531.11	306.61
531.28	283.20
531.46	332.36
531.63	269.16
531.80	311.29
531.97	311.29
532.14	283.20
532.31	306.61
532.48	315.97
532.65	311.29
532.82	271.50
532.99	353.42
533.16	315.97
533.33	395.55
533.50	315.97
533.67	332.36
533.84	402.57
534.01	322.99
534.18	351.08
534.35	285.55
534.52	355.76
534.69	407.25
534.86	217.67
535.03	294.91
535.20	301.93
535.37	332.36
535.54	362.78
535.71	367.46
535.88	404.91
536.05	369.80
536.22	346.40
536.38	308.95
536.55	280.86
536.72	315.97
536.89	311.29
537.06	341.72
537.23	400.23
537.40	287.89
537.57	313.63
537.74	299.59
537.91	341.72
538.08	379.17
538.25	421.30
538.42	315.97
538.59	344.06
538.75	322.99
538.92	351.08
539.09	280.86
539.26	252.78
539.43	341.72
539.60	313.63
539.77	308.95
539.94	287.89
540.11	341.72
540.28	315.97
540.44	367.46
540.61	299.59
540.78	306.61
540.95	262.14
541.12	423.64
541.29	280.86
541.46	369.80
541.62	404.91
541.79	241.08
541.96	229.37
542.13	234.05
542.30	292.57
542.47	334.70
542.63	332.36
542.80	315.97
542.97	388.53
543.14	362.78
543.31	280.86
543.48	355.76
543.64	423.64
543.81	367.46
543.98	367.46
544.15	418.96
544.32	283.20
544.48	292.57
544.65	344.06
544.82	325.33
544.99	372.15
545.16	381.51
545.32	348.74
545.49	299.59
545.66	383.85
545.83	334.70
546.00	322.99
546.16	362.78
546.33	299.59
546.50	311.29
546.67	393.21
546.83	400.23
547.00	358.10
547.17	346.40
547.34	259.80
547.50	325.33
547.67	381.51
547.84	290.23
548.00	341.72
548.17	365.12
548.34	372.15
548.51	421.30
548.67	402.57
548.84	351.08
549.01	327.68
549.18	330.02
549.34	278.52
549.51	330.02
549.68	393.21
549.84	351.08
550.01	386.19
550.18	580.45
550.34	421.30
550.51	327.68
550.68	369.80
550.84	308.95
551.01	294.91
551.18	376.83
551.34	318.31
551.51	395.55
551.68	330.02
551.84	376.83
552.01	379.17
552.18	320.65
552.34	252.78
552.51	290.23
552.68	266.82
552.84	355.76
553.01	381.51
553.18	346.40
553.34	367.46
553.51	381.51
553.67	339.38
553.84	444.70
554.01	425.98
554.17	297.25
554.34	386.19
554.51	390.87
554.67	388.53
554.84	411.93
555.00	362.78
555.17	416.62
555.33	437.68
555.50	407.25
555.67	344.06
555.83	301.93
556.00	330.02
556.16	561.73
556.33	376.83
556.50	322.99
556.66	362.78
556.83	292.57
556.99	308.95
557.16	327.68
557.32	241.08
557.49	318.31
557.65	294.91
557.82	379.17
557.98	334.70
558.15	304.27
558.32	252.78
558.48	304.27
558.65	369.80
558.81	297.25
558.98	358.10
559.14	358.10
559.31	320.65
559.47	301.93
559.64	294.91
559.80	351.08
559.97	325.33
560.13	301.93
560.30	374.49
560.46	360.44
560.63	334.70
560.79	386.19
560.96	374.49
561.12	231.71
561.29	308.95
561.45	292.57
561.61	348.74
561.78	486.83
561.94	262.14
562.11	229.37
562.27	379.17
562.44	341.72
562.60	365.12
562.77	348.74
562.93	400.23
563.10	327.68
563.26	327.68
563.42	388.53
563.59	369.80
563.75	341.72
563.92	376.83
564.08	322.99
564.24	313.63
564.41	390.87
564.57	313.63
564.74	327.68
564.90	355.76
565.07	327.68
565.23	294.91
565.39	390.87
565.56	292.57
565.72	294.91
565.88	376.83
566.05	365.12
566.21	341.72
566.38	304.27
566.54	376.83
566.70	334.70
566.87	276.18
567.03	311.29
567.19	390.87
567.36	369.80
567.52	404.91
567.68	325.33
567.85	290.23
568.01	306.61
568.17	297.25
568.34	322.99
568.50	400.23
568.66	283.20
568.83	409.59
568.99	393.21
569.15	320.65
569.32	257.46
569.48	285.55
569.64	271.50
569.81	367.46
569.97	301.93
570.13	301.93
570.30	269.16
570.46	215.33
570.62	325.33
570.78	339.38
570.95	297.25
571.11	365.12
571.27	365.12
571.43	325.33
571.60	311.29
571.76	325.33
571.92	423.64
572.09	259.80
572.25	337.04
572.41	292.57
572.57	360.44
572.74	379.17
572.90	367.46
573.06	304.27
573.22	334.70
573.38	360.44
573.55	379.17
573.71	353.42
573.87	353.42
574.03	273.84
574.20	362.78
574.36	255.12
574.52	283.20
574.68	250.44
574.84	348.74
575.01	320.65
575.17	358.10
575.33	299.59
575.49	365.12
575.65	311.29
575.82	292.57
575.98	416.62
576.14	255.12
576.30	315.97
576.46	397.89
576.62	369.80
576.79	304.27
576.95	437.68
577.11	327.68
577.27	311.29
577.43	341.72
577.59	383.85
577.75	285.55
577.92	315.97
578.08	283.20
578.24	276.18
578.40	341.72
578.56	367.46
578.72	425.98
578.88	409.59
579.04	369.80
579.21	320.65
579.37	320.65
579.53	308.95
579.69	322.99
579.85	257.46
580.01	351.08
580.17	315.97
580.33	353.42
580.49	241.08
580.65	299.59
580.82	301.93
580.98	341.72
581.14	320.65
581.30	393.21
581.46	297.25
581.62	334.70
581.78	397.89
581.94	285.55
582.10	259.80
582.26	297.25
582.42	280.86
582.58	379.17
582.74	320.65
582.90	320.65
583.06	355.76
583.22	315.97
583.38	369.80
583.54	245.76
583.70	458.74
583.86	400.23
584.02	344.06
584.18	365.12
584.34	304.27
584.50	365.12
584.66	374.49
584.82	330.02
584.98	353.42
585.14	344.06
585.30	395.55
585.46	306.61
585.62	318.31
585.78	259.80
585.94	365.12
586.10	327.68
586.26	266.82
586.42	351.08
586.58	423.64
586.74	379.17
586.90	390.87
587.06	383.85
587.22	327.68
587.38	271.50
587.54	374.49
587.70	294.91
587.86	393.21
588.02	299.59
588.18	311.29
588.34	280.86
588.49	194.26
588.65	241.08
588.81	229.37
588.97	161.50
589.13	224.69
589.29	198.95
589.45	248.10
589.61	283.20
589.77	379.17
589.93	250.44
590.08	290.23
590.24	203.63
590.40	360.44
590.56	290.23
590.72	276.18
590.88	283.20
591.04	292.57
591.20	367.46
591.35	320.65
591.51	337.04
591.67	327.68
591.83	304.27
591.99	292.57
592.15	273.84
592.31	294.91
592.46	283.20
592.62	241.08
592.78	313.63
592.94	287.89
593.10	327.68
593.26	241.08
593.41	330.02
593.57	304.27
593.73	308.95
593.89	252.78
594.05	238.73
594.20	278.52
594.36	332.36
594.52	236.39
594.68	262.14
594.84	355.76
594.99	362.78
595.15	322.99
595.31	308.95
595.47	313.63
595.62	344.06
595.78	315.97
595.94	278.52
596.10	367.46
596.25	311.29
596.41	330.02
596.57	292.57
596.73	243.42
596.88	287.89
597.04	304.27
597.20	292.57
597.36	259.80
597.51	301.93
597.67	294.91
597.83	224.69
597.99	322.99
598.14	308.95
598.30	369.80
598.46	255.12
598.61	299.59
598.77	215.33
598.93	276.18
599.09	266.82
599.24	327.68
599.40	341.72
599.56	273.84
599.71	390.87
599.87	283.20
600.03	191.92
600.18	189.58
600.34	229.37
600.50	210.65
600.65	266.82
600.81	299.59
600.97	175.54
601.12	255.12
601.28	325.33
601.44	269.16
601.59	208.31
601.75	227.03
601.91	264.48
602.06	257.46
602.22	337.04
602.37	283.20
602.53	306.61
602.69	250.44
602.84	250.44
603.00	259.80
603.16	280.86
603.31	259.80
603.47	313.63
603.62	297.25
603.78	259.80
603.94	229.37
604.09	255.12
604.25	327.68
604.40	276.18
604.56	159.16
604.71	290.23
604.87	212.99
605.03	299.59
605.18	227.03
605.34	290.23
605.49	236.39
605.65	191.92
605.80	299.59
605.96	315.97
606.12	297.25
606.27	299.59
606.43	325.33
606.58	287.89
606.74	327.68
606.89	325.33
607.05	250.44
607.20	301.93
607.36	315.97
607.51	196.60
607.67	180.22
607.82	283.20
607.98	301.93
608.13	248.10
608.29	257.46
608.44	306.61
608.60	212.99
608.75	220.01
608.91	283.20
609.06	320.65
609.22	248.10
609.37	227.03
609.53	210.65
609.68	203.63
609.84	229.37
609.99	198.95
610.15	212.99
610.30	250.44
610.46	334.70
610.61	332.36
610.76	227.03
610.92	287.89
611.07	266.82
611.23	285.55
611.38	243.42
611.54	212.99
611.69	241.08
611.84	238.73
612.00	278.52
612.15	215.33
612.31	238.73
612.46	290.23
612.62	299.59
612.77	255.12
612.92	285.55
613.08	330.02
613.23	283.20
613.39	210.65
613.54	273.84
613.69	276.18
613.85	266.82
614.00	234.05
614.15	224.69
614.31	215.33
614.46	252.78
614.62	262.14
614.77	297.25
614.92	215.33
615.08	273.84
615.23	245.76
615.38	241.08
615.54	278.52
615.69	168.52
615.84	175.54
616.00	180.22
616.15	205.97
616.30	145.11
616.46	175.54
616.61	196.60
616.76	175.54
616.92	234.05
617.07	238.73
617.22	215.33
617.37	255.12
617.53	131.07
617.68	245.76
617.83	203.63
617.99	276.18
618.14	280.86
618.29	205.97
618.45	245.76
618.60	252.78
618.75	166.18
618.90	152.13
619.06	196.60
619.21	252.78
619.36	252.78
619.51	208.31
619.67	243.42
619.82	220.01
619.97	229.37
620.12	208.31
620.28	128.73
620.43	163.84
620.58	229.37
620.73	266.82
620.89	138.09
621.04	269.16
621.19	285.55
621.34	229.37
621.49	173.20
621.65	189.58
621.80	194.26
621.95	152.13
622.10	248.10
622.25	250.44
622.41	241.08
622.56	147.45
622.71	140.43
622.86	255.12
623.01	227.03
623.16	252.78
623.32	217.67
