SpectraSuite Data File
++++++++++++++++++++++++++++++++++++
Date: Mon Oct 07 15:00:01 GMT-05:00 2013
User: price-jones
Dark Spectrum Present: No
Reference Spectrum Present: No
Number of Sampled Component Spectra: 1
Spectrometers: USB2+H05261
Integration Time (usec): 100000 (USB2+H05261)
Spectra Averaged: 1 (USB2+H05261)
Boxcar Smoothing: 0 (USB2+H05261)
Correct for Electrical Dark: No (USB2+H05261)
Strobe/Lamp Enabled: No (USB2+H05261)
Correct for Detector Non-linearity: No (USB2+H05261)
Correct for Stray Light: No (USB2+H05261)
Number of Pixels in Processed Spectrum: 2048
>>>>>Begin Processed Spectral Data<<<<<
365.73	0.00
365.92	0.00
366.12	0.00
366.32	0.00
366.52	0.00
366.72	0.00
366.91	0.00
367.11	0.00
367.31	0.00
367.51	0.00
367.70	0.00
367.90	0.00
368.10	0.00
368.30	0.00
368.49	0.00
368.69	0.00
368.89	0.00
369.09	0.00
369.28	0.00
369.48	0.00
369.68	0.00
369.87	0.00
370.07	0.00
370.27	0.00
370.47	0.00
370.66	0.00
370.86	0.00
371.06	0.00
371.25	0.00
371.45	0.00
371.65	0.00
371.84	0.00
372.04	0.00
372.24	0.00
372.44	0.00
372.63	0.00
372.83	0.00
373.03	0.00
373.22	0.00
373.42	0.00
373.62	0.00
373.81	0.00
374.01	0.00
374.21	0.00
374.40	0.00
374.60	0.00
374.79	0.00
374.99	0.00
375.19	0.00
375.38	0.00
375.58	0.00
375.78	0.00
375.97	0.00
376.17	0.00
376.37	0.00
376.56	0.00
376.76	0.00
376.95	0.00
377.15	0.00
377.35	0.00
377.54	0.00
377.74	0.00
377.93	0.00
378.13	0.00
378.33	0.00
378.52	0.00
378.72	0.00
378.91	0.00
379.11	0.00
379.31	0.00
379.50	0.00
379.70	0.00
379.89	0.00
380.09	0.00
380.28	0.00
380.48	0.00
380.68	0.00
380.87	0.00
381.07	0.00
381.26	0.00
381.46	0.00
381.65	0.00
381.85	0.00
382.04	0.00
382.24	0.00
382.43	0.00
382.63	0.00
382.83	0.00
383.02	0.00
383.22	0.00
383.41	0.00
383.61	0.00
383.80	0.00
384.00	0.00
384.19	0.00
384.39	0.00
384.58	0.00
384.78	0.00
384.97	0.00
385.17	0.00
385.36	0.00
385.56	0.00
385.75	0.00
385.95	0.00
386.14	0.00
386.34	0.00
386.53	0.00
386.72	0.00
386.92	0.00
387.11	0.00
387.31	0.00
387.50	0.00
387.70	0.00
387.89	0.00
388.09	0.00
388.28	0.00
388.48	0.00
388.67	0.00
388.86	0.00
389.06	0.00
389.25	0.00
389.45	0.00
389.64	0.00
389.84	0.00
390.03	0.00
390.22	0.00
390.42	0.00
390.61	0.00
390.81	0.00
391.00	0.00
391.19	0.00
391.39	0.00
391.58	0.00
391.78	0.00
391.97	0.00
392.16	0.00
392.36	0.00
392.55	0.00
392.75	0.00
392.94	0.00
393.13	0.00
393.33	0.00
393.52	0.00
393.71	0.00
393.91	0.00
394.10	0.00
394.29	0.00
394.49	0.00
394.68	0.00
394.88	0.00
395.07	0.00
395.26	0.00
395.46	0.00
395.65	0.00
395.84	0.00
396.04	0.00
396.23	0.00
396.42	0.00
396.62	0.00
396.81	0.00
397.00	0.00
397.19	0.00
397.39	0.00
397.58	0.00
397.77	0.00
397.97	0.00
398.16	0.00
398.35	0.00
398.55	0.00
398.74	0.00
398.93	0.00
399.12	0.00
399.32	0.00
399.51	0.00
399.70	0.00
399.90	0.00
400.09	0.00
400.28	0.00
400.47	0.00
400.67	0.00
400.86	0.00
401.05	0.00
401.24	0.00
401.44	0.00
401.63	0.00
401.82	0.00
402.01	0.00
402.21	0.00
402.40	0.00
402.59	0.00
402.78	0.00
402.97	0.00
403.17	0.00
403.36	0.00
403.55	0.00
403.74	0.00
403.93	0.00
404.13	0.00
404.32	0.00
404.51	0.00
404.70	0.00
404.89	0.00
405.09	0.00
405.28	0.00
405.47	0.00
405.66	0.00
405.85	0.00
406.05	0.00
406.24	0.00
406.43	0.00
406.62	0.00
406.81	0.00
407.00	0.00
407.20	0.00
407.39	0.00
407.58	0.00
407.77	0.00
407.96	0.00
408.15	0.00
408.34	0.00
408.54	0.00
408.73	0.00
408.92	0.00
409.11	0.00
409.30	0.00
409.49	0.00
409.68	0.00
409.87	0.00
410.07	0.00
410.26	0.00
410.45	0.00
410.64	0.00
410.83	0.00
411.02	0.00
411.21	0.00
411.40	0.00
411.59	0.00
411.78	0.00
411.98	0.00
412.17	0.00
412.36	0.00
412.55	0.00
412.74	0.00
412.93	0.00
413.12	0.00
413.31	0.00
413.50	0.00
413.69	0.00
413.88	0.00
414.07	0.00
414.26	0.00
414.45	0.00
414.64	0.00
414.83	0.00
415.02	0.00
415.22	0.00
415.41	0.00
415.60	0.00
415.79	0.00
415.98	0.00
416.17	0.00
416.36	0.00
416.55	0.00
416.74	0.00
416.93	0.00
417.12	0.00
417.31	0.00
417.50	0.00
417.69	0.00
417.88	0.00
418.07	0.00
418.26	0.00
418.45	0.00
418.64	0.00
418.83	0.00
419.02	0.00
419.21	0.00
419.39	0.00
419.58	0.00
419.77	0.00
419.96	0.00
420.15	0.00
420.34	0.00
420.53	0.00
420.72	0.00
420.91	0.00
421.10	0.00
421.29	0.00
421.48	0.00
421.67	0.00
421.86	0.00
422.05	0.00
422.24	0.00
422.43	0.00
422.61	0.00
422.80	0.00
422.99	0.00
423.18	0.00
423.37	0.00
423.56	0.00
423.75	0.00
423.94	0.00
424.13	0.00
424.32	0.00
424.50	0.00
424.69	0.00
424.88	0.00
425.07	0.00
425.26	0.00
425.45	0.00
425.64	0.00
425.83	0.00
426.01	0.00
426.20	0.00
426.39	0.00
426.58	0.00
426.77	0.00
426.96	0.00
427.15	0.00
427.33	0.00
427.52	0.00
427.71	0.00
427.90	0.00
428.09	0.00
428.28	0.00
428.46	0.00
428.65	0.00
428.84	0.00
429.03	0.00
429.22	0.00
429.40	0.00
429.59	0.00
429.78	0.00
429.97	0.00
430.16	0.00
430.34	0.00
430.53	0.00
430.72	0.00
430.91	0.00
431.10	0.00
431.28	0.00
431.47	0.00
431.66	0.00
431.85	0.00
432.03	0.00
432.22	0.00
432.41	0.00
432.60	0.00
432.79	0.00
432.97	0.00
433.16	0.00
433.35	0.00
433.54	0.00
433.72	0.00
433.91	0.00
434.10	0.00
434.28	0.00
434.47	0.00
434.66	0.00
434.85	0.00
435.03	0.00
435.22	0.00
435.41	0.00
435.59	0.00
435.78	0.00
435.97	0.00
436.16	0.00
436.34	0.00
436.53	0.00
436.72	0.00
436.90	0.00
437.09	0.00
437.28	0.00
437.46	0.00
437.65	0.00
437.84	0.00
438.02	0.00
438.21	0.00
438.40	0.00
438.58	0.00
438.77	0.00
438.96	0.00
439.14	0.00
439.33	0.00
439.52	0.00
439.70	0.00
439.89	0.00
440.08	0.00
440.26	0.00
440.45	0.00
440.63	0.00
440.82	0.00
441.01	0.00
441.19	0.00
441.38	0.00
441.57	0.00
441.75	0.00
441.94	0.00
442.12	0.00
442.31	0.00
442.50	0.00
442.68	0.00
442.87	0.00
443.05	0.00
443.24	0.00
443.43	0.00
443.61	0.00
443.80	0.00
443.98	0.00
444.17	0.00
444.35	0.00
444.54	21.06
444.73	0.00
444.91	0.00
445.10	0.00
445.28	0.00
445.47	0.00
445.65	0.00
445.84	0.00
446.02	0.00
446.21	0.00
446.39	0.00
446.58	0.00
446.77	0.00
446.95	0.00
447.14	0.00
447.32	0.00
447.51	0.00
447.69	0.00
447.88	0.00
448.06	0.00
448.25	0.00
448.43	0.00
448.62	0.00
448.80	0.00
448.99	0.00
449.17	0.00
449.36	0.00
449.54	0.00
449.73	0.00
449.91	0.00
450.10	0.00
450.28	7.02
450.46	25.75
450.65	0.00
450.83	14.04
451.02	0.00
451.20	14.04
451.39	0.00
451.57	0.00
451.76	0.00
451.94	0.00
452.13	0.00
452.31	0.00
452.49	11.70
452.68	0.00
452.86	0.00
453.05	0.00
453.23	18.72
453.42	0.00
453.60	0.00
453.78	0.00
453.97	0.00
454.15	0.00
454.34	0.00
454.52	0.00
454.70	0.00
454.89	0.00
455.07	0.00
455.26	0.00
455.44	32.77
455.62	0.00
455.81	53.83
455.99	4.68
456.17	0.00
456.36	0.00
456.54	0.00
456.73	11.70
456.91	0.00
457.09	0.00
457.28	0.00
457.46	0.00
457.64	0.00
457.83	0.00
458.01	0.00
458.19	0.00
458.38	0.00
458.56	0.00
458.74	0.00
458.93	0.00
459.11	0.00
459.29	0.00
459.48	0.00
459.66	0.00
459.84	0.00
460.03	60.85
460.21	28.09
460.39	0.00
460.57	0.00
460.76	0.00
460.94	42.13
461.12	0.00
461.31	2.34
461.49	0.00
461.67	35.11
461.85	16.38
462.04	0.00
462.22	662.37
462.40	0.00
462.59	65.54
462.77	0.00
462.95	30.43
463.13	0.00
463.32	0.00
463.50	0.00
463.68	0.00
463.86	0.00
464.05	0.00
464.23	77.24
464.41	88.94
464.59	0.00
464.78	0.00
464.96	23.41
465.14	0.00
465.32	0.00
465.50	0.00
465.69	4.68
465.87	0.00
466.05	0.00
466.23	0.00
466.41	0.00
466.60	4.68
466.78	0.00
466.96	0.00
467.14	0.00
467.32	0.00
467.51	2.34
467.69	0.00
467.87	0.00
468.05	0.00
468.23	16.38
468.41	0.00
468.60	0.00
468.78	0.00
468.96	14.04
469.14	25.75
469.32	0.00
469.50	0.00
469.69	21.06
469.87	0.00
470.05	0.00
470.23	16.38
470.41	37.45
470.59	18.72
470.77	0.00
470.95	0.00
471.14	51.49
471.32	16.38
471.50	0.00
471.68	0.00
471.86	0.00
472.04	9.36
472.22	46.81
472.40	0.00
472.58	0.00
472.77	0.00
472.95	0.00
473.13	49.15
473.31	63.19
473.49	0.00
473.67	0.00
473.85	0.00
474.03	100.64
474.21	0.00
474.39	28.09
474.57	53.83
474.75	0.00
474.93	0.00
475.12	7.02
475.30	0.00
475.48	23.41
475.66	16.38
475.84	16.38
476.02	0.00
476.20	0.00
476.38	0.00
476.56	93.62
476.74	77.24
476.92	0.00
477.10	79.58
477.28	18.72
477.46	0.00
477.64	60.85
477.82	86.60
478.00	74.90
478.18	32.77
478.36	0.00
478.54	0.00
478.72	14.04
478.90	14.04
479.08	0.00
479.26	16.38
479.44	74.90
479.62	0.00
479.80	21.06
479.98	58.51
480.16	14.04
480.34	58.51
480.52	42.13
480.70	138.09
480.88	67.88
481.06	32.77
481.24	70.22
481.41	56.17
481.59	46.81
481.77	107.66
481.95	60.85
482.13	77.24
482.31	0.00
482.49	0.00
482.67	25.75
482.85	32.77
483.03	0.00
483.21	0.00
483.39	56.17
483.57	77.24
483.74	119.37
483.92	51.49
484.10	124.05
484.28	105.32
484.46	154.48
484.64	2.34
484.82	95.96
485.00	102.98
485.18	0.00
485.35	35.11
485.53	25.75
485.71	18.72
485.89	14.04
486.07	0.00
486.25	56.17
486.43	0.00
486.61	95.96
486.78	145.11
486.96	72.56
487.14	56.17
487.32	37.45
487.50	126.39
487.68	98.30
487.85	21.06
488.03	124.05
488.21	131.07
488.39	56.17
488.57	91.28
488.75	86.60
488.92	418.96
489.10	72.56
489.28	98.30
489.46	63.19
489.64	95.96
489.81	77.24
489.99	142.77
490.17	67.88
490.35	152.13
490.53	72.56
490.70	32.77
490.88	189.58
491.06	156.82
491.24	135.75
491.41	142.77
491.59	86.60
491.77	100.64
491.95	98.30
492.13	126.39
492.30	142.77
492.48	114.69
492.66	128.73
492.84	191.92
493.01	112.35
493.19	182.56
493.37	252.78
493.54	95.96
493.72	79.58
493.90	231.71
494.08	95.96
494.25	194.26
494.43	166.18
494.61	152.13
494.79	110.01
494.96	149.79
495.14	159.16
495.32	88.94
495.49	142.77
495.67	180.22
495.85	224.69
496.02	124.05
496.20	201.29
496.38	194.26
496.55	152.13
496.73	175.54
496.91	114.69
497.09	166.18
497.26	234.05
497.44	180.22
497.62	100.64
497.79	147.45
497.97	180.22
498.14	191.92
498.32	107.66
498.50	220.01
498.67	205.97
498.85	252.78
499.03	177.88
499.20	227.03
499.38	184.90
499.56	161.50
499.73	245.76
499.91	187.24
500.08	238.73
500.26	201.29
500.44	126.39
500.61	212.99
500.79	276.18
500.97	159.16
501.14	198.95
501.32	145.11
501.49	257.46
501.67	107.66
501.84	149.79
502.02	212.99
502.20	191.92
502.37	257.46
502.55	180.22
502.72	264.48
502.90	257.46
503.07	269.16
503.25	154.48
503.43	175.54
503.60	220.01
503.78	266.82
503.95	220.01
504.13	217.67
504.30	257.46
504.48	212.99
504.65	276.18
504.83	119.37
505.01	234.05
505.18	262.14
505.36	320.65
505.53	212.99
505.71	292.57
505.88	201.29
506.06	245.76
506.23	147.45
506.41	257.46
506.58	259.80
506.76	217.67
506.93	182.56
507.11	217.67
507.28	227.03
507.46	182.56
507.63	163.84
507.81	173.20
507.98	308.95
508.16	224.69
508.33	243.42
508.50	264.48
508.68	187.24
508.85	205.97
509.03	215.33
509.20	250.44
509.38	278.52
509.55	236.39
509.73	241.08
509.90	341.72
510.08	227.03
510.25	259.80
510.42	175.54
510.60	231.71
510.77	238.73
510.95	222.35
511.12	248.10
511.30	306.61
511.47	222.35
511.64	306.61
511.82	229.37
511.99	252.78
512.17	215.33
512.34	227.03
512.51	227.03
512.69	210.65
512.86	243.42
513.04	182.56
513.21	294.91
513.38	189.58
513.56	102.98
513.73	170.86
513.90	290.23
514.08	238.73
514.25	276.18
514.43	252.78
514.60	191.92
514.77	215.33
514.95	304.27
515.12	299.59
515.29	292.57
515.47	212.99
515.64	297.25
515.81	278.52
515.99	201.29
516.16	227.03
516.33	182.56
516.51	124.05
516.68	238.73
516.85	72.56
517.03	163.84
517.20	304.27
517.37	402.57
517.54	283.20
517.72	210.65
517.89	166.18
518.06	138.09
518.24	290.23
518.41	297.25
518.58	266.82
518.75	229.37
518.93	290.23
519.10	241.08
519.27	135.75
519.45	229.37
519.62	250.44
519.79	325.33
519.96	243.42
520.14	215.33
520.31	306.61
520.48	227.03
520.65	304.27
520.83	311.29
521.00	259.80
521.17	315.97
521.34	283.20
521.52	236.39
521.69	304.27
521.86	365.12
522.03	231.71
522.20	327.68
522.38	234.05
522.55	266.82
522.72	259.80
522.89	346.40
523.07	360.44
523.24	294.91
523.41	248.10
523.58	276.18
523.75	367.46
523.92	243.42
524.10	330.02
524.27	327.68
524.44	271.50
524.61	332.36
524.78	290.23
524.96	220.01
525.13	334.70
525.30	301.93
525.47	379.17
525.64	205.97
525.81	297.25
525.98	311.29
526.16	217.67
526.33	173.20
526.50	198.95
526.67	152.13
526.84	203.63
527.01	229.37
527.18	290.23
527.36	168.52
527.53	297.25
527.70	346.40
527.87	255.12
528.04	299.59
528.21	306.61
528.38	348.74
528.55	292.57
528.72	341.72
528.89	379.17
529.07	320.65
529.24	238.73
529.41	346.40
529.58	231.71
529.75	262.14
529.92	227.03
530.09	348.74
530.26	409.59
530.43	388.53
530.60	257.46
530.77	358.10
530.94	304.27
531.11	313.63
531.28	304.27
531.46	290.23
531.63	374.49
531.80	339.38
531.97	304.27
532.14	229.37
532.31	170.86
532.48	273.84
532.65	262.14
532.82	276.18
532.99	346.40
533.16	334.70
533.33	325.33
533.50	255.12
533.67	311.29
533.84	245.76
534.01	341.72
534.18	269.16
534.35	346.40
534.52	369.80
534.69	322.99
534.86	346.40
535.03	280.86
535.20	259.80
535.37	313.63
535.54	360.44
535.71	255.12
535.88	351.08
536.05	334.70
536.22	238.73
536.38	248.10
536.55	330.02
536.72	365.12
536.89	285.55
537.06	283.20
537.23	243.42
537.40	248.10
537.57	313.63
537.74	283.20
537.91	388.53
538.08	278.52
538.25	383.85
538.42	280.86
538.59	414.27
538.75	266.82
538.92	255.12
539.09	339.38
539.26	278.52
539.43	299.59
539.60	285.55
539.77	212.99
539.94	250.44
540.11	355.76
540.28	339.38
540.44	287.89
540.61	257.46
540.78	301.93
540.95	287.89
541.12	334.70
541.29	428.32
541.46	386.19
541.62	271.50
541.79	271.50
541.96	264.48
542.13	262.14
542.30	285.55
542.47	360.44
542.63	325.33
542.80	283.20
542.97	400.23
543.14	285.55
543.31	280.86
543.48	339.38
543.64	393.21
543.81	341.72
543.98	283.20
544.15	327.68
544.32	306.61
544.48	290.23
544.65	287.89
544.82	264.48
544.99	320.65
545.16	217.67
545.32	290.23
545.49	308.95
545.66	409.59
545.83	372.15
546.00	449.38
546.16	315.97
546.33	383.85
546.50	304.27
546.67	332.36
546.83	367.46
547.00	299.59
547.17	301.93
547.34	297.25
547.50	290.23
547.67	379.17
547.84	313.63
548.00	315.97
548.17	332.36
548.34	255.12
548.51	374.49
548.67	304.27
548.84	365.12
549.01	280.86
549.18	325.33
549.34	358.10
549.51	290.23
549.68	367.46
549.84	292.57
550.01	299.59
550.18	444.70
550.34	402.57
550.51	311.29
550.68	358.10
550.84	311.29
551.01	344.06
551.18	395.55
551.34	292.57
551.51	292.57
551.68	379.17
551.84	491.51
552.01	271.50
552.18	311.29
552.34	311.29
552.51	280.86
552.68	360.44
552.84	409.59
553.01	299.59
553.18	344.06
553.34	374.49
553.51	339.38
553.67	318.31
553.84	442.36
554.01	365.12
554.17	423.64
554.34	374.49
554.51	374.49
554.67	425.98
554.84	376.83
555.00	327.68
555.17	322.99
555.33	348.74
555.50	299.59
555.67	376.83
555.83	374.49
556.00	285.55
556.16	521.94
556.33	393.21
556.50	348.74
556.66	276.18
556.83	280.86
556.99	320.65
557.16	386.19
557.32	346.40
557.49	285.55
557.65	278.52
557.82	238.73
557.98	313.63
558.15	306.61
558.32	304.27
558.48	292.57
558.65	259.80
558.81	386.19
558.98	297.25
559.14	306.61
559.31	313.63
559.47	283.20
559.64	290.23
559.80	322.99
559.97	383.85
560.13	259.80
560.30	318.31
560.46	407.25
560.63	381.51
560.79	334.70
560.96	255.12
561.12	283.20
561.29	294.91
561.45	264.48
561.61	365.12
561.78	411.93
561.94	287.89
562.11	276.18
562.27	325.33
562.44	339.38
562.60	376.83
562.77	292.57
562.93	306.61
563.10	341.72
563.26	276.18
563.42	383.85
563.59	351.08
563.75	313.63
563.92	360.44
564.08	294.91
564.24	346.40
564.41	468.11
564.57	337.04
564.74	346.40
564.90	353.42
565.07	313.63
565.23	327.68
565.39	238.73
565.56	311.29
565.72	402.57
565.88	351.08
566.05	259.80
566.21	269.16
566.38	269.16
566.54	320.65
566.70	301.93
566.87	301.93
567.03	231.71
567.19	248.10
567.36	337.04
567.52	330.02
567.68	414.27
567.85	306.61
568.01	184.90
568.17	301.93
568.34	194.26
568.50	330.02
568.66	325.33
568.83	433.00
568.99	325.33
569.15	318.31
569.32	332.36
569.48	362.78
569.64	173.20
569.81	290.23
569.97	269.16
570.13	334.70
570.30	332.36
570.46	205.97
570.62	252.78
570.78	250.44
570.95	257.46
571.11	327.68
571.27	325.33
571.43	290.23
571.60	334.70
571.76	280.86
571.92	315.97
572.09	252.78
572.25	306.61
572.41	341.72
572.57	369.80
572.74	388.53
572.90	386.19
573.06	330.02
573.22	313.63
573.38	304.27
573.55	315.97
573.71	355.76
573.87	374.49
574.03	308.95
574.20	276.18
574.36	311.29
574.52	257.46
574.68	285.55
574.84	355.76
575.01	262.14
575.17	299.59
575.33	311.29
575.49	250.44
575.65	294.91
575.82	287.89
575.98	259.80
576.14	276.18
576.30	287.89
576.46	341.72
576.62	346.40
576.79	344.06
576.95	250.44
577.11	313.63
577.27	325.33
577.43	304.27
577.59	416.62
577.75	257.46
577.92	276.18
578.08	271.50
578.24	255.12
578.40	315.97
578.56	414.27
578.72	330.02
578.88	299.59
579.04	283.20
579.21	372.15
579.37	273.84
579.53	402.57
579.69	376.83
579.85	308.95
580.01	269.16
580.17	332.36
580.33	243.42
580.49	299.59
580.65	372.15
580.82	294.91
580.98	269.16
581.14	341.72
581.30	301.93
581.46	369.80
581.62	304.27
581.78	318.31
581.94	285.55
582.10	313.63
582.26	259.80
582.42	330.02
582.58	245.76
582.74	362.78
582.90	344.06
583.06	346.40
583.22	315.97
583.38	308.95
583.54	299.59
583.70	264.48
583.86	308.95
584.02	416.62
584.18	348.74
584.34	330.02
584.50	332.36
584.66	327.68
584.82	322.99
584.98	248.10
585.14	220.01
585.30	327.68
585.46	262.14
585.62	278.52
585.78	330.02
585.94	264.48
586.10	320.65
586.26	320.65
586.42	353.42
586.58	330.02
586.74	304.27
586.90	227.03
587.06	210.65
587.22	278.52
587.38	180.22
587.54	243.42
587.70	294.91
587.86	332.36
588.02	325.33
588.18	320.65
588.34	245.76
588.49	189.58
588.65	220.01
588.81	168.52
588.97	133.41
589.13	217.67
589.29	259.80
589.45	257.46
589.61	283.20
589.77	325.33
589.93	198.95
590.08	250.44
590.24	238.73
590.40	278.52
590.56	278.52
590.72	278.52
590.88	252.78
591.04	351.08
591.20	210.65
591.35	344.06
591.51	304.27
591.67	215.33
591.83	273.84
591.99	273.84
592.15	346.40
592.31	325.33
592.46	227.03
592.62	344.06
592.78	320.65
592.94	241.08
593.10	308.95
593.26	194.26
593.41	236.39
593.57	264.48
593.73	210.65
593.89	245.76
594.05	283.20
594.20	262.14
594.36	276.18
594.52	208.31
594.68	208.31
594.84	330.02
594.99	344.06
595.15	322.99
595.31	236.39
595.47	383.85
595.62	238.73
595.78	294.91
595.94	269.16
596.10	292.57
596.25	231.71
596.41	269.16
596.57	278.52
596.73	222.35
596.88	191.92
597.04	229.37
597.20	262.14
597.36	304.27
597.51	287.89
597.67	250.44
597.83	245.76
597.99	255.12
598.14	313.63
598.30	248.10
598.46	266.82
598.61	311.29
598.77	322.99
598.93	271.50
599.09	236.39
599.24	372.15
599.40	313.63
599.56	224.69
599.71	355.76
599.87	301.93
600.03	252.78
600.18	241.08
600.34	245.76
600.50	257.46
600.65	245.76
600.81	292.57
600.97	231.71
601.12	262.14
601.28	285.55
601.44	325.33
601.59	273.84
601.75	208.31
601.91	236.39
602.06	194.26
602.22	332.36
602.37	276.18
602.53	217.67
602.69	252.78
602.84	332.36
603.00	224.69
603.16	301.93
603.31	222.35
603.47	290.23
603.62	198.95
603.78	238.73
603.94	257.46
604.09	177.88
604.25	360.44
604.40	203.63
604.56	287.89
604.71	252.78
604.87	285.55
605.03	222.35
605.18	311.29
605.34	287.89
605.49	320.65
605.65	191.92
605.80	269.16
605.96	283.20
606.12	301.93
606.27	376.83
606.43	264.48
606.58	276.18
606.74	243.42
606.89	299.59
607.05	304.27
607.20	220.01
607.36	308.95
607.51	201.29
607.67	269.16
607.82	334.70
607.98	238.73
608.13	217.67
608.29	220.01
608.44	170.86
608.60	266.82
608.75	224.69
608.91	201.29
609.06	322.99
609.22	386.19
609.37	301.93
609.53	311.29
609.68	163.84
609.84	140.43
609.99	135.75
610.15	259.80
610.30	234.05
610.46	269.16
610.61	297.25
610.76	224.69
610.92	285.55
611.07	161.50
611.23	257.46
611.38	243.42
611.54	203.63
611.69	269.16
611.84	220.01
612.00	234.05
612.15	271.50
612.31	175.54
612.46	147.45
612.62	220.01
612.77	283.20
612.92	243.42
613.08	241.08
613.23	252.78
613.39	212.99
613.54	182.56
613.69	184.90
613.85	142.77
614.00	238.73
614.15	257.46
614.31	234.05
614.46	280.86
614.62	203.63
614.77	245.76
614.92	203.63
615.08	191.92
615.23	168.52
615.38	196.60
615.54	238.73
615.69	241.08
615.84	102.98
616.00	124.05
616.15	152.13
616.30	262.14
616.46	259.80
616.61	168.52
616.76	229.37
616.92	222.35
617.07	191.92
617.22	135.75
617.37	229.37
617.53	194.26
617.68	149.79
617.83	191.92
617.99	280.86
618.14	243.42
618.29	229.37
618.45	182.56
618.60	222.35
618.75	182.56
618.90	147.45
619.06	252.78
619.21	297.25
619.36	255.12
619.51	269.16
619.67	227.03
619.82	234.05
619.97	245.76
620.12	198.95
620.28	241.08
620.43	152.13
620.58	217.67
620.73	276.18
620.89	287.89
621.04	163.84
621.19	306.61
621.34	163.84
621.49	145.11
621.65	180.22
621.80	161.50
621.95	212.99
622.10	234.05
622.25	133.41
622.41	168.52
622.56	245.76
622.71	175.54
622.86	175.54
623.01	131.07
623.16	184.90
623.32	227.03
623.47	264.48
