SpectraSuite Data File
++++++++++++++++++++++++++++++++++++
Date: Mon Oct 07 14:59:59 GMT-05:00 2013
User: price-jones
Dark Spectrum Present: No
Reference Spectrum Present: No
Number of Sampled Component Spectra: 1
Spectrometers: USB2+H05261
Integration Time (usec): 100000 (USB2+H05261)
Spectra Averaged: 1 (USB2+H05261)
Boxcar Smoothing: 0 (USB2+H05261)
Correct for Electrical Dark: No (USB2+H05261)
Strobe/Lamp Enabled: No (USB2+H05261)
Correct for Detector Non-linearity: No (USB2+H05261)
Correct for Stray Light: No (USB2+H05261)
Number of Pixels in Processed Spectrum: 2048
>>>>>Begin Processed Spectral Data<<<<<
365.73	0.00
365.92	0.00
366.12	0.00
366.32	0.00
366.52	0.00
366.72	0.00
366.91	0.00
367.11	0.00
367.31	0.00
367.51	0.00
367.70	0.00
367.90	0.00
368.10	0.00
368.30	0.00
368.49	0.00
368.69	0.00
368.89	0.00
369.09	0.00
369.28	0.00
369.48	0.00
369.68	0.00
369.87	0.00
370.07	0.00
370.27	0.00
370.47	0.00
370.66	0.00
370.86	0.00
371.06	0.00
371.25	0.00
371.45	0.00
371.65	0.00
371.84	0.00
372.04	0.00
372.24	0.00
372.44	0.00
372.63	0.00
372.83	0.00
373.03	0.00
373.22	0.00
373.42	0.00
373.62	0.00
373.81	0.00
374.01	0.00
374.21	0.00
374.40	0.00
374.60	0.00
374.79	0.00
374.99	0.00
375.19	0.00
375.38	0.00
375.58	0.00
375.78	0.00
375.97	0.00
376.17	0.00
376.37	0.00
376.56	0.00
376.76	0.00
376.95	0.00
377.15	0.00
377.35	0.00
377.54	0.00
377.74	0.00
377.93	0.00
378.13	0.00
378.33	0.00
378.52	0.00
378.72	0.00
378.91	0.00
379.11	0.00
379.31	0.00
379.50	0.00
379.70	0.00
379.89	0.00
380.09	0.00
380.28	0.00
380.48	0.00
380.68	0.00
380.87	0.00
381.07	0.00
381.26	0.00
381.46	0.00
381.65	0.00
381.85	0.00
382.04	0.00
382.24	0.00
382.43	0.00
382.63	0.00
382.83	0.00
383.02	0.00
383.22	0.00
383.41	0.00
383.61	0.00
383.80	0.00
384.00	0.00
384.19	0.00
384.39	0.00
384.58	0.00
384.78	0.00
384.97	0.00
385.17	0.00
385.36	0.00
385.56	0.00
385.75	0.00
385.95	0.00
386.14	0.00
386.34	0.00
386.53	0.00
386.72	0.00
386.92	0.00
387.11	0.00
387.31	0.00
387.50	0.00
387.70	0.00
387.89	0.00
388.09	0.00
388.28	0.00
388.48	0.00
388.67	0.00
388.86	0.00
389.06	0.00
389.25	0.00
389.45	0.00
389.64	0.00
389.84	0.00
390.03	0.00
390.22	0.00
390.42	0.00
390.61	0.00
390.81	0.00
391.00	0.00
391.19	0.00
391.39	0.00
391.58	0.00
391.78	0.00
391.97	0.00
392.16	0.00
392.36	0.00
392.55	0.00
392.75	0.00
392.94	0.00
393.13	0.00
393.33	0.00
393.52	0.00
393.71	0.00
393.91	0.00
394.10	0.00
394.29	0.00
394.49	0.00
394.68	0.00
394.88	0.00
395.07	0.00
395.26	0.00
395.46	0.00
395.65	0.00
395.84	0.00
396.04	0.00
396.23	0.00
396.42	0.00
396.62	0.00
396.81	0.00
397.00	0.00
397.19	0.00
397.39	0.00
397.58	0.00
397.77	0.00
397.97	0.00
398.16	0.00
398.35	0.00
398.55	0.00
398.74	0.00
398.93	0.00
399.12	0.00
399.32	0.00
399.51	0.00
399.70	0.00
399.90	0.00
400.09	0.00
400.28	0.00
400.47	0.00
400.67	0.00
400.86	0.00
401.05	0.00
401.24	0.00
401.44	0.00
401.63	0.00
401.82	0.00
402.01	0.00
402.21	0.00
402.40	0.00
402.59	0.00
402.78	0.00
402.97	0.00
403.17	0.00
403.36	0.00
403.55	0.00
403.74	0.00
403.93	0.00
404.13	0.00
404.32	0.00
404.51	0.00
404.70	0.00
404.89	0.00
405.09	0.00
405.28	0.00
405.47	0.00
405.66	0.00
405.85	0.00
406.05	0.00
406.24	0.00
406.43	0.00
406.62	0.00
406.81	0.00
407.00	0.00
407.20	0.00
407.39	0.00
407.58	0.00
407.77	0.00
407.96	0.00
408.15	0.00
408.34	0.00
408.54	0.00
408.73	0.00
408.92	0.00
409.11	0.00
409.30	0.00
409.49	0.00
409.68	0.00
409.87	0.00
410.07	0.00
410.26	0.00
410.45	0.00
410.64	0.00
410.83	0.00
411.02	0.00
411.21	0.00
411.40	0.00
411.59	0.00
411.78	0.00
411.98	0.00
412.17	0.00
412.36	0.00
412.55	0.00
412.74	0.00
412.93	0.00
413.12	0.00
413.31	0.00
413.50	0.00
413.69	0.00
413.88	0.00
414.07	0.00
414.26	0.00
414.45	0.00
414.64	0.00
414.83	0.00
415.02	0.00
415.22	0.00
415.41	0.00
415.60	0.00
415.79	0.00
415.98	0.00
416.17	0.00
416.36	0.00
416.55	0.00
416.74	0.00
416.93	0.00
417.12	0.00
417.31	0.00
417.50	0.00
417.69	0.00
417.88	0.00
418.07	0.00
418.26	0.00
418.45	0.00
418.64	0.00
418.83	0.00
419.02	0.00
419.21	0.00
419.39	0.00
419.58	0.00
419.77	0.00
419.96	0.00
420.15	0.00
420.34	0.00
420.53	0.00
420.72	0.00
420.91	0.00
421.10	0.00
421.29	0.00
421.48	0.00
421.67	0.00
421.86	0.00
422.05	0.00
422.24	0.00
422.43	0.00
422.61	0.00
422.80	0.00
422.99	0.00
423.18	0.00
423.37	0.00
423.56	0.00
423.75	0.00
423.94	0.00
424.13	0.00
424.32	0.00
424.50	0.00
424.69	0.00
424.88	0.00
425.07	0.00
425.26	0.00
425.45	0.00
425.64	0.00
425.83	0.00
426.01	0.00
426.20	0.00
426.39	0.00
426.58	0.00
426.77	0.00
426.96	0.00
427.15	0.00
427.33	0.00
427.52	0.00
427.71	0.00
427.90	0.00
428.09	0.00
428.28	0.00
428.46	0.00
428.65	0.00
428.84	0.00
429.03	0.00
429.22	0.00
429.40	0.00
429.59	0.00
429.78	0.00
429.97	0.00
430.16	0.00
430.34	0.00
430.53	0.00
430.72	0.00
430.91	0.00
431.10	0.00
431.28	0.00
431.47	0.00
431.66	0.00
431.85	0.00
432.03	0.00
432.22	0.00
432.41	0.00
432.60	0.00
432.79	0.00
432.97	0.00
433.16	0.00
433.35	0.00
433.54	0.00
433.72	0.00
433.91	0.00
434.10	0.00
434.28	0.00
434.47	0.00
434.66	0.00
434.85	0.00
435.03	0.00
435.22	0.00
435.41	0.00
435.59	0.00
435.78	0.00
435.97	0.00
436.16	0.00
436.34	0.00
436.53	0.00
436.72	0.00
436.90	0.00
437.09	0.00
437.28	0.00
437.46	0.00
437.65	0.00
437.84	0.00
438.02	0.00
438.21	0.00
438.40	0.00
438.58	0.00
438.77	0.00
438.96	0.00
439.14	0.00
439.33	0.00
439.52	0.00
439.70	0.00
439.89	0.00
440.08	0.00
440.26	0.00
440.45	0.00
440.63	0.00
440.82	0.00
441.01	0.00
441.19	0.00
441.38	0.00
441.57	0.00
441.75	0.00
441.94	0.00
442.12	0.00
442.31	0.00
442.50	0.00
442.68	0.00
442.87	0.00
443.05	0.00
443.24	0.00
443.43	0.00
443.61	0.00
443.80	0.00
443.98	0.00
444.17	0.00
444.35	0.00
444.54	0.00
444.73	0.00
444.91	0.00
445.10	0.00
445.28	0.00
445.47	0.00
445.65	0.00
445.84	0.00
446.02	0.00
446.21	0.00
446.39	0.00
446.58	0.00
446.77	0.00
446.95	0.00
447.14	0.00
447.32	0.00
447.51	0.00
447.69	0.00
447.88	0.00
448.06	0.00
448.25	0.00
448.43	0.00
448.62	0.00
448.80	0.00
448.99	28.09
449.17	0.00
449.36	0.00
449.54	23.41
449.73	0.00
449.91	0.00
450.10	0.00
450.28	105.32
450.46	0.00
450.65	0.00
450.83	44.47
451.02	4.68
451.20	0.00
451.39	0.00
451.57	0.00
451.76	0.00
451.94	0.00
452.13	0.00
452.31	0.00
452.49	0.00
452.68	0.00
452.86	0.00
453.05	0.00
453.23	0.00
453.42	0.00
453.60	0.00
453.78	0.00
453.97	0.00
454.15	0.00
454.34	0.00
454.52	0.00
454.70	42.13
454.89	0.00
455.07	0.00
455.26	0.00
455.44	37.45
455.62	0.00
455.81	0.00
455.99	0.00
456.17	0.00
456.36	0.00
456.54	0.00
456.73	0.00
456.91	0.00
457.09	0.00
457.28	0.00
457.46	0.00
457.64	0.00
457.83	0.00
458.01	0.00
458.19	0.00
458.38	14.04
458.56	0.00
458.74	0.00
458.93	0.00
459.11	0.00
459.29	0.00
459.48	9.36
459.66	74.90
459.84	0.00
460.03	65.54
460.21	0.00
460.39	2.34
460.57	51.49
460.76	25.75
460.94	0.00
461.12	37.45
461.31	35.11
461.49	0.00
461.67	0.00
461.85	0.00
462.04	0.00
462.22	662.37
462.40	0.00
462.59	0.00
462.77	11.70
462.95	0.00
463.13	0.00
463.32	0.00
463.50	0.00
463.68	0.00
463.86	0.00
464.05	0.00
464.23	0.00
464.41	4.68
464.59	0.00
464.78	0.00
464.96	0.00
465.14	0.00
465.32	0.00
465.50	18.72
465.69	23.41
465.87	0.00
466.05	0.00
466.23	0.00
466.41	0.00
466.60	4.68
466.78	11.70
466.96	16.38
467.14	0.00
467.32	21.06
467.51	16.38
467.69	25.75
467.87	70.22
468.05	0.00
468.23	39.79
468.41	0.00
468.60	0.00
468.78	0.00
468.96	49.15
469.14	0.00
469.32	0.00
469.50	0.00
469.69	42.13
469.87	42.13
470.05	0.00
470.23	0.00
470.41	0.00
470.59	11.70
470.77	7.02
470.95	0.00
471.14	0.00
471.32	16.38
471.50	88.94
471.68	0.00
471.86	35.11
472.04	21.06
472.22	0.00
472.40	0.00
472.58	0.00
472.77	0.00
472.95	0.00
473.13	35.11
473.31	88.94
473.49	0.00
473.67	25.75
473.85	18.72
474.03	25.75
474.21	42.13
474.39	81.92
474.57	14.04
474.75	72.56
474.93	0.00
475.12	0.00
475.30	0.00
475.48	0.00
475.66	0.00
475.84	30.43
476.02	11.70
476.20	51.49
476.38	0.00
476.56	131.07
476.74	37.45
476.92	0.00
477.10	0.00
477.28	0.00
477.46	16.38
477.64	0.00
477.82	4.68
478.00	9.36
478.18	128.73
478.36	0.00
478.54	0.00
478.72	79.58
478.90	74.90
479.08	86.60
479.26	63.19
479.44	72.56
479.62	49.15
479.80	0.00
479.98	9.36
480.16	14.04
480.34	51.49
480.52	0.00
480.70	63.19
480.88	4.68
481.06	0.00
481.24	46.81
481.41	9.36
481.59	65.54
481.77	35.11
481.95	0.00
482.13	191.92
482.31	56.17
482.49	2.34
482.67	49.15
482.85	39.79
483.03	145.11
483.21	102.98
483.39	74.90
483.57	2.34
483.74	70.22
483.92	114.69
484.10	2.34
484.28	119.37
484.46	112.35
484.64	84.26
484.82	154.48
485.00	72.56
485.18	65.54
485.35	32.77
485.53	16.38
485.71	100.64
485.89	0.00
486.07	42.13
486.25	102.98
486.43	84.26
486.61	117.03
486.78	95.96
486.96	58.51
487.14	84.26
487.32	23.41
487.50	44.47
487.68	220.01
487.85	81.92
488.03	133.41
488.21	208.31
488.39	100.64
488.57	121.71
488.75	95.96
488.92	414.27
489.10	145.11
489.28	205.97
489.46	112.35
489.64	121.71
489.81	102.98
489.99	152.13
490.17	138.09
490.35	177.88
490.53	84.26
490.70	114.69
490.88	46.81
491.06	74.90
491.24	49.15
491.41	156.82
491.59	154.48
491.77	77.24
491.95	77.24
492.13	39.79
492.30	229.37
492.48	131.07
492.66	142.77
492.84	119.37
493.01	131.07
493.19	81.92
493.37	205.97
493.54	133.41
493.72	198.95
493.90	229.37
494.08	107.66
494.25	201.29
494.43	175.54
494.61	173.20
494.79	175.54
494.96	156.82
495.14	161.50
495.32	86.60
495.49	234.05
495.67	201.29
495.85	145.11
496.02	187.24
496.20	222.35
496.38	224.69
496.55	191.92
496.73	159.16
496.91	201.29
497.09	259.80
497.26	238.73
497.44	220.01
497.62	205.97
497.79	203.63
497.97	163.84
498.14	145.11
498.32	224.69
498.50	252.78
498.67	245.76
498.85	245.76
499.03	194.26
499.20	201.29
499.38	208.31
499.56	201.29
499.73	313.63
499.91	163.84
500.08	159.16
500.26	170.86
500.44	231.71
500.61	180.22
500.79	147.45
500.97	161.50
501.14	255.12
501.32	220.01
501.49	243.42
501.67	105.32
501.84	198.95
502.02	152.13
502.20	243.42
502.37	250.44
502.55	266.82
502.72	168.52
502.90	280.86
503.07	262.14
503.25	198.95
503.43	191.92
503.60	210.65
503.78	227.03
503.95	191.92
504.13	180.22
504.30	177.88
504.48	191.92
504.65	341.72
504.83	234.05
505.01	248.10
505.18	217.67
505.36	203.63
505.53	222.35
505.71	205.97
505.88	290.23
506.06	276.18
506.23	177.88
506.41	212.99
506.58	222.35
506.76	220.01
506.93	273.84
507.11	264.48
507.28	271.50
507.46	177.88
507.63	238.73
507.81	238.73
507.98	173.20
508.16	210.65
508.33	245.76
508.50	252.78
508.68	259.80
508.85	224.69
509.03	245.76
509.20	264.48
509.38	231.71
509.55	297.25
509.73	276.18
509.90	311.29
510.08	255.12
510.25	297.25
510.42	210.65
510.60	245.76
510.77	294.91
510.95	341.72
511.12	311.29
511.30	402.57
511.47	266.82
511.64	264.48
511.82	290.23
511.99	227.03
512.17	241.08
512.34	236.39
512.51	271.50
512.69	215.33
512.86	191.92
513.04	180.22
513.21	252.78
513.38	255.12
513.56	203.63
513.73	217.67
513.90	243.42
514.08	255.12
514.25	227.03
514.43	220.01
514.60	224.69
514.77	194.26
514.95	259.80
515.12	280.86
515.29	308.95
515.47	283.20
515.64	327.68
515.81	266.82
515.99	273.84
516.16	259.80
516.33	198.95
516.51	156.82
516.68	203.63
516.85	124.05
517.03	182.56
517.20	245.76
517.37	222.35
517.54	222.35
517.72	156.82
517.89	210.65
518.06	210.65
518.24	294.91
518.41	266.82
518.58	278.52
518.75	257.46
518.93	243.42
519.10	241.08
519.27	276.18
519.45	210.65
519.62	271.50
519.79	334.70
519.96	154.48
520.14	264.48
520.31	278.52
520.48	252.78
520.65	301.93
520.83	339.38
521.00	294.91
521.17	306.61
521.34	304.27
521.52	285.55
521.69	252.78
521.86	238.73
522.03	304.27
522.20	327.68
522.38	248.10
522.55	290.23
522.72	266.82
522.89	271.50
523.07	313.63
523.24	217.67
523.41	283.20
523.58	283.20
523.75	250.44
523.92	273.84
524.10	241.08
524.27	203.63
524.44	280.86
524.61	379.17
524.78	294.91
524.96	269.16
525.13	269.16
525.30	315.97
525.47	376.83
525.64	308.95
525.81	351.08
525.98	264.48
526.16	266.82
526.33	229.37
526.50	311.29
526.67	194.26
526.84	138.09
527.01	220.01
527.18	201.29
527.36	227.03
527.53	283.20
527.70	353.42
527.87	360.44
528.04	346.40
528.21	325.33
528.38	245.76
528.55	332.36
528.72	376.83
528.89	381.51
529.07	320.65
529.24	332.36
529.41	306.61
529.58	145.11
529.75	287.89
529.92	353.42
530.09	374.49
530.26	369.80
530.43	290.23
530.60	259.80
530.77	306.61
530.94	292.57
531.11	397.89
531.28	355.76
531.46	325.33
531.63	304.27
531.80	358.10
531.97	276.18
532.14	327.68
532.31	297.25
532.48	283.20
532.65	358.10
532.82	234.05
532.99	341.72
533.16	332.36
533.33	341.72
533.50	278.52
533.67	341.72
533.84	344.06
534.01	332.36
534.18	292.57
534.35	259.80
534.52	252.78
534.69	365.12
534.86	353.42
535.03	255.12
535.20	318.31
535.37	325.33
535.54	337.04
535.71	358.10
535.88	341.72
536.05	262.14
536.22	337.04
536.38	287.89
536.55	294.91
536.72	290.23
536.89	238.73
537.06	278.52
537.23	367.46
537.40	346.40
537.57	346.40
537.74	379.17
537.91	379.17
538.08	423.64
538.25	360.44
538.42	287.89
538.59	407.25
538.75	306.61
538.92	383.85
539.09	301.93
539.26	271.50
539.43	374.49
539.60	334.70
539.77	266.82
539.94	290.23
540.11	311.29
540.28	308.95
540.44	325.33
540.61	365.12
540.78	313.63
540.95	283.20
541.12	393.21
541.29	381.51
541.46	362.78
541.62	348.74
541.79	266.82
541.96	252.78
542.13	362.78
542.30	290.23
542.47	339.38
542.63	285.55
542.80	287.89
542.97	344.06
543.14	414.27
543.31	271.50
543.48	341.72
543.64	390.87
543.81	379.17
543.98	360.44
544.15	273.84
544.32	339.38
544.48	362.78
544.65	334.70
544.82	372.15
544.99	322.99
545.16	325.33
545.32	320.65
545.49	444.70
545.66	332.36
545.83	322.99
546.00	299.59
546.16	390.87
546.33	341.72
546.50	315.97
546.67	437.68
546.83	383.85
547.00	330.02
547.17	262.14
547.34	297.25
547.50	308.95
547.67	278.52
547.84	308.95
548.00	334.70
548.17	330.02
548.34	196.60
548.51	334.70
548.67	346.40
548.84	383.85
549.01	285.55
549.18	297.25
549.34	348.74
549.51	376.83
549.68	353.42
549.84	414.27
550.01	346.40
550.18	496.19
550.34	395.55
550.51	365.12
550.68	376.83
550.84	301.93
551.01	353.42
551.18	341.72
551.34	311.29
551.51	437.68
551.68	290.23
551.84	404.91
552.01	269.16
552.18	327.68
552.34	327.68
552.51	285.55
552.68	334.70
552.84	294.91
553.01	327.68
553.18	325.33
553.34	297.25
553.51	388.53
553.67	332.36
553.84	447.04
554.01	315.97
554.17	390.87
554.34	376.83
554.51	367.46
554.67	362.78
554.84	435.34
555.00	461.09
555.17	362.78
555.33	379.17
555.50	334.70
555.67	388.53
555.83	358.10
556.00	402.57
556.16	561.73
556.33	358.10
556.50	372.15
556.66	294.91
556.83	318.31
556.99	341.72
557.16	304.27
557.32	271.50
557.49	353.42
557.65	334.70
557.82	330.02
557.98	320.65
558.15	222.35
558.32	397.89
558.48	278.52
558.65	360.44
558.81	365.12
558.98	386.19
559.14	313.63
559.31	315.97
559.47	334.70
559.64	299.59
559.80	337.04
559.97	351.08
560.13	332.36
560.30	266.82
560.46	414.27
560.63	365.12
560.79	348.74
560.96	322.99
561.12	353.42
561.29	404.91
561.45	372.15
561.61	374.49
561.78	402.57
561.94	355.76
562.11	297.25
562.27	308.95
562.44	259.80
562.60	308.95
562.77	320.65
562.93	355.76
563.10	315.97
563.26	433.00
563.42	355.76
563.59	330.02
563.75	217.67
563.92	369.80
564.08	313.63
564.24	416.62
564.41	355.76
564.57	241.08
564.74	297.25
564.90	306.61
565.07	332.36
565.23	334.70
565.39	322.99
565.56	369.80
565.72	315.97
565.88	304.27
566.05	332.36
566.21	266.82
566.38	353.42
566.54	381.51
566.70	299.59
566.87	334.70
567.03	355.76
567.19	346.40
567.36	322.99
567.52	325.33
567.68	353.42
567.85	344.06
568.01	334.70
568.17	278.52
568.34	257.46
568.50	318.31
568.66	318.31
568.83	414.27
568.99	220.01
569.15	304.27
569.32	278.52
569.48	369.80
569.64	241.08
569.81	315.97
569.97	308.95
570.13	318.31
570.30	278.52
570.46	241.08
570.62	283.20
570.78	304.27
570.95	376.83
571.11	428.32
571.27	322.99
571.43	278.52
571.60	238.73
571.76	358.10
571.92	330.02
572.09	292.57
572.25	292.57
572.41	346.40
572.57	334.70
572.74	318.31
572.90	355.76
573.06	283.20
573.22	285.55
573.38	215.33
573.55	351.08
573.71	334.70
573.87	402.57
574.03	238.73
574.20	297.25
574.36	374.49
574.52	332.36
574.68	304.27
574.84	278.52
575.01	353.42
575.17	365.12
575.33	257.46
575.49	425.98
575.65	315.97
575.82	266.82
575.98	404.91
576.14	325.33
576.30	322.99
576.46	369.80
576.62	334.70
576.79	292.57
576.95	383.85
577.11	227.03
577.27	283.20
577.43	332.36
577.59	308.95
577.75	355.76
577.92	243.42
578.08	227.03
578.24	243.42
578.40	381.51
578.56	407.25
578.72	299.59
578.88	369.80
579.04	280.86
579.21	332.36
579.37	262.14
579.53	294.91
579.69	311.29
579.85	229.37
580.01	255.12
580.17	322.99
580.33	259.80
580.49	287.89
580.65	266.82
580.82	308.95
580.98	325.33
581.14	283.20
581.30	297.25
581.46	365.12
581.62	346.40
581.78	351.08
581.94	283.20
582.10	294.91
582.26	369.80
582.42	383.85
582.58	320.65
582.74	322.99
582.90	393.21
583.06	271.50
583.22	264.48
583.38	351.08
583.54	348.74
583.70	402.57
583.86	311.29
584.02	365.12
584.18	386.19
584.34	297.25
584.50	327.68
584.66	325.33
584.82	271.50
584.98	313.63
585.14	308.95
585.30	290.23
585.46	283.20
585.62	297.25
585.78	273.84
585.94	355.76
586.10	308.95
586.26	367.46
586.42	360.44
586.58	322.99
586.74	280.86
586.90	271.50
587.06	383.85
587.22	379.17
587.38	259.80
587.54	306.61
587.70	372.15
587.86	273.84
588.02	318.31
588.18	285.55
588.34	348.74
588.49	161.50
588.65	210.65
588.81	175.54
588.97	166.18
589.13	252.78
589.29	231.71
589.45	236.39
589.61	222.35
589.77	299.59
589.93	255.12
590.08	222.35
590.24	299.59
590.40	292.57
590.56	344.06
590.72	285.55
590.88	229.37
591.04	287.89
591.20	294.91
591.35	348.74
591.51	257.46
591.67	234.05
591.83	264.48
591.99	290.23
592.15	301.93
592.31	365.12
592.46	320.65
592.62	372.15
592.78	210.65
592.94	294.91
593.10	252.78
593.26	297.25
593.41	308.95
593.57	355.76
593.73	245.76
593.89	273.84
594.05	236.39
594.20	287.89
594.36	236.39
594.52	227.03
594.68	280.86
594.84	285.55
594.99	332.36
595.15	320.65
595.31	287.89
595.47	330.02
595.62	285.55
595.78	264.48
595.94	280.86
596.10	273.84
596.25	262.14
596.41	297.25
596.57	285.55
596.73	290.23
596.88	283.20
597.04	294.91
597.20	266.82
597.36	238.73
597.51	210.65
597.67	255.12
597.83	278.52
597.99	236.39
598.14	278.52
598.30	198.95
598.46	344.06
598.61	257.46
598.77	351.08
598.93	180.22
599.09	245.76
599.24	269.16
599.40	241.08
599.56	220.01
599.71	280.86
599.87	271.50
600.03	250.44
600.18	257.46
600.34	257.46
600.50	208.31
600.65	182.56
600.81	222.35
600.97	276.18
601.12	236.39
601.28	273.84
601.44	285.55
601.59	262.14
601.75	271.50
601.91	196.60
602.06	224.69
602.22	437.68
602.37	292.57
602.53	283.20
602.69	297.25
602.84	262.14
603.00	196.60
603.16	322.99
603.31	322.99
603.47	248.10
603.62	208.31
603.78	283.20
603.94	285.55
604.09	287.89
604.25	320.65
604.40	322.99
604.56	257.46
604.71	271.50
604.87	308.95
605.03	271.50
605.18	285.55
605.34	339.38
605.49	313.63
605.65	278.52
605.80	248.10
605.96	264.48
606.12	287.89
606.27	330.02
606.43	189.58
606.58	313.63
606.74	351.08
606.89	283.20
607.05	318.31
607.20	262.14
607.36	292.57
607.51	217.67
607.67	273.84
607.82	147.45
607.98	266.82
608.13	241.08
608.29	283.20
608.44	315.97
608.60	257.46
608.75	231.71
608.91	287.89
609.06	292.57
609.22	243.42
609.37	224.69
609.53	276.18
609.68	180.22
609.84	238.73
609.99	229.37
610.15	227.03
610.30	285.55
610.46	227.03
610.61	220.01
610.76	238.73
610.92	212.99
611.07	201.29
611.23	369.80
611.38	259.80
611.54	217.67
611.69	217.67
611.84	152.13
612.00	203.63
612.15	248.10
612.31	191.92
612.46	245.76
612.62	229.37
612.77	220.01
612.92	220.01
613.08	191.92
613.23	285.55
613.39	220.01
613.54	205.97
613.69	182.56
613.85	308.95
614.00	245.76
614.15	170.86
614.31	191.92
614.46	257.46
614.62	191.92
614.77	313.63
614.92	152.13
615.08	241.08
615.23	220.01
615.38	126.39
615.54	168.52
615.69	194.26
615.84	182.56
616.00	156.82
616.15	175.54
616.30	220.01
616.46	220.01
616.61	191.92
616.76	212.99
616.92	283.20
617.07	287.89
617.22	205.97
617.37	191.92
617.53	262.14
617.68	203.63
617.83	227.03
617.99	205.97
618.14	220.01
618.29	322.99
618.45	173.20
618.60	311.29
618.75	273.84
618.90	227.03
619.06	208.31
619.21	262.14
619.36	294.91
619.51	159.16
619.67	257.46
619.82	182.56
619.97	297.25
620.12	266.82
620.28	311.29
620.43	231.71
620.58	184.90
620.73	250.44
620.89	229.37
621.04	177.88
621.19	266.82
621.34	201.29
621.49	212.99
621.65	198.95
621.80	124.05
621.95	140.43
622.10	191.92
622.25	187.24
622.41	163.84
622.56	177.88
622.71	203.63
622.86	227.03
623.01	189.58
623.16	248.10
623.32	138.09
