SpectraSuite Data File
++++++++++++++++++++++++++++++++++++
Date: Mon Oct 07 14:59:59 GMT-05:00 2013
User: price-jones
Dark Spectrum Present: No
Reference Spectrum Present: No
Number of Sampled Component Spectra: 1
Spectrometers: USB2+H05261
Integration Time (usec): 100000 (USB2+H05261)
Spectra Averaged: 1 (USB2+H05261)
Boxcar Smoothing: 0 (USB2+H05261)
Correct for Electrical Dark: No (USB2+H05261)
Strobe/Lamp Enabled: No (USB2+H05261)
Correct for Detector Non-linearity: No (USB2+H05261)
Correct for Stray Light: No (USB2+H05261)
Number of Pixels in Processed Spectrum: 2048
>>>>>Begin Processed Spectral Data<<<<<
365.73	0.00
365.92	0.00
366.12	0.00
366.32	0.00
366.52	0.00
366.72	0.00
366.91	0.00
367.11	0.00
367.31	0.00
367.51	0.00
367.70	0.00
367.90	0.00
368.10	0.00
368.30	0.00
368.49	0.00
368.69	0.00
368.89	0.00
369.09	0.00
369.28	0.00
369.48	0.00
369.68	0.00
369.87	0.00
370.07	0.00
370.27	0.00
370.47	0.00
370.66	0.00
370.86	0.00
371.06	0.00
371.25	0.00
371.45	0.00
371.65	0.00
371.84	0.00
372.04	0.00
372.24	0.00
372.44	0.00
372.63	0.00
372.83	0.00
373.03	0.00
373.22	0.00
373.42	0.00
373.62	0.00
373.81	0.00
374.01	0.00
374.21	0.00
374.40	0.00
374.60	0.00
374.79	0.00
374.99	0.00
375.19	0.00
375.38	0.00
375.58	0.00
375.78	0.00
375.97	0.00
376.17	0.00
376.37	0.00
376.56	0.00
376.76	0.00
376.95	0.00
377.15	0.00
377.35	0.00
377.54	0.00
377.74	0.00
377.93	0.00
378.13	0.00
378.33	0.00
378.52	0.00
378.72	0.00
378.91	0.00
379.11	0.00
379.31	0.00
379.50	0.00
379.70	0.00
379.89	0.00
380.09	0.00
380.28	0.00
380.48	0.00
380.68	0.00
380.87	0.00
381.07	0.00
381.26	0.00
381.46	0.00
381.65	0.00
381.85	0.00
382.04	0.00
382.24	0.00
382.43	0.00
382.63	0.00
382.83	0.00
383.02	0.00
383.22	0.00
383.41	0.00
383.61	0.00
383.80	0.00
384.00	0.00
384.19	0.00
384.39	0.00
384.58	0.00
384.78	0.00
384.97	0.00
385.17	0.00
385.36	0.00
385.56	0.00
385.75	0.00
385.95	0.00
386.14	0.00
386.34	0.00
386.53	0.00
386.72	0.00
386.92	0.00
387.11	0.00
387.31	0.00
387.50	0.00
387.70	0.00
387.89	0.00
388.09	0.00
388.28	0.00
388.48	0.00
388.67	0.00
388.86	0.00
389.06	0.00
389.25	0.00
389.45	0.00
389.64	0.00
389.84	0.00
390.03	0.00
390.22	0.00
390.42	0.00
390.61	0.00
390.81	0.00
391.00	0.00
391.19	0.00
391.39	0.00
391.58	0.00
391.78	0.00
391.97	0.00
392.16	0.00
392.36	0.00
392.55	0.00
392.75	0.00
392.94	0.00
393.13	0.00
393.33	0.00
393.52	0.00
393.71	0.00
393.91	0.00
394.10	0.00
394.29	0.00
394.49	0.00
394.68	0.00
394.88	0.00
395.07	0.00
395.26	0.00
395.46	0.00
395.65	0.00
395.84	0.00
396.04	0.00
396.23	0.00
396.42	0.00
396.62	0.00
396.81	0.00
397.00	0.00
397.19	0.00
397.39	0.00
397.58	0.00
397.77	0.00
397.97	0.00
398.16	0.00
398.35	0.00
398.55	0.00
398.74	0.00
398.93	0.00
399.12	0.00
399.32	0.00
399.51	0.00
399.70	0.00
399.90	0.00
400.09	0.00
400.28	0.00
400.47	0.00
400.67	0.00
400.86	0.00
401.05	0.00
401.24	0.00
401.44	0.00
401.63	0.00
401.82	0.00
402.01	0.00
402.21	0.00
402.40	0.00
402.59	0.00
402.78	0.00
402.97	0.00
403.17	0.00
403.36	0.00
403.55	0.00
403.74	0.00
403.93	0.00
404.13	0.00
404.32	0.00
404.51	0.00
404.70	0.00
404.89	0.00
405.09	0.00
405.28	0.00
405.47	0.00
405.66	0.00
405.85	0.00
406.05	0.00
406.24	0.00
406.43	0.00
406.62	0.00
406.81	7.02
407.00	0.00
407.20	0.00
407.39	0.00
407.58	0.00
407.77	0.00
407.96	0.00
408.15	0.00
408.34	0.00
408.54	0.00
408.73	0.00
408.92	0.00
409.11	0.00
409.30	0.00
409.49	0.00
409.68	0.00
409.87	0.00
410.07	0.00
410.26	0.00
410.45	0.00
410.64	0.00
410.83	0.00
411.02	0.00
411.21	0.00
411.40	0.00
411.59	0.00
411.78	0.00
411.98	0.00
412.17	0.00
412.36	0.00
412.55	0.00
412.74	0.00
412.93	0.00
413.12	0.00
413.31	0.00
413.50	0.00
413.69	0.00
413.88	0.00
414.07	0.00
414.26	0.00
414.45	0.00
414.64	0.00
414.83	0.00
415.02	0.00
415.22	0.00
415.41	0.00
415.60	0.00
415.79	0.00
415.98	0.00
416.17	0.00
416.36	0.00
416.55	0.00
416.74	0.00
416.93	0.00
417.12	0.00
417.31	0.00
417.50	0.00
417.69	0.00
417.88	0.00
418.07	0.00
418.26	0.00
418.45	0.00
418.64	0.00
418.83	0.00
419.02	0.00
419.21	0.00
419.39	0.00
419.58	0.00
419.77	0.00
419.96	0.00
420.15	0.00
420.34	0.00
420.53	0.00
420.72	0.00
420.91	0.00
421.10	0.00
421.29	0.00
421.48	0.00
421.67	0.00
421.86	0.00
422.05	0.00
422.24	0.00
422.43	0.00
422.61	0.00
422.80	0.00
422.99	0.00
423.18	0.00
423.37	0.00
423.56	0.00
423.75	0.00
423.94	0.00
424.13	0.00
424.32	0.00
424.50	0.00
424.69	0.00
424.88	0.00
425.07	0.00
425.26	0.00
425.45	0.00
425.64	0.00
425.83	0.00
426.01	0.00
426.20	0.00
426.39	0.00
426.58	0.00
426.77	0.00
426.96	0.00
427.15	0.00
427.33	0.00
427.52	0.00
427.71	0.00
427.90	0.00
428.09	0.00
428.28	0.00
428.46	0.00
428.65	0.00
428.84	0.00
429.03	0.00
429.22	0.00
429.40	0.00
429.59	0.00
429.78	0.00
429.97	0.00
430.16	0.00
430.34	0.00
430.53	0.00
430.72	0.00
430.91	0.00
431.10	0.00
431.28	0.00
431.47	0.00
431.66	0.00
431.85	0.00
432.03	0.00
432.22	0.00
432.41	0.00
432.60	0.00
432.79	0.00
432.97	0.00
433.16	0.00
433.35	0.00
433.54	0.00
433.72	0.00
433.91	0.00
434.10	0.00
434.28	0.00
434.47	0.00
434.66	0.00
434.85	0.00
435.03	0.00
435.22	0.00
435.41	0.00
435.59	0.00
435.78	0.00
435.97	0.00
436.16	0.00
436.34	0.00
436.53	0.00
436.72	0.00
436.90	0.00
437.09	0.00
437.28	0.00
437.46	0.00
437.65	0.00
437.84	0.00
438.02	0.00
438.21	0.00
438.40	0.00
438.58	0.00
438.77	0.00
438.96	0.00
439.14	0.00
439.33	0.00
439.52	0.00
439.70	0.00
439.89	0.00
440.08	0.00
440.26	0.00
440.45	0.00
440.63	0.00
440.82	0.00
441.01	0.00
441.19	0.00
441.38	0.00
441.57	0.00
441.75	0.00
441.94	0.00
442.12	0.00
442.31	0.00
442.50	0.00
442.68	0.00
442.87	0.00
443.05	0.00
443.24	0.00
443.43	0.00
443.61	0.00
443.80	0.00
443.98	0.00
444.17	0.00
444.35	0.00
444.54	0.00
444.73	0.00
444.91	42.13
445.10	0.00
445.28	0.00
445.47	0.00
445.65	0.00
445.84	0.00
446.02	0.00
446.21	0.00
446.39	0.00
446.58	0.00
446.77	0.00
446.95	0.00
447.14	0.00
447.32	0.00
447.51	0.00
447.69	0.00
447.88	0.00
448.06	0.00
448.25	0.00
448.43	0.00
448.62	0.00
448.80	0.00
448.99	0.00
449.17	9.36
449.36	0.00
449.54	0.00
449.73	0.00
449.91	0.00
450.10	0.00
450.28	0.00
450.46	0.00
450.65	0.00
450.83	0.00
451.02	0.00
451.20	0.00
451.39	0.00
451.57	0.00
451.76	0.00
451.94	0.00
452.13	18.72
452.31	46.81
452.49	0.00
452.68	0.00
452.86	0.00
453.05	0.00
453.23	0.00
453.42	0.00
453.60	0.00
453.78	0.00
453.97	0.00
454.15	0.00
454.34	0.00
454.52	0.00
454.70	0.00
454.89	32.77
455.07	0.00
455.26	0.00
455.44	0.00
455.62	0.00
455.81	0.00
455.99	0.00
456.17	0.00
456.36	0.00
456.54	11.70
456.73	0.00
456.91	0.00
457.09	0.00
457.28	0.00
457.46	0.00
457.64	42.13
457.83	0.00
458.01	0.00
458.19	0.00
458.38	39.79
458.56	0.00
458.74	39.79
458.93	0.00
459.11	0.00
459.29	0.00
459.48	0.00
459.66	81.92
459.84	0.00
460.03	56.17
460.21	60.85
460.39	0.00
460.57	37.45
460.76	9.36
460.94	0.00
461.12	14.04
461.31	0.00
461.49	0.00
461.67	0.00
461.85	4.68
462.04	0.00
462.22	547.69
462.40	53.83
462.59	39.79
462.77	25.75
462.95	84.26
463.13	0.00
463.32	0.00
463.50	0.00
463.68	0.00
463.86	0.00
464.05	0.00
464.23	0.00
464.41	0.00
464.59	0.00
464.78	7.02
464.96	0.00
465.14	0.00
465.32	0.00
465.50	0.00
465.69	0.00
465.87	0.00
466.05	0.00
466.23	0.00
466.41	0.00
466.60	0.00
466.78	0.00
466.96	49.15
467.14	0.00
467.32	0.00
467.51	0.00
467.69	4.68
467.87	42.13
468.05	56.17
468.23	4.68
468.41	60.85
468.60	0.00
468.78	0.00
468.96	16.38
469.14	0.00
469.32	28.09
469.50	39.79
469.69	0.00
469.87	0.00
470.05	0.00
470.23	0.00
470.41	0.00
470.59	0.00
470.77	0.00
470.95	0.00
471.14	32.77
471.32	39.79
471.50	0.00
471.68	98.30
471.86	0.00
472.04	2.34
472.22	23.41
472.40	0.00
472.58	0.00
472.77	25.75
472.95	14.04
473.13	60.85
473.31	30.43
473.49	0.00
473.67	0.00
473.85	0.00
474.03	46.81
474.21	0.00
474.39	74.90
474.57	30.43
474.75	30.43
474.93	9.36
475.12	67.88
475.30	42.13
475.48	21.06
475.66	0.00
475.84	4.68
476.02	0.00
476.20	37.45
476.38	4.68
476.56	112.35
476.74	0.00
476.92	42.13
477.10	0.00
477.28	32.77
477.46	63.19
477.64	44.47
477.82	51.49
478.00	11.70
478.18	42.13
478.36	32.77
478.54	2.34
478.72	0.00
478.90	35.11
479.08	28.09
479.26	35.11
479.44	0.00
479.62	16.38
479.80	65.54
479.98	21.06
480.16	25.75
480.34	11.70
480.52	14.04
480.70	39.79
480.88	0.00
481.06	51.49
481.24	72.56
481.41	37.45
481.59	77.24
481.77	60.85
481.95	84.26
482.13	84.26
482.31	0.00
482.49	84.26
482.67	58.51
482.85	72.56
483.03	133.41
483.21	46.81
483.39	32.77
483.57	46.81
483.74	152.13
483.92	30.43
484.10	37.45
484.28	93.62
484.46	156.82
484.64	100.64
484.82	42.13
485.00	93.62
485.18	86.60
485.35	95.96
485.53	23.41
485.71	11.70
485.89	0.00
486.07	0.00
486.25	84.26
486.43	72.56
486.61	72.56
486.78	11.70
486.96	11.70
487.14	7.02
487.32	32.77
487.50	25.75
487.68	152.13
487.85	18.72
488.03	142.77
488.21	166.18
488.39	70.22
488.57	35.11
488.75	88.94
488.92	416.62
489.10	147.45
489.28	117.03
489.46	126.39
489.64	112.35
489.81	173.20
489.99	210.65
490.17	119.37
490.35	159.16
490.53	196.60
490.70	128.73
490.88	243.42
491.06	133.41
491.24	102.98
491.41	154.48
491.59	105.32
491.77	25.75
491.95	81.92
492.13	102.98
492.30	95.96
492.48	135.75
492.66	95.96
492.84	131.07
493.01	182.56
493.19	173.20
493.37	114.69
493.54	110.01
493.72	154.48
493.90	166.18
494.08	187.24
494.25	196.60
494.43	177.88
494.61	154.48
494.79	182.56
494.96	187.24
495.14	234.05
495.32	168.52
495.49	121.71
495.67	168.52
495.85	166.18
496.02	180.22
496.20	180.22
496.38	180.22
496.55	191.92
496.73	264.48
496.91	163.84
497.09	255.12
497.26	285.55
497.44	145.11
497.62	149.79
497.79	114.69
497.97	177.88
498.14	135.75
498.32	205.97
498.50	114.69
498.67	243.42
498.85	236.39
499.03	212.99
499.20	187.24
499.38	187.24
499.56	180.22
499.73	198.95
499.91	229.37
500.08	234.05
500.26	170.86
500.44	215.33
500.61	184.90
500.79	166.18
500.97	194.26
501.14	217.67
501.32	250.44
501.49	154.48
501.67	262.14
501.84	227.03
502.02	177.88
502.20	133.41
502.37	187.24
502.55	203.63
502.72	271.50
502.90	222.35
503.07	208.31
503.25	236.39
503.43	74.90
503.60	154.48
503.78	229.37
503.95	203.63
504.13	257.46
504.30	269.16
504.48	198.95
504.65	271.50
504.83	212.99
505.01	217.67
505.18	297.25
505.36	252.78
505.53	262.14
505.71	194.26
505.88	231.71
506.06	220.01
506.23	264.48
506.41	145.11
506.58	152.13
506.76	194.26
506.93	149.79
507.11	212.99
507.28	175.54
507.46	124.05
507.63	276.18
507.81	147.45
507.98	173.20
508.16	269.16
508.33	255.12
508.50	145.11
508.68	210.65
508.85	236.39
509.03	248.10
509.20	220.01
509.38	234.05
509.55	236.39
509.73	318.31
509.90	273.84
510.08	250.44
510.25	330.02
510.42	163.84
510.60	182.56
510.77	259.80
510.95	266.82
511.12	250.44
511.30	257.46
511.47	322.99
511.64	360.44
511.82	262.14
511.99	208.31
512.17	257.46
512.34	147.45
512.51	234.05
512.69	271.50
512.86	297.25
513.04	229.37
513.21	210.65
513.38	236.39
513.56	196.60
513.73	231.71
513.90	245.76
514.08	222.35
514.25	280.86
514.43	285.55
514.60	156.82
514.77	205.97
514.95	304.27
515.12	299.59
515.29	290.23
515.47	250.44
515.64	337.04
515.81	245.76
515.99	334.70
516.16	278.52
516.33	241.08
516.51	138.09
516.68	117.03
516.85	159.16
517.03	210.65
517.20	248.10
517.37	322.99
517.54	220.01
517.72	212.99
517.89	131.07
518.06	182.56
518.24	337.04
518.41	301.93
518.58	311.29
518.75	245.76
518.93	212.99
519.10	304.27
519.27	259.80
519.45	292.57
519.62	301.93
519.79	278.52
519.96	262.14
520.14	210.65
520.31	266.82
520.48	208.31
520.65	341.72
520.83	332.36
521.00	250.44
521.17	306.61
521.34	313.63
521.52	304.27
521.69	315.97
521.86	287.89
522.03	248.10
522.20	297.25
522.38	168.52
522.55	313.63
522.72	257.46
522.89	201.29
523.07	304.27
523.24	306.61
523.41	376.83
523.58	304.27
523.75	320.65
523.92	287.89
524.10	308.95
524.27	330.02
524.44	304.27
524.61	351.08
524.78	273.84
524.96	346.40
525.13	367.46
525.30	292.57
525.47	376.83
525.64	332.36
525.81	297.25
525.98	238.73
526.16	194.26
526.33	248.10
526.50	210.65
526.67	159.16
526.84	198.95
527.01	248.10
527.18	252.78
527.36	315.97
527.53	231.71
527.70	337.04
527.87	285.55
528.04	372.15
528.21	341.72
528.38	313.63
528.55	280.86
528.72	266.82
528.89	339.38
529.07	372.15
529.24	243.42
529.41	299.59
529.58	304.27
529.75	257.46
529.92	353.42
530.09	402.57
530.26	332.36
530.43	248.10
530.60	358.10
530.77	332.36
530.94	241.08
531.11	318.31
531.28	393.21
531.46	285.55
531.63	367.46
531.80	390.87
531.97	365.12
532.14	243.42
532.31	297.25
532.48	292.57
532.65	215.33
532.82	351.08
532.99	311.29
533.16	262.14
533.33	318.31
533.50	290.23
533.67	252.78
533.84	241.08
534.01	341.72
534.18	334.70
534.35	315.97
534.52	365.12
534.69	367.46
534.86	337.04
535.03	257.46
535.20	339.38
535.37	423.64
535.54	332.36
535.71	299.59
535.88	421.30
536.05	290.23
536.22	365.12
536.38	327.68
536.55	280.86
536.72	355.76
536.89	383.85
537.06	358.10
537.23	325.33
537.40	372.15
537.57	315.97
537.74	327.68
537.91	327.68
538.08	290.23
538.25	348.74
538.42	278.52
538.59	301.93
538.75	297.25
538.92	383.85
539.09	332.36
539.26	290.23
539.43	337.04
539.60	362.78
539.77	353.42
539.94	271.50
540.11	320.65
540.28	306.61
540.44	271.50
540.61	315.97
540.78	318.31
540.95	276.18
541.12	404.91
541.29	250.44
541.46	318.31
541.62	362.78
541.79	301.93
541.96	238.73
542.13	372.15
542.30	348.74
542.47	383.85
542.63	283.20
542.80	365.12
542.97	376.83
543.14	322.99
543.31	301.93
543.48	341.72
543.64	339.38
543.81	360.44
543.98	318.31
544.15	325.33
544.32	374.49
544.48	334.70
544.65	351.08
544.82	327.68
544.99	306.61
545.16	376.83
545.32	407.25
545.49	318.31
545.66	339.38
545.83	259.80
546.00	320.65
546.16	304.27
546.33	327.68
546.50	369.80
546.67	400.23
546.83	393.21
547.00	376.83
547.17	311.29
547.34	304.27
547.50	287.89
547.67	337.04
547.84	339.38
548.00	372.15
548.17	255.12
548.34	358.10
548.51	285.55
548.67	341.72
548.84	351.08
549.01	322.99
549.18	262.14
549.34	358.10
549.51	353.42
549.68	348.74
549.84	337.04
550.01	325.33
550.18	526.62
550.34	409.59
550.51	381.51
550.68	374.49
550.84	332.36
551.01	418.96
551.18	266.82
551.34	301.93
551.51	315.97
551.68	390.87
551.84	365.12
552.01	304.27
552.18	280.86
552.34	304.27
552.51	358.10
552.68	283.20
552.84	290.23
553.01	306.61
553.18	334.70
553.34	280.86
553.51	301.93
553.67	404.91
553.84	393.21
554.01	397.89
554.17	376.83
554.34	271.50
554.51	381.51
554.67	433.00
554.84	383.85
555.00	365.12
555.17	388.53
555.33	337.04
555.50	339.38
555.67	458.74
555.83	332.36
556.00	278.52
556.16	507.90
556.33	351.08
556.50	297.25
556.66	273.84
556.83	280.86
556.99	278.52
557.16	376.83
557.32	334.70
557.49	292.57
557.65	280.86
557.82	379.17
557.98	421.30
558.15	313.63
558.32	390.87
558.48	290.23
558.65	372.15
558.81	315.97
558.98	292.57
559.14	390.87
559.31	367.46
559.47	257.46
559.64	297.25
559.80	264.48
559.97	259.80
560.13	306.61
560.30	259.80
560.46	367.46
560.63	418.96
560.79	320.65
560.96	346.40
561.12	231.71
561.29	360.44
561.45	271.50
561.61	395.55
561.78	479.81
561.94	367.46
562.11	238.73
562.27	283.20
562.44	315.97
562.60	299.59
562.77	332.36
562.93	512.58
563.10	383.85
563.26	224.69
563.42	287.89
563.59	313.63
563.75	322.99
563.92	341.72
564.08	423.64
564.24	388.53
564.41	374.49
564.57	220.01
564.74	320.65
564.90	311.29
565.07	397.89
565.23	271.50
565.39	248.10
565.56	367.46
565.72	241.08
565.88	332.36
566.05	315.97
566.21	330.02
566.38	348.74
566.54	383.85
566.70	238.73
566.87	346.40
567.03	285.55
567.19	304.27
567.36	330.02
567.52	348.74
567.68	236.39
567.85	280.86
568.01	248.10
568.17	252.78
568.34	231.71
568.50	337.04
568.66	266.82
568.83	395.55
568.99	280.86
569.15	250.44
569.32	337.04
569.48	283.20
569.64	210.65
569.81	320.65
569.97	262.14
570.13	341.72
570.30	287.89
570.46	351.08
570.62	170.86
570.78	292.57
570.95	365.12
571.11	341.72
571.27	395.55
571.43	252.78
571.60	315.97
571.76	416.62
571.92	346.40
572.09	278.52
572.25	348.74
572.41	374.49
572.57	245.76
572.74	414.27
572.90	381.51
573.06	355.76
573.22	311.29
573.38	315.97
573.55	290.23
573.71	416.62
573.87	280.86
574.03	318.31
574.20	365.12
574.36	355.76
574.52	388.53
574.68	388.53
574.84	236.39
575.01	273.84
575.17	297.25
575.33	287.89
575.49	376.83
575.65	348.74
575.82	390.87
575.98	461.09
576.14	325.33
576.30	334.70
576.46	259.80
576.62	308.95
576.79	337.04
576.95	362.78
577.11	327.68
577.27	311.29
577.43	266.82
577.59	362.78
577.75	271.50
577.92	241.08
578.08	313.63
578.24	313.63
578.40	351.08
578.56	367.46
578.72	353.42
578.88	330.02
579.04	250.44
579.21	360.44
579.37	369.80
579.53	315.97
579.69	341.72
579.85	325.33
580.01	299.59
580.17	348.74
580.33	355.76
580.49	280.86
580.65	285.55
580.82	341.72
580.98	369.80
581.14	337.04
581.30	418.96
581.46	339.38
581.62	330.02
581.78	386.19
581.94	348.74
582.10	290.23
582.26	334.70
582.42	320.65
582.58	306.61
582.74	297.25
582.90	351.08
583.06	318.31
583.22	360.44
583.38	320.65
583.54	311.29
583.70	358.10
583.86	339.38
584.02	259.80
584.18	407.25
584.34	318.31
584.50	351.08
584.66	248.10
584.82	271.50
584.98	332.36
585.14	306.61
585.30	227.03
585.46	425.98
585.62	306.61
585.78	322.99
585.94	299.59
586.10	264.48
586.26	360.44
586.42	360.44
586.58	355.76
586.74	353.42
586.90	262.14
587.06	344.06
587.22	358.10
587.38	297.25
587.54	360.44
587.70	409.59
587.86	299.59
588.02	231.71
588.18	250.44
588.34	276.18
588.49	205.97
588.65	320.65
588.81	147.45
588.97	243.42
589.13	170.86
589.29	269.16
589.45	264.48
589.61	245.76
589.77	276.18
589.93	294.91
590.08	327.68
590.24	217.67
590.40	184.90
590.56	217.67
590.72	315.97
590.88	234.05
591.04	372.15
591.20	196.60
591.35	360.44
591.51	304.27
591.67	245.76
591.83	308.95
591.99	252.78
592.15	313.63
592.31	271.50
592.46	231.71
592.62	351.08
592.78	273.84
592.94	285.55
593.10	301.93
593.26	322.99
593.41	325.33
593.57	271.50
593.73	231.71
593.89	290.23
594.05	220.01
594.20	273.84
594.36	304.27
594.52	301.93
594.68	177.88
594.84	290.23
594.99	386.19
595.15	351.08
595.31	301.93
595.47	337.04
595.62	259.80
595.78	304.27
595.94	259.80
596.10	332.36
596.25	306.61
596.41	339.38
596.57	241.08
596.73	266.82
596.88	280.86
597.04	278.52
597.20	273.84
597.36	161.50
597.51	269.16
597.67	250.44
597.83	315.97
597.99	255.12
598.14	241.08
598.30	257.46
598.46	367.46
598.61	332.36
598.77	231.71
598.93	210.65
599.09	327.68
599.24	315.97
599.40	330.02
599.56	280.86
599.71	297.25
599.87	147.45
600.03	283.20
600.18	234.05
600.34	257.46
600.50	280.86
600.65	308.95
600.81	283.20
600.97	266.82
601.12	325.33
601.28	285.55
601.44	184.90
601.59	257.46
601.75	294.91
601.91	229.37
602.06	255.12
602.22	327.68
602.37	278.52
602.53	194.26
602.69	304.27
602.84	243.42
603.00	351.08
603.16	313.63
603.31	285.55
603.47	308.95
603.62	189.58
603.78	201.29
603.94	297.25
604.09	248.10
604.25	304.27
604.40	238.73
604.56	292.57
604.71	266.82
604.87	273.84
605.03	252.78
605.18	276.18
605.34	299.59
605.49	259.80
605.65	322.99
605.80	266.82
605.96	182.56
606.12	304.27
606.27	238.73
606.43	248.10
606.58	266.82
606.74	271.50
606.89	269.16
607.05	283.20
607.20	217.67
607.36	283.20
607.51	208.31
607.67	243.42
607.82	224.69
607.98	341.72
608.13	255.12
608.29	250.44
608.44	285.55
608.60	222.35
608.75	280.86
608.91	231.71
609.06	262.14
609.22	217.67
609.37	306.61
609.53	234.05
609.68	203.63
609.84	229.37
609.99	351.08
610.15	238.73
610.30	234.05
610.46	220.01
610.61	205.97
610.76	231.71
610.92	276.18
611.07	271.50
611.23	301.93
611.38	264.48
611.54	234.05
611.69	271.50
611.84	224.69
612.00	250.44
612.15	259.80
612.31	222.35
612.46	224.69
612.62	156.82
612.77	313.63
612.92	264.48
613.08	264.48
613.23	262.14
613.39	229.37
613.54	170.86
613.69	257.46
613.85	255.12
614.00	175.54
614.15	231.71
614.31	287.89
614.46	257.46
614.62	231.71
614.77	367.46
614.92	201.29
615.08	280.86
615.23	236.39
615.38	231.71
615.54	215.33
615.69	198.95
615.84	168.52
616.00	203.63
616.15	175.54
616.30	259.80
616.46	276.18
616.61	243.42
616.76	301.93
616.92	278.52
617.07	271.50
617.22	229.37
617.37	173.20
617.53	222.35
617.68	184.90
617.83	259.80
617.99	311.29
618.14	318.31
618.29	231.71
618.45	234.05
618.60	194.26
618.75	334.70
618.90	220.01
619.06	255.12
619.21	196.60
619.36	280.86
619.51	285.55
619.67	191.92
619.82	229.37
619.97	205.97
620.12	205.97
620.28	229.37
620.43	243.42
620.58	264.48
620.73	255.12
620.89	255.12
621.04	180.22
621.19	269.16
621.34	212.99
621.49	245.76
621.65	201.29
621.80	135.75
621.95	166.18
622.10	215.33
622.25	161.50
622.41	138.09
622.56	131.07
622.71	187.24
622.86	215.33
623.01	229.37
623.16	210.65
623.32	231.71
