SpectraSuite Data File
++++++++++++++++++++++++++++++++++++
Date: Mon Oct 07 15:00:00 GMT-05:00 2013
User: price-jones
Dark Spectrum Present: No
Reference Spectrum Present: No
Number of Sampled Component Spectra: 1
Spectrometers: USB2+H05261
Integration Time (usec): 100000 (USB2+H05261)
Spectra Averaged: 1 (USB2+H05261)
Boxcar Smoothing: 0 (USB2+H05261)
Correct for Electrical Dark: No (USB2+H05261)
Strobe/Lamp Enabled: No (USB2+H05261)
Correct for Detector Non-linearity: No (USB2+H05261)
Correct for Stray Light: No (USB2+H05261)
Number of Pixels in Processed Spectrum: 2048
>>>>>Begin Processed Spectral Data<<<<<
365.73	0.00
365.92	0.00
366.12	0.00
366.32	0.00
366.52	0.00
366.72	0.00
366.91	0.00
367.11	0.00
367.31	0.00
367.51	0.00
367.70	0.00
367.90	0.00
368.10	0.00
368.30	0.00
368.49	0.00
368.69	0.00
368.89	0.00
369.09	0.00
369.28	0.00
369.48	0.00
369.68	0.00
369.87	0.00
370.07	0.00
370.27	0.00
370.47	0.00
370.66	0.00
370.86	0.00
371.06	0.00
371.25	0.00
371.45	0.00
371.65	0.00
371.84	0.00
372.04	0.00
372.24	0.00
372.44	0.00
372.63	0.00
372.83	0.00
373.03	0.00
373.22	0.00
373.42	0.00
373.62	0.00
373.81	0.00
374.01	0.00
374.21	0.00
374.40	0.00
374.60	0.00
374.79	0.00
374.99	0.00
375.19	0.00
375.38	0.00
375.58	0.00
375.78	0.00
375.97	0.00
376.17	0.00
376.37	0.00
376.56	0.00
376.76	0.00
376.95	0.00
377.15	0.00
377.35	0.00
377.54	0.00
377.74	0.00
377.93	0.00
378.13	0.00
378.33	0.00
378.52	0.00
378.72	0.00
378.91	0.00
379.11	0.00
379.31	0.00
379.50	0.00
379.70	0.00
379.89	0.00
380.09	0.00
380.28	0.00
380.48	0.00
380.68	0.00
380.87	0.00
381.07	0.00
381.26	0.00
381.46	0.00
381.65	0.00
381.85	0.00
382.04	0.00
382.24	0.00
382.43	0.00
382.63	0.00
382.83	0.00
383.02	0.00
383.22	0.00
383.41	0.00
383.61	0.00
383.80	0.00
384.00	0.00
384.19	0.00
384.39	0.00
384.58	0.00
384.78	0.00
384.97	0.00
385.17	0.00
385.36	0.00
385.56	0.00
385.75	0.00
385.95	0.00
386.14	0.00
386.34	0.00
386.53	0.00
386.72	0.00
386.92	0.00
387.11	0.00
387.31	0.00
387.50	0.00
387.70	0.00
387.89	0.00
388.09	0.00
388.28	0.00
388.48	0.00
388.67	0.00
388.86	0.00
389.06	0.00
389.25	0.00
389.45	0.00
389.64	0.00
389.84	0.00
390.03	0.00
390.22	0.00
390.42	0.00
390.61	0.00
390.81	0.00
391.00	0.00
391.19	0.00
391.39	0.00
391.58	0.00
391.78	0.00
391.97	0.00
392.16	0.00
392.36	0.00
392.55	0.00
392.75	0.00
392.94	0.00
393.13	0.00
393.33	0.00
393.52	0.00
393.71	0.00
393.91	0.00
394.10	0.00
394.29	0.00
394.49	0.00
394.68	0.00
394.88	0.00
395.07	0.00
395.26	0.00
395.46	0.00
395.65	0.00
395.84	0.00
396.04	0.00
396.23	0.00
396.42	0.00
396.62	0.00
396.81	0.00
397.00	0.00
397.19	0.00
397.39	0.00
397.58	0.00
397.77	0.00
397.97	0.00
398.16	0.00
398.35	0.00
398.55	0.00
398.74	0.00
398.93	0.00
399.12	0.00
399.32	0.00
399.51	0.00
399.70	0.00
399.90	0.00
400.09	0.00
400.28	0.00
400.47	0.00
400.67	0.00
400.86	0.00
401.05	0.00
401.24	0.00
401.44	0.00
401.63	0.00
401.82	0.00
402.01	0.00
402.21	0.00
402.40	0.00
402.59	0.00
402.78	0.00
402.97	0.00
403.17	0.00
403.36	0.00
403.55	0.00
403.74	0.00
403.93	0.00
404.13	0.00
404.32	0.00
404.51	0.00
404.70	0.00
404.89	0.00
405.09	0.00
405.28	0.00
405.47	0.00
405.66	0.00
405.85	0.00
406.05	0.00
406.24	0.00
406.43	0.00
406.62	0.00
406.81	0.00
407.00	0.00
407.20	0.00
407.39	0.00
407.58	0.00
407.77	0.00
407.96	0.00
408.15	0.00
408.34	0.00
408.54	0.00
408.73	0.00
408.92	0.00
409.11	0.00
409.30	0.00
409.49	0.00
409.68	0.00
409.87	0.00
410.07	0.00
410.26	0.00
410.45	0.00
410.64	0.00
410.83	0.00
411.02	0.00
411.21	0.00
411.40	0.00
411.59	0.00
411.78	0.00
411.98	0.00
412.17	0.00
412.36	0.00
412.55	0.00
412.74	0.00
412.93	0.00
413.12	0.00
413.31	0.00
413.50	0.00
413.69	0.00
413.88	0.00
414.07	0.00
414.26	0.00
414.45	0.00
414.64	0.00
414.83	0.00
415.02	0.00
415.22	0.00
415.41	0.00
415.60	0.00
415.79	0.00
415.98	0.00
416.17	0.00
416.36	0.00
416.55	0.00
416.74	0.00
416.93	0.00
417.12	0.00
417.31	0.00
417.50	0.00
417.69	0.00
417.88	0.00
418.07	0.00
418.26	0.00
418.45	0.00
418.64	0.00
418.83	0.00
419.02	0.00
419.21	0.00
419.39	0.00
419.58	0.00
419.77	0.00
419.96	0.00
420.15	0.00
420.34	0.00
420.53	0.00
420.72	0.00
420.91	0.00
421.10	0.00
421.29	0.00
421.48	0.00
421.67	0.00
421.86	0.00
422.05	0.00
422.24	0.00
422.43	0.00
422.61	0.00
422.80	0.00
422.99	0.00
423.18	0.00
423.37	0.00
423.56	0.00
423.75	0.00
423.94	0.00
424.13	0.00
424.32	0.00
424.50	0.00
424.69	0.00
424.88	0.00
425.07	0.00
425.26	0.00
425.45	0.00
425.64	0.00
425.83	0.00
426.01	0.00
426.20	0.00
426.39	0.00
426.58	0.00
426.77	0.00
426.96	0.00
427.15	0.00
427.33	0.00
427.52	0.00
427.71	0.00
427.90	0.00
428.09	0.00
428.28	0.00
428.46	0.00
428.65	0.00
428.84	0.00
429.03	0.00
429.22	0.00
429.40	0.00
429.59	0.00
429.78	0.00
429.97	0.00
430.16	0.00
430.34	0.00
430.53	0.00
430.72	0.00
430.91	0.00
431.10	0.00
431.28	0.00
431.47	0.00
431.66	0.00
431.85	0.00
432.03	0.00
432.22	14.04
432.41	0.00
432.60	0.00
432.79	0.00
432.97	0.00
433.16	0.00
433.35	0.00
433.54	0.00
433.72	0.00
433.91	0.00
434.10	0.00
434.28	0.00
434.47	0.00
434.66	0.00
434.85	0.00
435.03	0.00
435.22	0.00
435.41	0.00
435.59	0.00
435.78	0.00
435.97	0.00
436.16	0.00
436.34	0.00
436.53	0.00
436.72	0.00
436.90	0.00
437.09	0.00
437.28	0.00
437.46	0.00
437.65	0.00
437.84	0.00
438.02	0.00
438.21	0.00
438.40	0.00
438.58	0.00
438.77	0.00
438.96	0.00
439.14	0.00
439.33	0.00
439.52	0.00
439.70	0.00
439.89	0.00
440.08	0.00
440.26	0.00
440.45	0.00
440.63	0.00
440.82	0.00
441.01	0.00
441.19	0.00
441.38	0.00
441.57	0.00
441.75	0.00
441.94	0.00
442.12	0.00
442.31	0.00
442.50	0.00
442.68	0.00
442.87	0.00
443.05	0.00
443.24	0.00
443.43	0.00
443.61	0.00
443.80	0.00
443.98	0.00
444.17	0.00
444.35	0.00
444.54	0.00
444.73	0.00
444.91	0.00
445.10	0.00
445.28	0.00
445.47	0.00
445.65	0.00
445.84	0.00
446.02	0.00
446.21	0.00
446.39	0.00
446.58	0.00
446.77	0.00
446.95	0.00
447.14	0.00
447.32	0.00
447.51	0.00
447.69	0.00
447.88	0.00
448.06	0.00
448.25	0.00
448.43	0.00
448.62	0.00
448.80	0.00
448.99	21.06
449.17	0.00
449.36	0.00
449.54	0.00
449.73	0.00
449.91	0.00
450.10	0.00
450.28	0.00
450.46	58.51
450.65	0.00
450.83	0.00
451.02	0.00
451.20	0.00
451.39	0.00
451.57	0.00
451.76	25.75
451.94	0.00
452.13	0.00
452.31	60.85
452.49	0.00
452.68	0.00
452.86	0.00
453.05	0.00
453.23	0.00
453.42	0.00
453.60	0.00
453.78	0.00
453.97	0.00
454.15	0.00
454.34	0.00
454.52	0.00
454.70	0.00
454.89	0.00
455.07	0.00
455.26	0.00
455.44	0.00
455.62	0.00
455.81	0.00
455.99	0.00
456.17	0.00
456.36	0.00
456.54	0.00
456.73	0.00
456.91	0.00
457.09	0.00
457.28	0.00
457.46	0.00
457.64	0.00
457.83	0.00
458.01	0.00
458.19	0.00
458.38	0.00
458.56	0.00
458.74	0.00
458.93	0.00
459.11	35.11
459.29	0.00
459.48	0.00
459.66	58.51
459.84	18.72
460.03	77.24
460.21	0.00
460.39	0.00
460.57	0.00
460.76	0.00
460.94	0.00
461.12	9.36
461.31	7.02
461.49	0.00
461.67	0.00
461.85	0.00
462.04	0.00
462.22	582.79
462.40	0.00
462.59	56.17
462.77	0.00
462.95	0.00
463.13	0.00
463.32	16.38
463.50	0.00
463.68	0.00
463.86	0.00
464.05	0.00
464.23	63.19
464.41	2.34
464.59	0.00
464.78	0.00
464.96	7.02
465.14	0.00
465.32	0.00
465.50	0.00
465.69	0.00
465.87	0.00
466.05	0.00
466.23	0.00
466.41	0.00
466.60	0.00
466.78	0.00
466.96	23.41
467.14	0.00
467.32	0.00
467.51	25.75
467.69	42.13
467.87	0.00
468.05	37.45
468.23	44.47
468.41	0.00
468.60	0.00
468.78	0.00
468.96	67.88
469.14	49.15
469.32	0.00
469.50	0.00
469.69	0.00
469.87	0.00
470.05	28.09
470.23	18.72
470.41	0.00
470.59	7.02
470.77	0.00
470.95	0.00
471.14	25.75
471.32	35.11
471.50	77.24
471.68	0.00
471.86	65.54
472.04	0.00
472.22	37.45
472.40	0.00
472.58	0.00
472.77	0.00
472.95	79.58
473.13	39.79
473.31	30.43
473.49	0.00
473.67	0.00
473.85	11.70
474.03	42.13
474.21	79.58
474.39	46.81
474.57	100.64
474.75	23.41
474.93	0.00
475.12	0.00
475.30	0.00
475.48	0.00
475.66	0.00
475.84	25.75
476.02	0.00
476.20	7.02
476.38	51.49
476.56	86.60
476.74	60.85
476.92	0.00
477.10	46.81
477.28	42.13
477.46	53.83
477.64	0.00
477.82	0.00
478.00	0.00
478.18	18.72
478.36	0.00
478.54	0.00
478.72	25.75
478.90	0.00
479.08	107.66
479.26	84.26
479.44	86.60
479.62	0.00
479.80	23.41
479.98	39.79
480.16	0.00
480.34	21.06
480.52	72.56
480.70	63.19
480.88	0.00
481.06	53.83
481.24	0.00
481.41	30.43
481.59	77.24
481.77	18.72
481.95	18.72
482.13	110.01
482.31	81.92
482.49	51.49
482.67	7.02
482.85	53.83
483.03	102.98
483.21	35.11
483.39	67.88
483.57	91.28
483.74	72.56
483.92	117.03
484.10	18.72
484.28	65.54
484.46	177.88
484.64	23.41
484.82	44.47
485.00	112.35
485.18	18.72
485.35	110.01
485.53	0.00
485.71	91.28
485.89	2.34
486.07	0.00
486.25	105.32
486.43	100.64
486.61	98.30
486.78	0.00
486.96	65.54
487.14	16.38
487.32	46.81
487.50	0.00
487.68	119.37
487.85	79.58
488.03	142.77
488.21	112.35
488.39	119.37
488.57	124.05
488.75	81.92
488.92	444.70
489.10	124.05
489.28	168.52
489.46	102.98
489.64	135.75
489.81	140.43
489.99	222.35
490.17	161.50
490.35	236.39
490.53	100.64
490.70	105.32
490.88	112.35
491.06	81.92
491.24	156.82
491.41	128.73
491.59	112.35
491.77	86.60
491.95	177.88
492.13	161.50
492.30	159.16
492.48	145.11
492.66	238.73
492.84	98.30
493.01	128.73
493.19	131.07
493.37	173.20
493.54	161.50
493.72	128.73
493.90	149.79
494.08	152.13
494.25	177.88
494.43	88.94
494.61	156.82
494.79	161.50
494.96	198.95
495.14	208.31
495.32	196.60
495.49	215.33
495.67	119.37
495.85	147.45
496.02	156.82
496.20	95.96
496.38	210.65
496.55	208.31
496.73	234.05
496.91	154.48
497.09	133.41
497.26	187.24
497.44	210.65
497.62	248.10
497.79	149.79
497.97	133.41
498.14	224.69
498.32	191.92
498.50	173.20
498.67	98.30
498.85	133.41
499.03	147.45
499.20	241.08
499.38	224.69
499.56	320.65
499.73	259.80
499.91	304.27
500.08	187.24
500.26	168.52
500.44	124.05
500.61	210.65
500.79	255.12
500.97	215.33
501.14	212.99
501.32	173.20
501.49	173.20
501.67	124.05
501.84	154.48
502.02	194.26
502.20	283.20
502.37	191.92
502.55	156.82
502.72	194.26
502.90	229.37
503.07	166.18
503.25	241.08
503.43	184.90
503.60	163.84
503.78	163.84
503.95	105.32
504.13	196.60
504.30	187.24
504.48	168.52
504.65	180.22
504.83	180.22
505.01	152.13
505.18	215.33
505.36	294.91
505.53	273.84
505.71	149.79
505.88	238.73
506.06	205.97
506.23	163.84
506.41	180.22
506.58	276.18
506.76	224.69
506.93	173.20
507.11	180.22
507.28	245.76
507.46	203.63
507.63	285.55
507.81	170.86
507.98	194.26
508.16	161.50
508.33	238.73
508.50	271.50
508.68	173.20
508.85	220.01
509.03	184.90
509.20	273.84
509.38	269.16
509.55	262.14
509.73	201.29
509.90	236.39
510.08	212.99
510.25	304.27
510.42	205.97
510.60	173.20
510.77	252.78
510.95	306.61
511.12	308.95
511.30	320.65
511.47	257.46
511.64	259.80
511.82	301.93
511.99	231.71
512.17	205.97
512.34	243.42
512.51	147.45
512.69	212.99
512.86	294.91
513.04	248.10
513.21	285.55
513.38	177.88
513.56	203.63
513.73	257.46
513.90	248.10
514.08	135.75
514.25	205.97
514.43	306.61
514.60	194.26
514.77	241.08
514.95	318.31
515.12	227.03
515.29	241.08
515.47	234.05
515.64	259.80
515.81	255.12
515.99	248.10
516.16	241.08
516.33	156.82
516.51	212.99
516.68	191.92
516.85	152.13
517.03	135.75
517.20	152.13
517.37	278.52
517.54	315.97
517.72	224.69
517.89	222.35
518.06	177.88
518.24	311.29
518.41	362.78
518.58	276.18
518.75	243.42
518.93	264.48
519.10	320.65
519.27	196.60
519.45	217.67
519.62	149.79
519.79	243.42
519.96	224.69
520.14	227.03
520.31	327.68
520.48	196.60
520.65	283.20
520.83	245.76
521.00	308.95
521.17	290.23
521.34	266.82
521.52	252.78
521.69	287.89
521.86	238.73
522.03	184.90
522.20	252.78
522.38	241.08
522.55	299.59
522.72	294.91
522.89	325.33
523.07	271.50
523.24	259.80
523.41	269.16
523.58	369.80
523.75	304.27
523.92	280.86
524.10	304.27
524.27	339.38
524.44	166.18
524.61	250.44
524.78	332.36
524.96	376.83
525.13	292.57
525.30	330.02
525.47	269.16
525.64	222.35
525.81	285.55
525.98	252.78
526.16	287.89
526.33	297.25
526.50	241.08
526.67	215.33
526.84	168.52
527.01	187.24
527.18	299.59
527.36	285.55
527.53	299.59
527.70	330.02
527.87	278.52
528.04	355.76
528.21	269.16
528.38	334.70
528.55	341.72
528.72	390.87
528.89	404.91
529.07	276.18
529.24	297.25
529.41	287.89
529.58	238.73
529.75	234.05
529.92	365.12
530.09	355.76
530.26	304.27
530.43	341.72
530.60	341.72
530.77	327.68
530.94	285.55
531.11	369.80
531.28	313.63
531.46	369.80
531.63	346.40
531.80	301.93
531.97	360.44
532.14	285.55
532.31	365.12
532.48	294.91
532.65	322.99
532.82	220.01
532.99	269.16
533.16	346.40
533.33	278.52
533.50	220.01
533.67	297.25
533.84	299.59
534.01	355.76
534.18	294.91
534.35	243.42
534.52	227.03
534.69	369.80
534.86	397.89
535.03	344.06
535.20	313.63
535.37	372.15
535.54	404.91
535.71	346.40
535.88	372.15
536.05	278.52
536.22	301.93
536.38	313.63
536.55	313.63
536.72	299.59
536.89	325.33
537.06	325.33
537.23	313.63
537.40	374.49
537.57	332.36
537.74	334.70
537.91	374.49
538.08	308.95
538.25	381.51
538.42	337.04
538.59	238.73
538.75	332.36
538.92	285.55
539.09	369.80
539.26	313.63
539.43	320.65
539.60	299.59
539.77	313.63
539.94	318.31
540.11	285.55
540.28	372.15
540.44	285.55
540.61	238.73
540.78	278.52
540.95	273.84
541.12	379.17
541.29	346.40
541.46	397.89
541.62	304.27
541.79	351.08
541.96	341.72
542.13	294.91
542.30	306.61
542.47	318.31
542.63	297.25
542.80	365.12
542.97	355.76
543.14	266.82
543.31	320.65
543.48	276.18
543.64	411.93
543.81	313.63
543.98	341.72
544.15	341.72
544.32	285.55
544.48	325.33
544.65	276.18
544.82	353.42
544.99	327.68
545.16	430.66
545.32	344.06
545.49	334.70
545.66	372.15
545.83	402.57
546.00	250.44
546.16	346.40
546.33	351.08
546.50	437.68
546.67	407.25
546.83	332.36
547.00	355.76
547.17	252.78
547.34	320.65
547.50	290.23
547.67	330.02
547.84	360.44
548.00	362.78
548.17	245.76
548.34	280.86
548.51	351.08
548.67	348.74
548.84	301.93
549.01	313.63
549.18	390.87
549.34	388.53
549.51	280.86
549.68	372.15
549.84	262.14
550.01	262.14
550.18	447.04
550.34	388.53
550.51	327.68
550.68	372.15
550.84	294.91
551.01	390.87
551.18	308.95
551.34	360.44
551.51	271.50
551.68	346.40
551.84	374.49
552.01	276.18
552.18	339.38
552.34	330.02
552.51	234.05
552.68	294.91
552.84	395.55
553.01	210.65
553.18	301.93
553.34	278.52
553.51	231.71
553.67	301.93
553.84	346.40
554.01	404.91
554.17	362.78
554.34	383.85
554.51	325.33
554.67	386.19
554.84	358.10
555.00	341.72
555.17	425.98
555.33	381.51
555.50	341.72
555.67	224.69
555.83	334.70
556.00	259.80
556.16	564.07
556.33	362.78
556.50	339.38
556.66	355.76
556.83	330.02
556.99	287.89
557.16	358.10
557.32	433.00
557.49	376.83
557.65	414.27
557.82	301.93
557.98	234.05
558.15	308.95
558.32	257.46
558.48	262.14
558.65	287.89
558.81	257.46
558.98	238.73
559.14	337.04
559.31	327.68
559.47	383.85
559.64	386.19
559.80	339.38
559.97	304.27
560.13	344.06
560.30	224.69
560.46	315.97
560.63	344.06
560.79	308.95
560.96	280.86
561.12	294.91
561.29	299.59
561.45	257.46
561.61	315.97
561.78	433.00
561.94	306.61
562.11	318.31
562.27	311.29
562.44	231.71
562.60	259.80
562.77	344.06
562.93	353.42
563.10	332.36
563.26	306.61
563.42	280.86
563.59	327.68
563.75	259.80
563.92	365.12
564.08	376.83
564.24	348.74
564.41	332.36
564.57	320.65
564.74	318.31
564.90	367.46
565.07	334.70
565.23	365.12
565.39	269.16
565.56	334.70
565.72	252.78
565.88	297.25
566.05	276.18
566.21	292.57
566.38	311.29
566.54	362.78
566.70	411.93
566.87	273.84
567.03	278.52
567.19	344.06
567.36	315.97
567.52	337.04
567.68	294.91
567.85	360.44
568.01	332.36
568.17	229.37
568.34	318.31
568.50	299.59
568.66	252.78
568.83	451.72
568.99	243.42
569.15	379.17
569.32	334.70
569.48	278.52
569.64	353.42
569.81	280.86
569.97	330.02
570.13	301.93
570.30	362.78
570.46	325.33
570.62	320.65
570.78	294.91
570.95	168.52
571.11	409.59
571.27	308.95
571.43	299.59
571.60	383.85
571.76	248.10
571.92	325.33
572.09	365.12
572.25	416.62
572.41	358.10
572.57	353.42
572.74	428.32
572.90	320.65
573.06	341.72
573.22	393.21
573.38	353.42
573.55	409.59
573.71	334.70
573.87	367.46
574.03	250.44
574.20	294.91
574.36	379.17
574.52	227.03
574.68	299.59
574.84	353.42
575.01	266.82
575.17	379.17
575.33	318.31
575.49	234.05
575.65	280.86
575.82	313.63
575.98	390.87
576.14	231.71
576.30	337.04
576.46	299.59
576.62	332.36
576.79	276.18
576.95	348.74
577.11	273.84
577.27	376.83
577.43	402.57
577.59	299.59
577.75	315.97
577.92	304.27
578.08	278.52
578.24	287.89
578.40	327.68
578.56	299.59
578.72	351.08
578.88	344.06
579.04	283.20
579.21	292.57
579.37	341.72
579.53	337.04
579.69	330.02
579.85	304.27
580.01	365.12
580.17	297.25
580.33	339.38
580.49	362.78
580.65	280.86
580.82	337.04
580.98	241.08
581.14	301.93
581.30	299.59
581.46	351.08
581.62	334.70
581.78	318.31
581.94	262.14
582.10	341.72
582.26	379.17
582.42	308.95
582.58	325.33
582.74	259.80
582.90	262.14
583.06	327.68
583.22	301.93
583.38	292.57
583.54	411.93
583.70	285.55
583.86	273.84
584.02	330.02
584.18	264.48
584.34	259.80
584.50	365.12
584.66	304.27
584.82	248.10
584.98	320.65
585.14	292.57
585.30	348.74
585.46	322.99
585.62	215.33
585.78	285.55
585.94	294.91
586.10	205.97
586.26	297.25
586.42	433.00
586.58	315.97
586.74	299.59
586.90	276.18
587.06	369.80
587.22	360.44
587.38	395.55
587.54	210.65
587.70	287.89
587.86	294.91
588.02	264.48
588.18	264.48
588.34	330.02
588.49	189.58
588.65	154.48
588.81	194.26
588.97	210.65
589.13	154.48
589.29	241.08
589.45	266.82
589.61	203.63
589.77	285.55
589.93	351.08
590.08	243.42
590.24	292.57
590.40	285.55
590.56	313.63
590.72	266.82
590.88	264.48
591.04	280.86
591.20	173.20
591.35	311.29
591.51	304.27
591.67	297.25
591.83	238.73
591.99	262.14
592.15	327.68
592.31	236.39
592.46	285.55
592.62	381.51
592.78	259.80
592.94	283.20
593.10	318.31
593.26	255.12
593.41	227.03
593.57	297.25
593.73	337.04
593.89	241.08
594.05	243.42
594.20	194.26
594.36	308.95
594.52	149.79
594.68	311.29
594.84	259.80
594.99	346.40
595.15	304.27
595.31	330.02
595.47	346.40
595.62	346.40
595.78	271.50
595.94	315.97
596.10	290.23
596.25	334.70
596.41	313.63
596.57	327.68
596.73	271.50
596.88	227.03
597.04	201.29
597.20	227.03
597.36	301.93
597.51	205.97
597.67	229.37
597.83	304.27
597.99	311.29
598.14	248.10
598.30	404.91
598.46	280.86
598.61	243.42
598.77	318.31
598.93	187.24
599.09	236.39
599.24	304.27
599.40	327.68
599.56	252.78
599.71	294.91
599.87	269.16
600.03	290.23
600.18	229.37
600.34	297.25
600.50	306.61
600.65	212.99
600.81	290.23
600.97	220.01
601.12	278.52
601.28	327.68
601.44	241.08
601.59	259.80
601.75	252.78
601.91	229.37
602.06	245.76
602.22	379.17
602.37	194.26
602.53	175.54
602.69	311.29
602.84	327.68
603.00	313.63
603.16	248.10
603.31	313.63
603.47	259.80
603.62	198.95
603.78	243.42
603.94	266.82
604.09	318.31
604.25	304.27
604.40	252.78
604.56	271.50
604.71	250.44
604.87	273.84
605.03	241.08
605.18	248.10
605.34	210.65
605.49	238.73
605.65	285.55
605.80	217.67
605.96	299.59
606.12	257.46
606.27	313.63
606.43	337.04
606.58	351.08
606.74	264.48
606.89	294.91
607.05	231.71
607.20	315.97
607.36	257.46
607.51	217.67
607.67	308.95
607.82	318.31
607.98	294.91
608.13	210.65
608.29	262.14
608.44	297.25
608.60	325.33
608.75	297.25
608.91	269.16
609.06	252.78
609.22	196.60
609.37	241.08
609.53	262.14
609.68	187.24
609.84	236.39
609.99	184.90
610.15	224.69
610.30	278.52
610.46	245.76
610.61	271.50
610.76	196.60
610.92	269.16
611.07	224.69
611.23	430.66
611.38	231.71
611.54	201.29
611.69	231.71
611.84	222.35
612.00	243.42
612.15	212.99
612.31	238.73
612.46	191.92
612.62	149.79
612.77	269.16
612.92	264.48
613.08	245.76
613.23	266.82
613.39	119.37
613.54	184.90
613.69	210.65
613.85	170.86
614.00	173.20
614.15	215.33
614.31	234.05
614.46	145.11
614.62	170.86
614.77	259.80
614.92	205.97
615.08	161.50
615.23	222.35
615.38	308.95
615.54	217.67
615.69	262.14
615.84	91.28
616.00	248.10
616.15	222.35
616.30	262.14
616.46	210.65
616.61	131.07
616.76	231.71
616.92	215.33
617.07	173.20
617.22	191.92
617.37	217.67
617.53	182.56
617.68	198.95
617.83	220.01
617.99	184.90
618.14	320.65
618.29	271.50
618.45	269.16
618.60	224.69
618.75	163.84
618.90	168.52
619.06	196.60
619.21	234.05
619.36	304.27
619.51	198.95
619.67	315.97
619.82	152.13
619.97	248.10
620.12	259.80
620.28	243.42
620.43	273.84
620.58	220.01
620.73	236.39
620.89	201.29
621.04	271.50
621.19	257.46
621.34	191.92
621.49	98.30
621.65	294.91
621.80	100.64
621.95	217.67
622.10	259.80
622.25	227.03
622.41	58.51
622.56	208.31
622.71	86.60
622.86	184.90
623.01	163.84
623.16	163.84
623.32	166.18
623.47	217.67
