SpectraSuite Data File
++++++++++++++++++++++++++++++++++++
Date: Mon Oct 07 15:00:47 GMT-05:00 2013
User: price-jones
Dark Spectrum Present: No
Reference Spectrum Present: No
Number of Sampled Component Spectra: 1
Spectrometers: USB2+H05261
Integration Time (usec): 10000000 (USB2+H05261)
Spectra Averaged: 1 (USB2+H05261)
Boxcar Smoothing: 0 (USB2+H05261)
Correct for Electrical Dark: No (USB2+H05261)
Strobe/Lamp Enabled: No (USB2+H05261)
Correct for Detector Non-linearity: No (USB2+H05261)
Correct for Stray Light: No (USB2+H05261)
Number of Pixels in Processed Spectrum: 2048
>>>>>Begin Processed Spectral Data<<<<<
365.73	0.00
365.92	0.00
366.12	0.00
366.32	0.00
366.52	0.00
366.72	5776.44
366.91	3007.59
367.11	5696.86
367.31	4823.84
367.51	5507.28
367.70	6579.25
367.90	8727.86
368.10	6216.46
368.30	6310.08
368.49	3248.66
368.69	8353.37
368.89	5720.27
369.09	3489.74
369.28	5177.26
369.48	3056.74
369.68	4531.28
369.87	5902.83
370.07	3981.25
370.27	8559.34
370.47	6094.76
370.66	4603.83
370.86	6977.14
371.06	10181.33
371.25	12657.62
371.45	5413.66
371.65	8821.48
371.84	4526.60
372.04	3892.31
372.24	6239.87
372.44	5174.92
372.63	6717.34
372.83	11080.10
373.03	5664.10
373.22	4395.53
373.42	4725.54
373.62	5804.53
373.81	6979.48
374.01	8924.46
374.21	8535.93
374.40	5298.97
374.60	9399.59
374.79	5886.45
374.99	5528.35
375.19	6803.94
375.38	7492.05
375.58	6211.78
375.78	8889.35
375.97	7772.92
376.17	12610.81
376.37	5781.12
376.56	7101.19
376.76	4575.75
376.95	4751.29
377.15	7761.22
377.35	7138.63
377.54	7211.19
377.74	4711.50
377.93	4933.85
378.13	6574.56
378.33	8952.55
378.52	5937.94
378.72	8875.31
378.91	8154.43
379.11	5191.31
379.31	5172.58
379.50	3801.03
379.70	8877.65
379.89	8549.98
380.09	5308.34
380.28	4126.36
380.48	6008.16
380.68	4858.95
380.87	3726.13
381.07	6857.77
381.26	9298.95
381.46	4205.94
381.65	7552.91
381.85	5064.92
382.04	8004.63
382.24	7456.95
382.43	5919.21
382.63	4271.48
382.83	5528.35
383.02	8805.10
383.22	9893.44
383.41	4332.33
383.61	6270.30
383.80	9533.00
384.00	5928.58
384.19	5256.84
384.39	6345.19
384.58	5425.36
384.78	7232.26
384.97	6609.67
385.17	5802.19
385.36	5085.98
385.56	7929.74
385.75	3761.24
385.95	5659.42
386.14	8166.13
386.34	5107.05
386.53	6775.85
386.72	4884.70
386.92	9643.01
387.11	7288.43
387.31	7676.96
387.50	4636.60
387.70	4042.11
387.89	6310.08
388.09	4681.07
388.28	4402.55
388.48	4184.88
388.67	8173.15
388.86	5626.65
389.06	5593.88
389.25	6867.13
389.45	6712.66
389.64	5802.19
389.84	9142.13
390.03	7370.35
390.22	6703.29
390.42	5369.19
390.61	4266.80
390.81	3543.57
391.00	6036.24
391.19	8753.60
391.39	5724.95
391.58	7634.83
391.78	6029.22
391.97	6766.49
392.16	4154.45
392.36	9516.62
392.55	9029.79
392.75	5970.71
392.94	4938.53
393.13	7887.61
393.33	3946.14
393.52	4999.38
393.71	10040.90
393.91	6370.94
394.10	4065.51
394.29	4865.97
394.49	4844.91
394.68	6909.26
394.88	8877.65
395.07	8631.90
395.26	6284.34
395.46	6202.42
395.65	8912.76
395.84	7162.04
396.04	14839.00
396.23	5989.43
396.42	5289.61
396.62	7129.27
396.81	7297.79
397.00	6267.95
397.19	6595.63
397.39	5399.62
397.58	9706.20
397.77	5469.83
397.97	6169.65
398.16	6026.88
398.35	8039.74
398.55	4524.26
398.74	6071.35
398.93	8669.34
399.12	5310.68
399.32	7761.22
399.51	5738.99
399.70	7878.24
399.90	7250.98
400.09	7176.08
400.28	8940.85
400.47	5434.72
400.67	8655.30
400.86	6331.15
401.05	7880.58
401.24	9125.75
401.44	8011.65
401.63	8184.85
401.82	9081.28
402.01	4755.97
402.21	7084.80
402.40	7077.78
402.59	5706.23
402.78	5703.89
402.97	5907.51
403.17	6506.69
403.36	7213.53
403.55	6031.56
403.74	5809.21
403.93	6092.41
404.13	9277.88
404.32	5074.28
404.51	5336.42
404.70	8702.11
404.89	5804.53
405.09	11908.65
405.28	6448.18
405.47	4521.92
405.66	8152.09
405.85	9041.49
406.05	6499.67
406.24	6024.54
406.43	7194.81
406.62	7798.66
406.81	13345.73
407.00	9135.11
407.20	6883.52
407.39	6146.25
407.58	5804.53
407.77	7920.37
407.96	9919.19
408.15	8753.60
408.34	7962.50
408.54	7403.11
408.73	7040.33
408.92	6626.06
409.11	8664.66
409.30	9984.73
409.49	5144.50
409.68	6239.87
409.87	7321.20
410.07	5210.03
410.26	7185.44
410.45	6179.01
410.64	5242.80
410.83	6843.73
411.02	5811.55
411.21	8252.73
411.40	8788.71
411.59	6396.68
411.78	5804.53
411.98	6691.59
412.17	5018.11
412.36	6190.72
412.55	6022.20
412.74	8659.98
412.93	12135.68
413.12	5678.14
413.31	9352.78
413.50	7943.78
413.69	6647.12
413.88	10820.30
414.07	7480.35
414.26	7173.74
414.45	6080.71
414.64	7999.95
414.83	8124.00
415.02	7798.66
415.22	8943.19
415.41	10326.44
415.60	5722.61
415.79	6916.28
415.98	10796.89
416.17	7218.21
416.36	7213.53
416.55	5900.49
416.74	8865.95
416.93	9837.27
417.12	6930.33
417.31	6820.32
417.50	6944.37
417.69	11953.12
417.88	7382.05
418.07	5191.31
418.26	6574.56
418.45	6773.51
418.64	11583.31
418.83	8013.99
419.02	8091.23
419.21	7403.11
419.39	7815.05
419.58	5849.00
419.77	5898.15
419.96	9729.61
420.15	11702.68
420.34	7276.73
420.53	8058.46
420.72	9568.11
420.91	7971.86
421.10	7524.82
421.29	8072.51
421.48	8842.54
421.67	9858.34
421.86	6450.52
422.05	7208.85
422.24	6867.13
422.43	7948.46
422.61	5238.12
422.80	6857.77
422.99	7623.12
423.18	6485.62
423.37	10960.73
423.56	9004.04
423.75	8997.02
423.94	5514.30
424.13	7290.77
424.32	6204.76
424.50	6890.54
424.69	7183.10
424.88	11037.97
425.07	6698.61
425.26	8528.91
425.45	8954.89
425.64	5865.38
425.83	6738.40
426.01	10492.62
426.20	8444.65
426.39	6717.34
426.58	6363.92
426.77	7852.50
426.96	8978.30
427.15	8402.52
427.33	6647.12
427.52	7903.99
427.71	7573.97
427.90	8271.45
428.09	6567.54
428.28	5699.20
428.46	6883.52
428.65	8922.12
428.84	6696.27
429.03	11932.05
429.22	6778.19
429.40	5703.89
429.59	5399.62
429.78	10022.17
429.97	6710.32
430.16	5951.98
430.34	6796.92
430.53	6443.49
430.72	6878.83
430.91	10073.67
431.10	5547.07
431.28	7372.69
431.47	9502.58
431.66	8809.78
431.85	6464.56
432.03	7339.92
432.22	14750.06
432.41	7428.86
432.60	11183.08
432.79	6118.16
432.97	7770.58
433.16	7054.37
433.35	5919.21
433.54	6609.67
433.72	9397.25
433.91	9926.21
434.10	6761.81
434.28	8439.97
434.47	7061.40
434.66	10087.71
434.85	6808.62
435.03	8091.23
435.22	12468.03
435.41	12791.03
435.59	9579.81
435.78	8830.84
435.97	6581.59
436.16	10059.62
436.34	7742.49
436.53	8730.20
436.72	10752.42
436.90	10019.83
437.09	8957.23
437.28	8093.57
437.46	7290.77
437.65	9841.95
437.84	9680.46
438.02	8713.81
438.21	9537.68
438.40	7082.46
438.58	5961.34
438.77	8334.65
438.96	8587.43
439.14	6368.60
439.33	10078.35
439.52	7321.20
439.70	8173.15
439.89	10352.19
440.08	8809.78
440.26	8571.04
440.45	12868.27
440.63	9177.24
440.82	8587.43
441.01	8819.14
441.19	7716.75
441.38	8042.08
441.57	8163.79
441.75	11690.98
441.94	11641.82
442.12	8624.87
442.31	7712.07
442.50	8060.80
442.68	7850.16
442.87	8458.70
443.05	7885.26
443.24	8842.54
443.43	10122.82
443.61	12348.67
443.80	8685.73
443.98	7403.11
444.17	7882.92
444.35	11101.16
444.54	8264.43
444.73	8098.25
444.91	11992.90
445.10	6827.34
445.28	7566.95
445.47	9104.68
445.65	8685.73
445.84	7314.17
446.02	8924.46
446.21	7976.55
446.39	7712.07
446.58	9504.92
446.77	7517.80
446.95	8376.78
447.14	9989.41
447.32	12854.22
447.51	8800.41
447.69	9341.08
447.88	9198.31
448.06	13240.41
448.25	9804.50
448.43	7166.72
448.62	7030.97
448.80	9294.27
448.99	10698.59
449.17	7548.23
449.36	7705.04
449.54	10899.87
449.73	7176.08
449.91	10256.23
450.10	7892.29
450.28	15571.58
450.46	14712.61
450.65	11658.21
450.83	9774.08
451.02	8882.33
451.20	8875.31
451.39	8629.56
451.57	8276.13
451.76	7831.43
451.94	8858.93
452.13	10420.06
452.31	11939.07
452.49	10258.57
452.68	6902.24
452.86	9603.22
453.05	13996.40
453.23	9057.87
453.42	6778.19
453.60	8477.42
453.78	9776.42
453.97	7143.32
454.15	6932.67
454.34	7623.12
454.52	7440.56
454.70	12809.75
454.89	10913.92
455.07	7534.18
455.26	10401.34
455.44	11227.55
455.62	8212.94
455.81	9568.11
455.99	10305.38
456.17	10604.97
456.36	8709.13
456.54	8517.21
456.73	7953.14
456.91	8093.57
457.09	10162.61
457.28	12257.39
457.46	9062.55
457.64	11630.12
457.83	8575.72
458.01	7730.79
458.19	9933.23
458.38	8121.66
458.56	9806.84
458.74	7155.02
458.93	9877.06
459.11	11602.04
459.29	7602.06
459.48	10775.83
459.66	14249.18
459.84	11117.54
460.03	20739.49
460.21	11295.43
460.39	8947.87
460.57	12774.64
460.76	9886.42
460.94	9507.26
461.12	14120.45
461.31	13008.70
461.49	8835.52
461.67	8575.72
461.85	9900.47
462.04	8894.04
462.22	35999.78
462.40	10448.15
462.59	12652.94
462.77	8205.92
462.95	10043.24
463.13	7059.06
463.32	11808.00
463.50	9743.65
463.68	10497.30
463.86	9668.75
464.05	8566.36
464.23	12805.07
464.41	10764.12
464.59	7967.18
464.78	8315.92
464.96	7164.38
465.14	9898.13
465.32	8039.74
465.50	10885.83
465.69	11136.27
465.87	7283.75
466.05	10857.75
466.23	6799.26
466.41	8774.67
466.60	8835.52
466.78	9296.61
466.96	12107.59
467.14	9991.75
467.32	12601.44
467.51	10881.15
467.69	10951.37
467.87	13949.59
468.05	9362.14
468.23	14888.15
468.41	11887.58
468.60	9053.19
468.78	10160.27
468.96	12973.59
469.14	10897.53
469.32	6902.24
469.50	7698.02
469.69	10721.99
469.87	9881.74
470.05	9741.31
470.23	8954.89
470.41	7604.40
470.59	8039.74
470.77	9991.75
470.95	9415.98
471.14	12505.48
471.32	9200.65
471.50	13839.59
471.68	9905.15
471.86	10445.81
472.04	7971.86
472.22	9738.97
472.40	7272.04
472.58	8128.68
472.77	7637.17
472.95	9174.90
473.13	15147.95
473.31	13324.67
473.49	7372.69
473.67	8100.59
473.85	11431.18
474.03	11606.72
474.21	9769.40
474.39	13415.95
474.57	14831.97
474.75	10623.69
474.93	8383.80
475.12	7290.77
475.30	8564.02
475.48	9708.54
475.66	10104.09
475.84	9694.50
476.02	9439.38
476.20	11934.39
476.38	9987.07
476.56	17006.33
476.74	9514.28
476.92	9565.77
477.10	9516.62
477.28	11871.20
477.46	9593.86
477.64	11391.39
477.82	10038.56
478.00	9603.22
478.18	10485.60
478.36	9767.06
478.54	8795.73
478.72	9418.32
478.90	9748.33
479.08	11222.87
479.26	10417.72
479.44	9394.91
479.62	8299.54
479.80	9666.41
479.98	8432.95
480.16	9090.64
480.34	12601.44
480.52	8926.80
480.70	11810.34
480.88	8814.46
481.06	8622.53
481.24	9439.38
481.41	9802.16
481.59	11712.04
481.77	10820.30
481.95	10054.94
482.13	15456.90
482.31	10658.80
482.49	8917.44
482.67	12095.89
482.85	12627.19
483.03	11920.35
483.21	11239.25
483.39	9572.79
483.57	10265.59
483.74	14883.47
483.92	10504.32
484.10	8807.44
484.28	13331.69
484.46	17942.55
484.64	9703.86
484.82	10836.68
485.00	9816.21
485.18	10895.19
485.35	11302.45
485.53	7892.29
485.71	13998.74
485.89	7527.16
486.07	9610.24
486.25	17525.93
486.43	12631.87
486.61	12896.35
486.78	12397.82
486.96	8631.90
487.14	10619.01
487.32	10216.44
487.50	10434.11
487.68	13310.63
487.85	9254.48
488.03	12823.80
488.21	15220.50
488.39	11089.46
488.57	13144.45
488.75	10384.96
488.92	43332.68
489.10	12283.13
489.28	17179.53
489.46	9795.14
489.64	11538.84
489.81	11826.73
489.99	13699.16
490.17	11262.66
490.35	20269.04
490.53	11061.37
490.70	9905.15
490.88	14064.28
491.06	10897.53
491.24	13453.40
491.41	16320.56
491.59	13109.34
491.77	10043.24
491.95	9893.44
492.13	10363.89
492.30	12362.71
492.48	11513.10
492.66	12465.69
492.84	10881.15
493.01	13046.15
493.19	10824.98
493.37	17291.88
493.54	14242.16
493.72	13589.15
493.90	11653.53
494.08	11346.92
494.25	13968.32
494.43	13121.04
494.61	11716.72
494.79	10644.76
494.96	10504.32
495.14	14141.52
495.32	11623.10
495.49	13214.66
495.67	13130.41
495.85	11737.79
496.02	10923.28
496.20	15105.82
496.38	14244.50
496.55	12982.95
496.73	14066.62
496.91	11325.85
497.09	15005.17
497.26	12578.04
497.44	12507.82
497.62	12482.08
497.79	12561.66
497.97	13942.57
498.14	14160.24
498.32	13715.54
498.50	13678.09
498.67	11950.78
498.85	13755.33
499.03	12386.12
499.20	13287.22
499.38	13238.07
499.56	12882.31
499.73	18932.59
499.91	15311.78
500.08	15150.29
500.26	12559.31
500.44	11707.36
500.61	13750.65
500.79	11878.22
500.97	14796.87
501.14	17392.52
501.32	13579.79
501.49	16702.06
501.67	12723.15
501.84	14279.61
502.02	11154.99
502.20	18855.36
502.37	14314.72
502.55	12554.63
502.72	12905.71
502.90	15496.69
503.07	13977.68
503.25	14434.08
503.43	11035.63
503.60	12208.23
503.78	14078.32
503.95	13207.64
504.13	12386.12
504.30	15246.25
504.48	16554.61
504.65	17600.83
504.83	15433.49
505.01	12498.46
505.18	13771.71
505.36	13294.24
505.53	13310.63
505.71	12461.01
505.88	17509.55
506.06	13305.95
506.23	13092.96
506.41	12528.89
506.58	14719.63
506.76	14197.69
506.93	12685.70
507.11	15187.74
507.28	11705.02
507.46	12437.61
507.63	13858.31
507.81	11632.46
507.98	13537.66
508.16	13612.56
508.33	13465.10
508.50	15262.63
508.68	13912.14
508.85	14148.54
509.03	12603.78
509.20	13029.76
509.38	15356.25
509.55	16533.54
509.73	16318.22
509.90	17444.01
510.08	12236.32
510.25	16145.02
510.42	12362.71
510.60	13727.24
510.77	15770.53
510.95	16695.04
511.12	12961.89
511.30	15653.50
511.47	15845.43
511.64	19047.28
511.82	13214.66
511.99	13460.42
512.17	13202.96
512.34	12107.59
512.51	12798.05
512.69	13137.43
512.86	17844.24
513.04	12418.88
513.21	14532.39
513.38	12681.02
513.56	12781.67
513.73	12994.65
513.90	11559.91
514.08	11662.89
514.25	14345.14
514.43	14953.68
514.60	11690.98
514.77	12531.23
514.95	14647.07
515.12	12343.99
515.29	14925.60
515.47	14726.65
515.64	14324.08
515.81	13696.82
515.99	18078.30
516.16	15138.58
516.33	16477.37
516.51	11826.73
516.68	10991.16
516.85	12470.37
517.03	12381.43
517.20	15407.75
517.37	14841.34
517.54	15653.50
517.72	12975.93
517.89	10871.79
518.06	11527.14
518.24	19674.54
518.41	19056.64
518.58	15548.18
518.75	12077.16
518.93	14293.65
519.10	14307.69
519.27	12865.92
519.45	14134.50
519.62	14532.39
519.79	15396.04
519.96	11932.05
520.14	14539.41
520.31	17490.82
520.48	13926.19
520.65	14792.19
520.83	16098.20
521.00	15995.22
521.17	17369.12
521.34	13415.95
521.52	14609.62
521.69	14359.19
521.86	14167.26
522.03	16175.44
522.20	19358.57
522.38	13071.89
522.55	15040.28
522.72	11953.12
522.89	16720.79
523.07	20271.38
523.24	14366.21
523.41	13596.17
523.58	13586.81
523.75	14157.90
523.92	13029.76
524.10	15639.46
524.27	14457.49
524.44	13680.43
524.61	18394.27
524.78	13322.33
524.96	16301.83
525.13	15126.88
525.30	17661.68
525.47	17046.12
525.64	15030.92
525.81	15236.89
525.98	15140.93
526.16	13329.35
526.33	12430.59
526.50	11845.45
526.67	11372.66
526.84	11791.62
527.01	12299.52
527.18	15419.45
527.36	14310.04
527.53	12573.36
527.70	17762.33
527.87	14356.85
528.04	19484.96
528.21	13303.60
528.38	17596.15
528.55	18122.77
528.72	18726.63
528.89	21025.03
529.07	14621.33
529.24	14810.91
529.41	19403.04
529.58	14991.13
529.75	13572.77
529.92	16362.69
530.09	14981.77
530.26	17324.65
530.43	16177.78
530.60	15262.63
530.77	15091.77
530.94	16798.02
531.11	16259.70
531.28	14303.01
531.46	13369.14
531.63	15346.89
531.80	15742.44
531.97	16283.11
532.14	14420.04
532.31	15063.69
532.48	15124.54
532.65	15477.96
532.82	12627.19
532.99	14059.60
533.16	14504.30
533.33	14827.29
533.50	14073.64
533.67	12716.13
533.84	15983.52
534.01	14981.77
534.18	14043.21
534.35	15138.58
534.52	15552.86
534.69	21460.37
534.86	14834.32
535.03	14183.65
535.20	14375.57
535.37	18188.30
535.54	15697.97
535.71	14497.28
535.88	19122.18
536.05	14218.75
536.22	16278.43
536.38	14045.55
536.55	15576.27
536.72	17846.58
536.89	12528.89
537.06	13392.55
537.23	13015.72
537.40	13612.56
537.57	13446.38
537.74	17011.01
537.91	16383.75
538.08	14862.40
538.25	16318.22
538.42	13872.36
538.59	15133.90
538.75	14232.80
538.92	14974.75
539.09	17254.43
539.26	14143.86
539.43	18640.03
539.60	14761.76
539.77	15882.88
539.94	14396.64
540.11	15824.36
540.28	19040.26
540.44	18679.82
540.61	14342.80
540.78	14169.60
540.95	12954.87
541.12	19950.73
541.29	13635.96
541.46	19323.46
541.62	15580.95
541.79	13242.75
541.96	12989.97
542.13	14022.15
542.30	12856.56
542.47	17064.85
542.63	13977.68
542.80	15669.89
542.97	18422.36
543.14	14574.52
543.31	16311.19
543.48	14579.20
543.64	16126.29
543.81	14984.11
543.98	13261.48
544.15	12720.81
544.32	14272.59
544.48	14640.05
544.65	13949.59
544.82	13231.05
544.99	14398.98
545.16	18232.77
545.32	13600.85
545.49	16053.73
545.66	14675.16
545.83	13167.85
546.00	12479.74
546.16	13701.50
546.33	13980.02
546.50	14487.92
546.67	18569.81
546.83	17158.47
547.00	14850.70
547.17	12575.70
547.34	12638.89
547.50	14368.55
547.67	14544.09
547.84	13128.06
548.00	16786.32
548.17	13806.82
548.34	13781.07
548.51	19634.75
548.67	17869.99
548.84	14209.39
549.01	15379.66
549.18	15393.70
549.34	15585.63
549.51	15435.83
549.68	15747.12
549.84	15007.52
550.01	12538.25
550.18	31094.02
550.34	23438.12
550.51	15108.16
550.68	20357.98
550.84	13516.59
551.01	15393.70
551.18	16959.52
551.34	14846.02
551.51	14281.95
551.68	14349.82
551.84	16713.77
552.01	13177.22
552.18	13783.41
552.34	15124.54
552.51	14911.55
552.68	16573.33
552.84	13647.66
553.01	15337.53
553.18	17352.73
553.34	13834.91
553.51	12453.99
553.67	16175.44
553.84	20741.83
554.01	16613.12
554.17	16308.85
554.34	12931.46
554.51	16243.32
554.67	17977.65
554.84	16835.47
555.00	15674.57
555.17	15419.45
555.33	17804.46
555.50	15133.90
555.67	15676.91
555.83	12702.09
556.00	14785.16
556.16	36992.17
556.33	15325.83
556.50	14354.51
556.66	14335.78
556.83	13184.24
556.99	13437.02
557.16	14939.64
557.32	13305.95
557.49	13502.55
557.65	13163.17
557.82	13369.14
557.98	14581.54
558.15	12863.58
558.32	13956.61
558.48	13280.20
558.65	13699.16
558.81	16030.33
558.98	13224.03
559.14	16201.19
559.31	14565.15
559.47	16315.87
559.64	13198.28
559.80	16936.12
559.97	12238.66
560.13	14352.16
560.30	11866.52
560.46	13268.50
560.63	13390.20
560.79	14085.34
560.96	14555.79
561.12	12947.84
561.29	15419.45
561.45	13565.74
561.61	14136.84
561.78	25448.64
561.94	13528.30
562.11	13233.39
562.27	14843.68
562.44	12402.50
562.60	13755.33
562.77	13490.85
562.93	22317.01
563.10	15014.54
563.26	13958.96
563.42	17137.40
563.59	14719.63
563.75	12334.62
563.92	18064.25
564.08	14633.03
564.24	16720.79
564.41	20287.76
564.57	11770.55
564.74	12779.32
564.90	14675.16
565.07	16093.52
565.23	16184.80
565.39	12662.30
565.56	15337.53
565.72	12346.33
565.88	13593.83
566.05	13036.78
566.21	13226.37
566.38	15548.18
566.54	14558.13
566.70	12870.61
566.87	12571.02
567.03	11178.40
567.19	13884.06
567.36	15044.96
567.52	13170.19
567.68	15506.05
567.85	15506.05
568.01	13160.83
568.17	11405.43
568.34	13303.60
568.50	17338.69
568.66	11602.04
568.83	22555.74
568.99	12217.60
569.15	16058.42
569.32	13151.47
569.48	13427.65
569.64	11822.05
569.81	13781.07
569.97	12461.01
570.13	15379.66
570.30	12650.60
570.46	13039.12
570.62	12856.56
570.78	12943.16
570.95	10738.38
571.11	18602.58
571.27	18523.00
571.43	11122.23
571.60	15508.39
571.76	12133.34
571.92	13523.62
572.09	12912.74
572.25	13488.51
572.41	13720.22
572.57	13179.56
572.74	19520.07
572.90	15613.71
573.06	13954.27
573.22	15012.20
573.38	16730.15
573.55	15583.29
573.71	16404.81
573.87	15169.01
574.03	11681.61
574.20	12732.51
574.36	16727.81
574.52	12353.35
574.68	12351.01
574.84	14714.95
575.01	12851.88
575.17	14686.86
575.33	12191.85
575.49	16519.50
575.65	16107.57
575.82	15721.38
575.98	20568.63
576.14	13303.60
576.30	12971.25
576.46	13160.83
576.62	13724.90
576.79	14860.06
576.95	17366.78
577.11	11761.19
577.27	11267.34
577.43	16847.18
577.59	17341.03
577.75	14796.87
577.92	12571.02
578.08	12367.39
578.24	11260.32
578.40	16334.60
578.56	17039.10
578.72	17209.96
578.88	15410.09
579.04	12411.86
579.21	14340.46
579.37	12767.62
579.53	12662.30
579.69	15964.79
579.85	11002.86
580.01	14555.79
580.17	11943.75
580.33	12348.67
580.49	13659.37
580.65	14403.66
580.82	13184.24
580.98	11754.17
581.14	11836.09
581.30	16648.23
581.46	13364.46
581.62	15997.56
581.78	11871.20
581.94	14691.54
582.10	10597.95
582.26	12704.43
582.42	11779.92
582.58	14452.81
582.74	12016.31
582.90	13724.90
583.06	13970.66
583.22	13671.07
583.38	11929.71
583.54	11220.53
583.70	17130.38
583.86	13680.43
584.02	12613.15
584.18	17542.32
584.34	11950.78
584.50	13128.06
584.66	12067.80
584.82	11077.76
584.98	13561.06
585.14	12491.44
585.30	15927.35
585.46	12580.38
585.62	10604.97
585.78	12245.68
585.94	14476.21
586.10	12786.35
586.26	13336.37
586.42	18394.27
586.58	14349.82
586.74	12709.11
586.90	12828.48
587.06	14005.77
587.22	13387.86
587.38	10984.13
587.54	11796.30
587.70	15772.87
587.86	15166.67
588.02	11943.75
588.18	13455.74
