SpectraSuite Data File
++++++++++++++++++++++++++++++++++++
Date: Mon Oct 07 14:59:55 GMT-05:00 2013
User: price-jones
Dark Spectrum Present: No
Reference Spectrum Present: No
Number of Sampled Component Spectra: 1
Spectrometers: USB2+H05261
Integration Time (usec): 100000 (USB2+H05261)
Spectra Averaged: 1 (USB2+H05261)
Boxcar Smoothing: 0 (USB2+H05261)
Correct for Electrical Dark: No (USB2+H05261)
Strobe/Lamp Enabled: No (USB2+H05261)
Correct for Detector Non-linearity: No (USB2+H05261)
Correct for Stray Light: No (USB2+H05261)
Number of Pixels in Processed Spectrum: 2048
>>>>>Begin Processed Spectral Data<<<<<
365.73	0.00
365.92	0.00
366.12	0.00
366.32	0.00
366.52	0.00
366.72	0.00
366.91	0.00
367.11	0.00
367.31	0.00
367.51	0.00
367.70	0.00
367.90	0.00
368.10	0.00
368.30	0.00
368.49	0.00
368.69	0.00
368.89	0.00
369.09	0.00
369.28	0.00
369.48	0.00
369.68	0.00
369.87	0.00
370.07	0.00
370.27	0.00
370.47	0.00
370.66	0.00
370.86	0.00
371.06	0.00
371.25	0.00
371.45	0.00
371.65	0.00
371.84	0.00
372.04	0.00
372.24	0.00
372.44	0.00
372.63	0.00
372.83	0.00
373.03	0.00
373.22	0.00
373.42	0.00
373.62	0.00
373.81	0.00
374.01	0.00
374.21	0.00
374.40	0.00
374.60	0.00
374.79	0.00
374.99	0.00
375.19	0.00
375.38	0.00
375.58	0.00
375.78	0.00
375.97	0.00
376.17	0.00
376.37	0.00
376.56	0.00
376.76	0.00
376.95	0.00
377.15	0.00
377.35	0.00
377.54	0.00
377.74	0.00
377.93	0.00
378.13	0.00
378.33	0.00
378.52	0.00
378.72	0.00
378.91	0.00
379.11	0.00
379.31	0.00
379.50	0.00
379.70	0.00
379.89	0.00
380.09	0.00
380.28	0.00
380.48	0.00
380.68	0.00
380.87	0.00
381.07	0.00
381.26	0.00
381.46	0.00
381.65	0.00
381.85	0.00
382.04	0.00
382.24	0.00
382.43	0.00
382.63	0.00
382.83	0.00
383.02	0.00
383.22	0.00
383.41	0.00
383.61	0.00
383.80	0.00
384.00	0.00
384.19	0.00
384.39	0.00
384.58	0.00
384.78	0.00
384.97	0.00
385.17	0.00
385.36	0.00
385.56	0.00
385.75	0.00
385.95	0.00
386.14	0.00
386.34	0.00
386.53	0.00
386.72	0.00
386.92	0.00
387.11	0.00
387.31	0.00
387.50	0.00
387.70	0.00
387.89	0.00
388.09	0.00
388.28	0.00
388.48	0.00
388.67	0.00
388.86	0.00
389.06	0.00
389.25	0.00
389.45	0.00
389.64	0.00
389.84	0.00
390.03	0.00
390.22	0.00
390.42	0.00
390.61	0.00
390.81	0.00
391.00	0.00
391.19	0.00
391.39	0.00
391.58	0.00
391.78	0.00
391.97	0.00
392.16	0.00
392.36	0.00
392.55	0.00
392.75	0.00
392.94	0.00
393.13	0.00
393.33	0.00
393.52	0.00
393.71	0.00
393.91	0.00
394.10	0.00
394.29	0.00
394.49	0.00
394.68	0.00
394.88	0.00
395.07	0.00
395.26	0.00
395.46	0.00
395.65	0.00
395.84	0.00
396.04	0.00
396.23	0.00
396.42	0.00
396.62	0.00
396.81	0.00
397.00	0.00
397.19	0.00
397.39	0.00
397.58	0.00
397.77	0.00
397.97	0.00
398.16	0.00
398.35	0.00
398.55	0.00
398.74	0.00
398.93	0.00
399.12	0.00
399.32	0.00
399.51	0.00
399.70	0.00
399.90	0.00
400.09	0.00
400.28	0.00
400.47	0.00
400.67	0.00
400.86	0.00
401.05	0.00
401.24	0.00
401.44	0.00
401.63	0.00
401.82	0.00
402.01	0.00
402.21	0.00
402.40	0.00
402.59	0.00
402.78	0.00
402.97	0.00
403.17	0.00
403.36	0.00
403.55	0.00
403.74	0.00
403.93	0.00
404.13	0.00
404.32	0.00
404.51	0.00
404.70	0.00
404.89	0.00
405.09	0.00
405.28	0.00
405.47	0.00
405.66	0.00
405.85	0.00
406.05	0.00
406.24	0.00
406.43	0.00
406.62	0.00
406.81	0.00
407.00	0.00
407.20	0.00
407.39	0.00
407.58	0.00
407.77	0.00
407.96	0.00
408.15	0.00
408.34	0.00
408.54	0.00
408.73	0.00
408.92	0.00
409.11	0.00
409.30	0.00
409.49	0.00
409.68	0.00
409.87	0.00
410.07	0.00
410.26	0.00
410.45	0.00
410.64	0.00
410.83	0.00
411.02	0.00
411.21	0.00
411.40	0.00
411.59	0.00
411.78	0.00
411.98	0.00
412.17	0.00
412.36	0.00
412.55	0.00
412.74	0.00
412.93	0.00
413.12	0.00
413.31	0.00
413.50	0.00
413.69	0.00
413.88	0.00
414.07	0.00
414.26	0.00
414.45	0.00
414.64	0.00
414.83	0.00
415.02	0.00
415.22	0.00
415.41	0.00
415.60	0.00
415.79	0.00
415.98	0.00
416.17	0.00
416.36	0.00
416.55	0.00
416.74	0.00
416.93	0.00
417.12	0.00
417.31	0.00
417.50	0.00
417.69	0.00
417.88	0.00
418.07	0.00
418.26	0.00
418.45	0.00
418.64	0.00
418.83	0.00
419.02	0.00
419.21	0.00
419.39	0.00
419.58	0.00
419.77	0.00
419.96	0.00
420.15	0.00
420.34	0.00
420.53	0.00
420.72	0.00
420.91	0.00
421.10	0.00
421.29	0.00
421.48	0.00
421.67	0.00
421.86	0.00
422.05	0.00
422.24	0.00
422.43	0.00
422.61	0.00
422.80	0.00
422.99	0.00
423.18	0.00
423.37	0.00
423.56	0.00
423.75	0.00
423.94	0.00
424.13	0.00
424.32	0.00
424.50	0.00
424.69	0.00
424.88	0.00
425.07	0.00
425.26	0.00
425.45	0.00
425.64	0.00
425.83	0.00
426.01	0.00
426.20	0.00
426.39	0.00
426.58	0.00
426.77	0.00
426.96	0.00
427.15	0.00
427.33	0.00
427.52	0.00
427.71	0.00
427.90	0.00
428.09	0.00
428.28	0.00
428.46	0.00
428.65	0.00
428.84	0.00
429.03	0.00
429.22	0.00
429.40	0.00
429.59	0.00
429.78	0.00
429.97	0.00
430.16	0.00
430.34	0.00
430.53	0.00
430.72	0.00
430.91	0.00
431.10	0.00
431.28	0.00
431.47	0.00
431.66	0.00
431.85	0.00
432.03	0.00
432.22	0.00
432.41	0.00
432.60	0.00
432.79	0.00
432.97	0.00
433.16	0.00
433.35	0.00
433.54	0.00
433.72	0.00
433.91	0.00
434.10	0.00
434.28	0.00
434.47	0.00
434.66	0.00
434.85	0.00
435.03	0.00
435.22	0.00
435.41	0.00
435.59	0.00
435.78	0.00
435.97	0.00
436.16	0.00
436.34	0.00
436.53	0.00
436.72	0.00
436.90	0.00
437.09	0.00
437.28	0.00
437.46	0.00
437.65	0.00
437.84	0.00
438.02	0.00
438.21	0.00
438.40	0.00
438.58	0.00
438.77	0.00
438.96	0.00
439.14	0.00
439.33	0.00
439.52	0.00
439.70	0.00
439.89	0.00
440.08	0.00
440.26	0.00
440.45	0.00
440.63	0.00
440.82	0.00
441.01	0.00
441.19	0.00
441.38	0.00
441.57	0.00
441.75	0.00
441.94	0.00
442.12	0.00
442.31	0.00
442.50	0.00
442.68	0.00
442.87	0.00
443.05	0.00
443.24	0.00
443.43	0.00
443.61	0.00
443.80	0.00
443.98	0.00
444.17	0.00
444.35	0.00
444.54	0.00
444.73	0.00
444.91	0.00
445.10	0.00
445.28	0.00
445.47	0.00
445.65	0.00
445.84	0.00
446.02	0.00
446.21	0.00
446.39	0.00
446.58	0.00
446.77	0.00
446.95	0.00
447.14	0.00
447.32	0.00
447.51	0.00
447.69	0.00
447.88	0.00
448.06	0.00
448.25	0.00
448.43	0.00
448.62	0.00
448.80	0.00
448.99	0.00
449.17	0.00
449.36	0.00
449.54	0.00
449.73	0.00
449.91	11.70
450.10	4.68
450.28	0.00
450.46	21.06
450.65	0.00
450.83	0.00
451.02	0.00
451.20	32.77
451.39	0.00
451.57	0.00
451.76	0.00
451.94	0.00
452.13	0.00
452.31	0.00
452.49	0.00
452.68	0.00
452.86	0.00
453.05	28.09
453.23	11.70
453.42	0.00
453.60	0.00
453.78	0.00
453.97	0.00
454.15	0.00
454.34	0.00
454.52	0.00
454.70	0.00
454.89	0.00
455.07	0.00
455.26	0.00
455.44	0.00
455.62	0.00
455.81	23.41
455.99	0.00
456.17	9.36
456.36	0.00
456.54	25.75
456.73	0.00
456.91	0.00
457.09	0.00
457.28	0.00
457.46	0.00
457.64	0.00
457.83	0.00
458.01	0.00
458.19	0.00
458.38	0.00
458.56	0.00
458.74	0.00
458.93	0.00
459.11	0.00
459.29	0.00
459.48	95.96
459.66	35.11
459.84	0.00
460.03	91.28
460.21	0.00
460.39	0.00
460.57	37.45
460.76	0.00
460.94	0.00
461.12	11.70
461.31	32.77
461.49	0.00
461.67	0.00
461.85	0.00
462.04	0.00
462.22	500.87
462.40	86.60
462.59	42.13
462.77	0.00
462.95	9.36
463.13	0.00
463.32	0.00
463.50	0.00
463.68	0.00
463.86	0.00
464.05	0.00
464.23	72.56
464.41	0.00
464.59	0.00
464.78	0.00
464.96	0.00
465.14	0.00
465.32	0.00
465.50	14.04
465.69	0.00
465.87	0.00
466.05	0.00
466.23	0.00
466.41	0.00
466.60	39.79
466.78	0.00
466.96	4.68
467.14	7.02
467.32	51.49
467.51	0.00
467.69	0.00
467.87	95.96
468.05	0.00
468.23	28.09
468.41	0.00
468.60	32.77
468.78	2.34
468.96	0.00
469.14	0.00
469.32	0.00
469.50	0.00
469.69	0.00
469.87	16.38
470.05	7.02
470.23	32.77
470.41	0.00
470.59	0.00
470.77	0.00
470.95	0.00
471.14	42.13
471.32	0.00
471.50	37.45
471.68	0.00
471.86	0.00
472.04	0.00
472.22	23.41
472.40	0.00
472.58	18.72
472.77	16.38
472.95	21.06
473.13	21.06
473.31	32.77
473.49	0.00
473.67	0.00
473.85	23.41
474.03	0.00
474.21	11.70
474.39	117.03
474.57	44.47
474.75	0.00
474.93	0.00
475.12	0.00
475.30	14.04
475.48	49.15
475.66	25.75
475.84	2.34
476.02	18.72
476.20	74.90
476.38	0.00
476.56	0.00
476.74	23.41
476.92	44.47
477.10	0.00
477.28	56.17
477.46	14.04
477.64	67.88
477.82	0.00
478.00	28.09
478.18	37.45
478.36	0.00
478.54	72.56
478.72	46.81
478.90	53.83
479.08	56.17
479.26	35.11
479.44	53.83
479.62	0.00
479.80	0.00
479.98	23.41
480.16	0.00
480.34	93.62
480.52	58.51
480.70	9.36
480.88	39.79
481.06	46.81
481.24	53.83
481.41	70.22
481.59	16.38
481.77	84.26
481.95	18.72
482.13	117.03
482.31	60.85
482.49	152.13
482.67	117.03
482.85	44.47
483.03	86.60
483.21	133.41
483.39	0.00
483.57	58.51
483.74	58.51
483.92	98.30
484.10	81.92
484.28	117.03
484.46	173.20
484.64	100.64
484.82	60.85
485.00	112.35
485.18	65.54
485.35	56.17
485.53	37.45
485.71	53.83
485.89	0.00
486.07	28.09
486.25	212.99
486.43	21.06
486.61	81.92
486.78	65.54
486.96	65.54
487.14	100.64
487.32	39.79
487.50	18.72
487.68	135.75
487.85	86.60
488.03	105.32
488.21	138.09
488.39	112.35
488.57	79.58
488.75	81.92
488.92	470.45
489.10	121.71
489.28	156.82
489.46	229.37
489.64	140.43
489.81	117.03
489.99	210.65
490.17	133.41
490.35	257.46
490.53	142.77
490.70	95.96
490.88	140.43
491.06	117.03
491.24	147.45
491.41	205.97
491.59	126.39
491.77	119.37
491.95	212.99
492.13	114.69
492.30	74.90
492.48	145.11
492.66	119.37
492.84	187.24
493.01	110.01
493.19	128.73
493.37	182.56
493.54	189.58
493.72	154.48
493.90	100.64
494.08	124.05
494.25	191.92
494.43	110.01
494.61	227.03
494.79	182.56
494.96	88.94
495.14	74.90
495.32	196.60
495.49	196.60
495.67	175.54
495.85	217.67
496.02	182.56
496.20	278.52
496.38	236.39
496.55	250.44
496.73	212.99
496.91	163.84
497.09	201.29
497.26	212.99
497.44	196.60
497.62	220.01
497.79	163.84
497.97	100.64
498.14	170.86
498.32	269.16
498.50	250.44
498.67	264.48
498.85	203.63
499.03	149.79
499.20	229.37
499.38	194.26
499.56	187.24
499.73	320.65
499.91	243.42
500.08	257.46
500.26	224.69
500.44	222.35
500.61	238.73
500.79	306.61
500.97	234.05
501.14	290.23
501.32	217.67
501.49	278.52
501.67	245.76
501.84	229.37
502.02	173.20
502.20	255.12
502.37	339.38
502.55	212.99
502.72	294.91
502.90	271.50
503.07	198.95
503.25	212.99
503.43	170.86
503.60	156.82
503.78	201.29
503.95	184.90
504.13	217.67
504.30	266.82
504.48	208.31
504.65	273.84
504.83	250.44
505.01	231.71
505.18	198.95
505.36	227.03
505.53	182.56
505.71	325.33
505.88	210.65
506.06	238.73
506.23	276.18
506.41	191.92
506.58	231.71
506.76	238.73
506.93	294.91
507.11	290.23
507.28	170.86
507.46	191.92
507.63	227.03
507.81	177.88
507.98	299.59
508.16	348.74
508.33	243.42
508.50	327.68
508.68	283.20
508.85	290.23
509.03	210.65
509.20	290.23
509.38	287.89
509.55	337.04
509.73	220.01
509.90	341.72
510.08	198.95
510.25	341.72
510.42	250.44
510.60	287.89
510.77	285.55
510.95	280.86
511.12	217.67
511.30	348.74
511.47	351.08
511.64	362.78
511.82	224.69
511.99	262.14
512.17	255.12
512.34	257.46
512.51	212.99
512.69	259.80
512.86	290.23
513.04	283.20
513.21	285.55
513.38	241.08
513.56	306.61
513.73	276.18
513.90	198.95
514.08	236.39
514.25	334.70
514.43	250.44
514.60	224.69
514.77	227.03
514.95	280.86
515.12	304.27
515.29	292.57
515.47	245.76
515.64	224.69
515.81	304.27
515.99	315.97
516.16	224.69
516.33	241.08
516.51	133.41
516.68	220.01
516.85	166.18
517.03	222.35
517.20	266.82
517.37	334.70
517.54	327.68
517.72	210.65
517.89	110.01
518.06	276.18
518.24	252.78
518.41	264.48
518.58	220.01
518.75	215.33
518.93	215.33
519.10	250.44
519.27	220.01
519.45	297.25
519.62	297.25
519.79	271.50
519.96	322.99
520.14	276.18
520.31	311.29
520.48	365.12
520.65	290.23
520.83	194.26
521.00	238.73
521.17	372.15
521.34	313.63
521.52	327.68
521.69	273.84
521.86	287.89
522.03	388.53
522.20	313.63
522.38	231.71
522.55	318.31
522.72	271.50
522.89	318.31
523.07	393.21
523.24	367.46
523.41	320.65
523.58	327.68
523.75	374.49
523.92	367.46
524.10	320.65
524.27	341.72
524.44	287.89
524.61	376.83
524.78	252.78
524.96	337.04
525.13	287.89
525.30	330.02
525.47	454.06
525.64	353.42
525.81	273.84
525.98	311.29
526.16	252.78
526.33	266.82
526.50	231.71
526.67	227.03
526.84	194.26
527.01	278.52
527.18	358.10
527.36	276.18
527.53	198.95
527.70	369.80
527.87	273.84
528.04	479.81
528.21	290.23
528.38	313.63
528.55	360.44
528.72	376.83
528.89	351.08
529.07	376.83
529.24	355.76
529.41	304.27
529.58	290.23
529.75	238.73
529.92	276.18
530.09	346.40
530.26	421.30
530.43	327.68
530.60	348.74
530.77	243.42
530.94	376.83
531.11	346.40
531.28	294.91
531.46	322.99
531.63	339.38
531.80	276.18
531.97	365.12
532.14	304.27
532.31	278.52
532.48	369.80
532.65	269.16
532.82	313.63
532.99	425.98
533.16	234.05
533.33	308.95
533.50	337.04
533.67	313.63
533.84	308.95
534.01	395.55
534.18	287.89
534.35	341.72
534.52	390.87
534.69	468.11
534.86	393.21
535.03	304.27
535.20	372.15
535.37	334.70
535.54	360.44
535.71	360.44
535.88	400.23
536.05	393.21
536.22	365.12
536.38	299.59
536.55	330.02
536.72	367.46
536.89	362.78
537.06	327.68
537.23	297.25
537.40	365.12
537.57	409.59
537.74	400.23
537.91	353.42
538.08	320.65
538.25	320.65
538.42	337.04
538.59	430.66
538.75	388.53
538.92	386.19
539.09	304.27
539.26	304.27
539.43	365.12
539.60	292.57
539.77	383.85
539.94	262.14
540.11	292.57
540.28	395.55
540.44	379.17
540.61	217.67
540.78	355.76
540.95	294.91
541.12	454.06
541.29	397.89
541.46	369.80
541.62	294.91
541.79	325.33
541.96	358.10
542.13	348.74
542.30	299.59
542.47	322.99
542.63	332.36
542.80	372.15
542.97	379.17
543.14	311.29
543.31	299.59
543.48	379.17
543.64	327.68
543.81	339.38
543.98	355.76
544.15	355.76
544.32	414.27
544.48	393.21
544.65	306.61
544.82	421.30
544.99	315.97
545.16	400.23
545.32	238.73
545.49	390.87
545.66	362.78
545.83	292.57
546.00	315.97
546.16	369.80
546.33	341.72
546.50	367.46
546.67	360.44
546.83	372.15
547.00	362.78
547.17	337.04
547.34	351.08
547.50	388.53
547.67	339.38
547.84	365.12
548.00	430.66
548.17	390.87
548.34	388.53
548.51	421.30
548.67	404.91
548.84	360.44
549.01	374.49
549.18	318.31
549.34	514.92
549.51	416.62
549.68	486.83
549.84	318.31
550.01	346.40
550.18	461.09
550.34	440.02
550.51	308.95
550.68	351.08
550.84	278.52
551.01	332.36
551.18	348.74
551.34	367.46
551.51	407.25
551.68	400.23
551.84	383.85
552.01	346.40
552.18	463.43
552.34	386.19
552.51	358.10
552.68	402.57
552.84	299.59
553.01	280.86
553.18	334.70
553.34	306.61
553.51	411.93
553.67	395.55
553.84	416.62
554.01	369.80
554.17	421.30
554.34	397.89
554.51	402.57
554.67	353.42
554.84	360.44
555.00	435.34
555.17	360.44
555.33	355.76
555.50	248.10
555.67	381.51
555.83	332.36
556.00	404.91
556.16	547.69
556.33	404.91
556.50	430.66
556.66	416.62
556.83	325.33
556.99	362.78
557.16	369.80
557.32	372.15
557.49	348.74
557.65	266.82
557.82	344.06
557.98	318.31
558.15	334.70
558.32	273.84
558.48	262.14
558.65	315.97
558.81	304.27
558.98	280.86
559.14	376.83
559.31	355.76
559.47	313.63
559.64	334.70
559.80	397.89
559.97	304.27
560.13	395.55
560.30	383.85
560.46	376.83
560.63	332.36
560.79	407.25
560.96	365.12
561.12	327.68
561.29	404.91
561.45	266.82
561.61	386.19
561.78	454.06
561.94	393.21
562.11	318.31
562.27	365.12
562.44	269.16
562.60	306.61
562.77	358.10
562.93	437.68
563.10	348.74
563.26	278.52
563.42	482.15
563.59	299.59
563.75	341.72
563.92	278.52
564.08	290.23
564.24	362.78
564.41	374.49
564.57	276.18
564.74	332.36
564.90	334.70
565.07	308.95
565.23	294.91
565.39	358.10
565.56	273.84
565.72	269.16
565.88	386.19
566.05	304.27
566.21	304.27
566.38	320.65
566.54	327.68
566.70	339.38
566.87	332.36
567.03	348.74
567.19	318.31
567.36	372.15
567.52	269.16
567.68	351.08
567.85	451.72
568.01	271.50
568.17	273.84
568.34	388.53
568.50	325.33
568.66	315.97
568.83	348.74
568.99	315.97
569.15	334.70
569.32	297.25
569.48	294.91
569.64	271.50
569.81	278.52
569.97	308.95
570.13	381.51
570.30	353.42
570.46	264.48
570.62	236.39
570.78	252.78
570.95	278.52
571.11	346.40
571.27	386.19
571.43	311.29
571.60	369.80
571.76	290.23
571.92	306.61
572.09	332.36
572.25	346.40
572.41	273.84
572.57	210.65
572.74	393.21
572.90	348.74
573.06	320.65
573.22	355.76
573.38	386.19
573.55	348.74
573.71	393.21
573.87	320.65
574.03	355.76
574.20	306.61
574.36	353.42
574.52	332.36
574.68	285.55
574.84	292.57
575.01	360.44
575.17	311.29
575.33	334.70
575.49	334.70
575.65	339.38
575.82	332.36
575.98	372.15
576.14	304.27
576.30	304.27
576.46	341.72
576.62	358.10
576.79	425.98
576.95	308.95
577.11	287.89
577.27	355.76
577.43	320.65
577.59	393.21
577.75	346.40
577.92	217.67
578.08	264.48
578.24	262.14
578.40	339.38
578.56	353.42
578.72	360.44
578.88	339.38
579.04	269.16
579.21	332.36
579.37	334.70
579.53	332.36
579.69	447.04
579.85	285.55
580.01	404.91
580.17	355.76
580.33	400.23
580.49	395.55
580.65	355.76
580.82	337.04
580.98	339.38
581.14	372.15
581.30	407.25
581.46	322.99
581.62	351.08
581.78	264.48
581.94	318.31
582.10	313.63
582.26	334.70
582.42	297.25
582.58	374.49
582.74	322.99
582.90	290.23
583.06	287.89
583.22	355.76
583.38	402.57
583.54	362.78
583.70	353.42
583.86	362.78
584.02	386.19
584.18	334.70
584.34	297.25
584.50	271.50
584.66	241.08
584.82	306.61
584.98	390.87
585.14	262.14
585.30	301.93
585.46	320.65
585.62	327.68
585.78	332.36
585.94	337.04
586.10	348.74
586.26	379.17
586.42	397.89
586.58	341.72
586.74	318.31
586.90	318.31
587.06	320.65
587.22	348.74
587.38	313.63
587.54	416.62
587.70	332.36
587.86	285.55
588.02	212.99
588.18	344.06
588.34	224.69
588.49	248.10
588.65	184.90
588.81	273.84
588.97	198.95
589.13	234.05
589.29	231.71
589.45	290.23
589.61	294.91
589.77	348.74
589.93	320.65
590.08	299.59
590.24	241.08
590.40	285.55
590.56	294.91
590.72	245.76
590.88	276.18
591.04	243.42
591.20	215.33
591.35	278.52
591.51	273.84
591.67	285.55
591.83	297.25
591.99	250.44
592.15	273.84
592.31	306.61
592.46	257.46
592.62	337.04
592.78	308.95
592.94	259.80
593.10	140.43
593.26	320.65
593.41	358.10
593.57	315.97
593.73	346.40
593.89	292.57
594.05	395.55
594.20	248.10
594.36	299.59
594.52	313.63
594.68	344.06
594.84	330.02
594.99	407.25
595.15	301.93
595.31	365.12
595.47	327.68
595.62	330.02
595.78	311.29
595.94	327.68
596.10	318.31
596.25	381.51
596.41	292.57
596.57	252.78
596.73	271.50
596.88	184.90
597.04	299.59
597.20	301.93
597.36	222.35
597.51	278.52
597.67	327.68
597.83	231.71
597.99	205.97
598.14	318.31
598.30	353.42
598.46	318.31
598.61	327.68
598.77	320.65
598.93	280.86
599.09	266.82
599.24	264.48
599.40	283.20
599.56	315.97
599.71	278.52
599.87	280.86
600.03	306.61
600.18	280.86
600.34	208.31
600.50	241.08
600.65	140.43
600.81	341.72
600.97	273.84
601.12	231.71
601.28	250.44
601.44	201.29
601.59	243.42
601.75	234.05
601.91	283.20
602.06	241.08
602.22	292.57
602.37	276.18
602.53	330.02
602.69	341.72
602.84	212.99
603.00	245.76
603.16	271.50
603.31	367.46
603.47	229.37
603.62	313.63
603.78	264.48
603.94	348.74
604.09	311.29
604.25	266.82
604.40	292.57
604.56	248.10
604.71	292.57
604.87	224.69
605.03	264.48
605.18	320.65
605.34	358.10
605.49	243.42
605.65	201.29
605.80	287.89
605.96	224.69
606.12	315.97
606.27	344.06
606.43	411.93
606.58	346.40
606.74	252.78
606.89	304.27
607.05	273.84
607.20	318.31
607.36	294.91
607.51	208.31
607.67	236.39
607.82	332.36
607.98	306.61
608.13	201.29
608.29	245.76
608.44	224.69
608.60	259.80
608.75	294.91
608.91	250.44
609.06	337.04
609.22	355.76
609.37	236.39
609.53	243.42
609.68	198.95
609.84	245.76
609.99	196.60
610.15	280.86
610.30	224.69
610.46	299.59
610.61	238.73
610.76	276.18
610.92	290.23
611.07	278.52
611.23	322.99
611.38	250.44
611.54	175.54
611.69	236.39
611.84	231.71
612.00	220.01
612.15	140.43
612.31	273.84
612.46	264.48
612.62	325.33
612.77	278.52
612.92	269.16
613.08	234.05
613.23	241.08
613.39	189.58
613.54	182.56
613.69	184.90
613.85	191.92
614.00	229.37
614.15	262.14
614.31	212.99
614.46	250.44
614.62	224.69
614.77	243.42
614.92	182.56
615.08	224.69
615.23	145.11
615.38	210.65
615.54	212.99
615.69	215.33
615.84	203.63
616.00	212.99
616.15	212.99
616.30	173.20
616.46	198.95
616.61	266.82
616.76	210.65
616.92	245.76
617.07	241.08
617.22	220.01
617.37	152.13
617.53	290.23
617.68	250.44
617.83	194.26
617.99	311.29
618.14	362.78
618.29	297.25
618.45	236.39
618.60	212.99
618.75	177.88
618.90	191.92
619.06	339.38
619.21	322.99
619.36	273.84
619.51	236.39
619.67	224.69
619.82	159.16
619.97	241.08
620.12	222.35
620.28	236.39
620.43	313.63
620.58	215.33
620.73	224.69
620.89	262.14
621.04	196.60
621.19	250.44
621.34	166.18
621.49	271.50
621.65	255.12
621.80	184.90
621.95	175.54
622.10	189.58
622.25	138.09
622.41	133.41
622.56	133.41
622.71	159.16
622.86	229.37
623.01	138.09
623.16	227.03
