SpectraSuite Data File
++++++++++++++++++++++++++++++++++++
Date: Mon Oct 07 15:00:10 GMT-05:00 2013
User: price-jones
Dark Spectrum Present: No
Reference Spectrum Present: No
Number of Sampled Component Spectra: 1
Spectrometers: USB2+H05261
Integration Time (usec): 1000000 (USB2+H05261)
Spectra Averaged: 1 (USB2+H05261)
Boxcar Smoothing: 0 (USB2+H05261)
Correct for Electrical Dark: No (USB2+H05261)
Strobe/Lamp Enabled: No (USB2+H05261)
Correct for Detector Non-linearity: No (USB2+H05261)
Correct for Stray Light: No (USB2+H05261)
Number of Pixels in Processed Spectrum: 2048
>>>>>Begin Processed Spectral Data<<<<<
365.73	0.00
365.92	0.00
366.12	0.00
366.32	0.00
366.52	0.00
366.72	173.20
366.91	0.00
367.11	117.03
367.31	58.51
367.51	128.73
367.70	290.23
367.90	428.32
368.10	138.09
368.30	259.80
368.49	0.00
368.69	341.72
368.89	102.98
369.09	4.68
369.28	191.92
369.48	0.00
369.68	70.22
369.87	182.56
370.07	58.51
370.27	538.32
370.47	269.16
370.66	278.52
370.86	526.62
371.06	751.31
371.25	1107.07
371.45	367.46
371.65	678.76
371.84	201.29
372.04	166.18
372.24	400.23
372.44	365.12
372.63	454.06
372.83	870.68
373.03	411.93
373.22	297.25
373.42	330.02
373.62	355.76
373.81	503.22
374.01	709.18
374.21	617.90
374.40	456.40
374.60	821.53
374.79	433.00
374.99	423.64
375.19	622.58
375.38	615.56
375.58	505.56
375.78	697.48
375.97	674.07
376.17	1170.27
376.37	496.19
376.56	533.64
376.76	264.48
376.95	320.65
377.15	669.39
377.35	592.16
377.54	596.84
377.74	348.74
377.93	425.98
378.13	456.40
378.33	723.23
378.52	416.62
378.72	730.25
378.91	702.16
379.11	388.53
379.31	404.91
379.50	271.50
379.70	674.07
379.89	674.07
380.09	264.48
380.28	215.33
380.48	470.45
380.68	280.86
380.87	187.24
381.07	582.79
381.26	713.86
381.46	276.18
381.65	547.69
381.85	421.30
382.04	697.48
382.24	578.11
382.43	444.70
382.63	238.73
382.83	355.76
383.02	791.10
383.22	779.40
383.41	308.95
383.61	486.83
383.80	786.42
384.00	475.13
384.19	430.66
384.39	493.85
384.58	465.77
384.78	608.54
384.97	470.45
385.17	423.64
385.36	461.09
385.56	711.52
385.75	287.89
385.95	500.87
386.14	704.50
386.34	435.34
386.53	561.73
386.72	353.42
386.92	802.80
387.11	711.52
387.31	613.22
387.50	372.15
387.70	308.95
387.89	507.90
388.09	344.06
388.28	236.39
388.48	287.89
388.67	727.91
388.86	477.47
389.06	442.36
389.25	575.77
389.45	554.71
389.64	477.47
389.84	800.46
390.03	608.54
390.22	543.00
390.42	437.68
390.61	318.31
390.81	304.27
391.00	451.72
391.19	674.07
391.39	543.00
391.58	669.39
391.78	578.11
391.97	540.66
392.16	327.68
392.36	873.02
392.55	779.40
392.75	442.36
392.94	388.53
393.13	732.59
393.33	287.89
393.52	400.23
393.71	851.96
393.91	594.50
394.10	297.25
394.29	379.17
394.49	463.43
394.68	599.18
394.88	947.92
395.07	795.78
395.26	517.26
395.46	519.60
395.65	844.93
395.84	608.54
396.04	1425.39
396.23	526.62
396.42	353.42
396.62	636.63
396.81	622.58
397.00	594.50
397.19	580.45
397.39	580.45
397.58	877.70
397.77	458.74
397.97	540.66
398.16	566.41
398.35	795.78
398.55	484.49
398.74	622.58
398.93	889.40
399.12	507.90
399.32	683.44
399.51	578.11
399.70	837.91
399.90	730.25
400.09	793.44
400.28	917.49
400.47	636.63
400.67	835.57
400.86	695.14
401.05	842.59
401.24	858.98
401.44	844.93
401.63	826.21
401.82	959.62
402.01	517.26
402.21	940.90
402.40	779.40
402.59	535.98
402.78	524.28
402.97	606.20
403.17	851.96
403.36	727.91
403.55	641.31
403.74	566.41
403.93	753.65
404.13	1032.18
404.32	521.94
404.51	601.52
404.70	926.85
404.89	655.35
405.09	1270.91
405.28	765.36
405.47	545.34
405.66	896.43
405.85	959.62
406.05	692.80
406.24	610.88
406.43	837.91
406.62	844.93
406.81	1371.55
407.00	983.02
407.20	774.72
407.39	695.14
407.58	599.18
407.77	870.68
407.96	976.00
408.15	950.26
408.34	870.68
408.54	866.00
408.73	880.04
408.92	875.36
409.11	959.62
409.30	950.26
409.49	603.86
409.68	692.80
409.87	755.99
410.07	683.44
410.26	800.46
410.45	730.25
410.64	594.50
410.83	763.01
411.02	688.12
411.21	999.41
411.40	1048.56
411.59	746.63
411.78	795.78
411.98	866.00
412.17	667.05
412.36	760.67
412.55	744.29
412.74	976.00
412.93	1387.94
413.12	723.23
413.31	1109.41
413.50	875.36
413.69	891.74
413.88	1167.93
414.07	950.26
414.26	957.28
414.45	795.78
414.64	910.47
414.83	924.51
415.02	880.04
415.22	1071.97
415.41	1198.35
415.60	772.38
415.79	910.47
415.98	1355.17
416.17	973.66
416.36	931.53
416.55	772.38
416.74	1029.84
416.93	1226.44
417.12	945.58
417.31	870.68
417.50	882.38
417.69	1444.11
417.88	903.45
418.07	800.46
418.26	866.00
418.45	912.81
418.64	1366.87
418.83	1036.86
419.02	1032.18
419.21	933.87
419.39	1001.75
419.58	767.70
419.77	866.00
419.96	1153.88
420.15	1488.58
420.34	912.81
420.53	1100.05
420.72	1313.04
420.91	1081.33
421.10	1053.24
421.29	1053.24
421.48	1144.52
421.67	1163.25
421.86	947.92
422.05	1008.77
422.24	964.30
422.43	976.00
422.61	912.81
422.80	978.34
422.99	1006.43
423.18	915.15
423.37	1423.05
423.56	1160.91
423.75	1104.73
423.94	812.17
424.13	894.08
424.32	917.49
424.50	905.79
424.69	929.19
424.88	1341.13
425.07	917.49
425.26	1015.79
425.45	1212.40
425.64	870.68
425.83	898.77
426.01	1263.89
426.20	1156.22
426.39	938.55
426.58	875.36
426.77	938.55
426.96	1041.54
427.15	1041.54
427.33	880.04
427.52	968.98
427.71	1022.81
427.90	1100.05
428.09	861.32
428.28	833.23
428.46	922.17
428.65	1132.82
428.84	1008.77
429.03	1420.71
429.22	919.83
429.40	746.63
429.59	734.93
429.78	1172.61
429.97	741.95
430.16	737.27
430.34	793.44
430.53	767.70
430.72	875.36
430.91	1242.82
431.10	706.84
431.28	1041.54
431.47	1331.76
431.66	1284.95
431.85	999.41
432.03	919.83
432.22	1762.42
432.41	1025.15
432.60	1465.18
432.79	1032.18
432.97	1207.72
433.16	1011.11
433.35	854.30
433.54	976.00
433.72	1118.78
433.91	1247.51
434.10	976.00
434.28	1186.65
434.47	1022.81
434.66	1336.45
434.85	1100.05
435.03	1165.59
435.22	1453.47
435.41	1682.85
435.59	1299.00
435.78	1247.51
435.97	1071.97
436.16	1479.22
436.34	1121.12
436.53	1270.91
436.72	1596.25
436.90	1352.83
437.09	1247.51
437.28	1200.69
437.46	1179.63
437.65	1320.06
437.84	1275.59
438.02	1172.61
438.21	1284.95
438.40	1039.20
438.58	931.53
438.77	1111.75
438.96	1242.82
439.14	1071.97
439.33	1418.36
439.52	1219.42
439.70	1228.78
439.89	1371.55
440.08	1289.64
440.26	1313.04
440.45	1724.97
440.63	1308.36
440.82	1406.66
441.01	1406.66
441.19	1289.64
441.38	1310.70
441.57	1308.36
441.75	1746.04
441.94	1687.53
442.12	1331.76
442.31	1291.98
442.50	1308.36
442.68	1217.08
442.87	1301.34
443.05	1252.19
443.24	1329.42
443.43	1476.88
443.61	1685.19
443.80	1483.90
443.98	1275.59
444.17	1212.40
444.35	1631.35
444.54	1352.83
444.73	1394.96
444.91	1647.74
445.10	1170.27
445.28	1151.54
445.47	1289.64
445.65	1235.80
445.84	1233.46
446.02	1327.08
446.21	1310.70
446.39	1357.51
446.58	1563.48
446.77	1343.47
446.95	1289.64
447.14	1507.30
447.32	1933.28
447.51	1504.96
447.69	1507.30
447.88	1409.00
448.06	1895.83
448.25	1572.84
448.43	1186.65
448.62	1191.33
448.80	1516.67
448.99	1767.10
449.17	1390.28
449.36	1233.46
449.54	1673.48
449.73	1299.00
449.91	1636.03
450.10	1420.71
450.28	2204.78
450.46	2029.24
450.65	1792.85
450.83	1549.43
451.02	1467.52
451.20	1526.03
451.39	1392.62
451.57	1465.18
451.76	1394.96
451.94	1519.01
452.13	1680.50
452.31	1750.72
452.49	1617.31
452.68	1191.33
452.86	1514.33
453.05	1994.14
453.23	1476.88
453.42	1294.32
453.60	1376.24
453.78	1586.88
453.97	1364.53
454.15	1299.00
454.34	1362.19
454.52	1299.00
454.70	1912.22
454.89	1706.25
455.07	1334.11
455.26	1708.59
455.44	1717.95
455.62	1486.24
455.81	1666.46
455.99	1813.92
456.17	1722.63
456.36	1549.43
456.54	1495.60
456.73	1467.52
456.91	1469.86
457.09	1769.44
457.28	1849.02
457.46	1626.67
457.64	1832.64
457.83	1556.46
458.01	1362.19
458.19	1577.52
458.38	1479.22
458.56	1680.50
458.74	1317.72
458.93	1621.99
459.11	1818.60
459.29	1521.35
459.48	1727.32
459.66	2195.42
459.84	1799.87
460.03	2686.94
460.21	1804.55
460.39	1696.89
460.57	1963.71
460.76	1633.69
460.94	1612.63
461.12	2141.59
461.31	1996.48
461.49	1687.53
461.67	1565.82
461.85	1795.19
462.04	1556.46
462.22	8063.15
462.40	2040.95
462.59	1980.09
462.77	1591.56
462.95	1666.46
463.13	1413.68
463.32	1823.28
463.50	1713.27
463.68	1701.57
463.86	1603.27
464.05	1596.25
464.23	1872.43
464.41	1769.44
464.59	1511.99
464.78	1572.84
464.96	1474.54
465.14	1666.46
465.32	1582.20
465.50	1762.42
465.69	1867.75
465.87	1418.36
466.05	1696.89
466.23	1380.92
466.41	1586.88
466.60	1554.12
466.78	1746.04
466.96	1954.35
467.14	1804.55
467.32	1926.26
467.51	1776.47
467.69	1736.68
467.87	2029.24
468.05	1722.63
468.23	2190.74
468.41	1987.11
468.60	1563.48
468.78	1675.82
468.96	2019.88
469.14	1891.15
469.32	1409.00
469.50	1458.15
469.69	1750.72
469.87	1701.57
470.05	1701.57
470.23	1652.42
470.41	1500.28
470.59	1561.14
470.77	1795.19
470.95	1668.80
471.14	1919.24
471.32	1703.91
471.50	2012.86
471.68	1732.00
471.86	1874.77
472.04	1612.63
472.22	1785.83
472.40	1556.46
472.58	1598.59
472.77	1502.62
472.95	1717.95
473.13	2354.58
473.31	1980.09
473.49	1472.20
473.67	1724.97
473.85	1909.88
474.03	1930.94
474.21	1909.88
474.39	2179.04
474.57	2352.24
474.75	1919.24
474.93	1734.34
475.12	1650.08
475.30	1680.50
475.48	1799.87
475.66	1952.01
475.84	1830.30
476.02	1717.95
476.20	1984.77
476.38	1830.30
476.56	2651.83
476.74	1846.68
476.92	1839.66
477.10	1907.54
477.28	2141.59
477.46	1944.99
477.64	2218.83
477.82	1973.07
478.00	2012.86
478.18	2085.42
478.36	2026.90
478.54	1802.21
478.72	1952.01
478.90	2019.88
479.08	2174.36
479.26	2122.87
479.44	2008.18
479.62	2019.88
479.80	2008.18
479.98	1842.00
480.16	1907.54
480.34	2246.91
480.52	1982.43
480.70	2118.18
480.88	1991.80
481.06	1984.77
481.24	2052.65
481.41	2122.87
481.59	2239.89
481.77	2270.32
481.95	2172.02
482.13	2436.50
482.31	2181.38
482.49	2078.40
482.67	2431.82
482.85	2396.71
483.03	2406.07
483.21	2277.34
483.39	2155.63
483.57	2143.93
483.74	2605.02
483.92	2181.38
484.10	2176.70
484.28	2616.72
484.46	3042.70
484.64	2200.10
484.82	2324.15
485.00	2174.36
485.18	2317.13
485.35	2211.81
485.53	1797.53
485.71	2312.45
485.89	1781.15
486.07	2080.74
486.25	2813.32
486.43	2324.15
486.61	2590.97
486.78	2373.30
486.96	2064.35
487.14	2300.75
487.32	2375.64
487.50	2396.71
487.68	2637.78
487.85	2392.03
488.03	2670.55
488.21	2799.28
488.39	2406.07
488.57	2658.85
488.75	2272.66
488.92	6176.67
489.10	2789.92
489.28	3262.71
489.46	2572.25
489.64	2698.64
489.81	2684.59
489.99	2822.69
490.17	2553.52
490.35	3541.23
490.53	2668.21
490.70	2511.39
490.88	3073.12
491.06	2635.44
491.24	2885.88
491.41	2949.08
491.59	2759.49
491.77	2317.13
491.95	2420.11
492.13	2621.40
492.30	2789.92
492.48	2801.62
492.66	2906.95
492.84	2836.73
493.01	2803.96
493.19	2649.49
493.37	3283.77
493.54	2998.23
493.72	2895.24
493.90	2827.37
494.08	2810.98
494.25	2911.63
494.43	3183.13
494.61	3045.04
494.79	2911.63
494.96	2719.70
495.14	3141.00
495.32	2848.43
495.49	3049.72
495.67	3019.29
495.85	3063.76
496.02	2820.35
496.20	3304.84
496.38	3183.13
496.55	3080.14
496.73	3286.11
496.91	2970.14
497.09	3272.07
497.26	3199.51
497.44	3108.23
497.62	3035.67
497.79	3005.25
497.97	3122.27
498.14	3171.43
498.32	3428.88
498.50	3229.94
498.67	3052.06
498.85	3169.09
499.03	3246.32
499.20	3375.05
499.38	3349.31
499.56	3119.93
499.73	3749.54
499.91	3384.41
500.08	3344.63
500.26	3084.83
500.44	2913.97
500.61	3225.26
500.79	3009.93
500.97	3211.22
501.14	3487.40
501.32	3248.66
501.49	3459.31
501.67	3176.11
501.84	3232.28
502.02	2944.39
502.20	3714.43
502.37	3513.14
502.55	3204.19
502.72	3173.77
502.90	3375.05
503.07	3272.07
503.25	3365.69
503.43	2956.10
503.60	3002.91
503.78	3258.03
503.95	3297.81
504.13	3173.77
504.30	3508.46
504.48	3492.08
504.65	3684.00
504.83	3674.64
505.01	3321.22
505.18	3501.44
505.36	3393.78
505.53	3379.73
505.71	3403.14
505.88	3939.12
506.06	3398.46
506.23	3300.16
506.41	3215.90
506.58	3489.74
506.76	3473.36
506.93	3356.33
507.11	3515.48
507.28	3199.51
507.46	3162.06
507.63	3368.03
507.81	3150.36
507.98	3293.13
508.16	3428.88
508.33	3492.08
508.50	3569.32
508.68	3531.87
508.85	3534.21
509.03	3426.54
509.20	3412.50
509.38	3578.68
509.55	3698.05
509.73	3770.60
509.90	3880.61
510.08	3335.26
510.25	3726.13
510.42	3417.18
510.60	3520.17
510.77	3705.07
510.95	3688.68
511.12	3522.51
511.30	3864.22
511.47	3812.73
511.64	4245.73
511.82	3552.93
511.99	3559.95
512.17	3396.12
512.34	3272.07
512.51	3318.88
512.69	3468.67
512.86	3875.93
513.04	3393.78
513.21	3669.96
513.38	3578.68
513.56	3335.26
513.73	3356.33
513.90	3400.80
514.08	3328.24
514.25	3611.45
514.43	3740.18
514.60	3412.50
514.77	3412.50
514.95	3691.02
515.12	3475.70
515.29	3723.79
515.47	3681.66
515.64	3719.11
515.81	3688.68
515.99	3981.25
516.16	3482.72
516.33	3419.52
516.51	3126.96
516.68	2738.43
516.85	2995.89
517.03	3122.27
517.20	3705.07
517.37	3637.19
517.54	3812.73
517.72	3377.39
517.89	3056.74
518.06	3103.55
518.24	3904.01
518.41	3969.55
518.58	3648.90
518.75	3363.35
518.93	3466.33
519.10	3555.27
519.27	3543.57
519.45	3695.71
519.62	3707.41
519.79	3803.37
519.96	3431.23
520.14	3660.60
520.31	4084.23
520.48	3574.00
520.65	3707.41
520.83	4014.02
521.00	3805.71
521.17	4023.38
521.34	3637.19
521.52	3770.60
521.69	3735.50
521.86	3829.12
522.03	3995.29
522.20	4133.39
522.38	3543.57
522.55	3737.84
522.72	3445.27
522.89	3864.22
523.07	4402.55
523.24	3695.71
523.41	3707.41
523.58	3880.61
523.75	3920.40
523.92	3803.37
524.10	4081.89
524.27	3817.41
524.44	3866.56
524.61	4227.01
524.78	3700.39
524.96	4007.00
525.13	4053.81
525.30	4222.33
525.47	4147.43
525.64	4021.04
525.81	3796.35
525.98	3714.43
526.16	3566.98
526.33	3428.88
526.50	3407.82
526.67	3318.88
526.84	3248.66
527.01	3433.57
527.18	3962.53
527.36	3817.41
527.53	3618.47
527.70	3971.89
527.87	3847.84
528.04	4292.54
528.21	3829.12
528.38	4170.83
528.55	4430.63
528.72	4409.57
528.89	4695.11
529.07	3964.87
529.24	4049.13
529.41	4376.80
529.58	4004.66
529.75	3803.37
529.92	4189.56
530.09	4070.19
530.26	4306.59
530.43	4196.58
530.60	4227.01
530.77	4177.86
530.94	4348.72
531.11	3999.98
531.28	4189.56
531.46	3878.27
531.63	4093.60
531.80	4093.60
531.97	3957.85
532.14	3847.84
532.31	3861.88
532.48	3852.52
532.65	3838.48
532.82	3669.96
532.99	3908.69
533.16	3791.67
533.33	3964.87
533.50	4117.00
533.67	3700.39
533.84	4117.00
534.01	3871.25
534.18	3810.39
534.35	3971.89
534.52	4004.66
534.69	4585.11
534.86	4074.87
535.03	4053.81
535.20	4173.18
535.37	4447.02
535.54	4285.52
535.71	4035.08
535.88	4456.38
536.05	3896.99
536.22	4229.35
536.38	3899.33
536.55	4112.32
536.72	4142.75
536.89	3754.22
537.06	3889.97
537.23	3918.06
537.40	4030.40
537.57	3960.19
537.74	4376.80
537.91	4161.47
538.08	3925.08
538.25	4290.20
538.42	4016.36
538.59	4205.94
538.75	3978.91
538.92	4030.40
539.09	4198.92
539.26	3833.80
539.43	4381.48
539.60	4028.06
539.77	4222.33
539.94	3953.16
540.11	3875.93
540.28	4297.22
540.44	4159.13
540.61	3929.76
540.78	3904.01
540.95	3721.45
541.12	4561.70
541.29	3845.50
541.46	4514.89
541.62	4184.88
541.79	3901.67
541.96	3784.65
542.13	4011.68
542.30	3887.63
542.47	4346.37
542.63	3920.40
542.80	4004.66
542.97	4353.40
543.14	3932.10
543.31	4152.11
543.48	4117.00
543.64	4255.09
543.81	4224.67
543.98	3885.29
544.15	3815.07
544.32	4112.32
544.48	4194.24
544.65	4100.62
544.82	4014.02
544.99	4046.79
545.16	4493.83
545.32	3990.61
545.49	4339.35
545.66	4081.89
545.83	4023.38
546.00	3976.57
546.16	3971.89
546.33	3936.78
546.50	4035.08
546.67	4557.02
546.83	4308.93
547.00	4205.94
547.17	3775.28
547.34	3850.18
547.50	3983.59
547.67	4145.09
547.84	3880.61
548.00	4262.12
548.17	3978.91
548.34	4163.81
548.51	4564.04
548.67	4428.29
548.84	4161.47
549.01	4229.35
549.18	4241.05
549.34	4205.94
549.51	4224.67
549.68	4294.88
549.84	4198.92
550.01	3840.82
550.18	5614.95
550.34	4770.01
550.51	4121.68
550.68	4695.11
550.84	3892.31
551.01	4168.49
551.18	4255.09
551.34	4126.36
551.51	4133.39
551.68	4044.45
551.84	4231.69
552.01	3990.61
552.18	4037.42
552.34	4063.17
552.51	3934.44
552.68	4245.73
552.84	4117.00
553.01	4154.45
553.18	4351.06
553.34	4053.81
553.51	4014.02
553.67	4194.24
553.84	4716.18
554.01	4376.80
554.17	4362.76
554.34	4032.74
554.51	4248.07
554.67	4519.57
554.84	4428.29
555.00	4269.14
555.17	4358.08
555.33	4463.40
555.50	4234.03
555.67	4182.54
555.83	3845.50
556.00	4149.77
556.16	6202.42
556.33	4119.34
556.50	4074.87
556.66	3918.06
556.83	3808.05
556.99	3999.98
557.16	4032.74
557.32	3904.01
557.49	4016.36
557.65	4021.04
557.82	3861.88
557.98	3967.21
558.15	3861.88
558.32	3756.56
558.48	3782.31
558.65	3667.62
558.81	4030.40
558.98	3901.67
559.14	4182.54
559.31	3934.44
559.47	4126.36
559.64	3695.71
559.80	4266.80
559.97	3772.94
560.13	3995.29
560.30	3889.97
560.46	4117.00
560.63	4053.81
560.79	4191.90
560.96	4081.89
561.12	3847.84
561.29	3943.80
561.45	3953.16
561.61	4028.06
561.78	5097.69
561.94	3978.91
562.11	3904.01
562.27	3950.82
562.44	3712.09
562.60	3978.91
562.77	3936.78
562.93	4697.46
563.10	4095.94
563.26	4009.34
563.42	4203.60
563.59	4084.23
563.75	3859.54
563.92	4285.52
564.08	4093.60
564.24	4222.33
564.41	4688.09
564.57	3824.44
564.74	4004.66
564.90	4208.28
565.07	4175.52
565.23	4117.00
565.39	3808.05
565.56	4037.42
565.72	3676.98
565.88	3913.38
566.05	3824.44
566.21	3957.85
566.38	4152.11
566.54	4004.66
566.70	3852.52
566.87	3808.05
567.03	3943.80
567.19	3939.12
567.36	4189.56
567.52	3932.10
567.68	4046.79
567.85	4004.66
568.01	3707.41
568.17	3651.24
568.34	3779.97
568.50	4109.98
568.66	3641.87
568.83	4760.65
568.99	3786.99
569.15	4135.73
569.32	3852.52
569.48	3829.12
569.64	3672.30
569.81	3913.38
569.97	3756.56
570.13	4014.02
570.30	3733.15
570.46	3691.02
570.62	3613.79
570.78	3679.32
570.95	3618.47
571.11	4472.76
571.27	4404.89
571.43	3513.14
571.60	4170.83
571.76	3815.07
571.92	3985.93
572.09	3836.14
572.25	3794.01
572.41	3861.88
572.57	3803.37
572.74	4435.32
572.90	4128.70
573.06	3932.10
573.22	4098.28
573.38	4184.88
573.55	4201.26
573.71	4367.44
573.87	4203.60
574.03	3782.31
574.20	3688.68
574.36	4308.93
574.52	3794.01
574.68	3758.90
574.84	3969.55
575.01	3765.92
575.17	4072.53
575.33	3810.39
575.49	4063.17
575.65	4140.41
575.82	4077.21
575.98	4594.47
576.14	3960.19
576.30	3784.65
576.46	3808.05
576.62	3892.31
576.79	3976.57
576.95	4376.80
577.11	3742.52
577.27	3702.73
577.43	4224.67
577.59	4334.67
577.75	3887.63
577.92	3674.64
578.08	3592.72
578.24	3702.73
578.40	3974.23
578.56	4126.36
578.72	4278.50
578.88	3995.29
579.04	3686.34
579.21	3913.38
579.37	3861.88
579.53	3927.42
579.69	4091.26
579.85	3707.41
580.01	3985.93
580.17	3669.96
580.33	3726.13
580.49	3932.10
580.65	3927.42
580.82	3948.48
580.98	3721.45
581.14	3672.30
581.30	4198.92
581.46	3859.54
581.62	4229.35
581.78	3824.44
581.94	4023.38
582.10	3709.75
582.26	3859.54
582.42	3691.02
582.58	3939.12
582.74	3782.31
582.90	4014.02
583.06	4009.34
583.22	4194.24
583.38	3801.03
583.54	3768.26
583.70	4486.81
583.86	3981.25
584.02	3960.19
584.18	4311.27
584.34	3901.67
584.50	3976.57
584.66	3850.18
584.82	3681.66
584.98	3957.85
585.14	3749.54
585.30	4163.81
585.46	3777.62
585.62	3655.92
585.78	3653.58
585.94	4044.45
586.10	3936.78
586.26	3988.27
586.42	4344.03
586.58	3929.76
586.74	3861.88
586.90	3878.27
587.06	3878.27
587.22	4044.45
587.38	3602.08
587.54	3730.81
587.70	4159.13
587.86	4025.72
588.02	3595.06
588.18	3791.67
588.34	3707.41
588.49	3080.14
588.65	3307.18
588.81	3199.51
588.97	3040.36
589.13	3262.71
589.29	3478.04
589.45	3770.60
589.61	3644.21
589.77	3939.12
589.93	3552.93
590.08	3665.28
590.24	3496.76
590.40	3632.51
590.56	3946.14
590.72	3513.14
590.88	3473.36
591.04	3709.75
591.20	3669.96
591.35	3908.69
591.51	3627.83
591.67	3447.61
591.83	3463.99
591.99	3798.69
592.15	3859.54
592.31	3812.73
592.46	3733.15
592.62	3833.80
592.78	3384.41
592.94	3419.52
593.10	3515.48
593.26	3590.38
593.41	3896.99
593.57	3552.93
593.73	3590.38
593.89	3861.88
594.05	3595.06
594.20	3410.16
594.36	3880.61
594.52	3442.93
594.68	3492.08
594.84	3922.74
594.99	4159.13
595.15	3742.52
595.31	3892.31
595.47	4257.43
595.62	3695.71
595.78	3651.24
595.94	3705.07
596.10	3964.87
596.25	3688.68
596.41	3831.46
596.57	3520.17
596.73	3557.61
596.88	3634.85
597.04	3672.30
597.20	3475.70
597.36	3620.81
597.51	3487.40
597.67	3391.44
597.83	3527.19
597.99	3742.52
598.14	3625.49
598.30	3915.72
598.46	3559.95
598.61	3854.86
598.77	3782.31
598.93	3473.36
599.09	3496.76
