SpectraSuite Data File
++++++++++++++++++++++++++++++++++++
Date: Mon Oct 07 15:00:03 GMT-05:00 2013
User: price-jones
Dark Spectrum Present: No
Reference Spectrum Present: No
Number of Sampled Component Spectra: 1
Spectrometers: USB2+H05261
Integration Time (usec): 1000000 (USB2+H05261)
Spectra Averaged: 1 (USB2+H05261)
Boxcar Smoothing: 0 (USB2+H05261)
Correct for Electrical Dark: No (USB2+H05261)
Strobe/Lamp Enabled: No (USB2+H05261)
Correct for Detector Non-linearity: No (USB2+H05261)
Correct for Stray Light: No (USB2+H05261)
Number of Pixels in Processed Spectrum: 2048
>>>>>Begin Processed Spectral Data<<<<<
365.73	0.00
365.92	0.00
366.12	0.00
366.32	0.00
366.52	0.00
366.72	212.99
366.91	0.00
367.11	154.48
367.31	0.00
367.51	105.32
367.70	245.76
367.90	440.02
368.10	189.58
368.30	234.05
368.49	0.00
368.69	365.12
368.89	161.50
369.09	0.00
369.28	152.13
369.48	0.00
369.68	63.19
369.87	238.73
370.07	91.28
370.27	451.72
370.47	348.74
370.66	301.93
370.86	510.24
371.06	847.27
371.25	1174.95
371.45	411.93
371.65	713.86
371.84	400.23
372.04	198.95
372.24	573.43
372.44	395.55
372.63	540.66
372.83	1034.52
373.03	449.38
373.22	402.57
373.42	369.80
373.62	449.38
373.81	613.22
374.01	814.51
374.21	692.80
374.40	521.94
374.60	901.11
374.79	503.22
374.99	472.79
375.19	533.64
375.38	662.37
375.58	660.03
375.78	875.36
375.97	674.07
376.17	1167.93
376.37	526.62
376.56	662.37
376.76	458.74
376.95	353.42
377.15	713.86
377.35	657.69
377.54	681.10
377.74	390.87
377.93	411.93
378.13	592.16
378.33	868.34
378.52	592.16
378.72	751.31
378.91	753.65
379.11	491.51
379.31	437.68
379.50	315.97
379.70	765.36
379.89	739.61
380.09	409.59
380.28	280.86
380.48	489.17
380.68	369.80
380.87	262.14
381.07	669.39
381.26	880.04
381.46	386.19
381.65	788.76
381.85	421.30
382.04	678.76
382.24	585.13
382.43	550.03
382.63	325.33
382.83	475.13
383.02	819.19
383.22	978.34
383.41	388.53
383.61	547.69
383.80	833.23
384.00	540.66
384.19	454.06
384.39	641.31
384.58	500.87
384.78	739.61
384.97	589.82
385.17	507.90
385.36	372.15
385.56	751.31
385.75	337.04
385.95	517.26
386.14	849.61
386.34	531.30
386.53	711.52
386.72	449.38
386.92	954.94
387.11	774.72
387.31	737.27
387.50	451.72
387.70	409.59
387.89	617.90
388.09	430.66
388.28	374.49
388.48	489.17
388.67	863.66
388.86	585.13
389.06	500.87
389.25	725.57
389.45	713.86
389.64	528.96
389.84	910.47
390.03	725.57
390.22	624.92
390.42	580.45
390.61	435.34
390.81	388.53
391.00	669.39
391.19	842.59
391.39	528.96
391.58	758.33
391.78	540.66
391.97	706.84
392.16	369.80
392.36	973.66
392.55	854.30
392.75	550.03
392.94	458.74
393.13	798.12
393.33	433.00
393.52	496.19
393.71	971.32
393.91	702.16
394.10	454.06
394.29	472.79
394.49	500.87
394.68	791.10
394.88	898.77
395.07	884.72
395.26	636.63
395.46	587.47
395.65	964.30
395.84	723.23
396.04	1474.54
396.23	648.33
396.42	472.79
396.62	676.41
396.81	671.73
397.00	594.50
397.19	678.76
397.39	655.35
397.58	1060.26
397.77	613.22
397.97	734.93
398.16	753.65
398.35	926.85
398.55	688.12
398.74	751.31
398.93	1048.56
399.12	681.10
399.32	887.06
399.51	788.76
399.70	968.98
399.90	858.98
400.09	959.62
400.28	1027.50
400.47	671.73
400.67	945.58
400.86	882.38
401.05	968.98
401.24	1088.35
401.44	926.85
401.63	1011.11
401.82	1078.99
402.01	636.63
402.21	1020.47
402.40	915.15
402.59	835.57
402.78	833.23
402.97	709.18
403.17	868.34
403.36	884.72
403.55	873.02
403.74	727.91
403.93	767.70
404.13	1097.71
404.32	758.33
404.51	748.97
404.70	1102.39
404.89	786.42
405.09	1331.76
405.28	887.06
405.47	725.57
405.66	966.64
405.85	1210.06
406.05	884.72
406.24	884.72
406.43	917.49
406.62	1121.12
406.81	1570.50
407.00	1139.84
407.20	1013.45
407.39	903.45
407.58	854.30
407.77	1071.97
407.96	1261.55
408.15	1205.38
408.34	1153.88
408.54	990.05
408.73	1018.13
408.92	1036.86
409.11	1146.86
409.30	1245.16
409.49	711.52
409.68	861.32
409.87	1053.24
410.07	795.78
410.26	966.64
410.45	924.51
410.64	847.27
410.83	1043.88
411.02	1022.81
411.21	1200.69
411.40	1238.14
411.59	917.49
411.78	889.40
411.98	1088.35
412.17	898.77
412.36	959.62
412.55	959.62
412.74	1313.04
412.93	1593.90
413.12	901.11
413.31	1294.32
413.50	1210.06
413.69	1022.81
413.88	1446.45
414.07	1167.93
414.26	1165.59
414.45	954.94
414.64	1231.12
414.83	1301.34
415.02	1266.23
415.22	1308.36
415.41	1474.54
415.60	976.00
415.79	1121.12
415.98	1416.02
416.17	1224.10
416.36	1146.86
416.55	999.41
416.74	1287.29
416.93	1406.66
417.12	1100.05
417.31	1088.35
417.50	1158.57
417.69	1647.74
417.88	1210.06
418.07	1020.47
418.26	1174.95
418.45	1057.92
418.64	1586.88
418.83	1320.06
419.02	1320.06
419.21	1212.40
419.39	1268.57
419.58	1067.28
419.77	1027.50
419.96	1423.05
420.15	1652.42
420.34	1280.27
420.53	1394.96
420.72	1530.71
420.91	1310.70
421.10	1268.57
421.29	1352.83
421.48	1460.49
421.67	1582.20
421.86	1191.33
422.05	1224.10
422.24	1170.27
422.43	1240.48
422.61	1011.11
422.80	1193.67
422.99	1284.95
423.18	1186.65
423.37	1631.35
423.56	1350.49
423.75	1371.55
423.94	1128.14
424.13	1235.80
424.32	1184.31
424.50	1174.95
424.69	1306.02
424.88	1633.69
425.07	1130.48
425.26	1406.66
425.45	1444.11
425.64	1043.88
425.83	1217.08
426.01	1680.50
426.20	1455.81
426.39	1207.72
426.58	1266.23
426.77	1254.53
426.96	1324.74
427.15	1320.06
427.33	1217.08
427.52	1289.64
427.71	1301.34
427.90	1359.85
428.09	1252.19
428.28	1160.91
428.46	1135.16
428.65	1387.94
428.84	1263.89
429.03	1802.21
429.22	1174.95
429.40	1121.12
429.59	1022.81
429.78	1380.92
429.97	1100.05
430.16	945.58
430.34	1060.26
430.53	1053.24
430.72	1118.78
430.91	1462.83
431.10	1020.47
431.28	1352.83
431.47	1689.87
431.66	1416.02
431.85	1252.19
432.03	1268.57
432.22	1933.28
432.41	1341.13
432.60	1760.08
432.79	1376.24
432.97	1453.47
433.16	1369.21
433.35	1067.28
433.54	1170.27
433.72	1497.94
433.91	1504.96
434.10	1207.72
434.28	1387.94
434.47	1394.96
434.66	1561.14
434.85	1373.89
435.03	1434.75
435.22	1858.39
435.41	2059.67
435.59	1610.29
435.78	1685.19
435.97	1453.47
436.16	1799.87
436.34	1416.02
436.53	1661.78
436.72	1804.55
436.90	1717.95
437.09	1561.14
437.28	1514.33
437.46	1502.62
437.65	1694.55
437.84	1565.82
438.02	1514.33
438.21	1556.46
438.40	1343.47
438.58	1252.19
438.77	1509.65
438.96	1486.24
439.14	1425.39
439.33	1771.79
439.52	1483.90
439.70	1619.65
439.89	1769.44
440.08	1638.38
440.26	1643.06
440.45	1996.48
440.63	1839.66
440.82	1659.44
441.01	1678.16
441.19	1626.67
441.38	1650.08
441.57	1722.63
441.75	2040.95
441.94	2001.16
442.12	1856.04
442.31	1657.10
442.50	1750.72
442.68	1746.04
442.87	1586.88
443.05	1734.34
443.24	1771.79
443.43	1900.52
443.61	2186.06
443.80	1839.66
443.98	1739.02
444.17	1671.14
444.35	2069.03
444.54	1799.87
444.73	1760.08
444.91	2064.35
445.10	1647.74
445.28	1703.91
445.47	1755.40
445.65	1666.46
445.84	1682.85
446.02	1804.55
446.21	1790.51
446.39	1755.40
446.58	1851.36
446.77	1776.47
446.95	1816.26
447.14	1977.75
447.32	2214.15
447.51	1865.41
447.69	1846.68
447.88	1853.70
448.06	2204.78
448.25	2118.18
448.43	1753.06
448.62	1720.29
448.80	1818.60
448.99	2157.97
449.17	1776.47
449.36	1732.00
449.54	2043.29
449.73	1825.62
449.91	2050.31
450.10	1827.96
450.28	2686.94
450.46	2560.55
450.65	2272.66
450.83	2059.67
451.02	1877.11
451.20	1968.39
451.39	1944.99
451.57	1914.56
451.76	1823.28
451.94	2029.24
452.13	2200.10
452.31	2207.13
452.49	1968.39
452.68	1739.02
452.86	1973.07
453.05	2361.60
453.23	1921.58
453.42	1678.16
453.60	1909.88
453.78	2026.90
453.97	1762.42
454.15	1750.72
454.34	1940.30
454.52	1895.83
454.70	2377.98
454.89	2179.04
455.07	1973.07
455.26	2207.13
455.44	2209.47
455.62	1893.49
455.81	2047.97
455.99	2162.66
456.17	2078.40
456.36	2003.50
456.54	2104.14
456.73	2031.58
456.91	2052.65
457.09	2230.53
457.28	2466.92
457.46	2153.29
457.64	2345.22
457.83	2008.18
458.01	1952.01
458.19	2181.38
458.38	1912.22
458.56	2125.21
458.74	1907.54
458.93	2312.45
459.11	2298.41
459.29	1902.86
459.48	2179.04
459.66	2612.04
459.84	2335.85
460.03	3232.28
460.21	2445.86
460.39	2155.63
460.57	2370.96
460.76	2345.22
460.94	2232.87
461.12	2602.68
461.31	2541.82
461.49	2165.00
461.67	2057.33
461.85	2310.11
462.04	2132.23
462.22	8681.05
462.40	2527.78
462.59	2492.67
462.77	2230.53
462.95	2279.68
463.13	1930.94
463.32	2469.27
463.50	2399.05
463.68	2389.69
463.86	2214.15
464.05	2066.69
464.23	2476.29
464.41	2392.03
464.59	2040.95
464.78	2179.04
464.96	1982.43
465.14	2282.02
465.32	2181.38
465.50	2427.14
465.69	2385.01
465.87	1989.46
466.05	2363.94
466.23	1942.64
466.41	2083.08
466.60	2214.15
466.78	2169.68
466.96	2502.03
467.14	2275.00
467.32	2581.61
467.51	2403.73
467.69	2326.49
467.87	2635.44
468.05	2249.25
468.23	2799.28
468.41	2473.95
468.60	2090.10
468.78	2441.18
468.96	2663.53
469.14	2380.32
469.32	2115.84
469.50	2050.31
469.69	2401.39
469.87	2293.72
470.05	2260.96
470.23	2221.17
470.41	1944.99
470.59	2125.21
470.77	2317.13
470.95	2377.98
471.14	2647.15
471.32	2286.70
471.50	2871.84
471.68	2441.18
471.86	2558.21
472.04	2284.36
472.22	2450.54
472.40	2094.78
472.58	2172.02
472.77	2099.46
472.95	2263.30
473.13	2904.60
473.31	2731.41
473.49	2111.16
473.67	2279.68
473.85	2637.78
474.03	2562.89
474.21	2457.56
474.39	2722.04
474.57	2878.86
474.75	2602.68
474.93	2387.35
475.12	2263.30
475.30	2415.43
475.48	2450.54
475.66	2303.09
475.84	2441.18
476.02	2445.86
476.20	2677.57
476.38	2562.89
476.56	3215.90
476.74	2572.25
476.92	2518.42
477.10	2544.16
477.28	2785.24
477.46	2619.06
477.64	2857.79
477.82	2668.21
478.00	2703.32
478.18	2635.44
478.36	2672.89
478.54	2593.31
478.72	2579.27
478.90	2848.43
479.08	2885.88
479.26	2916.31
479.44	2918.65
479.62	2630.76
479.80	2843.75
479.98	2640.12
480.16	2700.98
480.34	3138.66
480.52	2668.21
480.70	3119.93
480.88	2902.26
481.06	2773.53
481.24	2888.22
481.41	2923.33
481.59	3084.83
481.77	3096.53
481.95	3007.59
482.13	3538.89
482.31	2993.55
482.49	2855.45
482.67	3016.95
482.85	3124.62
483.03	3157.38
483.21	3197.17
483.39	3084.83
483.57	2864.82
483.74	3522.51
483.92	3112.91
484.10	2853.11
484.28	3375.05
484.46	3892.31
484.64	3133.98
484.82	3145.68
485.00	3023.97
485.18	3171.43
485.35	2986.52
485.53	2483.31
485.71	3082.49
485.89	2436.50
486.07	2752.47
486.25	3684.00
486.43	3150.36
486.61	3328.24
486.78	3300.16
486.96	2923.33
487.14	3276.75
487.32	3215.90
487.50	3251.00
487.68	3562.30
487.85	3206.53
488.03	3492.08
488.21	3744.86
488.39	3297.81
488.57	3487.40
488.75	3157.38
488.92	7265.02
489.10	3707.41
489.28	4142.75
489.46	3529.53
489.64	3693.37
489.81	3655.92
489.99	3899.33
490.17	3819.75
490.35	4489.15
490.53	3672.30
490.70	3478.04
490.88	3899.33
491.06	3702.73
491.24	3796.35
491.41	4208.28
491.59	3803.37
491.77	3342.28
491.95	3487.40
492.13	3721.45
492.30	3826.78
492.48	3810.39
492.66	3808.05
492.84	3749.54
493.01	3999.98
493.19	3684.00
493.37	4358.08
493.54	3929.76
493.72	4053.81
493.90	3932.10
494.08	3847.84
494.25	4297.22
494.43	4308.93
494.61	4140.41
494.79	4021.04
494.96	3967.21
495.14	4278.50
495.32	3976.57
495.49	4177.86
495.67	4035.08
495.85	4287.86
496.02	4109.98
496.20	4409.57
496.38	4379.14
496.55	4379.14
496.73	4374.46
496.91	4114.66
497.09	4580.43
497.26	4337.01
497.44	4301.90
497.62	4367.44
497.79	4252.75
497.97	4152.11
498.14	4315.95
498.32	4360.42
498.50	4519.57
498.67	4283.18
498.85	4435.32
499.03	4432.97
499.20	4524.26
499.38	4519.57
499.56	4430.63
499.73	4870.65
499.91	4636.60
500.08	4575.75
500.26	4311.27
500.44	4215.30
500.61	4365.10
500.79	4250.41
500.97	4430.63
501.14	4688.09
501.32	4435.32
501.49	4650.64
501.67	4297.22
501.84	4510.21
502.02	4224.67
502.20	5039.17
502.37	4748.95
502.55	4489.15
502.72	4603.83
502.90	4793.42
503.07	4573.41
503.25	4655.33
503.43	4098.28
503.60	4266.80
503.78	4325.31
503.95	4498.51
504.13	4351.06
504.30	4903.42
504.48	4997.04
504.65	4929.17
504.83	4891.72
505.01	4620.22
505.18	4896.40
505.36	4641.28
505.53	4638.94
505.71	4844.91
505.88	5144.50
506.06	4641.28
506.23	4903.42
506.41	4641.28
506.58	4933.85
506.76	4828.53
506.93	4587.45
507.11	4882.36
507.28	4489.15
507.46	4432.97
507.63	4557.02
507.81	4395.53
507.98	4594.47
508.16	4585.11
508.33	4805.12
508.50	5125.77
508.68	5062.58
508.85	4997.04
509.03	4887.04
509.20	4826.18
509.38	4807.46
509.55	5046.20
509.73	5050.88
509.90	5296.63
510.08	4798.10
510.25	5104.71
510.42	4730.22
510.60	4793.42
510.77	5048.54
510.95	5203.01
511.12	4727.88
511.30	5210.03
511.47	5224.08
511.64	5621.97
511.82	4966.62
511.99	4849.59
512.17	4833.21
512.34	4692.77
512.51	4725.54
512.69	4882.36
512.86	5355.15
513.04	4959.60
513.21	4905.76
513.38	4800.44
513.56	4767.67
513.73	4592.13
513.90	4636.60
514.08	4620.22
514.25	5018.11
514.43	4975.98
514.60	4863.63
514.77	4774.69
514.95	5109.39
515.12	4854.27
515.29	5158.54
515.47	5172.58
515.64	5235.78
515.81	5032.15
515.99	5408.98
516.16	4910.44
516.33	4737.24
516.51	4219.99
516.68	4112.32
516.85	4346.37
517.03	4381.48
517.20	4741.93
517.37	5053.22
517.54	5184.29
517.72	4688.09
517.89	4318.29
518.06	4442.34
518.24	5174.92
518.41	5240.46
518.58	5076.62
518.75	4594.47
518.93	5018.11
519.10	5128.11
519.27	5029.81
519.45	5102.37
519.62	5416.00
519.79	5282.59
519.96	5004.07
520.14	5139.82
520.31	5404.30
520.48	5041.51
520.65	5100.03
520.83	5518.98
521.00	5540.05
521.17	5427.70
521.34	5095.35
521.52	5350.46
521.69	5268.55
521.86	5352.81
522.03	5495.58
522.20	5696.86
522.38	4894.06
522.55	5149.18
522.72	4898.74
522.89	5397.28
523.07	6064.33
523.24	5334.08
523.41	5348.12
523.58	5322.38
523.75	5465.15
523.92	5467.49
524.10	5434.72
524.27	5565.79
524.44	5334.08
524.61	5755.38
524.78	5310.68
524.96	5579.84
525.13	5563.45
525.30	5827.93
525.47	5703.89
525.64	5418.34
525.81	5327.06
525.98	5135.14
526.16	4868.31
526.33	4671.71
526.50	4622.56
526.67	4669.37
526.84	4734.90
527.01	4933.85
527.18	5114.07
527.36	5219.39
527.53	5179.61
527.70	5710.91
527.87	5460.47
528.04	6015.18
528.21	5364.51
528.38	5895.81
528.55	6155.61
528.72	6115.82
528.89	6368.60
529.07	5874.74
529.24	5561.11
529.41	6106.46
529.58	5540.05
529.75	5430.04
529.92	5731.97
530.09	5605.58
530.26	5975.39
530.43	5827.93
530.60	5877.09
530.77	5830.27
530.94	5984.75
531.11	5867.72
531.28	5607.92
531.46	5582.18
531.63	5778.78
531.80	5654.73
531.97	5802.19
532.14	5404.30
532.31	5303.65
532.48	5369.19
532.65	5313.02
532.82	5214.71
532.99	5584.52
533.16	5696.86
533.33	5612.60
533.50	5607.92
533.67	5282.59
533.84	5521.32
534.01	5614.95
534.18	5762.40
534.35	5760.06
534.52	5617.29
534.69	6256.25
534.86	5851.34
535.03	5902.83
535.20	5944.96
535.37	6211.78
535.54	5996.45
535.71	5984.75
535.88	6338.17
536.05	5675.80
536.22	5769.42
536.38	5504.94
536.55	5575.16
536.72	5998.79
536.89	5324.72
537.06	5542.39
537.23	5638.35
537.40	5647.71
537.57	5753.04
537.74	6036.24
537.91	5968.37
538.08	5797.51
538.25	5900.49
538.42	5734.31
538.59	5942.62
538.75	5614.95
538.92	5551.75
539.09	5905.17
539.26	5689.84
539.43	5944.96
539.60	5561.11
539.77	5706.23
539.94	5549.41
540.11	5549.41
540.28	5996.45
540.44	5792.83
540.61	5593.88
540.78	5439.40
540.95	5530.69
541.12	6141.57
541.29	5600.90
541.46	6141.57
541.62	6057.31
541.79	5607.92
541.96	5610.26
542.13	5610.26
542.30	5488.56
542.47	5940.28
542.63	5500.26
542.80	5811.55
542.97	6228.17
543.14	5694.52
543.31	5914.53
543.48	5872.40
543.64	6150.93
543.81	6108.80
543.98	5771.76
544.15	5678.14
544.32	5682.82
544.48	5645.37
544.65	5921.56
544.82	5839.64
544.99	5816.23
545.16	6094.76
545.32	5554.09
545.49	6101.78
545.66	5841.98
545.83	5682.82
546.00	5696.86
546.16	5701.54
546.33	5783.46
546.50	5792.83
546.67	6282.00
546.83	6193.06
547.00	5750.70
547.17	5423.02
547.34	5544.73
547.50	5668.78
547.67	5783.46
547.84	5685.16
548.00	6059.65
548.17	5799.85
548.34	5799.85
548.51	6354.55
548.67	6167.31
548.84	6069.01
549.01	6155.61
549.18	5998.79
549.34	5919.21
549.51	5940.28
549.68	5975.39
549.84	5832.62
550.01	5565.79
550.18	7349.28
550.34	6628.40
550.51	5853.68
550.68	6349.87
550.84	5764.74
551.01	5902.83
551.18	5984.75
551.34	5849.00
551.51	6008.16
551.68	6066.67
551.84	6141.57
552.01	5839.64
552.18	5778.78
552.34	5645.37
552.51	5778.78
552.68	5926.24
552.84	5699.20
553.01	6008.16
553.18	6258.59
553.34	5886.45
553.51	5654.73
553.67	6069.01
553.84	6740.74
554.01	6190.72
554.17	6260.93
554.34	5696.86
554.51	6038.58
554.67	6305.40
554.84	6282.00
555.00	6179.01
555.17	6179.01
555.33	6239.87
555.50	6008.16
555.67	6047.94
555.83	5781.12
556.00	5785.80
556.16	7974.21
556.33	5912.19
556.50	5678.14
556.66	5830.27
556.83	5535.37
556.99	5783.46
557.16	5806.87
557.32	5666.44
557.49	5947.30
557.65	5708.57
557.82	5703.89
557.98	5893.47
558.15	5511.96
558.32	5455.79
558.48	5451.11
558.65	5526.00
558.81	5748.36
558.98	5397.28
559.14	5764.74
559.31	5680.48
559.47	5734.31
559.64	5460.47
559.80	5713.25
559.97	5483.88
560.13	5746.02
560.30	5619.63
560.46	6026.88
560.63	5884.11
560.79	5853.68
560.96	5795.17
561.12	5640.69
561.29	5954.32
561.45	5605.58
561.61	5741.33
561.78	6635.42
561.94	5757.72
562.11	5554.09
562.27	5734.31
562.44	5696.86
562.60	5809.21
562.77	5694.52
562.93	6600.31
563.10	5799.85
563.26	5619.63
563.42	5980.07
563.59	5827.93
563.75	5544.73
563.92	6207.10
564.08	5970.71
564.24	5980.07
564.41	6574.56
564.57	5565.79
564.74	5582.18
564.90	5956.66
565.07	5947.30
565.23	5736.65
565.39	5565.79
565.56	5982.41
565.72	5345.78
565.88	5504.94
566.05	5385.57
566.21	5633.67
566.38	5767.08
566.54	5769.42
566.70	5657.07
566.87	5626.65
567.03	5584.52
567.19	5685.16
567.36	5919.21
567.52	5652.39
567.68	5970.71
567.85	5834.96
568.01	5425.36
568.17	5371.53
568.34	5469.83
568.50	5935.60
568.66	5270.89
568.83	6333.49
568.99	5570.48
569.15	5980.07
569.32	5598.56
569.48	5612.60
569.64	5324.72
569.81	5469.83
569.97	5535.37
570.13	5699.20
570.30	5387.91
570.46	5249.82
570.62	5305.99
570.78	5268.55
570.95	5139.82
571.11	6115.82
571.27	5998.79
571.43	5472.17
571.60	5881.77
571.76	5561.11
571.92	5687.50
572.09	5650.05
572.25	5654.73
572.41	5645.37
572.57	5731.97
572.74	6274.98
572.90	6141.57
573.06	5668.78
573.22	5834.96
573.38	6033.90
573.55	5860.70
573.71	5973.05
573.87	6085.39
574.03	5624.31
574.20	5530.69
574.36	5867.72
574.52	5458.13
574.68	5497.92
574.84	5614.95
575.01	5633.67
575.17	5785.80
575.33	5516.64
575.49	5893.47
575.65	5989.43
575.82	5874.74
575.98	6270.30
576.14	5640.69
576.30	5476.85
576.46	5523.66
576.62	5591.54
576.79	5837.30
576.95	5947.30
577.11	5549.41
577.27	5458.13
577.43	5870.06
577.59	5951.98
577.75	5675.80
577.92	5549.41
578.08	5380.89
578.24	5277.91
578.40	6008.16
578.56	5650.05
578.72	5825.59
578.88	5760.06
579.04	5376.21
579.21	5640.69
579.37	5748.36
579.53	5603.24
579.69	5844.32
579.85	5334.08
580.01	5755.38
580.17	5355.15
580.33	5469.83
580.49	5664.10
580.65	5720.27
580.82	5846.66
580.98	5460.47
581.14	5406.64
581.30	6017.52
581.46	5687.50
581.62	5947.30
581.78	5537.71
581.94	5820.91
582.10	5666.44
582.26	5682.82
582.42	5462.81
582.58	5790.49
582.74	5668.78
582.90	5764.74
583.06	5736.65
583.22	5799.85
583.38	5572.82
583.54	5598.56
583.70	6141.57
583.86	6033.90
584.02	5671.12
584.18	6101.78
584.34	5577.50
584.50	5708.57
584.66	5659.42
584.82	5458.13
584.98	5617.29
585.14	5439.40
585.30	5877.09
585.46	5458.13
585.62	5252.16
585.78	5544.73
585.94	5628.99
586.10	5423.02
586.26	5687.50
586.42	6136.88
586.58	5902.83
586.74	5675.80
586.90	5659.42
587.06	5696.86
587.22	5582.18
587.38	5308.34
587.54	5390.25
587.70	5884.11
587.86	5846.66
588.02	5336.42
588.18	5495.58
588.34	5397.28
588.49	4493.83
588.65	4681.07
588.81	4737.24
588.97	4512.55
589.13	4638.94
589.29	4922.15
589.45	5221.74
589.61	5238.12
589.77	5565.79
589.93	5172.58
590.08	5107.05
590.24	5205.35
590.40	5558.77
590.56	5497.92
590.72	5270.89
590.88	5118.75
591.04	5341.10
591.20	5212.37
591.35	5675.80
591.51	5413.66
591.67	5027.47
591.83	5282.59
591.99	5500.26
592.15	5645.37
592.31	5479.19
592.46	5324.72
592.62	5467.49
592.78	5336.42
592.94	5069.60
593.10	5137.48
593.26	5188.97
593.41	5603.24
593.57	5439.40
593.73	5252.16
593.89	5441.75
594.05	5373.87
594.20	5097.69
594.36	5612.60
594.52	5125.77
594.68	5097.69
594.84	5643.03
594.99	5811.55
595.15	5481.53
595.31	5483.88
595.47	5846.66
595.62	5383.23
595.78	5313.02
595.94	5329.40
596.10	5540.05
596.25	5533.03
596.41	5502.60
596.57	5214.71
596.73	5179.61
596.88	5404.30
597.04	5275.57
597.20	5102.37
597.36	5408.98
597.51	5240.46
597.67	5032.15
597.83	5289.61
597.99	5390.25
598.14	5277.91
