SpectraSuite Data File
++++++++++++++++++++++++++++++++++++
Date: Mon Oct 07 14:59:58 GMT-05:00 2013
User: price-jones
Dark Spectrum Present: No
Reference Spectrum Present: No
Number of Sampled Component Spectra: 1
Spectrometers: USB2+H05261
Integration Time (usec): 100000 (USB2+H05261)
Spectra Averaged: 1 (USB2+H05261)
Boxcar Smoothing: 0 (USB2+H05261)
Correct for Electrical Dark: No (USB2+H05261)
Strobe/Lamp Enabled: No (USB2+H05261)
Correct for Detector Non-linearity: No (USB2+H05261)
Correct for Stray Light: No (USB2+H05261)
Number of Pixels in Processed Spectrum: 2048
>>>>>Begin Processed Spectral Data<<<<<
365.73	0.00
365.92	0.00
366.12	0.00
366.32	0.00
366.52	0.00
366.72	0.00
366.91	0.00
367.11	0.00
367.31	0.00
367.51	0.00
367.70	0.00
367.90	0.00
368.10	0.00
368.30	0.00
368.49	0.00
368.69	0.00
368.89	0.00
369.09	0.00
369.28	0.00
369.48	0.00
369.68	0.00
369.87	0.00
370.07	0.00
370.27	0.00
370.47	0.00
370.66	0.00
370.86	0.00
371.06	0.00
371.25	0.00
371.45	0.00
371.65	0.00
371.84	0.00
372.04	0.00
372.24	0.00
372.44	0.00
372.63	0.00
372.83	0.00
373.03	0.00
373.22	0.00
373.42	0.00
373.62	0.00
373.81	0.00
374.01	0.00
374.21	0.00
374.40	0.00
374.60	0.00
374.79	0.00
374.99	0.00
375.19	0.00
375.38	0.00
375.58	0.00
375.78	0.00
375.97	0.00
376.17	0.00
376.37	0.00
376.56	0.00
376.76	0.00
376.95	0.00
377.15	0.00
377.35	0.00
377.54	0.00
377.74	0.00
377.93	0.00
378.13	0.00
378.33	0.00
378.52	0.00
378.72	0.00
378.91	0.00
379.11	0.00
379.31	0.00
379.50	0.00
379.70	0.00
379.89	0.00
380.09	0.00
380.28	0.00
380.48	0.00
380.68	0.00
380.87	0.00
381.07	0.00
381.26	0.00
381.46	0.00
381.65	0.00
381.85	0.00
382.04	0.00
382.24	0.00
382.43	0.00
382.63	0.00
382.83	0.00
383.02	0.00
383.22	0.00
383.41	0.00
383.61	0.00
383.80	0.00
384.00	0.00
384.19	0.00
384.39	0.00
384.58	0.00
384.78	0.00
384.97	0.00
385.17	0.00
385.36	0.00
385.56	0.00
385.75	0.00
385.95	0.00
386.14	0.00
386.34	0.00
386.53	0.00
386.72	0.00
386.92	0.00
387.11	0.00
387.31	0.00
387.50	0.00
387.70	0.00
387.89	0.00
388.09	0.00
388.28	0.00
388.48	0.00
388.67	0.00
388.86	0.00
389.06	0.00
389.25	0.00
389.45	0.00
389.64	0.00
389.84	0.00
390.03	0.00
390.22	0.00
390.42	0.00
390.61	0.00
390.81	0.00
391.00	0.00
391.19	0.00
391.39	0.00
391.58	0.00
391.78	0.00
391.97	0.00
392.16	0.00
392.36	0.00
392.55	0.00
392.75	0.00
392.94	0.00
393.13	0.00
393.33	0.00
393.52	0.00
393.71	0.00
393.91	0.00
394.10	0.00
394.29	0.00
394.49	0.00
394.68	0.00
394.88	0.00
395.07	0.00
395.26	0.00
395.46	0.00
395.65	0.00
395.84	0.00
396.04	0.00
396.23	0.00
396.42	0.00
396.62	0.00
396.81	0.00
397.00	0.00
397.19	0.00
397.39	0.00
397.58	0.00
397.77	0.00
397.97	0.00
398.16	0.00
398.35	0.00
398.55	0.00
398.74	0.00
398.93	0.00
399.12	0.00
399.32	0.00
399.51	0.00
399.70	0.00
399.90	0.00
400.09	0.00
400.28	0.00
400.47	0.00
400.67	0.00
400.86	0.00
401.05	0.00
401.24	0.00
401.44	0.00
401.63	0.00
401.82	0.00
402.01	0.00
402.21	0.00
402.40	0.00
402.59	0.00
402.78	0.00
402.97	0.00
403.17	0.00
403.36	0.00
403.55	0.00
403.74	0.00
403.93	0.00
404.13	0.00
404.32	0.00
404.51	0.00
404.70	0.00
404.89	0.00
405.09	0.00
405.28	0.00
405.47	0.00
405.66	0.00
405.85	0.00
406.05	0.00
406.24	0.00
406.43	0.00
406.62	0.00
406.81	9.36
407.00	0.00
407.20	0.00
407.39	0.00
407.58	0.00
407.77	0.00
407.96	0.00
408.15	0.00
408.34	0.00
408.54	0.00
408.73	0.00
408.92	0.00
409.11	0.00
409.30	0.00
409.49	0.00
409.68	0.00
409.87	0.00
410.07	0.00
410.26	0.00
410.45	0.00
410.64	0.00
410.83	0.00
411.02	0.00
411.21	0.00
411.40	0.00
411.59	0.00
411.78	0.00
411.98	0.00
412.17	0.00
412.36	0.00
412.55	0.00
412.74	0.00
412.93	0.00
413.12	0.00
413.31	0.00
413.50	0.00
413.69	0.00
413.88	0.00
414.07	0.00
414.26	0.00
414.45	0.00
414.64	0.00
414.83	0.00
415.02	0.00
415.22	0.00
415.41	0.00
415.60	0.00
415.79	0.00
415.98	0.00
416.17	0.00
416.36	0.00
416.55	0.00
416.74	0.00
416.93	0.00
417.12	0.00
417.31	0.00
417.50	0.00
417.69	0.00
417.88	0.00
418.07	0.00
418.26	0.00
418.45	0.00
418.64	0.00
418.83	0.00
419.02	0.00
419.21	0.00
419.39	0.00
419.58	0.00
419.77	0.00
419.96	0.00
420.15	0.00
420.34	0.00
420.53	0.00
420.72	0.00
420.91	0.00
421.10	0.00
421.29	0.00
421.48	0.00
421.67	0.00
421.86	0.00
422.05	0.00
422.24	0.00
422.43	0.00
422.61	0.00
422.80	0.00
422.99	0.00
423.18	0.00
423.37	0.00
423.56	0.00
423.75	0.00
423.94	0.00
424.13	0.00
424.32	0.00
424.50	0.00
424.69	0.00
424.88	0.00
425.07	0.00
425.26	0.00
425.45	0.00
425.64	0.00
425.83	0.00
426.01	0.00
426.20	0.00
426.39	0.00
426.58	0.00
426.77	0.00
426.96	0.00
427.15	0.00
427.33	0.00
427.52	0.00
427.71	0.00
427.90	0.00
428.09	0.00
428.28	0.00
428.46	0.00
428.65	0.00
428.84	0.00
429.03	0.00
429.22	0.00
429.40	0.00
429.59	0.00
429.78	0.00
429.97	0.00
430.16	0.00
430.34	0.00
430.53	0.00
430.72	0.00
430.91	0.00
431.10	0.00
431.28	0.00
431.47	0.00
431.66	0.00
431.85	0.00
432.03	0.00
432.22	0.00
432.41	0.00
432.60	0.00
432.79	0.00
432.97	0.00
433.16	0.00
433.35	0.00
433.54	0.00
433.72	0.00
433.91	0.00
434.10	0.00
434.28	0.00
434.47	0.00
434.66	0.00
434.85	0.00
435.03	0.00
435.22	0.00
435.41	0.00
435.59	0.00
435.78	0.00
435.97	0.00
436.16	0.00
436.34	0.00
436.53	0.00
436.72	0.00
436.90	0.00
437.09	0.00
437.28	0.00
437.46	0.00
437.65	0.00
437.84	0.00
438.02	0.00
438.21	0.00
438.40	0.00
438.58	0.00
438.77	0.00
438.96	0.00
439.14	0.00
439.33	2.34
439.52	0.00
439.70	0.00
439.89	0.00
440.08	0.00
440.26	0.00
440.45	0.00
440.63	0.00
440.82	0.00
441.01	0.00
441.19	0.00
441.38	0.00
441.57	0.00
441.75	0.00
441.94	0.00
442.12	0.00
442.31	0.00
442.50	0.00
442.68	0.00
442.87	0.00
443.05	0.00
443.24	9.36
443.43	0.00
443.61	0.00
443.80	0.00
443.98	0.00
444.17	0.00
444.35	23.41
444.54	0.00
444.73	0.00
444.91	0.00
445.10	0.00
445.28	0.00
445.47	0.00
445.65	0.00
445.84	0.00
446.02	0.00
446.21	0.00
446.39	0.00
446.58	0.00
446.77	0.00
446.95	0.00
447.14	0.00
447.32	0.00
447.51	0.00
447.69	0.00
447.88	0.00
448.06	110.01
448.25	0.00
448.43	0.00
448.62	0.00
448.80	0.00
448.99	0.00
449.17	0.00
449.36	0.00
449.54	0.00
449.73	11.70
449.91	0.00
450.10	0.00
450.28	84.26
450.46	7.02
450.65	0.00
450.83	0.00
451.02	0.00
451.20	0.00
451.39	0.00
451.57	0.00
451.76	0.00
451.94	0.00
452.13	0.00
452.31	0.00
452.49	0.00
452.68	0.00
452.86	0.00
453.05	65.54
453.23	0.00
453.42	0.00
453.60	0.00
453.78	0.00
453.97	0.00
454.15	0.00
454.34	0.00
454.52	0.00
454.70	93.62
454.89	7.02
455.07	0.00
455.26	0.00
455.44	30.43
455.62	0.00
455.81	0.00
455.99	0.00
456.17	0.00
456.36	0.00
456.54	0.00
456.73	0.00
456.91	0.00
457.09	0.00
457.28	9.36
457.46	0.00
457.64	0.00
457.83	0.00
458.01	0.00
458.19	39.79
458.38	0.00
458.56	0.00
458.74	0.00
458.93	0.00
459.11	0.00
459.29	0.00
459.48	37.45
459.66	30.43
459.84	0.00
460.03	117.03
460.21	0.00
460.39	11.70
460.57	35.11
460.76	0.00
460.94	0.00
461.12	0.00
461.31	58.51
461.49	0.00
461.67	0.00
461.85	124.05
462.04	0.00
462.22	521.94
462.40	51.49
462.59	18.72
462.77	0.00
462.95	0.00
463.13	0.00
463.32	0.00
463.50	0.00
463.68	0.00
463.86	0.00
464.05	49.15
464.23	7.02
464.41	0.00
464.59	0.00
464.78	0.00
464.96	16.38
465.14	4.68
465.32	0.00
465.50	0.00
465.69	0.00
465.87	0.00
466.05	0.00
466.23	0.00
466.41	63.19
466.60	0.00
466.78	0.00
466.96	0.00
467.14	0.00
467.32	7.02
467.51	0.00
467.69	0.00
467.87	0.00
468.05	0.00
468.23	46.81
468.41	0.00
468.60	0.00
468.78	0.00
468.96	126.39
469.14	28.09
469.32	0.00
469.50	0.00
469.69	58.51
469.87	0.00
470.05	0.00
470.23	0.00
470.41	0.00
470.59	39.79
470.77	25.75
470.95	0.00
471.14	30.43
471.32	0.00
471.50	37.45
471.68	14.04
471.86	0.00
472.04	0.00
472.22	0.00
472.40	2.34
472.58	0.00
472.77	0.00
472.95	0.00
473.13	0.00
473.31	25.75
473.49	0.00
473.67	0.00
473.85	0.00
474.03	0.00
474.21	0.00
474.39	58.51
474.57	4.68
474.75	35.11
474.93	0.00
475.12	0.00
475.30	0.00
475.48	0.00
475.66	0.00
475.84	0.00
476.02	46.81
476.20	102.98
476.38	30.43
476.56	72.56
476.74	0.00
476.92	46.81
477.10	39.79
477.28	65.54
477.46	0.00
477.64	14.04
477.82	51.49
478.00	44.47
478.18	16.38
478.36	21.06
478.54	56.17
478.72	18.72
478.90	0.00
479.08	70.22
479.26	0.00
479.44	98.30
479.62	35.11
479.80	0.00
479.98	0.00
480.16	0.00
480.34	56.17
480.52	2.34
480.70	79.58
480.88	32.77
481.06	35.11
481.24	30.43
481.41	72.56
481.59	79.58
481.77	110.01
481.95	72.56
482.13	74.90
482.31	98.30
482.49	9.36
482.67	77.24
482.85	53.83
483.03	138.09
483.21	93.62
483.39	65.54
483.57	95.96
483.74	42.13
483.92	56.17
484.10	56.17
484.28	51.49
484.46	217.67
484.64	79.58
484.82	2.34
485.00	30.43
485.18	102.98
485.35	35.11
485.53	30.43
485.71	28.09
485.89	0.00
486.07	53.83
486.25	131.07
486.43	159.16
486.61	107.66
486.78	126.39
486.96	0.00
487.14	51.49
487.32	65.54
487.50	32.77
487.68	28.09
487.85	74.90
488.03	198.95
488.21	154.48
488.39	142.77
488.57	133.41
488.75	28.09
488.92	386.19
489.10	203.63
489.28	194.26
489.46	110.01
489.64	142.77
489.81	126.39
489.99	72.56
490.17	229.37
490.35	294.91
490.53	147.45
490.70	91.28
490.88	182.56
491.06	81.92
491.24	166.18
491.41	156.82
491.59	140.43
491.77	74.90
491.95	100.64
492.13	88.94
492.30	175.54
492.48	135.75
492.66	112.35
492.84	124.05
493.01	107.66
493.19	77.24
493.37	222.35
493.54	145.11
493.72	154.48
493.90	102.98
494.08	180.22
494.25	161.50
494.43	163.84
494.61	168.52
494.79	182.56
494.96	145.11
495.14	215.33
495.32	149.79
495.49	278.52
495.67	248.10
495.85	168.52
496.02	196.60
496.20	163.84
496.38	149.79
496.55	180.22
496.73	182.56
496.91	163.84
497.09	210.65
497.26	156.82
497.44	145.11
497.62	271.50
497.79	215.33
497.97	180.22
498.14	156.82
498.32	198.95
498.50	173.20
498.67	229.37
498.85	236.39
499.03	161.50
499.20	205.97
499.38	205.97
499.56	220.01
499.73	292.57
499.91	255.12
500.08	152.13
500.26	210.65
500.44	196.60
500.61	208.31
500.79	182.56
500.97	175.54
501.14	227.03
501.32	187.24
501.49	166.18
501.67	215.33
501.84	241.08
502.02	182.56
502.20	220.01
502.37	152.13
502.55	105.32
502.72	227.03
502.90	217.67
503.07	313.63
503.25	241.08
503.43	159.16
503.60	154.48
503.78	191.92
503.95	203.63
504.13	208.31
504.30	245.76
504.48	283.20
504.65	287.89
504.83	177.88
505.01	205.97
505.18	241.08
505.36	259.80
505.53	248.10
505.71	191.92
505.88	196.60
506.06	208.31
506.23	175.54
506.41	266.82
506.58	290.23
506.76	264.48
506.93	205.97
507.11	252.78
507.28	196.60
507.46	224.69
507.63	205.97
507.81	201.29
507.98	182.56
508.16	189.58
508.33	184.90
508.50	318.31
508.68	231.71
508.85	201.29
509.03	205.97
509.20	229.37
509.38	269.16
509.55	257.46
509.73	269.16
509.90	255.12
510.08	241.08
510.25	184.90
510.42	168.52
510.60	285.55
510.77	290.23
510.95	322.99
511.12	156.82
511.30	266.82
511.47	311.29
511.64	318.31
511.82	290.23
511.99	161.50
512.17	208.31
512.34	203.63
512.51	229.37
512.69	229.37
512.86	245.76
513.04	229.37
513.21	259.80
513.38	292.57
513.56	145.11
513.73	140.43
513.90	184.90
514.08	248.10
514.25	257.46
514.43	285.55
514.60	231.71
514.77	222.35
514.95	273.84
515.12	243.42
515.29	224.69
515.47	217.67
515.64	241.08
515.81	236.39
515.99	362.78
516.16	243.42
516.33	243.42
516.51	236.39
516.68	126.39
516.85	133.41
517.03	189.58
517.20	227.03
517.37	205.97
517.54	257.46
517.72	245.76
517.89	196.60
518.06	175.54
518.24	273.84
518.41	241.08
518.58	231.71
518.75	238.73
518.93	248.10
519.10	266.82
519.27	154.48
519.45	210.65
519.62	292.57
519.79	374.49
519.96	250.44
520.14	273.84
520.31	304.27
520.48	229.37
520.65	304.27
520.83	280.86
521.00	308.95
521.17	341.72
521.34	315.97
521.52	287.89
521.69	283.20
521.86	299.59
522.03	334.70
522.20	395.55
522.38	287.89
522.55	262.14
522.72	304.27
522.89	339.38
523.07	306.61
523.24	245.76
523.41	301.93
523.58	238.73
523.75	313.63
523.92	346.40
524.10	386.19
524.27	220.01
524.44	264.48
524.61	315.97
524.78	248.10
524.96	278.52
525.13	287.89
525.30	280.86
525.47	355.76
525.64	304.27
525.81	362.78
525.98	264.48
526.16	252.78
526.33	152.13
526.50	194.26
526.67	191.92
526.84	212.99
527.01	241.08
527.18	205.97
527.36	360.44
527.53	198.95
527.70	386.19
527.87	313.63
528.04	337.04
528.21	311.29
528.38	397.89
528.55	416.62
528.72	365.12
528.89	393.21
529.07	299.59
529.24	283.20
529.41	379.17
529.58	278.52
529.75	339.38
529.92	332.36
530.09	383.85
530.26	348.74
530.43	285.55
530.60	330.02
530.77	280.86
530.94	346.40
531.11	322.99
531.28	313.63
531.46	341.72
531.63	339.38
531.80	292.57
531.97	280.86
532.14	304.27
532.31	182.56
532.48	250.44
532.65	313.63
532.82	229.37
532.99	318.31
533.16	320.65
533.33	346.40
533.50	287.89
533.67	259.80
533.84	255.12
534.01	325.33
534.18	400.23
534.35	393.21
534.52	271.50
534.69	355.76
534.86	383.85
535.03	245.76
535.20	304.27
535.37	252.78
535.54	402.57
535.71	320.65
535.88	393.21
536.05	400.23
536.22	351.08
536.38	271.50
536.55	344.06
536.72	376.83
536.89	297.25
537.06	313.63
537.23	376.83
537.40	313.63
537.57	308.95
537.74	301.93
537.91	381.51
538.08	360.44
538.25	362.78
538.42	320.65
538.59	341.72
538.75	283.20
538.92	330.02
539.09	395.55
539.26	322.99
539.43	337.04
539.60	283.20
539.77	376.83
539.94	299.59
540.11	332.36
540.28	362.78
540.44	362.78
540.61	229.37
540.78	306.61
540.95	269.16
541.12	315.97
541.29	351.08
541.46	414.27
541.62	383.85
541.79	308.95
541.96	315.97
542.13	348.74
542.30	285.55
542.47	369.80
542.63	418.96
542.80	353.42
542.97	337.04
543.14	278.52
543.31	280.86
543.48	367.46
543.64	308.95
543.81	374.49
543.98	280.86
544.15	322.99
544.32	332.36
544.48	365.12
544.65	358.10
544.82	311.29
544.99	299.59
545.16	372.15
545.32	339.38
545.49	376.83
545.66	372.15
545.83	285.55
546.00	273.84
546.16	374.49
546.33	362.78
546.50	397.89
546.67	388.53
546.83	430.66
547.00	355.76
547.17	379.17
547.34	362.78
547.50	358.10
547.67	344.06
547.84	280.86
548.00	325.33
548.17	257.46
548.34	318.31
548.51	322.99
548.67	379.17
548.84	325.33
549.01	421.30
549.18	330.02
549.34	330.02
549.51	372.15
549.68	355.76
549.84	362.78
550.01	311.29
550.18	496.19
550.34	374.49
550.51	376.83
550.68	358.10
550.84	294.91
551.01	334.70
551.18	383.85
551.34	320.65
551.51	337.04
551.68	355.76
551.84	355.76
552.01	341.72
552.18	390.87
552.34	325.33
552.51	388.53
552.68	414.27
552.84	339.38
553.01	365.12
553.18	374.49
553.34	325.33
553.51	287.89
553.67	465.77
553.84	418.96
554.01	421.30
554.17	304.27
554.34	287.89
554.51	308.95
554.67	374.49
554.84	376.83
555.00	255.12
555.17	344.06
555.33	327.68
555.50	454.06
555.67	287.89
555.83	355.76
556.00	341.72
556.16	505.56
556.33	330.02
556.50	320.65
556.66	287.89
556.83	297.25
556.99	332.36
557.16	294.91
557.32	339.38
557.49	372.15
557.65	236.39
557.82	306.61
557.98	229.37
558.15	271.50
558.32	355.76
558.48	379.17
558.65	318.31
558.81	297.25
558.98	355.76
559.14	383.85
559.31	418.96
559.47	318.31
559.64	337.04
559.80	409.59
559.97	332.36
560.13	360.44
560.30	376.83
560.46	397.89
560.63	318.31
560.79	271.50
560.96	334.70
561.12	407.25
561.29	339.38
561.45	266.82
561.61	346.40
561.78	482.15
561.94	313.63
562.11	290.23
562.27	341.72
562.44	311.29
562.60	348.74
562.77	236.39
562.93	322.99
563.10	339.38
563.26	325.33
563.42	372.15
563.59	332.36
563.75	334.70
563.92	383.85
564.08	315.97
564.24	362.78
564.41	383.85
564.57	299.59
564.74	351.08
564.90	339.38
565.07	351.08
565.23	449.38
565.39	276.18
565.56	306.61
565.72	283.20
565.88	332.36
566.05	330.02
566.21	369.80
566.38	369.80
566.54	315.97
566.70	278.52
566.87	304.27
567.03	283.20
567.19	306.61
567.36	383.85
567.52	299.59
567.68	276.18
567.85	308.95
568.01	299.59
568.17	381.51
568.34	290.23
568.50	353.42
568.66	252.78
568.83	458.74
568.99	297.25
569.15	435.34
569.32	355.76
569.48	353.42
569.64	273.84
569.81	297.25
569.97	217.67
570.13	292.57
570.30	283.20
570.46	257.46
570.62	220.01
570.78	290.23
570.95	220.01
571.11	409.59
571.27	320.65
571.43	318.31
571.60	322.99
571.76	252.78
571.92	315.97
572.09	320.65
572.25	304.27
572.41	283.20
572.57	280.86
572.74	248.10
572.90	358.10
573.06	339.38
573.22	337.04
573.38	348.74
573.55	315.97
573.71	367.46
573.87	376.83
574.03	264.48
574.20	285.55
574.36	355.76
574.52	332.36
574.68	360.44
574.84	320.65
575.01	304.27
575.17	353.42
575.33	346.40
575.49	395.55
575.65	351.08
575.82	341.72
575.98	358.10
576.14	355.76
576.30	341.72
576.46	264.48
576.62	379.17
576.79	355.76
576.95	322.99
577.11	238.73
577.27	229.37
577.43	346.40
577.59	367.46
577.75	238.73
577.92	381.51
578.08	332.36
578.24	250.44
578.40	355.76
578.56	425.98
578.72	341.72
578.88	245.76
579.04	238.73
579.21	379.17
579.37	313.63
579.53	271.50
579.69	376.83
579.85	299.59
580.01	318.31
580.17	311.29
580.33	330.02
580.49	330.02
580.65	358.10
580.82	337.04
580.98	393.21
581.14	276.18
581.30	360.44
581.46	390.87
581.62	367.46
581.78	315.97
581.94	332.36
582.10	234.05
582.26	339.38
582.42	290.23
582.58	273.84
582.74	358.10
582.90	330.02
583.06	332.36
583.22	320.65
583.38	304.27
583.54	355.76
583.70	313.63
583.86	355.76
584.02	306.61
584.18	304.27
584.34	299.59
584.50	257.46
584.66	215.33
584.82	299.59
584.98	360.44
585.14	227.03
585.30	301.93
585.46	245.76
585.62	250.44
585.78	348.74
585.94	369.80
586.10	301.93
586.26	358.10
586.42	414.27
586.58	369.80
586.74	330.02
586.90	339.38
587.06	388.53
587.22	299.59
587.38	322.99
587.54	383.85
587.70	273.84
587.86	245.76
588.02	269.16
588.18	241.08
588.34	250.44
588.49	241.08
588.65	180.22
588.81	259.80
588.97	234.05
589.13	203.63
589.29	152.13
589.45	320.65
589.61	257.46
589.77	311.29
589.93	344.06
590.08	311.29
590.24	285.55
590.40	250.44
590.56	264.48
590.72	236.39
590.88	220.01
591.04	273.84
591.20	170.86
591.35	290.23
591.51	306.61
591.67	161.50
591.83	255.12
591.99	250.44
592.15	330.02
592.31	299.59
592.46	318.31
592.62	299.59
592.78	236.39
592.94	318.31
593.10	276.18
593.26	369.80
593.41	409.59
593.57	304.27
593.73	250.44
593.89	320.65
594.05	227.03
594.20	234.05
594.36	259.80
594.52	262.14
594.68	220.01
594.84	304.27
594.99	367.46
595.15	266.82
595.31	320.65
595.47	374.49
595.62	215.33
595.78	287.89
595.94	306.61
596.10	388.53
596.25	269.16
596.41	322.99
596.57	290.23
596.73	236.39
596.88	255.12
597.04	351.08
597.20	308.95
597.36	362.78
597.51	243.42
597.67	259.80
597.83	362.78
597.99	271.50
598.14	313.63
598.30	248.10
598.46	133.41
598.61	276.18
598.77	334.70
598.93	315.97
599.09	138.09
599.24	273.84
599.40	304.27
599.56	276.18
599.71	266.82
599.87	285.55
600.03	325.33
600.18	341.72
600.34	264.48
600.50	269.16
600.65	224.69
600.81	313.63
600.97	205.97
601.12	264.48
601.28	266.82
601.44	243.42
601.59	259.80
601.75	299.59
601.91	262.14
602.06	245.76
602.22	353.42
602.37	243.42
602.53	273.84
602.69	311.29
602.84	241.08
603.00	271.50
603.16	271.50
603.31	297.25
603.47	241.08
603.62	224.69
603.78	264.48
603.94	290.23
604.09	250.44
604.25	271.50
604.40	273.84
604.56	271.50
604.71	315.97
604.87	292.57
605.03	255.12
605.18	304.27
605.34	264.48
605.49	231.71
605.65	236.39
605.80	264.48
605.96	236.39
606.12	210.65
606.27	252.78
606.43	304.27
606.58	292.57
606.74	245.76
606.89	271.50
607.05	358.10
607.20	224.69
607.36	287.89
607.51	278.52
607.67	264.48
607.82	220.01
607.98	334.70
608.13	332.36
608.29	341.72
608.44	285.55
608.60	330.02
608.75	332.36
608.91	334.70
609.06	273.84
609.22	236.39
609.37	297.25
609.53	294.91
609.68	278.52
609.84	236.39
609.99	173.20
610.15	189.58
610.30	234.05
610.46	280.86
610.61	194.26
610.76	234.05
610.92	276.18
611.07	250.44
611.23	301.93
611.38	280.86
611.54	236.39
611.69	215.33
611.84	220.01
612.00	135.75
612.15	177.88
612.31	276.18
612.46	259.80
612.62	142.77
612.77	238.73
612.92	203.63
613.08	339.38
613.23	224.69
613.39	196.60
613.54	236.39
613.69	175.54
613.85	201.29
614.00	283.20
614.15	203.63
614.31	110.01
614.46	243.42
614.62	292.57
614.77	248.10
614.92	255.12
615.08	266.82
615.23	327.68
615.38	241.08
615.54	250.44
615.69	241.08
615.84	180.22
616.00	241.08
616.15	175.54
616.30	147.45
616.46	168.52
616.61	196.60
616.76	215.33
616.92	229.37
617.07	210.65
617.22	278.52
617.37	208.31
617.53	273.84
617.68	191.92
617.83	229.37
617.99	212.99
618.14	234.05
618.29	320.65
618.45	227.03
618.60	241.08
618.75	166.18
618.90	220.01
619.06	304.27
619.21	287.89
619.36	175.54
619.51	255.12
619.67	252.78
619.82	177.88
619.97	220.01
620.12	266.82
620.28	238.73
620.43	180.22
620.58	271.50
620.73	210.65
620.89	215.33
621.04	175.54
621.19	283.20
621.34	238.73
621.49	201.29
621.65	252.78
621.80	142.77
621.95	187.24
622.10	276.18
622.25	131.07
622.41	161.50
622.56	135.75
622.71	168.52
622.86	238.73
623.01	184.90
623.16	238.73
623.32	187.24
