SpectraSuite Data File
++++++++++++++++++++++++++++++++++++
Date: Mon Oct 07 15:00:06 GMT-05:00 2013
User: price-jones
Dark Spectrum Present: No
Reference Spectrum Present: No
Number of Sampled Component Spectra: 1
Spectrometers: USB2+H05261
Integration Time (usec): 1000000 (USB2+H05261)
Spectra Averaged: 1 (USB2+H05261)
Boxcar Smoothing: 0 (USB2+H05261)
Correct for Electrical Dark: No (USB2+H05261)
Strobe/Lamp Enabled: No (USB2+H05261)
Correct for Detector Non-linearity: No (USB2+H05261)
Correct for Stray Light: No (USB2+H05261)
Number of Pixels in Processed Spectrum: 2048
>>>>>Begin Processed Spectral Data<<<<<
365.73	0.00
365.92	0.00
366.12	0.00
366.32	0.00
366.52	0.00
366.72	255.12
366.91	0.00
367.11	173.20
367.31	30.43
367.51	147.45
367.70	266.82
367.90	489.17
368.10	180.22
368.30	304.27
368.49	0.00
368.69	407.25
368.89	161.50
369.09	0.00
369.28	154.48
369.48	0.00
369.68	93.62
369.87	313.63
370.07	53.83
370.27	486.83
370.47	353.42
370.66	212.99
370.86	592.16
371.06	851.96
371.25	1027.50
371.45	372.15
371.65	669.39
371.84	304.27
372.04	311.29
372.24	433.00
372.44	346.40
372.63	578.11
372.83	1015.79
373.03	484.49
373.22	358.10
373.42	325.33
373.62	433.00
373.81	575.77
374.01	819.19
374.21	737.27
374.40	531.30
374.60	751.31
374.79	531.30
374.99	367.46
375.19	512.58
375.38	674.07
375.58	568.75
375.78	802.80
375.97	758.33
376.17	1203.04
376.37	510.24
376.56	645.99
376.76	423.64
376.95	365.12
377.15	657.69
377.35	638.97
377.54	580.45
377.74	433.00
377.93	360.44
378.13	608.54
378.33	866.00
378.52	545.34
378.72	748.97
378.91	697.48
379.11	486.83
379.31	400.23
379.50	339.38
379.70	812.17
379.89	753.65
380.09	447.04
380.28	271.50
380.48	514.92
380.68	411.93
380.87	271.50
381.07	578.11
381.26	837.91
381.46	346.40
381.65	545.34
381.85	449.38
382.04	664.71
382.24	716.20
382.43	552.37
382.63	416.62
382.83	465.77
383.02	739.61
383.22	894.08
383.41	367.46
383.61	573.43
383.80	854.30
384.00	421.30
384.19	512.58
384.39	648.33
384.58	528.96
384.78	737.27
384.97	610.88
385.17	493.85
385.36	543.00
385.56	819.19
385.75	269.16
385.95	571.09
386.14	772.38
386.34	454.06
386.53	669.39
386.72	351.08
386.92	919.83
387.11	662.37
387.31	741.95
387.50	365.12
387.70	362.78
387.89	538.32
388.09	376.83
388.28	411.93
388.48	411.93
388.67	868.34
388.86	578.11
389.06	505.56
389.25	631.94
389.45	620.24
389.64	564.07
389.84	917.49
390.03	678.76
390.22	587.47
390.42	526.62
390.61	444.70
390.81	379.17
391.00	627.26
391.19	919.83
391.39	585.13
391.58	720.88
391.78	596.84
391.97	718.54
392.16	383.85
392.36	922.17
392.55	978.34
392.75	531.30
392.94	402.57
393.13	664.71
393.33	369.80
393.52	463.43
393.71	994.73
393.91	702.16
394.10	454.06
394.29	484.49
394.49	535.98
394.68	835.57
394.88	957.28
395.07	912.81
395.26	681.10
395.46	669.39
395.65	894.08
395.84	779.40
396.04	1418.36
396.23	557.05
396.42	526.62
396.62	681.10
396.81	713.86
397.00	620.24
397.19	727.91
397.39	638.97
397.58	992.39
397.77	587.47
397.97	702.16
398.16	784.08
398.35	912.81
398.55	496.19
398.74	814.51
398.93	1001.75
399.12	674.07
399.32	875.36
399.51	692.80
399.70	884.72
399.90	847.27
400.09	758.33
400.28	973.66
400.47	706.84
400.67	1018.13
400.86	863.66
401.05	976.00
401.24	1160.91
401.44	983.02
401.63	983.02
401.82	1121.12
402.01	699.82
402.21	1022.81
402.40	880.04
402.59	748.97
402.78	709.18
402.97	823.87
403.17	877.70
403.36	910.47
403.55	800.46
403.74	823.87
403.93	847.27
404.13	1174.95
404.32	606.20
404.51	657.69
404.70	1102.39
404.89	716.20
405.09	1294.32
405.28	894.08
405.47	704.50
405.66	1090.69
405.85	1081.33
406.05	849.61
406.24	805.14
406.43	910.47
406.62	1029.84
406.81	1516.67
407.00	1121.12
407.20	908.13
407.39	835.57
407.58	884.72
407.77	1071.97
407.96	1261.55
408.15	1263.89
408.34	1109.41
408.54	1088.35
408.73	1125.80
408.92	915.15
409.11	1165.59
409.30	1235.80
409.49	819.19
409.68	891.74
409.87	908.13
410.07	786.42
410.26	1046.22
410.45	866.00
410.64	765.36
410.83	976.00
411.02	957.28
411.21	1217.08
411.40	1177.29
411.59	933.87
411.78	936.21
411.98	1102.39
412.17	877.70
412.36	903.45
412.55	908.13
412.74	1149.20
412.93	1561.14
413.12	938.55
413.31	1261.55
413.50	1163.25
413.69	1111.75
413.88	1425.39
414.07	1107.07
414.26	1174.95
414.45	973.66
414.64	1193.67
414.83	1177.29
415.02	1242.82
415.22	1233.46
415.41	1479.22
415.60	1008.77
415.79	1109.41
415.98	1511.99
416.17	1200.69
416.36	1200.69
416.55	1121.12
416.74	1317.72
416.93	1380.92
417.12	1071.97
417.31	1086.01
417.50	1083.67
417.69	1638.38
417.88	1193.67
418.07	950.26
418.26	1013.45
418.45	1132.82
418.64	1577.52
418.83	1308.36
419.02	1270.91
419.21	1235.80
419.39	1247.51
419.58	1018.13
419.77	973.66
419.96	1320.06
420.15	1596.25
420.34	1266.23
420.53	1249.85
420.72	1495.60
420.91	1392.62
421.10	1240.48
421.29	1277.93
421.48	1343.47
421.67	1537.73
421.86	1242.82
422.05	1233.46
422.24	1142.18
422.43	1263.89
422.61	1060.26
422.80	1254.53
422.99	1242.82
423.18	1097.71
423.37	1589.22
423.56	1296.66
423.75	1397.30
423.94	985.37
424.13	1284.95
424.32	1153.88
424.50	1198.35
424.69	1196.01
424.88	1664.12
425.07	1160.91
425.26	1299.00
425.45	1406.66
425.64	1132.82
425.83	1130.48
426.01	1603.27
426.20	1362.19
426.39	1153.88
426.58	1121.12
426.77	1210.06
426.96	1324.74
427.15	1282.61
427.33	1135.16
427.52	1277.93
427.71	1249.85
427.90	1345.81
428.09	1137.50
428.28	1088.35
428.46	1132.82
428.65	1390.28
428.84	1142.18
429.03	1675.82
429.22	1027.50
429.40	971.32
429.59	887.06
429.78	1341.13
429.97	1015.79
430.16	976.00
430.34	1018.13
430.53	922.17
430.72	1067.28
430.91	1472.20
431.10	1158.57
431.28	1184.31
431.47	1633.69
431.66	1516.67
431.85	1315.38
432.03	1196.01
432.22	2062.01
432.41	1413.68
432.60	1650.08
432.79	1310.70
432.97	1399.64
433.16	1385.60
433.35	1153.88
433.54	1135.16
433.72	1437.09
433.91	1427.73
434.10	1191.33
434.28	1416.02
434.47	1348.15
434.66	1692.21
434.85	1387.94
435.03	1394.96
435.22	1842.00
435.41	1961.37
435.59	1631.35
435.78	1446.45
435.97	1418.36
436.16	1699.23
436.34	1535.39
436.53	1605.61
436.72	1696.89
436.90	1699.23
437.09	1617.31
437.28	1577.52
437.46	1401.98
437.65	1605.61
437.84	1465.18
438.02	1540.07
438.21	1472.20
438.40	1226.44
438.58	1296.66
438.77	1446.45
438.96	1570.50
439.14	1383.26
439.33	1788.17
439.52	1425.39
439.70	1561.14
439.89	1750.72
440.08	1530.71
440.26	1596.25
440.45	1975.41
440.63	1739.02
440.82	1586.88
441.01	1563.48
441.19	1579.86
441.38	1579.86
441.57	1631.35
441.75	1907.54
441.94	1998.82
442.12	1799.87
442.31	1668.80
442.50	1788.17
442.68	1519.01
442.87	1767.10
443.05	1664.12
443.24	1764.76
443.43	1926.26
443.61	2064.35
443.80	1748.38
443.98	1610.29
444.17	1657.10
444.35	2010.52
444.54	1827.96
444.73	1802.21
444.91	2045.63
445.10	1589.22
445.28	1563.48
445.47	1743.70
445.65	1689.87
445.84	1654.76
446.02	1680.50
446.21	1678.16
446.39	1696.89
446.58	1905.20
446.77	1680.50
446.95	1739.02
447.14	1956.69
447.32	2176.70
447.51	1867.75
447.69	1849.02
447.88	1837.32
448.06	2209.47
448.25	1928.60
448.43	1650.08
448.62	1593.90
448.80	1748.38
448.99	2115.84
449.17	1755.40
449.36	1795.19
449.54	2036.27
449.73	1753.06
449.91	1977.75
450.10	1949.67
450.28	2551.18
450.46	2410.75
450.65	2157.97
450.83	1966.05
451.02	1907.54
451.20	1914.56
451.39	1916.90
451.57	1863.07
451.76	1839.66
451.94	1797.53
452.13	2176.70
452.31	2129.89
452.49	2008.18
452.68	1675.82
452.86	1966.05
453.05	2396.71
453.23	1954.35
453.42	1748.38
453.60	1937.96
453.78	2087.76
453.97	1706.25
454.15	1802.21
454.34	1914.56
454.52	1788.17
454.70	2230.53
454.89	2188.40
455.07	1825.62
455.26	2090.10
455.44	2256.28
455.62	1872.43
455.81	1991.80
455.99	2087.76
456.17	2080.74
456.36	1959.03
456.54	1926.26
456.73	1947.33
456.91	1881.79
457.09	2017.54
457.28	2326.49
457.46	2022.22
457.64	2202.44
457.83	1879.45
458.01	1921.58
458.19	2062.01
458.38	1923.92
458.56	2143.93
458.74	1928.60
458.93	2045.63
459.11	2263.30
459.29	1912.22
459.48	2176.70
459.66	2478.63
459.84	2239.89
460.03	3246.32
460.21	2429.48
460.39	2101.80
460.57	2396.71
460.76	2202.44
460.94	2108.82
461.12	2576.93
461.31	2607.36
461.49	2225.85
461.67	2047.97
461.85	2106.48
462.04	2143.93
462.22	8652.96
462.40	2616.72
462.59	2520.76
462.77	2029.24
462.95	2209.47
463.13	1860.73
463.32	2356.92
463.50	2146.27
463.68	2317.13
463.86	2076.06
464.05	2045.63
464.23	2312.45
464.41	2148.61
464.59	1977.75
464.78	2064.35
464.96	1886.47
465.14	2275.00
465.32	2064.35
465.50	2361.60
465.69	2394.37
465.87	2059.67
466.05	2157.97
466.23	1944.99
466.41	2010.52
466.60	2062.01
466.78	2136.91
466.96	2387.35
467.14	2289.04
467.32	2434.16
467.51	2284.36
467.69	2211.81
467.87	2586.29
468.05	2188.40
468.23	2677.57
468.41	2464.58
468.60	2104.14
468.78	2186.06
468.96	2492.67
469.14	2335.85
469.32	1940.30
469.50	1996.48
469.69	2260.96
469.87	2186.06
470.05	2174.36
470.23	2127.55
470.41	2038.61
470.59	2064.35
470.77	2342.88
470.95	2169.68
471.14	2495.01
471.32	2256.28
471.50	2864.82
471.68	2394.37
471.86	2473.95
472.04	2211.81
472.22	2335.85
472.40	2129.89
472.58	2101.80
472.77	2066.69
472.95	2326.49
473.13	2911.63
473.31	2637.78
473.49	2174.36
473.67	2148.61
473.85	2457.56
474.03	2539.48
474.21	2487.99
474.39	2806.30
474.57	2942.05
474.75	2530.12
474.93	2289.04
475.12	2160.31
475.30	2258.62
475.48	2366.28
475.66	2459.90
475.84	2420.11
476.02	2300.75
476.20	2621.40
476.38	2450.54
476.56	3255.69
476.74	2614.38
476.92	2520.76
477.10	2497.35
477.28	2679.91
477.46	2574.59
477.64	2829.71
477.82	2644.81
478.00	2628.42
478.18	2733.75
478.36	2581.61
478.54	2555.86
478.72	2478.63
478.90	2663.53
479.08	2848.43
479.26	2808.64
479.44	2700.98
479.62	2485.65
479.80	2752.47
479.98	2427.14
480.16	2581.61
480.34	2984.18
480.52	2719.70
480.70	2913.97
480.88	2761.83
481.06	2567.57
481.24	2675.23
481.41	2820.35
481.59	3026.31
481.77	3047.38
481.95	2766.51
482.13	3173.77
482.31	2796.94
482.49	2888.22
482.67	2979.50
482.85	3131.64
483.03	3047.38
483.21	2972.48
483.39	2951.42
483.57	2946.73
483.74	3405.48
483.92	3042.70
484.10	2897.58
484.28	3269.73
484.46	3784.65
484.64	3047.38
484.82	2970.14
485.00	2888.22
485.18	2892.90
485.35	2867.16
485.53	2520.76
485.71	2937.37
485.89	2345.22
486.07	2642.46
486.25	3574.00
486.43	3094.19
486.61	3176.11
486.78	3173.77
486.96	2909.29
487.14	3126.96
487.32	3220.58
487.50	3126.96
487.68	3499.10
487.85	3096.53
488.03	3410.16
488.21	3709.75
488.39	3283.77
488.57	3330.58
488.75	3314.20
488.92	6965.43
489.10	3571.66
489.28	4109.98
489.46	3318.88
489.64	3543.57
489.81	3646.55
489.99	3847.84
490.17	3712.09
490.35	4500.85
490.53	3538.89
490.70	3461.65
490.88	3873.59
491.06	3564.64
491.24	3822.09
491.41	3960.19
491.59	3499.10
491.77	3353.99
491.95	3208.87
492.13	3503.78
492.30	3756.56
492.48	3705.07
492.66	3948.48
492.84	3604.42
493.01	3747.20
493.19	3644.21
493.37	4184.88
493.54	3852.52
493.72	3934.44
493.90	3946.14
494.08	3836.14
494.25	3981.25
494.43	4121.68
494.61	3894.65
494.79	3892.31
494.96	3838.48
495.14	4142.75
495.32	3695.71
495.49	3934.44
495.67	4070.19
495.85	4060.83
496.02	3829.12
496.20	4294.88
496.38	4161.47
496.55	4119.34
496.73	4297.22
496.91	4095.94
497.09	4564.04
497.26	4140.41
497.44	4149.77
497.62	4184.88
497.79	4138.07
497.97	4124.02
498.14	4322.97
498.32	4440.00
498.50	4297.22
498.67	4191.90
498.85	4365.10
499.03	4224.67
499.20	4404.89
499.38	4447.02
499.56	4259.78
499.73	4849.59
499.91	4369.78
500.08	4346.37
500.26	4081.89
500.44	4070.19
500.61	4299.56
500.79	4056.15
500.97	4451.70
501.14	4699.80
501.32	4278.50
501.49	4444.68
501.67	4145.09
501.84	4243.39
502.02	4046.79
502.20	4901.08
502.37	4442.34
502.55	4332.33
502.72	4484.47
502.90	4554.68
503.07	4552.34
503.25	4491.49
503.43	4145.09
503.60	4126.36
503.78	4238.71
503.95	4292.54
504.13	4430.63
504.30	4566.39
504.48	4779.37
504.65	4716.18
504.83	4697.46
505.01	4449.36
505.18	4603.83
505.36	4711.50
505.53	4533.62
505.71	4720.86
505.88	5111.73
506.06	4599.15
506.23	4489.15
506.41	4519.57
506.58	4676.39
506.76	4606.17
506.93	4573.41
507.11	4592.13
507.28	4418.93
507.46	4287.86
507.63	4589.79
507.81	4201.26
507.98	4535.96
508.16	4730.22
508.33	4538.30
508.50	4868.31
508.68	4706.82
508.85	4777.03
509.03	4720.86
509.20	4667.03
509.38	4681.07
509.55	4842.57
509.73	4889.38
509.90	5146.84
510.08	4430.63
510.25	5095.35
510.42	4571.07
510.60	4767.67
510.77	4959.60
510.95	5221.74
511.12	4723.20
511.30	5039.17
511.47	5212.37
511.64	5444.09
511.82	4770.01
511.99	4552.34
512.17	4709.16
512.34	4655.33
512.51	4606.17
512.69	4620.22
512.86	5186.63
513.04	4709.16
513.21	4770.01
513.38	4716.18
513.56	4629.58
513.73	4575.75
513.90	4559.36
514.08	4596.81
514.25	4826.18
514.43	4873.00
514.60	4734.90
514.77	4592.13
514.95	4814.48
515.12	4564.04
515.29	4734.90
515.47	5036.83
515.64	4931.51
515.81	4809.80
515.99	5273.23
516.16	4748.95
516.33	4603.83
516.51	4051.47
516.68	3829.12
516.85	3962.53
517.03	4301.90
517.20	4713.84
517.37	4910.44
517.54	4985.34
517.72	4655.33
517.89	3939.12
518.06	4156.79
518.24	4905.76
518.41	5191.31
518.58	5004.07
518.75	4535.96
518.93	4814.48
519.10	4856.61
519.27	4748.95
519.45	4870.65
519.62	4966.62
519.79	5095.35
519.96	4830.87
520.14	4933.85
520.31	5247.48
520.48	4887.04
520.65	4894.06
520.83	5259.18
521.00	5184.29
521.17	5504.94
521.34	5022.79
521.52	5305.99
521.69	5235.78
521.86	5235.78
522.03	5315.36
522.20	5474.51
522.38	4891.72
522.55	4933.85
522.72	5011.09
522.89	5287.27
523.07	5628.99
523.24	5139.82
523.41	4980.66
523.58	5298.97
523.75	5277.91
523.92	5036.83
524.10	5371.53
524.27	5301.31
524.44	5057.90
524.61	5614.95
524.78	5132.79
524.96	5462.81
525.13	5259.18
525.30	5547.07
525.47	5710.91
525.64	5310.68
525.81	5284.93
525.98	5130.45
526.16	4751.29
526.33	4624.90
526.50	4517.23
526.67	4624.90
526.84	4421.27
527.01	4688.09
527.18	5214.71
527.36	5266.21
527.53	5181.95
527.70	5682.82
527.87	5252.16
528.04	5982.41
528.21	5193.65
528.38	5797.51
528.55	5949.64
528.72	5881.77
528.89	6169.65
529.07	5633.67
529.24	5479.19
529.41	5804.53
529.58	5390.25
529.75	4959.60
529.92	5584.52
530.09	5680.48
530.26	5788.14
530.43	5628.99
530.60	5652.39
530.77	5699.20
530.94	5865.38
531.11	5675.80
531.28	5518.98
531.46	5383.23
531.63	5624.31
531.80	5453.45
531.97	5474.51
532.14	5397.28
532.31	5193.65
532.48	5219.39
532.65	5214.71
532.82	5004.07
532.99	5366.85
533.16	5563.45
533.33	5638.35
533.50	5411.32
533.67	5203.01
533.84	5554.09
534.01	5528.35
534.18	5404.30
534.35	5451.11
534.52	5542.39
534.69	6104.12
534.86	5563.45
535.03	5516.64
535.20	5638.35
535.37	6059.65
535.54	5760.06
535.71	5582.18
535.88	6122.84
536.05	5584.52
536.22	5680.48
536.38	5462.81
536.55	5416.00
536.72	5659.42
536.89	5261.52
537.06	5460.47
537.23	5509.62
537.40	5659.42
537.57	5490.90
537.74	5823.25
537.91	5865.38
538.08	5636.01
538.25	5825.59
538.42	5568.13
538.59	5736.65
538.75	5547.07
538.92	5570.48
539.09	5851.34
539.26	5441.75
539.43	5778.78
539.60	5455.79
539.77	5565.79
539.94	5401.96
540.11	5383.23
540.28	5579.84
540.44	5535.37
540.61	5315.36
540.78	5383.23
540.95	5254.50
541.12	6094.76
541.29	5551.75
541.46	5989.43
541.62	5701.54
541.79	5582.18
541.96	5186.63
542.13	5371.53
542.30	5364.51
542.47	5790.49
542.63	5448.77
542.80	5659.42
542.97	5905.17
543.14	5596.22
543.31	5853.68
543.48	5760.06
543.64	5767.08
543.81	5895.81
543.98	5551.75
544.15	5376.21
544.32	5511.96
544.48	5533.03
544.65	5650.05
544.82	5565.79
544.99	5628.99
545.16	5863.04
545.32	5500.26
545.49	5888.79
545.66	5682.82
545.83	5486.22
546.00	5324.72
546.16	5514.30
546.33	5628.99
546.50	5645.37
546.67	6069.01
546.83	5900.49
547.00	5708.57
547.17	5308.34
547.34	5329.40
547.50	5551.75
547.67	5554.09
547.84	5579.84
548.00	5722.61
548.17	5469.83
548.34	5640.69
548.51	6225.82
548.67	6085.39
548.84	5596.22
549.01	5774.10
549.18	5832.62
549.34	5671.12
549.51	5673.46
549.68	5802.19
549.84	5572.82
550.01	5490.90
550.18	7157.36
550.34	6590.95
550.51	5778.78
550.68	6076.03
550.84	5518.98
551.01	5628.99
551.18	5865.38
551.34	5591.54
551.51	5631.33
551.68	5809.21
551.84	5982.41
552.01	5561.11
552.18	5624.31
552.34	5540.05
552.51	5631.33
552.68	5736.65
552.84	5535.37
553.01	5706.23
553.18	5877.09
553.34	5729.63
553.51	5514.30
553.67	5832.62
553.84	6370.94
554.01	5949.64
554.17	5951.98
554.34	5591.54
554.51	5951.98
554.67	6031.56
554.84	5799.85
555.00	5813.89
555.17	6026.88
555.33	5949.64
555.50	5727.29
555.67	5776.44
555.83	5387.91
556.00	5621.97
556.16	7763.56
556.33	5603.24
556.50	5561.11
556.66	5579.84
556.83	5394.93
556.99	5425.36
557.16	5596.22
557.32	5495.58
557.49	5678.14
557.65	5479.19
557.82	5568.13
557.98	5654.73
558.15	5596.22
558.32	5355.15
558.48	5142.16
558.65	5224.08
558.81	5570.48
558.98	5242.80
559.14	5724.95
559.31	5427.70
559.47	5469.83
559.64	5200.67
559.80	5731.97
559.97	5174.92
560.13	5610.26
560.30	5341.10
560.46	5652.39
560.63	5715.59
560.79	5797.51
560.96	5614.95
561.12	5313.02
561.29	5535.37
561.45	5301.31
561.61	5537.71
561.78	6534.78
561.94	5504.94
562.11	5563.45
562.27	5650.05
562.44	5610.26
562.60	5694.52
562.77	5558.77
562.93	6394.34
563.10	5675.80
563.26	5577.50
563.42	5966.03
563.59	5760.06
563.75	5394.93
563.92	5954.32
564.08	5547.07
564.24	5975.39
564.41	6230.51
564.57	5528.35
564.74	5547.07
564.90	5621.97
565.07	5760.06
565.23	5750.70
565.39	5238.12
565.56	5507.28
565.72	5336.42
565.88	5561.11
566.05	5528.35
566.21	5313.02
566.38	5465.15
566.54	5523.66
566.70	5469.83
566.87	5551.75
567.03	5139.82
567.19	5643.03
567.36	5738.99
567.52	5446.43
567.68	5598.56
567.85	5593.88
568.01	5252.16
568.17	5219.39
568.34	5235.78
568.50	5589.20
568.66	5210.03
568.83	6204.76
568.99	5198.33
569.15	5678.14
569.32	5420.68
569.48	5287.27
569.64	5355.15
569.81	5430.04
569.97	5193.65
570.13	5554.09
570.30	5132.79
570.46	5043.85
570.62	4999.38
570.78	5097.69
570.95	4931.51
571.11	5851.34
571.27	5849.00
571.43	5181.95
571.60	5579.84
571.76	5385.57
571.92	5397.28
572.09	5256.84
572.25	5558.77
572.41	5509.62
572.57	5465.15
572.74	5970.71
572.90	5708.57
573.06	5713.25
573.22	5650.05
573.38	5696.86
573.55	5603.24
573.71	5699.20
573.87	5650.05
574.03	5233.44
574.20	5284.93
574.36	5851.34
574.52	5345.78
574.68	5231.10
574.84	5490.90
575.01	5563.45
575.17	5570.48
575.33	5254.50
575.49	5706.23
575.65	5715.59
575.82	5638.35
575.98	6118.16
576.14	5486.22
576.30	5441.75
576.46	5411.32
576.62	5579.84
576.79	5554.09
576.95	5657.07
577.11	5233.44
577.27	5163.22
577.43	5753.04
577.59	5717.93
577.75	5427.70
577.92	5006.41
578.08	5137.48
578.24	5114.07
578.40	5682.82
578.56	5741.33
578.72	5572.82
578.88	5626.65
579.04	5303.65
579.21	5589.20
579.37	5362.17
579.53	5357.49
579.69	5703.89
579.85	5266.21
580.01	5437.06
580.17	5212.37
580.33	5207.69
580.49	5469.83
580.65	5509.62
580.82	5341.10
580.98	5348.12
581.14	5284.93
581.30	5837.30
581.46	5551.75
581.62	5760.06
581.78	5362.17
581.94	5643.03
582.10	5282.59
582.26	5490.90
582.42	5291.95
582.58	5589.20
582.74	5507.28
582.90	5607.92
583.06	5727.29
583.22	5666.44
583.38	5376.21
583.54	5408.98
583.70	5856.02
583.86	5650.05
584.02	5479.19
584.18	6094.76
584.34	5535.37
584.50	5474.51
584.66	5518.98
584.82	5224.08
584.98	5383.23
585.14	5263.86
585.30	5551.75
585.46	5331.74
585.62	5050.88
585.78	5301.31
585.94	5467.49
586.10	5331.74
586.26	5383.23
586.42	5928.58
586.58	5647.71
586.74	5334.08
586.90	5296.63
587.06	5462.81
587.22	5399.62
587.38	5167.90
587.54	5235.78
587.70	5699.20
587.86	5451.11
588.02	5039.17
588.18	5245.14
588.34	5095.35
588.49	4315.95
588.65	4734.90
588.81	4507.87
588.97	4402.55
589.13	4573.41
589.29	4519.57
589.45	4990.02
589.61	4952.57
589.77	5296.63
589.93	5081.30
590.08	5200.67
590.24	4938.53
590.40	5191.31
590.56	5275.57
590.72	5001.72
590.88	4915.12
591.04	5053.22
591.20	4882.36
591.35	5490.90
591.51	4954.91
591.67	4943.21
591.83	4992.36
591.99	5359.83
592.15	5408.98
592.31	5327.06
592.46	5167.90
592.62	5448.77
592.78	4985.34
592.94	5118.75
593.10	5032.15
593.26	5067.26
593.41	5392.59
593.57	5123.43
593.73	5158.54
593.89	5315.36
594.05	4983.00
594.20	5046.20
594.36	5359.83
594.52	4929.17
594.68	5004.07
594.84	5273.23
594.99	5633.67
595.15	5364.51
595.31	5289.61
595.47	5549.41
595.62	5224.08
595.78	5139.82
595.94	5041.51
596.10	5547.07
596.25	5135.14
596.41	5198.33
596.57	5114.07
596.73	5062.58
596.88	5191.31
597.04	5151.52
597.20	5039.17
597.36	5097.69
597.51	4959.60
597.67	5032.15
597.83	4954.91
597.99	5179.61
598.14	5074.28
598.30	5401.96
