SpectraSuite Data File
++++++++++++++++++++++++++++++++++++
Date: Mon Oct 07 15:00:14 GMT-05:00 2013
User: price-jones
Dark Spectrum Present: No
Reference Spectrum Present: No
Number of Sampled Component Spectra: 1
Spectrometers: USB2+H05261
Integration Time (usec): 1000000 (USB2+H05261)
Spectra Averaged: 1 (USB2+H05261)
Boxcar Smoothing: 0 (USB2+H05261)
Correct for Electrical Dark: No (USB2+H05261)
Strobe/Lamp Enabled: No (USB2+H05261)
Correct for Detector Non-linearity: No (USB2+H05261)
Correct for Stray Light: No (USB2+H05261)
Number of Pixels in Processed Spectrum: 2048
>>>>>Begin Processed Spectral Data<<<<<
365.73	0.00
365.92	0.00
366.12	0.00
366.32	0.00
366.52	0.00
366.72	147.45
366.91	0.00
367.11	220.01
367.31	74.90
367.51	119.37
367.70	257.46
367.90	430.66
368.10	241.08
368.30	243.42
368.49	0.00
368.69	440.02
368.89	154.48
369.09	0.00
369.28	70.22
369.48	0.00
369.68	124.05
369.87	294.91
370.07	63.19
370.27	470.45
370.47	308.95
370.66	147.45
370.86	400.23
371.06	638.97
371.25	917.49
371.45	170.86
371.65	594.50
371.84	208.31
372.04	56.17
372.24	313.63
372.44	208.31
372.63	435.34
372.83	842.59
373.03	395.55
373.22	241.08
373.42	212.99
373.62	304.27
373.81	400.23
374.01	606.20
374.21	543.00
374.40	222.35
374.60	624.92
374.79	301.93
374.99	255.12
375.19	400.23
375.38	479.81
375.58	393.21
375.78	770.04
375.97	622.58
376.17	971.32
376.37	402.57
376.56	489.17
376.76	224.69
376.95	280.86
377.15	533.64
377.35	458.74
377.54	526.62
377.74	236.39
377.93	276.18
378.13	430.66
378.33	608.54
378.52	297.25
378.72	706.84
378.91	587.47
379.11	299.59
379.31	320.65
379.50	70.22
379.70	641.31
379.89	727.91
380.09	294.91
380.28	234.05
380.48	369.80
380.68	266.82
380.87	161.50
381.07	444.70
381.26	681.10
381.46	222.35
381.65	498.53
381.85	273.84
382.04	521.94
382.24	409.59
382.43	236.39
382.63	257.46
382.83	348.74
383.02	578.11
383.22	657.69
383.41	266.82
383.61	407.25
383.80	713.86
384.00	367.46
384.19	308.95
384.39	393.21
384.58	322.99
384.78	505.56
384.97	404.91
385.17	334.70
385.36	264.48
385.56	566.41
385.75	170.86
385.95	339.38
386.14	552.37
386.34	325.33
386.53	456.40
386.72	322.99
386.92	739.61
387.11	500.87
387.31	582.79
387.50	327.68
387.70	311.29
387.89	365.12
388.09	283.20
388.28	133.41
388.48	51.49
388.67	627.26
388.86	418.96
389.06	360.44
389.25	491.51
389.45	521.94
389.64	376.83
389.84	645.99
390.03	568.75
390.22	388.53
390.42	332.36
390.61	269.16
390.81	262.14
391.00	397.89
391.19	645.99
391.39	311.29
391.58	617.90
391.78	351.08
391.97	458.74
392.16	191.92
392.36	791.10
392.55	636.63
392.75	360.44
392.94	220.01
393.13	599.18
393.33	203.63
393.52	250.44
393.71	779.40
393.91	404.91
394.10	229.37
394.29	252.78
394.49	245.76
394.68	475.13
394.88	662.37
395.07	657.69
395.26	437.68
395.46	395.55
395.65	662.37
395.84	465.77
396.04	1160.91
396.23	327.68
396.42	294.91
396.62	505.56
396.81	526.62
397.00	369.80
397.19	519.60
397.39	425.98
397.58	835.57
397.77	411.93
397.97	386.19
398.16	388.53
398.35	463.43
398.55	278.52
398.74	383.85
398.93	763.01
399.12	383.85
399.32	594.50
399.51	381.51
399.70	538.32
399.90	510.24
400.09	547.69
400.28	655.35
400.47	425.98
400.67	641.31
400.86	421.30
401.05	622.58
401.24	737.27
401.44	641.31
401.63	596.84
401.82	751.31
402.01	397.89
402.21	624.92
402.40	528.96
402.59	395.55
402.78	421.30
402.97	404.91
403.17	505.56
403.36	561.73
403.55	465.77
403.74	433.00
403.93	397.89
404.13	697.48
404.32	332.36
404.51	416.62
404.70	688.12
404.89	451.72
405.09	1011.11
405.28	463.43
405.47	332.36
405.66	582.79
405.85	786.42
406.05	514.92
406.24	418.96
406.43	521.94
406.62	599.18
406.81	1135.16
407.00	718.54
407.20	547.69
407.39	517.26
407.58	470.45
407.77	653.01
407.96	795.78
408.15	767.70
408.34	641.31
408.54	613.22
408.73	631.94
408.92	566.41
409.11	688.12
409.30	863.66
409.49	337.04
409.68	470.45
409.87	561.73
410.07	430.66
410.26	550.03
410.45	477.47
410.64	430.66
410.83	543.00
411.02	456.40
411.21	725.57
411.40	751.31
411.59	528.96
411.78	498.53
411.98	571.09
412.17	344.06
412.36	454.06
412.55	491.51
412.74	779.40
412.93	968.98
413.12	498.53
413.31	791.10
413.50	589.82
413.69	557.05
413.88	952.60
414.07	664.71
414.26	578.11
414.45	479.81
414.64	671.73
414.83	638.97
415.02	636.63
415.22	748.97
415.41	933.87
415.60	449.38
415.79	603.86
415.98	1013.45
416.17	697.48
416.36	655.35
416.55	543.00
416.74	723.23
416.93	814.51
417.12	608.54
417.31	554.71
417.50	557.05
417.69	1069.62
417.88	660.03
418.07	416.62
418.26	510.24
418.45	594.50
418.64	1086.01
418.83	725.57
419.02	755.99
419.21	669.39
419.39	627.26
419.58	430.66
419.77	477.47
419.96	894.08
420.15	1109.41
420.34	650.67
420.53	755.99
420.72	856.64
420.91	681.10
421.10	645.99
421.29	695.14
421.48	751.31
421.67	880.04
421.86	543.00
422.05	589.82
422.24	615.56
422.43	638.97
422.61	402.57
422.80	580.45
422.99	716.20
423.18	552.37
423.37	976.00
423.56	837.91
423.75	772.38
423.94	449.38
424.13	528.96
424.32	521.94
424.50	514.92
424.69	636.63
424.88	1097.71
425.07	535.98
425.26	812.17
425.45	772.38
425.64	461.09
425.83	608.54
426.01	999.41
426.20	744.29
426.39	465.77
426.58	578.11
426.77	624.92
426.96	755.99
427.15	727.91
427.33	524.28
427.52	688.12
427.71	629.60
427.90	699.82
428.09	594.50
428.28	376.83
428.46	550.03
428.65	777.06
428.84	526.62
429.03	1053.24
429.22	540.66
429.40	451.72
429.59	440.02
429.78	772.38
429.97	517.26
430.16	433.00
430.34	638.97
430.53	468.11
430.72	568.75
430.91	917.49
431.10	491.51
431.28	561.73
431.47	985.37
431.66	791.10
431.85	540.66
432.03	685.78
432.22	1411.34
432.41	580.45
432.60	945.58
432.79	554.71
432.97	681.10
433.16	655.35
433.35	528.96
433.54	592.16
433.72	894.08
433.91	840.25
434.10	465.77
434.28	685.78
434.47	629.60
434.66	870.68
434.85	505.56
435.03	638.97
435.22	1074.31
435.41	1196.01
435.59	842.59
435.78	788.76
435.97	648.33
436.16	936.21
436.34	720.88
436.53	840.25
436.72	1104.73
436.90	908.13
437.09	830.89
437.28	683.44
437.46	564.07
437.65	880.04
437.84	798.12
438.02	807.48
438.21	870.68
438.40	653.01
438.58	456.40
438.77	807.48
438.96	695.14
439.14	482.15
439.33	917.49
439.52	786.42
439.70	826.21
439.89	919.83
440.08	821.53
440.26	866.00
440.45	1252.19
440.63	929.19
440.82	870.68
441.01	798.12
441.19	653.01
441.38	664.71
441.57	727.91
441.75	1156.22
441.94	1116.44
442.12	833.23
442.31	795.78
442.50	655.35
442.68	716.20
442.87	812.17
443.05	748.97
443.24	828.55
443.43	1013.45
443.61	1128.14
443.80	924.51
443.98	681.10
444.17	854.30
444.35	1050.90
444.54	795.78
444.73	837.91
444.91	1060.26
445.10	660.03
445.28	683.44
445.47	830.89
445.65	861.32
445.84	685.78
446.02	858.98
446.21	755.99
446.39	702.16
446.58	905.79
446.77	723.23
446.95	826.21
447.14	973.66
447.32	1235.80
447.51	812.17
447.69	847.27
447.88	954.94
448.06	1275.59
448.25	987.71
448.43	772.38
448.62	699.82
448.80	929.19
448.99	1053.24
449.17	704.50
449.36	657.69
449.54	1121.12
449.73	669.39
449.91	1095.37
450.10	837.91
450.28	1551.78
450.46	1544.75
450.65	1158.57
450.83	994.73
451.02	877.70
451.20	896.43
451.39	858.98
451.57	891.74
451.76	784.08
451.94	922.17
452.13	1004.09
452.31	1142.18
452.49	980.68
452.68	692.80
452.86	950.26
453.05	1462.83
453.23	908.13
453.42	636.63
453.60	945.58
453.78	1022.81
453.97	620.24
454.15	702.16
454.34	713.86
454.52	798.12
454.70	1158.57
454.89	1041.54
455.07	765.36
455.26	994.73
455.44	1116.44
455.62	779.40
455.81	933.87
455.99	1088.35
456.17	1008.77
456.36	915.15
456.54	889.40
456.73	746.63
456.91	863.66
457.09	894.08
457.28	1200.69
457.46	940.90
457.64	1198.35
457.83	844.93
458.01	674.07
458.19	940.90
458.38	908.13
458.56	954.94
458.74	748.97
458.93	990.05
459.11	1109.41
459.29	800.46
459.48	1132.82
459.66	1392.62
459.84	1116.44
460.03	1905.20
460.21	1165.59
460.39	849.61
460.57	1249.85
460.76	964.30
460.94	1039.20
461.12	1441.77
461.31	1268.57
461.49	889.40
461.67	903.45
461.85	1004.09
462.04	908.13
462.22	7307.15
462.40	1310.70
462.59	1308.36
462.77	917.49
462.95	940.90
463.13	802.80
463.32	1224.10
463.50	985.37
463.68	1128.14
463.86	968.98
464.05	807.48
464.23	1387.94
464.41	1144.52
464.59	748.97
464.78	791.10
464.96	844.93
465.14	973.66
465.32	816.85
465.50	1170.27
465.69	1088.35
465.87	737.27
466.05	1142.18
466.23	664.71
466.41	847.27
466.60	849.61
466.78	931.53
466.96	1261.55
467.14	1018.13
467.32	1268.57
467.51	1165.59
467.69	1107.07
467.87	1481.56
468.05	992.39
468.23	1493.26
468.41	1306.02
468.60	919.83
468.78	1050.90
468.96	1331.76
469.14	1144.52
469.32	737.27
469.50	732.59
469.69	1149.20
469.87	968.98
470.05	1062.60
470.23	884.72
470.41	748.97
470.59	788.76
470.77	1064.94
470.95	964.30
471.14	1303.68
471.32	933.87
471.50	1380.92
471.68	1018.13
471.86	1076.65
472.04	800.46
472.22	1071.97
472.40	753.65
472.58	849.61
472.77	802.80
472.95	966.64
473.13	1563.48
473.31	1329.42
473.49	772.38
473.67	884.72
473.85	1210.06
474.03	1160.91
474.21	959.62
474.39	1245.16
474.57	1519.01
474.75	1071.97
474.93	931.53
475.12	781.74
475.30	966.64
475.48	1100.05
475.66	1083.67
475.84	1004.09
476.02	964.30
476.20	1207.72
476.38	1123.46
476.56	1806.89
476.74	1043.88
476.92	976.00
477.10	1102.39
477.28	1249.85
477.46	1013.45
477.64	1266.23
477.82	1135.16
478.00	1116.44
478.18	1125.80
478.36	999.41
478.54	987.71
478.72	964.30
478.90	1104.73
479.08	1238.14
479.26	1137.50
479.44	1053.24
479.62	966.64
479.80	1121.12
479.98	999.41
480.16	1034.52
480.34	1277.93
480.52	961.96
480.70	1282.61
480.88	1018.13
481.06	1036.86
481.24	1050.90
481.41	1111.75
481.59	1341.13
481.77	1142.18
481.95	1130.48
482.13	1617.31
482.31	1313.04
482.49	1036.86
482.67	1362.19
482.85	1280.27
483.03	1373.89
483.21	1270.91
483.39	1062.60
483.57	1097.71
483.74	1666.46
483.92	1249.85
484.10	1011.11
484.28	1528.37
484.46	1996.48
484.64	1160.91
484.82	1268.57
485.00	1132.82
485.18	1284.95
485.35	1205.38
485.53	887.06
485.71	1413.68
485.89	894.08
486.07	1039.20
486.25	1928.60
486.43	1357.51
486.61	1446.45
486.78	1373.89
486.96	1013.45
487.14	1247.51
487.32	1090.69
487.50	1184.31
487.68	1511.99
487.85	1104.73
488.03	1387.94
488.21	1741.36
488.39	1245.16
488.57	1481.56
488.75	1170.27
488.92	4741.93
489.10	1593.90
489.28	1856.04
489.46	1226.44
489.64	1369.21
489.81	1476.88
489.99	1605.61
490.17	1308.36
490.35	2246.91
490.53	1460.49
490.70	1313.04
490.88	1629.01
491.06	1296.66
491.24	1626.67
491.41	1928.60
491.59	1610.29
491.77	1240.48
491.95	1151.54
492.13	1420.71
492.30	1425.39
492.48	1355.17
492.66	1509.65
492.84	1364.53
493.01	1558.80
493.19	1380.92
493.37	1930.94
493.54	1614.97
493.72	1617.31
493.90	1455.81
494.08	1355.17
494.25	1633.69
494.43	1511.99
494.61	1540.07
494.79	1390.28
494.96	1378.58
495.14	1654.76
495.32	1413.68
495.49	1624.33
495.67	1603.27
495.85	1420.71
496.02	1310.70
496.20	1762.42
496.38	1764.76
496.55	1638.38
496.73	1790.51
496.91	1479.22
497.09	1902.86
497.26	1614.97
497.44	1600.93
497.62	1537.73
497.79	1619.65
497.97	1661.78
498.14	1781.15
498.32	1675.82
498.50	1823.28
498.67	1549.43
498.85	1692.21
499.03	1551.78
499.20	1643.06
499.38	1621.99
499.56	1661.78
499.73	2118.18
499.91	1870.09
500.08	1792.85
500.26	1453.47
500.44	1455.81
500.61	1687.53
500.79	1472.20
500.97	1818.60
501.14	2017.54
501.32	1687.53
501.49	1996.48
501.67	1638.38
501.84	1806.89
502.02	1359.85
502.20	2277.34
502.37	1809.23
502.55	1556.46
502.72	1629.01
502.90	1944.99
503.07	1774.13
503.25	1757.74
503.43	1547.09
503.60	1647.74
503.78	1783.49
503.95	1643.06
504.13	1568.16
504.30	2005.84
504.48	1977.75
504.65	1982.43
504.83	1902.86
505.01	1668.80
505.18	1846.68
505.36	1818.60
505.53	1694.55
505.71	1736.68
505.88	2050.31
506.06	1621.99
506.23	1668.80
506.41	1720.29
506.58	1926.26
506.76	1898.17
506.93	1612.63
507.11	1816.26
507.28	1549.43
507.46	1481.56
507.63	1827.96
507.81	1596.25
507.98	1729.66
508.16	1631.35
508.33	1717.95
508.50	1921.58
508.68	1802.21
508.85	1886.47
509.03	1600.93
509.20	1621.99
509.38	1839.66
509.55	2024.56
509.73	1984.77
509.90	2083.08
510.08	1572.84
510.25	1956.69
510.42	1652.42
510.60	1785.83
510.77	1893.49
510.95	1998.82
511.12	1696.89
511.30	2017.54
511.47	2038.61
511.64	2317.13
511.82	1832.64
511.99	1692.21
512.17	1682.85
512.34	1575.18
512.51	1547.09
512.69	1675.82
512.86	2134.57
513.04	1654.76
513.21	1867.75
513.38	1535.39
513.56	1675.82
513.73	1617.31
513.90	1500.28
514.08	1570.50
514.25	1888.81
514.43	1893.49
514.60	1540.07
514.77	1673.48
514.95	1877.11
515.12	1593.90
515.29	1926.26
515.47	1863.07
515.64	1816.26
515.81	1839.66
515.99	2099.46
516.16	1799.87
516.33	1940.30
516.51	1474.54
516.68	1341.13
516.85	1514.33
517.03	1549.43
517.20	1863.07
517.37	1769.44
517.54	1909.88
517.72	1675.82
517.89	1306.02
518.06	1404.32
518.24	2179.04
518.41	2214.15
518.58	1937.96
518.75	1561.14
518.93	1797.53
519.10	1856.04
519.27	1732.00
519.45	1825.62
519.62	1844.34
519.79	2050.31
519.96	1586.88
520.14	1809.23
520.31	2090.10
520.48	1755.40
520.65	1865.41
520.83	2083.08
521.00	2033.93
521.17	2139.25
521.34	1666.46
521.52	1912.22
521.69	1872.43
521.86	1860.73
522.03	2115.84
522.20	2221.17
522.38	1703.91
522.55	1902.86
522.72	1603.27
522.89	2108.82
523.07	2436.50
523.24	1877.11
523.41	1802.21
523.58	1895.83
523.75	1865.41
523.92	1762.42
524.10	1916.90
524.27	1881.79
524.44	1799.87
524.61	2127.55
524.78	1762.42
524.96	2017.54
525.13	2136.91
525.30	2260.96
525.47	2253.94
525.64	1982.43
525.81	1975.41
525.98	1905.20
526.16	1703.91
526.33	1528.37
526.50	1626.67
526.67	1591.56
526.84	1598.59
527.01	1703.91
527.18	1832.64
527.36	1921.58
527.53	1729.66
527.70	2169.68
527.87	1891.15
528.04	2401.39
528.21	1790.51
528.38	2134.57
528.55	2260.96
528.72	2385.01
528.89	2541.82
529.07	1959.03
529.24	1905.20
529.41	2242.23
529.58	1830.30
529.75	1884.13
529.92	2099.46
530.09	1928.60
530.26	2172.02
530.43	2078.40
530.60	2036.27
530.77	1959.03
530.94	2104.14
531.11	1998.82
531.28	1966.05
531.46	1860.73
531.63	1994.14
531.80	1982.43
531.97	2118.18
532.14	2090.10
532.31	1872.43
532.48	1902.86
532.65	1842.00
532.82	1603.27
532.99	1724.97
533.16	1900.52
533.33	1949.67
533.50	1886.47
533.67	1764.76
533.84	2057.33
534.01	1998.82
534.18	1858.39
534.35	2015.20
534.52	1937.96
534.69	2495.01
534.86	2015.20
535.03	1926.26
535.20	1858.39
535.37	2090.10
535.54	2029.24
535.71	1947.33
535.88	2445.86
536.05	1844.34
536.22	2012.86
536.38	1820.94
536.55	1982.43
536.72	2270.32
536.89	1741.36
537.06	1813.92
537.23	1750.72
537.40	1846.68
537.57	1820.94
537.74	1991.80
537.91	2174.36
538.08	2026.90
538.25	2052.65
538.42	1870.09
538.59	2069.03
538.75	1942.64
538.92	1994.14
539.09	2218.83
539.26	1863.07
539.43	2317.13
539.60	1947.33
539.77	2005.84
539.94	1842.00
540.11	1942.64
540.28	2260.96
540.44	2188.40
540.61	1785.83
540.78	1834.98
540.95	1724.97
541.12	2270.32
541.29	1884.13
541.46	2354.58
541.62	2080.74
541.79	1771.79
541.96	1830.30
542.13	1799.87
542.30	1715.61
542.47	2115.84
542.63	1949.67
542.80	2059.67
542.97	2307.77
543.14	1935.62
543.31	2019.88
543.48	1818.60
543.64	2015.20
543.81	1982.43
543.98	1795.19
544.15	1750.72
544.32	1802.21
544.48	1909.88
544.65	1933.28
544.82	1823.28
544.99	1872.43
545.16	2146.27
545.32	1811.57
545.49	2064.35
545.66	1851.36
545.83	1736.68
546.00	1727.32
546.16	1832.64
546.33	1858.39
546.50	1846.68
546.67	2359.26
546.83	2230.53
547.00	1863.07
547.17	1715.61
547.34	1668.80
547.50	1928.60
547.67	1884.13
547.84	1713.27
548.00	2024.56
548.17	1788.17
548.34	1820.94
548.51	2359.26
548.67	2181.38
548.84	1834.98
549.01	1858.39
549.18	2022.22
549.34	1975.41
549.51	1968.39
549.68	2047.97
549.84	1902.86
550.01	1781.15
550.18	3440.59
550.34	2743.11
550.51	1961.37
550.68	2450.54
550.84	1790.51
551.01	1970.73
551.18	2097.12
551.34	1942.64
551.51	1767.10
551.68	1952.01
551.84	2076.06
552.01	1884.13
552.18	1694.55
552.34	1933.28
552.51	1954.35
552.68	2085.42
552.84	1921.58
553.01	2085.42
553.18	2134.57
553.34	1867.75
553.51	1626.67
553.67	1961.37
553.84	2553.52
554.01	2022.22
554.17	2069.03
554.34	1792.85
554.51	2050.31
554.67	2246.91
554.84	2202.44
555.00	1952.01
555.17	1961.37
555.33	2296.07
555.50	1933.28
555.67	2047.97
555.83	1703.91
556.00	1820.94
556.16	4042.11
556.33	2200.10
556.50	1865.41
556.66	1785.83
556.83	1734.34
556.99	1727.32
557.16	1687.53
557.32	1846.68
557.49	1722.63
557.65	1699.23
557.82	1657.10
557.98	1834.98
558.15	1762.42
558.32	1748.38
558.48	1554.12
558.65	1748.38
558.81	2012.86
558.98	1741.36
559.14	1942.64
559.31	1813.92
559.47	2026.90
559.64	1687.53
559.80	2064.35
559.97	1572.84
560.13	1858.39
560.30	1671.14
560.46	1799.87
560.63	1741.36
560.79	1837.32
560.96	1830.30
561.12	1629.01
561.29	1921.58
561.45	1813.92
561.61	1860.73
561.78	2899.92
561.94	1816.26
562.11	1755.40
562.27	1935.62
562.44	1621.99
562.60	1832.64
562.77	1703.91
562.93	2483.31
563.10	1886.47
563.26	1823.28
563.42	2083.08
563.59	1933.28
563.75	1521.35
563.92	2040.95
564.08	1856.04
564.24	2139.25
564.41	2352.24
564.57	1530.71
564.74	1713.27
564.90	1860.73
565.07	1942.64
565.23	1907.54
565.39	1584.54
565.56	1874.77
565.72	1591.56
565.88	1643.06
566.05	1701.57
566.21	1638.38
566.38	1816.26
566.54	1804.55
566.70	1710.93
566.87	1654.76
567.03	1469.86
567.19	1736.68
567.36	1952.01
567.52	1774.13
567.68	1839.66
567.85	1837.32
568.01	1743.70
568.17	1582.20
568.34	1617.31
568.50	2017.54
568.66	1558.80
568.83	2485.65
568.99	1519.01
569.15	1961.37
569.32	1755.40
569.48	1696.89
569.64	1614.97
569.81	1696.89
569.97	1671.14
570.13	1888.81
570.30	1633.69
570.46	1598.59
570.62	1762.42
570.78	1724.97
570.95	1409.00
571.11	2125.21
571.27	2108.82
571.43	1432.41
571.60	1900.52
571.76	1706.25
571.92	1664.12
572.09	1724.97
572.25	1715.61
572.41	1767.10
572.57	1809.23
572.74	2204.78
572.90	1996.48
573.06	1825.62
573.22	1893.49
573.38	2141.59
573.55	2052.65
573.71	1952.01
573.87	1975.41
574.03	1561.14
574.20	1717.95
574.36	2045.63
574.52	1596.25
574.68	1612.63
574.84	1802.21
575.01	1694.55
575.17	1830.30
575.33	1710.93
575.49	1961.37
575.65	2085.42
575.82	1987.11
575.98	2399.05
576.14	1783.49
576.30	1682.85
576.46	1675.82
576.62	1753.06
576.79	1898.17
576.95	2216.49
577.11	1629.01
577.27	1600.93
577.43	1954.35
577.59	2132.23
577.75	1916.90
577.92	1659.44
578.08	1563.48
578.24	1397.30
578.40	1881.79
578.56	2092.44
578.72	2073.71
578.88	1902.86
579.04	1652.42
579.21	1790.51
579.37	1621.99
579.53	1720.29
579.69	2104.14
579.85	1636.03
580.01	1912.22
580.17	1523.69
580.33	1598.59
580.49	1827.96
580.65	1900.52
580.82	1685.19
580.98	1638.38
581.14	1481.56
581.30	2078.40
581.46	1734.34
581.62	2040.95
581.78	1664.12
581.94	1790.51
582.10	1582.20
582.26	1577.52
582.42	1598.59
582.58	1935.62
582.74	1713.27
582.90	1776.47
583.06	1872.43
583.22	1813.92
583.38	1556.46
583.54	1521.35
583.70	2118.18
583.86	1827.96
584.02	1795.19
584.18	2111.16
584.34	1664.12
584.50	1732.00
584.66	1603.27
584.82	1572.84
584.98	1783.49
585.14	1638.38
585.30	1991.80
585.46	1699.23
585.62	1394.96
585.78	1626.67
585.94	1877.11
586.10	1727.32
586.26	1675.82
586.42	2186.06
586.58	1858.39
586.74	1577.52
586.90	1755.40
587.06	1863.07
587.22	1664.12
587.38	1526.03
587.54	1488.58
587.70	2064.35
587.86	1884.13
588.02	1645.40
588.18	1750.72
588.34	1823.28
588.49	1191.33
588.65	1476.88
588.81	1392.62
588.97	1249.85
589.13	1432.41
589.29	1701.57
589.45	1844.34
589.61	1722.63
589.77	1823.28
589.93	1488.58
590.08	1544.75
590.24	1537.73
590.40	1638.38
590.56	1792.85
590.72	1551.78
590.88	1437.09
591.04	1689.87
591.20	1467.52
591.35	2043.29
591.51	1521.35
591.67	1308.36
591.83	1554.12
591.99	1710.93
592.15	1912.22
592.31	1762.42
592.46	1584.54
592.62	1727.32
592.78	1434.75
592.94	1453.47
593.10	1376.24
593.26	1371.55
593.41	1659.44
593.57	1617.31
593.73	1526.03
593.89	1734.34
594.05	1554.12
594.20	1507.30
594.36	1928.60
594.52	1439.43
594.68	1526.03
594.84	1806.89
594.99	1982.43
595.15	1734.34
595.31	1842.00
595.47	2019.88
595.62	1682.85
595.78	1652.42
595.94	1547.09
596.10	1893.49
596.25	1617.31
596.41	1792.85
596.57	1519.01
596.73	1451.13
596.88	1640.72
597.04	1593.90
597.20	1430.07
597.36	1631.35
597.51	1404.32
597.67	1528.37
597.83	1556.46
597.99	1827.96
598.14	1643.06
598.30	1858.39
598.46	1462.83
598.61	1898.17
598.77	1689.87
598.93	1427.73
599.09	1437.09
599.24	1577.52
599.40	1844.34
599.56	1605.61
599.71	1533.05
599.87	1533.05
600.03	1645.40
600.18	1603.27
600.34	1666.46
600.50	1394.96
600.65	1444.11
600.81	1743.70
600.97	1362.19
601.12	1523.69
601.28	1893.49
