SpectraSuite Data File
++++++++++++++++++++++++++++++++++++
Date: Mon Oct 07 15:00:22 GMT-05:00 2013
User: price-jones
Dark Spectrum Present: No
Reference Spectrum Present: No
Number of Sampled Component Spectra: 1
Spectrometers: USB2+H05261
Integration Time (usec): 1000000 (USB2+H05261)
Spectra Averaged: 1 (USB2+H05261)
Boxcar Smoothing: 0 (USB2+H05261)
Correct for Electrical Dark: No (USB2+H05261)
Strobe/Lamp Enabled: No (USB2+H05261)
Correct for Detector Non-linearity: No (USB2+H05261)
Correct for Stray Light: No (USB2+H05261)
Number of Pixels in Processed Spectrum: 2048
>>>>>Begin Processed Spectral Data<<<<<
365.73	0.00
365.92	0.00
366.12	0.00
366.32	0.00
366.52	0.00
366.72	252.78
366.91	0.00
367.11	177.88
367.31	93.62
367.51	175.54
367.70	229.37
367.90	500.87
368.10	245.76
368.30	154.48
368.49	0.00
368.69	325.33
368.89	119.37
369.09	0.00
369.28	121.71
369.48	0.00
369.68	86.60
369.87	215.33
370.07	30.43
370.27	463.43
370.47	203.63
370.66	175.54
370.86	404.91
371.06	711.52
371.25	957.28
371.45	252.78
371.65	533.64
371.84	138.09
372.04	9.36
372.24	344.06
372.44	222.35
372.63	372.15
372.83	748.97
373.03	301.93
373.22	203.63
373.42	266.82
373.62	248.10
373.81	484.49
374.01	528.96
374.21	596.84
374.40	245.76
374.60	636.63
374.79	334.70
374.99	287.89
375.19	358.10
375.38	444.70
375.58	393.21
375.78	566.41
375.97	629.60
376.17	968.98
376.37	407.25
376.56	461.09
376.76	259.80
376.95	203.63
377.15	552.37
377.35	475.13
377.54	397.89
377.74	264.48
377.93	330.02
378.13	454.06
378.33	638.97
378.52	334.70
378.72	660.03
378.91	582.79
379.11	255.12
379.31	299.59
379.50	147.45
379.70	596.84
379.89	580.45
380.09	280.86
380.28	138.09
380.48	376.83
380.68	287.89
380.87	168.52
381.07	421.30
381.26	648.33
381.46	170.86
381.65	526.62
381.85	301.93
382.04	519.60
382.24	454.06
382.43	285.55
382.63	142.77
382.83	332.36
383.02	592.16
383.22	702.16
383.41	194.26
383.61	411.93
383.80	716.20
384.00	428.32
384.19	292.57
384.39	346.40
384.58	299.59
384.78	507.90
384.97	409.59
385.17	383.85
385.36	330.02
385.56	601.52
385.75	173.20
385.95	409.59
386.14	526.62
386.34	238.73
386.53	402.57
386.72	250.44
386.92	823.87
387.11	550.03
387.31	486.83
387.50	189.58
387.70	142.77
387.89	365.12
388.09	304.27
388.28	163.84
388.48	198.95
388.67	587.47
388.86	304.27
389.06	320.65
389.25	531.30
389.45	449.38
389.64	285.55
389.84	713.86
390.03	484.49
390.22	393.21
390.42	423.64
390.61	191.92
390.81	229.37
391.00	339.38
391.19	587.47
391.39	330.02
391.58	507.90
391.78	353.42
391.97	454.06
392.16	201.29
392.36	704.50
392.55	636.63
392.75	318.31
392.94	290.23
393.13	575.77
393.33	215.33
393.52	231.71
393.71	800.46
393.91	463.43
394.10	135.75
394.29	241.08
394.49	306.61
394.68	454.06
394.88	638.97
395.07	746.63
395.26	414.27
395.46	360.44
395.65	685.78
395.84	568.75
396.04	1109.41
396.23	390.87
396.42	224.69
396.62	503.22
396.81	425.98
397.00	334.70
397.19	402.57
397.39	414.27
397.58	819.19
397.77	334.70
397.97	379.17
398.16	482.15
398.35	575.77
398.55	262.14
398.74	440.02
398.93	634.29
399.12	301.93
399.32	540.66
399.51	416.62
399.70	519.60
399.90	475.13
400.09	456.40
400.28	690.46
400.47	369.80
400.67	664.71
400.86	400.23
401.05	599.18
401.24	667.05
401.44	559.39
401.63	627.26
401.82	638.97
402.01	273.84
402.21	561.73
402.40	472.79
402.59	388.53
402.78	383.85
402.97	306.61
403.17	428.32
403.36	519.60
403.55	465.77
403.74	341.72
403.93	472.79
404.13	662.37
404.32	285.55
404.51	238.73
404.70	751.31
404.89	346.40
405.09	1041.54
405.28	433.00
405.47	238.73
405.66	622.58
405.85	739.61
406.05	465.77
406.24	407.25
406.43	442.36
406.62	620.24
406.81	1135.16
407.00	748.97
407.20	425.98
407.39	451.72
407.58	418.96
407.77	662.37
407.96	770.04
408.15	671.73
408.34	617.90
408.54	589.82
408.73	425.98
408.92	465.77
409.11	683.44
409.30	809.83
409.49	379.17
409.68	444.70
409.87	512.58
410.07	294.91
410.26	517.26
410.45	444.70
410.64	425.98
410.83	479.81
411.02	404.91
411.21	667.05
411.40	681.10
411.59	430.66
411.78	442.36
411.98	596.84
412.17	341.72
412.36	374.49
412.55	463.43
412.74	681.10
412.93	983.02
413.12	348.74
413.31	786.42
413.50	657.69
413.69	444.70
413.88	816.85
414.07	568.75
414.26	491.51
414.45	451.72
414.64	620.24
414.83	688.12
415.02	741.95
415.22	713.86
415.41	931.53
415.60	418.96
415.79	425.98
415.98	821.53
416.17	535.98
416.36	538.32
416.55	416.62
416.74	716.20
416.93	807.48
417.12	507.90
417.31	456.40
417.50	500.87
417.69	1088.35
417.88	596.84
418.07	484.49
418.26	484.49
418.45	535.98
418.64	994.73
418.83	657.69
419.02	613.22
419.21	657.69
419.39	678.76
419.58	435.34
419.77	442.36
419.96	770.04
420.15	1006.43
420.34	582.79
420.53	746.63
420.72	873.02
420.91	660.03
421.10	648.33
421.29	704.50
421.48	828.55
421.67	819.19
421.86	533.64
422.05	543.00
422.24	517.26
422.43	634.29
422.61	510.24
422.80	561.73
422.99	624.92
423.18	489.17
423.37	983.02
423.56	603.86
423.75	697.48
423.94	299.59
424.13	557.05
424.32	498.53
424.50	479.81
424.69	533.64
424.88	873.02
425.07	517.26
425.26	683.44
425.45	830.89
425.64	444.70
425.83	468.11
426.01	966.64
426.20	727.91
426.39	554.71
426.58	423.64
426.77	683.44
426.96	690.46
427.15	669.39
427.33	554.71
427.52	596.84
427.71	629.60
427.90	660.03
428.09	486.83
428.28	449.38
428.46	543.00
428.65	664.71
428.84	517.26
429.03	915.15
429.22	573.43
429.40	442.36
429.59	383.85
429.78	819.19
429.97	528.96
430.16	449.38
430.34	454.06
430.53	451.72
430.72	589.82
430.91	723.23
431.10	416.62
431.28	608.54
431.47	802.80
431.66	748.97
431.85	613.22
432.03	610.88
432.22	1200.69
432.41	610.88
432.60	1011.11
432.79	482.15
432.97	631.94
433.16	493.85
433.35	463.43
433.54	505.56
433.72	699.82
433.91	891.74
434.10	517.26
434.28	711.52
434.47	594.50
434.66	901.11
434.85	554.71
435.03	578.11
435.22	1071.97
435.41	1123.46
435.59	774.72
435.78	692.80
435.97	498.53
436.16	873.02
436.34	676.41
436.53	678.76
436.72	1013.45
436.90	840.25
437.09	706.84
437.28	685.78
437.46	676.41
437.65	798.12
437.84	753.65
438.02	650.67
438.21	692.80
438.40	648.33
438.58	465.77
438.77	676.41
438.96	763.01
439.14	538.32
439.33	851.96
439.52	655.35
439.70	692.80
439.89	908.13
440.08	791.10
440.26	688.12
440.45	1102.39
440.63	800.46
440.82	713.86
441.01	784.08
441.19	699.82
441.38	585.13
441.57	748.97
441.75	1025.15
441.94	1057.92
442.12	720.88
442.31	746.63
442.50	748.97
442.68	720.88
442.87	636.63
443.05	636.63
443.24	793.44
443.43	905.79
443.61	1132.82
443.80	837.91
443.98	692.80
444.17	676.41
444.35	1039.20
444.54	664.71
444.73	692.80
444.91	1015.79
445.10	568.75
445.28	641.31
445.47	716.20
445.65	765.36
445.84	650.67
446.02	753.65
446.21	671.73
446.39	688.12
446.58	791.10
446.77	606.20
446.95	725.57
447.14	842.59
447.32	1165.59
447.51	683.44
447.69	858.98
447.88	863.66
448.06	1156.22
448.25	866.00
448.43	711.52
448.62	589.82
448.80	858.98
448.99	917.49
449.17	603.86
449.36	748.97
449.54	938.55
449.73	634.29
449.91	844.93
450.10	671.73
450.28	1324.74
450.46	1338.79
450.65	1071.97
450.83	938.55
451.02	784.08
451.20	894.08
451.39	748.97
451.57	676.41
451.76	667.05
451.94	805.14
452.13	957.28
452.31	1062.60
452.49	901.11
452.68	568.75
452.86	919.83
453.05	1383.26
453.23	835.57
453.42	585.13
453.60	837.91
453.78	866.00
453.97	596.84
454.15	690.46
454.34	660.03
454.52	650.67
454.70	1224.10
454.89	959.62
455.07	662.37
455.26	1029.84
455.44	1011.11
455.62	748.97
455.81	863.66
455.99	990.05
456.17	933.87
456.36	727.91
456.54	657.69
456.73	653.01
456.91	713.86
457.09	950.26
457.28	1128.14
457.46	840.25
457.64	1093.03
457.83	802.80
458.01	685.78
458.19	873.02
458.38	751.31
458.56	915.15
458.74	695.14
458.93	954.94
459.11	1069.62
459.29	601.52
459.48	1053.24
459.66	1329.42
459.84	1008.77
460.03	1905.20
460.21	1153.88
460.39	791.10
460.57	1118.78
460.76	940.90
460.94	915.15
461.12	1392.62
461.31	1245.16
461.49	741.95
461.67	791.10
461.85	943.24
462.04	751.31
462.22	4671.71
462.40	1139.84
462.59	1184.31
462.77	741.95
462.95	912.81
463.13	620.24
463.32	1053.24
463.50	889.40
463.68	954.94
463.86	915.15
464.05	802.80
464.23	1188.99
464.41	1067.28
464.59	727.91
464.78	727.91
464.96	603.86
465.14	919.83
465.32	765.36
465.50	1032.18
465.69	1022.81
465.87	774.72
466.05	1041.54
466.23	664.71
466.41	767.70
466.60	847.27
466.78	873.02
466.96	1172.61
467.14	929.19
467.32	1210.06
467.51	980.68
467.69	990.05
467.87	1228.78
468.05	849.61
468.23	1324.74
468.41	1114.10
468.60	870.68
468.78	905.79
468.96	1238.14
469.14	978.34
469.32	681.10
469.50	599.18
469.69	1032.18
469.87	994.73
470.05	809.83
470.23	940.90
470.41	678.76
470.59	713.86
470.77	954.94
470.95	844.93
471.14	1179.63
471.32	882.38
471.50	1336.45
471.68	851.96
471.86	1001.75
472.04	807.48
472.22	926.85
472.40	781.74
472.58	781.74
472.77	723.23
472.95	814.51
473.13	1427.73
473.31	1263.89
473.49	699.82
473.67	816.85
473.85	1060.26
474.03	978.34
474.21	954.94
474.39	1404.32
474.57	1383.26
474.75	1060.26
474.93	819.19
475.12	734.93
475.30	866.00
475.48	957.28
475.66	887.06
475.84	1011.11
476.02	917.49
476.20	1149.20
476.38	997.07
476.56	1640.72
476.74	894.08
476.92	870.68
477.10	1034.52
477.28	1160.91
477.46	971.32
477.64	1102.39
477.82	1055.58
478.00	866.00
478.18	1029.84
478.36	1006.43
478.54	940.90
478.72	889.40
478.90	936.21
479.08	1062.60
479.26	1013.45
479.44	905.79
479.62	779.40
479.80	1008.77
479.98	821.53
480.16	861.32
480.34	1259.21
480.52	926.85
480.70	1158.57
480.88	868.34
481.06	861.32
481.24	987.71
481.41	1046.22
481.59	1064.94
481.77	1174.95
481.95	1018.13
482.13	1331.76
482.31	1095.37
482.49	887.06
482.67	1256.87
482.85	1233.46
483.03	1184.31
483.21	1160.91
483.39	992.39
483.57	978.34
483.74	1533.05
483.92	1191.33
484.10	924.51
484.28	1299.00
484.46	1846.68
484.64	1102.39
484.82	1144.52
485.00	1039.20
485.18	1153.88
485.35	1186.65
485.53	760.67
485.71	1282.61
485.89	753.65
486.07	973.66
486.25	1645.40
486.43	1306.02
486.61	1193.67
486.78	1256.87
486.96	847.27
487.14	1048.56
487.32	1055.58
487.50	1043.88
487.68	1451.13
487.85	1060.26
488.03	1331.76
488.21	1460.49
488.39	1252.19
488.57	1324.74
488.75	1172.61
488.92	4748.95
489.10	1399.64
489.28	1776.47
489.46	1060.26
489.64	1245.16
489.81	1231.12
489.99	1544.75
490.17	1256.87
490.35	2129.89
490.53	1280.27
490.70	1069.62
490.88	1504.96
491.06	1130.48
491.24	1497.94
491.41	1692.21
491.59	1474.54
491.77	1055.58
491.95	1074.31
492.13	1118.78
492.30	1336.45
492.48	1212.40
492.66	1181.97
492.84	1233.46
493.01	1294.32
493.19	1214.74
493.37	1846.68
493.54	1425.39
493.72	1446.45
493.90	1301.34
494.08	1200.69
494.25	1526.03
494.43	1511.99
494.61	1345.81
494.79	1142.18
494.96	1181.97
495.14	1530.71
495.32	1212.40
495.49	1439.43
495.67	1418.36
495.85	1317.72
496.02	1165.59
496.20	1554.12
496.38	1495.60
496.55	1359.85
496.73	1530.71
496.91	1423.05
497.09	1558.80
497.26	1481.56
497.44	1383.26
497.62	1334.11
497.79	1376.24
497.97	1502.62
498.14	1582.20
498.32	1488.58
498.50	1572.84
498.67	1310.70
498.85	1549.43
499.03	1383.26
499.20	1542.41
499.38	1427.73
499.56	1476.88
499.73	1916.90
499.91	1661.78
500.08	1661.78
500.26	1394.96
500.44	1294.32
500.61	1483.90
500.79	1350.49
500.97	1720.29
501.14	1853.70
501.32	1528.37
501.49	1778.81
501.67	1418.36
501.84	1568.16
502.02	1355.17
502.20	2008.18
502.37	1699.23
502.55	1362.19
502.72	1458.15
502.90	1640.72
503.07	1462.83
503.25	1483.90
503.43	1324.74
503.60	1287.29
503.78	1528.37
503.95	1359.85
504.13	1364.53
504.30	1591.56
504.48	1769.44
504.65	1928.60
504.83	1692.21
505.01	1474.54
505.18	1638.38
505.36	1460.49
505.53	1549.43
505.71	1397.30
505.88	1811.57
506.06	1462.83
506.23	1437.09
506.41	1385.60
506.58	1743.70
506.76	1612.63
506.93	1392.62
507.11	1664.12
507.28	1324.74
507.46	1439.43
507.63	1598.59
507.81	1296.66
507.98	1432.41
508.16	1533.05
508.33	1540.07
508.50	1650.08
508.68	1692.21
508.85	1605.61
509.03	1472.20
509.20	1469.86
509.38	1565.82
509.55	1811.57
509.73	1874.77
509.90	1907.54
510.08	1364.53
510.25	1682.85
510.42	1472.20
510.60	1497.94
510.77	1764.76
510.95	1905.20
511.12	1589.22
511.30	1748.38
511.47	1785.83
511.64	2062.01
511.82	1514.33
511.99	1540.07
512.17	1432.41
512.34	1324.74
512.51	1537.73
512.69	1516.67
512.86	1961.37
513.04	1486.24
513.21	1685.19
513.38	1495.60
513.56	1331.76
513.73	1444.11
513.90	1310.70
514.08	1317.72
514.25	1626.67
514.43	1554.12
514.60	1404.32
514.77	1490.92
514.95	1577.52
515.12	1359.85
515.29	1523.69
515.47	1638.38
515.64	1645.40
515.81	1614.97
515.99	1912.22
516.16	1652.42
516.33	1778.81
516.51	1327.08
516.68	1228.78
516.85	1310.70
517.03	1310.70
517.20	1696.89
517.37	1750.72
517.54	1589.22
517.72	1409.00
517.89	1219.42
518.06	1186.65
518.24	1959.03
518.41	1994.14
518.58	1666.46
518.75	1366.87
518.93	1507.30
519.10	1614.97
519.27	1500.28
519.45	1544.75
519.62	1680.50
519.79	1797.53
519.96	1350.49
520.14	1645.40
520.31	1933.28
520.48	1598.59
520.65	1727.32
520.83	1729.66
521.00	1746.04
521.17	1881.79
521.34	1469.86
521.52	1666.46
521.69	1572.84
521.86	1687.53
522.03	1788.17
522.20	2059.67
522.38	1488.58
522.55	1549.43
522.72	1432.41
522.89	1774.13
523.07	2190.74
523.24	1593.90
523.41	1614.97
523.58	1519.01
523.75	1467.52
523.92	1521.35
524.10	1664.12
524.27	1643.06
524.44	1528.37
524.61	1956.69
524.78	1547.09
524.96	1825.62
525.13	1696.89
525.30	1937.96
525.47	2012.86
525.64	1769.44
525.81	1645.40
525.98	1638.38
526.16	1439.43
526.33	1479.22
526.50	1334.11
526.67	1254.53
526.84	1434.75
527.01	1380.92
527.18	1710.93
527.36	1554.12
527.53	1500.28
527.70	1961.37
527.87	1596.25
528.04	2183.72
528.21	1514.33
528.38	1842.00
528.55	1998.82
528.72	2115.84
528.89	2256.28
529.07	1776.47
529.24	1685.19
529.41	2115.84
529.58	1689.87
529.75	1563.48
529.92	1874.77
530.09	1727.32
530.26	1956.69
530.43	1806.89
530.60	1701.57
530.77	1661.78
530.94	1856.04
531.11	1874.77
531.28	1530.71
531.46	1460.49
531.63	1713.27
531.80	1769.44
531.97	1832.64
532.14	1575.18
532.31	1734.34
532.48	1724.97
532.65	1671.14
532.82	1598.59
532.99	1624.33
533.16	1600.93
533.33	1624.33
533.50	1607.95
533.67	1451.13
533.84	1769.44
534.01	1736.68
534.18	1631.35
534.35	1781.15
534.52	1713.27
534.69	2286.70
534.86	1790.51
535.03	1689.87
535.20	1708.59
535.37	1977.75
535.54	1666.46
535.71	1624.33
535.88	2010.52
536.05	1659.44
536.22	1760.08
536.38	1586.88
536.55	1694.55
536.72	2012.86
536.89	1509.65
537.06	1650.08
537.23	1598.59
537.40	1689.87
537.57	1563.48
537.74	1982.43
537.91	1856.04
538.08	1734.34
538.25	1867.75
538.42	1514.33
538.59	1713.27
538.75	1612.63
538.92	1671.14
539.09	1944.99
539.26	1610.29
539.43	2047.97
539.60	1724.97
539.77	1760.08
539.94	1544.75
540.11	1736.68
540.28	2019.88
540.44	1984.77
540.61	1617.31
540.78	1673.48
540.95	1483.90
541.12	2104.14
541.29	1624.33
541.46	2162.66
541.62	1781.15
541.79	1685.19
541.96	1467.52
542.13	1631.35
542.30	1507.30
542.47	1919.24
542.63	1598.59
542.80	1764.76
542.97	1937.96
543.14	1668.80
543.31	1849.02
543.48	1792.85
543.64	1867.75
543.81	1799.87
543.98	1563.48
544.15	1406.66
544.32	1589.22
544.48	1596.25
544.65	1619.65
544.82	1500.28
544.99	1619.65
545.16	1825.62
545.32	1551.78
545.49	1790.51
545.66	1671.14
545.83	1392.62
546.00	1411.34
546.16	1636.03
546.33	1549.43
546.50	1586.88
546.67	2017.54
546.83	2001.16
547.00	1736.68
547.17	1451.13
547.34	1472.20
547.50	1689.87
547.67	1607.95
547.84	1612.63
548.00	1820.94
548.17	1523.69
548.34	1643.06
548.51	2057.33
548.67	1902.86
548.84	1612.63
549.01	1664.12
549.18	1739.02
549.34	1748.38
549.51	1755.40
549.68	1790.51
549.84	1678.16
550.01	1451.13
550.18	3117.59
550.34	2574.59
550.51	1685.19
550.68	2338.20
550.84	1589.22
551.01	1664.12
551.18	1914.56
551.34	1753.06
551.51	1614.97
551.68	1600.93
551.84	1837.32
552.01	1558.80
552.18	1570.50
552.34	1687.53
552.51	1680.50
552.68	1832.64
552.84	1607.95
553.01	1755.40
553.18	1888.81
553.34	1598.59
553.51	1425.39
553.67	1802.21
553.84	2242.23
554.01	1900.52
554.17	1816.26
554.34	1572.84
554.51	1739.02
554.67	1853.70
554.84	1774.13
555.00	1809.23
555.17	1671.14
555.33	1865.41
555.50	1706.25
555.67	1724.97
555.83	1521.35
556.00	1652.42
556.16	3730.81
556.33	1823.28
556.50	1575.18
556.66	1551.78
556.83	1488.58
556.99	1549.43
557.16	1638.38
557.32	1579.86
557.49	1533.05
557.65	1511.99
557.82	1392.62
557.98	1617.31
558.15	1504.96
558.32	1600.93
558.48	1549.43
558.65	1556.46
558.81	1724.97
558.98	1511.99
559.14	1755.40
559.31	1577.52
559.47	1853.70
559.64	1465.18
559.80	1813.92
559.97	1507.30
560.13	1523.69
560.30	1336.45
560.46	1465.18
560.63	1488.58
560.79	1565.82
560.96	1666.46
561.12	1411.34
561.29	1739.02
561.45	1537.73
561.61	1717.95
561.78	2747.79
561.94	1547.09
562.11	1542.41
562.27	1708.59
562.44	1432.41
562.60	1582.20
562.77	1528.37
562.93	2333.51
563.10	1713.27
563.26	1542.41
563.42	1884.13
563.59	1671.14
563.75	1523.69
563.92	1834.98
564.08	1671.14
564.24	1797.53
564.41	2153.29
564.57	1444.11
564.74	1495.60
564.90	1692.21
565.07	1809.23
565.23	1736.68
565.39	1385.60
565.56	1643.06
565.72	1394.96
565.88	1472.20
566.05	1483.90
566.21	1406.66
566.38	1717.95
566.54	1572.84
566.70	1458.15
566.87	1413.68
567.03	1263.89
567.19	1598.59
567.36	1659.44
567.52	1486.24
567.68	1736.68
567.85	1668.80
568.01	1533.05
568.17	1359.85
568.34	1439.43
568.50	1806.89
568.66	1369.21
568.83	2368.62
568.99	1308.36
569.15	1629.01
569.32	1458.15
569.48	1549.43
569.64	1345.81
569.81	1540.07
569.97	1416.02
570.13	1727.32
570.30	1355.17
570.46	1441.77
570.62	1371.55
570.78	1469.86
570.95	1270.91
571.11	2043.29
571.27	1916.90
571.43	1254.53
571.60	1713.27
571.76	1348.15
571.92	1516.67
572.09	1427.73
572.25	1563.48
572.41	1540.07
572.57	1523.69
572.74	2036.27
572.90	1767.10
573.06	1542.41
573.22	1631.35
573.38	1790.51
573.55	1673.48
573.71	1881.79
573.87	1724.97
574.03	1369.21
574.20	1509.65
574.36	1739.02
574.52	1486.24
574.68	1500.28
574.84	1593.90
575.01	1392.62
575.17	1750.72
575.33	1399.64
575.49	1764.76
575.65	1703.91
575.82	1696.89
575.98	2099.46
576.14	1521.35
576.30	1465.18
576.46	1544.75
576.62	1511.99
576.79	1696.89
576.95	1874.77
577.11	1416.02
577.27	1306.02
577.43	1732.00
577.59	1872.43
577.75	1612.63
577.92	1495.60
578.08	1460.49
578.24	1259.21
578.40	1764.76
578.56	1858.39
578.72	1769.44
578.88	1638.38
579.04	1392.62
579.21	1617.31
579.37	1434.75
579.53	1406.66
579.69	1708.59
579.85	1364.53
580.01	1617.31
580.17	1247.51
580.33	1394.96
580.49	1577.52
580.65	1575.18
580.82	1437.09
580.98	1397.30
581.14	1259.21
581.30	1809.23
581.46	1540.07
581.62	1739.02
581.78	1423.05
581.94	1643.06
582.10	1289.64
582.26	1336.45
582.42	1404.32
582.58	1701.57
582.74	1500.28
582.90	1661.78
583.06	1657.10
583.22	1607.95
583.38	1401.98
583.54	1256.87
583.70	1825.62
583.86	1614.97
584.02	1497.94
584.18	1895.83
584.34	1275.59
584.50	1483.90
584.66	1366.87
584.82	1322.40
584.98	1561.14
585.14	1404.32
585.30	1842.00
585.46	1490.92
585.62	1282.61
585.78	1320.06
585.94	1579.86
586.10	1366.87
586.26	1556.46
586.42	1949.67
586.58	1556.46
586.74	1394.96
586.90	1376.24
587.06	1514.33
587.22	1483.90
587.38	1439.43
587.54	1299.00
587.70	1682.85
587.86	1825.62
588.02	1376.24
588.18	1519.01
588.34	1528.37
588.49	1034.52
588.65	1366.87
588.81	1270.91
588.97	1006.43
589.13	1249.85
589.29	1317.72
589.45	1781.15
589.61	1380.92
589.77	1757.74
589.93	1383.26
590.08	1231.12
590.24	1294.32
590.40	1502.62
590.56	1591.56
590.72	1268.57
590.88	1242.82
591.04	1544.75
591.20	1273.25
591.35	1790.51
591.51	1490.92
591.67	1242.82
591.83	1411.34
591.99	1455.81
592.15	1687.53
592.31	1582.20
592.46	1341.13
592.62	1617.31
592.78	1228.78
592.94	1179.63
593.10	1214.74
593.26	1313.04
593.41	1488.58
593.57	1416.02
593.73	1231.12
593.89	1547.09
594.05	1275.59
594.20	1184.31
594.36	1633.69
594.52	1196.01
594.68	1240.48
594.84	1640.72
594.99	1715.61
595.15	1476.88
595.31	1671.14
595.47	1886.47
595.62	1383.26
595.78	1322.40
595.94	1453.47
596.10	1647.74
596.25	1455.81
596.41	1638.38
596.57	1289.64
596.73	1308.36
596.88	1392.62
597.04	1401.98
597.20	1210.06
597.36	1301.34
597.51	1282.61
597.67	1186.65
597.83	1352.83
597.99	1565.82
598.14	1369.21
598.30	1694.55
598.46	1299.00
598.61	1636.03
598.77	1406.66
598.93	1212.40
599.09	1287.29
599.24	1476.88
599.40	1701.57
599.56	1420.71
599.71	1416.02
599.87	1336.45
600.03	1465.18
600.18	1411.34
600.34	1542.41
600.50	1186.65
600.65	1181.97
600.81	1617.31
600.97	1203.04
601.12	1352.83
601.28	1638.38
601.44	1334.11
601.59	1128.14
