SpectraSuite Data File
++++++++++++++++++++++++++++++++++++
Date: Mon Oct 07 14:59:58 GMT-05:00 2013
User: price-jones
Dark Spectrum Present: No
Reference Spectrum Present: No
Number of Sampled Component Spectra: 1
Spectrometers: USB2+H05261
Integration Time (usec): 100000 (USB2+H05261)
Spectra Averaged: 1 (USB2+H05261)
Boxcar Smoothing: 0 (USB2+H05261)
Correct for Electrical Dark: No (USB2+H05261)
Strobe/Lamp Enabled: No (USB2+H05261)
Correct for Detector Non-linearity: No (USB2+H05261)
Correct for Stray Light: No (USB2+H05261)
Number of Pixels in Processed Spectrum: 2048
>>>>>Begin Processed Spectral Data<<<<<
365.73	0.00
365.92	0.00
366.12	0.00
366.32	0.00
366.52	0.00
366.72	0.00
366.91	0.00
367.11	0.00
367.31	0.00
367.51	0.00
367.70	0.00
367.90	0.00
368.10	0.00
368.30	0.00
368.49	0.00
368.69	0.00
368.89	0.00
369.09	0.00
369.28	0.00
369.48	0.00
369.68	0.00
369.87	0.00
370.07	0.00
370.27	0.00
370.47	0.00
370.66	0.00
370.86	0.00
371.06	0.00
371.25	0.00
371.45	0.00
371.65	0.00
371.84	0.00
372.04	0.00
372.24	0.00
372.44	0.00
372.63	0.00
372.83	0.00
373.03	0.00
373.22	0.00
373.42	0.00
373.62	0.00
373.81	0.00
374.01	0.00
374.21	0.00
374.40	0.00
374.60	0.00
374.79	0.00
374.99	0.00
375.19	0.00
375.38	0.00
375.58	0.00
375.78	0.00
375.97	0.00
376.17	0.00
376.37	0.00
376.56	0.00
376.76	0.00
376.95	0.00
377.15	0.00
377.35	0.00
377.54	0.00
377.74	0.00
377.93	0.00
378.13	0.00
378.33	0.00
378.52	0.00
378.72	0.00
378.91	0.00
379.11	0.00
379.31	0.00
379.50	0.00
379.70	0.00
379.89	0.00
380.09	0.00
380.28	0.00
380.48	0.00
380.68	0.00
380.87	0.00
381.07	0.00
381.26	0.00
381.46	0.00
381.65	0.00
381.85	0.00
382.04	0.00
382.24	0.00
382.43	0.00
382.63	0.00
382.83	0.00
383.02	0.00
383.22	0.00
383.41	0.00
383.61	0.00
383.80	0.00
384.00	0.00
384.19	0.00
384.39	0.00
384.58	0.00
384.78	0.00
384.97	0.00
385.17	0.00
385.36	0.00
385.56	0.00
385.75	0.00
385.95	0.00
386.14	0.00
386.34	0.00
386.53	0.00
386.72	0.00
386.92	0.00
387.11	0.00
387.31	0.00
387.50	0.00
387.70	0.00
387.89	0.00
388.09	0.00
388.28	0.00
388.48	0.00
388.67	0.00
388.86	0.00
389.06	0.00
389.25	0.00
389.45	0.00
389.64	0.00
389.84	0.00
390.03	0.00
390.22	0.00
390.42	0.00
390.61	0.00
390.81	0.00
391.00	0.00
391.19	0.00
391.39	0.00
391.58	0.00
391.78	0.00
391.97	0.00
392.16	0.00
392.36	0.00
392.55	0.00
392.75	0.00
392.94	0.00
393.13	0.00
393.33	0.00
393.52	0.00
393.71	0.00
393.91	0.00
394.10	0.00
394.29	0.00
394.49	0.00
394.68	0.00
394.88	0.00
395.07	0.00
395.26	0.00
395.46	0.00
395.65	0.00
395.84	0.00
396.04	0.00
396.23	0.00
396.42	0.00
396.62	0.00
396.81	0.00
397.00	0.00
397.19	0.00
397.39	0.00
397.58	0.00
397.77	0.00
397.97	0.00
398.16	0.00
398.35	0.00
398.55	0.00
398.74	0.00
398.93	0.00
399.12	0.00
399.32	0.00
399.51	0.00
399.70	0.00
399.90	0.00
400.09	0.00
400.28	0.00
400.47	0.00
400.67	0.00
400.86	0.00
401.05	0.00
401.24	0.00
401.44	0.00
401.63	0.00
401.82	0.00
402.01	0.00
402.21	0.00
402.40	0.00
402.59	0.00
402.78	0.00
402.97	0.00
403.17	0.00
403.36	0.00
403.55	0.00
403.74	0.00
403.93	0.00
404.13	0.00
404.32	0.00
404.51	0.00
404.70	0.00
404.89	0.00
405.09	0.00
405.28	0.00
405.47	0.00
405.66	0.00
405.85	0.00
406.05	0.00
406.24	0.00
406.43	0.00
406.62	0.00
406.81	0.00
407.00	0.00
407.20	0.00
407.39	0.00
407.58	0.00
407.77	0.00
407.96	0.00
408.15	0.00
408.34	0.00
408.54	0.00
408.73	0.00
408.92	0.00
409.11	0.00
409.30	0.00
409.49	0.00
409.68	0.00
409.87	0.00
410.07	0.00
410.26	0.00
410.45	0.00
410.64	0.00
410.83	0.00
411.02	0.00
411.21	0.00
411.40	0.00
411.59	0.00
411.78	0.00
411.98	0.00
412.17	0.00
412.36	0.00
412.55	0.00
412.74	0.00
412.93	0.00
413.12	0.00
413.31	0.00
413.50	0.00
413.69	0.00
413.88	0.00
414.07	0.00
414.26	0.00
414.45	0.00
414.64	0.00
414.83	0.00
415.02	0.00
415.22	0.00
415.41	0.00
415.60	0.00
415.79	0.00
415.98	0.00
416.17	0.00
416.36	0.00
416.55	0.00
416.74	0.00
416.93	0.00
417.12	0.00
417.31	0.00
417.50	0.00
417.69	0.00
417.88	0.00
418.07	0.00
418.26	0.00
418.45	0.00
418.64	0.00
418.83	0.00
419.02	0.00
419.21	0.00
419.39	0.00
419.58	0.00
419.77	0.00
419.96	0.00
420.15	0.00
420.34	0.00
420.53	0.00
420.72	0.00
420.91	0.00
421.10	0.00
421.29	0.00
421.48	0.00
421.67	0.00
421.86	0.00
422.05	0.00
422.24	0.00
422.43	0.00
422.61	0.00
422.80	0.00
422.99	0.00
423.18	0.00
423.37	0.00
423.56	0.00
423.75	0.00
423.94	0.00
424.13	0.00
424.32	0.00
424.50	0.00
424.69	0.00
424.88	0.00
425.07	0.00
425.26	0.00
425.45	0.00
425.64	0.00
425.83	0.00
426.01	0.00
426.20	0.00
426.39	0.00
426.58	0.00
426.77	0.00
426.96	0.00
427.15	0.00
427.33	0.00
427.52	0.00
427.71	0.00
427.90	0.00
428.09	0.00
428.28	0.00
428.46	0.00
428.65	0.00
428.84	0.00
429.03	0.00
429.22	0.00
429.40	0.00
429.59	0.00
429.78	0.00
429.97	0.00
430.16	0.00
430.34	0.00
430.53	0.00
430.72	0.00
430.91	0.00
431.10	0.00
431.28	0.00
431.47	0.00
431.66	0.00
431.85	0.00
432.03	0.00
432.22	0.00
432.41	0.00
432.60	0.00
432.79	0.00
432.97	0.00
433.16	0.00
433.35	0.00
433.54	0.00
433.72	0.00
433.91	0.00
434.10	0.00
434.28	0.00
434.47	0.00
434.66	0.00
434.85	0.00
435.03	0.00
435.22	0.00
435.41	0.00
435.59	0.00
435.78	0.00
435.97	0.00
436.16	0.00
436.34	0.00
436.53	0.00
436.72	0.00
436.90	0.00
437.09	0.00
437.28	0.00
437.46	0.00
437.65	0.00
437.84	0.00
438.02	0.00
438.21	0.00
438.40	0.00
438.58	0.00
438.77	0.00
438.96	0.00
439.14	0.00
439.33	0.00
439.52	0.00
439.70	0.00
439.89	0.00
440.08	0.00
440.26	0.00
440.45	0.00
440.63	0.00
440.82	0.00
441.01	0.00
441.19	14.04
441.38	0.00
441.57	0.00
441.75	0.00
441.94	0.00
442.12	0.00
442.31	0.00
442.50	0.00
442.68	0.00
442.87	0.00
443.05	0.00
443.24	0.00
443.43	0.00
443.61	0.00
443.80	0.00
443.98	0.00
444.17	0.00
444.35	0.00
444.54	0.00
444.73	0.00
444.91	0.00
445.10	0.00
445.28	0.00
445.47	0.00
445.65	0.00
445.84	0.00
446.02	0.00
446.21	0.00
446.39	0.00
446.58	0.00
446.77	0.00
446.95	0.00
447.14	7.02
447.32	0.00
447.51	0.00
447.69	0.00
447.88	0.00
448.06	0.00
448.25	0.00
448.43	0.00
448.62	0.00
448.80	0.00
448.99	0.00
449.17	0.00
449.36	0.00
449.54	9.36
449.73	0.00
449.91	0.00
450.10	0.00
450.28	0.00
450.46	0.00
450.65	0.00
450.83	0.00
451.02	0.00
451.20	0.00
451.39	0.00
451.57	0.00
451.76	0.00
451.94	0.00
452.13	0.00
452.31	0.00
452.49	0.00
452.68	0.00
452.86	0.00
453.05	0.00
453.23	0.00
453.42	0.00
453.60	0.00
453.78	0.00
453.97	0.00
454.15	0.00
454.34	0.00
454.52	0.00
454.70	0.00
454.89	0.00
455.07	0.00
455.26	0.00
455.44	0.00
455.62	0.00
455.81	0.00
455.99	37.45
456.17	4.68
456.36	0.00
456.54	0.00
456.73	0.00
456.91	4.68
457.09	0.00
457.28	0.00
457.46	4.68
457.64	0.00
457.83	0.00
458.01	0.00
458.19	0.00
458.38	0.00
458.56	0.00
458.74	0.00
458.93	7.02
459.11	0.00
459.29	0.00
459.48	30.43
459.66	37.45
459.84	14.04
460.03	86.60
460.21	0.00
460.39	0.00
460.57	4.68
460.76	0.00
460.94	0.00
461.12	0.00
461.31	7.02
461.49	0.00
461.67	0.00
461.85	7.02
462.04	0.00
462.22	603.86
462.40	37.45
462.59	44.47
462.77	0.00
462.95	0.00
463.13	0.00
463.32	42.13
463.50	0.00
463.68	0.00
463.86	0.00
464.05	0.00
464.23	4.68
464.41	37.45
464.59	0.00
464.78	23.41
464.96	0.00
465.14	0.00
465.32	0.00
465.50	0.00
465.69	0.00
465.87	0.00
466.05	0.00
466.23	0.00
466.41	0.00
466.60	0.00
466.78	0.00
466.96	0.00
467.14	0.00
467.32	0.00
467.51	0.00
467.69	7.02
467.87	60.85
468.05	0.00
468.23	53.83
468.41	0.00
468.60	32.77
468.78	0.00
468.96	16.38
469.14	0.00
469.32	16.38
469.50	0.00
469.69	0.00
469.87	0.00
470.05	14.04
470.23	0.00
470.41	0.00
470.59	0.00
470.77	7.02
470.95	2.34
471.14	51.49
471.32	44.47
471.50	42.13
471.68	42.13
471.86	30.43
472.04	0.00
472.22	0.00
472.40	0.00
472.58	0.00
472.77	49.15
472.95	0.00
473.13	67.88
473.31	11.70
473.49	21.06
473.67	0.00
473.85	37.45
474.03	0.00
474.21	2.34
474.39	39.79
474.57	98.30
474.75	0.00
474.93	0.00
475.12	0.00
475.30	0.00
475.48	35.11
475.66	0.00
475.84	79.58
476.02	0.00
476.20	0.00
476.38	53.83
476.56	100.64
476.74	4.68
476.92	21.06
477.10	7.02
477.28	37.45
477.46	28.09
477.64	46.81
477.82	0.00
478.00	16.38
478.18	60.85
478.36	49.15
478.54	0.00
478.72	0.00
478.90	65.54
479.08	0.00
479.26	42.13
479.44	0.00
479.62	0.00
479.80	30.43
479.98	72.56
480.16	0.00
480.34	35.11
480.52	0.00
480.70	0.00
480.88	32.77
481.06	4.68
481.24	14.04
481.41	37.45
481.59	74.90
481.77	49.15
481.95	2.34
482.13	67.88
482.31	60.85
482.49	53.83
482.67	60.85
482.85	121.71
483.03	18.72
483.21	77.24
483.39	42.13
483.57	91.28
483.74	88.94
483.92	81.92
484.10	74.90
484.28	100.64
484.46	114.69
484.64	107.66
484.82	131.07
485.00	9.36
485.18	53.83
485.35	39.79
485.53	46.81
485.71	49.15
485.89	0.00
486.07	0.00
486.25	110.01
486.43	39.79
486.61	91.28
486.78	70.22
486.96	70.22
487.14	65.54
487.32	88.94
487.50	60.85
487.68	58.51
487.85	110.01
488.03	84.26
488.21	102.98
488.39	86.60
488.57	142.77
488.75	32.77
488.92	411.93
489.10	126.39
489.28	210.65
489.46	105.32
489.64	131.07
489.81	142.77
489.99	138.09
490.17	91.28
490.35	191.92
490.53	91.28
490.70	100.64
490.88	86.60
491.06	114.69
491.24	138.09
491.41	168.52
491.59	112.35
491.77	37.45
491.95	107.66
492.13	72.56
492.30	212.99
492.48	124.05
492.66	156.82
492.84	156.82
493.01	107.66
493.19	63.19
493.37	203.63
493.54	208.31
493.72	180.22
493.90	201.29
494.08	177.88
494.25	152.13
494.43	187.24
494.61	133.41
494.79	86.60
494.96	177.88
495.14	255.12
495.32	154.48
495.49	131.07
495.67	142.77
495.85	147.45
496.02	138.09
496.20	196.60
496.38	217.67
496.55	117.03
496.73	212.99
496.91	119.37
497.09	227.03
497.26	194.26
497.44	128.73
497.62	163.84
497.79	149.79
497.97	273.84
498.14	135.75
498.32	201.29
498.50	149.79
498.67	173.20
498.85	147.45
499.03	234.05
499.20	180.22
499.38	236.39
499.56	205.97
499.73	229.37
499.91	117.03
500.08	234.05
500.26	196.60
500.44	170.86
500.61	159.16
500.79	175.54
500.97	266.82
501.14	236.39
501.32	196.60
501.49	334.70
501.67	168.52
501.84	208.31
502.02	250.44
502.20	301.93
502.37	135.75
502.55	212.99
502.72	112.35
502.90	198.95
503.07	231.71
503.25	229.37
503.43	163.84
503.60	196.60
503.78	205.97
503.95	182.56
504.13	220.01
504.30	252.78
504.48	301.93
504.65	252.78
504.83	208.31
505.01	280.86
505.18	344.06
505.36	311.29
505.53	294.91
505.71	170.86
505.88	250.44
506.06	262.14
506.23	196.60
506.41	276.18
506.58	191.92
506.76	243.42
506.93	194.26
507.11	231.71
507.28	280.86
507.46	154.48
507.63	187.24
507.81	224.69
507.98	173.20
508.16	224.69
508.33	287.89
508.50	311.29
508.68	194.26
508.85	285.55
509.03	299.59
509.20	222.35
509.38	215.33
509.55	220.01
509.73	280.86
509.90	271.50
510.08	205.97
510.25	212.99
510.42	255.12
510.60	203.63
510.77	229.37
510.95	276.18
511.12	245.76
511.30	325.33
511.47	308.95
511.64	250.44
511.82	255.12
511.99	255.12
512.17	231.71
512.34	119.37
512.51	196.60
512.69	231.71
512.86	313.63
513.04	257.46
513.21	215.33
513.38	297.25
513.56	205.97
513.73	259.80
513.90	290.23
514.08	173.20
514.25	229.37
514.43	234.05
514.60	269.16
514.77	229.37
514.95	252.78
515.12	208.31
515.29	266.82
515.47	341.72
515.64	236.39
515.81	121.71
515.99	257.46
516.16	273.84
516.33	198.95
516.51	191.92
516.68	124.05
516.85	201.29
517.03	191.92
517.20	227.03
517.37	269.16
517.54	285.55
517.72	203.63
517.89	180.22
518.06	138.09
518.24	189.58
518.41	252.78
518.58	262.14
518.75	252.78
518.93	245.76
519.10	241.08
519.27	294.91
519.45	266.82
519.62	266.82
519.79	264.48
519.96	259.80
520.14	252.78
520.31	238.73
520.48	205.97
520.65	294.91
520.83	358.10
521.00	320.65
521.17	304.27
521.34	322.99
521.52	250.44
521.69	308.95
521.86	374.49
522.03	325.33
522.20	339.38
522.38	264.48
522.55	287.89
522.72	311.29
522.89	327.68
523.07	259.80
523.24	301.93
523.41	348.74
523.58	196.60
523.75	313.63
523.92	365.12
524.10	414.27
524.27	311.29
524.44	283.20
524.61	337.04
524.78	348.74
524.96	334.70
525.13	320.65
525.30	301.93
525.47	344.06
525.64	273.84
525.81	337.04
525.98	290.23
526.16	264.48
526.33	273.84
526.50	243.42
526.67	238.73
526.84	205.97
527.01	252.78
527.18	266.82
527.36	266.82
527.53	278.52
527.70	283.20
527.87	248.10
528.04	273.84
528.21	344.06
528.38	304.27
528.55	341.72
528.72	322.99
528.89	379.17
529.07	355.76
529.24	355.76
529.41	306.61
529.58	266.82
529.75	294.91
529.92	348.74
530.09	320.65
530.26	313.63
530.43	334.70
530.60	311.29
530.77	360.44
530.94	351.08
531.11	400.23
531.28	330.02
531.46	257.46
531.63	341.72
531.80	313.63
531.97	360.44
532.14	243.42
532.31	400.23
532.48	379.17
532.65	177.88
532.82	229.37
532.99	259.80
533.16	318.31
533.33	290.23
533.50	322.99
533.67	311.29
533.84	299.59
534.01	341.72
534.18	290.23
534.35	325.33
534.52	330.02
534.69	409.59
534.86	386.19
535.03	320.65
535.20	285.55
535.37	353.42
535.54	360.44
535.71	294.91
535.88	269.16
536.05	365.12
536.22	411.93
536.38	248.10
536.55	304.27
536.72	327.68
536.89	292.57
537.06	346.40
537.23	313.63
537.40	306.61
537.57	315.97
537.74	299.59
537.91	322.99
538.08	386.19
538.25	418.96
538.42	341.72
538.59	386.19
538.75	306.61
538.92	283.20
539.09	404.91
539.26	304.27
539.43	306.61
539.60	332.36
539.77	306.61
539.94	341.72
540.11	269.16
540.28	379.17
540.44	330.02
540.61	255.12
540.78	280.86
540.95	212.99
541.12	425.98
541.29	332.36
541.46	365.12
541.62	262.14
541.79	339.38
541.96	290.23
542.13	334.70
542.30	346.40
542.47	358.10
542.63	306.61
542.80	435.34
542.97	379.17
543.14	365.12
543.31	414.27
543.48	362.78
543.64	381.51
543.81	451.72
543.98	311.29
544.15	231.71
544.32	203.63
544.48	351.08
544.65	374.49
544.82	404.91
544.99	339.38
545.16	353.42
545.32	379.17
545.49	449.38
545.66	341.72
545.83	351.08
546.00	348.74
546.16	344.06
546.33	299.59
546.50	266.82
546.67	351.08
546.83	402.57
547.00	393.21
547.17	369.80
547.34	294.91
547.50	299.59
547.67	402.57
547.84	374.49
548.00	320.65
548.17	301.93
548.34	306.61
548.51	304.27
548.67	362.78
548.84	358.10
549.01	381.51
549.18	308.95
549.34	376.83
549.51	297.25
549.68	315.97
549.84	346.40
550.01	440.02
550.18	503.22
550.34	416.62
550.51	346.40
550.68	332.36
550.84	348.74
551.01	325.33
551.18	304.27
551.34	287.89
551.51	383.85
551.68	332.36
551.84	402.57
552.01	313.63
552.18	395.55
552.34	400.23
552.51	269.16
552.68	278.52
552.84	330.02
553.01	393.21
553.18	330.02
553.34	299.59
553.51	330.02
553.67	379.17
553.84	423.64
554.01	376.83
554.17	283.20
554.34	348.74
554.51	374.49
554.67	397.89
554.84	414.27
555.00	372.15
555.17	318.31
555.33	367.46
555.50	365.12
555.67	362.78
555.83	355.76
556.00	376.83
556.16	517.26
556.33	404.91
556.50	341.72
556.66	416.62
556.83	339.38
556.99	330.02
557.16	313.63
557.32	332.36
557.49	428.32
557.65	299.59
557.82	283.20
557.98	304.27
558.15	311.29
558.32	404.91
558.48	325.33
558.65	252.78
558.81	320.65
558.98	337.04
559.14	386.19
559.31	313.63
559.47	327.68
559.64	243.42
559.80	351.08
559.97	325.33
560.13	325.33
560.30	339.38
560.46	271.50
560.63	234.05
560.79	381.51
560.96	299.59
561.12	301.93
561.29	245.76
561.45	285.55
561.61	416.62
561.78	411.93
561.94	386.19
562.11	276.18
562.27	276.18
562.44	276.18
562.60	325.33
562.77	311.29
562.93	423.64
563.10	334.70
563.26	369.80
563.42	428.32
563.59	397.89
563.75	306.61
563.92	360.44
564.08	346.40
564.24	411.93
564.41	407.25
564.57	341.72
564.74	299.59
564.90	360.44
565.07	358.10
565.23	344.06
565.39	287.89
565.56	390.87
565.72	332.36
565.88	341.72
566.05	353.42
566.21	322.99
566.38	409.59
566.54	259.80
566.70	355.76
566.87	315.97
567.03	304.27
567.19	238.73
567.36	400.23
567.52	348.74
567.68	315.97
567.85	308.95
568.01	294.91
568.17	262.14
568.34	383.85
568.50	344.06
568.66	299.59
568.83	414.27
568.99	348.74
569.15	393.21
569.32	301.93
569.48	360.44
569.64	255.12
569.81	386.19
569.97	313.63
570.13	332.36
570.30	379.17
570.46	231.71
570.62	301.93
570.78	257.46
570.95	285.55
571.11	353.42
571.27	292.57
571.43	229.37
571.60	315.97
571.76	252.78
571.92	379.17
572.09	255.12
572.25	346.40
572.41	344.06
572.57	308.95
572.74	299.59
572.90	334.70
573.06	313.63
573.22	374.49
573.38	332.36
573.55	334.70
573.71	330.02
573.87	285.55
574.03	297.25
574.20	444.70
574.36	360.44
574.52	365.12
574.68	425.98
574.84	276.18
575.01	234.05
575.17	367.46
575.33	325.33
575.49	315.97
575.65	358.10
575.82	315.97
575.98	290.23
576.14	301.93
576.30	337.04
576.46	311.29
576.62	322.99
576.79	353.42
576.95	372.15
577.11	299.59
577.27	208.31
577.43	346.40
577.59	346.40
577.75	369.80
577.92	229.37
578.08	327.68
578.24	217.67
578.40	266.82
578.56	301.93
578.72	395.55
578.88	337.04
579.04	358.10
579.21	320.65
579.37	344.06
579.53	341.72
579.69	346.40
579.85	255.12
580.01	395.55
580.17	283.20
580.33	308.95
580.49	299.59
580.65	322.99
580.82	423.64
580.98	304.27
581.14	299.59
581.30	248.10
581.46	301.93
581.62	381.51
581.78	290.23
581.94	290.23
582.10	294.91
582.26	339.38
582.42	362.78
582.58	475.13
582.74	287.89
582.90	376.83
583.06	313.63
583.22	351.08
583.38	255.12
583.54	301.93
583.70	348.74
583.86	388.53
584.02	238.73
584.18	353.42
584.34	292.57
584.50	304.27
584.66	322.99
584.82	252.78
584.98	360.44
585.14	306.61
585.30	358.10
585.46	294.91
585.62	187.24
585.78	386.19
585.94	276.18
586.10	245.76
586.26	280.86
586.42	315.97
586.58	395.55
586.74	306.61
586.90	344.06
587.06	297.25
587.22	421.30
587.38	332.36
587.54	355.76
587.70	313.63
587.86	306.61
588.02	231.71
588.18	276.18
588.34	280.86
588.49	149.79
588.65	250.44
588.81	156.82
588.97	245.76
589.13	208.31
589.29	208.31
589.45	198.95
589.61	241.08
589.77	248.10
589.93	315.97
590.08	287.89
590.24	215.33
590.40	212.99
590.56	327.68
590.72	269.16
590.88	252.78
591.04	248.10
591.20	234.05
591.35	280.86
591.51	236.39
591.67	191.92
591.83	283.20
591.99	227.03
592.15	292.57
592.31	290.23
592.46	194.26
592.62	332.36
592.78	273.84
592.94	332.36
593.10	255.12
593.26	315.97
593.41	325.33
593.57	252.78
593.73	318.31
593.89	255.12
594.05	245.76
594.20	308.95
594.36	297.25
594.52	250.44
594.68	231.71
594.84	355.76
594.99	360.44
595.15	374.49
595.31	428.32
595.47	348.74
595.62	360.44
595.78	334.70
595.94	358.10
596.10	341.72
596.25	294.91
596.41	308.95
596.57	269.16
596.73	262.14
596.88	245.76
597.04	212.99
597.20	271.50
597.36	269.16
597.51	243.42
597.67	294.91
597.83	280.86
597.99	203.63
598.14	355.76
598.30	308.95
598.46	273.84
598.61	215.33
598.77	290.23
598.93	301.93
599.09	322.99
599.24	280.86
599.40	276.18
599.56	294.91
599.71	337.04
599.87	285.55
600.03	283.20
600.18	271.50
600.34	294.91
600.50	220.01
600.65	231.71
600.81	264.48
600.97	198.95
601.12	231.71
601.28	344.06
601.44	276.18
601.59	269.16
601.75	243.42
601.91	292.57
602.06	191.92
602.22	346.40
602.37	294.91
602.53	229.37
602.69	278.52
602.84	227.03
603.00	220.01
603.16	234.05
603.31	315.97
603.47	351.08
603.62	210.65
603.78	365.12
603.94	318.31
604.09	262.14
604.25	372.15
604.40	264.48
604.56	208.31
604.71	294.91
604.87	280.86
605.03	278.52
605.18	334.70
605.34	304.27
605.49	231.71
605.65	290.23
605.80	198.95
605.96	224.69
606.12	301.93
606.27	301.93
606.43	276.18
606.58	346.40
606.74	337.04
606.89	285.55
607.05	304.27
607.20	266.82
607.36	227.03
607.51	238.73
607.67	243.42
607.82	264.48
607.98	220.01
608.13	210.65
608.29	182.56
608.44	255.12
608.60	269.16
608.75	337.04
608.91	262.14
609.06	259.80
609.22	332.36
609.37	241.08
609.53	292.57
609.68	243.42
609.84	154.48
609.99	196.60
610.15	332.36
610.30	252.78
610.46	318.31
610.61	278.52
610.76	365.12
610.92	276.18
611.07	248.10
611.23	332.36
611.38	285.55
611.54	269.16
611.69	252.78
611.84	236.39
612.00	227.03
612.15	297.25
612.31	297.25
612.46	241.08
612.62	187.24
612.77	301.93
612.92	348.74
613.08	353.42
613.23	290.23
613.39	241.08
613.54	194.26
613.69	255.12
613.85	290.23
614.00	182.56
614.15	250.44
614.31	198.95
614.46	243.42
614.62	276.18
614.77	208.31
614.92	259.80
615.08	241.08
615.23	241.08
615.38	205.97
615.54	313.63
615.69	203.63
615.84	149.79
616.00	81.92
616.15	205.97
616.30	156.82
616.46	208.31
616.61	264.48
616.76	201.29
616.92	205.97
617.07	248.10
617.22	255.12
617.37	252.78
617.53	339.38
617.68	283.20
617.83	117.03
617.99	259.80
618.14	313.63
618.29	332.36
618.45	163.84
618.60	241.08
618.75	65.54
618.90	105.32
619.06	212.99
619.21	224.69
619.36	292.57
619.51	241.08
619.67	220.01
619.82	191.92
619.97	236.39
620.12	208.31
620.28	175.54
620.43	248.10
620.58	215.33
620.73	194.26
620.89	159.16
621.04	191.92
621.19	224.69
621.34	163.84
621.49	222.35
621.65	285.55
621.80	166.18
621.95	189.58
622.10	208.31
622.25	124.05
622.41	259.80
622.56	107.66
622.71	163.84
622.86	250.44
623.01	121.71
623.16	154.48
623.32	198.95
623.47	170.86
