SpectraSuite Data File
++++++++++++++++++++++++++++++++++++
Date: Mon Oct 07 14:59:57 GMT-05:00 2013
User: price-jones
Dark Spectrum Present: No
Reference Spectrum Present: No
Number of Sampled Component Spectra: 1
Spectrometers: USB2+H05261
Integration Time (usec): 100000 (USB2+H05261)
Spectra Averaged: 1 (USB2+H05261)
Boxcar Smoothing: 0 (USB2+H05261)
Correct for Electrical Dark: No (USB2+H05261)
Strobe/Lamp Enabled: No (USB2+H05261)
Correct for Detector Non-linearity: No (USB2+H05261)
Correct for Stray Light: No (USB2+H05261)
Number of Pixels in Processed Spectrum: 2048
>>>>>Begin Processed Spectral Data<<<<<
365.73	0.00
365.92	0.00
366.12	0.00
366.32	0.00
366.52	0.00
366.72	0.00
366.91	0.00
367.11	0.00
367.31	0.00
367.51	0.00
367.70	0.00
367.90	0.00
368.10	0.00
368.30	0.00
368.49	0.00
368.69	0.00
368.89	0.00
369.09	0.00
369.28	0.00
369.48	0.00
369.68	0.00
369.87	0.00
370.07	0.00
370.27	0.00
370.47	0.00
370.66	0.00
370.86	0.00
371.06	0.00
371.25	0.00
371.45	0.00
371.65	0.00
371.84	0.00
372.04	0.00
372.24	0.00
372.44	0.00
372.63	0.00
372.83	0.00
373.03	0.00
373.22	0.00
373.42	0.00
373.62	0.00
373.81	0.00
374.01	0.00
374.21	0.00
374.40	0.00
374.60	0.00
374.79	0.00
374.99	0.00
375.19	0.00
375.38	0.00
375.58	0.00
375.78	0.00
375.97	0.00
376.17	0.00
376.37	0.00
376.56	0.00
376.76	0.00
376.95	0.00
377.15	0.00
377.35	0.00
377.54	0.00
377.74	0.00
377.93	0.00
378.13	0.00
378.33	0.00
378.52	0.00
378.72	0.00
378.91	0.00
379.11	0.00
379.31	0.00
379.50	0.00
379.70	0.00
379.89	0.00
380.09	0.00
380.28	0.00
380.48	0.00
380.68	0.00
380.87	0.00
381.07	0.00
381.26	0.00
381.46	0.00
381.65	0.00
381.85	0.00
382.04	0.00
382.24	0.00
382.43	0.00
382.63	0.00
382.83	0.00
383.02	0.00
383.22	0.00
383.41	0.00
383.61	0.00
383.80	0.00
384.00	0.00
384.19	0.00
384.39	0.00
384.58	0.00
384.78	0.00
384.97	0.00
385.17	0.00
385.36	0.00
385.56	0.00
385.75	0.00
385.95	0.00
386.14	0.00
386.34	0.00
386.53	0.00
386.72	0.00
386.92	0.00
387.11	0.00
387.31	0.00
387.50	0.00
387.70	0.00
387.89	0.00
388.09	0.00
388.28	0.00
388.48	0.00
388.67	0.00
388.86	0.00
389.06	0.00
389.25	0.00
389.45	0.00
389.64	0.00
389.84	0.00
390.03	0.00
390.22	0.00
390.42	0.00
390.61	0.00
390.81	0.00
391.00	0.00
391.19	0.00
391.39	0.00
391.58	0.00
391.78	0.00
391.97	0.00
392.16	0.00
392.36	0.00
392.55	0.00
392.75	0.00
392.94	0.00
393.13	0.00
393.33	0.00
393.52	0.00
393.71	0.00
393.91	0.00
394.10	0.00
394.29	0.00
394.49	0.00
394.68	0.00
394.88	0.00
395.07	0.00
395.26	0.00
395.46	0.00
395.65	0.00
395.84	0.00
396.04	0.00
396.23	0.00
396.42	0.00
396.62	0.00
396.81	0.00
397.00	0.00
397.19	0.00
397.39	0.00
397.58	0.00
397.77	0.00
397.97	0.00
398.16	0.00
398.35	0.00
398.55	0.00
398.74	0.00
398.93	0.00
399.12	0.00
399.32	0.00
399.51	0.00
399.70	0.00
399.90	0.00
400.09	0.00
400.28	0.00
400.47	0.00
400.67	0.00
400.86	0.00
401.05	0.00
401.24	0.00
401.44	0.00
401.63	0.00
401.82	0.00
402.01	0.00
402.21	0.00
402.40	0.00
402.59	0.00
402.78	0.00
402.97	0.00
403.17	0.00
403.36	0.00
403.55	0.00
403.74	0.00
403.93	0.00
404.13	0.00
404.32	0.00
404.51	0.00
404.70	0.00
404.89	0.00
405.09	0.00
405.28	0.00
405.47	0.00
405.66	0.00
405.85	0.00
406.05	0.00
406.24	0.00
406.43	0.00
406.62	0.00
406.81	0.00
407.00	0.00
407.20	0.00
407.39	0.00
407.58	0.00
407.77	0.00
407.96	0.00
408.15	0.00
408.34	0.00
408.54	0.00
408.73	0.00
408.92	0.00
409.11	0.00
409.30	0.00
409.49	0.00
409.68	0.00
409.87	0.00
410.07	0.00
410.26	0.00
410.45	0.00
410.64	0.00
410.83	0.00
411.02	0.00
411.21	0.00
411.40	0.00
411.59	0.00
411.78	0.00
411.98	0.00
412.17	0.00
412.36	0.00
412.55	0.00
412.74	0.00
412.93	0.00
413.12	0.00
413.31	0.00
413.50	0.00
413.69	0.00
413.88	0.00
414.07	0.00
414.26	0.00
414.45	0.00
414.64	0.00
414.83	0.00
415.02	0.00
415.22	0.00
415.41	0.00
415.60	0.00
415.79	0.00
415.98	0.00
416.17	0.00
416.36	0.00
416.55	0.00
416.74	0.00
416.93	0.00
417.12	0.00
417.31	0.00
417.50	0.00
417.69	0.00
417.88	0.00
418.07	0.00
418.26	0.00
418.45	0.00
418.64	0.00
418.83	0.00
419.02	0.00
419.21	0.00
419.39	0.00
419.58	0.00
419.77	0.00
419.96	0.00
420.15	0.00
420.34	0.00
420.53	0.00
420.72	0.00
420.91	0.00
421.10	0.00
421.29	0.00
421.48	0.00
421.67	0.00
421.86	0.00
422.05	0.00
422.24	0.00
422.43	0.00
422.61	0.00
422.80	0.00
422.99	0.00
423.18	0.00
423.37	0.00
423.56	0.00
423.75	0.00
423.94	0.00
424.13	0.00
424.32	0.00
424.50	0.00
424.69	0.00
424.88	0.00
425.07	0.00
425.26	0.00
425.45	0.00
425.64	0.00
425.83	0.00
426.01	0.00
426.20	0.00
426.39	0.00
426.58	0.00
426.77	0.00
426.96	0.00
427.15	0.00
427.33	0.00
427.52	0.00
427.71	0.00
427.90	0.00
428.09	0.00
428.28	0.00
428.46	0.00
428.65	0.00
428.84	0.00
429.03	0.00
429.22	0.00
429.40	0.00
429.59	0.00
429.78	0.00
429.97	0.00
430.16	0.00
430.34	0.00
430.53	0.00
430.72	0.00
430.91	0.00
431.10	0.00
431.28	0.00
431.47	0.00
431.66	0.00
431.85	0.00
432.03	0.00
432.22	0.00
432.41	0.00
432.60	0.00
432.79	0.00
432.97	0.00
433.16	0.00
433.35	0.00
433.54	0.00
433.72	0.00
433.91	0.00
434.10	0.00
434.28	0.00
434.47	0.00
434.66	9.36
434.85	0.00
435.03	0.00
435.22	0.00
435.41	0.00
435.59	0.00
435.78	0.00
435.97	0.00
436.16	0.00
436.34	0.00
436.53	0.00
436.72	0.00
436.90	0.00
437.09	0.00
437.28	0.00
437.46	0.00
437.65	0.00
437.84	0.00
438.02	0.00
438.21	0.00
438.40	0.00
438.58	0.00
438.77	0.00
438.96	0.00
439.14	0.00
439.33	0.00
439.52	0.00
439.70	0.00
439.89	0.00
440.08	0.00
440.26	0.00
440.45	0.00
440.63	0.00
440.82	0.00
441.01	0.00
441.19	4.68
441.38	0.00
441.57	21.06
441.75	0.00
441.94	0.00
442.12	0.00
442.31	0.00
442.50	0.00
442.68	0.00
442.87	0.00
443.05	0.00
443.24	0.00
443.43	0.00
443.61	0.00
443.80	4.68
443.98	0.00
444.17	0.00
444.35	0.00
444.54	0.00
444.73	0.00
444.91	0.00
445.10	0.00
445.28	0.00
445.47	0.00
445.65	0.00
445.84	0.00
446.02	0.00
446.21	0.00
446.39	0.00
446.58	0.00
446.77	0.00
446.95	0.00
447.14	0.00
447.32	25.75
447.51	0.00
447.69	0.00
447.88	0.00
448.06	0.00
448.25	7.02
448.43	0.00
448.62	0.00
448.80	0.00
448.99	0.00
449.17	0.00
449.36	0.00
449.54	0.00
449.73	0.00
449.91	28.09
450.10	0.00
450.28	72.56
450.46	16.38
450.65	0.00
450.83	0.00
451.02	0.00
451.20	0.00
451.39	0.00
451.57	0.00
451.76	9.36
451.94	0.00
452.13	39.79
452.31	0.00
452.49	0.00
452.68	0.00
452.86	0.00
453.05	0.00
453.23	0.00
453.42	4.68
453.60	0.00
453.78	0.00
453.97	0.00
454.15	0.00
454.34	0.00
454.52	0.00
454.70	0.00
454.89	0.00
455.07	0.00
455.26	0.00
455.44	0.00
455.62	0.00
455.81	0.00
455.99	18.72
456.17	0.00
456.36	0.00
456.54	0.00
456.73	0.00
456.91	0.00
457.09	0.00
457.28	65.54
457.46	39.79
457.64	30.43
457.83	0.00
458.01	0.00
458.19	0.00
458.38	0.00
458.56	0.00
458.74	0.00
458.93	0.00
459.11	4.68
459.29	0.00
459.48	0.00
459.66	65.54
459.84	0.00
460.03	4.68
460.21	23.41
460.39	0.00
460.57	0.00
460.76	0.00
460.94	53.83
461.12	0.00
461.31	4.68
461.49	0.00
461.67	0.00
461.85	0.00
462.04	16.38
462.22	571.09
462.40	0.00
462.59	0.00
462.77	0.00
462.95	7.02
463.13	0.00
463.32	0.00
463.50	51.49
463.68	9.36
463.86	0.00
464.05	0.00
464.23	0.00
464.41	0.00
464.59	0.00
464.78	4.68
464.96	0.00
465.14	25.75
465.32	0.00
465.50	0.00
465.69	18.72
465.87	2.34
466.05	0.00
466.23	0.00
466.41	0.00
466.60	0.00
466.78	0.00
466.96	0.00
467.14	16.38
467.32	32.77
467.51	0.00
467.69	0.00
467.87	0.00
468.05	0.00
468.23	7.02
468.41	0.00
468.60	0.00
468.78	0.00
468.96	77.24
469.14	42.13
469.32	0.00
469.50	44.47
469.69	0.00
469.87	14.04
470.05	0.00
470.23	0.00
470.41	0.00
470.59	2.34
470.77	16.38
470.95	0.00
471.14	28.09
471.32	0.00
471.50	56.17
471.68	0.00
471.86	0.00
472.04	0.00
472.22	18.72
472.40	0.00
472.58	0.00
472.77	14.04
472.95	88.94
473.13	60.85
473.31	0.00
473.49	0.00
473.67	0.00
473.85	67.88
474.03	65.54
474.21	0.00
474.39	51.49
474.57	107.66
474.75	0.00
474.93	14.04
475.12	0.00
475.30	0.00
475.48	39.79
475.66	35.11
475.84	7.02
476.02	21.06
476.20	81.92
476.38	42.13
476.56	56.17
476.74	58.51
476.92	11.70
477.10	0.00
477.28	2.34
477.46	79.58
477.64	65.54
477.82	51.49
478.00	21.06
478.18	21.06
478.36	0.00
478.54	72.56
478.72	11.70
478.90	23.41
479.08	72.56
479.26	39.79
479.44	0.00
479.62	44.47
479.80	18.72
479.98	46.81
480.16	0.00
480.34	100.64
480.52	46.81
480.70	110.01
480.88	60.85
481.06	23.41
481.24	79.58
481.41	70.22
481.59	32.77
481.77	60.85
481.95	35.11
482.13	117.03
482.31	0.00
482.49	70.22
482.67	86.60
482.85	114.69
483.03	88.94
483.21	81.92
483.39	25.75
483.57	105.32
483.74	81.92
483.92	16.38
484.10	67.88
484.28	105.32
484.46	152.13
484.64	0.00
484.82	32.77
485.00	0.00
485.18	37.45
485.35	56.17
485.53	0.00
485.71	53.83
485.89	25.75
486.07	42.13
486.25	98.30
486.43	70.22
486.61	56.17
486.78	105.32
486.96	65.54
487.14	28.09
487.32	102.98
487.50	95.96
487.68	84.26
487.85	119.37
488.03	39.79
488.21	154.48
488.39	63.19
488.57	117.03
488.75	49.15
488.92	381.51
489.10	166.18
489.28	269.16
489.46	79.58
489.64	91.28
489.81	119.37
489.99	152.13
490.17	163.84
490.35	147.45
490.53	60.85
490.70	93.62
490.88	86.60
491.06	170.86
491.24	177.88
491.41	117.03
491.59	107.66
491.77	95.96
491.95	117.03
492.13	70.22
492.30	91.28
492.48	91.28
492.66	121.71
492.84	159.16
493.01	156.82
493.19	107.66
493.37	170.86
493.54	182.56
493.72	149.79
493.90	180.22
494.08	250.44
494.25	163.84
494.43	156.82
494.61	107.66
494.79	124.05
494.96	128.73
495.14	210.65
495.32	81.92
495.49	170.86
495.67	194.26
495.85	159.16
496.02	175.54
496.20	159.16
496.38	182.56
496.55	100.64
496.73	184.90
496.91	182.56
497.09	252.78
497.26	205.97
497.44	210.65
497.62	215.33
497.79	250.44
497.97	205.97
498.14	205.97
498.32	217.67
498.50	262.14
498.67	236.39
498.85	201.29
499.03	208.31
499.20	208.31
499.38	166.18
499.56	180.22
499.73	252.78
499.91	180.22
500.08	257.46
500.26	198.95
500.44	147.45
500.61	201.29
500.79	220.01
500.97	182.56
501.14	217.67
501.32	210.65
501.49	203.63
501.67	198.95
501.84	168.52
502.02	196.60
502.20	198.95
502.37	229.37
502.55	173.20
502.72	168.52
502.90	264.48
503.07	241.08
503.25	220.01
503.43	212.99
503.60	163.84
503.78	184.90
503.95	163.84
504.13	201.29
504.30	273.84
504.48	124.05
504.65	262.14
504.83	191.92
505.01	208.31
505.18	229.37
505.36	290.23
505.53	238.73
505.71	269.16
505.88	236.39
506.06	212.99
506.23	248.10
506.41	187.24
506.58	224.69
506.76	210.65
506.93	269.16
507.11	304.27
507.28	138.09
507.46	248.10
507.63	330.02
507.81	154.48
507.98	271.50
508.16	198.95
508.33	257.46
508.50	250.44
508.68	184.90
508.85	243.42
509.03	201.29
509.20	208.31
509.38	318.31
509.55	318.31
509.73	259.80
509.90	245.76
510.08	227.03
510.25	287.89
510.42	238.73
510.60	290.23
510.77	315.97
510.95	304.27
511.12	271.50
511.30	285.55
511.47	315.97
511.64	367.46
511.82	175.54
511.99	325.33
512.17	283.20
512.34	175.54
512.51	245.76
512.69	201.29
512.86	348.74
513.04	248.10
513.21	264.48
513.38	280.86
513.56	229.37
513.73	166.18
513.90	203.63
514.08	156.82
514.25	201.29
514.43	248.10
514.60	243.42
514.77	308.95
514.95	273.84
515.12	217.67
515.29	257.46
515.47	255.12
515.64	311.29
515.81	315.97
515.99	264.48
516.16	252.78
516.33	227.03
516.51	198.95
516.68	117.03
516.85	212.99
517.03	161.50
517.20	290.23
517.37	304.27
517.54	290.23
517.72	236.39
517.89	208.31
518.06	215.33
518.24	250.44
518.41	290.23
518.58	374.49
518.75	273.84
518.93	224.69
519.10	196.60
519.27	269.16
519.45	315.97
519.62	248.10
519.79	318.31
519.96	285.55
520.14	215.33
520.31	287.89
520.48	308.95
520.65	320.65
520.83	285.55
521.00	283.20
521.17	362.78
521.34	266.82
521.52	234.05
521.69	301.93
521.86	271.50
522.03	311.29
522.20	292.57
522.38	332.36
522.55	173.20
522.72	257.46
522.89	339.38
523.07	259.80
523.24	222.35
523.41	348.74
523.58	189.58
523.75	313.63
523.92	285.55
524.10	393.21
524.27	320.65
524.44	299.59
524.61	379.17
524.78	327.68
524.96	201.29
525.13	227.03
525.30	327.68
525.47	337.04
525.64	369.80
525.81	383.85
525.98	301.93
526.16	149.79
526.33	187.24
526.50	245.76
526.67	262.14
526.84	259.80
527.01	266.82
527.18	294.91
527.36	269.16
527.53	266.82
527.70	369.80
527.87	320.65
528.04	411.93
528.21	358.10
528.38	376.83
528.55	393.21
528.72	463.43
528.89	376.83
529.07	367.46
529.24	325.33
529.41	269.16
529.58	299.59
529.75	313.63
529.92	388.53
530.09	278.52
530.26	390.87
530.43	344.06
530.60	334.70
530.77	337.04
530.94	346.40
531.11	320.65
531.28	374.49
531.46	397.89
531.63	332.36
531.80	376.83
531.97	393.21
532.14	280.86
532.31	334.70
532.48	360.44
532.65	393.21
532.82	252.78
532.99	334.70
533.16	248.10
533.33	285.55
533.50	241.08
533.67	341.72
533.84	318.31
534.01	255.12
534.18	299.59
534.35	386.19
534.52	362.78
534.69	468.11
534.86	365.12
535.03	315.97
535.20	348.74
535.37	397.89
535.54	322.99
535.71	315.97
535.88	362.78
536.05	287.89
536.22	313.63
536.38	257.46
536.55	332.36
536.72	318.31
536.89	283.20
537.06	292.57
537.23	287.89
537.40	351.08
537.57	285.55
537.74	411.93
537.91	346.40
538.08	372.15
538.25	346.40
538.42	353.42
538.59	414.27
538.75	311.29
538.92	273.84
539.09	395.55
539.26	294.91
539.43	344.06
539.60	257.46
539.77	332.36
539.94	278.52
540.11	264.48
540.28	327.68
540.44	301.93
540.61	245.76
540.78	308.95
540.95	250.44
541.12	365.12
541.29	271.50
541.46	355.76
541.62	283.20
541.79	360.44
541.96	290.23
542.13	344.06
542.30	360.44
542.47	416.62
542.63	339.38
542.80	292.57
542.97	355.76
543.14	327.68
543.31	339.38
543.48	325.33
543.64	402.57
543.81	348.74
543.98	301.93
544.15	294.91
544.32	346.40
544.48	276.18
544.65	297.25
544.82	374.49
544.99	362.78
545.16	379.17
545.32	269.16
545.49	395.55
545.66	372.15
545.83	407.25
546.00	369.80
546.16	241.08
546.33	351.08
546.50	372.15
546.67	440.02
546.83	367.46
547.00	332.36
547.17	332.36
547.34	290.23
547.50	353.42
547.67	327.68
547.84	337.04
548.00	318.31
548.17	341.72
548.34	372.15
548.51	332.36
548.67	423.64
548.84	318.31
549.01	280.86
549.18	341.72
549.34	250.44
549.51	344.06
549.68	397.89
549.84	348.74
550.01	334.70
550.18	491.51
550.34	433.00
550.51	322.99
550.68	447.04
550.84	308.95
551.01	313.63
551.18	301.93
551.34	332.36
551.51	304.27
551.68	353.42
551.84	322.99
552.01	294.91
552.18	231.71
552.34	301.93
552.51	315.97
552.68	360.44
552.84	294.91
553.01	383.85
553.18	390.87
553.34	332.36
553.51	299.59
553.67	339.38
553.84	388.53
554.01	381.51
554.17	311.29
554.34	327.68
554.51	409.59
554.67	395.55
554.84	407.25
555.00	374.49
555.17	341.72
555.33	332.36
555.50	374.49
555.67	322.99
555.83	393.21
556.00	301.93
556.16	552.37
556.33	355.76
556.50	353.42
556.66	283.20
556.83	362.78
556.99	318.31
557.16	365.12
557.32	322.99
557.49	304.27
557.65	325.33
557.82	306.61
557.98	318.31
558.15	339.38
558.32	313.63
558.48	262.14
558.65	229.37
558.81	308.95
558.98	304.27
559.14	332.36
559.31	339.38
559.47	271.50
559.64	231.71
559.80	346.40
559.97	367.46
560.13	227.03
560.30	290.23
560.46	191.92
560.63	451.72
560.79	355.76
560.96	447.04
561.12	327.68
561.29	245.76
561.45	327.68
561.61	351.08
561.78	477.47
561.94	339.38
562.11	210.65
562.27	330.02
562.44	339.38
562.60	388.53
562.77	290.23
562.93	348.74
563.10	346.40
563.26	278.52
563.42	400.23
563.59	285.55
563.75	273.84
563.92	318.31
564.08	346.40
564.24	374.49
564.41	351.08
564.57	259.80
564.74	348.74
564.90	327.68
565.07	379.17
565.23	402.57
565.39	308.95
565.56	313.63
565.72	355.76
565.88	292.57
566.05	201.29
566.21	273.84
566.38	308.95
566.54	332.36
566.70	325.33
566.87	205.97
567.03	257.46
567.19	301.93
567.36	365.12
567.52	348.74
567.68	313.63
567.85	365.12
568.01	306.61
568.17	250.44
568.34	292.57
568.50	346.40
568.66	327.68
568.83	451.72
568.99	262.14
569.15	339.38
569.32	313.63
569.48	280.86
569.64	294.91
569.81	339.38
569.97	304.27
570.13	311.29
570.30	315.97
570.46	301.93
570.62	278.52
570.78	248.10
570.95	184.90
571.11	416.62
571.27	318.31
571.43	390.87
571.60	264.48
571.76	374.49
571.92	330.02
572.09	301.93
572.25	348.74
572.41	280.86
572.57	294.91
572.74	313.63
572.90	301.93
573.06	327.68
573.22	358.10
573.38	334.70
573.55	383.85
573.71	365.12
573.87	330.02
574.03	287.89
574.20	243.42
574.36	348.74
574.52	311.29
574.68	320.65
574.84	418.96
575.01	259.80
575.17	337.04
575.33	266.82
575.49	409.59
575.65	402.57
575.82	365.12
575.98	332.36
576.14	325.33
576.30	264.48
576.46	311.29
576.62	341.72
576.79	264.48
576.95	367.46
577.11	337.04
577.27	393.21
577.43	320.65
577.59	355.76
577.75	229.37
577.92	241.08
578.08	337.04
578.24	238.73
578.40	334.70
578.56	355.76
578.72	388.53
578.88	318.31
579.04	248.10
579.21	337.04
579.37	271.50
579.53	339.38
579.69	421.30
579.85	341.72
580.01	308.95
580.17	362.78
580.33	285.55
580.49	285.55
580.65	334.70
580.82	313.63
580.98	222.35
581.14	271.50
581.30	320.65
581.46	241.08
581.62	374.49
581.78	250.44
581.94	306.61
582.10	299.59
582.26	379.17
582.42	306.61
582.58	346.40
582.74	327.68
582.90	355.76
583.06	346.40
583.22	304.27
583.38	409.59
583.54	283.20
583.70	383.85
583.86	372.15
584.02	283.20
584.18	369.80
584.34	273.84
584.50	425.98
584.66	341.72
584.82	255.12
584.98	250.44
585.14	292.57
585.30	400.23
585.46	306.61
585.62	248.10
585.78	339.38
585.94	376.83
586.10	348.74
586.26	351.08
586.42	250.44
586.58	339.38
586.74	376.83
586.90	325.33
587.06	280.86
587.22	241.08
587.38	234.05
587.54	423.64
587.70	393.21
587.86	390.87
588.02	283.20
588.18	301.93
588.34	191.92
588.49	262.14
588.65	238.73
588.81	191.92
588.97	173.20
589.13	198.95
589.29	175.54
589.45	269.16
589.61	250.44
589.77	301.93
589.93	266.82
590.08	337.04
590.24	283.20
590.40	271.50
590.56	262.14
590.72	332.36
590.88	231.71
591.04	194.26
591.20	266.82
591.35	346.40
591.51	250.44
591.67	208.31
591.83	266.82
591.99	297.25
592.15	337.04
592.31	322.99
592.46	318.31
592.62	381.51
592.78	227.03
592.94	257.46
593.10	236.39
593.26	241.08
593.41	292.57
593.57	360.44
593.73	327.68
593.89	337.04
594.05	262.14
594.20	290.23
594.36	299.59
594.52	259.80
594.68	245.76
594.84	386.19
594.99	257.46
595.15	334.70
595.31	330.02
595.47	285.55
595.62	238.73
595.78	269.16
595.94	313.63
596.10	362.78
596.25	304.27
596.41	196.60
596.57	238.73
596.73	241.08
596.88	360.44
597.04	311.29
597.20	283.20
597.36	411.93
597.51	332.36
597.67	299.59
597.83	264.48
597.99	339.38
598.14	290.23
598.30	262.14
598.46	264.48
598.61	299.59
598.77	273.84
598.93	229.37
599.09	234.05
599.24	236.39
599.40	320.65
599.56	271.50
599.71	280.86
599.87	278.52
600.03	332.36
600.18	348.74
600.34	259.80
600.50	241.08
600.65	290.23
600.81	220.01
600.97	212.99
601.12	229.37
601.28	245.76
601.44	292.57
601.59	163.84
601.75	250.44
601.91	339.38
602.06	271.50
602.22	337.04
602.37	255.12
602.53	339.38
602.69	278.52
602.84	287.89
603.00	290.23
603.16	280.86
603.31	341.72
603.47	320.65
603.62	212.99
603.78	210.65
603.94	273.84
604.09	250.44
604.25	322.99
604.40	348.74
604.56	294.91
604.71	210.65
604.87	241.08
605.03	215.33
605.18	285.55
605.34	325.33
605.49	292.57
605.65	259.80
605.80	243.42
605.96	292.57
606.12	285.55
606.27	285.55
606.43	215.33
606.58	241.08
606.74	320.65
606.89	271.50
607.05	393.21
607.20	322.99
607.36	278.52
607.51	264.48
607.67	241.08
607.82	299.59
607.98	229.37
608.13	308.95
608.29	250.44
608.44	292.57
608.60	283.20
608.75	264.48
608.91	290.23
609.06	180.22
609.22	271.50
609.37	241.08
609.53	250.44
609.68	234.05
609.84	227.03
609.99	191.92
610.15	224.69
610.30	344.06
610.46	278.52
610.61	255.12
610.76	318.31
610.92	287.89
611.07	191.92
611.23	332.36
611.38	306.61
611.54	229.37
611.69	227.03
611.84	191.92
612.00	203.63
612.15	252.78
612.31	149.79
612.46	222.35
612.62	133.41
612.77	318.31
612.92	248.10
613.08	297.25
613.23	241.08
613.39	184.90
613.54	145.11
613.69	222.35
613.85	250.44
614.00	273.84
614.15	196.60
614.31	208.31
614.46	346.40
614.62	191.92
614.77	147.45
614.92	262.14
615.08	234.05
615.23	210.65
615.38	236.39
615.54	208.31
615.69	196.60
615.84	250.44
616.00	243.42
616.15	224.69
616.30	184.90
616.46	236.39
616.61	205.97
616.76	156.82
616.92	224.69
617.07	138.09
617.22	189.58
617.37	264.48
617.53	177.88
617.68	273.84
617.83	224.69
617.99	220.01
618.14	339.38
618.29	273.84
618.45	168.52
618.60	245.76
618.75	170.86
618.90	194.26
619.06	227.03
619.21	287.89
619.36	311.29
619.51	252.78
619.67	184.90
619.82	161.50
619.97	187.24
620.12	271.50
620.28	236.39
620.43	168.52
620.58	341.72
620.73	241.08
620.89	337.04
621.04	252.78
621.19	271.50
621.34	147.45
621.49	161.50
621.65	161.50
621.80	142.77
621.95	187.24
622.10	163.84
622.25	128.73
622.41	166.18
622.56	203.63
622.71	280.86
622.86	241.08
623.01	220.01
623.16	128.73
623.32	149.79
