SpectraSuite Data File
++++++++++++++++++++++++++++++++++++
Date: Mon Oct 07 15:00:08 GMT-05:00 2013
User: price-jones
Dark Spectrum Present: No
Reference Spectrum Present: No
Number of Sampled Component Spectra: 1
Spectrometers: USB2+H05261
Integration Time (usec): 1000000 (USB2+H05261)
Spectra Averaged: 1 (USB2+H05261)
Boxcar Smoothing: 0 (USB2+H05261)
Correct for Electrical Dark: No (USB2+H05261)
Strobe/Lamp Enabled: No (USB2+H05261)
Correct for Detector Non-linearity: No (USB2+H05261)
Correct for Stray Light: No (USB2+H05261)
Number of Pixels in Processed Spectrum: 2048
>>>>>Begin Processed Spectral Data<<<<<
365.73	0.00
365.92	0.00
366.12	0.00
366.32	0.00
366.52	0.00
366.72	215.33
366.91	0.00
367.11	119.37
367.31	58.51
367.51	168.52
367.70	264.48
367.90	484.49
368.10	182.56
368.30	198.95
368.49	0.00
368.69	390.87
368.89	170.86
369.09	0.00
369.28	4.68
369.48	0.00
369.68	100.64
369.87	194.26
370.07	28.09
370.27	493.85
370.47	196.60
370.66	245.76
370.86	547.69
371.06	800.46
371.25	1111.75
371.45	388.53
371.65	814.51
371.84	208.31
372.04	203.63
372.24	456.40
372.44	365.12
372.63	561.73
372.83	1001.75
373.03	489.17
373.22	332.36
373.42	442.36
373.62	468.11
373.81	535.98
374.01	786.42
374.21	716.20
374.40	507.90
374.60	737.27
374.79	454.06
374.99	500.87
375.19	617.90
375.38	606.20
375.58	526.62
375.78	791.10
375.97	620.24
376.17	1149.20
376.37	451.72
376.56	578.11
376.76	414.27
376.95	325.33
377.15	739.61
377.35	688.12
377.54	627.26
377.74	433.00
377.93	477.47
378.13	550.03
378.33	823.87
378.52	470.45
378.72	725.57
378.91	730.25
379.11	468.11
379.31	346.40
379.50	224.69
379.70	854.30
379.89	784.08
380.09	421.30
380.28	334.70
380.48	510.24
380.68	337.04
380.87	287.89
381.07	575.77
381.26	718.54
381.46	276.18
381.65	660.03
381.85	456.40
382.04	664.71
382.24	543.00
382.43	418.96
382.63	283.20
382.83	514.92
383.02	723.23
383.22	844.93
383.41	369.80
383.61	538.32
383.80	854.30
384.00	512.58
384.19	433.00
384.39	557.05
384.58	458.74
384.78	690.46
384.97	547.69
385.17	535.98
385.36	365.12
385.56	723.23
385.75	301.93
385.95	475.13
386.14	720.88
386.34	423.64
386.53	554.71
386.72	484.49
386.92	980.68
387.11	727.91
387.31	688.12
387.50	475.13
387.70	327.68
387.89	493.85
388.09	437.68
388.28	388.53
388.48	341.72
388.67	784.08
388.86	589.82
389.06	454.06
389.25	620.24
389.45	613.22
389.64	571.09
389.84	966.64
390.03	770.04
390.22	624.92
390.42	468.11
390.61	388.53
390.81	334.70
391.00	566.41
391.19	816.85
391.39	589.82
391.58	744.29
391.78	491.51
391.97	617.90
392.16	393.21
392.36	959.62
392.55	802.80
392.75	568.75
392.94	428.32
393.13	690.46
393.33	334.70
393.52	430.66
393.71	985.37
393.91	585.13
394.10	362.78
394.29	454.06
394.49	512.58
394.68	660.03
394.88	870.68
395.07	868.34
395.26	664.71
395.46	617.90
395.65	877.70
395.84	702.16
396.04	1399.64
396.23	500.87
396.42	397.89
396.62	599.18
396.81	723.23
397.00	624.92
397.19	678.76
397.39	578.11
397.58	1013.45
397.77	528.96
397.97	582.79
398.16	664.71
398.35	774.72
398.55	622.58
398.74	709.18
398.93	959.62
399.12	613.22
399.32	802.80
399.51	702.16
399.70	950.26
399.90	763.01
400.09	863.66
400.28	987.71
400.47	718.54
400.67	905.79
400.86	788.76
401.05	945.58
401.24	926.85
401.44	1008.77
401.63	1001.75
401.82	1083.67
402.01	617.90
402.21	1001.75
402.40	800.46
402.59	704.50
402.78	681.10
402.97	699.82
403.17	777.06
403.36	873.02
403.55	713.86
403.74	765.36
403.93	709.18
404.13	1006.43
404.32	610.88
404.51	631.94
404.70	968.98
404.89	767.70
405.09	1296.66
405.28	748.97
405.47	636.63
405.66	1032.18
405.85	1004.09
406.05	821.53
406.24	706.84
406.43	828.55
406.62	1022.81
406.81	1572.84
407.00	1022.81
407.20	798.12
407.39	791.10
407.58	791.10
407.77	999.41
407.96	1097.71
408.15	1055.58
408.34	987.71
408.54	992.39
408.73	964.30
408.92	894.08
409.11	1036.86
409.30	1116.44
409.49	751.31
409.68	868.34
409.87	793.44
410.07	746.63
410.26	959.62
410.45	844.93
410.64	774.72
410.83	926.85
411.02	868.34
411.21	1078.99
411.40	1210.06
411.59	896.43
411.78	851.96
411.98	940.90
412.17	830.89
412.36	875.36
412.55	809.83
412.74	1153.88
412.93	1448.79
413.12	842.59
413.31	1352.83
413.50	1139.84
413.69	1090.69
413.88	1409.00
414.07	1062.60
414.26	1121.12
414.45	887.06
414.64	1107.07
414.83	1093.03
415.02	1062.60
415.22	1193.67
415.41	1303.68
415.60	917.49
415.79	1055.58
415.98	1366.87
416.17	1088.35
416.36	1100.05
416.55	943.24
416.74	1217.08
416.93	1343.47
417.12	999.41
417.31	954.94
417.50	1036.86
417.69	1591.56
417.88	1128.14
418.07	800.46
418.26	936.21
418.45	1060.26
418.64	1549.43
418.83	1207.72
419.02	1160.91
419.21	1160.91
419.39	1097.71
419.58	880.04
419.77	894.08
419.96	1369.21
420.15	1586.88
420.34	1163.25
420.53	1242.82
420.72	1411.34
420.91	1327.08
421.10	1114.10
421.29	1210.06
421.48	1177.29
421.67	1425.39
421.86	1118.78
422.05	1032.18
422.24	978.34
422.43	1069.62
422.61	884.72
422.80	1050.90
422.99	1116.44
423.18	1046.22
423.37	1540.07
423.56	1284.95
423.75	1252.19
423.94	924.51
424.13	1027.50
424.32	1008.77
424.50	961.96
424.69	1093.03
424.88	1476.88
425.07	1074.31
425.26	1128.14
425.45	1256.87
425.64	1020.47
425.83	1057.92
426.01	1409.00
426.20	1287.29
426.39	1071.97
426.58	973.66
426.77	1069.62
426.96	1137.50
427.15	1050.90
427.33	950.26
427.52	1153.88
427.71	1221.76
427.90	1284.95
428.09	1109.41
428.28	917.49
428.46	1022.81
428.65	1343.47
428.84	1020.47
429.03	1474.54
429.22	978.34
429.40	854.30
429.59	821.53
429.78	1280.27
429.97	924.51
430.16	905.79
430.34	1039.20
430.53	936.21
430.72	983.02
430.91	1277.93
431.10	1008.77
431.28	1135.16
431.47	1462.83
431.66	1458.15
431.85	1167.93
432.03	1184.31
432.22	1858.39
432.41	1217.08
432.60	1474.54
432.79	1116.44
432.97	1280.27
433.16	1188.99
433.35	1097.71
433.54	1107.07
433.72	1338.79
433.91	1259.21
434.10	1057.92
434.28	1291.98
434.47	1217.08
434.66	1514.33
434.85	1130.48
435.03	1217.08
435.22	1699.23
435.41	1856.04
435.59	1551.78
435.78	1434.75
435.97	1231.12
436.16	1558.80
436.34	1371.55
436.53	1366.87
436.72	1621.99
436.90	1493.26
437.09	1425.39
437.28	1303.68
437.46	1228.78
437.65	1523.69
437.84	1441.77
438.02	1275.59
438.21	1474.54
438.40	1205.38
438.58	1069.62
438.77	1345.81
438.96	1495.60
439.14	1132.82
439.33	1652.42
439.52	1451.13
439.70	1371.55
439.89	1486.24
440.08	1565.82
440.26	1493.26
440.45	1846.68
440.63	1584.54
440.82	1511.99
441.01	1462.83
441.19	1423.05
441.38	1441.77
441.57	1486.24
441.75	1813.92
441.94	1856.04
442.12	1570.50
442.31	1547.09
442.50	1537.73
442.68	1507.30
442.87	1526.03
443.05	1544.75
443.24	1614.97
443.43	1685.19
443.61	1879.45
443.80	1621.99
443.98	1364.53
444.17	1600.93
444.35	1872.43
444.54	1586.88
444.73	1523.69
444.91	1884.13
445.10	1329.42
445.28	1390.28
445.47	1483.90
445.65	1586.88
445.84	1493.26
446.02	1664.12
446.21	1476.88
446.39	1497.94
446.58	1668.80
446.77	1486.24
446.95	1493.26
447.14	1813.92
447.32	2176.70
447.51	1481.56
447.69	1692.21
447.88	1654.76
448.06	2071.37
448.25	1746.04
448.43	1565.82
448.62	1521.35
448.80	1584.54
448.99	1788.17
449.17	1486.24
449.36	1476.88
449.54	1982.43
449.73	1589.22
449.91	1895.83
450.10	1614.97
450.28	2438.84
450.46	2448.20
450.65	2106.48
450.83	1771.79
451.02	1661.78
451.20	1797.53
451.39	1741.36
451.57	1629.01
451.76	1537.73
451.94	1673.48
452.13	1799.87
452.31	1919.24
452.49	1743.70
452.68	1334.11
452.86	1703.91
453.05	2153.29
453.23	1678.16
453.42	1575.18
453.60	1692.21
453.78	1762.42
453.97	1598.59
454.15	1612.63
454.34	1596.25
454.52	1614.97
454.70	2101.80
454.89	1888.81
455.07	1617.31
455.26	1959.03
455.44	2092.44
455.62	1657.10
455.81	1944.99
455.99	1874.77
456.17	1947.33
456.36	1813.92
456.54	1778.81
456.73	1755.40
456.91	1837.32
457.09	1879.45
457.28	2134.57
457.46	1771.79
457.64	2087.76
457.83	1682.85
458.01	1612.63
458.19	1881.79
458.38	1680.50
458.56	1842.00
458.74	1680.50
458.93	1886.47
459.11	1998.82
459.29	1589.22
459.48	2087.76
459.66	2300.75
459.84	2066.69
460.03	2803.96
460.21	2214.15
460.39	1952.01
460.57	2347.56
460.76	1980.09
460.94	1863.07
461.12	2410.75
461.31	2300.75
461.49	1886.47
461.67	1816.26
461.85	1984.77
462.04	1870.09
462.22	8400.18
462.40	2298.41
462.59	2214.15
462.77	1846.68
462.95	2043.29
463.13	1757.74
463.32	2232.87
463.50	1998.82
463.68	2005.84
463.86	1984.77
464.05	1785.83
464.23	2157.97
464.41	2031.58
464.59	1724.97
464.78	1839.66
464.96	1802.21
465.14	1984.77
465.32	1729.66
465.50	2169.68
465.69	2214.15
465.87	1776.47
466.05	1954.35
466.23	1633.69
466.41	1767.10
466.60	1832.64
466.78	1928.60
466.96	2211.81
467.14	2080.74
467.32	2183.72
467.51	2024.56
467.69	2064.35
467.87	2408.41
468.05	1902.86
468.23	2385.01
468.41	2141.59
468.60	1954.35
468.78	2019.88
468.96	2200.10
469.14	2127.55
469.32	1657.10
469.50	1713.27
469.69	2101.80
469.87	1980.09
470.05	1959.03
470.23	1797.53
470.41	1739.02
470.59	1834.98
470.77	2026.90
470.95	1912.22
471.14	2361.60
471.32	2132.23
471.50	2389.69
471.68	2097.12
471.86	2162.66
472.04	1867.75
472.22	2263.30
472.40	1769.44
472.58	1872.43
472.77	1811.57
472.95	2019.88
473.13	2633.10
473.31	2401.39
473.49	2033.93
473.67	1930.94
473.85	2260.96
474.03	2368.62
474.21	2071.37
474.39	2569.91
474.57	2729.06
474.75	2207.13
474.93	2052.65
475.12	1954.35
475.30	2073.71
475.48	2225.85
475.66	2186.06
475.84	2275.00
476.02	2253.94
476.20	2394.37
476.38	2085.42
476.56	2892.90
476.74	2319.47
476.92	2310.11
477.10	2310.11
477.28	2417.77
477.46	2211.81
477.64	2527.78
477.82	2282.02
478.00	2211.81
478.18	2349.90
478.36	2366.28
478.54	2270.32
478.72	2275.00
478.90	2356.92
479.08	2513.74
479.26	2492.67
479.44	2347.56
479.62	2328.83
479.80	2424.80
479.98	2326.49
480.16	2256.28
480.34	2626.08
480.52	2183.72
480.70	2569.91
480.88	2324.15
481.06	2305.43
481.24	2375.64
481.41	2560.55
481.59	2700.98
481.77	2637.78
481.95	2544.16
482.13	2923.33
482.31	2572.25
482.49	2363.94
482.67	2801.62
482.85	2722.04
483.03	2693.96
483.21	2630.76
483.39	2452.88
483.57	2502.03
483.74	3136.32
483.92	2619.06
484.10	2462.24
484.28	3082.49
484.46	3440.59
484.64	2633.10
484.82	2675.23
485.00	2684.59
485.18	2614.38
485.35	2558.21
485.53	2153.29
485.71	2626.08
485.89	2045.63
486.07	2349.90
486.25	3234.62
486.43	2792.26
486.61	2841.41
486.78	2759.49
486.96	2548.84
487.14	2738.43
487.32	2740.77
487.50	2850.77
487.68	3197.17
487.85	2757.15
488.03	3145.68
488.21	3293.13
488.39	2874.18
488.57	3096.53
488.75	2810.98
488.92	6612.01
489.10	3260.37
489.28	3688.68
489.46	3138.66
489.64	3215.90
489.81	3227.60
489.99	3370.37
490.17	3232.28
490.35	4042.11
490.53	3075.46
490.70	2918.65
490.88	3440.59
491.06	3171.43
491.24	3478.04
491.41	3433.57
491.59	3274.41
491.77	2925.67
491.95	2928.01
492.13	3042.70
492.30	3358.67
492.48	3192.49
492.66	3349.31
492.84	3204.19
493.01	3494.42
493.19	3248.66
493.37	3805.71
493.54	3454.63
493.72	3611.45
493.90	3431.23
494.08	3382.07
494.25	3733.15
494.43	3721.45
494.61	3576.34
494.79	3403.14
494.96	3478.04
495.14	3667.62
495.32	3389.10
495.49	3531.87
495.67	3669.96
495.85	3499.10
496.02	3412.50
496.20	3904.01
496.38	3859.54
496.55	3709.75
496.73	3819.75
496.91	3695.71
497.09	3904.01
497.26	3815.07
497.44	3737.84
497.62	3585.70
497.79	3527.19
497.97	3524.85
498.14	3786.99
498.32	3719.11
498.50	3854.86
498.67	3801.03
498.85	3948.48
499.03	3723.79
499.20	3660.60
499.38	3735.50
499.56	3857.20
499.73	4374.46
499.91	3904.01
500.08	3789.33
500.26	3651.24
500.44	3632.51
500.61	3789.33
500.79	3529.53
500.97	3859.54
501.14	4093.60
501.32	3728.47
501.49	4063.17
501.67	3779.97
501.84	3894.65
502.02	3602.08
502.20	4505.53
502.37	4018.70
502.55	3801.03
502.72	3957.85
502.90	4046.79
503.07	4065.51
503.25	4084.23
503.43	3602.08
503.60	3583.36
503.78	3847.84
503.95	3779.97
504.13	3861.88
504.30	4250.41
504.48	4294.88
504.65	4187.22
504.83	4112.32
505.01	3929.76
505.18	4145.09
505.36	4269.14
505.53	3990.61
505.71	4046.79
505.88	4362.76
506.06	4205.94
506.23	4056.15
506.41	3911.04
506.58	4084.23
506.76	4091.26
506.93	3822.09
507.11	4252.75
507.28	3864.22
507.46	3943.80
507.63	3992.95
507.81	3754.22
507.98	4098.28
508.16	4018.70
508.33	4011.68
508.50	4353.40
508.68	4259.78
508.85	4290.20
509.03	3969.55
509.20	4067.85
509.38	4269.14
509.55	4259.78
509.73	4332.33
509.90	4606.17
510.08	4018.70
510.25	4372.12
510.42	3941.46
510.60	4243.39
510.77	4498.51
510.95	4500.85
511.12	4208.28
511.30	4440.00
511.47	4540.64
511.64	4968.96
511.82	4266.80
511.99	4142.75
512.17	4229.35
512.34	3999.98
512.51	3976.57
512.69	4166.15
512.86	4533.62
513.04	4149.77
513.21	4407.23
513.38	4175.52
513.56	4140.41
513.73	3882.95
513.90	4042.11
514.08	3997.64
514.25	4351.06
514.43	4369.78
514.60	4028.06
514.77	4175.52
514.95	4241.05
515.12	4060.83
515.29	4418.93
515.47	4606.17
515.64	4227.01
515.81	4311.27
515.99	4603.83
516.16	4257.43
516.33	4133.39
516.51	3672.30
516.68	3342.28
516.85	3665.28
517.03	3784.65
517.20	4215.30
517.37	4315.95
517.54	4390.84
517.72	4145.09
517.89	3658.26
518.06	3595.06
518.24	4407.23
518.41	4498.51
518.58	4353.40
518.75	4018.70
518.93	4313.61
519.10	4332.33
519.27	4257.43
519.45	4348.72
519.62	4507.87
519.79	4589.79
519.96	4145.09
520.14	4287.86
520.31	4620.22
520.48	4327.65
520.65	4475.10
520.83	4713.84
521.00	4650.64
521.17	4863.63
521.34	4456.38
521.52	4477.44
521.69	4524.26
521.86	4622.56
522.03	4800.44
522.20	4973.64
522.38	4271.48
522.55	4386.16
522.72	4266.80
522.89	4725.54
523.07	5203.01
523.24	4652.98
523.41	4629.58
523.58	4571.07
523.75	4755.97
523.92	4533.62
524.10	4699.80
524.27	4821.50
524.44	4676.39
524.61	4823.84
524.78	4566.39
524.96	4812.14
525.13	4706.82
525.30	4966.62
525.47	4910.44
525.64	4755.97
525.81	4524.26
525.98	4346.37
526.16	4173.18
526.33	4184.88
526.50	3911.04
526.67	3915.72
526.84	4079.55
527.01	4332.33
527.18	4655.33
527.36	4685.75
527.53	4531.28
527.70	4854.27
527.87	4816.82
528.04	5177.26
528.21	4652.98
528.38	4983.00
528.55	5165.56
528.72	5331.74
528.89	5488.56
529.07	4922.15
529.24	4849.59
529.41	5205.35
529.58	4699.80
529.75	4709.16
529.92	5093.01
530.09	4835.55
530.26	5167.90
530.43	5036.83
530.60	4919.81
530.77	4858.95
530.94	5217.05
531.11	5046.20
531.28	4746.61
531.46	4791.08
531.63	4798.10
531.80	4891.72
531.97	4990.02
532.14	4798.10
532.31	4510.21
532.48	4521.92
532.65	4746.61
532.82	4365.10
532.99	4685.75
533.16	4788.74
533.33	4950.23
533.50	4706.82
533.67	4552.34
533.84	4854.27
534.01	4940.87
534.18	4868.31
534.35	5076.62
534.52	4990.02
534.69	5497.92
534.86	4924.49
535.03	4945.55
535.20	4994.70
535.37	5195.99
535.54	5055.56
535.71	4910.44
535.88	5416.00
536.05	4807.46
536.22	5095.35
536.38	4753.63
536.55	4805.12
536.72	4905.76
536.89	4510.21
537.06	4748.95
537.23	4908.10
537.40	4863.63
537.57	4919.81
537.74	5158.54
537.91	5018.11
538.08	5008.75
538.25	5104.71
538.42	4812.14
538.59	5043.85
538.75	4903.42
538.92	4692.77
539.09	5114.07
539.26	4638.94
539.43	5240.46
539.60	4851.93
539.77	4957.25
539.94	4770.01
540.11	4997.04
540.28	5053.22
540.44	5032.15
540.61	4770.01
540.78	4641.28
540.95	4655.33
541.12	5359.83
541.29	4660.01
541.46	5198.33
541.62	4943.21
541.79	4727.88
541.96	4575.75
542.13	4713.84
542.30	4547.66
542.47	5231.10
542.63	4809.80
542.80	4819.16
542.97	4961.94
543.14	4933.85
543.31	5149.18
543.48	4903.42
543.64	5146.84
543.81	4973.64
543.98	5046.20
544.15	4718.52
544.32	4849.59
544.48	4975.98
544.65	5013.43
544.82	4821.50
544.99	4987.68
545.16	5289.61
545.32	4713.84
545.49	5203.01
545.66	5013.43
545.83	4910.44
546.00	4718.52
546.16	4821.50
546.33	4961.94
546.50	5057.90
546.67	5416.00
546.83	5085.98
547.00	4936.19
547.17	4575.75
547.34	4608.51
547.50	4889.38
547.67	5020.45
547.84	4739.58
548.00	5233.44
548.17	4877.68
548.34	4926.83
548.51	5355.15
548.67	5310.68
548.84	5046.20
549.01	4987.68
549.18	5076.62
549.34	5135.14
549.51	5032.15
549.68	5160.88
549.84	5118.75
550.01	4891.72
550.18	6616.69
550.34	5834.96
550.51	5083.64
550.68	5500.26
550.84	4945.55
551.01	4877.68
551.18	5041.51
551.34	5029.81
551.51	5128.11
551.68	5048.54
551.84	5348.12
552.01	4975.98
552.18	4954.91
552.34	4779.37
552.51	4760.65
552.68	5011.09
552.84	4826.18
553.01	5179.61
553.18	5252.16
553.34	5013.43
553.51	4814.48
553.67	5151.52
553.84	5701.54
554.01	5390.25
554.17	5207.69
554.34	4973.64
554.51	5156.20
554.67	5366.85
554.84	5383.23
555.00	5135.14
555.17	5205.35
555.33	5303.65
555.50	5252.16
555.67	5158.54
555.83	4826.18
556.00	5018.11
556.16	6970.12
556.33	4954.91
556.50	4905.76
556.66	4812.14
556.83	4692.77
556.99	4718.52
557.16	4844.91
557.32	4793.42
557.49	4929.17
557.65	4809.80
557.82	4826.18
557.98	4898.74
558.15	4676.39
558.32	4716.18
558.48	4526.60
558.65	4599.15
558.81	4891.72
558.98	4615.54
559.14	5076.62
559.31	4657.67
559.47	4992.36
559.64	4809.80
559.80	5078.96
559.97	4648.30
560.13	4814.48
560.30	4620.22
560.46	4915.12
560.63	4919.81
560.79	4947.89
560.96	4767.67
561.12	4720.86
561.29	4952.57
561.45	4702.14
561.61	4896.40
561.78	5956.66
561.94	4692.77
562.11	4800.44
562.27	5048.54
562.44	4720.86
562.60	4887.04
562.77	4861.29
562.93	5743.67
563.10	4945.55
563.26	4760.65
563.42	5167.90
563.59	4952.57
563.75	4568.73
563.92	5322.38
564.08	4950.23
564.24	5116.41
564.41	5518.98
564.57	4716.18
564.74	4739.58
564.90	4802.78
565.07	5228.76
565.23	5008.75
565.39	4777.03
565.56	4936.19
565.72	4547.66
565.88	4678.73
566.05	4863.63
566.21	4975.98
566.38	4940.87
566.54	4877.68
566.70	4863.63
566.87	4819.16
567.03	4447.02
567.19	4915.12
567.36	5039.17
567.52	4744.27
567.68	5132.79
567.85	4910.44
568.01	4552.34
568.17	4496.17
568.34	4699.80
568.50	4997.04
568.66	4582.77
568.83	5556.43
568.99	4812.14
569.15	4898.74
569.32	4664.69
569.48	4624.90
569.64	4617.88
569.81	4662.35
569.97	4402.55
570.13	4903.42
570.30	4571.07
570.46	4475.10
570.62	4423.61
570.78	4395.53
570.95	4388.50
571.11	5111.73
571.27	5245.14
571.43	4704.48
571.60	4961.94
571.76	4734.90
571.92	4720.86
572.09	4851.93
572.25	4887.04
572.41	4741.93
572.57	4762.99
572.74	5305.99
572.90	5128.11
573.06	4924.49
573.22	4856.61
573.38	5174.92
573.55	5177.26
573.71	5114.07
573.87	5041.51
574.03	4645.96
574.20	4865.97
574.36	5013.43
574.52	4915.12
574.68	4737.24
574.84	4828.53
575.01	4486.81
575.17	4901.08
575.33	4706.82
575.49	4957.25
575.65	5177.26
575.82	4915.12
575.98	5444.09
576.14	4873.00
576.30	4692.77
576.46	4676.39
576.62	4964.28
576.79	4887.04
576.95	5132.79
577.11	4699.80
577.27	4531.28
577.43	5055.56
577.59	4929.17
577.75	4727.88
577.92	4470.42
578.08	4430.63
578.24	4491.49
578.40	4959.60
578.56	4980.66
578.72	5081.30
578.88	4901.08
579.04	4652.98
579.21	4938.53
579.37	4634.26
579.53	4566.39
579.69	5097.69
579.85	4468.08
580.01	4849.59
580.17	4641.28
580.33	4582.77
580.49	4772.35
580.65	4950.23
580.82	4723.20
580.98	4709.16
581.14	4606.17
581.30	5071.94
581.46	4880.02
581.62	5081.30
581.78	4678.73
581.94	4980.66
582.10	4519.57
582.26	4596.81
582.42	4545.32
582.58	4858.95
582.74	4774.69
582.90	4791.08
583.06	4917.47
583.22	4887.04
583.38	4578.09
583.54	4692.77
583.70	5186.63
583.86	4894.06
584.02	4711.50
584.18	5130.45
584.34	4727.88
584.50	4671.71
584.66	4676.39
584.82	4573.41
584.98	4823.84
585.14	4774.69
585.30	4933.85
585.46	4718.52
585.62	4449.36
585.78	4662.35
585.94	4819.16
586.10	4795.76
586.26	4737.24
586.42	5179.61
586.58	4851.93
586.74	4741.93
586.90	4746.61
587.06	4873.00
587.22	4636.60
587.38	4617.88
587.54	4608.51
587.70	4905.76
587.86	4840.23
588.02	4561.70
588.18	4465.74
588.34	4521.92
588.49	3843.16
588.65	4018.70
588.81	3831.46
588.97	3843.16
589.13	3971.89
589.29	3932.10
589.45	4603.83
589.61	4299.56
589.77	4699.80
589.93	4341.69
590.08	4418.93
590.24	4519.57
590.40	4524.26
590.56	4861.29
590.72	4528.94
590.88	4152.11
591.04	4627.24
591.20	4482.13
591.35	5013.43
591.51	4458.72
591.67	4184.88
591.83	4304.25
591.99	4561.70
592.15	4835.55
592.31	4676.39
592.46	4308.93
592.62	4730.22
592.78	4402.55
592.94	4294.88
593.10	4526.60
593.26	4290.20
593.41	4734.90
593.57	4550.00
593.73	4411.91
593.89	4692.77
594.05	4395.53
594.20	4198.92
594.36	4805.12
594.52	4294.88
594.68	4414.25
594.84	4667.03
594.99	4990.02
595.15	4713.84
595.31	4713.84
595.47	5074.28
595.62	4503.19
595.78	4428.29
595.94	4589.79
596.10	4741.93
596.25	4657.67
596.41	4702.14
596.57	4395.53
596.73	4203.60
596.88	4528.94
597.04	4507.87
597.20	4351.06
597.36	4353.40
597.51	4411.91
597.67	4407.23
597.83	4414.25
597.99	4699.80
598.14	4489.15
598.30	4685.75
598.46	4369.78
