SpectraSuite Data File
++++++++++++++++++++++++++++++++++++
Date: Mon Oct 07 14:59:58 GMT-05:00 2013
User: price-jones
Dark Spectrum Present: No
Reference Spectrum Present: No
Number of Sampled Component Spectra: 1
Spectrometers: USB2+H05261
Integration Time (usec): 100000 (USB2+H05261)
Spectra Averaged: 1 (USB2+H05261)
Boxcar Smoothing: 0 (USB2+H05261)
Correct for Electrical Dark: No (USB2+H05261)
Strobe/Lamp Enabled: No (USB2+H05261)
Correct for Detector Non-linearity: No (USB2+H05261)
Correct for Stray Light: No (USB2+H05261)
Number of Pixels in Processed Spectrum: 2048
>>>>>Begin Processed Spectral Data<<<<<
365.73	0.00
365.92	0.00
366.12	0.00
366.32	0.00
366.52	0.00
366.72	0.00
366.91	0.00
367.11	0.00
367.31	0.00
367.51	0.00
367.70	0.00
367.90	0.00
368.10	0.00
368.30	0.00
368.49	0.00
368.69	0.00
368.89	0.00
369.09	0.00
369.28	0.00
369.48	0.00
369.68	0.00
369.87	0.00
370.07	0.00
370.27	0.00
370.47	0.00
370.66	0.00
370.86	0.00
371.06	0.00
371.25	0.00
371.45	0.00
371.65	0.00
371.84	0.00
372.04	0.00
372.24	0.00
372.44	0.00
372.63	0.00
372.83	0.00
373.03	0.00
373.22	0.00
373.42	0.00
373.62	0.00
373.81	0.00
374.01	0.00
374.21	0.00
374.40	0.00
374.60	0.00
374.79	0.00
374.99	0.00
375.19	0.00
375.38	0.00
375.58	0.00
375.78	0.00
375.97	0.00
376.17	0.00
376.37	0.00
376.56	0.00
376.76	0.00
376.95	0.00
377.15	0.00
377.35	0.00
377.54	0.00
377.74	0.00
377.93	0.00
378.13	0.00
378.33	0.00
378.52	0.00
378.72	0.00
378.91	0.00
379.11	0.00
379.31	0.00
379.50	0.00
379.70	0.00
379.89	0.00
380.09	0.00
380.28	0.00
380.48	0.00
380.68	0.00
380.87	0.00
381.07	0.00
381.26	0.00
381.46	0.00
381.65	0.00
381.85	0.00
382.04	0.00
382.24	0.00
382.43	0.00
382.63	0.00
382.83	0.00
383.02	0.00
383.22	0.00
383.41	0.00
383.61	0.00
383.80	0.00
384.00	0.00
384.19	0.00
384.39	0.00
384.58	0.00
384.78	0.00
384.97	0.00
385.17	0.00
385.36	0.00
385.56	0.00
385.75	0.00
385.95	0.00
386.14	0.00
386.34	0.00
386.53	0.00
386.72	0.00
386.92	0.00
387.11	0.00
387.31	0.00
387.50	0.00
387.70	0.00
387.89	0.00
388.09	0.00
388.28	0.00
388.48	0.00
388.67	0.00
388.86	0.00
389.06	0.00
389.25	0.00
389.45	0.00
389.64	0.00
389.84	0.00
390.03	0.00
390.22	0.00
390.42	0.00
390.61	0.00
390.81	0.00
391.00	0.00
391.19	0.00
391.39	0.00
391.58	0.00
391.78	0.00
391.97	0.00
392.16	0.00
392.36	0.00
392.55	0.00
392.75	0.00
392.94	0.00
393.13	0.00
393.33	0.00
393.52	0.00
393.71	0.00
393.91	0.00
394.10	0.00
394.29	0.00
394.49	0.00
394.68	0.00
394.88	0.00
395.07	0.00
395.26	0.00
395.46	0.00
395.65	0.00
395.84	0.00
396.04	0.00
396.23	0.00
396.42	0.00
396.62	0.00
396.81	0.00
397.00	0.00
397.19	0.00
397.39	0.00
397.58	0.00
397.77	0.00
397.97	0.00
398.16	0.00
398.35	0.00
398.55	0.00
398.74	0.00
398.93	0.00
399.12	0.00
399.32	0.00
399.51	0.00
399.70	0.00
399.90	0.00
400.09	0.00
400.28	0.00
400.47	0.00
400.67	0.00
400.86	0.00
401.05	0.00
401.24	0.00
401.44	0.00
401.63	0.00
401.82	0.00
402.01	0.00
402.21	0.00
402.40	0.00
402.59	0.00
402.78	0.00
402.97	0.00
403.17	0.00
403.36	0.00
403.55	0.00
403.74	0.00
403.93	0.00
404.13	0.00
404.32	0.00
404.51	0.00
404.70	0.00
404.89	0.00
405.09	0.00
405.28	0.00
405.47	0.00
405.66	0.00
405.85	0.00
406.05	0.00
406.24	0.00
406.43	0.00
406.62	0.00
406.81	0.00
407.00	0.00
407.20	0.00
407.39	0.00
407.58	0.00
407.77	0.00
407.96	0.00
408.15	0.00
408.34	0.00
408.54	0.00
408.73	0.00
408.92	0.00
409.11	0.00
409.30	0.00
409.49	0.00
409.68	0.00
409.87	0.00
410.07	0.00
410.26	0.00
410.45	0.00
410.64	0.00
410.83	0.00
411.02	0.00
411.21	0.00
411.40	0.00
411.59	0.00
411.78	0.00
411.98	0.00
412.17	0.00
412.36	0.00
412.55	0.00
412.74	0.00
412.93	0.00
413.12	0.00
413.31	0.00
413.50	0.00
413.69	0.00
413.88	0.00
414.07	0.00
414.26	0.00
414.45	0.00
414.64	0.00
414.83	0.00
415.02	0.00
415.22	0.00
415.41	0.00
415.60	0.00
415.79	0.00
415.98	0.00
416.17	0.00
416.36	0.00
416.55	0.00
416.74	0.00
416.93	0.00
417.12	0.00
417.31	0.00
417.50	0.00
417.69	0.00
417.88	0.00
418.07	0.00
418.26	0.00
418.45	0.00
418.64	0.00
418.83	0.00
419.02	0.00
419.21	0.00
419.39	0.00
419.58	0.00
419.77	0.00
419.96	0.00
420.15	0.00
420.34	0.00
420.53	0.00
420.72	0.00
420.91	0.00
421.10	0.00
421.29	0.00
421.48	0.00
421.67	0.00
421.86	0.00
422.05	0.00
422.24	0.00
422.43	0.00
422.61	0.00
422.80	0.00
422.99	0.00
423.18	0.00
423.37	0.00
423.56	0.00
423.75	0.00
423.94	0.00
424.13	0.00
424.32	0.00
424.50	0.00
424.69	0.00
424.88	0.00
425.07	0.00
425.26	0.00
425.45	0.00
425.64	0.00
425.83	0.00
426.01	0.00
426.20	0.00
426.39	0.00
426.58	0.00
426.77	0.00
426.96	0.00
427.15	0.00
427.33	0.00
427.52	0.00
427.71	0.00
427.90	0.00
428.09	0.00
428.28	0.00
428.46	0.00
428.65	0.00
428.84	0.00
429.03	0.00
429.22	0.00
429.40	0.00
429.59	0.00
429.78	0.00
429.97	0.00
430.16	0.00
430.34	0.00
430.53	0.00
430.72	0.00
430.91	0.00
431.10	0.00
431.28	0.00
431.47	0.00
431.66	0.00
431.85	0.00
432.03	0.00
432.22	0.00
432.41	0.00
432.60	0.00
432.79	0.00
432.97	0.00
433.16	0.00
433.35	0.00
433.54	0.00
433.72	0.00
433.91	0.00
434.10	0.00
434.28	0.00
434.47	0.00
434.66	0.00
434.85	0.00
435.03	0.00
435.22	0.00
435.41	0.00
435.59	0.00
435.78	0.00
435.97	0.00
436.16	0.00
436.34	0.00
436.53	0.00
436.72	0.00
436.90	0.00
437.09	0.00
437.28	0.00
437.46	0.00
437.65	0.00
437.84	0.00
438.02	0.00
438.21	0.00
438.40	0.00
438.58	0.00
438.77	0.00
438.96	0.00
439.14	0.00
439.33	0.00
439.52	0.00
439.70	0.00
439.89	0.00
440.08	0.00
440.26	0.00
440.45	0.00
440.63	0.00
440.82	0.00
441.01	0.00
441.19	0.00
441.38	0.00
441.57	0.00
441.75	0.00
441.94	0.00
442.12	0.00
442.31	0.00
442.50	0.00
442.68	0.00
442.87	0.00
443.05	0.00
443.24	0.00
443.43	0.00
443.61	0.00
443.80	0.00
443.98	0.00
444.17	0.00
444.35	0.00
444.54	0.00
444.73	0.00
444.91	0.00
445.10	0.00
445.28	0.00
445.47	0.00
445.65	0.00
445.84	0.00
446.02	0.00
446.21	0.00
446.39	0.00
446.58	0.00
446.77	0.00
446.95	0.00
447.14	0.00
447.32	0.00
447.51	0.00
447.69	4.68
447.88	0.00
448.06	0.00
448.25	0.00
448.43	0.00
448.62	0.00
448.80	0.00
448.99	0.00
449.17	0.00
449.36	0.00
449.54	0.00
449.73	0.00
449.91	0.00
450.10	0.00
450.28	65.54
450.46	11.70
450.65	0.00
450.83	30.43
451.02	11.70
451.20	67.88
451.39	0.00
451.57	0.00
451.76	0.00
451.94	25.75
452.13	0.00
452.31	0.00
452.49	0.00
452.68	0.00
452.86	0.00
453.05	0.00
453.23	0.00
453.42	0.00
453.60	0.00
453.78	0.00
453.97	0.00
454.15	0.00
454.34	0.00
454.52	0.00
454.70	0.00
454.89	0.00
455.07	0.00
455.26	9.36
455.44	0.00
455.62	0.00
455.81	28.09
455.99	0.00
456.17	0.00
456.36	0.00
456.54	0.00
456.73	0.00
456.91	0.00
457.09	0.00
457.28	0.00
457.46	0.00
457.64	0.00
457.83	0.00
458.01	0.00
458.19	0.00
458.38	0.00
458.56	0.00
458.74	0.00
458.93	0.00
459.11	0.00
459.29	0.00
459.48	0.00
459.66	0.00
459.84	30.43
460.03	79.58
460.21	0.00
460.39	0.00
460.57	0.00
460.76	0.00
460.94	0.00
461.12	18.72
461.31	11.70
461.49	2.34
461.67	0.00
461.85	42.13
462.04	0.00
462.22	615.56
462.40	18.72
462.59	46.81
462.77	0.00
462.95	0.00
463.13	0.00
463.32	0.00
463.50	0.00
463.68	35.11
463.86	0.00
464.05	0.00
464.23	0.00
464.41	0.00
464.59	11.70
464.78	0.00
464.96	0.00
465.14	0.00
465.32	0.00
465.50	32.77
465.69	0.00
465.87	0.00
466.05	0.00
466.23	37.45
466.41	0.00
466.60	0.00
466.78	0.00
466.96	0.00
467.14	0.00
467.32	32.77
467.51	79.58
467.69	0.00
467.87	0.00
468.05	11.70
468.23	0.00
468.41	0.00
468.60	0.00
468.78	0.00
468.96	16.38
469.14	0.00
469.32	0.00
469.50	0.00
469.69	16.38
469.87	0.00
470.05	0.00
470.23	0.00
470.41	0.00
470.59	0.00
470.77	0.00
470.95	0.00
471.14	0.00
471.32	25.75
471.50	0.00
471.68	25.75
471.86	42.13
472.04	0.00
472.22	9.36
472.40	0.00
472.58	0.00
472.77	0.00
472.95	11.70
473.13	58.51
473.31	0.00
473.49	0.00
473.67	0.00
473.85	72.56
474.03	0.00
474.21	7.02
474.39	39.79
474.57	32.77
474.75	0.00
474.93	0.00
475.12	0.00
475.30	0.00
475.48	0.00
475.66	28.09
475.84	0.00
476.02	7.02
476.20	0.00
476.38	30.43
476.56	60.85
476.74	0.00
476.92	0.00
477.10	37.45
477.28	16.38
477.46	42.13
477.64	0.00
477.82	63.19
478.00	39.79
478.18	58.51
478.36	0.00
478.54	37.45
478.72	4.68
478.90	28.09
479.08	30.43
479.26	86.60
479.44	35.11
479.62	0.00
479.80	18.72
479.98	11.70
480.16	0.00
480.34	126.39
480.52	4.68
480.70	0.00
480.88	0.00
481.06	65.54
481.24	49.15
481.41	49.15
481.59	51.49
481.77	2.34
481.95	126.39
482.13	105.32
482.31	0.00
482.49	0.00
482.67	88.94
482.85	63.19
483.03	112.35
483.21	4.68
483.39	9.36
483.57	23.41
483.74	117.03
483.92	0.00
484.10	0.00
484.28	28.09
484.46	222.35
484.64	51.49
484.82	74.90
485.00	28.09
485.18	100.64
485.35	46.81
485.53	18.72
485.71	32.77
485.89	46.81
486.07	37.45
486.25	70.22
486.43	86.60
486.61	11.70
486.78	58.51
486.96	79.58
487.14	81.92
487.32	86.60
487.50	161.50
487.68	149.79
487.85	93.62
488.03	131.07
488.21	81.92
488.39	95.96
488.57	124.05
488.75	53.83
488.92	411.93
489.10	140.43
489.28	147.45
489.46	119.37
489.64	140.43
489.81	147.45
489.99	119.37
490.17	49.15
490.35	126.39
490.53	119.37
490.70	72.56
490.88	102.98
491.06	175.54
491.24	147.45
491.41	220.01
491.59	93.62
491.77	114.69
491.95	152.13
492.13	91.28
492.30	117.03
492.48	93.62
492.66	166.18
492.84	119.37
493.01	126.39
493.19	110.01
493.37	245.76
493.54	107.66
493.72	163.84
493.90	145.11
494.08	203.63
494.25	236.39
494.43	264.48
494.61	184.90
494.79	110.01
494.96	227.03
495.14	138.09
495.32	131.07
495.49	124.05
495.67	168.52
495.85	154.48
496.02	248.10
496.20	259.80
496.38	215.33
496.55	173.20
496.73	255.12
496.91	212.99
497.09	215.33
497.26	133.41
497.44	161.50
497.62	208.31
497.79	140.43
497.97	93.62
498.14	201.29
498.32	248.10
498.50	210.65
498.67	182.56
498.85	173.20
499.03	201.29
499.20	217.67
499.38	276.18
499.56	292.57
499.73	210.65
499.91	182.56
500.08	187.24
500.26	119.37
500.44	220.01
500.61	175.54
500.79	124.05
500.97	184.90
501.14	266.82
501.32	191.92
501.49	227.03
501.67	152.13
501.84	273.84
502.02	182.56
502.20	290.23
502.37	182.56
502.55	227.03
502.72	215.33
502.90	318.31
503.07	196.60
503.25	126.39
503.43	187.24
503.60	238.73
503.78	175.54
503.95	245.76
504.13	145.11
504.30	187.24
504.48	327.68
504.65	332.36
504.83	210.65
505.01	287.89
505.18	220.01
505.36	255.12
505.53	201.29
505.71	131.07
505.88	208.31
506.06	168.52
506.23	203.63
506.41	269.16
506.58	259.80
506.76	325.33
506.93	128.73
507.11	236.39
507.28	318.31
507.46	229.37
507.63	194.26
507.81	156.82
507.98	182.56
508.16	241.08
508.33	229.37
508.50	311.29
508.68	170.86
508.85	257.46
509.03	203.63
509.20	229.37
509.38	339.38
509.55	292.57
509.73	276.18
509.90	315.97
510.08	266.82
510.25	229.37
510.42	229.37
510.60	217.67
510.77	297.25
510.95	322.99
511.12	227.03
511.30	290.23
511.47	283.20
511.64	332.36
511.82	243.42
511.99	255.12
512.17	194.26
512.34	194.26
512.51	215.33
512.69	259.80
512.86	208.31
513.04	145.11
513.21	294.91
513.38	304.27
513.56	205.97
513.73	205.97
513.90	196.60
514.08	250.44
514.25	304.27
514.43	250.44
514.60	238.73
514.77	245.76
514.95	280.86
515.12	227.03
515.29	339.38
515.47	322.99
515.64	227.03
515.81	252.78
515.99	294.91
516.16	292.57
516.33	283.20
516.51	133.41
516.68	140.43
516.85	166.18
517.03	236.39
517.20	184.90
517.37	238.73
517.54	269.16
517.72	266.82
517.89	175.54
518.06	198.95
518.24	280.86
518.41	304.27
518.58	191.92
518.75	182.56
518.93	271.50
519.10	257.46
519.27	222.35
519.45	297.25
519.62	231.71
519.79	248.10
519.96	215.33
520.14	306.61
520.31	266.82
520.48	308.95
520.65	271.50
520.83	320.65
521.00	311.29
521.17	241.08
521.34	266.82
521.52	280.86
521.69	313.63
521.86	306.61
522.03	304.27
522.20	318.31
522.38	266.82
522.55	257.46
522.72	304.27
522.89	271.50
523.07	358.10
523.24	243.42
523.41	332.36
523.58	278.52
523.75	320.65
523.92	306.61
524.10	320.65
524.27	362.78
524.44	292.57
524.61	278.52
524.78	294.91
524.96	304.27
525.13	287.89
525.30	297.25
525.47	397.89
525.64	337.04
525.81	299.59
525.98	271.50
526.16	241.08
526.33	201.29
526.50	241.08
526.67	238.73
526.84	210.65
527.01	257.46
527.18	290.23
527.36	257.46
527.53	255.12
527.70	367.46
527.87	234.05
528.04	285.55
528.21	301.93
528.38	344.06
528.55	416.62
528.72	339.38
528.89	390.87
529.07	269.16
529.24	301.93
529.41	358.10
529.58	283.20
529.75	287.89
529.92	402.57
530.09	390.87
530.26	365.12
530.43	407.25
530.60	351.08
530.77	327.68
530.94	393.21
531.11	313.63
531.28	339.38
531.46	304.27
531.63	407.25
531.80	313.63
531.97	306.61
532.14	234.05
532.31	292.57
532.48	245.76
532.65	346.40
532.82	287.89
532.99	276.18
533.16	266.82
533.33	372.15
533.50	355.76
533.67	322.99
533.84	330.02
534.01	308.95
534.18	372.15
534.35	306.61
534.52	381.51
534.69	388.53
534.86	344.06
535.03	287.89
535.20	315.97
535.37	440.02
535.54	311.29
535.71	355.76
535.88	348.74
536.05	259.80
536.22	337.04
536.38	287.89
536.55	278.52
536.72	376.83
536.89	299.59
537.06	318.31
537.23	325.33
537.40	346.40
537.57	248.10
537.74	341.72
537.91	381.51
538.08	334.70
538.25	334.70
538.42	346.40
538.59	346.40
538.75	252.78
538.92	325.33
539.09	360.44
539.26	287.89
539.43	355.76
539.60	362.78
539.77	355.76
539.94	337.04
540.11	388.53
540.28	299.59
540.44	278.52
540.61	372.15
540.78	262.14
540.95	252.78
541.12	367.46
541.29	252.78
541.46	301.93
541.62	325.33
541.79	365.12
541.96	269.16
542.13	262.14
542.30	285.55
542.47	311.29
542.63	376.83
542.80	313.63
542.97	393.21
543.14	322.99
543.31	327.68
543.48	285.55
543.64	372.15
543.81	372.15
543.98	322.99
544.15	280.86
544.32	327.68
544.48	348.74
544.65	318.31
544.82	339.38
544.99	351.08
545.16	369.80
545.32	353.42
545.49	367.46
545.66	355.76
545.83	346.40
546.00	308.95
546.16	346.40
546.33	365.12
546.50	327.68
546.67	390.87
546.83	341.72
547.00	402.57
547.17	308.95
547.34	238.73
547.50	411.93
547.67	266.82
547.84	318.31
548.00	393.21
548.17	327.68
548.34	344.06
548.51	425.98
548.67	346.40
548.84	299.59
549.01	259.80
549.18	341.72
549.34	337.04
549.51	421.30
549.68	383.85
549.84	400.23
550.01	351.08
550.18	564.07
550.34	397.89
550.51	341.72
550.68	367.46
550.84	367.46
551.01	360.44
551.18	360.44
551.34	341.72
551.51	409.59
551.68	372.15
551.84	390.87
552.01	287.89
552.18	297.25
552.34	304.27
552.51	362.78
552.68	369.80
552.84	280.86
553.01	313.63
553.18	383.85
553.34	367.46
553.51	330.02
553.67	388.53
553.84	372.15
554.01	301.93
554.17	325.33
554.34	367.46
554.51	348.74
554.67	379.17
554.84	388.53
555.00	360.44
555.17	337.04
555.33	386.19
555.50	362.78
555.67	327.68
555.83	264.48
556.00	306.61
556.16	603.86
556.33	337.04
556.50	330.02
556.66	367.46
556.83	367.46
556.99	334.70
557.16	353.42
557.32	262.14
557.49	271.50
557.65	294.91
557.82	416.62
557.98	306.61
558.15	245.76
558.32	306.61
558.48	287.89
558.65	292.57
558.81	325.33
558.98	372.15
559.14	425.98
559.31	273.84
559.47	311.29
559.64	322.99
559.80	304.27
559.97	285.55
560.13	280.86
560.30	297.25
560.46	381.51
560.63	372.15
560.79	280.86
560.96	351.08
561.12	301.93
561.29	355.76
561.45	243.42
561.61	283.20
561.78	435.34
561.94	308.95
562.11	313.63
562.27	430.66
562.44	308.95
562.60	346.40
562.77	334.70
562.93	369.80
563.10	353.42
563.26	376.83
563.42	327.68
563.59	365.12
563.75	308.95
563.92	411.93
564.08	332.36
564.24	344.06
564.41	442.36
564.57	348.74
564.74	374.49
564.90	374.49
565.07	404.91
565.23	341.72
565.39	313.63
565.56	369.80
565.72	411.93
565.88	308.95
566.05	318.31
566.21	290.23
566.38	276.18
566.54	381.51
566.70	306.61
566.87	360.44
567.03	287.89
567.19	308.95
567.36	332.36
567.52	325.33
567.68	355.76
567.85	315.97
568.01	255.12
568.17	278.52
568.34	264.48
568.50	301.93
568.66	264.48
568.83	374.49
568.99	304.27
569.15	306.61
569.32	299.59
569.48	264.48
569.64	337.04
569.81	367.46
569.97	290.23
570.13	231.71
570.30	212.99
570.46	322.99
570.62	344.06
570.78	313.63
570.95	234.05
571.11	285.55
571.27	358.10
571.43	217.67
571.60	325.33
571.76	318.31
571.92	383.85
572.09	341.72
572.25	290.23
572.41	294.91
572.57	341.72
572.74	365.12
572.90	362.78
573.06	337.04
573.22	294.91
573.38	355.76
573.55	367.46
573.71	414.27
573.87	339.38
574.03	266.82
574.20	217.67
574.36	353.42
574.52	355.76
574.68	224.69
574.84	297.25
575.01	327.68
575.17	332.36
575.33	257.46
575.49	355.76
575.65	276.18
575.82	287.89
575.98	308.95
576.14	276.18
576.30	330.02
576.46	390.87
576.62	337.04
576.79	320.65
576.95	311.29
577.11	306.61
577.27	241.08
577.43	407.25
577.59	294.91
577.75	320.65
577.92	285.55
578.08	339.38
578.24	234.05
578.40	395.55
578.56	339.38
578.72	353.42
578.88	327.68
579.04	337.04
579.21	299.59
579.37	337.04
579.53	376.83
579.69	337.04
579.85	264.48
580.01	346.40
580.17	346.40
580.33	308.95
580.49	369.80
580.65	365.12
580.82	325.33
580.98	348.74
581.14	313.63
581.30	337.04
581.46	381.51
581.62	332.36
581.78	308.95
581.94	358.10
582.10	250.44
582.26	379.17
582.42	393.21
582.58	376.83
582.74	367.46
582.90	315.97
583.06	437.68
583.22	325.33
583.38	330.02
583.54	241.08
583.70	313.63
583.86	322.99
584.02	250.44
584.18	372.15
584.34	301.93
584.50	334.70
584.66	271.50
584.82	374.49
584.98	278.52
585.14	313.63
585.30	290.23
585.46	287.89
585.62	346.40
585.78	248.10
585.94	365.12
586.10	290.23
586.26	339.38
586.42	334.70
586.58	339.38
586.74	327.68
586.90	348.74
587.06	337.04
587.22	376.83
587.38	196.60
587.54	222.35
587.70	330.02
587.86	362.78
588.02	346.40
588.18	238.73
588.34	292.57
588.49	173.20
588.65	290.23
588.81	229.37
588.97	264.48
589.13	182.56
589.29	257.46
589.45	322.99
589.61	334.70
589.77	203.63
589.93	262.14
590.08	264.48
590.24	294.91
590.40	276.18
590.56	278.52
590.72	222.35
590.88	278.52
591.04	259.80
591.20	182.56
591.35	297.25
591.51	313.63
591.67	266.82
591.83	255.12
591.99	297.25
592.15	339.38
592.31	271.50
592.46	306.61
592.62	264.48
592.78	306.61
592.94	292.57
593.10	308.95
593.26	273.84
593.41	311.29
593.57	250.44
593.73	301.93
593.89	306.61
594.05	276.18
594.20	259.80
594.36	280.86
594.52	217.67
594.68	238.73
594.84	313.63
594.99	290.23
595.15	360.44
595.31	379.17
595.47	379.17
595.62	273.84
595.78	163.84
595.94	344.06
596.10	294.91
596.25	369.80
596.41	306.61
596.57	210.65
596.73	234.05
596.88	159.16
597.04	196.60
597.20	248.10
597.36	315.97
597.51	248.10
597.67	322.99
597.83	231.71
597.99	257.46
598.14	365.12
598.30	287.89
598.46	243.42
598.61	264.48
598.77	355.76
598.93	217.67
599.09	255.12
599.24	301.93
599.40	353.42
599.56	250.44
599.71	212.99
599.87	285.55
600.03	299.59
600.18	306.61
600.34	306.61
600.50	337.04
600.65	205.97
600.81	353.42
600.97	177.88
601.12	224.69
601.28	304.27
601.44	255.12
601.59	276.18
601.75	245.76
601.91	243.42
602.06	250.44
602.22	454.06
602.37	250.44
602.53	306.61
602.69	348.74
602.84	308.95
603.00	227.03
603.16	334.70
603.31	344.06
603.47	322.99
603.62	252.78
603.78	322.99
603.94	294.91
604.09	224.69
604.25	278.52
604.40	292.57
604.56	355.76
604.71	346.40
604.87	294.91
605.03	273.84
605.18	320.65
605.34	294.91
605.49	255.12
605.65	313.63
605.80	248.10
605.96	250.44
606.12	369.80
606.27	315.97
606.43	259.80
606.58	245.76
606.74	259.80
606.89	283.20
607.05	332.36
607.20	252.78
607.36	308.95
607.51	220.01
607.67	241.08
607.82	304.27
607.98	271.50
608.13	330.02
608.29	292.57
608.44	250.44
608.60	222.35
608.75	245.76
608.91	304.27
609.06	290.23
609.22	273.84
609.37	257.46
609.53	294.91
609.68	273.84
609.84	224.69
609.99	191.92
610.15	217.67
610.30	236.39
610.46	262.14
610.61	248.10
610.76	196.60
610.92	187.24
611.07	191.92
611.23	306.61
611.38	264.48
611.54	156.82
611.69	227.03
611.84	234.05
612.00	191.92
612.15	203.63
612.31	208.31
612.46	238.73
612.62	234.05
612.77	301.93
612.92	297.25
613.08	311.29
613.23	273.84
613.39	194.26
613.54	198.95
613.69	168.52
613.85	189.58
614.00	245.76
614.15	290.23
614.31	224.69
614.46	297.25
614.62	301.93
614.77	301.93
614.92	152.13
615.08	231.71
615.23	257.46
615.38	229.37
615.54	201.29
615.69	149.79
615.84	191.92
616.00	236.39
616.15	175.54
616.30	133.41
616.46	163.84
616.61	222.35
616.76	229.37
616.92	250.44
617.07	220.01
617.22	198.95
617.37	212.99
617.53	184.90
617.68	205.97
617.83	266.82
617.99	231.71
618.14	297.25
618.29	318.31
618.45	198.95
618.60	236.39
618.75	210.65
618.90	175.54
619.06	184.90
619.21	222.35
619.36	280.86
619.51	159.16
619.67	166.18
619.82	168.52
619.97	189.58
620.12	227.03
620.28	177.88
620.43	142.77
620.58	227.03
620.73	208.31
620.89	182.56
621.04	266.82
621.19	175.54
621.34	168.52
621.49	245.76
621.65	250.44
621.80	156.82
621.95	184.90
622.10	234.05
622.25	170.86
622.41	124.05
622.56	269.16
622.71	245.76
622.86	201.29
623.01	138.09
623.16	344.06
623.32	227.03
623.47	227.03
