SpectraSuite Data File
++++++++++++++++++++++++++++++++++++
Date: Mon Oct 07 14:59:56 GMT-05:00 2013
User: price-jones
Dark Spectrum Present: No
Reference Spectrum Present: No
Number of Sampled Component Spectra: 1
Spectrometers: USB2+H05261
Integration Time (usec): 100000 (USB2+H05261)
Spectra Averaged: 1 (USB2+H05261)
Boxcar Smoothing: 0 (USB2+H05261)
Correct for Electrical Dark: No (USB2+H05261)
Strobe/Lamp Enabled: No (USB2+H05261)
Correct for Detector Non-linearity: No (USB2+H05261)
Correct for Stray Light: No (USB2+H05261)
Number of Pixels in Processed Spectrum: 2048
>>>>>Begin Processed Spectral Data<<<<<
365.73	0.00
365.92	0.00
366.12	0.00
366.32	0.00
366.52	0.00
366.72	0.00
366.91	0.00
367.11	0.00
367.31	0.00
367.51	0.00
367.70	0.00
367.90	0.00
368.10	0.00
368.30	0.00
368.49	0.00
368.69	0.00
368.89	0.00
369.09	0.00
369.28	0.00
369.48	0.00
369.68	0.00
369.87	0.00
370.07	0.00
370.27	0.00
370.47	0.00
370.66	0.00
370.86	0.00
371.06	0.00
371.25	0.00
371.45	0.00
371.65	0.00
371.84	0.00
372.04	0.00
372.24	0.00
372.44	0.00
372.63	0.00
372.83	0.00
373.03	0.00
373.22	0.00
373.42	0.00
373.62	0.00
373.81	0.00
374.01	0.00
374.21	0.00
374.40	0.00
374.60	0.00
374.79	0.00
374.99	0.00
375.19	0.00
375.38	0.00
375.58	0.00
375.78	0.00
375.97	0.00
376.17	0.00
376.37	0.00
376.56	0.00
376.76	0.00
376.95	0.00
377.15	0.00
377.35	0.00
377.54	0.00
377.74	0.00
377.93	0.00
378.13	0.00
378.33	0.00
378.52	0.00
378.72	0.00
378.91	0.00
379.11	0.00
379.31	0.00
379.50	0.00
379.70	0.00
379.89	0.00
380.09	0.00
380.28	0.00
380.48	0.00
380.68	0.00
380.87	0.00
381.07	0.00
381.26	0.00
381.46	0.00
381.65	0.00
381.85	0.00
382.04	0.00
382.24	0.00
382.43	0.00
382.63	0.00
382.83	0.00
383.02	0.00
383.22	0.00
383.41	0.00
383.61	0.00
383.80	0.00
384.00	0.00
384.19	0.00
384.39	0.00
384.58	0.00
384.78	0.00
384.97	0.00
385.17	0.00
385.36	0.00
385.56	0.00
385.75	0.00
385.95	0.00
386.14	0.00
386.34	0.00
386.53	0.00
386.72	0.00
386.92	0.00
387.11	0.00
387.31	0.00
387.50	0.00
387.70	0.00
387.89	0.00
388.09	0.00
388.28	0.00
388.48	0.00
388.67	0.00
388.86	0.00
389.06	0.00
389.25	0.00
389.45	0.00
389.64	0.00
389.84	0.00
390.03	0.00
390.22	0.00
390.42	0.00
390.61	0.00
390.81	0.00
391.00	0.00
391.19	0.00
391.39	0.00
391.58	0.00
391.78	0.00
391.97	0.00
392.16	0.00
392.36	0.00
392.55	0.00
392.75	0.00
392.94	0.00
393.13	0.00
393.33	0.00
393.52	0.00
393.71	0.00
393.91	0.00
394.10	0.00
394.29	0.00
394.49	0.00
394.68	0.00
394.88	0.00
395.07	0.00
395.26	0.00
395.46	0.00
395.65	0.00
395.84	0.00
396.04	0.00
396.23	0.00
396.42	0.00
396.62	0.00
396.81	0.00
397.00	0.00
397.19	0.00
397.39	0.00
397.58	0.00
397.77	0.00
397.97	0.00
398.16	0.00
398.35	0.00
398.55	0.00
398.74	0.00
398.93	0.00
399.12	0.00
399.32	0.00
399.51	0.00
399.70	0.00
399.90	0.00
400.09	0.00
400.28	0.00
400.47	0.00
400.67	0.00
400.86	0.00
401.05	0.00
401.24	0.00
401.44	0.00
401.63	0.00
401.82	0.00
402.01	0.00
402.21	0.00
402.40	0.00
402.59	0.00
402.78	0.00
402.97	0.00
403.17	0.00
403.36	0.00
403.55	0.00
403.74	0.00
403.93	0.00
404.13	0.00
404.32	0.00
404.51	0.00
404.70	0.00
404.89	0.00
405.09	0.00
405.28	0.00
405.47	0.00
405.66	0.00
405.85	0.00
406.05	0.00
406.24	0.00
406.43	0.00
406.62	0.00
406.81	0.00
407.00	0.00
407.20	0.00
407.39	0.00
407.58	0.00
407.77	0.00
407.96	0.00
408.15	0.00
408.34	0.00
408.54	0.00
408.73	0.00
408.92	0.00
409.11	0.00
409.30	0.00
409.49	0.00
409.68	0.00
409.87	0.00
410.07	0.00
410.26	0.00
410.45	0.00
410.64	0.00
410.83	0.00
411.02	0.00
411.21	0.00
411.40	0.00
411.59	0.00
411.78	0.00
411.98	0.00
412.17	0.00
412.36	0.00
412.55	0.00
412.74	0.00
412.93	0.00
413.12	0.00
413.31	0.00
413.50	0.00
413.69	0.00
413.88	0.00
414.07	0.00
414.26	0.00
414.45	0.00
414.64	0.00
414.83	0.00
415.02	0.00
415.22	0.00
415.41	0.00
415.60	0.00
415.79	0.00
415.98	0.00
416.17	0.00
416.36	0.00
416.55	0.00
416.74	0.00
416.93	0.00
417.12	0.00
417.31	0.00
417.50	0.00
417.69	0.00
417.88	0.00
418.07	0.00
418.26	0.00
418.45	0.00
418.64	0.00
418.83	0.00
419.02	0.00
419.21	0.00
419.39	0.00
419.58	0.00
419.77	0.00
419.96	0.00
420.15	0.00
420.34	0.00
420.53	0.00
420.72	0.00
420.91	0.00
421.10	0.00
421.29	0.00
421.48	0.00
421.67	0.00
421.86	0.00
422.05	0.00
422.24	0.00
422.43	0.00
422.61	0.00
422.80	0.00
422.99	0.00
423.18	0.00
423.37	0.00
423.56	0.00
423.75	0.00
423.94	0.00
424.13	0.00
424.32	0.00
424.50	0.00
424.69	0.00
424.88	0.00
425.07	0.00
425.26	0.00
425.45	0.00
425.64	0.00
425.83	0.00
426.01	0.00
426.20	0.00
426.39	0.00
426.58	0.00
426.77	0.00
426.96	0.00
427.15	0.00
427.33	0.00
427.52	0.00
427.71	0.00
427.90	0.00
428.09	0.00
428.28	0.00
428.46	0.00
428.65	0.00
428.84	0.00
429.03	0.00
429.22	0.00
429.40	0.00
429.59	0.00
429.78	0.00
429.97	0.00
430.16	0.00
430.34	0.00
430.53	0.00
430.72	0.00
430.91	0.00
431.10	0.00
431.28	0.00
431.47	0.00
431.66	0.00
431.85	0.00
432.03	0.00
432.22	0.00
432.41	0.00
432.60	0.00
432.79	0.00
432.97	0.00
433.16	0.00
433.35	0.00
433.54	0.00
433.72	0.00
433.91	0.00
434.10	0.00
434.28	0.00
434.47	0.00
434.66	0.00
434.85	0.00
435.03	0.00
435.22	0.00
435.41	0.00
435.59	0.00
435.78	0.00
435.97	0.00
436.16	0.00
436.34	0.00
436.53	0.00
436.72	0.00
436.90	46.81
437.09	0.00
437.28	0.00
437.46	0.00
437.65	0.00
437.84	0.00
438.02	0.00
438.21	0.00
438.40	0.00
438.58	0.00
438.77	0.00
438.96	0.00
439.14	0.00
439.33	0.00
439.52	0.00
439.70	0.00
439.89	0.00
440.08	0.00
440.26	0.00
440.45	0.00
440.63	0.00
440.82	0.00
441.01	0.00
441.19	0.00
441.38	0.00
441.57	0.00
441.75	0.00
441.94	0.00
442.12	0.00
442.31	0.00
442.50	0.00
442.68	0.00
442.87	0.00
443.05	0.00
443.24	0.00
443.43	0.00
443.61	0.00
443.80	0.00
443.98	0.00
444.17	0.00
444.35	0.00
444.54	0.00
444.73	0.00
444.91	0.00
445.10	0.00
445.28	0.00
445.47	0.00
445.65	0.00
445.84	0.00
446.02	0.00
446.21	0.00
446.39	0.00
446.58	0.00
446.77	0.00
446.95	0.00
447.14	0.00
447.32	2.34
447.51	0.00
447.69	0.00
447.88	0.00
448.06	0.00
448.25	0.00
448.43	0.00
448.62	0.00
448.80	0.00
448.99	0.00
449.17	0.00
449.36	0.00
449.54	0.00
449.73	0.00
449.91	0.00
450.10	0.00
450.28	0.00
450.46	23.41
450.65	0.00
450.83	0.00
451.02	0.00
451.20	0.00
451.39	0.00
451.57	0.00
451.76	0.00
451.94	0.00
452.13	0.00
452.31	0.00
452.49	0.00
452.68	0.00
452.86	0.00
453.05	16.38
453.23	0.00
453.42	0.00
453.60	0.00
453.78	16.38
453.97	0.00
454.15	0.00
454.34	0.00
454.52	0.00
454.70	0.00
454.89	0.00
455.07	0.00
455.26	0.00
455.44	0.00
455.62	0.00
455.81	0.00
455.99	0.00
456.17	0.00
456.36	0.00
456.54	0.00
456.73	0.00
456.91	0.00
457.09	0.00
457.28	0.00
457.46	4.68
457.64	0.00
457.83	0.00
458.01	14.04
458.19	0.00
458.38	0.00
458.56	0.00
458.74	0.00
458.93	0.00
459.11	0.00
459.29	0.00
459.48	2.34
459.66	51.49
459.84	0.00
460.03	74.90
460.21	0.00
460.39	11.70
460.57	72.56
460.76	0.00
460.94	0.00
461.12	0.00
461.31	0.00
461.49	0.00
461.67	0.00
461.85	39.79
462.04	0.00
462.22	559.39
462.40	65.54
462.59	0.00
462.77	0.00
462.95	0.00
463.13	0.00
463.32	28.09
463.50	0.00
463.68	0.00
463.86	4.68
464.05	0.00
464.23	0.00
464.41	14.04
464.59	9.36
464.78	7.02
464.96	0.00
465.14	21.06
465.32	14.04
465.50	49.15
465.69	46.81
465.87	0.00
466.05	107.66
466.23	0.00
466.41	0.00
466.60	0.00
466.78	0.00
466.96	30.43
467.14	0.00
467.32	25.75
467.51	0.00
467.69	0.00
467.87	25.75
468.05	56.17
468.23	65.54
468.41	18.72
468.60	32.77
468.78	0.00
468.96	0.00
469.14	0.00
469.32	0.00
469.50	16.38
469.69	4.68
469.87	0.00
470.05	65.54
470.23	0.00
470.41	0.00
470.59	0.00
470.77	0.00
470.95	0.00
471.14	72.56
471.32	0.00
471.50	23.41
471.68	0.00
471.86	0.00
472.04	4.68
472.22	0.00
472.40	0.00
472.58	0.00
472.77	0.00
472.95	0.00
473.13	23.41
473.31	56.17
473.49	23.41
473.67	0.00
473.85	0.00
474.03	42.13
474.21	0.00
474.39	16.38
474.57	4.68
474.75	42.13
474.93	0.00
475.12	0.00
475.30	0.00
475.48	0.00
475.66	0.00
475.84	0.00
476.02	25.75
476.20	65.54
476.38	0.00
476.56	205.97
476.74	81.92
476.92	67.88
477.10	37.45
477.28	79.58
477.46	63.19
477.64	7.02
477.82	42.13
478.00	35.11
478.18	0.00
478.36	60.85
478.54	21.06
478.72	0.00
478.90	30.43
479.08	67.88
479.26	63.19
479.44	42.13
479.62	14.04
479.80	0.00
479.98	58.51
480.16	67.88
480.34	46.81
480.52	2.34
480.70	65.54
480.88	0.00
481.06	0.00
481.24	0.00
481.41	11.70
481.59	128.73
481.77	51.49
481.95	74.90
482.13	93.62
482.31	25.75
482.49	0.00
482.67	140.43
482.85	23.41
483.03	107.66
483.21	18.72
483.39	65.54
483.57	117.03
483.74	88.94
483.92	110.01
484.10	51.49
484.28	124.05
484.46	191.92
484.64	88.94
484.82	30.43
485.00	51.49
485.18	56.17
485.35	16.38
485.53	84.26
485.71	88.94
485.89	9.36
486.07	37.45
486.25	63.19
486.43	65.54
486.61	23.41
486.78	110.01
486.96	42.13
487.14	86.60
487.32	117.03
487.50	0.00
487.68	37.45
487.85	56.17
488.03	70.22
488.21	121.71
488.39	93.62
488.57	212.99
488.75	44.47
488.92	433.00
489.10	105.32
489.28	217.67
489.46	140.43
489.64	159.16
489.81	119.37
489.99	231.71
490.17	166.18
490.35	271.50
490.53	145.11
490.70	114.69
490.88	114.69
491.06	220.01
491.24	175.54
491.41	147.45
491.59	154.48
491.77	124.05
491.95	74.90
492.13	140.43
492.30	138.09
492.48	187.24
492.66	175.54
492.84	128.73
493.01	177.88
493.19	135.75
493.37	198.95
493.54	208.31
493.72	175.54
493.90	152.13
494.08	135.75
494.25	166.18
494.43	187.24
494.61	161.50
494.79	198.95
494.96	152.13
495.14	154.48
495.32	203.63
495.49	259.80
495.67	102.98
495.85	173.20
496.02	142.77
496.20	236.39
496.38	236.39
496.55	182.56
496.73	215.33
496.91	245.76
497.09	236.39
497.26	220.01
497.44	208.31
497.62	205.97
497.79	215.33
497.97	161.50
498.14	245.76
498.32	241.08
498.50	196.60
498.67	222.35
498.85	156.82
499.03	212.99
499.20	180.22
499.38	238.73
499.56	220.01
499.73	229.37
499.91	187.24
500.08	187.24
500.26	269.16
500.44	285.55
500.61	210.65
500.79	128.73
500.97	210.65
501.14	205.97
501.32	234.05
501.49	250.44
501.67	259.80
501.84	147.45
502.02	156.82
502.20	252.78
502.37	344.06
502.55	138.09
502.72	231.71
502.90	224.69
503.07	224.69
503.25	278.52
503.43	191.92
503.60	145.11
503.78	198.95
503.95	194.26
504.13	304.27
504.30	215.33
504.48	271.50
504.65	276.18
504.83	259.80
505.01	262.14
505.18	276.18
505.36	308.95
505.53	229.37
505.71	234.05
505.88	241.08
506.06	159.16
506.23	308.95
506.41	234.05
506.58	271.50
506.76	287.89
506.93	208.31
507.11	259.80
507.28	224.69
507.46	182.56
507.63	245.76
507.81	210.65
507.98	201.29
508.16	278.52
508.33	224.69
508.50	217.67
508.68	299.59
508.85	203.63
509.03	273.84
509.20	248.10
509.38	208.31
509.55	257.46
509.73	217.67
509.90	346.40
510.08	220.01
510.25	250.44
510.42	227.03
510.60	203.63
510.77	262.14
510.95	259.80
511.12	220.01
511.30	168.52
511.47	236.39
511.64	397.89
511.82	299.59
511.99	252.78
512.17	304.27
512.34	175.54
512.51	217.67
512.69	276.18
512.86	315.97
513.04	250.44
513.21	259.80
513.38	201.29
513.56	313.63
513.73	208.31
513.90	208.31
514.08	189.58
514.25	294.91
514.43	191.92
514.60	332.36
514.77	278.52
514.95	294.91
515.12	250.44
515.29	306.61
515.47	339.38
515.64	245.76
515.81	285.55
515.99	257.46
516.16	285.55
516.33	243.42
516.51	168.52
516.68	131.07
516.85	241.08
517.03	208.31
517.20	215.33
517.37	241.08
517.54	220.01
517.72	248.10
517.89	280.86
518.06	177.88
518.24	222.35
518.41	306.61
518.58	227.03
518.75	264.48
518.93	369.80
519.10	299.59
519.27	238.73
519.45	304.27
519.62	229.37
519.79	348.74
519.96	234.05
520.14	245.76
520.31	306.61
520.48	320.65
520.65	344.06
520.83	299.59
521.00	327.68
521.17	344.06
521.34	306.61
521.52	358.10
521.69	266.82
521.86	299.59
522.03	294.91
522.20	304.27
522.38	257.46
522.55	344.06
522.72	320.65
522.89	283.20
523.07	325.33
523.24	231.71
523.41	301.93
523.58	294.91
523.75	245.76
523.92	294.91
524.10	280.86
524.27	322.99
524.44	294.91
524.61	320.65
524.78	386.19
524.96	311.29
525.13	327.68
525.30	334.70
525.47	418.96
525.64	294.91
525.81	262.14
525.98	400.23
526.16	266.82
526.33	290.23
526.50	224.69
526.67	222.35
526.84	320.65
527.01	271.50
527.18	332.36
527.36	280.86
527.53	243.42
527.70	315.97
527.87	318.31
528.04	402.57
528.21	231.71
528.38	374.49
528.55	337.04
528.72	400.23
528.89	386.19
529.07	341.72
529.24	325.33
529.41	351.08
529.58	229.37
529.75	334.70
529.92	386.19
530.09	346.40
530.26	353.42
530.43	332.36
530.60	311.29
530.77	339.38
530.94	341.72
531.11	395.55
531.28	318.31
531.46	304.27
531.63	372.15
531.80	365.12
531.97	287.89
532.14	418.96
532.31	313.63
532.48	374.49
532.65	257.46
532.82	245.76
532.99	215.33
533.16	339.38
533.33	322.99
533.50	315.97
533.67	299.59
533.84	341.72
534.01	351.08
534.18	252.78
534.35	376.83
534.52	315.97
534.69	414.27
534.86	372.15
535.03	320.65
535.20	348.74
535.37	383.85
535.54	367.46
535.71	266.82
535.88	407.25
536.05	327.68
536.22	320.65
536.38	245.76
536.55	304.27
536.72	362.78
536.89	337.04
537.06	393.21
537.23	388.53
537.40	301.93
537.57	224.69
537.74	365.12
537.91	353.42
538.08	353.42
538.25	297.25
538.42	271.50
538.59	294.91
538.75	327.68
538.92	234.05
539.09	304.27
539.26	407.25
539.43	339.38
539.60	397.89
539.77	400.23
539.94	346.40
540.11	369.80
540.28	334.70
540.44	325.33
540.61	362.78
540.78	325.33
540.95	360.44
541.12	367.46
541.29	299.59
541.46	339.38
541.62	301.93
541.79	360.44
541.96	332.36
542.13	278.52
542.30	365.12
542.47	346.40
542.63	315.97
542.80	346.40
542.97	428.32
543.14	351.08
543.31	259.80
543.48	365.12
543.64	383.85
543.81	351.08
543.98	348.74
544.15	332.36
544.32	294.91
544.48	393.21
544.65	348.74
544.82	339.38
544.99	374.49
545.16	404.91
545.32	318.31
545.49	358.10
545.66	379.17
545.83	212.99
546.00	266.82
546.16	362.78
546.33	362.78
546.50	339.38
546.67	430.66
546.83	320.65
547.00	339.38
547.17	290.23
547.34	278.52
547.50	280.86
547.67	341.72
547.84	348.74
548.00	367.46
548.17	449.38
548.34	283.20
548.51	365.12
548.67	451.72
548.84	388.53
549.01	311.29
549.18	372.15
549.34	322.99
549.51	414.27
549.68	386.19
549.84	374.49
550.01	353.42
550.18	550.03
550.34	454.06
550.51	351.08
550.68	414.27
550.84	311.29
551.01	325.33
551.18	334.70
551.34	311.29
551.51	311.29
551.68	334.70
551.84	334.70
552.01	330.02
552.18	320.65
552.34	341.72
552.51	337.04
552.68	421.30
552.84	346.40
553.01	325.33
553.18	444.70
553.34	395.55
553.51	353.42
553.67	287.89
553.84	346.40
554.01	358.10
554.17	299.59
554.34	418.96
554.51	365.12
554.67	388.53
554.84	341.72
555.00	292.57
555.17	358.10
555.33	325.33
555.50	376.83
555.67	376.83
555.83	351.08
556.00	292.57
556.16	547.69
556.33	313.63
556.50	337.04
556.66	388.53
556.83	372.15
556.99	337.04
557.16	374.49
557.32	334.70
557.49	332.36
557.65	308.95
557.82	351.08
557.98	311.29
558.15	379.17
558.32	306.61
558.48	334.70
558.65	285.55
558.81	383.85
558.98	273.84
559.14	379.17
559.31	327.68
559.47	397.89
559.64	414.27
559.80	287.89
559.97	325.33
560.13	451.72
560.30	301.93
560.46	301.93
560.63	362.78
560.79	337.04
560.96	414.27
561.12	332.36
561.29	475.13
561.45	325.33
561.61	322.99
561.78	416.62
561.94	372.15
562.11	297.25
562.27	327.68
562.44	376.83
562.60	355.76
562.77	379.17
562.93	543.00
563.10	388.53
563.26	332.36
563.42	355.76
563.59	330.02
563.75	360.44
563.92	454.06
564.08	390.87
564.24	311.29
564.41	463.43
564.57	304.27
564.74	294.91
564.90	334.70
565.07	327.68
565.23	311.29
565.39	292.57
565.56	381.51
565.72	252.78
565.88	320.65
566.05	259.80
566.21	306.61
566.38	414.27
566.54	339.38
566.70	402.57
566.87	330.02
567.03	330.02
567.19	334.70
567.36	344.06
567.52	313.63
567.68	351.08
567.85	334.70
568.01	311.29
568.17	234.05
568.34	330.02
568.50	369.80
568.66	248.10
568.83	482.15
568.99	320.65
569.15	327.68
569.32	313.63
569.48	325.33
569.64	229.37
569.81	301.93
569.97	297.25
570.13	341.72
570.30	379.17
570.46	231.71
570.62	276.18
570.78	346.40
570.95	252.78
571.11	313.63
571.27	383.85
571.43	449.38
571.60	337.04
571.76	245.76
571.92	299.59
572.09	313.63
572.25	390.87
572.41	334.70
572.57	332.36
572.74	372.15
572.90	290.23
573.06	362.78
573.22	358.10
573.38	290.23
573.55	393.21
573.71	334.70
573.87	348.74
574.03	285.55
574.20	276.18
574.36	369.80
574.52	332.36
574.68	252.78
574.84	358.10
575.01	334.70
575.17	339.38
575.33	243.42
575.49	311.29
575.65	313.63
575.82	369.80
575.98	372.15
576.14	372.15
576.30	250.44
576.46	355.76
576.62	306.61
576.79	294.91
576.95	388.53
577.11	276.18
577.27	280.86
577.43	372.15
577.59	348.74
577.75	306.61
577.92	346.40
578.08	287.89
578.24	227.03
578.40	287.89
578.56	259.80
578.72	325.33
578.88	393.21
579.04	294.91
579.21	313.63
579.37	332.36
579.53	332.36
579.69	360.44
579.85	341.72
580.01	337.04
580.17	273.84
580.33	341.72
580.49	344.06
580.65	294.91
580.82	318.31
580.98	332.36
581.14	353.42
581.30	257.46
581.46	287.89
581.62	337.04
581.78	362.78
581.94	285.55
582.10	311.29
582.26	301.93
582.42	339.38
582.58	264.48
582.74	308.95
582.90	341.72
583.06	386.19
583.22	425.98
583.38	330.02
583.54	283.20
583.70	367.46
583.86	360.44
584.02	304.27
584.18	276.18
584.34	327.68
584.50	266.82
584.66	383.85
584.82	327.68
584.98	294.91
585.14	341.72
585.30	252.78
585.46	306.61
585.62	318.31
585.78	301.93
585.94	322.99
586.10	283.20
586.26	313.63
586.42	297.25
586.58	320.65
586.74	325.33
586.90	297.25
587.06	262.14
587.22	266.82
587.38	276.18
587.54	287.89
587.70	383.85
587.86	273.84
588.02	379.17
588.18	322.99
588.34	332.36
588.49	257.46
588.65	163.84
588.81	180.22
588.97	205.97
589.13	187.24
589.29	229.37
589.45	238.73
589.61	215.33
589.77	315.97
589.93	259.80
590.08	208.31
590.24	334.70
590.40	280.86
590.56	283.20
590.72	355.76
590.88	292.57
591.04	280.86
591.20	311.29
591.35	311.29
591.51	297.25
591.67	308.95
591.83	245.76
591.99	269.16
592.15	358.10
592.31	245.76
592.46	299.59
592.62	248.10
592.78	292.57
592.94	257.46
593.10	205.97
593.26	292.57
593.41	351.08
593.57	320.65
593.73	255.12
593.89	306.61
594.05	372.15
594.20	278.52
594.36	299.59
594.52	360.44
594.68	318.31
594.84	308.95
594.99	315.97
595.15	290.23
595.31	351.08
595.47	367.46
595.62	381.51
595.78	360.44
595.94	278.52
596.10	299.59
596.25	327.68
596.41	250.44
596.57	287.89
596.73	180.22
596.88	313.63
597.04	318.31
597.20	227.03
597.36	393.21
597.51	297.25
597.67	283.20
597.83	241.08
597.99	301.93
598.14	395.55
598.30	393.21
598.46	374.49
598.61	290.23
598.77	294.91
598.93	280.86
599.09	339.38
599.24	325.33
599.40	306.61
599.56	266.82
599.71	212.99
599.87	308.95
600.03	266.82
600.18	327.68
600.34	292.57
600.50	278.52
600.65	278.52
600.81	332.36
600.97	227.03
601.12	271.50
601.28	313.63
601.44	304.27
601.59	276.18
601.75	252.78
601.91	222.35
602.06	227.03
602.22	330.02
602.37	315.97
602.53	222.35
602.69	285.55
602.84	234.05
603.00	348.74
603.16	360.44
603.31	325.33
603.47	351.08
603.62	236.39
603.78	271.50
603.94	210.65
604.09	283.20
604.25	313.63
604.40	287.89
604.56	278.52
604.71	248.10
604.87	299.59
605.03	238.73
605.18	318.31
605.34	311.29
605.49	304.27
605.65	257.46
605.80	201.29
605.96	283.20
606.12	332.36
606.27	320.65
606.43	322.99
606.58	334.70
606.74	278.52
606.89	325.33
607.05	283.20
607.20	250.44
607.36	252.78
607.51	301.93
607.67	245.76
607.82	227.03
607.98	339.38
608.13	287.89
608.29	208.31
608.44	229.37
608.60	201.29
608.75	299.59
608.91	287.89
609.06	341.72
609.22	252.78
609.37	273.84
609.53	285.55
609.68	210.65
609.84	266.82
609.99	234.05
610.15	229.37
610.30	304.27
610.46	234.05
610.61	273.84
610.76	217.67
610.92	283.20
611.07	341.72
611.23	376.83
611.38	201.29
611.54	280.86
611.69	264.48
611.84	236.39
612.00	266.82
612.15	140.43
612.31	215.33
612.46	264.48
612.62	180.22
612.77	292.57
612.92	264.48
613.08	290.23
613.23	287.89
613.39	173.20
613.54	170.86
613.69	147.45
613.85	215.33
614.00	294.91
614.15	227.03
614.31	297.25
614.46	224.69
614.62	222.35
614.77	276.18
614.92	220.01
615.08	271.50
615.23	273.84
615.38	238.73
615.54	201.29
615.69	201.29
615.84	285.55
616.00	203.63
616.15	313.63
616.30	212.99
616.46	182.56
616.61	149.79
616.76	252.78
616.92	248.10
617.07	191.92
617.22	339.38
617.37	297.25
617.53	308.95
617.68	198.95
617.83	243.42
617.99	365.12
618.14	250.44
618.29	224.69
618.45	250.44
618.60	264.48
618.75	250.44
618.90	241.08
619.06	205.97
619.21	315.97
619.36	182.56
619.51	234.05
619.67	198.95
619.82	191.92
619.97	222.35
620.12	262.14
620.28	266.82
620.43	238.73
620.58	234.05
620.73	220.01
620.89	177.88
621.04	175.54
621.19	304.27
621.34	189.58
621.49	224.69
621.65	215.33
621.80	166.18
621.95	229.37
622.10	285.55
622.25	133.41
622.41	177.88
622.56	285.55
622.71	173.20
622.86	236.39
623.01	105.32
623.16	208.31
623.32	227.03
