SpectraSuite Data File
++++++++++++++++++++++++++++++++++++
Date: Mon Oct 07 15:00:28 GMT-05:00 2013
User: price-jones
Dark Spectrum Present: No
Reference Spectrum Present: No
Number of Sampled Component Spectra: 1
Spectrometers: USB2+H05261
Integration Time (usec): 1000000 (USB2+H05261)
Spectra Averaged: 1 (USB2+H05261)
Boxcar Smoothing: 0 (USB2+H05261)
Correct for Electrical Dark: No (USB2+H05261)
Strobe/Lamp Enabled: No (USB2+H05261)
Correct for Detector Non-linearity: No (USB2+H05261)
Correct for Stray Light: No (USB2+H05261)
Number of Pixels in Processed Spectrum: 2048
>>>>>Begin Processed Spectral Data<<<<<
365.73	0.00
365.92	0.00
366.12	0.00
366.32	0.00
366.52	0.00
366.72	191.92
366.91	0.00
367.11	212.99
367.31	14.04
367.51	84.26
367.70	205.97
367.90	418.96
368.10	224.69
368.30	180.22
368.49	0.00
368.69	433.00
368.89	152.13
369.09	0.00
369.28	84.26
369.48	0.00
369.68	28.09
369.87	196.60
370.07	23.41
370.27	404.91
370.47	271.50
370.66	177.88
370.86	376.83
371.06	746.63
371.25	943.24
371.45	231.71
371.65	535.98
371.84	149.79
372.04	14.04
372.24	327.68
372.44	250.44
372.63	479.81
372.83	814.51
373.03	322.99
373.22	110.01
373.42	175.54
373.62	327.68
373.81	454.06
374.01	692.80
374.21	587.47
374.40	248.10
374.60	641.31
374.79	330.02
374.99	248.10
375.19	472.79
375.38	568.75
375.58	330.02
375.78	634.29
375.97	531.30
376.17	1034.52
376.37	308.95
376.56	505.56
376.76	198.95
376.95	205.97
377.15	559.39
377.35	486.83
377.54	503.22
377.74	175.54
377.93	222.35
378.13	463.43
378.33	610.88
378.52	344.06
378.72	688.12
378.91	528.96
379.11	259.80
379.31	322.99
379.50	91.28
379.70	620.24
379.89	617.90
380.09	346.40
380.28	147.45
380.48	344.06
380.68	231.71
380.87	102.98
381.07	416.62
381.26	610.88
381.46	159.16
381.65	442.36
381.85	292.57
382.04	531.30
382.24	416.62
382.43	285.55
382.63	163.84
382.83	346.40
383.02	657.69
383.22	704.50
383.41	236.39
383.61	433.00
383.80	638.97
384.00	344.06
384.19	276.18
384.39	386.19
384.58	322.99
384.78	407.25
384.97	397.89
385.17	341.72
385.36	241.08
385.56	629.60
385.75	131.07
385.95	381.51
386.14	617.90
386.34	306.61
386.53	355.76
386.72	283.20
386.92	777.06
387.11	578.11
387.31	442.36
387.50	168.52
387.70	156.82
387.89	386.19
388.09	227.03
388.28	189.58
388.48	138.09
388.67	580.45
388.86	344.06
389.06	278.52
389.25	330.02
389.45	404.91
389.64	330.02
389.84	763.01
390.03	552.37
390.22	388.53
390.42	269.16
390.61	135.75
390.81	32.77
391.00	404.91
391.19	608.54
391.39	337.04
391.58	510.24
391.78	318.31
391.97	423.64
392.16	53.83
392.36	695.14
392.55	737.27
392.75	376.83
392.94	198.95
393.13	596.84
393.33	184.90
393.52	262.14
393.71	795.78
393.91	400.23
394.10	182.56
394.29	189.58
394.49	273.84
394.68	428.32
394.88	732.59
395.07	657.69
395.26	376.83
395.46	372.15
395.65	678.76
395.84	425.98
396.04	1245.16
396.23	381.51
396.42	278.52
396.62	458.74
396.81	416.62
397.00	379.17
397.19	475.13
397.39	346.40
397.58	713.86
397.77	283.20
397.97	411.93
398.16	411.93
398.35	582.79
398.55	170.86
398.74	444.70
398.93	582.79
399.12	332.36
399.32	512.58
399.51	440.02
399.70	512.58
399.90	475.13
400.09	461.09
400.28	622.58
400.47	304.27
400.67	669.39
400.86	461.09
401.05	645.99
401.24	702.16
401.44	629.60
401.63	671.73
401.82	741.95
402.01	241.08
402.21	592.16
402.40	456.40
402.59	379.17
402.78	348.74
402.97	313.63
403.17	414.27
403.36	442.36
403.55	248.10
403.74	308.95
403.93	379.17
404.13	727.91
404.32	259.80
404.51	280.86
404.70	629.60
404.89	393.21
405.09	950.26
405.28	425.98
405.47	168.52
405.66	503.22
405.85	688.12
406.05	458.74
406.24	397.89
406.43	449.38
406.62	601.52
406.81	1060.26
407.00	723.23
407.20	521.94
407.39	442.36
407.58	334.70
407.77	608.54
407.96	760.67
408.15	702.16
408.34	571.09
408.54	491.51
408.73	510.24
408.92	479.81
409.11	645.99
409.30	702.16
409.49	285.55
409.68	369.80
409.87	512.58
410.07	294.91
410.26	496.19
410.45	407.25
410.64	330.02
410.83	482.15
411.02	376.83
411.21	512.58
411.40	645.99
411.59	430.66
411.78	397.89
411.98	423.64
412.17	257.46
412.36	390.87
412.55	360.44
412.74	603.86
412.93	891.74
413.12	348.74
413.31	706.84
413.50	547.69
413.69	493.85
413.88	837.91
414.07	571.09
414.26	517.26
414.45	269.16
414.64	545.34
414.83	578.11
415.02	592.16
415.22	580.45
415.41	802.80
415.60	362.78
415.79	547.69
415.98	847.27
416.17	613.22
416.36	531.30
416.55	386.19
416.74	767.70
416.93	760.67
417.12	505.56
417.31	482.15
417.50	545.34
417.69	931.53
417.88	475.13
418.07	348.74
418.26	442.36
418.45	465.77
418.64	968.98
418.83	620.24
419.02	613.22
419.21	580.45
419.39	575.77
419.58	367.46
419.77	400.23
419.96	784.08
420.15	887.06
420.34	423.64
420.53	657.69
420.72	772.38
420.91	596.84
421.10	578.11
421.29	674.07
421.48	737.27
421.67	730.25
421.86	482.15
422.05	507.90
422.24	496.19
422.43	660.03
422.61	397.89
422.80	465.77
422.99	554.71
423.18	444.70
423.37	868.34
423.56	653.01
423.75	587.47
423.94	367.46
424.13	489.17
424.32	409.59
424.50	444.70
424.69	418.96
424.88	954.94
425.07	472.79
425.26	688.12
425.45	664.71
425.64	400.23
425.83	416.62
426.01	884.72
426.20	655.35
426.39	430.66
426.58	404.91
426.77	587.47
426.96	669.39
427.15	594.50
427.33	456.40
427.52	550.03
427.71	667.05
427.90	613.22
428.09	374.49
428.28	308.95
428.46	472.79
428.65	667.05
428.84	524.28
429.03	926.85
429.22	493.85
429.40	318.31
429.59	369.80
429.78	821.53
429.97	519.60
430.16	430.66
430.34	489.17
430.53	379.17
430.72	456.40
430.91	837.91
431.10	337.04
431.28	554.71
431.47	767.70
431.66	631.94
431.85	416.62
432.03	461.09
432.22	1277.93
432.41	566.41
432.60	903.45
432.79	416.62
432.97	566.41
433.16	566.41
433.35	348.74
433.54	472.79
433.72	653.01
433.91	746.63
434.10	526.62
434.28	596.84
434.47	547.69
434.66	727.91
434.85	510.24
435.03	653.01
435.22	1064.94
435.41	1076.65
435.59	795.78
435.78	650.67
435.97	521.94
436.16	842.59
436.34	648.33
436.53	711.52
436.72	884.72
436.90	781.74
437.09	697.48
437.28	557.05
437.46	594.50
437.65	826.21
437.84	826.21
438.02	638.97
438.21	767.70
438.40	566.41
438.58	411.93
438.77	676.41
438.96	545.34
439.14	484.49
439.33	830.89
439.52	519.60
439.70	575.77
439.89	697.48
440.08	655.35
440.26	655.35
440.45	1022.81
440.63	739.61
440.82	636.63
441.01	690.46
441.19	517.26
441.38	571.09
441.57	561.73
441.75	929.19
441.94	997.07
442.12	777.06
442.31	603.86
442.50	561.73
442.68	645.99
442.87	648.33
443.05	528.96
443.24	770.04
443.43	758.33
443.61	1055.58
443.80	669.39
443.98	521.94
444.17	564.07
444.35	912.81
444.54	620.24
444.73	564.07
444.91	945.58
445.10	475.13
445.28	479.81
445.47	718.54
445.65	641.31
445.84	596.84
446.02	758.33
446.21	667.05
446.39	599.18
446.58	835.57
446.77	608.54
446.95	638.97
447.14	805.14
447.32	1090.69
447.51	671.73
447.69	720.88
447.88	697.48
448.06	1074.31
448.25	730.25
448.43	543.00
448.62	512.58
448.80	678.76
448.99	891.74
449.17	559.39
449.36	650.67
449.54	809.83
449.73	477.47
449.91	807.48
450.10	627.26
450.28	1345.81
450.46	1277.93
450.65	924.51
450.83	711.52
451.02	657.69
451.20	709.18
451.39	606.20
451.57	629.60
451.76	599.18
451.94	648.33
452.13	898.77
452.31	1001.75
452.49	739.61
452.68	533.64
452.86	828.55
453.05	1287.29
453.23	664.71
453.42	411.93
453.60	655.35
453.78	713.86
453.97	510.24
454.15	456.40
454.34	561.73
454.52	573.43
454.70	1060.26
454.89	915.15
455.07	521.94
455.26	912.81
455.44	903.45
455.62	638.97
455.81	816.85
455.99	798.12
456.17	882.38
456.36	690.46
456.54	592.16
456.73	587.47
456.91	589.82
457.09	772.38
457.28	1027.50
457.46	737.27
457.64	1043.88
457.83	683.44
458.01	566.41
458.19	840.25
458.38	566.41
458.56	758.33
458.74	505.56
458.93	770.04
459.11	947.92
459.29	554.71
459.48	856.64
459.66	1212.40
459.84	1025.15
460.03	1842.00
460.21	1022.81
460.39	704.50
460.57	992.39
460.76	788.76
460.94	786.42
461.12	1217.08
461.31	1053.24
461.49	713.86
461.67	739.61
461.85	802.80
462.04	655.35
462.22	2825.03
462.40	1001.75
462.59	973.66
462.77	692.80
462.95	781.74
463.13	554.71
463.32	973.66
463.50	875.36
463.68	826.21
463.86	676.41
464.05	662.37
464.23	1174.95
464.41	978.34
464.59	692.80
464.78	603.86
464.96	531.30
465.14	734.93
465.32	550.03
465.50	835.57
465.69	884.72
465.87	606.20
466.05	887.06
466.23	587.47
466.41	669.39
466.60	725.57
466.78	793.44
466.96	1043.88
467.14	847.27
467.32	1071.97
467.51	931.53
467.69	889.40
467.87	1142.18
468.05	791.10
468.23	1280.27
468.41	1050.90
468.60	725.57
468.78	833.23
468.96	1015.79
469.14	854.30
469.32	571.09
469.50	561.73
469.69	917.49
469.87	835.57
470.05	786.42
470.23	767.70
470.41	526.62
470.59	620.24
470.77	873.02
470.95	781.74
471.14	1137.50
471.32	713.86
471.50	1228.78
471.68	774.72
471.86	917.49
472.04	622.58
472.22	730.25
472.40	531.30
472.58	657.69
472.77	538.32
472.95	711.52
473.13	1423.05
473.31	1095.37
473.49	690.46
473.67	641.31
473.85	976.00
474.03	1015.79
474.21	887.06
474.39	1217.08
474.57	1420.71
474.75	931.53
474.93	683.44
475.12	634.29
475.30	704.50
475.48	835.57
475.66	767.70
475.84	816.85
476.02	821.53
476.20	1008.77
476.38	842.59
476.56	1643.06
476.74	777.06
476.92	805.14
477.10	805.14
477.28	964.30
477.46	851.96
477.64	1076.65
477.82	753.65
478.00	800.46
478.18	889.40
478.36	847.27
478.54	807.48
478.72	734.93
478.90	833.23
479.08	943.24
479.26	940.90
479.44	692.80
479.62	788.76
479.80	793.44
479.98	741.95
480.16	755.99
480.34	1071.97
480.52	744.29
480.70	915.15
480.88	835.57
481.06	793.44
481.24	802.80
481.41	774.72
481.59	971.32
481.77	929.19
481.95	842.59
482.13	1270.91
482.31	987.71
482.49	741.95
482.67	1114.10
482.85	1039.20
483.03	1036.86
483.21	929.19
483.39	849.61
483.57	1027.50
483.74	1299.00
483.92	933.87
484.10	718.54
484.28	1233.46
484.46	1687.53
484.64	851.96
484.82	964.30
485.00	898.77
485.18	1025.15
485.35	999.41
485.53	645.99
485.71	1196.01
485.89	540.66
486.07	856.64
486.25	1650.08
486.43	1022.81
486.61	1104.73
486.78	1086.01
486.96	751.31
487.14	849.61
487.32	912.81
487.50	887.06
487.68	1125.80
487.85	791.10
488.03	1144.52
488.21	1406.66
488.39	1076.65
488.57	1163.25
488.75	992.39
488.92	4564.04
489.10	1310.70
489.28	1427.73
489.46	980.68
489.64	1088.35
489.81	1116.44
489.99	1315.38
490.17	1111.75
490.35	1837.32
490.53	1153.88
490.70	840.25
490.88	1296.66
491.06	954.94
491.24	1153.88
491.41	1610.29
491.59	1153.88
491.77	933.87
491.95	983.02
492.13	894.08
492.30	1086.01
492.48	1100.05
492.66	1053.24
492.84	1001.75
493.01	1252.19
493.19	1018.13
493.37	1544.75
493.54	1268.57
493.72	1184.31
493.90	1050.90
494.08	1015.79
494.25	1280.27
494.43	1254.53
494.61	1083.67
494.79	1034.52
494.96	887.06
495.14	1336.45
495.32	1071.97
495.49	1261.55
495.67	1301.34
495.85	1018.13
496.02	959.62
496.20	1406.66
496.38	1373.89
496.55	1177.29
496.73	1352.83
496.91	1114.10
497.09	1465.18
497.26	1203.04
497.44	1165.59
497.62	1130.48
497.79	1076.65
497.97	1261.55
498.14	1394.96
498.32	1261.55
498.50	1282.61
498.67	1081.33
498.85	1167.93
499.03	1088.35
499.20	1135.16
499.38	1280.27
499.56	1268.57
499.73	1694.55
499.91	1369.21
500.08	1458.15
500.26	1153.88
500.44	1097.71
500.61	1291.98
500.79	1200.69
500.97	1416.02
501.14	1558.80
501.32	1231.12
501.49	1572.84
501.67	1188.99
501.84	1394.96
502.02	945.58
502.20	1722.63
502.37	1404.32
502.55	1135.16
502.72	1224.10
502.90	1474.54
503.07	1231.12
503.25	1343.47
503.43	1006.43
503.60	1156.22
503.78	1317.72
503.95	1163.25
504.13	1130.48
504.30	1385.60
504.48	1469.86
504.65	1624.33
504.83	1504.96
505.01	1184.31
505.18	1387.94
505.36	1451.13
505.53	1282.61
505.71	1121.12
505.88	1586.88
506.06	1247.51
506.23	1172.61
506.41	1151.54
506.58	1336.45
506.76	1444.11
506.93	1177.29
507.11	1394.96
507.28	1111.75
507.46	1060.26
507.63	1289.64
507.81	1067.28
507.98	1238.14
508.16	1270.91
508.33	1369.21
508.50	1600.93
508.68	1411.34
508.85	1371.55
509.03	1181.97
509.20	1240.48
509.38	1373.89
509.55	1636.03
509.73	1596.25
509.90	1577.52
510.08	1160.91
510.25	1572.84
510.42	1158.57
510.60	1289.64
510.77	1474.54
510.95	1675.82
511.12	1214.74
511.30	1537.73
511.47	1565.82
511.64	1909.88
511.82	1228.78
511.99	1287.29
512.17	1167.93
512.34	1156.22
512.51	1217.08
512.69	1231.12
512.86	1586.88
513.04	1203.04
513.21	1411.34
513.38	1163.25
513.56	1111.75
513.73	1181.97
513.90	1064.94
514.08	1109.41
514.25	1406.66
514.43	1406.66
514.60	1060.26
514.77	1221.76
514.95	1390.28
515.12	1193.67
515.29	1439.43
515.47	1390.28
515.64	1296.66
515.81	1341.13
515.99	1788.17
516.16	1582.20
516.33	1591.56
516.51	1095.37
516.68	954.94
516.85	1186.65
517.03	1198.35
517.20	1387.94
517.37	1369.21
517.54	1479.22
517.72	1261.55
517.89	997.07
518.06	1062.60
518.24	1898.17
518.41	1736.68
518.58	1511.99
518.75	1055.58
518.93	1378.58
519.10	1481.56
519.27	1240.48
519.45	1472.20
519.62	1352.83
519.79	1490.92
519.96	1198.35
520.14	1350.49
520.31	1708.59
520.48	1275.59
520.65	1385.60
520.83	1460.49
521.00	1500.28
521.17	1570.50
521.34	1343.47
521.52	1465.18
521.69	1472.20
521.86	1268.57
522.03	1554.12
522.20	1802.21
522.38	1322.40
522.55	1282.61
522.72	1083.67
522.89	1685.19
523.07	1895.83
523.24	1423.05
523.41	1299.00
523.58	1261.55
523.75	1308.36
523.92	1217.08
524.10	1493.26
524.27	1380.92
524.44	1261.55
524.61	1708.59
524.78	1268.57
524.96	1586.88
525.13	1327.08
525.30	1682.85
525.47	1530.71
525.64	1476.88
525.81	1460.49
525.98	1472.20
526.16	1275.59
526.33	1224.10
526.50	1121.12
526.67	1076.65
526.84	1111.75
527.01	1233.46
527.18	1371.55
527.36	1423.05
527.53	1205.38
527.70	1631.35
527.87	1364.53
528.04	1870.09
528.21	1242.82
528.38	1582.20
528.55	1767.10
528.72	1856.04
528.89	1977.75
529.07	1416.02
529.24	1439.43
529.41	1837.32
529.58	1458.15
529.75	1256.87
529.92	1523.69
530.09	1514.33
530.26	1675.82
530.43	1523.69
530.60	1308.36
530.77	1535.39
530.94	1645.40
531.11	1640.72
531.28	1387.94
531.46	1287.29
531.63	1469.86
531.80	1519.01
531.97	1554.12
532.14	1411.34
532.31	1554.12
532.48	1547.09
532.65	1486.24
532.82	1128.14
532.99	1301.34
533.16	1427.73
533.33	1378.58
533.50	1338.79
533.67	1284.95
533.84	1509.65
534.01	1460.49
534.18	1401.98
534.35	1427.73
534.52	1439.43
534.69	2003.50
534.86	1416.02
535.03	1331.76
535.20	1303.68
535.37	1659.44
535.54	1530.71
535.71	1451.13
535.88	1778.81
536.05	1322.40
536.22	1497.94
536.38	1313.04
536.55	1427.73
536.72	1743.70
536.89	1240.48
537.06	1245.16
537.23	1306.02
537.40	1322.40
537.57	1313.04
537.74	1729.66
537.91	1603.27
538.08	1348.15
538.25	1526.03
538.42	1284.95
538.59	1509.65
538.75	1348.15
538.92	1425.39
539.09	1713.27
539.26	1334.11
539.43	1867.75
539.60	1432.41
539.77	1575.18
539.94	1324.74
540.11	1542.41
540.28	1795.19
540.44	1867.75
540.61	1434.75
540.78	1366.87
540.95	1179.63
541.12	1764.76
541.29	1301.34
541.46	1732.00
541.62	1526.03
541.79	1184.31
541.96	1179.63
542.13	1289.64
542.30	1132.82
542.47	1682.85
542.63	1263.89
542.80	1582.20
542.97	1696.89
543.14	1472.20
543.31	1558.80
543.48	1373.89
543.64	1570.50
543.81	1483.90
543.98	1313.04
544.15	1160.91
544.32	1514.33
544.48	1373.89
544.65	1334.11
544.82	1343.47
544.99	1287.29
545.16	1689.87
545.32	1355.17
545.49	1509.65
545.66	1437.09
545.83	1245.16
546.00	1310.70
546.16	1334.11
546.33	1217.08
546.50	1364.53
546.67	1678.16
546.83	1586.88
547.00	1497.94
547.17	1118.78
547.34	1172.61
547.50	1411.34
547.67	1373.89
547.84	1369.21
548.00	1556.46
548.17	1273.25
548.34	1303.68
548.51	1879.45
548.67	1664.12
548.84	1418.36
549.01	1453.47
549.18	1544.75
549.34	1511.99
549.51	1535.39
549.68	1427.73
549.84	1504.96
550.01	1181.97
550.18	3068.44
550.34	2132.23
550.51	1465.18
550.68	2059.67
550.84	1289.64
551.01	1324.74
551.18	1722.63
551.34	1479.22
551.51	1355.17
551.68	1437.09
551.84	1544.75
552.01	1224.10
552.18	1233.46
552.34	1451.13
552.51	1376.24
552.68	1582.20
552.84	1401.98
553.01	1507.30
553.18	1598.59
553.34	1336.45
553.51	1191.33
553.67	1619.65
553.84	1994.14
554.01	1614.97
554.17	1549.43
554.34	1275.59
554.51	1540.07
554.67	1645.40
554.84	1668.80
555.00	1542.41
555.17	1610.29
555.33	1685.19
555.50	1488.58
555.67	1519.01
555.83	1193.67
556.00	1366.87
556.16	3494.42
556.33	1586.88
556.50	1359.85
556.66	1350.49
556.83	1261.55
556.99	1212.40
557.16	1409.00
557.32	1322.40
557.49	1270.91
557.65	1275.59
557.82	1266.23
557.98	1394.96
558.15	1291.98
558.32	1268.57
558.48	1191.33
558.65	1282.61
558.81	1409.00
558.98	1245.16
559.14	1563.48
559.31	1306.02
559.47	1551.78
559.64	1261.55
559.80	1558.80
559.97	1174.95
560.13	1387.94
560.30	1139.84
560.46	1240.48
560.63	1228.78
560.79	1287.29
560.96	1399.64
561.12	1212.40
561.29	1413.68
561.45	1315.38
561.61	1399.64
561.78	2303.09
561.94	1327.08
562.11	1275.59
562.27	1460.49
562.44	1081.33
562.60	1355.17
562.77	1345.81
562.93	2104.14
563.10	1432.41
563.26	1303.68
563.42	1589.22
563.59	1409.00
563.75	1238.14
563.92	1636.03
564.08	1481.56
564.24	1664.12
564.41	1909.88
564.57	1088.35
564.74	1174.95
564.90	1362.19
565.07	1509.65
565.23	1465.18
565.39	1174.95
565.56	1523.69
565.72	1172.61
565.88	1233.46
566.05	1238.14
566.21	1228.78
566.38	1413.68
566.54	1427.73
566.70	1231.12
566.87	1156.22
567.03	1055.58
567.19	1254.53
567.36	1607.95
567.52	1329.42
567.68	1385.60
567.85	1469.86
568.01	1203.04
568.17	964.30
568.34	1259.21
568.50	1638.38
568.66	1109.41
568.83	2146.27
568.99	1167.93
569.15	1383.26
569.32	1181.97
569.48	1219.42
569.64	1114.10
569.81	1350.49
569.97	1207.72
570.13	1486.24
570.30	1181.97
570.46	1249.85
570.62	1135.16
570.78	1203.04
570.95	1107.07
571.11	1774.13
571.27	1837.32
571.43	1123.46
571.60	1430.07
571.76	1284.95
571.92	1193.67
572.09	1149.20
572.25	1282.61
572.41	1329.42
572.57	1294.32
572.74	1790.51
572.90	1561.14
573.06	1357.51
573.22	1448.79
573.38	1607.95
573.55	1526.03
573.71	1579.86
573.87	1493.26
574.03	1163.25
574.20	1214.74
574.36	1621.99
574.52	1125.80
574.68	1167.93
574.84	1266.23
575.01	1174.95
575.17	1369.21
575.33	1181.97
575.49	1516.67
575.65	1570.50
575.82	1369.21
575.98	1891.15
576.14	1306.02
576.30	1231.12
576.46	1205.38
576.62	1317.72
576.79	1409.00
576.95	1664.12
577.11	1193.67
577.27	1008.77
577.43	1486.24
577.59	1689.87
577.75	1425.39
577.92	1146.86
578.08	1153.88
578.24	999.41
578.40	1528.37
578.56	1558.80
578.72	1673.48
578.88	1399.64
579.04	1193.67
579.21	1364.53
579.37	1270.91
579.53	1076.65
579.69	1558.80
579.85	1022.81
580.01	1329.42
580.17	1053.24
580.33	1118.78
580.49	1268.57
580.65	1432.41
580.82	1334.11
580.98	1013.45
581.14	1123.46
581.30	1589.22
581.46	1219.42
581.62	1411.34
581.78	1027.50
581.94	1275.59
582.10	1071.97
582.26	1301.34
582.42	1170.27
582.58	1352.83
582.74	1205.38
582.90	1259.21
583.06	1294.32
583.22	1291.98
583.38	1114.10
583.54	983.02
583.70	1657.10
583.86	1322.40
584.02	1221.76
584.18	1584.54
584.34	1125.80
584.50	1233.46
584.66	1217.08
584.82	1001.75
584.98	1268.57
585.14	1163.25
585.30	1621.99
585.46	1231.12
585.62	1048.56
585.78	1221.76
585.94	1355.17
586.10	1177.29
586.26	1240.48
586.42	1675.82
586.58	1362.19
586.74	1139.84
586.90	1273.25
587.06	1331.76
587.22	1240.48
587.38	1146.86
587.54	1144.52
587.70	1551.78
587.86	1455.81
588.02	1128.14
588.18	1226.44
588.34	1371.55
588.49	823.87
588.65	1076.65
588.81	1050.90
588.97	774.72
589.13	1048.56
589.29	1198.35
589.45	1514.33
589.61	1196.01
589.77	1509.65
589.93	1078.99
590.08	1029.84
590.24	994.73
590.40	1200.69
590.56	1308.36
590.72	1163.25
590.88	961.96
591.04	1228.78
591.20	954.94
591.35	1551.78
591.51	1123.46
591.67	917.49
591.83	1067.28
591.99	1336.45
592.15	1444.11
592.31	1275.59
592.46	1104.73
592.62	1362.19
592.78	1081.33
592.94	1055.58
593.10	973.66
593.26	1001.75
593.41	1343.47
593.57	1184.31
593.73	1027.50
593.89	1327.08
594.05	1069.62
594.20	992.39
594.36	1547.09
594.52	1006.43
594.68	1090.69
594.84	1444.11
594.99	1542.41
595.15	1259.21
595.31	1483.90
595.47	1685.19
595.62	1102.39
595.78	1125.80
595.94	1142.18
596.10	1521.35
596.25	1188.99
596.41	1259.21
596.57	1100.05
596.73	1111.75
596.88	1111.75
597.04	1184.31
597.20	947.92
597.36	1196.01
597.51	1039.20
597.67	1043.88
597.83	1053.24
597.99	1390.28
598.14	1064.94
598.30	1437.09
598.46	1128.14
598.61	1369.21
598.77	1259.21
598.93	985.37
599.09	1114.10
599.24	1245.16
599.40	1467.52
599.56	1081.33
599.71	1104.73
599.87	1076.65
600.03	1174.95
600.18	1170.27
600.34	1235.80
600.50	964.30
600.65	896.43
600.81	1336.45
600.97	887.06
601.12	1125.80
601.28	1427.73
601.44	1200.69
601.59	1006.43
601.75	1177.29
601.91	954.94
602.06	1280.27
602.22	1975.41
602.37	1165.59
602.53	978.34
