SpectraSuite Data File
++++++++++++++++++++++++++++++++++++
Date: Mon Oct 07 14:59:59 GMT-05:00 2013
User: price-jones
Dark Spectrum Present: No
Reference Spectrum Present: No
Number of Sampled Component Spectra: 1
Spectrometers: USB2+H05261
Integration Time (usec): 100000 (USB2+H05261)
Spectra Averaged: 1 (USB2+H05261)
Boxcar Smoothing: 0 (USB2+H05261)
Correct for Electrical Dark: No (USB2+H05261)
Strobe/Lamp Enabled: No (USB2+H05261)
Correct for Detector Non-linearity: No (USB2+H05261)
Correct for Stray Light: No (USB2+H05261)
Number of Pixels in Processed Spectrum: 2048
>>>>>Begin Processed Spectral Data<<<<<
365.73	0.00
365.92	0.00
366.12	0.00
366.32	0.00
366.52	0.00
366.72	0.00
366.91	0.00
367.11	0.00
367.31	0.00
367.51	0.00
367.70	0.00
367.90	0.00
368.10	0.00
368.30	0.00
368.49	0.00
368.69	0.00
368.89	0.00
369.09	0.00
369.28	0.00
369.48	0.00
369.68	0.00
369.87	0.00
370.07	0.00
370.27	0.00
370.47	0.00
370.66	0.00
370.86	0.00
371.06	0.00
371.25	0.00
371.45	0.00
371.65	0.00
371.84	0.00
372.04	0.00
372.24	0.00
372.44	0.00
372.63	0.00
372.83	0.00
373.03	0.00
373.22	0.00
373.42	0.00
373.62	0.00
373.81	0.00
374.01	0.00
374.21	0.00
374.40	0.00
374.60	0.00
374.79	0.00
374.99	0.00
375.19	0.00
375.38	0.00
375.58	0.00
375.78	0.00
375.97	0.00
376.17	0.00
376.37	0.00
376.56	0.00
376.76	0.00
376.95	0.00
377.15	0.00
377.35	0.00
377.54	0.00
377.74	0.00
377.93	0.00
378.13	0.00
378.33	0.00
378.52	0.00
378.72	0.00
378.91	0.00
379.11	0.00
379.31	0.00
379.50	0.00
379.70	0.00
379.89	0.00
380.09	0.00
380.28	0.00
380.48	0.00
380.68	0.00
380.87	0.00
381.07	0.00
381.26	0.00
381.46	0.00
381.65	0.00
381.85	0.00
382.04	0.00
382.24	0.00
382.43	0.00
382.63	0.00
382.83	0.00
383.02	0.00
383.22	0.00
383.41	0.00
383.61	0.00
383.80	0.00
384.00	0.00
384.19	0.00
384.39	0.00
384.58	0.00
384.78	0.00
384.97	0.00
385.17	0.00
385.36	0.00
385.56	0.00
385.75	0.00
385.95	0.00
386.14	0.00
386.34	0.00
386.53	0.00
386.72	0.00
386.92	0.00
387.11	0.00
387.31	0.00
387.50	0.00
387.70	0.00
387.89	0.00
388.09	0.00
388.28	0.00
388.48	0.00
388.67	0.00
388.86	0.00
389.06	0.00
389.25	0.00
389.45	0.00
389.64	0.00
389.84	0.00
390.03	0.00
390.22	0.00
390.42	0.00
390.61	0.00
390.81	0.00
391.00	0.00
391.19	0.00
391.39	0.00
391.58	0.00
391.78	0.00
391.97	0.00
392.16	0.00
392.36	0.00
392.55	0.00
392.75	0.00
392.94	0.00
393.13	0.00
393.33	0.00
393.52	0.00
393.71	0.00
393.91	0.00
394.10	0.00
394.29	0.00
394.49	0.00
394.68	0.00
394.88	0.00
395.07	0.00
395.26	0.00
395.46	0.00
395.65	0.00
395.84	0.00
396.04	0.00
396.23	0.00
396.42	0.00
396.62	0.00
396.81	0.00
397.00	0.00
397.19	0.00
397.39	0.00
397.58	0.00
397.77	0.00
397.97	0.00
398.16	0.00
398.35	0.00
398.55	0.00
398.74	0.00
398.93	0.00
399.12	0.00
399.32	0.00
399.51	0.00
399.70	0.00
399.90	0.00
400.09	0.00
400.28	0.00
400.47	0.00
400.67	0.00
400.86	0.00
401.05	0.00
401.24	0.00
401.44	0.00
401.63	0.00
401.82	0.00
402.01	0.00
402.21	0.00
402.40	0.00
402.59	0.00
402.78	0.00
402.97	0.00
403.17	0.00
403.36	0.00
403.55	0.00
403.74	0.00
403.93	0.00
404.13	0.00
404.32	0.00
404.51	0.00
404.70	0.00
404.89	0.00
405.09	0.00
405.28	0.00
405.47	0.00
405.66	0.00
405.85	0.00
406.05	0.00
406.24	0.00
406.43	0.00
406.62	0.00
406.81	0.00
407.00	0.00
407.20	0.00
407.39	0.00
407.58	0.00
407.77	0.00
407.96	0.00
408.15	0.00
408.34	0.00
408.54	0.00
408.73	0.00
408.92	0.00
409.11	0.00
409.30	0.00
409.49	0.00
409.68	0.00
409.87	0.00
410.07	0.00
410.26	0.00
410.45	0.00
410.64	0.00
410.83	0.00
411.02	0.00
411.21	0.00
411.40	0.00
411.59	0.00
411.78	0.00
411.98	0.00
412.17	0.00
412.36	0.00
412.55	0.00
412.74	0.00
412.93	0.00
413.12	0.00
413.31	0.00
413.50	0.00
413.69	0.00
413.88	0.00
414.07	0.00
414.26	0.00
414.45	0.00
414.64	0.00
414.83	0.00
415.02	0.00
415.22	0.00
415.41	0.00
415.60	0.00
415.79	0.00
415.98	0.00
416.17	0.00
416.36	0.00
416.55	0.00
416.74	0.00
416.93	0.00
417.12	0.00
417.31	0.00
417.50	0.00
417.69	0.00
417.88	0.00
418.07	0.00
418.26	0.00
418.45	0.00
418.64	0.00
418.83	0.00
419.02	0.00
419.21	0.00
419.39	0.00
419.58	0.00
419.77	0.00
419.96	0.00
420.15	0.00
420.34	0.00
420.53	0.00
420.72	0.00
420.91	0.00
421.10	0.00
421.29	0.00
421.48	0.00
421.67	0.00
421.86	0.00
422.05	0.00
422.24	0.00
422.43	0.00
422.61	0.00
422.80	0.00
422.99	0.00
423.18	0.00
423.37	0.00
423.56	0.00
423.75	0.00
423.94	0.00
424.13	0.00
424.32	0.00
424.50	0.00
424.69	0.00
424.88	0.00
425.07	0.00
425.26	0.00
425.45	0.00
425.64	0.00
425.83	0.00
426.01	0.00
426.20	0.00
426.39	0.00
426.58	0.00
426.77	0.00
426.96	0.00
427.15	0.00
427.33	0.00
427.52	0.00
427.71	0.00
427.90	0.00
428.09	0.00
428.28	0.00
428.46	0.00
428.65	0.00
428.84	0.00
429.03	0.00
429.22	0.00
429.40	0.00
429.59	0.00
429.78	0.00
429.97	0.00
430.16	0.00
430.34	0.00
430.53	0.00
430.72	0.00
430.91	0.00
431.10	0.00
431.28	0.00
431.47	0.00
431.66	0.00
431.85	0.00
432.03	0.00
432.22	0.00
432.41	0.00
432.60	0.00
432.79	0.00
432.97	0.00
433.16	0.00
433.35	0.00
433.54	0.00
433.72	0.00
433.91	0.00
434.10	0.00
434.28	0.00
434.47	0.00
434.66	0.00
434.85	0.00
435.03	0.00
435.22	0.00
435.41	0.00
435.59	0.00
435.78	0.00
435.97	0.00
436.16	0.00
436.34	0.00
436.53	0.00
436.72	0.00
436.90	0.00
437.09	0.00
437.28	0.00
437.46	0.00
437.65	0.00
437.84	0.00
438.02	0.00
438.21	0.00
438.40	0.00
438.58	0.00
438.77	0.00
438.96	0.00
439.14	0.00
439.33	0.00
439.52	0.00
439.70	0.00
439.89	0.00
440.08	0.00
440.26	0.00
440.45	21.06
440.63	14.04
440.82	0.00
441.01	0.00
441.19	0.00
441.38	0.00
441.57	0.00
441.75	0.00
441.94	0.00
442.12	0.00
442.31	0.00
442.50	0.00
442.68	0.00
442.87	0.00
443.05	0.00
443.24	0.00
443.43	0.00
443.61	0.00
443.80	0.00
443.98	0.00
444.17	0.00
444.35	0.00
444.54	0.00
444.73	0.00
444.91	0.00
445.10	0.00
445.28	0.00
445.47	0.00
445.65	0.00
445.84	0.00
446.02	0.00
446.21	0.00
446.39	0.00
446.58	0.00
446.77	0.00
446.95	0.00
447.14	0.00
447.32	0.00
447.51	0.00
447.69	0.00
447.88	0.00
448.06	4.68
448.25	0.00
448.43	0.00
448.62	0.00
448.80	0.00
448.99	0.00
449.17	0.00
449.36	0.00
449.54	49.15
449.73	0.00
449.91	53.83
450.10	0.00
450.28	0.00
450.46	0.00
450.65	0.00
450.83	0.00
451.02	0.00
451.20	9.36
451.39	0.00
451.57	0.00
451.76	0.00
451.94	0.00
452.13	0.00
452.31	0.00
452.49	0.00
452.68	0.00
452.86	0.00
453.05	0.00
453.23	0.00
453.42	0.00
453.60	0.00
453.78	0.00
453.97	0.00
454.15	0.00
454.34	0.00
454.52	0.00
454.70	0.00
454.89	0.00
455.07	0.00
455.26	0.00
455.44	0.00
455.62	0.00
455.81	0.00
455.99	0.00
456.17	25.75
456.36	0.00
456.54	0.00
456.73	0.00
456.91	0.00
457.09	0.00
457.28	77.24
457.46	0.00
457.64	0.00
457.83	4.68
458.01	0.00
458.19	0.00
458.38	0.00
458.56	0.00
458.74	0.00
458.93	0.00
459.11	0.00
459.29	0.00
459.48	0.00
459.66	4.68
459.84	0.00
460.03	84.26
460.21	0.00
460.39	0.00
460.57	105.32
460.76	0.00
460.94	0.00
461.12	0.00
461.31	0.00
461.49	21.06
461.67	0.00
461.85	70.22
462.04	0.00
462.22	580.45
462.40	25.75
462.59	37.45
462.77	0.00
462.95	0.00
463.13	35.11
463.32	2.34
463.50	0.00
463.68	0.00
463.86	0.00
464.05	0.00
464.23	0.00
464.41	0.00
464.59	0.00
464.78	0.00
464.96	0.00
465.14	0.00
465.32	0.00
465.50	0.00
465.69	0.00
465.87	0.00
466.05	0.00
466.23	0.00
466.41	0.00
466.60	0.00
466.78	28.09
466.96	0.00
467.14	28.09
467.32	0.00
467.51	0.00
467.69	0.00
467.87	0.00
468.05	0.00
468.23	70.22
468.41	25.75
468.60	0.00
468.78	28.09
468.96	42.13
469.14	37.45
469.32	0.00
469.50	0.00
469.69	0.00
469.87	0.00
470.05	0.00
470.23	0.00
470.41	0.00
470.59	0.00
470.77	23.41
470.95	0.00
471.14	35.11
471.32	16.38
471.50	46.81
471.68	0.00
471.86	0.00
472.04	0.00
472.22	0.00
472.40	0.00
472.58	2.34
472.77	0.00
472.95	0.00
473.13	128.73
473.31	39.79
473.49	0.00
473.67	0.00
473.85	9.36
474.03	30.43
474.21	133.41
474.39	11.70
474.57	44.47
474.75	0.00
474.93	0.00
475.12	0.00
475.30	21.06
475.48	18.72
475.66	63.19
475.84	0.00
476.02	0.00
476.20	67.88
476.38	0.00
476.56	84.26
476.74	35.11
476.92	56.17
477.10	18.72
477.28	63.19
477.46	18.72
477.64	53.83
477.82	42.13
478.00	14.04
478.18	0.00
478.36	46.81
478.54	0.00
478.72	72.56
478.90	30.43
479.08	60.85
479.26	23.41
479.44	0.00
479.62	30.43
479.80	58.51
479.98	16.38
480.16	0.00
480.34	0.00
480.52	0.00
480.70	84.26
480.88	44.47
481.06	91.28
481.24	0.00
481.41	42.13
481.59	11.70
481.77	74.90
481.95	0.00
482.13	93.62
482.31	105.32
482.49	23.41
482.67	65.54
482.85	102.98
483.03	65.54
483.21	117.03
483.39	138.09
483.57	88.94
483.74	32.77
483.92	25.75
484.10	28.09
484.28	9.36
484.46	191.92
484.64	112.35
484.82	114.69
485.00	18.72
485.18	53.83
485.35	4.68
485.53	25.75
485.71	49.15
485.89	0.00
486.07	39.79
486.25	100.64
486.43	4.68
486.61	7.02
486.78	95.96
486.96	77.24
487.14	39.79
487.32	56.17
487.50	60.85
487.68	102.98
487.85	42.13
488.03	93.62
488.21	142.77
488.39	135.75
488.57	112.35
488.75	21.06
488.92	411.93
489.10	88.94
489.28	187.24
489.46	77.24
489.64	124.05
489.81	189.58
489.99	126.39
490.17	105.32
490.35	203.63
490.53	124.05
490.70	72.56
490.88	187.24
491.06	138.09
491.24	184.90
491.41	168.52
491.59	159.16
491.77	0.00
491.95	128.73
492.13	100.64
492.30	140.43
492.48	128.73
492.66	135.75
492.84	46.81
493.01	142.77
493.19	184.90
493.37	149.79
493.54	189.58
493.72	149.79
493.90	175.54
494.08	72.56
494.25	159.16
494.43	196.60
494.61	159.16
494.79	93.62
494.96	217.67
495.14	138.09
495.32	140.43
495.49	145.11
495.67	189.58
495.85	114.69
496.02	189.58
496.20	182.56
496.38	159.16
496.55	147.45
496.73	191.92
496.91	187.24
497.09	306.61
497.26	117.03
497.44	184.90
497.62	177.88
497.79	217.67
497.97	131.07
498.14	168.52
498.32	133.41
498.50	138.09
498.67	224.69
498.85	135.75
499.03	220.01
499.20	142.77
499.38	217.67
499.56	170.86
499.73	196.60
499.91	175.54
500.08	184.90
500.26	236.39
500.44	191.92
500.61	227.03
500.79	184.90
500.97	217.67
501.14	250.44
501.32	187.24
501.49	182.56
501.67	173.20
501.84	149.79
502.02	187.24
502.20	159.16
502.37	266.82
502.55	220.01
502.72	191.92
502.90	194.26
503.07	196.60
503.25	177.88
503.43	145.11
503.60	184.90
503.78	227.03
503.95	182.56
504.13	236.39
504.30	203.63
504.48	271.50
504.65	255.12
504.83	243.42
505.01	236.39
505.18	177.88
505.36	231.71
505.53	238.73
505.71	248.10
505.88	292.57
506.06	224.69
506.23	102.98
506.41	222.35
506.58	252.78
506.76	330.02
506.93	205.97
507.11	182.56
507.28	245.76
507.46	203.63
507.63	182.56
507.81	234.05
507.98	257.46
508.16	212.99
508.33	198.95
508.50	210.65
508.68	220.01
508.85	224.69
509.03	250.44
509.20	191.92
509.38	273.84
509.55	156.82
509.73	304.27
509.90	191.92
510.08	248.10
510.25	280.86
510.42	184.90
510.60	236.39
510.77	294.91
510.95	308.95
511.12	189.58
511.30	327.68
511.47	255.12
511.64	362.78
511.82	255.12
511.99	372.15
512.17	198.95
512.34	238.73
512.51	222.35
512.69	241.08
512.86	273.84
513.04	245.76
513.21	255.12
513.38	217.67
513.56	257.46
513.73	173.20
513.90	227.03
514.08	229.37
514.25	205.97
514.43	234.05
514.60	238.73
514.77	266.82
514.95	222.35
515.12	234.05
515.29	231.71
515.47	252.78
515.64	245.76
515.81	276.18
515.99	203.63
516.16	189.58
516.33	250.44
516.51	212.99
516.68	212.99
516.85	121.71
517.03	91.28
517.20	271.50
517.37	337.04
517.54	241.08
517.72	285.55
517.89	248.10
518.06	93.62
518.24	255.12
518.41	297.25
518.58	306.61
518.75	248.10
518.93	334.70
519.10	262.14
519.27	255.12
519.45	257.46
519.62	308.95
519.79	278.52
519.96	290.23
520.14	285.55
520.31	201.29
520.48	252.78
520.65	222.35
520.83	301.93
521.00	280.86
521.17	337.04
521.34	285.55
521.52	201.29
521.69	271.50
521.86	339.38
522.03	327.68
522.20	271.50
522.38	290.23
522.55	299.59
522.72	250.44
522.89	315.97
523.07	393.21
523.24	353.42
523.41	318.31
523.58	315.97
523.75	322.99
523.92	332.36
524.10	292.57
524.27	344.06
524.44	320.65
524.61	294.91
524.78	264.48
524.96	341.72
525.13	234.05
525.30	337.04
525.47	287.89
525.64	297.25
525.81	259.80
525.98	198.95
526.16	224.69
526.33	238.73
526.50	266.82
526.67	201.29
526.84	163.84
527.01	330.02
527.18	269.16
527.36	264.48
527.53	276.18
527.70	402.57
527.87	348.74
528.04	341.72
528.21	297.25
528.38	332.36
528.55	330.02
528.72	376.83
528.89	428.32
529.07	369.80
529.24	271.50
529.41	355.76
529.58	332.36
529.75	353.42
529.92	248.10
530.09	227.03
530.26	355.76
530.43	322.99
530.60	322.99
530.77	313.63
530.94	376.83
531.11	351.08
531.28	299.59
531.46	322.99
531.63	360.44
531.80	397.89
531.97	337.04
532.14	290.23
532.31	369.80
532.48	280.86
532.65	285.55
532.82	290.23
532.99	280.86
533.16	285.55
533.33	313.63
533.50	248.10
533.67	294.91
533.84	266.82
534.01	280.86
534.18	334.70
534.35	306.61
534.52	337.04
534.69	414.27
534.86	266.82
535.03	318.31
535.20	355.76
535.37	362.78
535.54	318.31
535.71	379.17
535.88	407.25
536.05	320.65
536.22	332.36
536.38	318.31
536.55	273.84
536.72	351.08
536.89	299.59
537.06	290.23
537.23	306.61
537.40	376.83
537.57	325.33
537.74	386.19
537.91	383.85
538.08	346.40
538.25	311.29
538.42	341.72
538.59	287.89
538.75	290.23
538.92	266.82
539.09	322.99
539.26	262.14
539.43	315.97
539.60	259.80
539.77	388.53
539.94	299.59
540.11	351.08
540.28	238.73
540.44	294.91
540.61	201.29
540.78	383.85
540.95	327.68
541.12	477.47
541.29	332.36
541.46	339.38
541.62	299.59
541.79	271.50
541.96	341.72
542.13	365.12
542.30	397.89
542.47	318.31
542.63	283.20
542.80	313.63
542.97	383.85
543.14	367.46
543.31	390.87
543.48	395.55
543.64	262.14
543.81	334.70
543.98	280.86
544.15	266.82
544.32	311.29
544.48	278.52
544.65	287.89
544.82	388.53
544.99	245.76
545.16	339.38
545.32	367.46
545.49	358.10
545.66	404.91
545.83	325.33
546.00	238.73
546.16	325.33
546.33	294.91
546.50	330.02
546.67	327.68
546.83	320.65
547.00	348.74
547.17	339.38
547.34	290.23
547.50	334.70
547.67	248.10
547.84	248.10
548.00	386.19
548.17	308.95
548.34	337.04
548.51	372.15
548.67	437.68
548.84	285.55
549.01	425.98
549.18	344.06
549.34	353.42
549.51	301.93
549.68	315.97
549.84	395.55
550.01	297.25
550.18	491.51
550.34	407.25
550.51	236.39
550.68	416.62
550.84	374.49
551.01	311.29
551.18	409.59
551.34	379.17
551.51	283.20
551.68	346.40
551.84	465.77
552.01	320.65
552.18	341.72
552.34	332.36
552.51	320.65
552.68	365.12
552.84	362.78
553.01	332.36
553.18	315.97
553.34	339.38
553.51	299.59
553.67	320.65
553.84	493.85
554.01	355.76
554.17	393.21
554.34	273.84
554.51	428.32
554.67	395.55
554.84	318.31
555.00	238.73
555.17	355.76
555.33	381.51
555.50	325.33
555.67	353.42
555.83	339.38
556.00	306.61
556.16	561.73
556.33	346.40
556.50	269.16
556.66	318.31
556.83	255.12
556.99	390.87
557.16	388.53
557.32	299.59
557.49	339.38
557.65	266.82
557.82	369.80
557.98	299.59
558.15	320.65
558.32	327.68
558.48	262.14
558.65	283.20
558.81	306.61
558.98	285.55
559.14	276.18
559.31	334.70
559.47	311.29
559.64	315.97
559.80	269.16
559.97	285.55
560.13	266.82
560.30	318.31
560.46	379.17
560.63	280.86
560.79	280.86
560.96	393.21
561.12	217.67
561.29	297.25
561.45	365.12
561.61	297.25
561.78	423.64
561.94	339.38
562.11	280.86
562.27	365.12
562.44	334.70
562.60	290.23
562.77	365.12
562.93	430.66
563.10	360.44
563.26	400.23
563.42	393.21
563.59	250.44
563.75	362.78
563.92	372.15
564.08	339.38
564.24	348.74
564.41	461.09
564.57	306.61
564.74	294.91
564.90	346.40
565.07	220.01
565.23	301.93
565.39	283.20
565.56	421.30
565.72	259.80
565.88	308.95
566.05	306.61
566.21	365.12
566.38	287.89
566.54	402.57
566.70	271.50
566.87	315.97
567.03	306.61
567.19	292.57
567.36	386.19
567.52	365.12
567.68	369.80
567.85	362.78
568.01	360.44
568.17	266.82
568.34	330.02
568.50	376.83
568.66	372.15
568.83	407.25
568.99	297.25
569.15	376.83
569.32	330.02
569.48	311.29
569.64	276.18
569.81	301.93
569.97	243.42
570.13	322.99
570.30	271.50
570.46	297.25
570.62	290.23
570.78	257.46
570.95	287.89
571.11	339.38
571.27	346.40
571.43	327.68
571.60	264.48
571.76	344.06
571.92	318.31
572.09	245.76
572.25	301.93
572.41	320.65
572.57	297.25
572.74	330.02
572.90	367.46
573.06	365.12
573.22	285.55
573.38	341.72
573.55	379.17
573.71	421.30
573.87	313.63
574.03	292.57
574.20	388.53
574.36	383.85
574.52	271.50
574.68	332.36
574.84	337.04
575.01	231.71
575.17	290.23
575.33	315.97
575.49	388.53
575.65	341.72
575.82	322.99
575.98	344.06
576.14	346.40
576.30	245.76
576.46	301.93
576.62	397.89
576.79	365.12
576.95	437.68
577.11	266.82
577.27	308.95
577.43	393.21
577.59	355.76
577.75	285.55
577.92	362.78
578.08	271.50
578.24	257.46
578.40	308.95
578.56	311.29
578.72	330.02
578.88	278.52
579.04	276.18
579.21	255.12
579.37	278.52
579.53	191.92
579.69	418.96
579.85	407.25
580.01	313.63
580.17	241.08
580.33	337.04
580.49	353.42
580.65	351.08
580.82	322.99
580.98	262.14
581.14	306.61
581.30	334.70
581.46	304.27
581.62	376.83
581.78	297.25
581.94	304.27
582.10	304.27
582.26	353.42
582.42	236.39
582.58	313.63
582.74	355.76
582.90	337.04
583.06	381.51
583.22	294.91
583.38	313.63
583.54	327.68
583.70	348.74
583.86	337.04
584.02	360.44
584.18	376.83
584.34	369.80
584.50	320.65
584.66	308.95
584.82	369.80
584.98	358.10
585.14	306.61
585.30	353.42
585.46	315.97
585.62	273.84
585.78	294.91
585.94	358.10
586.10	348.74
586.26	259.80
586.42	325.33
586.58	330.02
586.74	255.12
586.90	271.50
587.06	308.95
587.22	330.02
587.38	332.36
587.54	283.20
587.70	379.17
587.86	315.97
588.02	273.84
588.18	257.46
588.34	271.50
588.49	154.48
588.65	285.55
588.81	152.13
588.97	166.18
589.13	248.10
589.29	250.44
589.45	292.57
589.61	276.18
589.77	306.61
589.93	238.73
590.08	318.31
590.24	269.16
590.40	367.46
590.56	278.52
590.72	313.63
590.88	362.78
591.04	301.93
591.20	287.89
591.35	301.93
591.51	259.80
591.67	220.01
591.83	234.05
591.99	311.29
592.15	205.97
592.31	362.78
592.46	327.68
592.62	294.91
592.78	257.46
592.94	292.57
593.10	271.50
593.26	332.36
593.41	259.80
593.57	238.73
593.73	318.31
593.89	250.44
594.05	287.89
594.20	278.52
594.36	301.93
594.52	327.68
594.68	208.31
594.84	306.61
594.99	294.91
595.15	297.25
595.31	320.65
595.47	367.46
595.62	348.74
595.78	318.31
595.94	243.42
596.10	315.97
596.25	367.46
596.41	376.83
596.57	278.52
596.73	205.97
596.88	292.57
597.04	276.18
597.20	257.46
597.36	320.65
597.51	355.76
597.67	280.86
597.83	290.23
597.99	234.05
598.14	234.05
598.30	255.12
598.46	304.27
598.61	294.91
598.77	330.02
598.93	215.33
599.09	243.42
599.24	397.89
599.40	255.12
599.56	257.46
599.71	245.76
599.87	271.50
600.03	297.25
600.18	311.29
600.34	259.80
600.50	301.93
600.65	292.57
600.81	231.71
600.97	322.99
601.12	234.05
601.28	227.03
601.44	210.65
601.59	250.44
601.75	276.18
601.91	290.23
602.06	224.69
602.22	283.20
602.37	231.71
602.53	236.39
602.69	241.08
602.84	257.46
603.00	257.46
603.16	194.26
603.31	278.52
603.47	250.44
603.62	220.01
603.78	259.80
603.94	435.34
604.09	334.70
604.25	252.78
604.40	248.10
604.56	252.78
604.71	243.42
604.87	227.03
605.03	276.18
605.18	285.55
605.34	250.44
605.49	259.80
605.65	133.41
605.80	229.37
605.96	234.05
606.12	227.03
606.27	236.39
606.43	250.44
606.58	243.42
606.74	217.67
606.89	320.65
607.05	290.23
607.20	224.69
607.36	334.70
607.51	229.37
607.67	287.89
607.82	194.26
607.98	332.36
608.13	227.03
608.29	311.29
608.44	362.78
608.60	184.90
608.75	269.16
608.91	252.78
609.06	245.76
609.22	215.33
609.37	126.39
609.53	170.86
609.68	241.08
609.84	243.42
609.99	187.24
610.15	290.23
610.30	255.12
610.46	318.31
610.61	271.50
610.76	196.60
610.92	262.14
611.07	252.78
611.23	346.40
611.38	337.04
611.54	187.24
611.69	196.60
611.84	250.44
612.00	252.78
612.15	229.37
612.31	180.22
612.46	262.14
612.62	241.08
612.77	259.80
612.92	248.10
613.08	330.02
613.23	285.55
613.39	191.92
613.54	166.18
613.69	245.76
613.85	198.95
614.00	238.73
614.15	208.31
614.31	287.89
614.46	294.91
614.62	292.57
614.77	283.20
614.92	187.24
615.08	311.29
615.23	229.37
615.38	264.48
615.54	173.20
615.69	215.33
615.84	220.01
616.00	203.63
616.15	110.01
616.30	133.41
616.46	189.58
616.61	107.66
616.76	147.45
616.92	285.55
617.07	259.80
617.22	201.29
617.37	236.39
617.53	170.86
617.68	236.39
617.83	217.67
617.99	283.20
618.14	367.46
618.29	168.52
618.45	304.27
618.60	290.23
618.75	147.45
618.90	203.63
619.06	215.33
619.21	252.78
619.36	245.76
619.51	271.50
619.67	205.97
619.82	222.35
619.97	222.35
620.12	231.71
620.28	297.25
620.43	222.35
620.58	229.37
620.73	278.52
620.89	229.37
621.04	257.46
621.19	250.44
621.34	126.39
621.49	182.56
621.65	264.48
621.80	161.50
621.95	241.08
622.10	198.95
622.25	175.54
622.41	210.65
622.56	320.65
622.71	212.99
622.86	203.63
623.01	215.33
623.16	236.39
623.32	124.05
