SpectraSuite Data File
++++++++++++++++++++++++++++++++++++
Date: Mon Oct 07 15:00:05 GMT-05:00 2013
User: price-jones
Dark Spectrum Present: No
Reference Spectrum Present: No
Number of Sampled Component Spectra: 1
Spectrometers: USB2+H05261
Integration Time (usec): 1000000 (USB2+H05261)
Spectra Averaged: 1 (USB2+H05261)
Boxcar Smoothing: 0 (USB2+H05261)
Correct for Electrical Dark: No (USB2+H05261)
Strobe/Lamp Enabled: No (USB2+H05261)
Correct for Detector Non-linearity: No (USB2+H05261)
Correct for Stray Light: No (USB2+H05261)
Number of Pixels in Processed Spectrum: 2048
>>>>>Begin Processed Spectral Data<<<<<
365.73	0.00
365.92	0.00
366.12	0.00
366.32	0.00
366.52	0.00
366.72	245.76
366.91	0.00
367.11	175.54
367.31	133.41
367.51	170.86
367.70	93.62
367.90	376.83
368.10	187.24
368.30	168.52
368.49	0.00
368.69	463.43
368.89	112.35
369.09	0.00
369.28	117.03
369.48	0.00
369.68	86.60
369.87	187.24
370.07	23.41
370.27	505.56
370.47	313.63
370.66	243.42
370.86	578.11
371.06	802.80
371.25	1048.56
371.45	400.23
371.65	755.99
371.84	379.17
372.04	262.14
372.24	521.94
372.44	390.87
372.63	514.92
372.83	973.66
373.03	510.24
373.22	379.17
373.42	372.15
373.62	517.26
373.81	526.62
374.01	784.08
374.21	725.57
374.40	444.70
374.60	786.42
374.79	493.85
374.99	423.64
375.19	557.05
375.38	683.44
375.58	550.03
375.78	856.64
375.97	737.27
376.17	1179.63
376.37	526.62
376.56	664.71
376.76	374.49
376.95	344.06
377.15	706.84
377.35	667.05
377.54	683.44
377.74	418.96
377.93	475.13
378.13	648.33
378.33	716.20
378.52	533.64
378.72	854.30
378.91	746.63
379.11	472.79
379.31	479.81
379.50	360.44
379.70	753.65
379.89	788.76
380.09	514.92
380.28	280.86
380.48	535.98
380.68	376.83
380.87	297.25
381.07	538.32
381.26	854.30
381.46	341.72
381.65	594.50
381.85	421.30
382.04	709.18
382.24	603.86
382.43	449.38
382.63	369.80
382.83	507.90
383.02	809.83
383.22	936.21
383.41	372.15
383.61	512.58
383.80	823.87
384.00	594.50
384.19	531.30
384.39	599.18
384.58	451.72
384.78	760.67
384.97	667.05
385.17	585.13
385.36	528.96
385.56	812.17
385.75	322.99
385.95	585.13
386.14	830.89
386.34	423.64
386.53	664.71
386.72	444.70
386.92	901.11
387.11	770.04
387.31	795.78
387.50	437.68
387.70	348.74
387.89	543.00
388.09	465.77
388.28	433.00
388.48	458.74
388.67	781.74
388.86	493.85
389.06	634.29
389.25	793.44
389.45	737.27
389.64	535.98
389.84	1053.24
390.03	683.44
390.22	610.88
390.42	486.83
390.61	482.15
390.81	339.38
391.00	566.41
391.19	915.15
391.39	552.37
391.58	798.12
391.78	608.54
391.97	594.50
392.16	430.66
392.36	922.17
392.55	830.89
392.75	578.11
392.94	454.06
393.13	807.48
393.33	311.29
393.52	355.76
393.71	901.11
393.91	575.77
394.10	423.64
394.29	449.38
394.49	571.09
394.68	709.18
394.88	940.90
395.07	1020.47
395.26	748.97
395.46	685.78
395.65	943.24
395.84	826.21
396.04	1523.69
396.23	690.46
396.42	461.09
396.62	718.54
396.81	758.33
397.00	622.58
397.19	638.97
397.39	667.05
397.58	1011.11
397.77	643.65
397.97	741.95
398.16	777.06
398.35	760.67
398.55	587.47
398.74	688.12
398.93	1025.15
399.12	575.77
399.32	905.79
399.51	699.82
399.70	929.19
399.90	866.00
400.09	819.19
400.28	1076.65
400.47	664.71
400.67	1125.80
400.86	781.74
401.05	1013.45
401.24	1083.67
401.44	926.85
401.63	1022.81
401.82	1130.48
402.01	669.39
402.21	980.68
402.40	880.04
402.59	753.65
402.78	772.38
402.97	751.31
403.17	842.59
403.36	870.68
403.55	767.70
403.74	809.83
403.93	751.31
404.13	1088.35
404.32	671.73
404.51	767.70
404.70	1156.22
404.89	858.98
405.09	1458.15
405.28	938.55
405.47	704.50
405.66	1001.75
405.85	1071.97
406.05	952.60
406.24	807.48
406.43	959.62
406.62	1064.94
406.81	1612.63
407.00	1095.37
407.20	868.34
407.39	887.06
407.58	847.27
407.77	1057.92
407.96	1362.19
408.15	1149.20
408.34	1095.37
408.54	945.58
408.73	1025.15
408.92	971.32
409.11	1130.48
409.30	1273.25
409.49	795.78
409.68	891.74
409.87	940.90
410.07	772.38
410.26	1022.81
410.45	924.51
410.64	695.14
410.83	1060.26
411.02	905.79
411.21	1200.69
411.40	1252.19
411.59	1025.15
411.78	945.58
411.98	1020.47
412.17	931.53
412.36	1013.45
412.55	861.32
412.74	1196.01
412.93	1502.62
413.12	880.04
413.31	1338.79
413.50	1149.20
413.69	1046.22
413.88	1526.03
414.07	1135.16
414.26	1060.26
414.45	1018.13
414.64	1121.12
414.83	1242.82
415.02	1170.27
415.22	1303.68
415.41	1453.47
415.60	1020.47
415.79	1032.18
415.98	1572.84
416.17	1151.54
416.36	1123.46
416.55	1090.69
416.74	1352.83
416.93	1490.92
417.12	1149.20
417.31	1090.69
417.50	1046.22
417.69	1673.48
417.88	1177.29
418.07	933.87
418.26	1076.65
418.45	1153.88
418.64	1680.50
418.83	1299.00
419.02	1238.14
419.21	1254.53
419.39	1177.29
419.58	1071.97
419.77	1067.28
419.96	1425.39
420.15	1638.38
420.34	1364.53
420.53	1299.00
420.72	1423.05
420.91	1364.53
421.10	1214.74
421.29	1404.32
421.48	1336.45
421.67	1493.26
421.86	1203.04
422.05	1245.16
422.24	1029.84
422.43	1280.27
422.61	987.71
422.80	1100.05
422.99	1341.13
423.18	1198.35
423.37	1636.03
423.56	1380.92
423.75	1334.11
423.94	1128.14
424.13	1139.84
424.32	1165.59
424.50	1156.22
424.69	1240.48
424.88	1593.90
425.07	1214.74
425.26	1338.79
425.45	1352.83
425.64	1071.97
425.83	1270.91
426.01	1607.95
426.20	1474.54
426.39	1188.99
426.58	1053.24
426.77	1181.97
426.96	1364.53
427.15	1238.14
427.33	1151.54
427.52	1306.02
427.71	1207.72
427.90	1411.34
428.09	1139.84
428.28	945.58
428.46	1205.38
428.65	1357.51
428.84	1224.10
429.03	1614.97
429.22	1111.75
429.40	1032.18
429.59	938.55
429.78	1387.94
429.97	987.71
430.16	978.34
430.34	1139.84
430.53	1020.47
430.72	1121.12
430.91	1458.15
431.10	1107.07
431.28	1322.40
431.47	1621.99
431.66	1535.39
431.85	1245.16
432.03	1247.51
432.22	1916.90
432.41	1256.87
432.60	1732.00
432.79	1331.76
432.97	1383.26
433.16	1217.08
433.35	1142.18
433.54	1214.74
433.72	1488.58
433.91	1451.13
434.10	1303.68
434.28	1409.00
434.47	1409.00
434.66	1549.43
434.85	1352.83
435.03	1397.30
435.22	1816.26
435.41	2078.40
435.59	1764.76
435.78	1671.14
435.97	1397.30
436.16	1741.36
436.34	1521.35
436.53	1584.54
436.72	1811.57
436.90	1724.97
437.09	1469.86
437.28	1544.75
437.46	1451.13
437.65	1722.63
437.84	1575.18
438.02	1411.34
438.21	1465.18
438.40	1289.64
438.58	1240.48
438.77	1542.41
438.96	1610.29
439.14	1376.24
439.33	1816.26
439.52	1394.96
439.70	1418.36
439.89	1696.89
440.08	1701.57
440.26	1605.61
440.45	1980.09
440.63	1764.76
440.82	1654.76
441.01	1577.52
441.19	1624.33
441.38	1640.72
441.57	1724.97
441.75	2033.93
441.94	2003.50
442.12	1713.27
442.31	1666.46
442.50	1664.12
442.68	1722.63
442.87	1685.19
443.05	1643.06
443.24	1806.89
443.43	1930.94
443.61	2160.31
443.80	1734.34
443.98	1612.63
444.17	1720.29
444.35	2026.90
444.54	1771.79
444.73	1769.44
444.91	2087.76
445.10	1558.80
445.28	1533.05
445.47	1710.93
445.65	1699.23
445.84	1664.12
446.02	1778.81
446.21	1621.99
446.39	1675.82
446.58	1895.83
446.77	1696.89
446.95	1762.42
447.14	1947.33
447.32	2176.70
447.51	1753.06
447.69	1905.20
447.88	1846.68
448.06	2153.29
448.25	1947.33
448.43	1706.25
448.62	1624.33
448.80	1827.96
448.99	2005.84
449.17	1678.16
449.36	1631.35
449.54	2062.01
449.73	1842.00
449.91	2015.20
450.10	1877.11
450.28	2722.04
450.46	2502.03
450.65	2265.64
450.83	2050.31
451.02	1926.26
451.20	1856.04
451.39	1940.30
451.57	1884.13
451.76	1748.38
451.94	1839.66
452.13	2040.95
452.31	2202.44
452.49	1954.35
452.68	1612.63
452.86	1886.47
453.05	2415.43
453.23	1923.92
453.42	1685.19
453.60	1863.07
453.78	1959.03
453.97	1774.13
454.15	1769.44
454.34	1809.23
454.52	1799.87
454.70	2345.22
454.89	2143.93
455.07	1830.30
455.26	2087.76
455.44	2162.66
455.62	1959.03
455.81	1973.07
455.99	2108.82
456.17	2143.93
456.36	1895.83
456.54	1996.48
456.73	1914.56
456.91	1975.41
457.09	2134.57
457.28	2331.17
457.46	2008.18
457.64	2310.11
457.83	2071.37
458.01	1905.20
458.19	2071.37
458.38	1870.09
458.56	2113.50
458.74	1797.53
458.93	2111.16
459.11	2272.66
459.29	1860.73
459.48	2214.15
459.66	2502.03
459.84	2167.34
460.03	3070.78
460.21	2385.01
460.39	2113.50
460.57	2399.05
460.76	2115.84
460.94	2139.25
461.12	2602.68
461.31	2485.65
461.49	2024.56
461.67	2050.31
461.85	2176.70
462.04	2270.32
462.22	8730.20
462.40	2502.03
462.59	2431.82
462.77	1961.37
462.95	2211.81
463.13	1930.94
463.32	2424.80
463.50	2211.81
463.68	2307.77
463.86	2179.04
464.05	2087.76
464.23	2392.03
464.41	2218.83
464.59	1900.52
464.78	2221.17
464.96	1968.39
465.14	2139.25
465.32	2092.44
465.50	2347.56
465.69	2403.73
465.87	2045.63
466.05	2270.32
466.23	1863.07
466.41	2043.29
466.60	2214.15
466.78	2031.58
466.96	2438.84
467.14	2193.08
467.32	2401.39
467.51	2214.15
467.69	2235.21
467.87	2661.19
468.05	2141.59
468.23	2651.83
468.41	2415.43
468.60	2143.93
468.78	2239.89
468.96	2532.46
469.14	2401.39
469.32	2024.56
469.50	1966.05
469.69	2298.41
469.87	2111.16
470.05	2150.95
470.23	2139.25
470.41	2062.01
470.59	2026.90
470.77	2218.83
470.95	2174.36
471.14	2502.03
471.32	2216.49
471.50	2810.98
471.68	2401.39
471.86	2502.03
472.04	2181.38
472.22	2406.07
472.40	2101.80
472.58	2190.74
472.77	2108.82
472.95	2356.92
473.13	2843.75
473.31	2813.32
473.49	2045.63
473.67	2216.49
473.85	2511.39
474.03	2469.27
474.21	2349.90
474.39	2775.88
474.57	2876.52
474.75	2551.18
474.93	2232.87
475.12	2214.15
475.30	2331.17
475.48	2427.14
475.66	2586.29
475.84	2420.11
476.02	2427.14
476.20	2656.51
476.38	2469.27
476.56	3276.75
476.74	2537.14
476.92	2478.63
477.10	2520.76
477.28	2836.73
477.46	2644.81
477.64	2806.30
477.82	2609.70
478.00	2612.04
478.18	2665.87
478.36	2527.78
478.54	2562.89
478.72	2562.89
478.90	2689.28
479.08	2794.60
479.26	2850.77
479.44	2675.23
479.62	2590.97
479.80	2731.41
479.98	2513.74
480.16	2562.89
480.34	2850.77
480.52	2630.76
480.70	3056.74
480.88	2705.66
481.06	2708.00
481.24	2740.77
481.41	2810.98
481.59	3117.59
481.77	3005.25
481.95	2757.15
482.13	3288.45
482.31	2970.14
482.49	2785.24
482.67	3089.51
482.85	3103.55
483.03	3157.38
483.21	3098.87
483.39	3014.61
483.57	2995.89
483.74	3400.80
483.92	3045.04
484.10	2895.24
484.28	3405.48
484.46	3875.93
484.64	3087.17
484.82	2979.50
485.00	2904.60
485.18	3077.80
485.35	2930.35
485.53	2452.88
485.71	2958.44
485.89	2338.20
486.07	2705.66
486.25	3646.55
486.43	3068.44
486.61	3218.24
486.78	3197.17
486.96	2747.79
487.14	3126.96
487.32	3272.07
487.50	3026.31
487.68	3588.04
487.85	3117.59
488.03	3459.31
488.21	3737.84
488.39	3143.34
488.57	3438.25
488.75	3243.98
488.92	7045.01
489.10	3744.86
489.28	4051.47
489.46	3445.27
489.64	3674.64
489.81	3714.43
489.99	3805.71
490.17	3679.32
490.35	4535.96
490.53	3609.11
490.70	3316.54
490.88	3798.69
491.06	3686.34
491.24	3838.48
491.41	3889.97
491.59	3569.32
491.77	3255.69
491.95	3478.04
492.13	3506.12
492.30	3693.37
492.48	3747.20
492.66	3892.31
492.84	3550.59
493.01	3798.69
493.19	3712.09
493.37	4269.14
493.54	3988.27
493.72	3981.25
493.90	3955.51
494.08	3784.65
494.25	4435.32
494.43	4243.39
494.61	3896.99
494.79	3936.78
494.96	3805.71
495.14	3969.55
495.32	3845.50
495.49	3983.59
495.67	4266.80
495.85	4007.00
496.02	4018.70
496.20	4271.48
496.38	4259.78
496.55	4243.39
496.73	4311.27
496.91	4170.83
497.09	4545.32
497.26	4311.27
497.44	4128.70
497.62	4049.13
497.79	4037.42
497.97	4063.17
498.14	4304.25
498.32	4224.67
498.50	4236.37
498.67	4243.39
498.85	4315.95
499.03	4145.09
499.20	4329.99
499.38	4283.18
499.56	4393.19
499.73	4748.95
499.91	4521.92
500.08	4348.72
500.26	4189.56
500.44	4016.36
500.61	4472.76
500.79	3964.87
500.97	4428.29
501.14	4624.90
501.32	4217.65
501.49	4470.42
501.67	4159.13
501.84	4411.91
502.02	4152.11
502.20	4875.34
502.37	4573.41
502.55	4374.46
502.72	4285.52
502.90	4615.54
503.07	4510.21
503.25	4531.28
503.43	4124.02
503.60	4112.32
503.78	4463.40
503.95	4306.59
504.13	4425.95
504.30	4702.14
504.48	4786.40
504.65	5027.47
504.83	4826.18
505.01	4554.68
505.18	4765.33
505.36	4723.20
505.53	4767.67
505.71	4660.01
505.88	5121.09
506.06	4601.49
506.23	4561.70
506.41	4435.32
506.58	4571.07
506.76	4765.33
506.93	4601.49
507.11	4702.14
507.28	4367.44
507.46	4369.78
507.63	4521.92
507.81	4285.52
507.98	4510.21
508.16	4664.69
508.33	4550.00
508.50	4821.50
508.68	4685.75
508.85	4770.01
509.03	4617.88
509.20	4610.86
509.38	4697.46
509.55	5032.15
509.73	4868.31
509.90	5090.67
510.08	4762.99
510.25	4917.47
510.42	4748.95
510.60	4734.90
510.77	5102.37
510.95	5163.22
511.12	4870.65
511.30	5029.81
511.47	5100.03
511.64	5465.15
511.82	4877.68
511.99	4809.80
512.17	4681.07
512.34	4566.39
512.51	4718.52
512.69	4781.71
512.86	5177.26
513.04	4791.08
513.21	4994.70
513.38	4713.84
513.56	4711.50
513.73	4580.43
513.90	4475.10
514.08	4524.26
514.25	4912.78
514.43	4919.81
514.60	4655.33
514.77	4767.67
514.95	5165.56
515.12	4753.63
515.29	5097.69
515.47	4933.85
515.64	4917.47
515.81	4821.50
515.99	5355.15
516.16	4657.67
516.33	4559.36
516.51	4161.47
516.68	3866.56
516.85	4121.68
517.03	4329.99
517.20	4720.86
517.37	4957.25
517.54	5078.96
517.72	4589.79
517.89	4007.00
518.06	4011.68
518.24	4933.85
518.41	5053.22
518.58	4940.87
518.75	4582.77
518.93	4800.44
519.10	4917.47
519.27	4830.87
519.45	4992.36
519.62	4908.10
519.79	5165.56
519.96	4828.53
520.14	4884.70
520.31	5228.76
520.48	4805.12
520.65	5015.77
520.83	5362.17
521.00	5392.59
521.17	5399.62
521.34	5060.24
521.52	5078.96
521.69	5238.12
521.86	5343.44
522.03	5336.42
522.20	5582.18
522.38	4819.16
522.55	4997.04
522.72	4751.29
522.89	5277.91
523.07	5682.82
523.24	5107.05
523.41	5078.96
523.58	5198.33
523.75	5458.13
523.92	5076.62
524.10	5249.82
524.27	5406.64
524.44	5160.88
524.61	5734.31
524.78	5219.39
524.96	5516.64
525.13	5324.72
525.30	5554.09
525.47	5593.88
525.64	5432.38
525.81	5401.96
525.98	5001.72
526.16	4924.49
526.33	4641.28
526.50	4624.90
526.67	4526.60
526.84	4524.26
527.01	4760.65
527.18	5172.58
527.36	5322.38
527.53	5200.67
527.70	5633.67
527.87	5287.27
528.04	5806.87
528.21	5224.08
528.38	5811.55
528.55	6057.31
528.72	6087.73
528.89	6431.79
529.07	5593.88
529.24	5362.17
529.41	5818.57
529.58	5565.79
529.75	5320.04
529.92	5455.79
530.09	5605.58
530.26	5966.03
530.43	5673.46
530.60	5530.69
530.77	5750.70
530.94	6008.16
531.11	5872.40
531.28	5481.53
531.46	5488.56
531.63	5537.71
531.80	5657.07
531.97	5352.81
532.14	5233.44
532.31	5132.79
532.48	5294.29
532.65	5313.02
532.82	5034.49
532.99	5380.89
533.16	5507.28
533.33	5568.13
533.50	5350.46
533.67	5336.42
533.84	5467.49
534.01	5617.29
534.18	5385.57
534.35	5643.03
534.52	5582.18
534.69	6256.25
534.86	5589.20
535.03	5598.56
535.20	5645.37
535.37	6052.63
535.54	5916.87
535.71	5738.99
535.88	6064.33
536.05	5675.80
536.22	5778.78
536.38	5329.40
536.55	5432.38
536.72	5612.60
536.89	5308.34
537.06	5518.98
537.23	5509.62
537.40	5673.46
537.57	5645.37
537.74	5874.74
537.91	5905.17
538.08	5865.38
538.25	5860.70
538.42	5661.76
538.59	5778.78
538.75	5352.81
538.92	5287.27
539.09	5647.71
539.26	5348.12
539.43	5771.76
539.60	5467.49
539.77	5575.16
539.94	5401.96
540.11	5366.85
540.28	5748.36
540.44	5785.80
540.61	5322.38
540.78	5167.90
540.95	5268.55
541.12	5991.77
541.29	5495.58
541.46	5944.96
541.62	5720.27
541.79	5441.75
541.96	5446.43
542.13	5359.83
542.30	5366.85
542.47	5802.19
542.63	5561.11
542.80	5605.58
542.97	5844.32
543.14	5523.66
543.31	5666.44
543.48	5671.12
543.64	5886.45
543.81	5699.20
543.98	5556.43
544.15	5317.70
544.32	5612.60
544.48	5647.71
544.65	5710.91
544.82	5533.03
544.99	5724.95
545.16	5905.17
545.32	5612.60
545.49	5849.00
545.66	5872.40
545.83	5666.44
546.00	5434.72
546.16	5628.99
546.33	5584.52
546.50	5617.29
546.67	6057.31
546.83	5893.47
547.00	5603.24
547.17	5500.26
547.34	5310.68
547.50	5657.07
547.67	5579.84
547.84	5432.38
548.00	5788.14
548.17	5689.84
548.34	5666.44
548.51	6186.04
548.67	5898.15
548.84	5621.97
549.01	5729.63
549.18	5870.06
549.34	5825.59
549.51	6010.50
549.68	5825.59
549.84	5668.78
550.01	5495.58
550.18	7084.80
550.34	6509.03
550.51	5797.51
550.68	6312.42
550.84	5425.36
551.01	5846.66
551.18	5912.19
551.34	5776.44
551.51	5605.58
551.68	5734.31
551.84	5959.00
552.01	5638.35
552.18	5661.76
552.34	5668.78
552.51	5558.77
552.68	5865.38
552.84	5509.62
553.01	5853.68
553.18	6003.47
553.34	5706.23
553.51	5582.18
553.67	5879.43
553.84	6487.96
554.01	5982.41
554.17	5902.83
554.34	5804.53
554.51	5902.83
554.67	6239.87
554.84	6134.54
555.00	5860.70
555.17	5832.62
555.33	6066.67
555.50	5865.38
555.67	5886.45
555.83	5561.11
556.00	5647.71
556.16	7709.72
556.33	5900.49
556.50	5692.18
556.66	5687.50
556.83	5572.82
556.99	5404.30
557.16	5589.20
557.32	5507.28
557.49	5589.20
557.65	5486.22
557.82	5514.30
557.98	5771.76
558.15	5313.02
558.32	5298.97
558.48	5315.36
558.65	5308.34
558.81	5692.18
558.98	5366.85
559.14	5813.89
559.31	5425.36
559.47	5736.65
559.64	5432.38
559.80	5507.28
559.97	5167.90
560.13	5568.13
560.30	5444.09
560.46	5657.07
560.63	5757.72
560.79	5727.29
560.96	5603.24
561.12	5343.44
561.29	5526.00
561.45	5364.51
561.61	5706.23
561.78	6572.22
561.94	5589.20
562.11	5331.74
562.27	5434.72
562.44	5408.98
562.60	5511.96
562.77	5614.95
562.93	6579.25
563.10	5818.57
563.26	5565.79
563.42	5816.23
563.59	5575.16
563.75	5528.35
563.92	5966.03
564.08	5701.54
564.24	5888.79
564.41	6223.48
564.57	5526.00
564.74	5598.56
564.90	5708.57
565.07	5788.14
565.23	5692.18
565.39	5205.35
565.56	5582.18
565.72	5195.99
565.88	5345.78
566.05	5320.04
566.21	5434.72
566.38	5689.84
566.54	5743.67
566.70	5542.39
566.87	5633.67
567.03	5371.53
567.19	5682.82
567.36	5689.84
567.52	5338.76
567.68	5738.99
567.85	5469.83
568.01	5345.78
568.17	5118.75
568.34	5348.12
568.50	5710.91
568.66	5181.95
568.83	6317.11
568.99	5416.00
569.15	5675.80
569.32	5486.22
569.48	5348.12
569.64	5217.05
569.81	5434.72
569.97	5289.61
570.13	5521.32
570.30	5198.33
570.46	5156.20
570.62	5273.23
570.78	5095.35
570.95	5093.01
571.11	5837.30
571.27	5921.56
571.43	5095.35
571.60	5540.05
571.76	5362.17
571.92	5591.54
572.09	5533.03
572.25	5584.52
572.41	5598.56
572.57	5614.95
572.74	6120.50
572.90	5682.82
573.06	5628.99
573.22	5722.61
573.38	5816.23
573.55	5724.95
573.71	5844.32
573.87	5659.42
574.03	5416.00
574.20	5423.02
574.36	5811.55
574.52	5378.55
574.68	5291.95
574.84	5469.83
575.01	5334.08
575.17	5516.64
575.33	5437.06
575.49	5771.76
575.65	5666.44
575.82	5523.66
575.98	6129.86
576.14	5362.17
576.30	5287.27
576.46	5423.02
576.62	5526.00
576.79	5526.00
576.95	5806.87
577.11	5366.85
577.27	5191.31
577.43	5799.85
577.59	5654.73
577.75	5322.38
577.92	5188.97
578.08	5135.14
578.24	5095.35
578.40	5523.66
578.56	5746.02
578.72	5841.98
578.88	5565.79
579.04	5343.44
579.21	5472.17
579.37	5341.10
579.53	5291.95
579.69	5671.12
579.85	5320.04
580.01	5614.95
580.17	5266.21
580.33	5387.91
580.49	5418.34
580.65	5561.11
580.82	5458.13
580.98	5406.64
581.14	5378.55
581.30	5839.64
581.46	5554.09
581.62	5731.97
581.78	5366.85
581.94	5654.73
582.10	5280.25
582.26	5561.11
582.42	5427.70
582.58	5631.33
582.74	5638.35
582.90	5523.66
583.06	5689.84
583.22	5558.77
583.38	5514.30
583.54	5214.71
583.70	5954.32
583.86	5645.37
584.02	5455.79
584.18	5961.34
584.34	5315.36
584.50	5598.56
584.66	5530.69
584.82	5364.51
584.98	5434.72
585.14	5275.57
585.30	5640.69
585.46	5233.44
585.62	5170.24
585.78	5240.46
585.94	5537.71
586.10	5434.72
586.26	5542.39
586.42	6090.07
586.58	5738.99
586.74	5570.48
586.90	5537.71
587.06	5570.48
587.22	5542.39
587.38	5254.50
587.54	5252.16
587.70	5685.16
587.86	5701.54
588.02	5221.74
588.18	5287.27
588.34	5200.67
588.49	4491.49
588.65	4554.68
588.81	4561.70
588.97	4402.55
589.13	4559.36
589.29	4800.44
589.45	5013.43
589.61	4987.68
589.77	5327.06
589.93	4987.68
590.08	5121.09
590.24	4802.78
590.40	5195.99
590.56	5362.17
590.72	5188.97
590.88	4940.87
591.04	5109.39
591.20	5060.24
591.35	5706.23
591.51	5078.96
591.67	5071.94
591.83	4894.06
591.99	5156.20
592.15	5448.77
592.31	5296.63
592.46	5308.34
592.62	5437.06
592.78	4987.68
592.94	5025.13
593.10	4980.66
593.26	5067.26
593.41	5481.53
593.57	5181.95
593.73	5144.50
593.89	5324.72
594.05	5296.63
594.20	5153.86
594.36	5343.44
594.52	4973.64
594.68	5170.24
594.84	5310.68
594.99	5650.05
595.15	5301.31
595.31	5313.02
595.47	5738.99
595.62	5254.50
595.78	5219.39
595.94	5193.65
596.10	5465.15
596.25	5352.81
596.41	5359.83
596.57	5018.11
596.73	5205.35
596.88	5200.67
597.04	5191.31
597.20	5104.71
597.36	5144.50
597.51	5137.48
597.67	4884.70
597.83	5111.73
597.99	5425.36
598.14	5233.44
