SpectraSuite Data File
++++++++++++++++++++++++++++++++++++
Date: Mon Oct 07 14:59:58 GMT-05:00 2013
User: price-jones
Dark Spectrum Present: No
Reference Spectrum Present: No
Number of Sampled Component Spectra: 1
Spectrometers: USB2+H05261
Integration Time (usec): 100000 (USB2+H05261)
Spectra Averaged: 1 (USB2+H05261)
Boxcar Smoothing: 0 (USB2+H05261)
Correct for Electrical Dark: No (USB2+H05261)
Strobe/Lamp Enabled: No (USB2+H05261)
Correct for Detector Non-linearity: No (USB2+H05261)
Correct for Stray Light: No (USB2+H05261)
Number of Pixels in Processed Spectrum: 2048
>>>>>Begin Processed Spectral Data<<<<<
365.73	0.00
365.92	0.00
366.12	0.00
366.32	0.00
366.52	0.00
366.72	0.00
366.91	0.00
367.11	0.00
367.31	0.00
367.51	0.00
367.70	0.00
367.90	0.00
368.10	0.00
368.30	0.00
368.49	0.00
368.69	0.00
368.89	0.00
369.09	0.00
369.28	0.00
369.48	0.00
369.68	0.00
369.87	0.00
370.07	0.00
370.27	0.00
370.47	0.00
370.66	0.00
370.86	0.00
371.06	0.00
371.25	0.00
371.45	0.00
371.65	0.00
371.84	0.00
372.04	0.00
372.24	0.00
372.44	0.00
372.63	0.00
372.83	0.00
373.03	0.00
373.22	0.00
373.42	0.00
373.62	0.00
373.81	0.00
374.01	0.00
374.21	0.00
374.40	0.00
374.60	0.00
374.79	0.00
374.99	0.00
375.19	0.00
375.38	0.00
375.58	0.00
375.78	0.00
375.97	0.00
376.17	0.00
376.37	0.00
376.56	0.00
376.76	0.00
376.95	0.00
377.15	0.00
377.35	0.00
377.54	0.00
377.74	0.00
377.93	0.00
378.13	0.00
378.33	0.00
378.52	0.00
378.72	0.00
378.91	0.00
379.11	0.00
379.31	0.00
379.50	0.00
379.70	0.00
379.89	0.00
380.09	0.00
380.28	0.00
380.48	0.00
380.68	0.00
380.87	0.00
381.07	0.00
381.26	0.00
381.46	0.00
381.65	0.00
381.85	0.00
382.04	0.00
382.24	0.00
382.43	0.00
382.63	0.00
382.83	0.00
383.02	0.00
383.22	0.00
383.41	0.00
383.61	0.00
383.80	0.00
384.00	0.00
384.19	0.00
384.39	0.00
384.58	0.00
384.78	0.00
384.97	0.00
385.17	0.00
385.36	0.00
385.56	0.00
385.75	0.00
385.95	0.00
386.14	0.00
386.34	0.00
386.53	0.00
386.72	0.00
386.92	0.00
387.11	0.00
387.31	0.00
387.50	0.00
387.70	0.00
387.89	0.00
388.09	0.00
388.28	0.00
388.48	0.00
388.67	0.00
388.86	0.00
389.06	0.00
389.25	0.00
389.45	0.00
389.64	0.00
389.84	0.00
390.03	0.00
390.22	0.00
390.42	0.00
390.61	0.00
390.81	0.00
391.00	0.00
391.19	0.00
391.39	0.00
391.58	0.00
391.78	0.00
391.97	0.00
392.16	0.00
392.36	0.00
392.55	0.00
392.75	0.00
392.94	0.00
393.13	0.00
393.33	0.00
393.52	0.00
393.71	0.00
393.91	0.00
394.10	0.00
394.29	0.00
394.49	0.00
394.68	0.00
394.88	0.00
395.07	0.00
395.26	0.00
395.46	0.00
395.65	0.00
395.84	0.00
396.04	0.00
396.23	0.00
396.42	0.00
396.62	0.00
396.81	0.00
397.00	0.00
397.19	0.00
397.39	0.00
397.58	0.00
397.77	0.00
397.97	0.00
398.16	0.00
398.35	0.00
398.55	0.00
398.74	0.00
398.93	0.00
399.12	0.00
399.32	0.00
399.51	0.00
399.70	0.00
399.90	0.00
400.09	0.00
400.28	0.00
400.47	0.00
400.67	0.00
400.86	0.00
401.05	0.00
401.24	0.00
401.44	0.00
401.63	0.00
401.82	0.00
402.01	0.00
402.21	0.00
402.40	0.00
402.59	0.00
402.78	0.00
402.97	0.00
403.17	0.00
403.36	0.00
403.55	0.00
403.74	0.00
403.93	0.00
404.13	0.00
404.32	0.00
404.51	0.00
404.70	0.00
404.89	0.00
405.09	0.00
405.28	0.00
405.47	0.00
405.66	0.00
405.85	0.00
406.05	0.00
406.24	0.00
406.43	0.00
406.62	0.00
406.81	0.00
407.00	0.00
407.20	0.00
407.39	0.00
407.58	0.00
407.77	0.00
407.96	0.00
408.15	0.00
408.34	0.00
408.54	0.00
408.73	0.00
408.92	0.00
409.11	0.00
409.30	0.00
409.49	0.00
409.68	0.00
409.87	0.00
410.07	0.00
410.26	0.00
410.45	0.00
410.64	0.00
410.83	0.00
411.02	0.00
411.21	0.00
411.40	0.00
411.59	0.00
411.78	0.00
411.98	0.00
412.17	0.00
412.36	0.00
412.55	0.00
412.74	0.00
412.93	0.00
413.12	0.00
413.31	0.00
413.50	0.00
413.69	0.00
413.88	0.00
414.07	0.00
414.26	0.00
414.45	0.00
414.64	0.00
414.83	0.00
415.02	0.00
415.22	0.00
415.41	0.00
415.60	0.00
415.79	0.00
415.98	0.00
416.17	0.00
416.36	0.00
416.55	0.00
416.74	0.00
416.93	0.00
417.12	0.00
417.31	0.00
417.50	0.00
417.69	0.00
417.88	0.00
418.07	0.00
418.26	0.00
418.45	0.00
418.64	0.00
418.83	0.00
419.02	0.00
419.21	0.00
419.39	0.00
419.58	0.00
419.77	0.00
419.96	0.00
420.15	0.00
420.34	0.00
420.53	0.00
420.72	0.00
420.91	0.00
421.10	0.00
421.29	0.00
421.48	0.00
421.67	0.00
421.86	0.00
422.05	0.00
422.24	0.00
422.43	0.00
422.61	0.00
422.80	0.00
422.99	0.00
423.18	0.00
423.37	0.00
423.56	0.00
423.75	0.00
423.94	0.00
424.13	0.00
424.32	0.00
424.50	0.00
424.69	0.00
424.88	0.00
425.07	0.00
425.26	0.00
425.45	0.00
425.64	0.00
425.83	0.00
426.01	0.00
426.20	0.00
426.39	0.00
426.58	0.00
426.77	0.00
426.96	0.00
427.15	0.00
427.33	0.00
427.52	0.00
427.71	0.00
427.90	0.00
428.09	0.00
428.28	0.00
428.46	0.00
428.65	0.00
428.84	0.00
429.03	0.00
429.22	0.00
429.40	0.00
429.59	0.00
429.78	0.00
429.97	0.00
430.16	0.00
430.34	0.00
430.53	0.00
430.72	0.00
430.91	0.00
431.10	0.00
431.28	0.00
431.47	0.00
431.66	114.69
431.85	0.00
432.03	0.00
432.22	0.00
432.41	0.00
432.60	0.00
432.79	0.00
432.97	0.00
433.16	0.00
433.35	0.00
433.54	0.00
433.72	0.00
433.91	0.00
434.10	0.00
434.28	0.00
434.47	0.00
434.66	0.00
434.85	0.00
435.03	0.00
435.22	0.00
435.41	0.00
435.59	0.00
435.78	0.00
435.97	0.00
436.16	0.00
436.34	0.00
436.53	0.00
436.72	0.00
436.90	0.00
437.09	0.00
437.28	0.00
437.46	0.00
437.65	0.00
437.84	0.00
438.02	0.00
438.21	0.00
438.40	0.00
438.58	0.00
438.77	0.00
438.96	0.00
439.14	0.00
439.33	0.00
439.52	0.00
439.70	0.00
439.89	0.00
440.08	0.00
440.26	0.00
440.45	0.00
440.63	0.00
440.82	0.00
441.01	0.00
441.19	0.00
441.38	0.00
441.57	0.00
441.75	0.00
441.94	0.00
442.12	0.00
442.31	0.00
442.50	0.00
442.68	0.00
442.87	0.00
443.05	0.00
443.24	0.00
443.43	0.00
443.61	14.04
443.80	0.00
443.98	0.00
444.17	0.00
444.35	0.00
444.54	0.00
444.73	0.00
444.91	0.00
445.10	0.00
445.28	0.00
445.47	0.00
445.65	0.00
445.84	0.00
446.02	0.00
446.21	0.00
446.39	0.00
446.58	0.00
446.77	0.00
446.95	9.36
447.14	0.00
447.32	0.00
447.51	0.00
447.69	0.00
447.88	0.00
448.06	0.00
448.25	0.00
448.43	0.00
448.62	0.00
448.80	0.00
448.99	0.00
449.17	0.00
449.36	0.00
449.54	0.00
449.73	0.00
449.91	0.00
450.10	0.00
450.28	9.36
450.46	0.00
450.65	0.00
450.83	0.00
451.02	0.00
451.20	0.00
451.39	0.00
451.57	0.00
451.76	0.00
451.94	0.00
452.13	0.00
452.31	0.00
452.49	0.00
452.68	0.00
452.86	0.00
453.05	16.38
453.23	14.04
453.42	0.00
453.60	0.00
453.78	46.81
453.97	0.00
454.15	0.00
454.34	0.00
454.52	0.00
454.70	0.00
454.89	0.00
455.07	0.00
455.26	0.00
455.44	0.00
455.62	0.00
455.81	0.00
455.99	0.00
456.17	0.00
456.36	0.00
456.54	0.00
456.73	0.00
456.91	25.75
457.09	0.00
457.28	14.04
457.46	0.00
457.64	0.00
457.83	0.00
458.01	0.00
458.19	14.04
458.38	0.00
458.56	0.00
458.74	0.00
458.93	0.00
459.11	0.00
459.29	0.00
459.48	0.00
459.66	7.02
459.84	0.00
460.03	56.17
460.21	37.45
460.39	0.00
460.57	28.09
460.76	0.00
460.94	0.00
461.12	53.83
461.31	32.77
461.49	0.00
461.67	28.09
461.85	0.00
462.04	0.00
462.22	528.96
462.40	7.02
462.59	0.00
462.77	0.00
462.95	0.00
463.13	0.00
463.32	23.41
463.50	0.00
463.68	0.00
463.86	4.68
464.05	0.00
464.23	0.00
464.41	0.00
464.59	0.00
464.78	0.00
464.96	0.00
465.14	4.68
465.32	0.00
465.50	44.47
465.69	11.70
465.87	0.00
466.05	37.45
466.23	0.00
466.41	0.00
466.60	0.00
466.78	0.00
466.96	0.00
467.14	77.24
467.32	35.11
467.51	0.00
467.69	23.41
467.87	11.70
468.05	0.00
468.23	0.00
468.41	79.58
468.60	0.00
468.78	0.00
468.96	0.00
469.14	9.36
469.32	0.00
469.50	0.00
469.69	0.00
469.87	0.00
470.05	0.00
470.23	0.00
470.41	0.00
470.59	0.00
470.77	11.70
470.95	0.00
471.14	0.00
471.32	18.72
471.50	0.00
471.68	0.00
471.86	9.36
472.04	0.00
472.22	14.04
472.40	0.00
472.58	0.00
472.77	0.00
472.95	25.75
473.13	63.19
473.31	0.00
473.49	0.00
473.67	0.00
473.85	0.00
474.03	14.04
474.21	0.00
474.39	37.45
474.57	117.03
474.75	4.68
474.93	0.00
475.12	0.00
475.30	49.15
475.48	0.00
475.66	0.00
475.84	0.00
476.02	18.72
476.20	0.00
476.38	0.00
476.56	170.86
476.74	2.34
476.92	0.00
477.10	21.06
477.28	25.75
477.46	0.00
477.64	0.00
477.82	28.09
478.00	16.38
478.18	44.47
478.36	9.36
478.54	0.00
478.72	0.00
478.90	35.11
479.08	4.68
479.26	72.56
479.44	79.58
479.62	4.68
479.80	30.43
479.98	67.88
480.16	0.00
480.34	32.77
480.52	0.00
480.70	93.62
480.88	11.70
481.06	0.00
481.24	16.38
481.41	4.68
481.59	67.88
481.77	37.45
481.95	79.58
482.13	86.60
482.31	9.36
482.49	74.90
482.67	63.19
482.85	121.71
483.03	74.90
483.21	39.79
483.39	93.62
483.57	37.45
483.74	145.11
483.92	25.75
484.10	79.58
484.28	112.35
484.46	117.03
484.64	67.88
484.82	42.13
485.00	11.70
485.18	2.34
485.35	110.01
485.53	49.15
485.71	84.26
485.89	0.00
486.07	28.09
486.25	117.03
486.43	74.90
486.61	91.28
486.78	84.26
486.96	58.51
487.14	93.62
487.32	63.19
487.50	79.58
487.68	77.24
487.85	32.77
488.03	166.18
488.21	264.48
488.39	117.03
488.57	105.32
488.75	35.11
488.92	500.87
489.10	84.26
489.28	203.63
489.46	131.07
489.64	107.66
489.81	102.98
489.99	224.69
490.17	114.69
490.35	308.95
490.53	42.13
490.70	168.52
490.88	177.88
491.06	112.35
491.24	147.45
491.41	259.80
491.59	149.79
491.77	114.69
491.95	147.45
492.13	215.33
492.30	121.71
492.48	124.05
492.66	156.82
492.84	126.39
493.01	119.37
493.19	124.05
493.37	215.33
493.54	121.71
493.72	114.69
493.90	126.39
494.08	182.56
494.25	212.99
494.43	184.90
494.61	117.03
494.79	182.56
494.96	88.94
495.14	152.13
495.32	198.95
495.49	175.54
495.67	93.62
495.85	177.88
496.02	161.50
496.20	133.41
496.38	187.24
496.55	180.22
496.73	189.58
496.91	147.45
497.09	264.48
497.26	105.32
497.44	177.88
497.62	215.33
497.79	182.56
497.97	205.97
498.14	168.52
498.32	266.82
498.50	187.24
498.67	241.08
498.85	154.48
499.03	236.39
499.20	156.82
499.38	243.42
499.56	138.09
499.73	304.27
499.91	243.42
500.08	196.60
500.26	287.89
500.44	128.73
500.61	208.31
500.79	180.22
500.97	203.63
501.14	217.67
501.32	156.82
501.49	248.10
501.67	217.67
501.84	182.56
502.02	161.50
502.20	241.08
502.37	262.14
502.55	217.67
502.72	301.93
502.90	292.57
503.07	203.63
503.25	238.73
503.43	175.54
503.60	224.69
503.78	175.54
503.95	215.33
504.13	217.67
504.30	252.78
504.48	276.18
504.65	299.59
504.83	238.73
505.01	205.97
505.18	227.03
505.36	166.18
505.53	163.84
505.71	201.29
505.88	285.55
506.06	245.76
506.23	266.82
506.41	175.54
506.58	273.84
506.76	255.12
506.93	227.03
507.11	138.09
507.28	210.65
507.46	212.99
507.63	210.65
507.81	145.11
507.98	196.60
508.16	227.03
508.33	269.16
508.50	257.46
508.68	262.14
508.85	166.18
509.03	287.89
509.20	283.20
509.38	205.97
509.55	184.90
509.73	269.16
509.90	337.04
510.08	290.23
510.25	318.31
510.42	191.92
510.60	203.63
510.77	264.48
510.95	243.42
511.12	241.08
511.30	224.69
511.47	322.99
511.64	262.14
511.82	182.56
511.99	217.67
512.17	283.20
512.34	231.71
512.51	285.55
512.69	205.97
512.86	337.04
513.04	241.08
513.21	290.23
513.38	273.84
513.56	220.01
513.73	250.44
513.90	264.48
514.08	238.73
514.25	308.95
514.43	205.97
514.60	205.97
514.77	175.54
514.95	208.31
515.12	287.89
515.29	320.65
515.47	271.50
515.64	276.18
515.81	227.03
515.99	332.36
516.16	241.08
516.33	152.13
516.51	180.22
516.68	159.16
516.85	236.39
517.03	149.79
517.20	231.71
517.37	227.03
517.54	311.29
517.72	210.65
517.89	177.88
518.06	198.95
518.24	269.16
518.41	222.35
518.58	201.29
518.75	205.97
518.93	297.25
519.10	262.14
519.27	220.01
519.45	234.05
519.62	264.48
519.79	222.35
519.96	252.78
520.14	168.52
520.31	278.52
520.48	205.97
520.65	269.16
520.83	273.84
521.00	266.82
521.17	290.23
521.34	407.25
521.52	250.44
521.69	294.91
521.86	341.72
522.03	292.57
522.20	301.93
522.38	187.24
522.55	259.80
522.72	297.25
522.89	351.08
523.07	313.63
523.24	327.68
523.41	313.63
523.58	292.57
523.75	367.46
523.92	283.20
524.10	304.27
524.27	278.52
524.44	353.42
524.61	337.04
524.78	355.76
524.96	290.23
525.13	297.25
525.30	290.23
525.47	360.44
525.64	285.55
525.81	353.42
525.98	301.93
526.16	320.65
526.33	191.92
526.50	294.91
526.67	156.82
526.84	262.14
527.01	166.18
527.18	285.55
527.36	236.39
527.53	308.95
527.70	362.78
527.87	325.33
528.04	407.25
528.21	297.25
528.38	308.95
528.55	311.29
528.72	327.68
528.89	433.00
529.07	299.59
529.24	386.19
529.41	358.10
529.58	337.04
529.75	318.31
529.92	348.74
530.09	313.63
530.26	273.84
530.43	301.93
530.60	283.20
530.77	397.89
530.94	236.39
531.11	351.08
531.28	285.55
531.46	355.76
531.63	308.95
531.80	383.85
531.97	348.74
532.14	327.68
532.31	278.52
532.48	320.65
532.65	241.08
532.82	245.76
532.99	278.52
533.16	301.93
533.33	327.68
533.50	266.82
533.67	245.76
533.84	322.99
534.01	280.86
534.18	325.33
534.35	301.93
534.52	306.61
534.69	442.36
534.86	390.87
535.03	339.38
535.20	379.17
535.37	409.59
535.54	353.42
535.71	306.61
535.88	346.40
536.05	337.04
536.22	341.72
536.38	250.44
536.55	325.33
536.72	294.91
536.89	287.89
537.06	327.68
537.23	170.86
537.40	294.91
537.57	311.29
537.74	407.25
537.91	348.74
538.08	393.21
538.25	334.70
538.42	322.99
538.59	339.38
538.75	388.53
538.92	362.78
539.09	358.10
539.26	304.27
539.43	346.40
539.60	325.33
539.77	346.40
539.94	292.57
540.11	325.33
540.28	330.02
540.44	290.23
540.61	348.74
540.78	248.10
540.95	198.95
541.12	315.97
541.29	313.63
541.46	435.34
541.62	369.80
541.79	358.10
541.96	259.80
542.13	304.27
542.30	358.10
542.47	407.25
542.63	301.93
542.80	416.62
542.97	348.74
543.14	306.61
543.31	308.95
543.48	383.85
543.64	334.70
543.81	341.72
543.98	346.40
544.15	273.84
544.32	322.99
544.48	353.42
544.65	428.32
544.82	348.74
544.99	337.04
545.16	400.23
545.32	351.08
545.49	425.98
545.66	245.76
545.83	294.91
546.00	358.10
546.16	308.95
546.33	325.33
546.50	344.06
546.67	456.40
546.83	266.82
547.00	294.91
547.17	266.82
547.34	339.38
547.50	306.61
547.67	353.42
547.84	320.65
548.00	346.40
548.17	250.44
548.34	346.40
548.51	404.91
548.67	437.68
548.84	381.51
549.01	416.62
549.18	423.64
549.34	367.46
549.51	330.02
549.68	360.44
549.84	402.57
550.01	411.93
550.18	491.51
550.34	379.17
550.51	393.21
550.68	416.62
550.84	308.95
551.01	388.53
551.18	386.19
551.34	381.51
551.51	374.49
551.68	283.20
551.84	330.02
552.01	318.31
552.18	379.17
552.34	397.89
552.51	365.12
552.68	341.72
552.84	290.23
553.01	313.63
553.18	348.74
553.34	294.91
553.51	313.63
553.67	372.15
553.84	503.22
554.01	390.87
554.17	386.19
554.34	271.50
554.51	304.27
554.67	425.98
554.84	409.59
555.00	290.23
555.17	369.80
555.33	325.33
555.50	304.27
555.67	327.68
555.83	346.40
556.00	313.63
556.16	491.51
556.33	341.72
556.50	339.38
556.66	294.91
556.83	313.63
556.99	285.55
557.16	395.55
557.32	271.50
557.49	367.46
557.65	278.52
557.82	383.85
557.98	353.42
558.15	299.59
558.32	334.70
558.48	250.44
558.65	266.82
558.81	341.72
558.98	294.91
559.14	325.33
559.31	301.93
559.47	346.40
559.64	379.17
559.80	311.29
559.97	367.46
560.13	308.95
560.30	315.97
560.46	346.40
560.63	294.91
560.79	409.59
560.96	351.08
561.12	337.04
561.29	362.78
561.45	290.23
561.61	308.95
561.78	367.46
561.94	322.99
562.11	276.18
562.27	280.86
562.44	229.37
562.60	362.78
562.77	351.08
562.93	397.89
563.10	334.70
563.26	311.29
563.42	297.25
563.59	339.38
563.75	299.59
563.92	367.46
564.08	322.99
564.24	313.63
564.41	433.00
564.57	360.44
564.74	330.02
564.90	418.96
565.07	346.40
565.23	376.83
565.39	304.27
565.56	395.55
565.72	304.27
565.88	367.46
566.05	287.89
566.21	304.27
566.38	374.49
566.54	337.04
566.70	294.91
566.87	264.48
567.03	285.55
567.19	304.27
567.36	327.68
567.52	341.72
567.68	346.40
567.85	294.91
568.01	304.27
568.17	273.84
568.34	276.18
568.50	315.97
568.66	229.37
568.83	435.34
568.99	294.91
569.15	376.83
569.32	360.44
569.48	322.99
569.64	301.93
569.81	372.15
569.97	280.86
570.13	299.59
570.30	252.78
570.46	278.52
570.62	208.31
570.78	201.29
570.95	306.61
571.11	428.32
571.27	353.42
571.43	287.89
571.60	311.29
571.76	285.55
571.92	322.99
572.09	320.65
572.25	271.50
572.41	383.85
572.57	292.57
572.74	301.93
572.90	346.40
573.06	271.50
573.22	362.78
573.38	358.10
573.55	358.10
573.71	304.27
573.87	299.59
574.03	264.48
574.20	315.97
574.36	341.72
574.52	322.99
574.68	306.61
574.84	360.44
575.01	290.23
575.17	322.99
575.33	332.36
575.49	351.08
575.65	362.78
575.82	285.55
575.98	358.10
576.14	372.15
576.30	322.99
576.46	297.25
576.62	400.23
576.79	348.74
576.95	376.83
577.11	372.15
577.27	283.20
577.43	337.04
577.59	351.08
577.75	264.48
577.92	215.33
578.08	266.82
578.24	325.33
578.40	390.87
578.56	353.42
578.72	264.48
578.88	362.78
579.04	245.76
579.21	339.38
579.37	285.55
579.53	287.89
579.69	348.74
579.85	290.23
580.01	292.57
580.17	243.42
580.33	308.95
580.49	301.93
580.65	355.76
580.82	322.99
580.98	278.52
581.14	280.86
581.30	379.17
581.46	313.63
581.62	334.70
581.78	327.68
581.94	250.44
582.10	332.36
582.26	287.89
582.42	278.52
582.58	332.36
582.74	285.55
582.90	278.52
583.06	367.46
583.22	383.85
583.38	245.76
583.54	315.97
583.70	325.33
583.86	362.78
584.02	304.27
584.18	271.50
584.34	404.91
584.50	358.10
584.66	318.31
584.82	400.23
584.98	341.72
585.14	301.93
585.30	339.38
585.46	315.97
585.62	322.99
585.78	283.20
585.94	334.70
586.10	362.78
586.26	285.55
586.42	341.72
586.58	344.06
586.74	276.18
586.90	304.27
587.06	297.25
587.22	297.25
587.38	217.67
587.54	362.78
587.70	299.59
587.86	346.40
588.02	299.59
588.18	330.02
588.34	325.33
588.49	208.31
588.65	315.97
588.81	238.73
588.97	243.42
589.13	182.56
589.29	318.31
589.45	304.27
589.61	278.52
589.77	388.53
589.93	327.68
590.08	250.44
590.24	313.63
590.40	306.61
590.56	334.70
590.72	318.31
590.88	304.27
591.04	320.65
591.20	297.25
591.35	327.68
591.51	294.91
591.67	280.86
591.83	304.27
591.99	252.78
592.15	318.31
592.31	306.61
592.46	208.31
592.62	358.10
592.78	311.29
592.94	215.33
593.10	266.82
593.26	243.42
593.41	276.18
593.57	304.27
593.73	285.55
593.89	318.31
594.05	306.61
594.20	250.44
594.36	315.97
594.52	283.20
594.68	318.31
594.84	318.31
594.99	353.42
595.15	325.33
595.31	271.50
595.47	311.29
595.62	334.70
595.78	257.46
595.94	320.65
596.10	304.27
596.25	334.70
596.41	248.10
596.57	304.27
596.73	337.04
596.88	269.16
597.04	367.46
597.20	297.25
597.36	327.68
597.51	255.12
597.67	234.05
597.83	266.82
597.99	339.38
598.14	212.99
598.30	243.42
598.46	259.80
598.61	320.65
598.77	372.15
598.93	250.44
599.09	262.14
599.24	362.78
599.40	330.02
599.56	243.42
599.71	229.37
599.87	269.16
600.03	294.91
600.18	264.48
600.34	320.65
600.50	234.05
600.65	180.22
600.81	348.74
600.97	255.12
601.12	308.95
601.28	290.23
601.44	238.73
601.59	330.02
601.75	255.12
601.91	264.48
602.06	238.73
602.22	285.55
602.37	241.08
602.53	315.97
602.69	290.23
602.84	353.42
603.00	276.18
603.16	257.46
603.31	241.08
603.47	278.52
603.62	184.90
603.78	231.71
603.94	315.97
604.09	222.35
604.25	245.76
604.40	234.05
604.56	236.39
604.71	259.80
604.87	287.89
605.03	290.23
605.18	224.69
605.34	276.18
605.49	330.02
605.65	257.46
605.80	271.50
605.96	154.48
606.12	334.70
606.27	248.10
606.43	262.14
606.58	299.59
606.74	381.51
606.89	304.27
607.05	224.69
607.20	304.27
607.36	255.12
607.51	224.69
607.67	351.08
607.82	250.44
607.98	374.49
608.13	287.89
608.29	313.63
608.44	292.57
608.60	203.63
608.75	236.39
608.91	238.73
609.06	278.52
609.22	283.20
609.37	271.50
609.53	266.82
609.68	175.54
609.84	173.20
609.99	128.73
610.15	273.84
610.30	297.25
610.46	222.35
610.61	264.48
610.76	313.63
610.92	273.84
611.07	191.92
611.23	367.46
611.38	238.73
611.54	217.67
611.69	205.97
611.84	168.52
612.00	180.22
612.15	257.46
612.31	276.18
612.46	238.73
612.62	212.99
612.77	358.10
612.92	299.59
613.08	304.27
613.23	210.65
613.39	191.92
613.54	166.18
613.69	182.56
613.85	161.50
614.00	196.60
614.15	180.22
614.31	208.31
614.46	163.84
614.62	222.35
614.77	266.82
614.92	189.58
615.08	278.52
615.23	273.84
615.38	227.03
615.54	236.39
615.69	124.05
615.84	262.14
616.00	140.43
616.15	72.56
616.30	266.82
616.46	227.03
616.61	184.90
616.76	234.05
616.92	224.69
617.07	117.03
617.22	184.90
617.37	243.42
617.53	234.05
617.68	236.39
617.83	262.14
617.99	224.69
618.14	224.69
618.29	292.57
618.45	245.76
618.60	177.88
618.75	231.71
618.90	117.03
619.06	212.99
619.21	367.46
619.36	320.65
619.51	189.58
619.67	245.76
619.82	266.82
619.97	201.29
620.12	227.03
620.28	166.18
620.43	259.80
620.58	191.92
620.73	133.41
620.89	205.97
621.04	222.35
621.19	337.04
621.34	212.99
621.49	229.37
621.65	112.35
621.80	208.31
621.95	170.86
622.10	198.95
622.25	184.90
622.41	196.60
622.56	203.63
622.71	182.56
622.86	269.16
623.01	220.01
623.16	252.78
623.32	138.09
623.47	217.67
