SpectraSuite Data File
++++++++++++++++++++++++++++++++++++
Date: Mon Oct 07 15:00:27 GMT-05:00 2013
User: price-jones
Dark Spectrum Present: No
Reference Spectrum Present: No
Number of Sampled Component Spectra: 1
Spectrometers: USB2+H05261
Integration Time (usec): 1000000 (USB2+H05261)
Spectra Averaged: 1 (USB2+H05261)
Boxcar Smoothing: 0 (USB2+H05261)
Correct for Electrical Dark: No (USB2+H05261)
Strobe/Lamp Enabled: No (USB2+H05261)
Correct for Detector Non-linearity: No (USB2+H05261)
Correct for Stray Light: No (USB2+H05261)
Number of Pixels in Processed Spectrum: 2048
>>>>>Begin Processed Spectral Data<<<<<
365.73	0.00
365.92	0.00
366.12	0.00
366.32	0.00
366.52	0.00
366.72	114.69
366.91	0.00
367.11	140.43
367.31	98.30
367.51	140.43
367.70	245.76
367.90	435.34
368.10	205.97
368.30	222.35
368.49	0.00
368.69	423.64
368.89	102.98
369.09	0.00
369.28	187.24
369.48	0.00
369.68	7.02
369.87	198.95
370.07	28.09
370.27	470.45
370.47	271.50
370.66	84.26
370.86	294.91
371.06	683.44
371.25	837.91
371.45	355.76
371.65	510.24
371.84	175.54
372.04	110.01
372.24	322.99
372.44	264.48
372.63	395.55
372.83	791.10
373.03	308.95
373.22	220.01
373.42	238.73
373.62	334.70
373.81	458.74
374.01	634.29
374.21	636.63
374.40	294.91
374.60	662.37
374.79	325.33
374.99	245.76
375.19	409.59
375.38	514.92
375.58	358.10
375.78	599.18
375.97	596.84
376.17	952.60
376.37	313.63
376.56	468.11
376.76	234.05
376.95	257.46
377.15	507.90
377.35	447.04
377.54	557.05
377.74	152.13
377.93	304.27
378.13	447.04
378.33	617.90
378.52	353.42
378.72	585.13
378.91	587.47
379.11	276.18
379.31	280.86
379.50	196.60
379.70	648.33
379.89	564.07
380.09	252.78
380.28	149.79
380.48	379.17
380.68	224.69
380.87	100.64
381.07	421.30
381.26	636.63
381.46	222.35
381.65	465.77
381.85	222.35
382.04	491.51
382.24	454.06
382.43	341.72
382.63	140.43
382.83	379.17
383.02	650.67
383.22	671.73
383.41	297.25
383.61	454.06
383.80	702.16
384.00	325.33
384.19	278.52
384.39	339.38
384.58	283.20
384.78	465.77
384.97	388.53
385.17	330.02
385.36	191.92
385.56	587.47
385.75	67.88
385.95	248.10
386.14	580.45
386.34	231.71
386.53	430.66
386.72	243.42
386.92	596.84
387.11	477.47
387.31	510.24
387.50	133.41
387.70	163.84
387.89	334.70
388.09	220.01
388.28	196.60
388.48	201.29
388.67	528.96
388.86	353.42
389.06	280.86
389.25	472.79
389.45	503.22
389.64	367.46
389.84	720.88
390.03	465.77
390.22	503.22
390.42	369.80
390.61	245.76
390.81	147.45
391.00	269.16
391.19	603.86
391.39	311.29
391.58	580.45
391.78	311.29
391.97	390.87
392.16	138.09
392.36	746.63
392.55	662.37
392.75	407.25
392.94	236.39
393.13	561.73
393.33	182.56
393.52	208.31
393.71	711.52
393.91	428.32
394.10	177.88
394.29	294.91
394.49	308.95
394.68	559.39
394.88	617.90
395.07	610.88
395.26	379.17
395.46	320.65
395.65	620.24
395.84	493.85
396.04	1060.26
396.23	358.10
396.42	259.80
396.62	402.57
396.81	524.28
397.00	386.19
397.19	559.39
397.39	325.33
397.58	753.65
397.77	351.08
397.97	287.89
398.16	425.98
398.35	543.00
398.55	248.10
398.74	334.70
398.93	671.73
399.12	255.12
399.32	454.06
399.51	360.44
399.70	582.79
399.90	463.43
400.09	585.13
400.28	674.07
400.47	362.78
400.67	592.16
400.86	484.49
401.05	557.05
401.24	720.88
401.44	580.45
401.63	601.52
401.82	770.04
402.01	308.95
402.21	599.18
402.40	437.68
402.59	383.85
402.78	327.68
402.97	283.20
403.17	451.72
403.36	449.38
403.55	379.17
403.74	334.70
403.93	407.25
404.13	702.16
404.32	217.67
404.51	215.33
404.70	608.54
404.89	315.97
405.09	924.51
405.28	430.66
405.47	241.08
405.66	620.24
405.85	683.44
406.05	409.59
406.24	428.32
406.43	437.68
406.62	552.37
406.81	1032.18
407.00	681.10
407.20	437.68
407.39	451.72
407.58	346.40
407.77	582.79
407.96	840.25
408.15	678.76
408.34	592.16
408.54	559.39
408.73	402.57
408.92	390.87
409.11	589.82
409.30	702.16
409.49	306.61
409.68	402.57
409.87	435.34
410.07	262.14
410.26	470.45
410.45	472.79
410.64	304.27
410.83	493.85
411.02	341.72
411.21	638.97
411.40	716.20
411.59	395.55
411.78	346.40
411.98	393.21
412.17	299.59
412.36	395.55
412.55	454.06
412.74	561.73
412.93	861.32
413.12	337.04
413.31	683.44
413.50	610.88
413.69	468.11
413.88	945.58
414.07	561.73
414.26	531.30
414.45	367.46
414.64	603.86
414.83	606.20
415.02	484.49
415.22	697.48
415.41	777.06
415.60	454.06
415.79	402.57
415.98	784.08
416.17	566.41
416.36	514.92
416.55	294.91
416.74	589.82
416.93	812.17
417.12	454.06
417.31	461.09
417.50	442.36
417.69	976.00
417.88	631.94
418.07	325.33
418.26	325.33
418.45	519.60
418.64	931.53
418.83	622.58
419.02	634.29
419.21	507.90
419.39	477.47
419.58	365.12
419.77	404.91
419.96	807.48
420.15	1036.86
420.34	447.04
420.53	589.82
420.72	847.27
420.91	538.32
421.10	517.26
421.29	643.65
421.48	727.91
421.67	858.98
421.86	484.49
422.05	465.77
422.24	519.60
422.43	528.96
422.61	337.04
422.80	538.32
422.99	547.69
423.18	388.53
423.37	889.40
423.56	617.90
423.75	683.44
423.94	301.93
424.13	535.98
424.32	428.32
424.50	365.12
424.69	519.60
424.88	830.89
425.07	493.85
425.26	692.80
425.45	681.10
425.64	433.00
425.83	430.66
426.01	849.61
426.20	615.56
426.39	437.68
426.58	423.64
426.77	512.58
426.96	664.71
427.15	524.28
427.33	393.21
427.52	564.07
427.71	543.00
427.90	695.14
428.09	470.45
428.28	404.91
428.46	433.00
428.65	688.12
428.84	402.57
429.03	933.87
429.22	425.98
429.40	320.65
429.59	241.08
429.78	751.31
429.97	479.81
430.16	395.55
430.34	435.34
430.53	442.36
430.72	475.13
430.91	798.12
431.10	433.00
431.28	571.09
431.47	739.61
431.66	706.84
431.85	428.32
432.03	564.07
432.22	1242.82
432.41	587.47
432.60	933.87
432.79	423.64
432.97	580.45
433.16	472.79
433.35	463.43
433.54	337.04
433.72	657.69
433.91	758.33
434.10	393.21
434.28	566.41
434.47	479.81
434.66	889.40
434.85	451.72
435.03	564.07
435.22	1013.45
435.41	1163.25
435.59	805.14
435.78	678.76
435.97	475.13
436.16	856.64
436.34	575.77
436.53	692.80
436.72	912.81
436.90	755.99
437.09	704.50
437.28	554.71
437.46	582.79
437.65	791.10
437.84	807.48
438.02	648.33
438.21	826.21
438.40	423.64
438.58	381.51
438.77	664.71
438.96	662.37
439.14	547.69
439.33	809.83
439.52	561.73
439.70	587.47
439.89	821.53
440.08	681.10
440.26	557.05
440.45	1062.60
440.63	723.23
440.82	706.84
441.01	671.73
441.19	557.05
441.38	622.58
441.57	697.48
441.75	961.96
441.94	905.79
442.12	631.94
442.31	622.58
442.50	627.26
442.68	608.54
442.87	559.39
443.05	524.28
443.24	669.39
443.43	854.30
443.61	936.21
443.80	699.82
443.98	587.47
444.17	559.39
444.35	938.55
444.54	617.90
444.73	638.97
444.91	999.41
445.10	585.13
445.28	643.65
445.47	741.95
445.65	709.18
445.84	564.07
446.02	634.29
446.21	636.63
446.39	550.03
446.58	812.17
446.77	552.37
446.95	596.84
447.14	814.51
447.32	1132.82
447.51	685.78
447.69	770.04
447.88	784.08
448.06	1109.41
448.25	800.46
448.43	624.92
448.62	596.84
448.80	800.46
448.99	887.06
449.17	638.97
449.36	526.62
449.54	908.13
449.73	557.05
449.91	802.80
450.10	683.44
450.28	1425.39
450.46	1287.29
450.65	973.66
450.83	734.93
451.02	718.54
451.20	784.08
451.39	655.35
451.57	678.76
451.76	631.94
451.94	744.29
452.13	950.26
452.31	1034.52
452.49	858.98
452.68	472.79
452.86	784.08
453.05	1207.72
453.23	765.36
453.42	559.39
453.60	648.33
453.78	727.91
453.97	557.05
454.15	519.60
454.34	615.56
454.52	491.51
454.70	1233.46
454.89	868.34
455.07	610.88
455.26	971.32
455.44	901.11
455.62	690.46
455.81	816.85
455.99	905.79
456.17	910.47
456.36	713.86
456.54	720.88
456.73	676.41
456.91	655.35
457.09	737.27
457.28	1060.26
457.46	856.64
457.64	1025.15
457.83	685.78
458.01	636.63
458.19	786.42
458.38	699.82
458.56	805.14
458.74	533.64
458.93	840.25
459.11	922.17
459.29	627.26
459.48	908.13
459.66	1186.65
459.84	858.98
460.03	1778.81
460.21	1048.56
460.39	713.86
460.57	1008.77
460.76	734.93
460.94	779.40
461.12	1210.06
461.31	1062.60
461.49	725.57
461.67	760.67
461.85	821.53
462.04	683.44
462.22	2747.79
462.40	933.87
462.59	1088.35
462.77	622.58
462.95	849.61
463.13	458.74
463.32	945.58
463.50	835.57
463.68	945.58
463.86	791.10
464.05	676.41
464.23	1062.60
464.41	950.26
464.59	540.66
464.78	645.99
464.96	545.34
465.14	830.89
465.32	692.80
465.50	924.51
465.69	976.00
465.87	571.09
466.05	882.38
466.23	507.90
466.41	732.59
466.60	657.69
466.78	774.72
466.96	994.73
467.14	898.77
467.32	1123.46
467.51	952.60
467.69	931.53
467.87	1167.93
468.05	767.70
468.23	1233.46
468.41	1027.50
468.60	716.20
468.78	847.27
468.96	1118.78
469.14	947.92
469.32	535.98
469.50	550.03
469.69	980.68
469.87	830.89
470.05	847.27
470.23	751.31
470.41	695.14
470.59	763.01
470.77	861.32
470.95	807.48
471.14	1109.41
471.32	795.78
471.50	1144.52
471.68	868.34
471.86	877.70
472.04	683.44
472.22	826.21
472.40	617.90
472.58	645.99
472.77	634.29
472.95	800.46
473.13	1322.40
473.31	1123.46
473.49	690.46
473.67	683.44
473.85	964.30
474.03	887.06
474.21	793.44
474.39	1198.35
474.57	1256.87
474.75	968.98
474.93	617.90
475.12	631.94
475.30	732.59
475.48	727.91
475.66	767.70
475.84	861.32
476.02	770.04
476.20	929.19
476.38	863.66
476.56	1458.15
476.74	894.08
476.92	847.27
477.10	809.83
477.28	983.02
477.46	809.83
477.64	1011.11
477.82	891.74
478.00	833.23
478.18	924.51
478.36	833.23
478.54	713.86
478.72	772.38
478.90	809.83
479.08	1081.33
479.26	891.74
479.44	812.17
479.62	737.27
479.80	746.63
479.98	737.27
480.16	713.86
480.34	1142.18
480.52	807.48
480.70	945.58
480.88	763.01
481.06	650.67
481.24	779.40
481.41	877.70
481.59	1142.18
481.77	943.24
481.95	894.08
482.13	1308.36
482.31	1027.50
482.49	807.48
482.67	1128.14
482.85	1123.46
483.03	1069.62
483.21	961.96
483.39	887.06
483.57	915.15
483.74	1329.42
483.92	1039.20
484.10	807.48
484.28	1217.08
484.46	1610.29
484.64	847.27
484.82	1022.81
485.00	877.70
485.18	983.02
485.35	1008.77
485.53	660.03
485.71	1212.40
485.89	587.47
486.07	873.02
486.25	1638.38
486.43	1163.25
486.61	1266.23
486.78	1132.82
486.96	748.97
487.14	945.58
487.32	1015.79
487.50	873.02
487.68	1219.42
487.85	849.61
488.03	1130.48
488.21	1380.92
488.39	987.71
488.57	1261.55
488.75	931.53
488.92	4695.11
489.10	1249.85
489.28	1633.69
489.46	968.98
489.64	1156.22
489.81	1057.92
489.99	1294.32
490.17	1177.29
490.35	1823.28
490.53	1071.97
490.70	856.64
490.88	1313.04
491.06	1006.43
491.24	1277.93
491.41	1544.75
491.59	1144.52
491.77	840.25
491.95	861.32
492.13	968.98
492.30	1032.18
492.48	1064.94
492.66	1177.29
492.84	1001.75
493.01	1160.91
493.19	1025.15
493.37	1586.88
493.54	1313.04
493.72	1324.74
493.90	1153.88
494.08	1078.99
494.25	1296.66
494.43	1334.11
494.61	1130.48
494.79	1034.52
494.96	1043.88
495.14	1256.87
495.32	1158.57
495.49	1181.97
495.67	1275.59
495.85	1116.44
496.02	1100.05
496.20	1460.49
496.38	1409.00
496.55	1263.89
496.73	1336.45
496.91	1055.58
497.09	1404.32
497.26	1331.76
497.44	1198.35
497.62	1153.88
497.79	1256.87
497.97	1362.19
498.14	1385.60
498.32	1294.32
498.50	1249.85
498.67	1032.18
498.85	1324.74
499.03	1273.25
499.20	1277.93
499.38	1261.55
499.56	1203.04
499.73	1724.97
499.91	1425.39
500.08	1439.43
500.26	1196.01
500.44	1100.05
500.61	1294.32
500.79	1158.57
500.97	1427.73
501.14	1598.59
501.32	1331.76
501.49	1638.38
501.67	1270.91
501.84	1458.15
502.02	1032.18
502.20	1811.57
502.37	1352.83
502.55	1296.66
502.72	1303.68
502.90	1462.83
503.07	1380.92
503.25	1303.68
503.43	1093.03
503.60	1179.63
503.78	1306.02
503.95	1329.42
504.13	1177.29
504.30	1481.56
504.48	1537.73
504.65	1764.76
504.83	1650.08
505.01	1186.65
505.18	1373.89
505.36	1266.23
505.53	1338.79
505.71	1219.42
505.88	1680.50
506.06	1287.29
506.23	1282.61
506.41	1118.78
506.58	1334.11
506.76	1324.74
506.93	1242.82
507.11	1472.20
507.28	1200.69
507.46	1217.08
507.63	1406.66
507.81	1146.86
507.98	1259.21
508.16	1313.04
508.33	1299.00
508.50	1570.50
508.68	1352.83
508.85	1373.89
509.03	1308.36
509.20	1226.44
509.38	1427.73
509.55	1678.16
509.73	1528.37
509.90	1736.68
510.08	1116.44
510.25	1439.43
510.42	1170.27
510.60	1322.40
510.77	1486.24
510.95	1596.25
511.12	1172.61
511.30	1413.68
511.47	1472.20
511.64	1820.94
511.82	1284.95
511.99	1294.32
512.17	1233.46
512.34	1270.91
512.51	1268.57
512.69	1151.54
512.86	1643.06
513.04	1184.31
513.21	1441.77
513.38	1142.18
513.56	1156.22
513.73	1221.76
513.90	1198.35
514.08	1100.05
514.25	1411.34
514.43	1432.41
514.60	1160.91
514.77	1233.46
514.95	1364.53
515.12	1219.42
515.29	1397.30
515.47	1380.92
515.64	1390.28
515.81	1259.21
515.99	1710.93
516.16	1460.49
516.33	1614.97
516.51	1111.75
516.68	1055.58
516.85	1069.62
517.03	1191.33
517.20	1500.28
517.37	1469.86
517.54	1549.43
517.72	1263.89
517.89	1053.24
518.06	1004.09
518.24	1788.17
518.41	1860.73
518.58	1607.95
518.75	1011.11
518.93	1430.07
519.10	1320.06
519.27	1287.29
519.45	1413.68
519.62	1401.98
519.79	1439.43
519.96	1191.33
520.14	1320.06
520.31	1647.74
520.48	1327.08
520.65	1366.87
520.83	1540.07
521.00	1624.33
521.17	1570.50
521.34	1315.38
521.52	1430.07
521.69	1390.28
521.86	1345.81
522.03	1549.43
522.20	1769.44
522.38	1341.13
522.55	1523.69
522.72	1114.10
522.89	1636.03
523.07	2052.65
523.24	1399.64
523.41	1437.09
523.58	1299.00
523.75	1294.32
523.92	1291.98
524.10	1465.18
524.27	1406.66
524.44	1261.55
524.61	1724.97
524.78	1226.44
524.96	1535.39
525.13	1486.24
525.30	1820.94
525.47	1734.34
525.64	1432.41
525.81	1448.79
525.98	1425.39
526.16	1287.29
526.33	1212.40
526.50	1107.07
526.67	1071.97
526.84	1165.59
527.01	1212.40
527.18	1570.50
527.36	1453.47
527.53	1172.61
527.70	1657.10
527.87	1453.47
528.04	1912.22
528.21	1322.40
528.38	1732.00
528.55	1717.95
528.72	1839.66
528.89	1902.86
529.07	1509.65
529.24	1509.65
529.41	1914.56
529.58	1458.15
529.75	1404.32
529.92	1575.18
530.09	1460.49
530.26	1774.13
530.43	1624.33
530.60	1387.94
530.77	1425.39
530.94	1589.22
531.11	1621.99
531.28	1434.75
531.46	1441.77
531.63	1490.92
531.80	1619.65
531.97	1643.06
532.14	1474.54
532.31	1551.78
532.48	1523.69
532.65	1497.94
532.82	1203.04
532.99	1364.53
533.16	1444.11
533.33	1462.83
533.50	1432.41
533.67	1366.87
533.84	1530.71
534.01	1373.89
534.18	1392.62
534.35	1357.51
534.52	1465.18
534.69	2008.18
534.86	1409.00
535.03	1451.13
535.20	1476.88
535.37	1860.73
535.54	1509.65
535.71	1479.22
535.88	1844.34
536.05	1387.94
536.22	1495.60
536.38	1446.45
536.55	1444.11
536.72	1657.10
536.89	1261.55
537.06	1261.55
537.23	1266.23
537.40	1432.41
537.57	1287.29
537.74	1760.08
537.91	1631.35
538.08	1469.86
538.25	1610.29
538.42	1306.02
538.59	1593.90
538.75	1416.02
538.92	1446.45
539.09	1706.25
539.26	1387.94
539.43	1856.04
539.60	1441.77
539.77	1551.78
539.94	1266.23
540.11	1458.15
540.28	1947.33
540.44	1795.19
540.61	1387.94
540.78	1355.17
540.95	1238.14
541.12	1886.47
541.29	1345.81
541.46	1809.23
541.62	1460.49
541.79	1345.81
541.96	1252.19
542.13	1350.49
542.30	1186.65
542.47	1647.74
542.63	1434.75
542.80	1465.18
542.97	1739.02
543.14	1441.77
543.31	1589.22
543.48	1366.87
543.64	1465.18
543.81	1584.54
543.98	1327.08
544.15	1238.14
544.32	1366.87
544.48	1350.49
544.65	1261.55
544.82	1231.12
544.99	1453.47
545.16	1724.97
545.32	1233.46
545.49	1593.90
545.66	1320.06
545.83	1165.59
546.00	1233.46
546.16	1306.02
546.33	1338.79
546.50	1486.24
546.67	1799.87
546.83	1638.38
547.00	1362.19
547.17	1252.19
547.34	1240.48
547.50	1432.41
547.67	1521.35
547.84	1205.38
548.00	1631.35
548.17	1308.36
548.34	1380.92
548.51	1921.58
548.67	1706.25
548.84	1348.15
549.01	1399.64
549.18	1500.28
549.34	1671.14
549.51	1507.30
549.68	1537.73
549.84	1504.96
550.01	1259.21
550.18	3009.93
550.34	2150.95
550.51	1495.60
550.68	1916.90
550.84	1371.55
551.01	1376.24
551.18	1640.72
551.34	1458.15
551.51	1446.45
551.68	1441.77
551.84	1563.48
552.01	1289.64
552.18	1423.05
552.34	1352.83
552.51	1441.77
552.68	1575.18
552.84	1329.42
553.01	1521.35
553.18	1694.55
553.34	1423.05
553.51	1219.42
553.67	1575.18
553.84	2031.58
554.01	1631.35
554.17	1612.63
554.34	1188.99
554.51	1465.18
554.67	1673.48
554.84	1521.35
555.00	1540.07
555.17	1511.99
555.33	1753.06
555.50	1511.99
555.67	1558.80
555.83	1200.69
556.00	1462.83
556.16	3517.83
556.33	1638.38
556.50	1343.47
556.66	1392.62
556.83	1362.19
556.99	1373.89
557.16	1439.43
557.32	1303.68
557.49	1362.19
557.65	1404.32
557.82	1268.57
557.98	1418.36
558.15	1277.93
558.32	1273.25
558.48	1364.53
558.65	1343.47
558.81	1504.96
558.98	1322.40
559.14	1537.73
559.31	1481.56
559.47	1685.19
559.64	1291.98
559.80	1570.50
559.97	1291.98
560.13	1322.40
560.30	1196.01
560.46	1301.34
560.63	1277.93
560.79	1275.59
560.96	1458.15
561.12	1310.70
561.29	1629.01
561.45	1291.98
561.61	1371.55
561.78	2473.95
561.94	1392.62
562.11	1247.51
562.27	1439.43
562.44	1174.95
562.60	1277.93
562.77	1345.81
562.93	2139.25
563.10	1359.85
563.26	1392.62
563.42	1633.69
563.59	1465.18
563.75	1284.95
563.92	1638.38
564.08	1446.45
564.24	1629.01
564.41	1998.82
564.57	1179.63
564.74	1259.21
564.90	1338.79
565.07	1495.60
565.23	1509.65
565.39	1221.76
565.56	1420.71
565.72	1128.14
565.88	1315.38
566.05	1284.95
566.21	1224.10
566.38	1514.33
566.54	1430.07
566.70	1282.61
566.87	1210.06
567.03	1055.58
567.19	1268.57
567.36	1460.49
567.52	1266.23
567.68	1516.67
567.85	1535.39
568.01	1270.91
568.17	1081.33
568.34	1207.72
568.50	1647.74
568.66	1151.54
568.83	2200.10
568.99	1256.87
569.15	1614.97
569.32	1299.00
569.48	1245.16
569.64	1142.18
569.81	1282.61
569.97	1338.79
570.13	1465.18
570.30	1184.31
570.46	1268.57
570.62	1207.72
570.78	1254.53
570.95	1088.35
571.11	1858.39
571.27	1682.85
571.43	1104.73
571.60	1490.92
571.76	1132.82
571.92	1266.23
572.09	1214.74
572.25	1350.49
572.41	1254.53
572.57	1341.13
572.74	1837.32
572.90	1526.03
573.06	1327.08
573.22	1516.67
573.38	1629.01
573.55	1554.12
573.71	1636.03
573.87	1439.43
574.03	1100.05
574.20	1359.85
574.36	1486.24
574.52	1231.12
574.68	1095.37
574.84	1502.62
575.01	1306.02
575.17	1479.22
575.33	1050.90
575.49	1584.54
575.65	1586.88
575.82	1514.33
575.98	1933.28
576.14	1313.04
576.30	1170.27
576.46	1277.93
576.62	1336.45
576.79	1437.09
576.95	1755.40
577.11	1221.76
577.27	1048.56
577.43	1666.46
577.59	1593.90
577.75	1392.62
577.92	1217.08
578.08	1200.69
578.24	1109.41
578.40	1528.37
578.56	1685.19
578.72	1790.51
578.88	1514.33
579.04	1334.11
579.21	1277.93
579.37	1217.08
579.53	1135.16
579.69	1598.59
579.85	1139.84
580.01	1554.12
580.17	1090.69
580.33	1062.60
580.49	1331.76
580.65	1427.73
580.82	1341.13
580.98	1181.97
581.14	1055.58
581.30	1591.56
581.46	1294.32
581.62	1554.12
581.78	1093.03
581.94	1371.55
582.10	1041.54
582.26	1235.80
582.42	1156.22
582.58	1455.81
582.74	1196.01
582.90	1380.92
583.06	1366.87
583.22	1465.18
583.38	1109.41
583.54	1153.88
583.70	1771.79
583.86	1331.76
584.02	1203.04
584.18	1743.70
584.34	1179.63
584.50	1207.72
584.66	1299.00
584.82	1130.48
584.98	1270.91
585.14	1280.27
585.30	1565.82
585.46	1263.89
585.62	1029.84
585.78	1111.75
585.94	1383.26
586.10	1217.08
586.26	1252.19
586.42	1771.79
586.58	1488.58
586.74	1256.87
586.90	1240.48
587.06	1299.00
587.22	1336.45
587.38	1083.67
587.54	1221.76
587.70	1626.67
587.86	1434.75
588.02	1121.12
588.18	1303.68
588.34	1392.62
588.49	809.83
588.65	1039.20
588.81	1043.88
588.97	856.64
589.13	1102.39
589.29	1086.01
589.45	1383.26
589.61	1153.88
589.77	1462.83
589.93	1078.99
590.08	1053.24
590.24	978.34
590.40	1184.31
590.56	1387.94
590.72	1163.25
590.88	945.58
591.04	1266.23
591.20	1144.52
591.35	1607.95
591.51	1186.65
591.67	976.00
591.83	1062.60
591.99	1343.47
592.15	1493.26
592.31	1320.06
592.46	1142.18
592.62	1427.73
592.78	1076.65
592.94	952.60
593.10	1067.28
593.26	1025.15
593.41	1357.51
593.57	1118.78
593.73	1053.24
593.89	1366.87
594.05	1188.99
594.20	1071.97
594.36	1446.45
594.52	1053.24
594.68	1078.99
594.84	1397.30
594.99	1600.93
595.15	1287.29
595.31	1439.43
595.47	1671.14
595.62	1266.23
595.78	1111.75
595.94	1093.03
596.10	1535.39
596.25	1261.55
596.41	1394.96
596.57	1064.94
596.73	1081.33
596.88	1137.50
597.04	1219.42
597.20	1029.84
597.36	1214.74
597.51	1100.05
597.67	1006.43
597.83	1034.52
597.99	1355.17
598.14	1256.87
598.30	1504.96
598.46	1158.57
598.61	1423.05
598.77	1289.64
598.93	1036.86
599.09	1210.06
599.24	1219.42
599.40	1547.09
599.56	1233.46
599.71	1186.65
599.87	1097.71
600.03	1102.39
600.18	1123.46
600.34	1390.28
600.50	1078.99
600.65	910.47
600.81	1331.76
600.97	1062.60
601.12	1226.44
601.28	1521.35
601.44	1233.46
601.59	950.26
601.75	1144.52
601.91	954.94
602.06	1165.59
602.22	2066.69
602.37	1322.40
