SpectraSuite Data File
++++++++++++++++++++++++++++++++++++
Date: Mon Oct 07 15:00:07 GMT-05:00 2013
User: price-jones
Dark Spectrum Present: No
Reference Spectrum Present: No
Number of Sampled Component Spectra: 1
Spectrometers: USB2+H05261
Integration Time (usec): 1000000 (USB2+H05261)
Spectra Averaged: 1 (USB2+H05261)
Boxcar Smoothing: 0 (USB2+H05261)
Correct for Electrical Dark: No (USB2+H05261)
Strobe/Lamp Enabled: No (USB2+H05261)
Correct for Detector Non-linearity: No (USB2+H05261)
Correct for Stray Light: No (USB2+H05261)
Number of Pixels in Processed Spectrum: 2048
>>>>>Begin Processed Spectral Data<<<<<
365.73	0.00
365.92	0.00
366.12	0.00
366.32	0.00
366.52	0.00
366.72	222.35
366.91	0.00
367.11	173.20
367.31	135.75
367.51	210.65
367.70	198.95
367.90	442.36
368.10	175.54
368.30	215.33
368.49	0.00
368.69	374.49
368.89	168.52
369.09	7.02
369.28	182.56
369.48	0.00
369.68	100.64
369.87	182.56
370.07	65.54
370.27	519.60
370.47	308.95
370.66	250.44
370.86	456.40
371.06	788.76
371.25	1029.84
371.45	421.30
371.65	770.04
371.84	290.23
372.04	194.26
372.24	489.17
372.44	409.59
372.63	510.24
372.83	983.02
373.03	557.05
373.22	355.76
373.42	379.17
373.62	517.26
373.81	592.16
374.01	739.61
374.21	697.48
374.40	428.32
374.60	739.61
374.79	505.56
374.99	397.89
375.19	676.41
375.38	748.97
375.58	587.47
375.78	793.44
375.97	683.44
376.17	1053.24
376.37	484.49
376.56	662.37
376.76	430.66
376.95	449.38
377.15	765.36
377.35	674.07
377.54	737.27
377.74	411.93
377.93	428.32
378.13	561.73
378.33	880.04
378.52	526.62
378.72	765.36
378.91	767.70
379.11	454.06
379.31	390.87
379.50	248.10
379.70	821.53
379.89	662.37
380.09	514.92
380.28	320.65
380.48	545.34
380.68	395.55
380.87	346.40
381.07	547.69
381.26	781.74
381.46	320.65
381.65	566.41
381.85	425.98
382.04	690.46
382.24	564.07
382.43	540.66
382.63	400.23
382.83	454.06
383.02	812.17
383.22	844.93
383.41	416.62
383.61	585.13
383.80	800.46
384.00	535.98
384.19	531.30
384.39	496.19
384.58	463.43
384.78	678.76
384.97	674.07
385.17	568.75
385.36	400.23
385.56	741.95
385.75	287.89
385.95	578.11
386.14	795.78
386.34	526.62
386.53	573.43
386.72	451.72
386.92	910.47
387.11	669.39
387.31	758.33
387.50	435.34
387.70	381.51
387.89	575.77
388.09	456.40
388.28	383.85
388.48	425.98
388.67	765.36
388.86	552.37
389.06	482.15
389.25	627.26
389.45	627.26
389.64	566.41
389.84	821.53
390.03	739.61
390.22	582.79
390.42	645.99
390.61	428.32
390.81	325.33
391.00	585.13
391.19	903.45
391.39	535.98
391.58	791.10
391.78	533.64
391.97	580.45
392.16	358.10
392.36	940.90
392.55	847.27
392.75	510.24
392.94	449.38
393.13	660.03
393.33	320.65
393.52	386.19
393.71	910.47
393.91	671.73
394.10	430.66
394.29	482.15
394.49	475.13
394.68	671.73
394.88	887.06
395.07	844.93
395.26	741.95
395.46	557.05
395.65	854.30
395.84	676.41
396.04	1420.71
396.23	660.03
396.42	461.09
396.62	725.57
396.81	690.46
397.00	596.84
397.19	683.44
397.39	643.65
397.58	961.96
397.77	545.34
397.97	674.07
398.16	650.67
398.35	847.27
398.55	615.56
398.74	758.33
398.93	983.02
399.12	657.69
399.32	767.70
399.51	655.35
399.70	915.15
399.90	774.72
400.09	833.23
400.28	1004.09
400.47	636.63
400.67	1022.81
400.86	767.70
401.05	898.77
401.24	992.39
401.44	910.47
401.63	1062.60
401.82	1100.05
402.01	627.26
402.21	1001.75
402.40	868.34
402.59	716.20
402.78	723.23
402.97	746.63
403.17	812.17
403.36	901.11
403.55	709.18
403.74	720.88
403.93	755.99
404.13	1095.37
404.32	645.99
404.51	695.14
404.70	1008.77
404.89	802.80
405.09	1380.92
405.28	830.89
405.47	634.29
405.66	929.19
405.85	1086.01
406.05	889.40
406.24	809.83
406.43	884.72
406.62	922.17
406.81	1521.35
407.00	1102.39
407.20	889.40
407.39	798.12
407.58	877.70
407.77	1027.50
407.96	1212.40
408.15	1160.91
408.34	1144.52
408.54	938.55
408.73	1025.15
408.92	957.28
409.11	1090.69
409.30	1088.35
409.49	725.57
409.68	798.12
409.87	903.45
410.07	683.44
410.26	844.93
410.45	861.32
410.64	788.76
410.83	877.70
411.02	905.79
411.21	1081.33
411.40	1165.59
411.59	863.66
411.78	875.36
411.98	959.62
412.17	873.02
412.36	938.55
412.55	856.64
412.74	1137.50
412.93	1399.64
413.12	924.51
413.31	1116.44
413.50	1067.28
413.69	905.79
413.88	1373.89
414.07	1146.86
414.26	1128.14
414.45	887.06
414.64	1036.86
414.83	1104.73
415.02	1050.90
415.22	1146.86
415.41	1327.08
415.60	884.72
415.79	1029.84
415.98	1458.15
416.17	1090.69
416.36	1153.88
416.55	877.70
416.74	1186.65
416.93	1327.08
417.12	1036.86
417.31	1027.50
417.50	987.71
417.69	1626.67
417.88	1074.31
418.07	961.96
418.26	987.71
418.45	1011.11
418.64	1535.39
418.83	1226.44
419.02	1174.95
419.21	1144.52
419.39	1193.67
419.58	954.94
419.77	987.71
419.96	1336.45
420.15	1507.30
420.34	1151.54
420.53	1238.14
420.72	1359.85
420.91	1240.48
421.10	1221.76
421.29	1291.98
421.48	1369.21
421.67	1320.06
421.86	1081.33
422.05	1158.57
422.24	1109.41
422.43	1142.18
422.61	940.90
422.80	1048.56
422.99	1205.38
423.18	1013.45
423.37	1481.56
423.56	1228.78
423.75	1348.15
423.94	1116.44
424.13	1055.58
424.32	983.02
424.50	1060.26
424.69	1139.84
424.88	1448.79
425.07	1041.54
425.26	1249.85
425.45	1259.21
425.64	1053.24
425.83	1041.54
426.01	1448.79
426.20	1294.32
426.39	1163.25
426.58	1081.33
426.77	1198.35
426.96	1254.53
427.15	1172.61
427.33	1048.56
427.52	1235.80
427.71	1132.82
427.90	1240.48
428.09	1060.26
428.28	976.00
428.46	1071.97
428.65	1226.44
428.84	1055.58
429.03	1575.18
429.22	1043.88
429.40	912.81
429.59	791.10
429.78	1308.36
429.97	990.05
430.16	884.72
430.34	985.37
430.53	894.08
430.72	1039.20
430.91	1376.24
431.10	1055.58
431.28	1320.06
431.47	1544.75
431.66	1413.68
431.85	1104.73
432.03	1109.41
432.22	1867.75
432.41	1137.50
432.60	1659.44
432.79	1153.88
432.97	1357.51
433.16	1184.31
433.35	1013.45
433.54	1104.73
433.72	1455.81
433.91	1338.79
434.10	1125.80
434.28	1369.21
434.47	1322.40
434.66	1462.83
434.85	1226.44
435.03	1324.74
435.22	1811.57
435.41	1827.96
435.59	1509.65
435.78	1476.88
435.97	1329.42
436.16	1692.21
436.34	1394.96
436.53	1556.46
436.72	1624.33
436.90	1593.90
437.09	1469.86
437.28	1261.55
437.46	1399.64
437.65	1600.93
437.84	1469.86
438.02	1392.62
438.21	1474.54
438.40	1245.16
438.58	1100.05
438.77	1413.68
438.96	1437.09
439.14	1315.38
439.33	1657.10
439.52	1390.28
439.70	1497.94
439.89	1699.23
440.08	1420.71
440.26	1502.62
440.45	1942.64
440.63	1549.43
440.82	1624.33
441.01	1526.03
441.19	1451.13
441.38	1582.20
441.57	1624.33
441.75	1898.17
441.94	2038.61
442.12	1701.57
442.31	1521.35
442.50	1554.12
442.68	1530.71
442.87	1551.78
443.05	1551.78
443.24	1717.95
443.43	1837.32
443.61	2001.16
443.80	1633.69
443.98	1519.01
444.17	1593.90
444.35	1842.00
444.54	1624.33
444.73	1631.35
444.91	1930.94
445.10	1444.11
445.28	1458.15
445.47	1563.48
445.65	1526.03
445.84	1481.56
446.02	1565.82
446.21	1535.39
446.39	1551.78
446.58	1809.23
446.77	1652.42
446.95	1753.06
447.14	1816.26
447.32	2047.97
447.51	1682.85
447.69	1614.97
447.88	1804.55
448.06	1984.77
448.25	1783.49
448.43	1497.94
448.62	1425.39
448.80	1675.82
448.99	1930.94
449.17	1694.55
449.36	1579.86
449.54	1886.47
449.73	1748.38
449.91	1881.79
450.10	1708.59
450.28	2455.22
450.46	2427.14
450.65	2111.16
450.83	1809.23
451.02	1853.70
451.20	1834.98
451.39	1809.23
451.57	1703.91
451.76	1631.35
451.94	1715.61
452.13	1926.26
452.31	2005.84
452.49	1877.11
452.68	1502.62
452.86	1842.00
453.05	2186.06
453.23	1860.73
453.42	1514.33
453.60	1748.38
453.78	1956.69
453.97	1586.88
454.15	1612.63
454.34	1694.55
454.52	1720.29
454.70	2129.89
454.89	1877.11
455.07	1617.31
455.26	2008.18
455.44	2069.03
455.62	1748.38
455.81	1935.62
455.99	1940.30
456.17	2066.69
456.36	1867.75
456.54	1827.96
456.73	1856.04
456.91	1767.10
457.09	2092.44
457.28	2207.13
457.46	1923.92
457.64	2207.13
457.83	1877.11
458.01	1675.82
458.19	2012.86
458.38	1783.49
458.56	1900.52
458.74	1713.27
458.93	1996.48
459.11	2062.01
459.29	1767.10
459.48	1916.90
459.66	2504.37
459.84	2162.66
460.03	3066.10
460.21	2216.49
460.39	2015.20
460.57	2312.45
460.76	1919.24
460.94	1973.07
461.12	2310.11
461.31	2373.30
461.49	1987.11
461.67	1956.69
461.85	2106.48
462.04	1937.96
462.22	8561.68
462.40	2413.09
462.59	2293.72
462.77	1886.47
462.95	2022.22
463.13	1778.81
463.32	2165.00
463.50	1919.24
463.68	2127.55
463.86	2036.27
464.05	1942.64
464.23	2232.87
464.41	2118.18
464.59	1753.06
464.78	1860.73
464.96	1743.70
465.14	2111.16
465.32	1818.60
465.50	2225.85
465.69	2221.17
465.87	1734.34
466.05	2069.03
466.23	1778.81
466.41	1879.45
466.60	1912.22
466.78	1991.80
466.96	2228.19
467.14	2092.44
467.32	2385.01
467.51	2099.46
467.69	2218.83
467.87	2410.75
468.05	1982.43
468.23	2544.16
468.41	2139.25
468.60	1973.07
468.78	2015.20
468.96	2368.62
469.14	2216.49
469.32	1820.94
469.50	1746.04
469.69	2132.23
469.87	1980.09
470.05	2174.36
470.23	1984.77
470.41	1891.15
470.59	1856.04
470.77	2115.84
470.95	2111.16
471.14	2296.07
471.32	2139.25
471.50	2588.63
471.68	2127.55
471.86	2314.79
472.04	2019.88
472.22	2216.49
472.40	1926.26
472.58	2026.90
472.77	1919.24
472.95	2106.48
473.13	2733.75
473.31	2452.88
473.49	2057.33
473.67	2050.31
473.85	2321.81
474.03	2328.83
474.21	2303.09
474.39	2745.45
474.57	2691.62
474.75	2263.30
474.93	2059.67
475.12	1937.96
475.30	2223.51
475.48	2277.34
475.66	2239.89
475.84	2214.15
476.02	2202.44
476.20	2415.43
476.38	2289.04
476.56	3075.46
476.74	2310.11
476.92	2349.90
477.10	2434.16
477.28	2602.68
477.46	2410.75
477.64	2586.29
477.82	2431.82
478.00	2504.37
478.18	2401.39
478.36	2471.61
478.54	2275.00
478.72	2450.54
478.90	2466.92
479.08	2675.23
479.26	2609.70
479.44	2560.55
479.62	2319.47
479.80	2403.73
479.98	2459.90
480.16	2429.48
480.34	2752.47
480.52	2450.54
480.70	2630.76
480.88	2401.39
481.06	2443.52
481.24	2607.36
481.41	2565.23
481.59	2923.33
481.77	2832.05
481.95	2607.36
482.13	3052.06
482.31	2658.85
482.49	2586.29
482.67	2803.96
482.85	2937.37
483.03	2895.24
483.21	2888.22
483.39	2663.53
483.57	2724.38
483.74	3073.12
483.92	2745.45
484.10	2583.95
484.28	3012.27
484.46	3555.27
484.64	2700.98
484.82	2862.48
485.00	2712.68
485.18	2738.43
485.35	2738.43
485.53	2366.28
485.71	2717.36
485.89	2054.99
486.07	2392.03
486.25	3290.79
486.43	2752.47
486.61	2930.35
486.78	2963.12
486.96	2562.89
487.14	2815.66
487.32	2848.43
487.50	2916.31
487.68	3232.28
487.85	2944.39
488.03	3215.90
488.21	3386.76
488.39	2977.16
488.57	3126.96
488.75	3005.25
488.92	6789.89
489.10	3503.78
489.28	3758.90
489.46	3075.46
489.64	3393.78
489.81	3391.44
489.99	3609.11
490.17	3332.92
490.35	4119.34
490.53	3349.31
490.70	3197.17
490.88	3597.40
491.06	3272.07
491.24	3599.74
491.41	3672.30
491.59	3407.82
491.77	2986.52
491.95	3115.25
492.13	3225.26
492.30	3410.16
492.48	3499.10
492.66	3520.17
492.84	3391.44
493.01	3564.64
493.19	3358.67
493.37	3932.10
493.54	3578.68
493.72	3566.98
493.90	3501.44
494.08	3625.49
494.25	3995.29
494.43	3709.75
494.61	3742.52
494.79	3595.06
494.96	3550.59
495.14	3768.26
495.32	3592.72
495.49	3712.09
495.67	3744.86
495.85	3758.90
496.02	3597.40
496.20	3850.18
496.38	3817.41
496.55	3728.47
496.73	4011.68
496.91	3756.56
497.09	4124.02
497.26	3892.31
497.44	3850.18
497.62	3763.58
497.79	3756.56
497.97	3815.07
498.14	3885.29
498.32	3908.69
498.50	3971.89
498.67	3784.65
498.85	3955.51
499.03	3810.39
499.20	3941.46
499.38	3995.29
499.56	3955.51
499.73	4456.38
499.91	4117.00
500.08	3999.98
500.26	3803.37
500.44	3768.26
500.61	3964.87
500.79	3779.97
500.97	3932.10
501.14	4297.22
501.32	4011.68
501.49	4292.54
501.67	3878.27
501.84	3896.99
502.02	3627.83
502.20	4557.02
502.37	4142.75
502.55	4058.49
502.72	4135.73
502.90	4491.49
503.07	3985.93
503.25	4138.07
503.43	3714.43
503.60	3597.40
503.78	3847.84
503.95	4014.02
504.13	3843.16
504.30	4327.65
504.48	4327.65
504.65	4447.02
504.83	4355.74
505.01	4229.35
505.18	4339.35
505.36	4355.74
505.53	4173.18
505.71	4297.22
505.88	4770.01
506.06	4271.48
506.23	4210.62
506.41	4168.49
506.58	4468.08
506.76	4231.69
506.93	4107.64
507.11	4362.76
507.28	4152.11
507.46	3934.44
507.63	4222.33
507.81	3941.46
507.98	3983.59
508.16	4149.77
508.33	4271.48
508.50	4493.83
508.68	4472.76
508.85	4379.14
509.03	4236.37
509.20	4257.43
509.38	4447.02
509.55	4540.64
509.73	4667.03
509.90	4690.43
510.08	4187.22
510.25	4573.41
510.42	4224.67
510.60	4322.97
510.77	4631.92
510.95	4683.41
511.12	4428.29
511.30	4760.65
511.47	4589.79
511.64	5111.73
511.82	4470.42
511.99	4372.12
512.17	4236.37
512.34	4182.54
512.51	4154.45
512.69	4397.87
512.86	4718.52
513.04	4329.99
513.21	4482.13
513.38	4245.73
513.56	4250.41
513.73	4177.86
513.90	4070.19
514.08	4161.47
514.25	4374.46
514.43	4465.74
514.60	4308.93
514.77	4297.22
514.95	4594.47
515.12	4386.16
515.29	4456.38
515.47	4580.43
515.64	4662.35
515.81	4524.26
515.99	4676.39
516.16	4423.61
516.33	4252.75
516.51	3775.28
516.68	3545.91
516.85	3772.94
517.03	3889.97
517.20	4299.56
517.37	4681.07
517.54	4716.18
517.72	4236.37
517.89	3691.02
518.06	3779.97
518.24	4716.18
518.41	4910.44
518.58	4676.39
518.75	4236.37
518.93	4493.83
519.10	4304.25
519.27	4449.36
519.45	4624.90
519.62	4608.51
519.79	4648.30
519.96	4451.70
520.14	4730.22
520.31	4912.78
520.48	4484.47
520.65	4746.61
520.83	4870.65
521.00	4875.34
521.17	4931.51
521.34	4610.86
521.52	4772.35
521.69	4788.74
521.86	4727.88
522.03	4952.57
522.20	5165.56
522.38	4533.62
522.55	4697.46
522.72	4297.22
522.89	4905.76
523.07	5275.57
523.24	4777.03
523.41	4777.03
523.58	4737.24
523.75	4880.02
523.92	4762.99
524.10	4968.96
524.27	4786.40
524.44	4767.67
524.61	5287.27
524.78	4830.87
524.96	4912.78
525.13	4837.89
525.30	5107.05
525.47	5090.67
525.64	5057.90
525.81	4891.72
525.98	4514.89
526.16	4276.16
526.33	4276.16
526.50	4248.07
526.67	4191.90
526.84	4210.62
527.01	4339.35
527.18	4777.03
527.36	4760.65
527.53	4648.30
527.70	4994.70
527.87	4959.60
528.04	5376.21
528.21	4704.48
528.38	5282.59
528.55	5364.51
528.72	5383.23
528.89	5647.71
529.07	5123.43
529.24	4933.85
529.41	5277.91
529.58	4875.34
529.75	4800.44
529.92	5282.59
530.09	5153.86
530.26	5406.64
530.43	5322.38
530.60	5334.08
530.77	5160.88
530.94	5343.44
531.11	5282.59
531.28	4980.66
531.46	4830.87
531.63	5111.73
531.80	5114.07
531.97	5247.48
532.14	4901.08
532.31	4854.27
532.48	4819.16
532.65	4819.16
532.82	4610.86
532.99	4952.57
533.16	5055.56
533.33	5027.47
533.50	4901.08
533.67	4774.69
533.84	5111.73
534.01	5165.56
534.18	4915.12
534.35	4980.66
534.52	4978.32
534.69	5774.10
534.86	5132.79
535.03	5163.22
535.20	5118.75
535.37	5448.77
535.54	5348.12
535.71	5156.20
535.88	5495.58
536.05	5043.85
536.22	5060.24
536.38	4966.62
536.55	4992.36
536.72	5294.29
536.89	4821.50
537.06	5100.03
537.23	5280.25
537.40	4985.34
537.57	5039.17
537.74	5376.21
537.91	5453.45
538.08	5109.39
538.25	5284.93
538.42	5193.65
538.59	5296.63
538.75	5195.99
538.92	4980.66
539.09	5322.38
539.26	4912.78
539.43	5467.49
539.60	5093.01
539.77	5195.99
539.94	4947.89
540.11	4964.28
540.28	5348.12
540.44	5259.18
540.61	4985.34
540.78	4990.02
540.95	4744.27
541.12	5472.17
541.29	5013.43
541.46	5486.22
541.62	5366.85
541.79	4954.91
541.96	4987.68
542.13	5116.41
542.30	4978.32
542.47	5441.75
542.63	4994.70
542.80	5043.85
542.97	5348.12
543.14	4999.38
543.31	5357.49
543.48	5074.28
543.64	5303.65
543.81	5315.36
543.98	5123.43
544.15	4938.53
544.32	5132.79
544.48	5167.90
544.65	5160.88
544.82	5055.56
544.99	5261.52
545.16	5406.64
545.32	5078.96
545.49	5247.48
545.66	5191.31
545.83	5085.98
546.00	5193.65
546.16	4940.87
546.33	5083.64
546.50	5022.79
546.67	5619.63
546.83	5500.26
547.00	5132.79
547.17	4805.12
547.34	4875.34
547.50	4997.04
547.67	5093.01
547.84	4863.63
548.00	5404.30
548.17	5240.46
548.34	4994.70
548.51	5811.55
548.67	5376.21
548.84	5296.63
549.01	5291.95
549.18	5291.95
549.34	5261.52
549.51	5303.65
549.68	5256.84
549.84	5249.82
550.01	4858.95
550.18	6654.14
550.34	6047.94
550.51	5338.76
550.68	5935.60
550.84	5064.92
551.01	5121.09
551.18	5308.34
551.34	5135.14
551.51	5380.89
551.68	5144.50
551.84	5458.13
552.01	5205.35
552.18	5067.26
552.34	5034.49
552.51	5055.56
552.68	5270.89
552.84	5210.03
553.01	5104.71
553.18	5575.16
553.34	5167.90
553.51	5013.43
553.67	5397.28
553.84	5792.83
554.01	5589.20
554.17	5495.58
554.34	5174.92
554.51	5439.40
554.67	5589.20
554.84	5584.52
555.00	5437.06
555.17	5261.52
555.33	5678.14
555.50	5453.45
555.67	5455.79
555.83	4997.04
556.00	5125.77
556.16	7311.83
556.33	5270.89
556.50	5107.05
556.66	4954.91
556.83	4947.89
556.99	5085.98
557.16	5231.10
557.32	5085.98
557.49	5041.51
557.65	5041.51
557.82	5032.15
557.98	5130.45
558.15	5008.75
558.32	4870.65
558.48	4638.94
558.65	4922.15
558.81	5144.50
558.98	4826.18
559.14	5207.69
559.31	5100.03
559.47	5205.35
559.64	4910.44
559.80	5219.39
559.97	4938.53
560.13	5036.83
560.30	4994.70
560.46	5118.75
560.63	5198.33
560.79	5282.59
560.96	5291.95
561.12	4924.49
561.29	5146.84
561.45	4983.00
561.61	5006.41
561.78	6057.31
561.94	5085.98
562.11	5013.43
562.27	4994.70
562.44	5011.09
562.60	5217.05
562.77	5034.49
562.93	5879.43
563.10	5357.49
563.26	5151.52
563.42	5502.60
563.59	5247.48
563.75	5006.41
563.92	5460.47
564.08	5111.73
564.24	5500.26
564.41	5710.91
564.57	4896.40
564.74	4936.19
564.90	5205.35
565.07	5135.14
565.23	5317.70
565.39	4791.08
565.56	5041.51
565.72	4880.02
565.88	4964.28
566.05	4835.55
566.21	5060.24
566.38	5123.43
566.54	5130.45
566.70	5064.92
566.87	4954.91
567.03	4858.95
567.19	5083.64
567.36	5165.56
567.52	4980.66
567.68	5011.09
567.85	5132.79
568.01	4826.18
568.17	4723.20
568.34	4847.25
568.50	5191.31
568.66	4772.35
568.83	5905.17
568.99	4952.57
569.15	5158.54
569.32	4973.64
569.48	4936.19
569.64	4830.87
569.81	4945.55
569.97	4821.50
570.13	5139.82
570.30	4589.79
570.46	4788.74
570.62	4676.39
570.78	4784.06
570.95	4552.34
571.11	5224.08
571.27	5376.21
571.43	4802.78
571.60	5214.71
571.76	4856.61
571.92	5029.81
572.09	4980.66
572.25	5006.41
572.41	5018.11
572.57	5076.62
572.74	5666.44
572.90	5263.86
573.06	4992.36
573.22	5107.05
573.38	5423.02
573.55	5100.03
573.71	5275.57
573.87	5373.87
574.03	4863.63
574.20	4870.65
574.36	5217.05
574.52	4873.00
574.68	4830.87
574.84	5029.81
575.01	4751.29
575.17	4966.62
575.33	4865.97
575.49	5193.65
575.65	5191.31
575.82	5170.24
575.98	5593.88
576.14	5085.98
576.30	4966.62
576.46	4901.08
576.62	5139.82
576.79	5224.08
576.95	5289.61
577.11	4868.31
577.27	4802.78
577.43	5224.08
577.59	5254.50
577.75	5039.17
577.92	4802.78
578.08	4706.82
578.24	4578.09
578.40	5224.08
578.56	5221.74
578.72	5343.44
578.88	5146.84
579.04	5001.72
579.21	5121.09
579.37	5172.58
579.53	4863.63
579.69	5212.37
579.85	4786.40
580.01	5032.15
580.17	4755.97
580.33	4709.16
580.49	4945.55
580.65	5095.35
580.82	5085.98
580.98	4826.18
581.14	4870.65
581.30	5320.04
581.46	4901.08
581.62	5350.46
581.78	4842.57
581.94	5158.54
582.10	4823.84
582.26	4887.04
582.42	4901.08
582.58	5170.24
582.74	4922.15
582.90	5088.32
583.06	5139.82
583.22	5214.71
583.38	4891.72
583.54	4786.40
583.70	5313.02
583.86	5116.41
584.02	4957.25
584.18	5495.58
584.34	4985.34
584.50	4931.51
584.66	5020.45
584.82	4751.29
584.98	5067.26
585.14	4805.12
585.30	5163.22
585.46	4833.21
585.62	4732.56
585.78	4830.87
585.94	4844.91
586.10	4877.68
586.26	5036.83
586.42	5549.41
586.58	5071.94
586.74	4999.38
586.90	5107.05
587.06	5039.17
587.22	5001.72
587.38	4758.31
587.54	4739.58
587.70	5046.20
587.86	5210.03
588.02	4784.06
588.18	4779.37
588.34	4802.78
588.49	4070.19
588.65	4189.56
588.81	4023.38
588.97	3936.78
589.13	4297.22
589.29	4299.56
589.45	4662.35
589.61	4720.86
589.77	4816.82
589.93	4423.61
590.08	4533.62
590.24	4643.62
590.40	4578.09
590.56	4910.44
590.72	4634.26
590.88	4552.34
591.04	4699.80
591.20	4603.83
591.35	4987.68
591.51	4802.78
591.67	4564.04
591.83	4648.30
591.99	4779.37
592.15	5060.24
592.31	4669.37
592.46	4800.44
592.62	4898.74
592.78	4514.89
592.94	4458.72
593.10	4603.83
593.26	4613.20
593.41	5043.85
593.57	4702.14
593.73	4624.90
593.89	4940.87
594.05	4622.56
594.20	4519.57
594.36	4966.62
594.52	4564.04
594.68	4517.23
594.84	4905.76
594.99	5102.37
595.15	4781.71
595.31	5069.60
595.47	5334.08
595.62	4706.82
595.78	4706.82
595.94	4601.49
596.10	4905.76
596.25	4795.76
596.41	4966.62
596.57	4713.84
596.73	4603.83
596.88	4676.39
597.04	4676.39
597.20	4528.94
597.36	4762.99
597.51	4592.13
597.67	4500.85
597.83	4559.36
597.99	4809.80
598.14	4744.27
598.30	5076.62
598.46	4496.17
