SpectraSuite Data File
++++++++++++++++++++++++++++++++++++
Date: Mon Oct 07 14:59:57 GMT-05:00 2013
User: price-jones
Dark Spectrum Present: No
Reference Spectrum Present: No
Number of Sampled Component Spectra: 1
Spectrometers: USB2+H05261
Integration Time (usec): 100000 (USB2+H05261)
Spectra Averaged: 1 (USB2+H05261)
Boxcar Smoothing: 0 (USB2+H05261)
Correct for Electrical Dark: No (USB2+H05261)
Strobe/Lamp Enabled: No (USB2+H05261)
Correct for Detector Non-linearity: No (USB2+H05261)
Correct for Stray Light: No (USB2+H05261)
Number of Pixels in Processed Spectrum: 2048
>>>>>Begin Processed Spectral Data<<<<<
365.73	0.00
365.92	0.00
366.12	0.00
366.32	0.00
366.52	0.00
366.72	0.00
366.91	0.00
367.11	0.00
367.31	0.00
367.51	0.00
367.70	0.00
367.90	0.00
368.10	0.00
368.30	0.00
368.49	0.00
368.69	0.00
368.89	0.00
369.09	0.00
369.28	0.00
369.48	0.00
369.68	0.00
369.87	0.00
370.07	0.00
370.27	0.00
370.47	0.00
370.66	0.00
370.86	0.00
371.06	0.00
371.25	0.00
371.45	0.00
371.65	0.00
371.84	0.00
372.04	0.00
372.24	0.00
372.44	0.00
372.63	0.00
372.83	0.00
373.03	0.00
373.22	0.00
373.42	0.00
373.62	0.00
373.81	0.00
374.01	0.00
374.21	0.00
374.40	0.00
374.60	0.00
374.79	0.00
374.99	0.00
375.19	0.00
375.38	0.00
375.58	0.00
375.78	0.00
375.97	0.00
376.17	0.00
376.37	0.00
376.56	0.00
376.76	0.00
376.95	0.00
377.15	0.00
377.35	0.00
377.54	0.00
377.74	0.00
377.93	0.00
378.13	0.00
378.33	0.00
378.52	0.00
378.72	0.00
378.91	0.00
379.11	0.00
379.31	0.00
379.50	0.00
379.70	0.00
379.89	0.00
380.09	0.00
380.28	0.00
380.48	0.00
380.68	0.00
380.87	0.00
381.07	0.00
381.26	0.00
381.46	0.00
381.65	0.00
381.85	0.00
382.04	0.00
382.24	0.00
382.43	0.00
382.63	0.00
382.83	0.00
383.02	0.00
383.22	0.00
383.41	0.00
383.61	0.00
383.80	0.00
384.00	0.00
384.19	0.00
384.39	0.00
384.58	0.00
384.78	0.00
384.97	0.00
385.17	0.00
385.36	0.00
385.56	0.00
385.75	0.00
385.95	0.00
386.14	0.00
386.34	0.00
386.53	0.00
386.72	0.00
386.92	0.00
387.11	0.00
387.31	0.00
387.50	0.00
387.70	0.00
387.89	0.00
388.09	0.00
388.28	0.00
388.48	0.00
388.67	0.00
388.86	0.00
389.06	0.00
389.25	0.00
389.45	0.00
389.64	0.00
389.84	0.00
390.03	0.00
390.22	0.00
390.42	0.00
390.61	0.00
390.81	0.00
391.00	0.00
391.19	0.00
391.39	0.00
391.58	0.00
391.78	0.00
391.97	0.00
392.16	0.00
392.36	0.00
392.55	0.00
392.75	0.00
392.94	0.00
393.13	0.00
393.33	0.00
393.52	0.00
393.71	0.00
393.91	0.00
394.10	0.00
394.29	0.00
394.49	0.00
394.68	0.00
394.88	0.00
395.07	0.00
395.26	0.00
395.46	0.00
395.65	0.00
395.84	0.00
396.04	0.00
396.23	0.00
396.42	0.00
396.62	0.00
396.81	0.00
397.00	0.00
397.19	0.00
397.39	0.00
397.58	0.00
397.77	0.00
397.97	0.00
398.16	0.00
398.35	0.00
398.55	0.00
398.74	0.00
398.93	0.00
399.12	0.00
399.32	0.00
399.51	0.00
399.70	0.00
399.90	0.00
400.09	0.00
400.28	0.00
400.47	0.00
400.67	0.00
400.86	0.00
401.05	0.00
401.24	0.00
401.44	0.00
401.63	0.00
401.82	0.00
402.01	0.00
402.21	0.00
402.40	0.00
402.59	0.00
402.78	0.00
402.97	0.00
403.17	0.00
403.36	0.00
403.55	0.00
403.74	0.00
403.93	0.00
404.13	0.00
404.32	0.00
404.51	0.00
404.70	0.00
404.89	0.00
405.09	0.00
405.28	0.00
405.47	0.00
405.66	0.00
405.85	0.00
406.05	0.00
406.24	0.00
406.43	0.00
406.62	0.00
406.81	0.00
407.00	0.00
407.20	0.00
407.39	0.00
407.58	0.00
407.77	0.00
407.96	0.00
408.15	0.00
408.34	0.00
408.54	0.00
408.73	0.00
408.92	0.00
409.11	0.00
409.30	0.00
409.49	0.00
409.68	0.00
409.87	0.00
410.07	0.00
410.26	0.00
410.45	0.00
410.64	0.00
410.83	0.00
411.02	0.00
411.21	0.00
411.40	0.00
411.59	0.00
411.78	0.00
411.98	0.00
412.17	0.00
412.36	0.00
412.55	0.00
412.74	0.00
412.93	0.00
413.12	0.00
413.31	0.00
413.50	0.00
413.69	0.00
413.88	0.00
414.07	0.00
414.26	0.00
414.45	0.00
414.64	0.00
414.83	0.00
415.02	0.00
415.22	0.00
415.41	0.00
415.60	0.00
415.79	0.00
415.98	0.00
416.17	0.00
416.36	0.00
416.55	0.00
416.74	0.00
416.93	0.00
417.12	0.00
417.31	0.00
417.50	0.00
417.69	0.00
417.88	0.00
418.07	0.00
418.26	0.00
418.45	0.00
418.64	0.00
418.83	0.00
419.02	0.00
419.21	0.00
419.39	0.00
419.58	0.00
419.77	0.00
419.96	0.00
420.15	0.00
420.34	0.00
420.53	0.00
420.72	0.00
420.91	0.00
421.10	0.00
421.29	0.00
421.48	0.00
421.67	0.00
421.86	0.00
422.05	0.00
422.24	0.00
422.43	0.00
422.61	0.00
422.80	0.00
422.99	0.00
423.18	0.00
423.37	0.00
423.56	0.00
423.75	0.00
423.94	0.00
424.13	0.00
424.32	0.00
424.50	0.00
424.69	0.00
424.88	0.00
425.07	0.00
425.26	0.00
425.45	0.00
425.64	0.00
425.83	0.00
426.01	0.00
426.20	0.00
426.39	0.00
426.58	0.00
426.77	0.00
426.96	0.00
427.15	0.00
427.33	0.00
427.52	0.00
427.71	0.00
427.90	0.00
428.09	0.00
428.28	0.00
428.46	0.00
428.65	0.00
428.84	0.00
429.03	0.00
429.22	0.00
429.40	0.00
429.59	0.00
429.78	0.00
429.97	0.00
430.16	0.00
430.34	0.00
430.53	0.00
430.72	0.00
430.91	0.00
431.10	0.00
431.28	0.00
431.47	0.00
431.66	0.00
431.85	0.00
432.03	0.00
432.22	0.00
432.41	0.00
432.60	0.00
432.79	0.00
432.97	0.00
433.16	0.00
433.35	0.00
433.54	0.00
433.72	0.00
433.91	0.00
434.10	0.00
434.28	0.00
434.47	0.00
434.66	0.00
434.85	0.00
435.03	0.00
435.22	0.00
435.41	16.38
435.59	0.00
435.78	0.00
435.97	0.00
436.16	0.00
436.34	0.00
436.53	0.00
436.72	0.00
436.90	0.00
437.09	0.00
437.28	0.00
437.46	0.00
437.65	0.00
437.84	0.00
438.02	0.00
438.21	0.00
438.40	0.00
438.58	0.00
438.77	0.00
438.96	0.00
439.14	0.00
439.33	0.00
439.52	0.00
439.70	0.00
439.89	0.00
440.08	0.00
440.26	0.00
440.45	0.00
440.63	0.00
440.82	0.00
441.01	0.00
441.19	0.00
441.38	0.00
441.57	0.00
441.75	0.00
441.94	0.00
442.12	0.00
442.31	0.00
442.50	0.00
442.68	0.00
442.87	9.36
443.05	0.00
443.24	0.00
443.43	0.00
443.61	0.00
443.80	0.00
443.98	0.00
444.17	0.00
444.35	0.00
444.54	0.00
444.73	0.00
444.91	0.00
445.10	0.00
445.28	0.00
445.47	0.00
445.65	0.00
445.84	0.00
446.02	0.00
446.21	0.00
446.39	0.00
446.58	0.00
446.77	0.00
446.95	0.00
447.14	0.00
447.32	42.13
447.51	0.00
447.69	0.00
447.88	0.00
448.06	0.00
448.25	0.00
448.43	0.00
448.62	0.00
448.80	0.00
448.99	0.00
449.17	0.00
449.36	0.00
449.54	0.00
449.73	0.00
449.91	0.00
450.10	0.00
450.28	65.54
450.46	0.00
450.65	0.00
450.83	0.00
451.02	0.00
451.20	0.00
451.39	0.00
451.57	0.00
451.76	0.00
451.94	0.00
452.13	0.00
452.31	0.00
452.49	0.00
452.68	0.00
452.86	0.00
453.05	0.00
453.23	0.00
453.42	0.00
453.60	0.00
453.78	0.00
453.97	0.00
454.15	0.00
454.34	0.00
454.52	0.00
454.70	67.88
454.89	0.00
455.07	0.00
455.26	0.00
455.44	16.38
455.62	0.00
455.81	0.00
455.99	0.00
456.17	0.00
456.36	0.00
456.54	0.00
456.73	51.49
456.91	0.00
457.09	0.00
457.28	9.36
457.46	0.00
457.64	25.75
457.83	0.00
458.01	0.00
458.19	0.00
458.38	0.00
458.56	0.00
458.74	0.00
458.93	0.00
459.11	18.72
459.29	0.00
459.48	0.00
459.66	2.34
459.84	0.00
460.03	56.17
460.21	0.00
460.39	0.00
460.57	0.00
460.76	0.00
460.94	0.00
461.12	25.75
461.31	0.00
461.49	0.00
461.67	0.00
461.85	0.00
462.04	0.00
462.22	554.71
462.40	0.00
462.59	0.00
462.77	0.00
462.95	0.00
463.13	0.00
463.32	0.00
463.50	0.00
463.68	0.00
463.86	18.72
464.05	0.00
464.23	0.00
464.41	77.24
464.59	0.00
464.78	0.00
464.96	0.00
465.14	0.00
465.32	0.00
465.50	0.00
465.69	42.13
465.87	0.00
466.05	0.00
466.23	0.00
466.41	23.41
466.60	0.00
466.78	4.68
466.96	42.13
467.14	84.26
467.32	0.00
467.51	14.04
467.69	0.00
467.87	112.35
468.05	0.00
468.23	37.45
468.41	0.00
468.60	0.00
468.78	0.00
468.96	63.19
469.14	0.00
469.32	0.00
469.50	0.00
469.69	11.70
469.87	0.00
470.05	0.00
470.23	0.00
470.41	0.00
470.59	16.38
470.77	0.00
470.95	0.00
471.14	32.77
471.32	0.00
471.50	58.51
471.68	37.45
471.86	0.00
472.04	11.70
472.22	0.00
472.40	0.00
472.58	0.00
472.77	0.00
472.95	0.00
473.13	28.09
473.31	0.00
473.49	0.00
473.67	11.70
473.85	0.00
474.03	0.00
474.21	72.56
474.39	0.00
474.57	23.41
474.75	0.00
474.93	79.58
475.12	0.00
475.30	58.51
475.48	0.00
475.66	4.68
475.84	0.00
476.02	11.70
476.20	42.13
476.38	18.72
476.56	23.41
476.74	53.83
476.92	2.34
477.10	0.00
477.28	58.51
477.46	0.00
477.64	95.96
477.82	14.04
478.00	60.85
478.18	72.56
478.36	0.00
478.54	2.34
478.72	18.72
478.90	65.54
479.08	39.79
479.26	58.51
479.44	44.47
479.62	60.85
479.80	81.92
479.98	51.49
480.16	44.47
480.34	60.85
480.52	79.58
480.70	14.04
480.88	30.43
481.06	32.77
481.24	88.94
481.41	88.94
481.59	112.35
481.77	65.54
481.95	21.06
482.13	126.39
482.31	53.83
482.49	44.47
482.67	4.68
482.85	63.19
483.03	88.94
483.21	72.56
483.39	128.73
483.57	16.38
483.74	86.60
483.92	98.30
484.10	91.28
484.28	53.83
484.46	114.69
484.64	79.58
484.82	60.85
485.00	25.75
485.18	0.00
485.35	21.06
485.53	0.00
485.71	95.96
485.89	9.36
486.07	32.77
486.25	128.73
486.43	98.30
486.61	95.96
486.78	114.69
486.96	18.72
487.14	72.56
487.32	63.19
487.50	37.45
487.68	117.03
487.85	81.92
488.03	135.75
488.21	173.20
488.39	86.60
488.57	124.05
488.75	217.67
488.92	512.58
489.10	63.19
489.28	194.26
489.46	140.43
489.64	65.54
489.81	65.54
489.99	131.07
490.17	180.22
490.35	170.86
490.53	149.79
490.70	161.50
490.88	205.97
491.06	56.17
491.24	72.56
491.41	196.60
491.59	79.58
491.77	37.45
491.95	126.39
492.13	74.90
492.30	88.94
492.48	159.16
492.66	180.22
492.84	124.05
493.01	161.50
493.19	147.45
493.37	227.03
493.54	154.48
493.72	215.33
493.90	133.41
494.08	95.96
494.25	152.13
494.43	238.73
494.61	231.71
494.79	53.83
494.96	224.69
495.14	154.48
495.32	105.32
495.49	117.03
495.67	138.09
495.85	105.32
496.02	194.26
496.20	257.46
496.38	159.16
496.55	166.18
496.73	187.24
496.91	201.29
497.09	287.89
497.26	271.50
497.44	135.75
497.62	124.05
497.79	187.24
497.97	110.01
498.14	245.76
498.32	128.73
498.50	266.82
498.67	117.03
498.85	201.29
499.03	196.60
499.20	175.54
499.38	208.31
499.56	222.35
499.73	334.70
499.91	161.50
500.08	119.37
500.26	170.86
500.44	184.90
500.61	229.37
500.79	154.48
500.97	205.97
501.14	271.50
501.32	152.13
501.49	173.20
501.67	194.26
501.84	248.10
502.02	248.10
502.20	308.95
502.37	217.67
502.55	182.56
502.72	241.08
502.90	299.59
503.07	245.76
503.25	257.46
503.43	257.46
503.60	191.92
503.78	306.61
503.95	184.90
504.13	198.95
504.30	147.45
504.48	266.82
504.65	278.52
504.83	290.23
505.01	170.86
505.18	297.25
505.36	257.46
505.53	262.14
505.71	257.46
505.88	252.78
506.06	264.48
506.23	196.60
506.41	276.18
506.58	241.08
506.76	187.24
506.93	194.26
507.11	212.99
507.28	276.18
507.46	196.60
507.63	278.52
507.81	210.65
507.98	196.60
508.16	278.52
508.33	243.42
508.50	259.80
508.68	241.08
508.85	264.48
509.03	220.01
509.20	231.71
509.38	243.42
509.55	236.39
509.73	271.50
509.90	358.10
510.08	236.39
510.25	250.44
510.42	224.69
510.60	212.99
510.77	180.22
510.95	238.73
511.12	203.63
511.30	217.67
511.47	283.20
511.64	287.89
511.82	269.16
511.99	278.52
512.17	280.86
512.34	234.05
512.51	205.97
512.69	273.84
512.86	402.57
513.04	290.23
513.21	271.50
513.38	266.82
513.56	241.08
513.73	212.99
513.90	252.78
514.08	276.18
514.25	266.82
514.43	243.42
514.60	280.86
514.77	283.20
514.95	262.14
515.12	287.89
515.29	353.42
515.47	301.93
515.64	238.73
515.81	273.84
515.99	283.20
516.16	266.82
516.33	210.65
516.51	191.92
516.68	196.60
516.85	175.54
517.03	255.12
517.20	271.50
517.37	205.97
517.54	301.93
517.72	220.01
517.89	159.16
518.06	168.52
518.24	283.20
518.41	308.95
518.58	189.58
518.75	205.97
518.93	294.91
519.10	262.14
519.27	292.57
519.45	271.50
519.62	287.89
519.79	294.91
519.96	243.42
520.14	322.99
520.31	301.93
520.48	269.16
520.65	365.12
520.83	318.31
521.00	222.35
521.17	234.05
521.34	320.65
521.52	351.08
521.69	416.62
521.86	285.55
522.03	348.74
522.20	320.65
522.38	257.46
522.55	299.59
522.72	220.01
522.89	250.44
523.07	294.91
523.24	205.97
523.41	318.31
523.58	262.14
523.75	294.91
523.92	292.57
524.10	341.72
524.27	320.65
524.44	259.80
524.61	379.17
524.78	327.68
524.96	266.82
525.13	383.85
525.30	339.38
525.47	290.23
525.64	337.04
525.81	217.67
525.98	229.37
526.16	194.26
526.33	173.20
526.50	217.67
526.67	147.45
526.84	217.67
527.01	294.91
527.18	339.38
527.36	287.89
527.53	243.42
527.70	278.52
527.87	332.36
528.04	348.74
528.21	374.49
528.38	334.70
528.55	346.40
528.72	447.04
528.89	395.55
529.07	390.87
529.24	351.08
529.41	395.55
529.58	264.48
529.75	318.31
529.92	383.85
530.09	287.89
530.26	283.20
530.43	318.31
530.60	402.57
530.77	325.33
530.94	428.32
531.11	266.82
531.28	266.82
531.46	372.15
531.63	353.42
531.80	365.12
531.97	308.95
532.14	386.19
532.31	238.73
532.48	320.65
532.65	308.95
532.82	318.31
532.99	348.74
533.16	322.99
533.33	367.46
533.50	346.40
533.67	306.61
533.84	344.06
534.01	322.99
534.18	362.78
534.35	325.33
534.52	311.29
534.69	376.83
534.86	327.68
535.03	355.76
535.20	407.25
535.37	414.27
535.54	325.33
535.71	273.84
535.88	430.66
536.05	330.02
536.22	292.57
536.38	348.74
536.55	252.78
536.72	259.80
536.89	315.97
537.06	332.36
537.23	376.83
537.40	294.91
537.57	318.31
537.74	428.32
537.91	386.19
538.08	367.46
538.25	365.12
538.42	273.84
538.59	355.76
538.75	339.38
538.92	365.12
539.09	425.98
539.26	358.10
539.43	285.55
539.60	276.18
539.77	297.25
539.94	409.59
540.11	297.25
540.28	365.12
540.44	367.46
540.61	236.39
540.78	224.69
540.95	238.73
541.12	388.53
541.29	220.01
541.46	358.10
541.62	306.61
541.79	346.40
541.96	330.02
542.13	283.20
542.30	297.25
542.47	388.53
542.63	367.46
542.80	358.10
542.97	325.33
543.14	334.70
543.31	409.59
543.48	344.06
543.64	257.46
543.81	440.02
543.98	369.80
544.15	346.40
544.32	409.59
544.48	381.51
544.65	348.74
544.82	292.57
544.99	322.99
545.16	308.95
545.32	339.38
545.49	304.27
545.66	362.78
545.83	346.40
546.00	353.42
546.16	322.99
546.33	397.89
546.50	285.55
546.67	372.15
546.83	435.34
547.00	390.87
547.17	332.36
547.34	330.02
547.50	292.57
547.67	386.19
547.84	264.48
548.00	390.87
548.17	294.91
548.34	425.98
548.51	393.21
548.67	407.25
548.84	358.10
549.01	351.08
549.18	395.55
549.34	388.53
549.51	379.17
549.68	374.49
549.84	311.29
550.01	313.63
550.18	521.94
550.34	465.77
550.51	383.85
550.68	374.49
550.84	346.40
551.01	325.33
551.18	290.23
551.34	376.83
551.51	365.12
551.68	390.87
551.84	381.51
552.01	290.23
552.18	306.61
552.34	318.31
552.51	189.58
552.68	402.57
552.84	287.89
553.01	372.15
553.18	332.36
553.34	325.33
553.51	287.89
553.67	435.34
553.84	440.02
554.01	365.12
554.17	381.51
554.34	245.76
554.51	351.08
554.67	390.87
554.84	475.13
555.00	390.87
555.17	306.61
555.33	397.89
555.50	292.57
555.67	320.65
555.83	379.17
556.00	339.38
556.16	465.77
556.33	367.46
556.50	379.17
556.66	367.46
556.83	332.36
556.99	409.59
557.16	362.78
557.32	339.38
557.49	376.83
557.65	475.13
557.82	381.51
557.98	383.85
558.15	287.89
558.32	334.70
558.48	257.46
558.65	255.12
558.81	304.27
558.98	407.25
559.14	313.63
559.31	330.02
559.47	269.16
559.64	304.27
559.80	355.76
559.97	311.29
560.13	381.51
560.30	346.40
560.46	393.21
560.63	409.59
560.79	344.06
560.96	334.70
561.12	294.91
561.29	346.40
561.45	304.27
561.61	348.74
561.78	411.93
561.94	278.52
562.11	337.04
562.27	334.70
562.44	386.19
562.60	344.06
562.77	339.38
562.93	372.15
563.10	383.85
563.26	411.93
563.42	322.99
563.59	224.69
563.75	299.59
563.92	430.66
564.08	461.09
564.24	388.53
564.41	437.68
564.57	404.91
564.74	330.02
564.90	393.21
565.07	355.76
565.23	400.23
565.39	330.02
565.56	365.12
565.72	280.86
565.88	341.72
566.05	393.21
566.21	351.08
566.38	264.48
566.54	322.99
566.70	351.08
566.87	332.36
567.03	325.33
567.19	271.50
567.36	318.31
567.52	339.38
567.68	383.85
567.85	290.23
568.01	393.21
568.17	322.99
568.34	327.68
568.50	372.15
568.66	334.70
568.83	376.83
568.99	322.99
569.15	339.38
569.32	304.27
569.48	250.44
569.64	341.72
569.81	374.49
569.97	334.70
570.13	283.20
570.30	299.59
570.46	322.99
570.62	283.20
570.78	269.16
570.95	273.84
571.11	383.85
571.27	360.44
571.43	283.20
571.60	374.49
571.76	196.60
571.92	374.49
572.09	379.17
572.25	344.06
572.41	344.06
572.57	304.27
572.74	322.99
572.90	334.70
573.06	383.85
573.22	355.76
573.38	367.46
573.55	315.97
573.71	437.68
573.87	337.04
574.03	210.65
574.20	262.14
574.36	325.33
574.52	301.93
574.68	325.33
574.84	362.78
575.01	334.70
575.17	379.17
575.33	395.55
575.49	320.65
575.65	355.76
575.82	313.63
575.98	372.15
576.14	325.33
576.30	315.97
576.46	341.72
576.62	280.86
576.79	273.84
576.95	374.49
577.11	238.73
577.27	201.29
577.43	437.68
577.59	337.04
577.75	318.31
577.92	238.73
578.08	252.78
578.24	231.71
578.40	264.48
578.56	327.68
578.72	271.50
578.88	273.84
579.04	393.21
579.21	355.76
579.37	332.36
579.53	395.55
579.69	330.02
579.85	327.68
580.01	330.02
580.17	255.12
580.33	278.52
580.49	315.97
580.65	322.99
580.82	409.59
580.98	315.97
581.14	318.31
581.30	299.59
581.46	330.02
581.62	330.02
581.78	271.50
581.94	320.65
582.10	285.55
582.26	315.97
582.42	262.14
582.58	306.61
582.74	341.72
582.90	297.25
583.06	355.76
583.22	369.80
583.38	327.68
583.54	301.93
583.70	374.49
583.86	362.78
584.02	383.85
584.18	397.89
584.34	344.06
584.50	337.04
584.66	292.57
584.82	330.02
584.98	341.72
585.14	341.72
585.30	353.42
585.46	311.29
585.62	327.68
585.78	313.63
585.94	393.21
586.10	341.72
586.26	294.91
586.42	374.49
586.58	322.99
586.74	320.65
586.90	315.97
587.06	402.57
587.22	294.91
587.38	397.89
587.54	301.93
587.70	372.15
587.86	280.86
588.02	278.52
588.18	320.65
588.34	271.50
588.49	210.65
588.65	245.76
588.81	212.99
588.97	229.37
589.13	229.37
589.29	245.76
589.45	315.97
589.61	250.44
589.77	360.44
589.93	294.91
590.08	325.33
590.24	327.68
590.40	182.56
590.56	257.46
590.72	287.89
590.88	224.69
591.04	320.65
591.20	285.55
591.35	287.89
591.51	227.03
591.67	379.17
591.83	301.93
591.99	348.74
592.15	318.31
592.31	198.95
592.46	308.95
592.62	344.06
592.78	224.69
592.94	299.59
593.10	255.12
593.26	215.33
593.41	341.72
593.57	266.82
593.73	341.72
593.89	346.40
594.05	273.84
594.20	278.52
594.36	290.23
594.52	360.44
594.68	320.65
594.84	318.31
594.99	386.19
595.15	248.10
595.31	325.33
595.47	285.55
595.62	365.12
595.78	273.84
595.94	365.12
596.10	360.44
596.25	297.25
596.41	318.31
596.57	238.73
596.73	262.14
596.88	229.37
597.04	332.36
597.20	330.02
597.36	315.97
597.51	290.23
597.67	273.84
597.83	264.48
597.99	344.06
598.14	248.10
598.30	334.70
598.46	280.86
598.61	320.65
598.77	269.16
598.93	299.59
599.09	271.50
599.24	280.86
599.40	325.33
599.56	283.20
599.71	262.14
599.87	304.27
600.03	205.97
600.18	212.99
600.34	297.25
600.50	241.08
600.65	154.48
600.81	241.08
600.97	152.13
601.12	220.01
601.28	248.10
601.44	180.22
601.59	269.16
601.75	273.84
601.91	271.50
602.06	283.20
602.22	325.33
602.37	292.57
602.53	241.08
602.69	278.52
602.84	245.76
603.00	266.82
603.16	313.63
603.31	290.23
603.47	142.77
603.62	262.14
603.78	360.44
603.94	271.50
604.09	285.55
604.25	283.20
604.40	372.15
604.56	210.65
604.71	294.91
604.87	299.59
605.03	243.42
605.18	318.31
605.34	320.65
605.49	294.91
605.65	269.16
605.80	313.63
605.96	252.78
606.12	313.63
606.27	271.50
606.43	273.84
606.58	290.23
606.74	325.33
606.89	255.12
607.05	311.29
607.20	287.89
607.36	278.52
607.51	322.99
607.67	306.61
607.82	196.60
607.98	285.55
608.13	306.61
608.29	229.37
608.44	285.55
608.60	201.29
608.75	241.08
608.91	205.97
609.06	257.46
609.22	273.84
609.37	241.08
609.53	304.27
609.68	266.82
609.84	236.39
609.99	259.80
610.15	276.18
610.30	212.99
610.46	271.50
610.61	194.26
610.76	330.02
610.92	330.02
611.07	250.44
611.23	294.91
611.38	278.52
611.54	276.18
611.69	210.65
611.84	208.31
612.00	227.03
612.15	241.08
612.31	198.95
612.46	210.65
612.62	208.31
612.77	229.37
612.92	222.35
613.08	245.76
613.23	224.69
613.39	191.92
613.54	248.10
613.69	152.13
613.85	184.90
614.00	159.16
614.15	194.26
614.31	351.08
614.46	304.27
614.62	264.48
614.77	273.84
614.92	266.82
615.08	231.71
615.23	231.71
615.38	285.55
615.54	231.71
615.69	250.44
615.84	128.73
616.00	140.43
616.15	124.05
616.30	208.31
616.46	149.79
616.61	203.63
616.76	248.10
616.92	229.37
617.07	191.92
617.22	159.16
617.37	217.67
617.53	287.89
617.68	168.52
617.83	241.08
617.99	290.23
618.14	311.29
618.29	252.78
618.45	250.44
618.60	198.95
618.75	243.42
618.90	215.33
619.06	215.33
619.21	294.91
619.36	322.99
619.51	212.99
619.67	231.71
619.82	184.90
619.97	212.99
620.12	276.18
620.28	215.33
620.43	248.10
620.58	208.31
620.73	215.33
620.89	198.95
621.04	229.37
621.19	222.35
621.34	238.73
621.49	231.71
621.65	241.08
621.80	131.07
621.95	156.82
622.10	208.31
622.25	262.14
622.41	196.60
622.56	294.91
622.71	241.08
622.86	234.05
623.01	145.11
623.16	234.05
623.32	276.18
