SpectraSuite Data File
++++++++++++++++++++++++++++++++++++
Date: Mon Oct 07 14:59:58 GMT-05:00 2013
User: price-jones
Dark Spectrum Present: No
Reference Spectrum Present: No
Number of Sampled Component Spectra: 1
Spectrometers: USB2+H05261
Integration Time (usec): 100000 (USB2+H05261)
Spectra Averaged: 1 (USB2+H05261)
Boxcar Smoothing: 0 (USB2+H05261)
Correct for Electrical Dark: No (USB2+H05261)
Strobe/Lamp Enabled: No (USB2+H05261)
Correct for Detector Non-linearity: No (USB2+H05261)
Correct for Stray Light: No (USB2+H05261)
Number of Pixels in Processed Spectrum: 2048
>>>>>Begin Processed Spectral Data<<<<<
365.73	0.00
365.92	0.00
366.12	0.00
366.32	0.00
366.52	0.00
366.72	0.00
366.91	0.00
367.11	0.00
367.31	0.00
367.51	0.00
367.70	0.00
367.90	0.00
368.10	0.00
368.30	0.00
368.49	0.00
368.69	0.00
368.89	0.00
369.09	0.00
369.28	0.00
369.48	0.00
369.68	0.00
369.87	0.00
370.07	0.00
370.27	0.00
370.47	0.00
370.66	0.00
370.86	0.00
371.06	0.00
371.25	0.00
371.45	0.00
371.65	0.00
371.84	0.00
372.04	0.00
372.24	0.00
372.44	0.00
372.63	0.00
372.83	0.00
373.03	0.00
373.22	0.00
373.42	0.00
373.62	0.00
373.81	0.00
374.01	0.00
374.21	0.00
374.40	0.00
374.60	0.00
374.79	0.00
374.99	0.00
375.19	0.00
375.38	0.00
375.58	0.00
375.78	0.00
375.97	0.00
376.17	0.00
376.37	0.00
376.56	0.00
376.76	0.00
376.95	0.00
377.15	0.00
377.35	0.00
377.54	0.00
377.74	0.00
377.93	0.00
378.13	0.00
378.33	0.00
378.52	0.00
378.72	0.00
378.91	0.00
379.11	0.00
379.31	0.00
379.50	0.00
379.70	0.00
379.89	0.00
380.09	0.00
380.28	0.00
380.48	0.00
380.68	0.00
380.87	0.00
381.07	0.00
381.26	0.00
381.46	0.00
381.65	0.00
381.85	0.00
382.04	0.00
382.24	0.00
382.43	0.00
382.63	0.00
382.83	0.00
383.02	0.00
383.22	0.00
383.41	0.00
383.61	0.00
383.80	0.00
384.00	0.00
384.19	0.00
384.39	0.00
384.58	0.00
384.78	0.00
384.97	0.00
385.17	0.00
385.36	0.00
385.56	0.00
385.75	0.00
385.95	0.00
386.14	0.00
386.34	0.00
386.53	0.00
386.72	0.00
386.92	0.00
387.11	0.00
387.31	0.00
387.50	0.00
387.70	0.00
387.89	0.00
388.09	0.00
388.28	0.00
388.48	0.00
388.67	0.00
388.86	0.00
389.06	0.00
389.25	0.00
389.45	0.00
389.64	0.00
389.84	0.00
390.03	0.00
390.22	0.00
390.42	0.00
390.61	0.00
390.81	0.00
391.00	0.00
391.19	0.00
391.39	0.00
391.58	0.00
391.78	0.00
391.97	0.00
392.16	0.00
392.36	0.00
392.55	0.00
392.75	0.00
392.94	0.00
393.13	0.00
393.33	0.00
393.52	0.00
393.71	0.00
393.91	0.00
394.10	0.00
394.29	0.00
394.49	0.00
394.68	0.00
394.88	0.00
395.07	0.00
395.26	0.00
395.46	0.00
395.65	0.00
395.84	0.00
396.04	0.00
396.23	0.00
396.42	0.00
396.62	0.00
396.81	0.00
397.00	0.00
397.19	0.00
397.39	0.00
397.58	0.00
397.77	0.00
397.97	0.00
398.16	0.00
398.35	0.00
398.55	0.00
398.74	0.00
398.93	0.00
399.12	0.00
399.32	0.00
399.51	0.00
399.70	0.00
399.90	0.00
400.09	0.00
400.28	0.00
400.47	0.00
400.67	0.00
400.86	0.00
401.05	0.00
401.24	0.00
401.44	0.00
401.63	0.00
401.82	0.00
402.01	0.00
402.21	0.00
402.40	0.00
402.59	0.00
402.78	0.00
402.97	0.00
403.17	0.00
403.36	0.00
403.55	0.00
403.74	0.00
403.93	0.00
404.13	0.00
404.32	0.00
404.51	0.00
404.70	0.00
404.89	0.00
405.09	0.00
405.28	0.00
405.47	0.00
405.66	0.00
405.85	0.00
406.05	0.00
406.24	0.00
406.43	0.00
406.62	0.00
406.81	0.00
407.00	0.00
407.20	0.00
407.39	0.00
407.58	0.00
407.77	0.00
407.96	0.00
408.15	0.00
408.34	0.00
408.54	0.00
408.73	0.00
408.92	0.00
409.11	0.00
409.30	0.00
409.49	0.00
409.68	0.00
409.87	0.00
410.07	0.00
410.26	0.00
410.45	0.00
410.64	0.00
410.83	0.00
411.02	0.00
411.21	0.00
411.40	0.00
411.59	0.00
411.78	0.00
411.98	0.00
412.17	0.00
412.36	0.00
412.55	0.00
412.74	0.00
412.93	0.00
413.12	0.00
413.31	0.00
413.50	0.00
413.69	0.00
413.88	0.00
414.07	0.00
414.26	0.00
414.45	0.00
414.64	0.00
414.83	0.00
415.02	0.00
415.22	0.00
415.41	0.00
415.60	0.00
415.79	0.00
415.98	0.00
416.17	0.00
416.36	0.00
416.55	0.00
416.74	0.00
416.93	0.00
417.12	0.00
417.31	0.00
417.50	0.00
417.69	0.00
417.88	0.00
418.07	0.00
418.26	0.00
418.45	0.00
418.64	0.00
418.83	0.00
419.02	0.00
419.21	0.00
419.39	0.00
419.58	0.00
419.77	0.00
419.96	0.00
420.15	0.00
420.34	0.00
420.53	0.00
420.72	0.00
420.91	0.00
421.10	0.00
421.29	0.00
421.48	0.00
421.67	0.00
421.86	0.00
422.05	0.00
422.24	0.00
422.43	0.00
422.61	0.00
422.80	0.00
422.99	0.00
423.18	0.00
423.37	0.00
423.56	0.00
423.75	0.00
423.94	0.00
424.13	0.00
424.32	0.00
424.50	0.00
424.69	0.00
424.88	0.00
425.07	0.00
425.26	0.00
425.45	0.00
425.64	0.00
425.83	0.00
426.01	0.00
426.20	0.00
426.39	0.00
426.58	0.00
426.77	0.00
426.96	0.00
427.15	0.00
427.33	0.00
427.52	0.00
427.71	0.00
427.90	0.00
428.09	0.00
428.28	0.00
428.46	0.00
428.65	0.00
428.84	0.00
429.03	0.00
429.22	0.00
429.40	0.00
429.59	0.00
429.78	0.00
429.97	0.00
430.16	0.00
430.34	0.00
430.53	0.00
430.72	0.00
430.91	0.00
431.10	0.00
431.28	0.00
431.47	0.00
431.66	0.00
431.85	0.00
432.03	0.00
432.22	0.00
432.41	0.00
432.60	0.00
432.79	0.00
432.97	0.00
433.16	0.00
433.35	0.00
433.54	0.00
433.72	0.00
433.91	0.00
434.10	0.00
434.28	0.00
434.47	0.00
434.66	0.00
434.85	0.00
435.03	0.00
435.22	0.00
435.41	0.00
435.59	32.77
435.78	0.00
435.97	0.00
436.16	4.68
436.34	0.00
436.53	0.00
436.72	0.00
436.90	0.00
437.09	0.00
437.28	0.00
437.46	0.00
437.65	0.00
437.84	0.00
438.02	0.00
438.21	0.00
438.40	0.00
438.58	0.00
438.77	0.00
438.96	0.00
439.14	0.00
439.33	0.00
439.52	0.00
439.70	0.00
439.89	0.00
440.08	0.00
440.26	0.00
440.45	0.00
440.63	0.00
440.82	0.00
441.01	0.00
441.19	0.00
441.38	0.00
441.57	7.02
441.75	0.00
441.94	0.00
442.12	0.00
442.31	0.00
442.50	0.00
442.68	0.00
442.87	0.00
443.05	0.00
443.24	0.00
443.43	0.00
443.61	0.00
443.80	0.00
443.98	0.00
444.17	0.00
444.35	0.00
444.54	0.00
444.73	0.00
444.91	0.00
445.10	0.00
445.28	0.00
445.47	0.00
445.65	0.00
445.84	0.00
446.02	0.00
446.21	0.00
446.39	0.00
446.58	0.00
446.77	0.00
446.95	0.00
447.14	0.00
447.32	0.00
447.51	0.00
447.69	0.00
447.88	0.00
448.06	0.00
448.25	0.00
448.43	0.00
448.62	0.00
448.80	0.00
448.99	0.00
449.17	0.00
449.36	0.00
449.54	0.00
449.73	0.00
449.91	0.00
450.10	9.36
450.28	0.00
450.46	44.47
450.65	21.06
450.83	0.00
451.02	0.00
451.20	0.00
451.39	0.00
451.57	0.00
451.76	0.00
451.94	0.00
452.13	0.00
452.31	0.00
452.49	0.00
452.68	0.00
452.86	0.00
453.05	28.09
453.23	0.00
453.42	0.00
453.60	0.00
453.78	0.00
453.97	0.00
454.15	0.00
454.34	0.00
454.52	0.00
454.70	14.04
454.89	0.00
455.07	0.00
455.26	0.00
455.44	0.00
455.62	0.00
455.81	0.00
455.99	0.00
456.17	18.72
456.36	0.00
456.54	0.00
456.73	0.00
456.91	0.00
457.09	51.49
457.28	84.26
457.46	25.75
457.64	0.00
457.83	0.00
458.01	0.00
458.19	0.00
458.38	0.00
458.56	0.00
458.74	0.00
458.93	21.06
459.11	30.43
459.29	16.38
459.48	0.00
459.66	44.47
459.84	35.11
460.03	56.17
460.21	42.13
460.39	0.00
460.57	11.70
460.76	0.00
460.94	0.00
461.12	0.00
461.31	0.00
461.49	0.00
461.67	0.00
461.85	0.00
462.04	0.00
462.22	575.77
462.40	0.00
462.59	0.00
462.77	0.00
462.95	72.56
463.13	35.11
463.32	0.00
463.50	0.00
463.68	0.00
463.86	0.00
464.05	0.00
464.23	11.70
464.41	0.00
464.59	0.00
464.78	0.00
464.96	35.11
465.14	0.00
465.32	0.00
465.50	28.09
465.69	4.68
465.87	0.00
466.05	0.00
466.23	0.00
466.41	0.00
466.60	9.36
466.78	0.00
466.96	0.00
467.14	0.00
467.32	46.81
467.51	39.79
467.69	46.81
467.87	9.36
468.05	0.00
468.23	0.00
468.41	0.00
468.60	0.00
468.78	18.72
468.96	39.79
469.14	0.00
469.32	4.68
469.50	0.00
469.69	35.11
469.87	0.00
470.05	0.00
470.23	16.38
470.41	4.68
470.59	51.49
470.77	0.00
470.95	0.00
471.14	0.00
471.32	0.00
471.50	65.54
471.68	56.17
471.86	70.22
472.04	0.00
472.22	21.06
472.40	0.00
472.58	0.00
472.77	0.00
472.95	18.72
473.13	0.00
473.31	7.02
473.49	0.00
473.67	0.00
473.85	14.04
474.03	63.19
474.21	0.00
474.39	35.11
474.57	7.02
474.75	2.34
474.93	11.70
475.12	0.00
475.30	0.00
475.48	0.00
475.66	0.00
475.84	0.00
476.02	0.00
476.20	46.81
476.38	32.77
476.56	105.32
476.74	49.15
476.92	46.81
477.10	0.00
477.28	49.15
477.46	32.77
477.64	79.58
477.82	18.72
478.00	0.00
478.18	72.56
478.36	0.00
478.54	30.43
478.72	67.88
478.90	86.60
479.08	95.96
479.26	0.00
479.44	51.49
479.62	9.36
479.80	56.17
479.98	0.00
480.16	0.00
480.34	79.58
480.52	4.68
480.70	63.19
480.88	28.09
481.06	0.00
481.24	23.41
481.41	0.00
481.59	37.45
481.77	56.17
481.95	0.00
482.13	14.04
482.31	9.36
482.49	28.09
482.67	95.96
482.85	74.90
483.03	44.47
483.21	65.54
483.39	93.62
483.57	102.98
483.74	63.19
483.92	23.41
484.10	0.00
484.28	49.15
484.46	117.03
484.64	65.54
484.82	117.03
485.00	98.30
485.18	35.11
485.35	0.00
485.53	0.00
485.71	135.75
485.89	65.54
486.07	56.17
486.25	84.26
486.43	44.47
486.61	175.54
486.78	100.64
486.96	102.98
487.14	58.51
487.32	110.01
487.50	149.79
487.68	159.16
487.85	23.41
488.03	105.32
488.21	93.62
488.39	135.75
488.57	114.69
488.75	46.81
488.92	496.19
489.10	39.79
489.28	194.26
489.46	119.37
489.64	163.84
489.81	114.69
489.99	154.48
490.17	117.03
490.35	220.01
490.53	159.16
490.70	112.35
490.88	189.58
491.06	147.45
491.24	168.52
491.41	135.75
491.59	117.03
491.77	145.11
491.95	98.30
492.13	133.41
492.30	105.32
492.48	250.44
492.66	182.56
492.84	100.64
493.01	149.79
493.19	142.77
493.37	201.29
493.54	184.90
493.72	163.84
493.90	100.64
494.08	170.86
494.25	198.95
494.43	220.01
494.61	182.56
494.79	105.32
494.96	205.97
495.14	194.26
495.32	184.90
495.49	220.01
495.67	175.54
495.85	212.99
496.02	201.29
496.20	212.99
496.38	194.26
496.55	163.84
496.73	161.50
496.91	170.86
497.09	243.42
497.26	198.95
497.44	238.73
497.62	234.05
497.79	224.69
497.97	250.44
498.14	177.88
498.32	170.86
498.50	203.63
498.67	163.84
498.85	201.29
499.03	222.35
499.20	299.59
499.38	215.33
499.56	276.18
499.73	198.95
499.91	259.80
500.08	271.50
500.26	285.55
500.44	224.69
500.61	278.52
500.79	149.79
500.97	269.16
501.14	149.79
501.32	152.13
501.49	257.46
501.67	177.88
501.84	224.69
502.02	133.41
502.20	224.69
502.37	259.80
502.55	285.55
502.72	245.76
502.90	217.67
503.07	201.29
503.25	187.24
503.43	121.71
503.60	117.03
503.78	145.11
503.95	173.20
504.13	184.90
504.30	229.37
504.48	236.39
504.65	215.33
504.83	180.22
505.01	283.20
505.18	292.57
505.36	173.20
505.53	234.05
505.71	227.03
505.88	278.52
506.06	269.16
506.23	250.44
506.41	194.26
506.58	234.05
506.76	215.33
506.93	217.67
507.11	264.48
507.28	215.33
507.46	243.42
507.63	205.97
507.81	168.52
507.98	252.78
508.16	215.33
508.33	262.14
508.50	217.67
508.68	353.42
508.85	304.27
509.03	212.99
509.20	210.65
509.38	290.23
509.55	212.99
509.73	269.16
509.90	250.44
510.08	243.42
510.25	222.35
510.42	276.18
510.60	220.01
510.77	266.82
510.95	278.52
511.12	245.76
511.30	245.76
511.47	330.02
511.64	222.35
511.82	217.67
511.99	238.73
512.17	220.01
512.34	238.73
512.51	236.39
512.69	205.97
512.86	231.71
513.04	229.37
513.21	245.76
513.38	248.10
513.56	266.82
513.73	276.18
513.90	177.88
514.08	231.71
514.25	229.37
514.43	212.99
514.60	250.44
514.77	191.92
514.95	205.97
515.12	299.59
515.29	297.25
515.47	285.55
515.64	292.57
515.81	306.61
515.99	325.33
516.16	248.10
516.33	257.46
516.51	205.97
516.68	140.43
516.85	140.43
517.03	145.11
517.20	161.50
517.37	250.44
517.54	269.16
517.72	299.59
517.89	117.03
518.06	140.43
518.24	189.58
518.41	287.89
518.58	313.63
518.75	142.77
518.93	255.12
519.10	306.61
519.27	306.61
519.45	306.61
519.62	252.78
519.79	290.23
519.96	276.18
520.14	318.31
520.31	292.57
520.48	220.01
520.65	212.99
520.83	362.78
521.00	196.60
521.17	374.49
521.34	297.25
521.52	315.97
521.69	311.29
521.86	264.48
522.03	285.55
522.20	294.91
522.38	215.33
522.55	227.03
522.72	196.60
522.89	290.23
523.07	374.49
523.24	301.93
523.41	299.59
523.58	313.63
523.75	276.18
523.92	304.27
524.10	327.68
524.27	409.59
524.44	367.46
524.61	330.02
524.78	276.18
524.96	257.46
525.13	327.68
525.30	353.42
525.47	315.97
525.64	294.91
525.81	276.18
525.98	229.37
526.16	294.91
526.33	252.78
526.50	170.86
526.67	205.97
526.84	271.50
527.01	248.10
527.18	238.73
527.36	320.65
527.53	262.14
527.70	311.29
527.87	264.48
528.04	318.31
528.21	269.16
528.38	311.29
528.55	393.21
528.72	369.80
528.89	491.51
529.07	294.91
529.24	297.25
529.41	278.52
529.58	301.93
529.75	285.55
529.92	337.04
530.09	332.36
530.26	433.00
530.43	332.36
530.60	332.36
530.77	325.33
530.94	313.63
531.11	444.70
531.28	395.55
531.46	346.40
531.63	322.99
531.80	280.86
531.97	231.71
532.14	278.52
532.31	294.91
532.48	245.76
532.65	337.04
532.82	212.99
532.99	322.99
533.16	327.68
533.33	308.95
533.50	337.04
533.67	301.93
533.84	259.80
534.01	346.40
534.18	276.18
534.35	315.97
534.52	297.25
534.69	374.49
534.86	304.27
535.03	337.04
535.20	381.51
535.37	393.21
535.54	428.32
535.71	390.87
535.88	365.12
536.05	372.15
536.22	360.44
536.38	322.99
536.55	372.15
536.72	325.33
536.89	266.82
537.06	353.42
537.23	280.86
537.40	386.19
537.57	358.10
537.74	428.32
537.91	299.59
538.08	344.06
538.25	297.25
538.42	346.40
538.59	369.80
538.75	332.36
538.92	341.72
539.09	327.68
539.26	264.48
539.43	325.33
539.60	283.20
539.77	297.25
539.94	210.65
540.11	252.78
540.28	304.27
540.44	376.83
540.61	290.23
540.78	250.44
540.95	294.91
541.12	346.40
541.29	301.93
541.46	332.36
541.62	292.57
541.79	337.04
541.96	334.70
542.13	376.83
542.30	248.10
542.47	374.49
542.63	334.70
542.80	348.74
542.97	383.85
543.14	311.29
543.31	257.46
543.48	348.74
543.64	376.83
543.81	346.40
543.98	327.68
544.15	362.78
544.32	332.36
544.48	330.02
544.65	404.91
544.82	280.86
544.99	264.48
545.16	428.32
545.32	301.93
545.49	353.42
545.66	379.17
545.83	344.06
546.00	332.36
546.16	306.61
546.33	355.76
546.50	330.02
546.67	500.87
546.83	252.78
547.00	374.49
547.17	264.48
547.34	355.76
547.50	322.99
547.67	276.18
547.84	369.80
548.00	273.84
548.17	308.95
548.34	327.68
548.51	339.38
548.67	390.87
548.84	353.42
549.01	423.64
549.18	308.95
549.34	381.51
549.51	341.72
549.68	367.46
549.84	320.65
550.01	339.38
550.18	379.17
550.34	318.31
550.51	304.27
550.68	440.02
550.84	353.42
551.01	369.80
551.18	360.44
551.34	320.65
551.51	381.51
551.68	365.12
551.84	386.19
552.01	262.14
552.18	330.02
552.34	308.95
552.51	327.68
552.68	402.57
552.84	292.57
553.01	372.15
553.18	273.84
553.34	390.87
553.51	290.23
553.67	283.20
553.84	400.23
554.01	397.89
554.17	374.49
554.34	400.23
554.51	416.62
554.67	423.64
554.84	442.36
555.00	339.38
555.17	388.53
555.33	379.17
555.50	423.64
555.67	425.98
555.83	348.74
556.00	334.70
556.16	587.47
556.33	367.46
556.50	353.42
556.66	334.70
556.83	248.10
556.99	304.27
557.16	330.02
557.32	418.96
557.49	383.85
557.65	341.72
557.82	437.68
557.98	313.63
558.15	318.31
558.32	311.29
558.48	301.93
558.65	231.71
558.81	379.17
558.98	337.04
559.14	379.17
559.31	287.89
559.47	362.78
559.64	360.44
559.80	388.53
559.97	299.59
560.13	283.20
560.30	315.97
560.46	285.55
560.63	348.74
560.79	397.89
560.96	297.25
561.12	285.55
561.29	320.65
561.45	304.27
561.61	304.27
561.78	407.25
561.94	278.52
562.11	322.99
562.27	318.31
562.44	259.80
562.60	315.97
562.77	423.64
562.93	409.59
563.10	299.59
563.26	397.89
563.42	376.83
563.59	306.61
563.75	337.04
563.92	327.68
564.08	386.19
564.24	372.15
564.41	351.08
564.57	358.10
564.74	313.63
564.90	262.14
565.07	437.68
565.23	320.65
565.39	278.52
565.56	308.95
565.72	306.61
565.88	283.20
566.05	318.31
566.21	236.39
566.38	393.21
566.54	381.51
566.70	290.23
566.87	315.97
567.03	376.83
567.19	344.06
567.36	330.02
567.52	205.97
567.68	388.53
567.85	421.30
568.01	334.70
568.17	339.38
568.34	175.54
568.50	276.18
568.66	304.27
568.83	418.96
568.99	271.50
569.15	381.51
569.32	313.63
569.48	330.02
569.64	372.15
569.81	313.63
569.97	395.55
570.13	273.84
570.30	299.59
570.46	313.63
570.62	344.06
570.78	259.80
570.95	339.38
571.11	297.25
571.27	383.85
571.43	278.52
571.60	341.72
571.76	266.82
571.92	348.74
572.09	341.72
572.25	280.86
572.41	360.44
572.57	355.76
572.74	381.51
572.90	395.55
573.06	334.70
573.22	344.06
573.38	390.87
573.55	341.72
573.71	341.72
573.87	444.70
574.03	299.59
574.20	259.80
574.36	334.70
574.52	360.44
574.68	290.23
574.84	301.93
575.01	308.95
575.17	313.63
575.33	276.18
575.49	388.53
575.65	337.04
575.82	346.40
575.98	337.04
576.14	299.59
576.30	369.80
576.46	294.91
576.62	320.65
576.79	379.17
576.95	409.59
577.11	264.48
577.27	269.16
577.43	355.76
577.59	299.59
577.75	297.25
577.92	407.25
578.08	341.72
578.24	264.48
578.40	390.87
578.56	322.99
578.72	327.68
578.88	325.33
579.04	292.57
579.21	379.17
579.37	332.36
579.53	280.86
579.69	411.93
579.85	346.40
580.01	402.57
580.17	194.26
580.33	283.20
580.49	273.84
580.65	264.48
580.82	308.95
580.98	299.59
581.14	362.78
581.30	372.15
581.46	327.68
581.62	264.48
581.78	308.95
581.94	297.25
582.10	294.91
582.26	390.87
582.42	360.44
582.58	355.76
582.74	297.25
582.90	320.65
583.06	355.76
583.22	344.06
583.38	276.18
583.54	308.95
583.70	362.78
583.86	376.83
584.02	404.91
584.18	341.72
584.34	315.97
584.50	358.10
584.66	393.21
584.82	367.46
584.98	311.29
585.14	318.31
585.30	341.72
585.46	393.21
585.62	252.78
585.78	308.95
585.94	330.02
586.10	322.99
586.26	367.46
586.42	337.04
586.58	327.68
586.74	337.04
586.90	393.21
587.06	339.38
587.22	369.80
587.38	280.86
587.54	334.70
587.70	367.46
587.86	346.40
588.02	351.08
588.18	292.57
588.34	245.76
588.49	273.84
588.65	196.60
588.81	236.39
588.97	201.29
589.13	194.26
589.29	276.18
589.45	306.61
589.61	266.82
589.77	276.18
589.93	250.44
590.08	292.57
590.24	301.93
590.40	304.27
590.56	315.97
590.72	348.74
590.88	294.91
591.04	355.76
591.20	297.25
591.35	224.69
591.51	322.99
591.67	266.82
591.83	337.04
591.99	376.83
592.15	301.93
592.31	262.14
592.46	299.59
592.62	341.72
592.78	318.31
592.94	358.10
593.10	250.44
593.26	292.57
593.41	315.97
593.57	337.04
593.73	255.12
593.89	327.68
594.05	365.12
594.20	224.69
594.36	327.68
594.52	280.86
594.68	280.86
594.84	322.99
594.99	351.08
595.15	273.84
595.31	425.98
595.47	433.00
595.62	348.74
595.78	315.97
595.94	332.36
596.10	315.97
596.25	231.71
596.41	362.78
596.57	276.18
596.73	320.65
596.88	280.86
597.04	294.91
597.20	229.37
597.36	287.89
597.51	257.46
597.67	344.06
597.83	187.24
597.99	311.29
598.14	257.46
598.30	318.31
598.46	262.14
598.61	308.95
598.77	269.16
598.93	189.58
599.09	276.18
599.24	292.57
599.40	280.86
599.56	285.55
599.71	313.63
599.87	210.65
600.03	278.52
600.18	264.48
600.34	348.74
600.50	222.35
600.65	292.57
600.81	257.46
600.97	245.76
601.12	287.89
601.28	322.99
601.44	276.18
601.59	212.99
601.75	285.55
601.91	269.16
602.06	231.71
602.22	250.44
602.37	175.54
602.53	311.29
602.69	290.23
602.84	264.48
603.00	290.23
603.16	212.99
603.31	299.59
603.47	180.22
603.62	243.42
603.78	283.20
603.94	205.97
604.09	280.86
604.25	308.95
604.40	269.16
604.56	325.33
604.71	271.50
604.87	241.08
605.03	278.52
605.18	341.72
605.34	236.39
605.49	252.78
605.65	290.23
605.80	250.44
605.96	264.48
606.12	301.93
606.27	313.63
606.43	348.74
606.58	259.80
606.74	259.80
606.89	184.90
607.05	210.65
607.20	220.01
607.36	383.85
607.51	276.18
607.67	245.76
607.82	229.37
607.98	227.03
608.13	243.42
608.29	259.80
608.44	243.42
608.60	266.82
608.75	337.04
608.91	236.39
609.06	234.05
609.22	163.84
609.37	189.58
609.53	280.86
609.68	222.35
609.84	262.14
609.99	208.31
610.15	241.08
610.30	269.16
610.46	266.82
610.61	283.20
610.76	220.01
610.92	210.65
611.07	231.71
611.23	447.04
611.38	266.82
611.54	259.80
611.69	215.33
611.84	212.99
612.00	156.82
612.15	180.22
612.31	327.68
612.46	166.18
612.62	156.82
612.77	215.33
612.92	196.60
613.08	269.16
613.23	196.60
613.39	241.08
613.54	194.26
613.69	149.79
613.85	243.42
614.00	271.50
614.15	229.37
614.31	241.08
614.46	266.82
614.62	259.80
614.77	259.80
614.92	278.52
615.08	276.18
615.23	231.71
615.38	306.61
615.54	236.39
615.69	278.52
615.84	159.16
616.00	177.88
616.15	259.80
616.30	278.52
616.46	203.63
616.61	159.16
616.76	236.39
616.92	198.95
617.07	241.08
617.22	142.77
617.37	201.29
617.53	252.78
617.68	227.03
617.83	248.10
617.99	227.03
618.14	262.14
618.29	238.73
618.45	212.99
618.60	161.50
618.75	175.54
618.90	126.39
619.06	224.69
619.21	278.52
619.36	234.05
619.51	145.11
619.67	166.18
619.82	194.26
619.97	147.45
620.12	236.39
620.28	191.92
620.43	152.13
620.58	271.50
620.73	269.16
620.89	245.76
621.04	234.05
621.19	259.80
621.34	231.71
621.49	262.14
621.65	201.29
621.80	222.35
621.95	238.73
622.10	276.18
622.25	128.73
622.41	161.50
622.56	184.90
622.71	210.65
622.86	194.26
623.01	170.86
623.16	259.80
623.32	170.86
