SpectraSuite Data File
++++++++++++++++++++++++++++++++++++
Date: Mon Oct 07 14:59:55 GMT-05:00 2013
User: price-jones
Dark Spectrum Present: No
Reference Spectrum Present: No
Number of Sampled Component Spectra: 1
Spectrometers: USB2+H05261
Integration Time (usec): 100000 (USB2+H05261)
Spectra Averaged: 1 (USB2+H05261)
Boxcar Smoothing: 0 (USB2+H05261)
Correct for Electrical Dark: No (USB2+H05261)
Strobe/Lamp Enabled: No (USB2+H05261)
Correct for Detector Non-linearity: No (USB2+H05261)
Correct for Stray Light: No (USB2+H05261)
Number of Pixels in Processed Spectrum: 2048
>>>>>Begin Processed Spectral Data<<<<<
365.73	0.00
365.92	0.00
366.12	0.00
366.32	0.00
366.52	0.00
366.72	0.00
366.91	0.00
367.11	0.00
367.31	0.00
367.51	0.00
367.70	0.00
367.90	0.00
368.10	0.00
368.30	0.00
368.49	0.00
368.69	0.00
368.89	0.00
369.09	0.00
369.28	0.00
369.48	0.00
369.68	0.00
369.87	0.00
370.07	0.00
370.27	0.00
370.47	0.00
370.66	0.00
370.86	0.00
371.06	0.00
371.25	0.00
371.45	0.00
371.65	0.00
371.84	0.00
372.04	0.00
372.24	0.00
372.44	0.00
372.63	0.00
372.83	0.00
373.03	0.00
373.22	0.00
373.42	0.00
373.62	0.00
373.81	0.00
374.01	0.00
374.21	0.00
374.40	0.00
374.60	0.00
374.79	0.00
374.99	0.00
375.19	0.00
375.38	0.00
375.58	0.00
375.78	0.00
375.97	0.00
376.17	0.00
376.37	0.00
376.56	0.00
376.76	0.00
376.95	0.00
377.15	0.00
377.35	0.00
377.54	0.00
377.74	0.00
377.93	0.00
378.13	0.00
378.33	0.00
378.52	0.00
378.72	0.00
378.91	0.00
379.11	0.00
379.31	0.00
379.50	0.00
379.70	0.00
379.89	0.00
380.09	0.00
380.28	0.00
380.48	0.00
380.68	0.00
380.87	0.00
381.07	0.00
381.26	0.00
381.46	0.00
381.65	0.00
381.85	0.00
382.04	0.00
382.24	0.00
382.43	0.00
382.63	0.00
382.83	0.00
383.02	0.00
383.22	0.00
383.41	0.00
383.61	0.00
383.80	0.00
384.00	0.00
384.19	0.00
384.39	0.00
384.58	0.00
384.78	0.00
384.97	0.00
385.17	0.00
385.36	0.00
385.56	0.00
385.75	0.00
385.95	0.00
386.14	0.00
386.34	0.00
386.53	0.00
386.72	0.00
386.92	0.00
387.11	0.00
387.31	0.00
387.50	0.00
387.70	0.00
387.89	0.00
388.09	0.00
388.28	0.00
388.48	0.00
388.67	0.00
388.86	0.00
389.06	0.00
389.25	0.00
389.45	0.00
389.64	0.00
389.84	0.00
390.03	0.00
390.22	0.00
390.42	0.00
390.61	0.00
390.81	0.00
391.00	0.00
391.19	0.00
391.39	0.00
391.58	0.00
391.78	0.00
391.97	0.00
392.16	0.00
392.36	0.00
392.55	0.00
392.75	0.00
392.94	0.00
393.13	0.00
393.33	0.00
393.52	0.00
393.71	0.00
393.91	0.00
394.10	0.00
394.29	0.00
394.49	0.00
394.68	0.00
394.88	0.00
395.07	0.00
395.26	0.00
395.46	0.00
395.65	0.00
395.84	0.00
396.04	0.00
396.23	0.00
396.42	0.00
396.62	0.00
396.81	0.00
397.00	0.00
397.19	0.00
397.39	0.00
397.58	0.00
397.77	0.00
397.97	0.00
398.16	0.00
398.35	0.00
398.55	0.00
398.74	0.00
398.93	0.00
399.12	0.00
399.32	0.00
399.51	0.00
399.70	0.00
399.90	0.00
400.09	0.00
400.28	0.00
400.47	0.00
400.67	0.00
400.86	0.00
401.05	0.00
401.24	0.00
401.44	0.00
401.63	0.00
401.82	0.00
402.01	0.00
402.21	0.00
402.40	0.00
402.59	0.00
402.78	0.00
402.97	0.00
403.17	0.00
403.36	0.00
403.55	0.00
403.74	0.00
403.93	0.00
404.13	0.00
404.32	0.00
404.51	0.00
404.70	0.00
404.89	0.00
405.09	0.00
405.28	0.00
405.47	0.00
405.66	0.00
405.85	0.00
406.05	0.00
406.24	0.00
406.43	0.00
406.62	0.00
406.81	0.00
407.00	0.00
407.20	0.00
407.39	0.00
407.58	0.00
407.77	0.00
407.96	0.00
408.15	0.00
408.34	0.00
408.54	0.00
408.73	0.00
408.92	0.00
409.11	0.00
409.30	0.00
409.49	0.00
409.68	0.00
409.87	0.00
410.07	0.00
410.26	0.00
410.45	0.00
410.64	0.00
410.83	0.00
411.02	0.00
411.21	0.00
411.40	0.00
411.59	0.00
411.78	0.00
411.98	0.00
412.17	0.00
412.36	0.00
412.55	0.00
412.74	0.00
412.93	0.00
413.12	0.00
413.31	0.00
413.50	0.00
413.69	0.00
413.88	0.00
414.07	0.00
414.26	0.00
414.45	0.00
414.64	0.00
414.83	0.00
415.02	0.00
415.22	0.00
415.41	0.00
415.60	0.00
415.79	0.00
415.98	0.00
416.17	0.00
416.36	0.00
416.55	0.00
416.74	0.00
416.93	0.00
417.12	0.00
417.31	0.00
417.50	0.00
417.69	0.00
417.88	0.00
418.07	0.00
418.26	0.00
418.45	0.00
418.64	0.00
418.83	0.00
419.02	0.00
419.21	0.00
419.39	0.00
419.58	0.00
419.77	0.00
419.96	0.00
420.15	0.00
420.34	0.00
420.53	0.00
420.72	0.00
420.91	0.00
421.10	0.00
421.29	0.00
421.48	0.00
421.67	0.00
421.86	0.00
422.05	0.00
422.24	0.00
422.43	0.00
422.61	0.00
422.80	0.00
422.99	0.00
423.18	0.00
423.37	0.00
423.56	0.00
423.75	0.00
423.94	0.00
424.13	0.00
424.32	0.00
424.50	0.00
424.69	0.00
424.88	0.00
425.07	0.00
425.26	0.00
425.45	0.00
425.64	0.00
425.83	0.00
426.01	0.00
426.20	0.00
426.39	0.00
426.58	0.00
426.77	0.00
426.96	0.00
427.15	0.00
427.33	0.00
427.52	0.00
427.71	0.00
427.90	0.00
428.09	0.00
428.28	0.00
428.46	0.00
428.65	0.00
428.84	0.00
429.03	0.00
429.22	0.00
429.40	0.00
429.59	0.00
429.78	0.00
429.97	0.00
430.16	0.00
430.34	0.00
430.53	0.00
430.72	0.00
430.91	0.00
431.10	0.00
431.28	0.00
431.47	0.00
431.66	0.00
431.85	0.00
432.03	0.00
432.22	0.00
432.41	0.00
432.60	0.00
432.79	0.00
432.97	0.00
433.16	0.00
433.35	0.00
433.54	0.00
433.72	0.00
433.91	0.00
434.10	0.00
434.28	0.00
434.47	0.00
434.66	0.00
434.85	0.00
435.03	0.00
435.22	0.00
435.41	0.00
435.59	0.00
435.78	0.00
435.97	0.00
436.16	0.00
436.34	0.00
436.53	0.00
436.72	0.00
436.90	0.00
437.09	0.00
437.28	0.00
437.46	0.00
437.65	0.00
437.84	0.00
438.02	0.00
438.21	0.00
438.40	0.00
438.58	0.00
438.77	0.00
438.96	0.00
439.14	0.00
439.33	0.00
439.52	0.00
439.70	0.00
439.89	0.00
440.08	0.00
440.26	49.15
440.45	0.00
440.63	0.00
440.82	0.00
441.01	0.00
441.19	0.00
441.38	0.00
441.57	0.00
441.75	0.00
441.94	0.00
442.12	0.00
442.31	0.00
442.50	0.00
442.68	0.00
442.87	0.00
443.05	0.00
443.24	0.00
443.43	0.00
443.61	0.00
443.80	0.00
443.98	0.00
444.17	0.00
444.35	0.00
444.54	0.00
444.73	0.00
444.91	0.00
445.10	2.34
445.28	0.00
445.47	28.09
445.65	0.00
445.84	0.00
446.02	0.00
446.21	0.00
446.39	0.00
446.58	0.00
446.77	0.00
446.95	0.00
447.14	0.00
447.32	0.00
447.51	0.00
447.69	0.00
447.88	0.00
448.06	0.00
448.25	0.00
448.43	0.00
448.62	0.00
448.80	0.00
448.99	0.00
449.17	0.00
449.36	0.00
449.54	0.00
449.73	0.00
449.91	0.00
450.10	0.00
450.28	81.92
450.46	56.17
450.65	0.00
450.83	0.00
451.02	0.00
451.20	0.00
451.39	0.00
451.57	2.34
451.76	0.00
451.94	0.00
452.13	0.00
452.31	0.00
452.49	0.00
452.68	0.00
452.86	0.00
453.05	0.00
453.23	0.00
453.42	0.00
453.60	0.00
453.78	0.00
453.97	0.00
454.15	0.00
454.34	0.00
454.52	0.00
454.70	0.00
454.89	7.02
455.07	0.00
455.26	0.00
455.44	0.00
455.62	0.00
455.81	0.00
455.99	0.00
456.17	0.00
456.36	0.00
456.54	0.00
456.73	0.00
456.91	0.00
457.09	0.00
457.28	0.00
457.46	4.68
457.64	0.00
457.83	0.00
458.01	0.00
458.19	0.00
458.38	0.00
458.56	23.41
458.74	0.00
458.93	0.00
459.11	0.00
459.29	0.00
459.48	0.00
459.66	49.15
459.84	0.00
460.03	67.88
460.21	2.34
460.39	0.00
460.57	70.22
460.76	0.00
460.94	0.00
461.12	0.00
461.31	28.09
461.49	0.00
461.67	0.00
461.85	0.00
462.04	23.41
462.22	550.03
462.40	0.00
462.59	0.00
462.77	0.00
462.95	0.00
463.13	0.00
463.32	0.00
463.50	28.09
463.68	0.00
463.86	0.00
464.05	0.00
464.23	0.00
464.41	0.00
464.59	0.00
464.78	65.54
464.96	0.00
465.14	0.00
465.32	37.45
465.50	0.00
465.69	42.13
465.87	0.00
466.05	0.00
466.23	0.00
466.41	0.00
466.60	0.00
466.78	0.00
466.96	91.28
467.14	32.77
467.32	0.00
467.51	11.70
467.69	25.75
467.87	0.00
468.05	0.00
468.23	112.35
468.41	0.00
468.60	42.13
468.78	18.72
468.96	42.13
469.14	0.00
469.32	0.00
469.50	0.00
469.69	0.00
469.87	2.34
470.05	0.00
470.23	2.34
470.41	0.00
470.59	0.00
470.77	0.00
470.95	0.00
471.14	7.02
471.32	0.00
471.50	0.00
471.68	0.00
471.86	81.92
472.04	4.68
472.22	51.49
472.40	0.00
472.58	0.00
472.77	0.00
472.95	0.00
473.13	51.49
473.31	42.13
473.49	0.00
473.67	0.00
473.85	93.62
474.03	0.00
474.21	49.15
474.39	42.13
474.57	28.09
474.75	44.47
474.93	0.00
475.12	0.00
475.30	0.00
475.48	7.02
475.66	0.00
475.84	44.47
476.02	0.00
476.20	39.79
476.38	0.00
476.56	149.79
476.74	65.54
476.92	0.00
477.10	0.00
477.28	0.00
477.46	2.34
477.64	0.00
477.82	58.51
478.00	51.49
478.18	2.34
478.36	42.13
478.54	46.81
478.72	39.79
478.90	58.51
479.08	100.64
479.26	95.96
479.44	42.13
479.62	32.77
479.80	79.58
479.98	0.00
480.16	0.00
480.34	77.24
480.52	0.00
480.70	77.24
480.88	28.09
481.06	9.36
481.24	65.54
481.41	65.54
481.59	2.34
481.77	128.73
481.95	86.60
482.13	124.05
482.31	147.45
482.49	37.45
482.67	98.30
482.85	117.03
483.03	100.64
483.21	93.62
483.39	32.77
483.57	46.81
483.74	79.58
483.92	67.88
484.10	177.88
484.28	65.54
484.46	72.56
484.64	44.47
484.82	56.17
485.00	65.54
485.18	105.32
485.35	9.36
485.53	0.00
485.71	0.00
485.89	67.88
486.07	51.49
486.25	53.83
486.43	51.49
486.61	163.84
486.78	23.41
486.96	117.03
487.14	74.90
487.32	88.94
487.50	135.75
487.68	175.54
487.85	93.62
488.03	70.22
488.21	133.41
488.39	86.60
488.57	42.13
488.75	79.58
488.92	372.15
489.10	205.97
489.28	184.90
489.46	173.20
489.64	133.41
489.81	156.82
489.99	210.65
490.17	177.88
490.35	248.10
490.53	177.88
490.70	147.45
490.88	234.05
491.06	124.05
491.24	121.71
491.41	229.37
491.59	154.48
491.77	42.13
491.95	91.28
492.13	126.39
492.30	58.51
492.48	114.69
492.66	180.22
492.84	88.94
493.01	177.88
493.19	175.54
493.37	187.24
493.54	173.20
493.72	189.58
493.90	152.13
494.08	198.95
494.25	112.35
494.43	236.39
494.61	187.24
494.79	241.08
494.96	194.26
495.14	205.97
495.32	152.13
495.49	198.95
495.67	154.48
495.85	170.86
496.02	191.92
496.20	205.97
496.38	257.46
496.55	234.05
496.73	248.10
496.91	100.64
497.09	210.65
497.26	152.13
497.44	245.76
497.62	227.03
497.79	191.92
497.97	245.76
498.14	166.18
498.32	283.20
498.50	133.41
498.67	161.50
498.85	245.76
499.03	271.50
499.20	220.01
499.38	189.58
499.56	227.03
499.73	252.78
499.91	212.99
500.08	217.67
500.26	189.58
500.44	138.09
500.61	238.73
500.79	205.97
500.97	189.58
501.14	196.60
501.32	196.60
501.49	252.78
501.67	205.97
501.84	173.20
502.02	191.92
502.20	191.92
502.37	285.55
502.55	203.63
502.72	318.31
502.90	264.48
503.07	248.10
503.25	217.67
503.43	205.97
503.60	168.52
503.78	208.31
503.95	257.46
504.13	234.05
504.30	255.12
504.48	318.31
504.65	318.31
504.83	311.29
505.01	234.05
505.18	278.52
505.36	299.59
505.53	276.18
505.71	224.69
505.88	334.70
506.06	297.25
506.23	245.76
506.41	212.99
506.58	205.97
506.76	337.04
506.93	252.78
507.11	215.33
507.28	194.26
507.46	194.26
507.63	292.57
507.81	220.01
507.98	222.35
508.16	262.14
508.33	236.39
508.50	283.20
508.68	250.44
508.85	278.52
509.03	259.80
509.20	248.10
509.38	177.88
509.55	271.50
509.73	315.97
509.90	313.63
510.08	250.44
510.25	215.33
510.42	159.16
510.60	245.76
510.77	217.67
510.95	243.42
511.12	299.59
511.30	283.20
511.47	327.68
511.64	315.97
511.82	287.89
511.99	269.16
512.17	210.65
512.34	262.14
512.51	236.39
512.69	224.69
512.86	308.95
513.04	191.92
513.21	259.80
513.38	217.67
513.56	229.37
513.73	273.84
513.90	245.76
514.08	212.99
514.25	271.50
514.43	306.61
514.60	266.82
514.77	283.20
514.95	332.36
515.12	294.91
515.29	276.18
515.47	273.84
515.64	243.42
515.81	299.59
515.99	196.60
516.16	194.26
516.33	205.97
516.51	147.45
516.68	180.22
516.85	184.90
517.03	154.48
517.20	264.48
517.37	290.23
517.54	325.33
517.72	332.36
517.89	126.39
518.06	187.24
518.24	227.03
518.41	196.60
518.58	280.86
518.75	241.08
518.93	259.80
519.10	264.48
519.27	262.14
519.45	257.46
519.62	276.18
519.79	327.68
519.96	231.71
520.14	203.63
520.31	327.68
520.48	257.46
520.65	278.52
520.83	330.02
521.00	327.68
521.17	348.74
521.34	222.35
521.52	330.02
521.69	273.84
521.86	290.23
522.03	273.84
522.20	355.76
522.38	208.31
522.55	264.48
522.72	231.71
522.89	390.87
523.07	369.80
523.24	327.68
523.41	341.72
523.58	327.68
523.75	297.25
523.92	344.06
524.10	355.76
524.27	351.08
524.44	383.85
524.61	360.44
524.78	346.40
524.96	376.83
525.13	280.86
525.30	348.74
525.47	381.51
525.64	322.99
525.81	311.29
525.98	285.55
526.16	252.78
526.33	266.82
526.50	210.65
526.67	294.91
526.84	320.65
527.01	280.86
527.18	264.48
527.36	344.06
527.53	290.23
527.70	339.38
527.87	283.20
528.04	339.38
528.21	283.20
528.38	362.78
528.55	397.89
528.72	372.15
528.89	437.68
529.07	325.33
529.24	276.18
529.41	374.49
529.58	334.70
529.75	327.68
529.92	322.99
530.09	337.04
530.26	337.04
530.43	430.66
530.60	383.85
530.77	285.55
530.94	376.83
531.11	442.36
531.28	351.08
531.46	271.50
531.63	351.08
531.80	353.42
531.97	264.48
532.14	360.44
532.31	337.04
532.48	234.05
532.65	320.65
532.82	161.50
532.99	320.65
533.16	337.04
533.33	252.78
533.50	360.44
533.67	250.44
533.84	320.65
534.01	322.99
534.18	376.83
534.35	304.27
534.52	322.99
534.69	383.85
534.86	437.68
535.03	360.44
535.20	348.74
535.37	418.96
535.54	411.93
535.71	411.93
535.88	344.06
536.05	325.33
536.22	299.59
536.38	322.99
536.55	362.78
536.72	353.42
536.89	250.44
537.06	325.33
537.23	313.63
537.40	276.18
537.57	388.53
537.74	374.49
537.91	416.62
538.08	304.27
538.25	325.33
538.42	341.72
538.59	386.19
538.75	358.10
538.92	248.10
539.09	416.62
539.26	297.25
539.43	301.93
539.60	297.25
539.77	379.17
539.94	273.84
540.11	360.44
540.28	315.97
540.44	355.76
540.61	360.44
540.78	231.71
540.95	304.27
541.12	351.08
541.29	306.61
541.46	388.53
541.62	416.62
541.79	262.14
541.96	325.33
542.13	355.76
542.30	285.55
542.47	304.27
542.63	383.85
542.80	458.74
542.97	416.62
543.14	425.98
543.31	348.74
543.48	362.78
543.64	362.78
543.81	447.04
543.98	379.17
544.15	287.89
544.32	351.08
544.48	358.10
544.65	344.06
544.82	374.49
544.99	306.61
545.16	376.83
545.32	358.10
545.49	411.93
545.66	313.63
545.83	325.33
546.00	306.61
546.16	351.08
546.33	411.93
546.50	273.84
546.67	414.27
546.83	416.62
547.00	341.72
547.17	332.36
547.34	365.12
547.50	381.51
547.67	280.86
547.84	351.08
548.00	418.96
548.17	306.61
548.34	402.57
548.51	418.96
548.67	437.68
548.84	264.48
549.01	496.19
549.18	404.91
549.34	421.30
549.51	355.76
549.68	353.42
549.84	383.85
550.01	301.93
550.18	564.07
550.34	514.92
550.51	376.83
550.68	468.11
550.84	313.63
551.01	346.40
551.18	362.78
551.34	454.06
551.51	355.76
551.68	383.85
551.84	381.51
552.01	369.80
552.18	318.31
552.34	299.59
552.51	355.76
552.68	334.70
552.84	351.08
553.01	313.63
553.18	348.74
553.34	376.83
553.51	360.44
553.67	344.06
553.84	479.81
554.01	369.80
554.17	381.51
554.34	339.38
554.51	376.83
554.67	397.89
554.84	367.46
555.00	365.12
555.17	325.33
555.33	402.57
555.50	407.25
555.67	327.68
555.83	395.55
556.00	330.02
556.16	564.07
556.33	390.87
556.50	374.49
556.66	351.08
556.83	278.52
556.99	231.71
557.16	374.49
557.32	355.76
557.49	337.04
557.65	339.38
557.82	383.85
557.98	297.25
558.15	344.06
558.32	341.72
558.48	325.33
558.65	271.50
558.81	397.89
558.98	271.50
559.14	362.78
559.31	330.02
559.47	330.02
559.64	294.91
559.80	264.48
559.97	292.57
560.13	297.25
560.30	292.57
560.46	374.49
560.63	362.78
560.79	360.44
560.96	332.36
561.12	322.99
561.29	369.80
561.45	379.17
561.61	341.72
561.78	465.77
561.94	304.27
562.11	262.14
562.27	351.08
562.44	379.17
562.60	344.06
562.77	306.61
562.93	461.09
563.10	463.43
563.26	306.61
563.42	367.46
563.59	358.10
563.75	353.42
563.92	430.66
564.08	276.18
564.24	381.51
564.41	411.93
564.57	299.59
564.74	393.21
564.90	341.72
565.07	243.42
565.23	374.49
565.39	297.25
565.56	337.04
565.72	257.46
565.88	414.27
566.05	341.72
566.21	297.25
566.38	393.21
566.54	330.02
566.70	325.33
566.87	339.38
567.03	276.18
567.19	325.33
567.36	374.49
567.52	346.40
567.68	428.32
567.85	311.29
568.01	379.17
568.17	283.20
568.34	388.53
568.50	344.06
568.66	337.04
568.83	372.15
568.99	330.02
569.15	440.02
569.32	360.44
569.48	285.55
569.64	271.50
569.81	322.99
569.97	269.16
570.13	301.93
570.30	283.20
570.46	203.63
570.62	287.89
570.78	238.73
570.95	322.99
571.11	416.62
571.27	463.43
571.43	301.93
571.60	311.29
571.76	259.80
571.92	344.06
572.09	332.36
572.25	280.86
572.41	362.78
572.57	266.82
572.74	437.68
572.90	344.06
573.06	315.97
573.22	402.57
573.38	287.89
573.55	344.06
573.71	337.04
573.87	388.53
574.03	322.99
574.20	285.55
574.36	369.80
574.52	276.18
574.68	360.44
574.84	325.33
575.01	381.51
575.17	301.93
575.33	337.04
575.49	381.51
575.65	437.68
575.82	285.55
575.98	248.10
576.14	330.02
576.30	400.23
576.46	311.29
576.62	311.29
576.79	332.36
576.95	348.74
577.11	379.17
577.27	276.18
577.43	332.36
577.59	320.65
577.75	407.25
577.92	250.44
578.08	283.20
578.24	234.05
578.40	271.50
578.56	334.70
578.72	332.36
578.88	287.89
579.04	266.82
579.21	332.36
579.37	266.82
579.53	388.53
579.69	353.42
579.85	297.25
580.01	313.63
580.17	264.48
580.33	208.31
580.49	332.36
580.65	346.40
580.82	273.84
580.98	351.08
581.14	334.70
581.30	315.97
581.46	320.65
581.62	308.95
581.78	294.91
581.94	313.63
582.10	234.05
582.26	351.08
582.42	276.18
582.58	318.31
582.74	327.68
582.90	341.72
583.06	294.91
583.22	374.49
583.38	285.55
583.54	346.40
583.70	365.12
583.86	297.25
584.02	311.29
584.18	348.74
584.34	306.61
584.50	346.40
584.66	313.63
584.82	360.44
584.98	337.04
585.14	358.10
585.30	278.52
585.46	358.10
585.62	304.27
585.78	337.04
585.94	355.76
586.10	266.82
586.26	266.82
586.42	374.49
586.58	388.53
586.74	379.17
586.90	365.12
587.06	334.70
587.22	353.42
587.38	313.63
587.54	301.93
587.70	318.31
587.86	344.06
588.02	374.49
588.18	285.55
588.34	266.82
588.49	238.73
588.65	203.63
588.81	250.44
588.97	222.35
589.13	297.25
589.29	187.24
589.45	273.84
589.61	367.46
589.77	297.25
589.93	269.16
590.08	313.63
590.24	285.55
590.40	332.36
590.56	304.27
590.72	280.86
590.88	269.16
591.04	304.27
591.20	334.70
591.35	390.87
591.51	320.65
591.67	264.48
591.83	339.38
591.99	376.83
592.15	374.49
592.31	348.74
592.46	290.23
592.62	287.89
592.78	308.95
592.94	306.61
593.10	203.63
593.26	306.61
593.41	283.20
593.57	299.59
593.73	344.06
593.89	220.01
594.05	304.27
594.20	217.67
594.36	227.03
594.52	243.42
594.68	320.65
594.84	266.82
594.99	369.80
595.15	369.80
595.31	271.50
595.47	360.44
595.62	220.01
595.78	292.57
595.94	269.16
596.10	332.36
596.25	283.20
596.41	250.44
596.57	280.86
596.73	273.84
596.88	325.33
597.04	248.10
597.20	362.78
597.36	231.71
597.51	294.91
597.67	266.82
597.83	166.18
597.99	315.97
598.14	306.61
598.30	322.99
598.46	205.97
598.61	346.40
598.77	367.46
598.93	196.60
599.09	325.33
599.24	372.15
599.40	334.70
599.56	346.40
599.71	217.67
599.87	297.25
600.03	227.03
600.18	252.78
600.34	348.74
600.50	234.05
600.65	224.69
600.81	381.51
600.97	339.38
601.12	236.39
601.28	294.91
601.44	222.35
601.59	238.73
601.75	227.03
601.91	320.65
602.06	273.84
602.22	348.74
602.37	339.38
602.53	257.46
602.69	367.46
602.84	177.88
603.00	318.31
603.16	301.93
603.31	308.95
603.47	311.29
603.62	266.82
603.78	360.44
603.94	337.04
604.09	337.04
604.25	351.08
604.40	280.86
604.56	205.97
604.71	257.46
604.87	224.69
605.03	297.25
605.18	273.84
605.34	315.97
605.49	339.38
605.65	278.52
605.80	264.48
605.96	273.84
606.12	318.31
606.27	322.99
606.43	217.67
606.58	301.93
606.74	266.82
606.89	299.59
607.05	308.95
607.20	252.78
607.36	292.57
607.51	243.42
607.67	222.35
607.82	297.25
607.98	313.63
608.13	322.99
608.29	243.42
608.44	337.04
608.60	273.84
608.75	381.51
608.91	273.84
609.06	243.42
609.22	367.46
609.37	262.14
609.53	147.45
609.68	285.55
609.84	299.59
609.99	304.27
610.15	287.89
610.30	287.89
610.46	257.46
610.61	348.74
610.76	205.97
610.92	290.23
611.07	248.10
611.23	278.52
611.38	273.84
611.54	273.84
611.69	163.84
611.84	313.63
612.00	198.95
612.15	175.54
612.31	266.82
612.46	191.92
612.62	163.84
612.77	280.86
612.92	297.25
613.08	231.71
613.23	250.44
613.39	201.29
613.54	208.31
613.69	196.60
613.85	126.39
614.00	215.33
614.15	255.12
614.31	210.65
614.46	231.71
614.62	227.03
614.77	238.73
614.92	210.65
615.08	269.16
615.23	283.20
615.38	241.08
615.54	175.54
615.69	222.35
615.84	238.73
616.00	205.97
616.15	201.29
616.30	222.35
616.46	231.71
616.61	102.98
616.76	238.73
616.92	205.97
617.07	273.84
617.22	283.20
617.37	210.65
617.53	175.54
617.68	189.58
617.83	252.78
617.99	273.84
618.14	313.63
618.29	227.03
618.45	259.80
618.60	208.31
618.75	208.31
618.90	212.99
619.06	191.92
619.21	266.82
619.36	184.90
619.51	196.60
619.67	259.80
619.82	198.95
619.97	337.04
620.12	341.72
620.28	227.03
620.43	236.39
620.58	220.01
620.73	287.89
620.89	322.99
621.04	191.92
621.19	238.73
621.34	271.50
621.49	177.88
621.65	205.97
621.80	269.16
621.95	194.26
622.10	271.50
622.25	191.92
622.41	238.73
622.56	187.24
622.71	234.05
622.86	332.36
623.01	283.20
623.16	182.56
623.32	208.31
