SpectraSuite Data File
++++++++++++++++++++++++++++++++++++
Date: Mon Oct 07 15:00:21 GMT-05:00 2013
User: price-jones
Dark Spectrum Present: No
Reference Spectrum Present: No
Number of Sampled Component Spectra: 1
Spectrometers: USB2+H05261
Integration Time (usec): 1000000 (USB2+H05261)
Spectra Averaged: 1 (USB2+H05261)
Boxcar Smoothing: 0 (USB2+H05261)
Correct for Electrical Dark: No (USB2+H05261)
Strobe/Lamp Enabled: No (USB2+H05261)
Correct for Detector Non-linearity: No (USB2+H05261)
Correct for Stray Light: No (USB2+H05261)
Number of Pixels in Processed Spectrum: 2048
>>>>>Begin Processed Spectral Data<<<<<
365.73	0.00
365.92	0.00
366.12	0.00
366.32	0.00
366.52	0.00
366.72	231.71
366.91	0.00
367.11	173.20
367.31	100.64
367.51	166.18
367.70	170.86
367.90	458.74
368.10	208.31
368.30	285.55
368.49	0.00
368.69	390.87
368.89	79.58
369.09	0.00
369.28	58.51
369.48	0.00
369.68	88.94
369.87	203.63
370.07	0.00
370.27	505.56
370.47	234.05
370.66	126.39
370.86	390.87
371.06	741.95
371.25	919.83
371.45	245.76
371.65	631.94
371.84	102.98
372.04	131.07
372.24	348.74
372.44	220.01
372.63	425.98
372.83	809.83
373.03	339.38
373.22	266.82
373.42	212.99
373.62	367.46
373.81	472.79
374.01	538.32
374.21	568.75
374.40	344.06
374.60	662.37
374.79	351.08
374.99	348.74
375.19	454.06
375.38	524.28
375.58	404.91
375.78	699.82
375.97	470.45
376.17	1011.11
376.37	304.27
376.56	479.81
376.76	212.99
376.95	266.82
377.15	524.28
377.35	458.74
377.54	435.34
377.74	283.20
377.93	262.14
378.13	503.22
378.33	674.07
378.52	425.98
378.72	648.33
378.91	578.11
379.11	280.86
379.31	250.44
379.50	53.83
379.70	543.00
379.89	566.41
380.09	283.20
380.28	131.07
380.48	325.33
380.68	243.42
380.87	119.37
381.07	423.64
381.26	720.88
381.46	180.22
381.65	531.30
381.85	318.31
382.04	535.98
382.24	496.19
382.43	311.29
382.63	159.16
382.83	287.89
383.02	645.99
383.22	788.76
383.41	175.54
383.61	304.27
383.80	629.60
384.00	381.51
384.19	334.70
384.39	372.15
384.58	351.08
384.78	521.94
384.97	376.83
385.17	351.08
385.36	348.74
385.56	507.90
385.75	133.41
385.95	292.57
386.14	657.69
386.34	355.76
386.53	407.25
386.72	276.18
386.92	674.07
387.11	545.34
387.31	500.87
387.50	201.29
387.70	133.41
387.89	421.30
388.09	248.10
388.28	187.24
388.48	250.44
388.67	566.41
388.86	355.76
389.06	353.42
389.25	543.00
389.45	440.02
389.64	388.53
389.84	669.39
390.03	566.41
390.22	416.62
390.42	411.93
390.61	231.71
390.81	98.30
391.00	339.38
391.19	678.76
391.39	421.30
391.58	561.73
391.78	404.91
391.97	437.68
392.16	203.63
392.36	716.20
392.55	674.07
392.75	393.21
392.94	280.86
393.13	475.13
393.33	149.79
393.52	243.42
393.71	723.23
393.91	491.51
394.10	156.82
394.29	308.95
394.49	259.80
394.68	533.64
394.88	695.14
395.07	732.59
395.26	444.70
395.46	435.34
395.65	697.48
395.84	475.13
396.04	1249.85
396.23	447.04
396.42	257.46
396.62	421.30
396.81	486.83
397.00	486.83
397.19	433.00
397.39	400.23
397.58	688.12
397.77	381.51
397.97	423.64
398.16	397.89
398.35	543.00
398.55	339.38
398.74	395.55
398.93	678.76
399.12	297.25
399.32	603.86
399.51	353.42
399.70	580.45
399.90	643.65
400.09	428.32
400.28	716.20
400.47	372.15
400.67	676.41
400.86	472.79
401.05	678.76
401.24	723.23
401.44	643.65
401.63	629.60
401.82	748.97
402.01	222.35
402.21	613.22
402.40	587.47
402.59	369.80
402.78	346.40
402.97	376.83
403.17	517.26
403.36	521.94
403.55	418.96
403.74	337.04
403.93	421.30
404.13	716.20
404.32	294.91
404.51	404.91
404.70	692.80
404.89	400.23
405.09	1046.22
405.28	456.40
405.47	306.61
405.66	624.92
405.85	631.94
406.05	468.11
406.24	491.51
406.43	519.60
406.62	547.69
406.81	1104.73
407.00	725.57
407.20	482.15
407.39	465.77
407.58	451.72
407.77	688.12
407.96	805.14
408.15	678.76
408.34	550.03
408.54	500.87
408.73	608.54
408.92	491.51
409.11	681.10
409.30	858.98
409.49	376.83
409.68	463.43
409.87	514.92
410.07	313.63
410.26	496.19
410.45	454.06
410.64	339.38
410.83	503.22
411.02	458.74
411.21	690.46
411.40	683.44
411.59	468.11
411.78	482.15
411.98	493.85
412.17	299.59
412.36	475.13
412.55	402.57
412.74	711.52
412.93	994.73
413.12	337.04
413.31	779.40
413.50	613.22
413.69	557.05
413.88	973.66
414.07	655.35
414.26	528.96
414.45	498.53
414.64	690.46
414.83	664.71
415.02	690.46
415.22	763.01
415.41	809.83
415.60	433.00
415.79	528.96
415.98	889.40
416.17	645.99
416.36	603.86
416.55	440.02
416.74	723.23
416.93	772.38
417.12	484.49
417.31	517.26
417.50	486.83
417.69	1008.77
417.88	638.97
418.07	355.76
418.26	538.32
418.45	540.66
418.64	1001.75
418.83	622.58
419.02	674.07
419.21	547.69
419.39	578.11
419.58	451.72
419.77	388.53
419.96	851.96
420.15	1020.47
420.34	617.90
420.53	603.86
420.72	795.78
420.91	606.20
421.10	608.54
421.29	645.99
421.48	657.69
421.67	851.96
421.86	512.58
422.05	543.00
422.24	552.37
422.43	624.92
422.61	447.04
422.80	543.00
422.99	610.88
423.18	575.77
423.37	1088.35
423.56	833.23
423.75	842.59
423.94	369.80
424.13	613.22
424.32	470.45
424.50	521.94
424.69	636.63
424.88	917.49
425.07	624.92
425.26	746.63
425.45	706.84
425.64	505.56
425.83	498.53
426.01	933.87
426.20	662.37
426.39	606.20
426.58	451.72
426.77	650.67
426.96	807.48
427.15	676.41
427.33	507.90
427.52	641.31
427.71	648.33
427.90	727.91
428.09	535.98
428.28	430.66
428.46	561.73
428.65	795.78
428.84	566.41
429.03	1036.86
429.22	535.98
429.40	444.70
429.59	442.36
429.78	882.38
429.97	587.47
430.16	416.62
430.34	531.30
430.53	475.13
430.72	521.94
430.91	791.10
431.10	468.11
431.28	608.54
431.47	875.36
431.66	786.42
431.85	512.58
432.03	533.64
432.22	1212.40
432.41	683.44
432.60	1050.90
432.79	528.96
432.97	674.07
433.16	575.77
433.35	545.34
433.54	554.71
433.72	774.72
433.91	802.80
434.10	461.09
434.28	627.26
434.47	667.05
434.66	823.87
434.85	596.84
435.03	683.44
435.22	1081.33
435.41	1107.07
435.59	840.25
435.78	912.81
435.97	622.58
436.16	954.94
436.34	692.80
436.53	781.74
436.72	1029.84
436.90	858.98
437.09	835.57
437.28	699.82
437.46	535.98
437.65	814.51
437.84	837.91
438.02	781.74
438.21	856.64
438.40	533.64
438.58	550.03
438.77	758.33
438.96	763.01
439.14	613.22
439.33	882.38
439.52	615.56
439.70	720.88
439.89	896.43
440.08	746.63
440.26	751.31
440.45	1200.69
440.63	774.72
440.82	723.23
441.01	826.21
441.19	688.12
441.38	737.27
441.57	695.14
441.75	1043.88
441.94	1015.79
442.12	795.78
442.31	765.36
442.50	753.65
442.68	688.12
442.87	739.61
443.05	688.12
443.24	891.74
443.43	971.32
443.61	1074.31
443.80	819.19
443.98	669.39
444.17	753.65
444.35	961.96
444.54	751.31
444.73	697.48
444.91	1086.01
445.10	589.82
445.28	678.76
445.47	868.34
445.65	734.93
445.84	638.97
446.02	833.23
446.21	674.07
446.39	760.67
446.58	917.49
446.77	737.27
446.95	716.20
447.14	983.02
447.32	1144.52
447.51	823.87
447.69	882.38
447.88	849.61
448.06	1149.20
448.25	929.19
448.43	596.84
448.62	650.67
448.80	847.27
448.99	1001.75
449.17	744.29
449.36	706.84
449.54	964.30
449.73	617.90
449.91	917.49
450.10	786.42
450.28	1430.07
450.46	1359.85
450.65	990.05
450.83	926.85
451.02	823.87
451.20	877.70
451.39	779.40
451.57	734.93
451.76	753.65
451.94	779.40
452.13	973.66
452.31	1053.24
452.49	976.00
452.68	676.41
452.86	947.92
453.05	1294.32
453.23	840.25
453.42	566.41
453.60	779.40
453.78	938.55
453.97	601.52
454.15	692.80
454.34	624.92
454.52	718.54
454.70	1214.74
454.89	1022.81
455.07	716.20
455.26	1048.56
455.44	964.30
455.62	816.85
455.81	877.70
455.99	1046.22
456.17	1067.28
456.36	732.59
456.54	774.72
456.73	784.08
456.91	723.23
457.09	990.05
457.28	1224.10
457.46	828.55
457.64	1142.18
457.83	805.14
458.01	657.69
458.19	954.94
458.38	795.78
458.56	973.66
458.74	629.60
458.93	1029.84
459.11	1095.37
459.29	685.78
459.48	1006.43
459.66	1322.40
459.84	1090.69
460.03	1935.62
460.21	1123.46
460.39	884.72
460.57	1259.21
460.76	943.24
460.94	873.02
461.12	1242.82
461.31	1306.02
461.49	929.19
461.67	791.10
461.85	915.15
462.04	856.64
462.22	7246.30
462.40	1231.12
462.59	1254.53
462.77	812.17
462.95	983.02
463.13	592.16
463.32	1018.13
463.50	933.87
463.68	964.30
463.86	915.15
464.05	805.14
464.23	1193.67
464.41	1025.15
464.59	685.78
464.78	788.76
464.96	702.16
465.14	936.21
465.32	807.48
465.50	1050.90
465.69	1050.90
465.87	613.22
466.05	1050.90
466.23	643.65
466.41	833.23
466.60	755.99
466.78	898.77
466.96	1158.57
467.14	903.45
467.32	1125.80
467.51	1090.69
467.69	1055.58
467.87	1308.36
468.05	908.13
468.23	1334.11
468.41	1135.16
468.60	889.40
468.78	945.58
468.96	1177.29
469.14	997.07
469.32	599.18
469.50	592.16
469.69	912.81
469.87	957.28
470.05	936.21
470.23	856.64
470.41	734.93
470.59	744.29
470.77	973.66
470.95	809.83
471.14	1179.63
471.32	894.08
471.50	1336.45
471.68	992.39
471.86	1086.01
472.04	770.04
472.22	1018.13
472.40	711.52
472.58	772.38
472.77	704.50
472.95	821.53
473.13	1423.05
473.31	1266.23
473.49	833.23
473.67	753.65
473.85	1032.18
474.03	1083.67
474.21	968.98
474.39	1366.87
474.57	1420.71
474.75	1022.81
474.93	898.77
475.12	692.80
475.30	840.25
475.48	891.74
475.66	959.62
475.84	1011.11
476.02	954.94
476.20	1128.14
476.38	936.21
476.56	1783.49
476.74	1008.77
476.92	833.23
477.10	1032.18
477.28	1149.20
477.46	997.07
477.64	1158.57
477.82	1046.22
478.00	931.53
478.18	1027.50
478.36	1050.90
478.54	1036.86
478.72	966.64
478.90	1015.79
479.08	1069.62
479.26	1036.86
479.44	884.72
479.62	870.68
479.80	1015.79
479.98	863.66
480.16	903.45
480.34	1210.06
480.52	901.11
480.70	1203.04
480.88	929.19
481.06	896.43
481.24	983.02
481.41	1039.20
481.59	1254.53
481.77	1181.97
481.95	1048.56
482.13	1359.85
482.31	1083.67
482.49	837.91
482.67	1256.87
482.85	1224.10
483.03	1228.78
483.21	1149.20
483.39	919.83
483.57	1083.67
483.74	1551.78
483.92	1100.05
484.10	952.60
484.28	1441.77
484.46	1806.89
484.64	1081.33
484.82	1111.75
485.00	1086.01
485.18	1146.86
485.35	1132.82
485.53	854.30
485.71	1235.80
485.89	807.48
486.07	973.66
486.25	1818.60
486.43	1366.87
486.61	1427.73
486.78	1327.08
486.96	905.79
487.14	1121.12
487.32	1198.35
487.50	1144.52
487.68	1439.43
487.85	983.02
488.03	1282.61
488.21	1558.80
488.39	1238.14
488.57	1355.17
488.75	1032.18
488.92	4762.99
489.10	1526.03
489.28	1783.49
489.46	1048.56
489.64	1390.28
489.81	1291.98
489.99	1455.81
490.17	1233.46
490.35	2207.13
490.53	1390.28
490.70	1078.99
490.88	1488.58
491.06	1151.54
491.24	1399.64
491.41	1746.04
491.59	1416.02
491.77	1139.84
491.95	1069.62
492.13	1088.35
492.30	1327.08
492.48	1313.04
492.66	1392.62
492.84	1315.38
493.01	1413.68
493.19	1263.89
493.37	1722.63
493.54	1460.49
493.72	1409.00
493.90	1299.00
494.08	1266.23
494.25	1584.54
494.43	1551.78
494.61	1413.68
494.79	1254.53
494.96	1263.89
495.14	1549.43
495.32	1277.93
495.49	1493.26
495.67	1469.86
495.85	1366.87
496.02	1352.83
496.20	1659.44
496.38	1659.44
496.55	1469.86
496.73	1603.27
496.91	1434.75
497.09	1652.42
497.26	1423.05
497.44	1434.75
497.62	1373.89
497.79	1406.66
497.97	1589.22
498.14	1565.82
498.32	1533.05
498.50	1624.33
498.67	1352.83
498.85	1554.12
499.03	1446.45
499.20	1572.84
499.38	1476.88
499.56	1483.90
499.73	2059.67
499.91	1668.80
500.08	1619.65
500.26	1460.49
500.44	1301.34
500.61	1502.62
500.79	1259.21
500.97	1614.97
501.14	1806.89
501.32	1476.88
501.49	1753.06
501.67	1469.86
501.84	1645.40
502.02	1306.02
502.20	1898.17
502.37	1640.72
502.55	1418.36
502.72	1533.05
502.90	1764.76
503.07	1533.05
503.25	1554.12
503.43	1284.95
503.60	1406.66
503.78	1542.41
503.95	1409.00
504.13	1535.39
504.30	1720.29
504.48	1825.62
504.65	2005.84
504.83	1832.64
505.01	1596.25
505.18	1685.19
505.36	1643.06
505.53	1516.67
505.71	1411.34
505.88	1949.67
506.06	1542.41
506.23	1507.30
506.41	1348.15
506.58	1675.82
506.76	1659.44
506.93	1530.71
507.11	1746.04
507.28	1469.86
507.46	1448.79
507.63	1673.48
507.81	1387.94
507.98	1549.43
508.16	1633.69
508.33	1680.50
508.50	1767.10
508.68	1706.25
508.85	1558.80
509.03	1481.56
509.20	1502.62
509.38	1741.36
509.55	1804.55
509.73	1762.42
509.90	1916.90
510.08	1497.94
510.25	1881.79
510.42	1474.54
510.60	1610.29
510.77	1827.96
510.95	1949.67
511.12	1586.88
511.30	1771.79
511.47	1769.44
511.64	2172.02
511.82	1523.69
511.99	1624.33
512.17	1572.84
512.34	1427.73
512.51	1453.47
512.69	1561.14
512.86	1980.09
513.04	1521.35
513.21	1614.97
513.38	1479.22
513.56	1586.88
513.73	1497.94
513.90	1329.42
514.08	1523.69
514.25	1664.12
514.43	1701.57
514.60	1488.58
514.77	1547.09
514.95	1668.80
515.12	1479.22
515.29	1605.61
515.47	1694.55
515.64	1565.82
515.81	1563.48
515.99	1987.11
516.16	1764.76
516.33	1851.36
516.51	1373.89
516.68	1299.00
516.85	1341.13
517.03	1439.43
517.20	1680.50
517.37	1666.46
517.54	1830.30
517.72	1528.37
517.89	1261.55
518.06	1238.14
518.24	2094.78
518.41	2069.03
518.58	1753.06
518.75	1409.00
518.93	1563.48
519.10	1600.93
519.27	1600.93
519.45	1755.40
519.62	1685.19
519.79	1720.29
519.96	1446.45
520.14	1687.53
520.31	1891.15
520.48	1671.14
520.65	1621.99
520.83	1874.77
521.00	1839.66
521.17	2043.29
521.34	1572.84
521.52	1600.93
521.69	1699.23
521.86	1654.76
522.03	1802.21
522.20	2106.48
522.38	1614.97
522.55	1666.46
522.72	1451.13
522.89	1937.96
523.07	2321.81
523.24	1757.74
523.41	1598.59
523.58	1577.52
523.75	1701.57
523.92	1558.80
524.10	1696.89
524.27	1689.87
524.44	1636.03
524.61	2050.31
524.78	1699.23
524.96	1895.83
525.13	1746.04
525.30	2101.80
525.47	1888.81
525.64	1781.15
525.81	1696.89
525.98	1774.13
526.16	1383.26
526.33	1369.21
526.50	1521.35
526.67	1348.15
526.84	1364.53
527.01	1521.35
527.18	1783.49
527.36	1717.95
527.53	1593.90
527.70	2069.03
527.87	1757.74
528.04	2272.66
528.21	1699.23
528.38	1956.69
528.55	1973.07
528.72	2062.01
528.89	2375.64
529.07	1701.57
529.24	1792.85
529.41	2104.14
529.58	1741.36
529.75	1708.59
529.92	1930.94
530.09	1792.85
530.26	2022.22
530.43	1944.99
530.60	1746.04
530.77	1820.94
530.94	1973.07
531.11	1813.92
531.28	1710.93
531.46	1659.44
531.63	1764.76
531.80	1741.36
531.97	1884.13
532.14	1781.15
532.31	1729.66
532.48	1739.02
532.65	1776.47
532.82	1511.99
532.99	1626.67
533.16	1767.10
533.33	1860.73
533.50	1802.21
533.67	1638.38
533.84	1732.00
534.01	1811.57
534.18	1650.08
534.35	1811.57
534.52	1804.55
534.69	2382.67
534.86	1788.17
535.03	1755.40
535.20	1600.93
535.37	2054.99
535.54	1879.45
535.71	1818.60
535.88	2047.97
536.05	1664.12
536.22	1930.94
536.38	1781.15
536.55	1755.40
536.72	1970.73
536.89	1530.71
537.06	1554.12
537.23	1610.29
537.40	1694.55
537.57	1650.08
537.74	1905.20
537.91	2012.86
538.08	1774.13
538.25	1954.35
538.42	1724.97
538.59	1713.27
538.75	1834.98
538.92	1743.70
539.09	1973.07
539.26	1750.72
539.43	2022.22
539.60	1692.21
539.77	1732.00
539.94	1776.47
540.11	1788.17
540.28	2092.44
540.44	2099.46
540.61	1734.34
540.78	1645.40
540.95	1481.56
541.12	2239.89
541.29	1757.74
541.46	2118.18
541.62	1750.72
541.79	1593.90
541.96	1523.69
542.13	1729.66
542.30	1570.50
542.47	1994.14
542.63	1673.48
542.80	1804.55
542.97	2059.67
543.14	1816.26
543.31	1898.17
543.48	1666.46
543.64	1799.87
543.81	1671.14
543.98	1612.63
544.15	1537.73
544.32	1680.50
544.48	1734.34
544.65	1582.20
544.82	1621.99
544.99	1743.70
545.16	1954.35
545.32	1699.23
545.49	1905.20
545.66	1682.85
545.83	1547.09
546.00	1500.28
546.16	1652.42
546.33	1760.08
546.50	1781.15
546.67	2090.10
546.83	1956.69
547.00	1626.67
547.17	1504.96
547.34	1540.07
547.50	1760.08
547.67	1732.00
547.84	1540.07
548.00	1837.32
548.17	1722.63
548.34	1673.48
548.51	2279.68
548.67	2036.27
548.84	1636.03
549.01	1832.64
549.18	1900.52
549.34	1816.26
549.51	1783.49
549.68	1856.04
549.84	1682.85
550.01	1502.62
550.18	3258.03
550.34	2710.34
550.51	1806.89
550.68	2326.49
550.84	1621.99
551.01	1757.74
551.18	1874.77
551.34	1802.21
551.51	1584.54
551.68	1736.68
551.84	1994.14
552.01	1568.16
552.18	1692.21
552.34	1724.97
552.51	1727.32
552.68	1952.01
552.84	1664.12
553.01	1816.26
553.18	1881.79
553.34	1746.04
553.51	1476.88
553.67	1799.87
553.84	2370.96
554.01	1870.09
554.17	1921.58
554.34	1533.05
554.51	1893.49
554.67	1977.75
554.84	1900.52
555.00	1884.13
555.17	1837.32
555.33	2001.16
555.50	1834.98
555.67	1914.56
555.83	1514.33
556.00	1741.36
556.16	3714.43
556.33	1977.75
556.50	1818.60
556.66	1687.53
556.83	1542.41
556.99	1561.14
557.16	1713.27
557.32	1511.99
557.49	1544.75
557.65	1511.99
557.82	1631.35
557.98	1797.53
558.15	1577.52
558.32	1687.53
558.48	1544.75
558.65	1577.52
558.81	1757.74
558.98	1469.86
559.14	1954.35
559.31	1790.51
559.47	1811.57
559.64	1533.05
559.80	1888.81
559.97	1448.79
560.13	1593.90
560.30	1446.45
560.46	1490.92
560.63	1636.03
560.79	1612.63
560.96	1699.23
561.12	1558.80
561.29	1799.87
561.45	1563.48
561.61	1668.80
561.78	2787.58
561.94	1687.53
562.11	1565.82
562.27	1734.34
562.44	1542.41
562.60	1554.12
562.77	1654.76
562.93	2413.09
563.10	1799.87
563.26	1621.99
563.42	1928.60
563.59	1755.40
563.75	1504.96
563.92	1937.96
564.08	1650.08
564.24	1933.28
564.41	2190.74
564.57	1336.45
564.74	1479.22
564.90	1732.00
565.07	1898.17
565.23	1708.59
565.39	1479.22
565.56	1746.04
565.72	1486.24
565.88	1544.75
566.05	1593.90
566.21	1397.30
566.38	1706.25
566.54	1614.97
566.70	1507.30
566.87	1444.11
567.03	1373.89
567.19	1643.06
567.36	1757.74
567.52	1584.54
567.68	1746.04
567.85	1689.87
568.01	1502.62
568.17	1348.15
568.34	1586.88
568.50	1982.43
568.66	1359.85
568.83	2438.84
568.99	1476.88
569.15	1743.70
569.32	1533.05
569.48	1519.01
569.64	1306.02
569.81	1621.99
569.97	1413.68
570.13	1767.10
570.30	1544.75
570.46	1444.11
570.62	1526.03
570.78	1542.41
570.95	1329.42
571.11	2064.35
571.27	2029.24
571.43	1460.49
571.60	1818.60
571.76	1523.69
571.92	1502.62
572.09	1540.07
572.25	1472.20
572.41	1629.01
572.57	1626.67
572.74	2087.76
572.90	1795.19
573.06	1685.19
573.22	1675.82
573.38	1959.03
573.55	1853.70
573.71	1867.75
573.87	1757.74
574.03	1418.36
574.20	1427.73
574.36	1867.75
574.52	1453.47
574.68	1507.30
574.84	1685.19
575.01	1521.35
575.17	1657.10
575.33	1432.41
575.49	1792.85
575.65	1788.17
575.82	1764.76
575.98	2265.64
576.14	1598.59
576.30	1540.07
576.46	1490.92
576.62	1540.07
576.79	1732.00
576.95	1870.09
577.11	1425.39
577.27	1392.62
577.43	1937.96
577.59	1942.64
577.75	1619.65
577.92	1373.89
578.08	1472.20
578.24	1439.43
578.40	1830.30
578.56	1916.90
578.72	1891.15
578.88	1748.38
579.04	1420.71
579.21	1614.97
579.37	1511.99
579.53	1476.88
579.69	1757.74
579.85	1369.21
580.01	1706.25
580.17	1331.76
580.33	1458.15
580.49	1610.29
580.65	1621.99
580.82	1495.60
580.98	1387.94
581.14	1493.26
581.30	1799.87
581.46	1629.01
581.62	1893.49
581.78	1472.20
581.94	1795.19
582.10	1397.30
582.26	1551.78
582.42	1434.75
582.58	1654.76
582.74	1591.56
582.90	1533.05
583.06	1572.84
583.22	1638.38
583.38	1324.74
583.54	1385.60
583.70	1870.09
583.86	1568.16
584.02	1540.07
584.18	1888.81
584.34	1451.13
584.50	1549.43
584.66	1404.32
584.82	1266.23
584.98	1509.65
585.14	1451.13
585.30	1757.74
585.46	1593.90
585.62	1254.53
585.78	1474.54
585.94	1619.65
586.10	1481.56
586.26	1502.62
586.42	1895.83
586.58	1612.63
586.74	1479.22
586.90	1533.05
587.06	1612.63
587.22	1511.99
587.38	1355.17
587.54	1416.02
587.70	1849.02
587.86	1710.93
588.02	1444.11
588.18	1497.94
588.34	1640.72
588.49	1029.84
588.65	1423.05
588.81	1277.93
588.97	1144.52
589.13	1430.07
589.29	1423.05
589.45	1631.35
589.61	1537.73
589.77	1844.34
589.93	1352.83
590.08	1409.00
590.24	1254.53
590.40	1390.28
590.56	1645.40
590.72	1469.86
590.88	1240.48
591.04	1556.46
591.20	1277.93
591.35	1788.17
591.51	1306.02
591.67	1256.87
591.83	1376.24
591.99	1535.39
592.15	1664.12
592.31	1549.43
592.46	1392.62
592.62	1727.32
592.78	1355.17
592.94	1310.70
593.10	1240.48
593.26	1366.87
593.41	1586.88
593.57	1486.24
593.73	1259.21
593.89	1617.31
594.05	1390.28
594.20	1289.64
594.36	1863.07
594.52	1273.25
594.68	1357.51
594.84	1657.10
594.99	1874.77
595.15	1493.26
595.31	1652.42
595.47	1928.60
595.62	1364.53
595.78	1439.43
595.94	1366.87
596.10	1769.44
596.25	1453.47
596.41	1636.03
596.57	1380.92
596.73	1163.25
596.88	1420.71
597.04	1537.73
597.20	1322.40
597.36	1404.32
597.51	1364.53
597.67	1331.76
597.83	1348.15
597.99	1647.74
598.14	1458.15
598.30	1760.08
598.46	1336.45
598.61	1750.72
598.77	1558.80
598.93	1219.42
599.09	1481.56
599.24	1469.86
599.40	1675.82
599.56	1373.89
599.71	1418.36
599.87	1416.02
600.03	1504.96
600.18	1387.94
600.34	1645.40
600.50	1369.21
600.65	1200.69
600.81	1685.19
600.97	1275.59
601.12	1497.94
601.28	1739.02
601.44	1500.28
601.59	1261.55
