SpectraSuite Data File
++++++++++++++++++++++++++++++++++++
Date: Mon Oct 07 15:00:18 GMT-05:00 2013
User: price-jones
Dark Spectrum Present: No
Reference Spectrum Present: No
Number of Sampled Component Spectra: 1
Spectrometers: USB2+H05261
Integration Time (usec): 1000000 (USB2+H05261)
Spectra Averaged: 1 (USB2+H05261)
Boxcar Smoothing: 0 (USB2+H05261)
Correct for Electrical Dark: No (USB2+H05261)
Strobe/Lamp Enabled: No (USB2+H05261)
Correct for Detector Non-linearity: No (USB2+H05261)
Correct for Stray Light: No (USB2+H05261)
Number of Pixels in Processed Spectrum: 2048
>>>>>Begin Processed Spectral Data<<<<<
365.73	0.00
365.92	0.00
366.12	0.00
366.32	0.00
366.52	0.00
366.72	126.39
366.91	0.00
367.11	131.07
367.31	32.77
367.51	119.37
367.70	227.03
367.90	414.27
368.10	194.26
368.30	243.42
368.49	0.00
368.69	313.63
368.89	140.43
369.09	0.00
369.28	149.79
369.48	0.00
369.68	42.13
369.87	163.84
370.07	51.49
370.27	468.11
370.47	290.23
370.66	241.08
370.86	519.60
371.06	791.10
371.25	1011.11
371.45	365.12
371.65	685.78
371.84	266.82
372.04	255.12
372.24	507.90
372.44	341.72
372.63	468.11
372.83	943.24
373.03	358.10
373.22	374.49
373.42	299.59
373.62	383.85
373.81	521.94
374.01	702.16
374.21	741.95
374.40	388.53
374.60	861.32
374.79	418.96
374.99	458.74
375.19	622.58
375.38	655.35
375.58	531.30
375.78	692.80
375.97	685.78
376.17	1081.33
376.37	444.70
376.56	617.90
376.76	351.08
376.95	360.44
377.15	650.67
377.35	648.33
377.54	730.25
377.74	341.72
377.93	395.55
378.13	547.69
378.33	692.80
378.52	475.13
378.72	755.99
378.91	760.67
379.11	440.02
379.31	425.98
379.50	231.71
379.70	791.10
379.89	795.78
380.09	393.21
380.28	264.48
380.48	496.19
380.68	334.70
380.87	212.99
381.07	535.98
381.26	812.17
381.46	308.95
381.65	571.09
381.85	367.46
382.04	767.70
382.24	582.79
382.43	454.06
382.63	334.70
382.83	442.36
383.02	795.78
383.22	805.14
383.41	341.72
383.61	519.60
383.80	784.08
384.00	475.13
384.19	367.46
384.39	564.07
384.58	465.77
384.78	578.11
384.97	557.05
385.17	533.64
385.36	440.02
385.56	718.54
385.75	325.33
385.95	454.06
386.14	755.99
386.34	613.22
386.53	634.29
386.72	407.25
386.92	856.64
387.11	636.63
387.31	674.07
387.50	348.74
387.70	332.36
387.89	512.58
388.09	379.17
388.28	390.87
388.48	388.53
388.67	779.40
388.86	479.81
389.06	477.47
389.25	671.73
389.45	552.37
389.64	484.49
389.84	901.11
390.03	695.14
390.22	601.52
390.42	447.04
390.61	325.33
390.81	355.76
391.00	519.60
391.19	784.08
391.39	496.19
391.58	662.37
391.78	559.39
391.97	543.00
392.16	327.68
392.36	898.77
392.55	814.51
392.75	475.13
392.94	390.87
393.13	636.63
393.33	283.20
393.52	433.00
393.71	952.60
393.91	580.45
394.10	449.38
394.29	458.74
394.49	458.74
394.68	685.78
394.88	866.00
395.07	833.23
395.26	685.78
395.46	643.65
395.65	901.11
395.84	760.67
396.04	1397.30
396.23	540.66
396.42	477.47
396.62	667.05
396.81	681.10
397.00	653.01
397.19	662.37
397.39	545.34
397.58	858.98
397.77	578.11
397.97	683.44
398.16	543.00
398.35	781.74
398.55	535.98
398.74	617.90
398.93	882.38
399.12	531.30
399.32	784.08
399.51	613.22
399.70	877.70
399.90	793.44
400.09	725.57
400.28	908.13
400.47	550.03
400.67	851.96
400.86	699.82
401.05	931.53
401.24	854.30
401.44	903.45
401.63	931.53
401.82	983.02
402.01	580.45
402.21	1032.18
402.40	791.10
402.59	650.67
402.78	634.29
402.97	624.92
403.17	791.10
403.36	779.40
403.55	695.14
403.74	720.88
403.93	690.46
404.13	994.73
404.32	650.67
404.51	718.54
404.70	1020.47
404.89	751.31
405.09	1221.76
405.28	732.59
405.47	573.43
405.66	877.70
405.85	1048.56
406.05	781.74
406.24	741.95
406.43	732.59
406.62	830.89
406.81	1390.28
407.00	1114.10
407.20	814.51
407.39	791.10
407.58	617.90
407.77	997.07
407.96	1142.18
408.15	1001.75
408.34	983.02
408.54	971.32
408.73	959.62
408.92	751.31
409.11	1102.39
409.30	1174.95
409.49	706.84
409.68	788.76
409.87	798.12
410.07	634.29
410.26	894.08
410.45	786.42
410.64	613.22
410.83	896.43
411.02	763.01
411.21	1053.24
411.40	1132.82
411.59	866.00
411.78	870.68
411.98	807.48
412.17	748.97
412.36	823.87
412.55	802.80
412.74	1013.45
412.93	1273.25
413.12	856.64
413.31	1177.29
413.50	898.77
413.69	866.00
413.88	1387.94
414.07	999.41
414.26	1053.24
414.45	755.99
414.64	1074.31
414.83	1036.86
415.02	1067.28
415.22	1167.93
415.41	1268.57
415.60	884.72
415.79	954.94
415.98	1219.42
416.17	933.87
416.36	973.66
416.55	770.04
416.74	1172.61
416.93	1282.61
417.12	968.98
417.31	851.96
417.50	945.58
417.69	1465.18
417.88	1027.50
418.07	727.91
418.26	987.71
418.45	875.36
418.64	1434.75
418.83	1055.58
419.02	1022.81
419.21	1062.60
419.39	1027.50
419.58	842.59
419.77	891.74
419.96	1296.66
420.15	1535.39
420.34	1088.35
420.53	1139.84
420.72	1249.85
420.91	1125.80
421.10	1078.99
421.29	1095.37
421.48	1315.38
421.67	1266.23
421.86	1034.52
422.05	1013.45
422.24	1053.24
422.43	1069.62
422.61	954.94
422.80	973.66
422.99	1011.11
423.18	952.60
423.37	1483.90
423.56	1186.65
423.75	1228.78
423.94	858.98
424.13	1048.56
424.32	997.07
424.50	1013.45
424.69	1062.60
424.88	1434.75
425.07	947.92
425.26	1163.25
425.45	1301.34
425.64	877.70
425.83	1020.47
426.01	1409.00
426.20	1172.61
426.39	1041.54
426.58	999.41
426.77	938.55
426.96	1146.86
427.15	1205.38
427.33	961.96
427.52	1123.46
427.71	1060.26
427.90	1097.71
428.09	964.30
428.28	929.19
428.46	901.11
428.65	1135.16
428.84	1050.90
429.03	1486.24
429.22	938.55
429.40	884.72
429.59	807.48
429.78	1228.78
429.97	983.02
430.16	898.77
430.34	947.92
430.53	924.51
430.72	922.17
430.91	1284.95
431.10	840.25
431.28	1118.78
431.47	1437.09
431.66	1334.11
431.85	1048.56
432.03	1109.41
432.22	1877.11
432.41	1102.39
432.60	1523.69
432.79	1114.10
432.97	1266.23
433.16	1083.67
433.35	971.32
433.54	997.07
433.72	1261.55
433.91	1252.19
434.10	947.92
434.28	1336.45
434.47	1130.48
434.66	1343.47
434.85	1011.11
435.03	1139.84
435.22	1685.19
435.41	1729.66
435.59	1423.05
435.78	1219.42
435.97	1011.11
436.16	1460.49
436.34	1228.78
436.53	1434.75
436.72	1582.20
436.90	1430.07
437.09	1418.36
437.28	1200.69
437.46	1212.40
437.65	1406.66
437.84	1348.15
438.02	1217.08
438.21	1373.89
438.40	1095.37
438.58	1057.92
438.77	1235.80
438.96	1350.49
439.14	1198.35
439.33	1483.90
439.52	1137.50
439.70	1233.46
439.89	1476.88
440.08	1390.28
440.26	1385.60
440.45	1872.43
440.63	1476.88
440.82	1488.58
441.01	1458.15
441.19	1406.66
441.38	1383.26
441.57	1385.60
441.75	1746.04
441.94	1769.44
442.12	1427.73
442.31	1387.94
442.50	1469.86
442.68	1352.83
442.87	1423.05
443.05	1451.13
443.24	1486.24
443.43	1593.90
443.61	1879.45
443.80	1509.65
443.98	1376.24
444.17	1455.81
444.35	1722.63
444.54	1561.14
444.73	1535.39
444.91	1753.06
445.10	1287.29
445.28	1266.23
445.47	1427.73
445.65	1441.77
445.84	1301.34
446.02	1448.79
446.21	1334.11
446.39	1287.29
446.58	1664.12
446.77	1385.60
446.95	1392.62
447.14	1722.63
447.32	1884.13
447.51	1591.56
447.69	1682.85
447.88	1582.20
448.06	1926.26
448.25	1584.54
448.43	1399.64
448.62	1277.93
448.80	1631.35
448.99	1732.00
449.17	1493.26
449.36	1526.03
449.54	1846.68
449.73	1439.43
449.91	1706.25
450.10	1600.93
450.28	2277.34
450.46	2305.43
450.65	1886.47
450.83	1666.46
451.02	1624.33
451.20	1643.06
451.39	1533.05
451.57	1483.90
451.76	1418.36
451.94	1535.39
452.13	1881.79
452.31	1916.90
452.49	1659.44
452.68	1373.89
452.86	1589.22
453.05	2078.40
453.23	1533.05
453.42	1329.42
453.60	1664.12
453.78	1633.69
453.97	1437.09
454.15	1474.54
454.34	1537.73
454.52	1490.92
454.70	1949.67
454.89	1820.94
455.07	1413.68
455.26	1767.10
455.44	1853.70
455.62	1650.08
455.81	1696.89
455.99	1830.30
456.17	1830.30
456.36	1600.93
456.54	1544.75
456.73	1652.42
456.91	1645.40
457.09	1790.51
457.28	2059.67
457.46	1724.97
457.64	1961.37
457.83	1717.95
458.01	1502.62
458.19	1783.49
458.38	1678.16
458.56	1816.26
458.74	1598.59
458.93	1776.47
459.11	1874.77
459.29	1465.18
459.48	1919.24
459.66	2218.83
459.84	1884.13
460.03	2923.33
460.21	2052.65
460.39	1760.08
460.57	2134.57
460.76	1860.73
460.94	1811.57
461.12	2228.19
461.31	2153.29
461.49	1703.91
461.67	1788.17
461.85	1846.68
462.04	1699.23
462.22	8346.35
462.40	2087.76
462.59	2176.70
462.77	1675.82
462.95	1804.55
463.13	1523.69
463.32	2087.76
463.50	1834.98
463.68	1952.01
463.86	1722.63
464.05	1769.44
464.23	2127.55
464.41	1898.17
464.59	1528.37
464.78	1708.59
464.96	1547.09
465.14	1785.83
465.32	1682.85
465.50	1891.15
465.69	2005.84
465.87	1610.29
466.05	1982.43
466.23	1575.18
466.41	1621.99
466.60	1638.38
466.78	1839.66
466.96	2069.03
467.14	1879.45
467.32	2047.97
467.51	1959.03
467.69	1989.46
467.87	2214.15
468.05	1715.61
468.23	2324.15
468.41	2017.54
468.60	1811.57
468.78	1975.41
468.96	2120.53
469.14	2033.93
469.32	1523.69
469.50	1717.95
469.69	1930.94
469.87	1732.00
470.05	1874.77
470.23	1823.28
470.41	1685.19
470.59	1589.22
470.77	1891.15
470.95	1834.98
471.14	1977.75
471.32	1811.57
471.50	2331.17
471.68	2022.22
471.86	2062.01
472.04	1776.47
472.22	2012.86
472.40	1682.85
472.58	1732.00
472.77	1764.76
472.95	1870.09
473.13	2455.22
473.31	2310.11
473.49	1706.25
473.67	1732.00
473.85	2036.27
474.03	2160.31
474.21	2019.88
474.39	2406.07
474.57	2518.42
474.75	2076.06
474.93	1795.19
475.12	1764.76
475.30	1912.22
475.48	1982.43
475.66	2022.22
475.84	1989.46
476.02	2043.29
476.20	2260.96
476.38	2136.91
476.56	2841.41
476.74	1968.39
476.92	2038.61
477.10	2066.69
477.28	2480.97
477.46	2087.76
477.64	2277.34
477.82	2169.68
478.00	2146.27
478.18	2277.34
478.36	2141.59
478.54	2017.54
478.72	2132.23
478.90	2230.53
479.08	2356.92
479.26	2401.39
479.44	2174.36
479.62	1991.80
479.80	2218.83
479.98	2162.66
480.16	2071.37
480.34	2537.14
480.52	2197.76
480.70	2455.22
480.88	2099.46
481.06	2221.17
481.24	2324.15
481.41	2415.43
481.59	2600.34
481.77	2431.82
481.95	2401.39
482.13	2825.03
482.31	2382.67
482.49	2197.76
482.67	2548.84
482.85	2663.53
483.03	2567.57
483.21	2417.77
483.39	2342.88
483.57	2438.84
483.74	2757.15
483.92	2459.90
484.10	2349.90
484.28	2855.45
484.46	3187.81
484.64	2466.92
484.82	2530.12
485.00	2361.60
485.18	2471.61
485.35	2394.37
485.53	2012.86
485.71	2417.77
485.89	1853.70
486.07	2347.56
486.25	3005.25
486.43	2539.48
486.61	2658.85
486.78	2708.00
486.96	2321.81
487.14	2647.15
487.32	2588.63
487.50	2590.97
487.68	2796.94
487.85	2544.16
488.03	2708.00
488.21	3075.46
488.39	2569.91
488.57	2794.60
488.75	2511.39
488.92	6263.27
489.10	2944.39
489.28	3468.67
489.46	2878.86
489.64	2972.48
489.81	2965.46
489.99	3101.21
490.17	2860.13
490.35	3859.54
490.53	3005.25
490.70	2792.26
490.88	3098.87
491.06	2988.86
491.24	3115.25
491.41	3424.20
491.59	3047.38
491.77	2785.24
491.95	2675.23
492.13	2771.19
492.30	3023.97
492.48	3124.62
492.66	3159.72
492.84	2970.14
493.01	3061.42
493.19	2820.35
493.37	3585.70
493.54	3384.41
493.72	3344.63
493.90	3145.68
494.08	3087.17
494.25	3384.41
494.43	3356.33
494.61	3215.90
494.79	3136.32
494.96	3009.93
495.14	3403.14
495.32	3019.29
495.49	3276.75
495.67	3234.62
495.85	3178.45
496.02	3145.68
496.20	3639.53
496.38	3466.33
496.55	3309.52
496.73	3566.98
496.91	3258.03
497.09	3735.50
497.26	3517.83
497.44	3435.91
497.62	3318.88
497.79	3190.15
497.97	3279.09
498.14	3583.36
498.32	3583.36
498.50	3531.87
498.67	3358.67
498.85	3414.84
499.03	3555.27
499.20	3527.19
499.38	3471.01
499.56	3463.99
499.73	4009.34
499.91	3639.53
500.08	3611.45
500.26	3349.31
500.44	3339.94
500.61	3506.12
500.79	3208.87
500.97	3548.25
501.14	3805.71
501.32	3485.06
501.49	3784.65
501.67	3332.92
501.84	3641.87
502.02	3349.31
502.20	4067.85
502.37	3721.45
502.55	3433.57
502.72	3588.04
502.90	3882.95
503.07	3578.68
503.25	3674.64
503.43	3297.81
503.60	3276.75
503.78	3569.32
503.95	3463.99
504.13	3461.65
504.30	3756.56
504.48	3829.12
504.65	4016.36
504.83	3889.97
505.01	3648.90
505.18	3920.40
505.36	3700.39
505.53	3829.12
505.71	3866.56
505.88	4358.08
506.06	3684.00
506.23	3768.26
506.41	3625.49
506.58	3868.91
506.76	3791.67
506.93	3714.43
507.11	3688.68
507.28	3576.34
507.46	3672.30
507.63	3754.22
507.81	3318.88
507.98	3550.59
508.16	3653.58
508.33	3691.02
508.50	4011.68
508.68	3840.82
508.85	3908.69
509.03	3702.73
509.20	3920.40
509.38	3999.98
509.55	4011.68
509.73	4112.32
509.90	4196.58
510.08	3569.32
510.25	4018.70
510.42	3632.51
510.60	3707.41
510.77	4070.19
510.95	4175.52
511.12	3826.78
511.30	4175.52
511.47	4173.18
511.64	4461.06
511.82	3946.14
511.99	3936.78
512.17	3723.79
512.34	3545.91
512.51	3669.96
512.69	3904.01
512.86	4248.07
513.04	3786.99
513.21	4077.21
513.38	3831.46
513.56	3728.47
513.73	3676.98
513.90	3562.30
514.08	3566.98
514.25	3976.57
514.43	3929.76
514.60	3569.32
514.77	3995.29
514.95	4002.32
515.12	3838.48
515.29	4023.38
515.47	4053.81
515.64	3957.85
515.81	4058.49
515.99	4262.12
516.16	3861.88
516.33	3873.59
516.51	3412.50
516.68	3089.51
516.85	3274.41
517.03	3445.27
517.20	3843.16
517.37	3885.29
517.54	4046.79
517.72	3681.66
517.89	3375.05
518.06	3379.73
518.24	4266.80
518.41	4259.78
518.58	4023.38
518.75	3744.86
518.93	3838.48
519.10	4039.76
519.27	3901.67
519.45	4065.51
519.62	4072.53
519.79	4163.81
519.96	3822.09
520.14	3990.61
520.31	4138.07
520.48	4030.40
520.65	4079.55
520.83	4372.12
521.00	4402.55
521.17	4367.44
521.34	4095.94
521.52	4222.33
521.69	4147.43
521.86	4177.86
522.03	4318.29
522.20	4540.64
522.38	3911.04
522.55	4168.49
522.72	3786.99
522.89	4360.42
523.07	4751.29
523.24	4297.22
523.41	4203.60
523.58	4140.41
523.75	4278.50
523.92	4074.87
524.10	4482.13
524.27	4327.65
524.44	4259.78
524.61	4596.81
524.78	4191.90
524.96	4294.88
525.13	4285.52
525.30	4550.00
525.47	4587.45
525.64	4456.38
525.81	4245.73
525.98	4021.04
526.16	3915.72
526.33	3634.85
526.50	3574.00
526.67	3417.18
526.84	3751.88
527.01	3754.22
527.18	4189.56
527.36	4159.13
527.53	4065.51
527.70	4456.38
527.87	4299.56
528.04	4901.08
528.21	4109.98
528.38	4868.31
528.55	4765.33
528.72	4999.38
528.89	5081.30
529.07	4486.81
529.24	4351.06
529.41	4891.72
529.58	4236.37
529.75	4407.23
529.92	4664.69
530.09	4327.65
530.26	4760.65
530.43	4702.14
530.60	4545.32
530.77	4564.04
530.94	4791.08
531.11	4622.56
531.28	4421.27
531.46	4374.46
531.63	4458.72
531.80	4517.23
531.97	4493.83
532.14	4257.43
532.31	4360.42
532.48	4131.05
532.65	4297.22
532.82	3969.55
532.99	4311.27
533.16	4259.78
533.33	4535.96
533.50	4255.09
533.67	4131.05
533.84	4257.43
534.01	4486.81
534.18	4348.72
534.35	4554.68
534.52	4482.13
534.69	5057.90
534.86	4514.89
535.03	4517.23
535.20	4430.63
535.37	4910.44
535.54	4711.50
535.71	4449.36
535.88	4896.40
536.05	4322.97
536.22	4545.32
536.38	4299.56
536.55	4381.48
536.72	4559.36
536.89	4063.17
537.06	4337.01
537.23	4435.32
537.40	4613.20
537.57	4353.40
537.74	4835.55
537.91	4713.84
538.08	4580.43
538.25	4777.03
538.42	4465.74
538.59	4477.44
538.75	4280.84
538.92	4472.76
539.09	4725.54
539.26	4245.73
539.43	4692.77
539.60	4409.57
539.77	4428.29
539.94	4416.59
540.11	4442.34
540.28	4528.94
540.44	4711.50
540.61	4205.94
540.78	4269.14
540.95	4245.73
541.12	4933.85
541.29	4278.50
541.46	5043.85
541.62	4463.40
541.79	4299.56
541.96	4339.35
542.13	4271.48
542.30	4248.07
542.47	4704.48
542.63	4264.46
542.80	4390.84
542.97	4816.82
543.14	4304.25
543.31	4580.43
543.48	4564.04
543.64	4587.45
543.81	4645.96
543.98	4449.36
544.15	4287.86
544.32	4362.76
544.48	4601.49
544.65	4524.26
544.82	4526.60
544.99	4418.93
545.16	4933.85
545.32	4425.95
545.49	4706.82
545.66	4636.60
545.83	4369.78
546.00	4388.50
546.16	4519.57
546.33	4430.63
546.50	4484.47
546.67	5015.77
546.83	4791.08
547.00	4587.45
547.17	4166.15
547.34	4325.31
547.50	4496.17
547.67	4454.04
547.84	4255.09
548.00	4765.33
548.17	4404.89
548.34	4388.50
548.51	5200.67
548.67	4814.48
548.84	4542.98
549.01	4667.03
549.18	4594.47
549.34	4599.15
549.51	4655.33
549.68	4589.79
549.84	4697.46
550.01	4381.48
550.18	5994.11
550.34	5270.89
550.51	4613.20
550.68	5078.96
550.84	4514.89
551.01	4503.19
551.18	4793.42
551.34	4514.89
551.51	4498.51
551.68	4524.26
551.84	4734.90
552.01	4524.26
552.18	4409.57
552.34	4681.07
552.51	4449.36
552.68	4741.93
552.84	4428.29
553.01	4550.00
553.18	4826.18
553.34	4498.51
553.51	4400.21
553.67	4669.37
553.84	5233.44
554.01	4615.54
554.17	4676.39
554.34	4402.55
554.51	4767.67
554.67	4968.96
554.84	4748.95
555.00	4582.77
555.17	4821.50
555.33	5029.81
555.50	4655.33
555.67	4734.90
555.83	4358.08
556.00	4634.26
556.16	6614.35
556.33	4631.92
556.50	4423.61
556.66	4423.61
556.83	4259.78
556.99	4411.91
557.16	4519.57
557.32	4369.78
557.49	4447.02
557.65	4447.02
557.82	4395.53
557.98	4414.25
558.15	4126.36
558.32	4311.27
558.48	4212.96
558.65	4285.52
558.81	4465.74
558.98	4297.22
559.14	4645.96
559.31	4538.30
559.47	4613.20
559.64	4243.39
559.80	4641.28
559.97	4234.03
560.13	4454.04
560.30	4236.37
560.46	4500.85
560.63	4589.79
560.79	4727.88
560.96	4435.32
561.12	4292.54
561.29	4428.29
561.45	4266.80
561.61	4519.57
561.78	5542.39
561.94	4526.60
562.11	4418.93
562.27	4367.44
562.44	4365.10
562.60	4346.37
562.77	4519.57
562.93	5432.38
563.10	4489.15
563.26	4344.03
563.42	4819.16
563.59	4423.61
563.75	4231.69
563.92	4732.56
564.08	4545.32
564.24	4840.23
564.41	5151.52
564.57	4250.41
564.74	4339.35
564.90	4486.81
565.07	4578.09
565.23	4559.36
565.39	4109.98
565.56	4355.74
565.72	4168.49
565.88	4208.28
566.05	4229.35
566.21	4423.61
566.38	4624.90
566.54	4486.81
566.70	4367.44
566.87	4461.06
567.03	4259.78
567.19	4409.57
567.36	4629.58
567.52	4404.89
567.68	4624.90
567.85	4573.41
568.01	4154.45
568.17	4067.85
568.34	4128.70
568.50	4566.39
568.66	3999.98
568.83	5205.35
568.99	4212.96
569.15	4521.92
569.32	4337.01
569.48	4325.31
569.64	4124.02
569.81	4194.24
569.97	4145.09
570.13	4533.62
570.30	4280.84
570.46	4088.92
570.62	4145.09
570.78	4032.74
570.95	3908.69
571.11	4746.61
571.27	4770.01
571.43	4147.43
571.60	4601.49
571.76	4269.14
571.92	4423.61
572.09	4374.46
572.25	4456.38
572.41	4456.38
572.57	4386.16
572.74	4828.53
572.90	4683.41
573.06	4395.53
573.22	4540.64
573.38	4690.43
573.55	4709.16
573.71	4652.98
573.87	4681.07
574.03	4348.72
574.20	4320.63
574.36	4730.22
574.52	4212.96
574.68	4229.35
574.84	4320.63
575.01	4196.58
575.17	4540.64
575.33	4187.22
575.49	4561.70
575.65	4540.64
575.82	4638.94
575.98	4947.89
576.14	4292.54
576.30	4311.27
576.46	4369.78
576.62	4379.14
576.79	4486.81
576.95	4851.93
577.11	4138.07
577.27	4126.36
577.43	4758.31
577.59	4798.10
577.75	4458.72
577.92	4112.32
578.08	4072.53
578.24	4081.89
578.40	4437.66
578.56	4667.03
578.72	4535.96
578.88	4491.49
579.04	4198.92
579.21	4322.97
579.37	4184.88
579.53	4283.18
579.69	4479.79
579.85	4271.48
580.01	4461.06
580.17	4250.41
580.33	4173.18
580.49	4353.40
580.65	4454.04
580.82	4435.32
580.98	4304.25
581.14	4117.00
581.30	4547.66
581.46	4318.29
581.62	4709.16
581.78	4212.96
581.94	4428.29
582.10	4049.13
582.26	4383.82
582.42	4278.50
582.58	4491.49
582.74	4311.27
582.90	4561.70
583.06	4568.73
583.22	4531.28
583.38	4180.20
583.54	4432.97
583.70	4751.29
583.86	4477.44
584.02	4346.37
584.18	4784.06
584.34	4360.42
584.50	4290.20
584.66	4341.69
584.82	4287.86
584.98	4351.06
585.14	4184.88
585.30	4573.41
585.46	4252.75
585.62	3943.80
585.78	4283.18
585.94	4397.87
586.10	4376.80
586.26	4421.27
586.42	4968.96
586.58	4510.21
586.74	4400.21
586.90	4290.20
587.06	4479.79
587.22	4395.53
587.38	4152.11
587.54	4114.66
587.70	4561.70
587.86	4475.10
588.02	4102.96
588.18	4173.18
588.34	4084.23
588.49	3529.53
588.65	3602.08
588.81	3606.77
588.97	3379.73
589.13	3515.48
589.29	3817.41
589.45	4203.60
589.61	3857.20
589.77	4337.01
589.93	3847.84
590.08	4016.36
590.24	3964.87
590.40	4117.00
590.56	4369.78
590.72	4091.26
590.88	3737.84
591.04	4173.18
591.20	3831.46
591.35	4505.53
591.51	3838.48
591.67	3913.38
591.83	3995.29
591.99	4189.56
592.15	4390.84
592.31	4250.41
592.46	4053.81
592.62	4196.58
592.78	3999.98
592.94	3978.91
593.10	3927.42
593.26	3953.16
593.41	4194.24
593.57	4133.39
593.73	4042.11
593.89	4231.69
594.05	4023.38
594.20	3899.33
594.36	4428.29
594.52	4074.87
594.68	3779.97
594.84	4219.99
594.99	4636.60
595.15	4290.20
595.31	4404.89
595.47	4592.13
595.62	4196.58
595.78	4156.79
595.94	4208.28
596.10	4447.02
596.25	4109.98
596.41	4320.63
596.57	4072.53
596.73	4107.64
596.88	4100.62
597.04	4156.79
597.20	3983.59
597.36	4081.89
597.51	3885.29
597.67	3885.29
597.83	3925.08
597.99	4311.27
598.14	4119.34
598.30	4454.04
598.46	4039.76
598.61	4381.48
598.77	4170.83
