SpectraSuite Data File
++++++++++++++++++++++++++++++++++++
Date: Mon Oct 07 15:00:01 GMT-05:00 2013
User: price-jones
Dark Spectrum Present: No
Reference Spectrum Present: No
Number of Sampled Component Spectra: 1
Spectrometers: USB2+H05261
Integration Time (usec): 100000 (USB2+H05261)
Spectra Averaged: 1 (USB2+H05261)
Boxcar Smoothing: 0 (USB2+H05261)
Correct for Electrical Dark: No (USB2+H05261)
Strobe/Lamp Enabled: No (USB2+H05261)
Correct for Detector Non-linearity: No (USB2+H05261)
Correct for Stray Light: No (USB2+H05261)
Number of Pixels in Processed Spectrum: 2048
>>>>>Begin Processed Spectral Data<<<<<
365.73	0.00
365.92	0.00
366.12	0.00
366.32	0.00
366.52	0.00
366.72	0.00
366.91	0.00
367.11	0.00
367.31	0.00
367.51	0.00
367.70	0.00
367.90	0.00
368.10	0.00
368.30	0.00
368.49	0.00
368.69	0.00
368.89	0.00
369.09	0.00
369.28	0.00
369.48	0.00
369.68	0.00
369.87	0.00
370.07	0.00
370.27	0.00
370.47	0.00
370.66	0.00
370.86	0.00
371.06	0.00
371.25	0.00
371.45	0.00
371.65	0.00
371.84	0.00
372.04	0.00
372.24	0.00
372.44	0.00
372.63	0.00
372.83	0.00
373.03	0.00
373.22	0.00
373.42	0.00
373.62	0.00
373.81	0.00
374.01	0.00
374.21	0.00
374.40	0.00
374.60	0.00
374.79	0.00
374.99	0.00
375.19	0.00
375.38	0.00
375.58	0.00
375.78	0.00
375.97	0.00
376.17	0.00
376.37	0.00
376.56	0.00
376.76	0.00
376.95	0.00
377.15	0.00
377.35	0.00
377.54	0.00
377.74	0.00
377.93	0.00
378.13	0.00
378.33	0.00
378.52	0.00
378.72	0.00
378.91	0.00
379.11	0.00
379.31	0.00
379.50	0.00
379.70	0.00
379.89	0.00
380.09	0.00
380.28	0.00
380.48	0.00
380.68	0.00
380.87	0.00
381.07	0.00
381.26	0.00
381.46	0.00
381.65	0.00
381.85	0.00
382.04	0.00
382.24	0.00
382.43	0.00
382.63	0.00
382.83	0.00
383.02	0.00
383.22	0.00
383.41	0.00
383.61	0.00
383.80	0.00
384.00	0.00
384.19	0.00
384.39	0.00
384.58	0.00
384.78	0.00
384.97	0.00
385.17	0.00
385.36	0.00
385.56	0.00
385.75	0.00
385.95	0.00
386.14	0.00
386.34	0.00
386.53	0.00
386.72	0.00
386.92	0.00
387.11	0.00
387.31	0.00
387.50	0.00
387.70	0.00
387.89	0.00
388.09	0.00
388.28	0.00
388.48	0.00
388.67	0.00
388.86	0.00
389.06	0.00
389.25	0.00
389.45	0.00
389.64	0.00
389.84	0.00
390.03	0.00
390.22	0.00
390.42	0.00
390.61	0.00
390.81	0.00
391.00	0.00
391.19	0.00
391.39	0.00
391.58	0.00
391.78	0.00
391.97	0.00
392.16	0.00
392.36	0.00
392.55	0.00
392.75	0.00
392.94	0.00
393.13	0.00
393.33	0.00
393.52	0.00
393.71	0.00
393.91	0.00
394.10	0.00
394.29	0.00
394.49	0.00
394.68	0.00
394.88	0.00
395.07	0.00
395.26	0.00
395.46	0.00
395.65	0.00
395.84	0.00
396.04	0.00
396.23	0.00
396.42	0.00
396.62	0.00
396.81	0.00
397.00	0.00
397.19	0.00
397.39	0.00
397.58	0.00
397.77	0.00
397.97	0.00
398.16	0.00
398.35	0.00
398.55	0.00
398.74	0.00
398.93	0.00
399.12	0.00
399.32	0.00
399.51	0.00
399.70	0.00
399.90	0.00
400.09	0.00
400.28	0.00
400.47	0.00
400.67	0.00
400.86	0.00
401.05	0.00
401.24	0.00
401.44	0.00
401.63	0.00
401.82	0.00
402.01	0.00
402.21	0.00
402.40	0.00
402.59	0.00
402.78	0.00
402.97	0.00
403.17	0.00
403.36	0.00
403.55	0.00
403.74	0.00
403.93	0.00
404.13	0.00
404.32	0.00
404.51	0.00
404.70	0.00
404.89	0.00
405.09	0.00
405.28	0.00
405.47	0.00
405.66	0.00
405.85	0.00
406.05	0.00
406.24	0.00
406.43	0.00
406.62	0.00
406.81	0.00
407.00	0.00
407.20	0.00
407.39	0.00
407.58	0.00
407.77	0.00
407.96	0.00
408.15	0.00
408.34	0.00
408.54	0.00
408.73	0.00
408.92	0.00
409.11	0.00
409.30	0.00
409.49	0.00
409.68	0.00
409.87	0.00
410.07	0.00
410.26	0.00
410.45	0.00
410.64	0.00
410.83	0.00
411.02	0.00
411.21	0.00
411.40	0.00
411.59	0.00
411.78	0.00
411.98	0.00
412.17	0.00
412.36	0.00
412.55	0.00
412.74	0.00
412.93	0.00
413.12	0.00
413.31	0.00
413.50	0.00
413.69	0.00
413.88	0.00
414.07	0.00
414.26	0.00
414.45	0.00
414.64	0.00
414.83	0.00
415.02	0.00
415.22	0.00
415.41	0.00
415.60	0.00
415.79	0.00
415.98	0.00
416.17	0.00
416.36	0.00
416.55	0.00
416.74	0.00
416.93	0.00
417.12	0.00
417.31	0.00
417.50	0.00
417.69	0.00
417.88	0.00
418.07	0.00
418.26	0.00
418.45	0.00
418.64	0.00
418.83	0.00
419.02	0.00
419.21	0.00
419.39	0.00
419.58	0.00
419.77	0.00
419.96	0.00
420.15	0.00
420.34	0.00
420.53	0.00
420.72	0.00
420.91	0.00
421.10	0.00
421.29	0.00
421.48	0.00
421.67	0.00
421.86	0.00
422.05	0.00
422.24	0.00
422.43	0.00
422.61	0.00
422.80	0.00
422.99	0.00
423.18	0.00
423.37	0.00
423.56	0.00
423.75	0.00
423.94	0.00
424.13	0.00
424.32	0.00
424.50	0.00
424.69	0.00
424.88	0.00
425.07	0.00
425.26	0.00
425.45	0.00
425.64	0.00
425.83	0.00
426.01	0.00
426.20	0.00
426.39	0.00
426.58	0.00
426.77	0.00
426.96	0.00
427.15	0.00
427.33	0.00
427.52	0.00
427.71	0.00
427.90	0.00
428.09	0.00
428.28	0.00
428.46	0.00
428.65	0.00
428.84	0.00
429.03	0.00
429.22	0.00
429.40	0.00
429.59	0.00
429.78	0.00
429.97	0.00
430.16	0.00
430.34	0.00
430.53	0.00
430.72	0.00
430.91	0.00
431.10	0.00
431.28	0.00
431.47	0.00
431.66	0.00
431.85	0.00
432.03	0.00
432.22	0.00
432.41	0.00
432.60	0.00
432.79	0.00
432.97	0.00
433.16	0.00
433.35	0.00
433.54	0.00
433.72	0.00
433.91	0.00
434.10	0.00
434.28	0.00
434.47	0.00
434.66	0.00
434.85	0.00
435.03	0.00
435.22	0.00
435.41	0.00
435.59	0.00
435.78	0.00
435.97	0.00
436.16	0.00
436.34	0.00
436.53	0.00
436.72	0.00
436.90	18.72
437.09	0.00
437.28	0.00
437.46	0.00
437.65	0.00
437.84	0.00
438.02	0.00
438.21	0.00
438.40	0.00
438.58	0.00
438.77	0.00
438.96	0.00
439.14	0.00
439.33	0.00
439.52	0.00
439.70	0.00
439.89	0.00
440.08	0.00
440.26	0.00
440.45	0.00
440.63	0.00
440.82	0.00
441.01	0.00
441.19	0.00
441.38	0.00
441.57	0.00
441.75	0.00
441.94	0.00
442.12	0.00
442.31	0.00
442.50	0.00
442.68	0.00
442.87	0.00
443.05	0.00
443.24	0.00
443.43	0.00
443.61	0.00
443.80	0.00
443.98	0.00
444.17	0.00
444.35	0.00
444.54	0.00
444.73	0.00
444.91	0.00
445.10	0.00
445.28	0.00
445.47	0.00
445.65	0.00
445.84	0.00
446.02	0.00
446.21	0.00
446.39	0.00
446.58	0.00
446.77	0.00
446.95	0.00
447.14	35.11
447.32	0.00
447.51	0.00
447.69	0.00
447.88	0.00
448.06	0.00
448.25	0.00
448.43	0.00
448.62	0.00
448.80	0.00
448.99	0.00
449.17	0.00
449.36	0.00
449.54	0.00
449.73	0.00
449.91	0.00
450.10	0.00
450.28	4.68
450.46	0.00
450.65	0.00
450.83	0.00
451.02	0.00
451.20	0.00
451.39	0.00
451.57	0.00
451.76	0.00
451.94	0.00
452.13	0.00
452.31	0.00
452.49	0.00
452.68	0.00
452.86	0.00
453.05	0.00
453.23	2.34
453.42	0.00
453.60	0.00
453.78	0.00
453.97	0.00
454.15	0.00
454.34	0.00
454.52	0.00
454.70	0.00
454.89	0.00
455.07	0.00
455.26	0.00
455.44	0.00
455.62	0.00
455.81	37.45
455.99	0.00
456.17	0.00
456.36	0.00
456.54	0.00
456.73	0.00
456.91	0.00
457.09	0.00
457.28	21.06
457.46	0.00
457.64	0.00
457.83	0.00
458.01	0.00
458.19	16.38
458.38	14.04
458.56	0.00
458.74	0.00
458.93	0.00
459.11	35.11
459.29	0.00
459.48	0.00
459.66	0.00
459.84	0.00
460.03	119.37
460.21	0.00
460.39	0.00
460.57	30.43
460.76	0.00
460.94	9.36
461.12	0.00
461.31	0.00
461.49	4.68
461.67	35.11
461.85	0.00
462.04	0.00
462.22	540.66
462.40	42.13
462.59	16.38
462.77	0.00
462.95	0.00
463.13	0.00
463.32	4.68
463.50	0.00
463.68	0.00
463.86	0.00
464.05	0.00
464.23	0.00
464.41	0.00
464.59	0.00
464.78	0.00
464.96	0.00
465.14	0.00
465.32	0.00
465.50	16.38
465.69	0.00
465.87	0.00
466.05	4.68
466.23	0.00
466.41	0.00
466.60	0.00
466.78	0.00
466.96	7.02
467.14	0.00
467.32	0.00
467.51	0.00
467.69	0.00
467.87	0.00
468.05	0.00
468.23	51.49
468.41	0.00
468.60	0.00
468.78	0.00
468.96	32.77
469.14	25.75
469.32	0.00
469.50	0.00
469.69	0.00
469.87	0.00
470.05	28.09
470.23	0.00
470.41	0.00
470.59	0.00
470.77	49.15
470.95	0.00
471.14	0.00
471.32	0.00
471.50	105.32
471.68	93.62
471.86	25.75
472.04	9.36
472.22	0.00
472.40	0.00
472.58	0.00
472.77	0.00
472.95	0.00
473.13	72.56
473.31	0.00
473.49	0.00
473.67	0.00
473.85	0.00
474.03	0.00
474.21	0.00
474.39	11.70
474.57	46.81
474.75	0.00
474.93	23.41
475.12	0.00
475.30	21.06
475.48	9.36
475.66	0.00
475.84	0.00
476.02	14.04
476.20	18.72
476.38	0.00
476.56	63.19
476.74	39.79
476.92	49.15
477.10	0.00
477.28	9.36
477.46	0.00
477.64	7.02
477.82	4.68
478.00	42.13
478.18	51.49
478.36	0.00
478.54	0.00
478.72	0.00
478.90	0.00
479.08	7.02
479.26	18.72
479.44	58.51
479.62	28.09
479.80	0.00
479.98	21.06
480.16	42.13
480.34	84.26
480.52	0.00
480.70	14.04
480.88	0.00
481.06	21.06
481.24	0.00
481.41	0.00
481.59	51.49
481.77	65.54
481.95	23.41
482.13	84.26
482.31	0.00
482.49	2.34
482.67	138.09
482.85	11.70
483.03	65.54
483.21	56.17
483.39	126.39
483.57	21.06
483.74	124.05
483.92	121.71
484.10	81.92
484.28	98.30
484.46	100.64
484.64	114.69
484.82	124.05
485.00	37.45
485.18	42.13
485.35	88.94
485.53	0.00
485.71	93.62
485.89	0.00
486.07	4.68
486.25	149.79
486.43	117.03
486.61	135.75
486.78	93.62
486.96	0.00
487.14	124.05
487.32	56.17
487.50	81.92
487.68	156.82
487.85	159.16
488.03	70.22
488.21	198.95
488.39	110.01
488.57	70.22
488.75	51.49
488.92	397.89
489.10	180.22
489.28	175.54
489.46	72.56
489.64	77.24
489.81	147.45
489.99	152.13
490.17	163.84
490.35	184.90
490.53	182.56
490.70	81.92
490.88	58.51
491.06	166.18
491.24	168.52
491.41	161.50
491.59	100.64
491.77	58.51
491.95	88.94
492.13	203.63
492.30	149.79
492.48	170.86
492.66	163.84
492.84	128.73
493.01	98.30
493.19	131.07
493.37	184.90
493.54	187.24
493.72	37.45
493.90	243.42
494.08	145.11
494.25	173.20
494.43	100.64
494.61	173.20
494.79	142.77
494.96	159.16
495.14	205.97
495.32	173.20
495.49	180.22
495.67	131.07
495.85	187.24
496.02	133.41
496.20	217.67
496.38	168.52
496.55	170.86
496.73	133.41
496.91	252.78
497.09	163.84
497.26	236.39
497.44	161.50
497.62	205.97
497.79	133.41
497.97	142.77
498.14	131.07
498.32	231.71
498.50	266.82
498.67	173.20
498.85	229.37
499.03	215.33
499.20	196.60
499.38	189.58
499.56	163.84
499.73	292.57
499.91	215.33
500.08	215.33
500.26	180.22
500.44	84.26
500.61	98.30
500.79	163.84
500.97	290.23
501.14	287.89
501.32	124.05
501.49	238.73
501.67	182.56
501.84	220.01
502.02	238.73
502.20	191.92
502.37	182.56
502.55	217.67
502.72	180.22
502.90	201.29
503.07	170.86
503.25	196.60
503.43	234.05
503.60	114.69
503.78	229.37
503.95	124.05
504.13	184.90
504.30	110.01
504.48	170.86
504.65	318.31
504.83	168.52
505.01	180.22
505.18	255.12
505.36	227.03
505.53	203.63
505.71	252.78
505.88	262.14
506.06	142.77
506.23	259.80
506.41	81.92
506.58	271.50
506.76	297.25
506.93	262.14
507.11	264.48
507.28	121.71
507.46	243.42
507.63	175.54
507.81	166.18
507.98	290.23
508.16	201.29
508.33	191.92
508.50	276.18
508.68	301.93
508.85	245.76
509.03	238.73
509.20	255.12
509.38	231.71
509.55	266.82
509.73	283.20
509.90	294.91
510.08	222.35
510.25	283.20
510.42	259.80
510.60	259.80
510.77	299.59
510.95	229.37
511.12	299.59
511.30	234.05
511.47	273.84
511.64	294.91
511.82	255.12
511.99	205.97
512.17	208.31
512.34	280.86
512.51	264.48
512.69	229.37
512.86	297.25
513.04	220.01
513.21	205.97
513.38	187.24
513.56	259.80
513.73	166.18
513.90	142.77
514.08	231.71
514.25	210.65
514.43	262.14
514.60	234.05
514.77	243.42
514.95	255.12
515.12	252.78
515.29	308.95
515.47	173.20
515.64	292.57
515.81	273.84
515.99	313.63
516.16	152.13
516.33	180.22
516.51	187.24
516.68	142.77
516.85	147.45
517.03	177.88
517.20	248.10
517.37	278.52
517.54	325.33
517.72	278.52
517.89	224.69
518.06	147.45
518.24	266.82
518.41	318.31
518.58	369.80
518.75	168.52
518.93	203.63
519.10	255.12
519.27	149.79
519.45	166.18
519.62	243.42
519.79	271.50
519.96	245.76
520.14	161.50
520.31	327.68
520.48	203.63
520.65	299.59
520.83	341.72
521.00	297.25
521.17	262.14
521.34	290.23
521.52	297.25
521.69	259.80
521.86	285.55
522.03	351.08
522.20	348.74
522.38	168.52
522.55	311.29
522.72	229.37
522.89	360.44
523.07	358.10
523.24	339.38
523.41	365.12
523.58	311.29
523.75	322.99
523.92	262.14
524.10	327.68
524.27	341.72
524.44	337.04
524.61	308.95
524.78	280.86
524.96	320.65
525.13	227.03
525.30	294.91
525.47	318.31
525.64	348.74
525.81	351.08
525.98	215.33
526.16	273.84
526.33	259.80
526.50	285.55
526.67	215.33
526.84	198.95
527.01	191.92
527.18	262.14
527.36	304.27
527.53	276.18
527.70	248.10
527.87	297.25
528.04	297.25
528.21	220.01
528.38	397.89
528.55	376.83
528.72	360.44
528.89	360.44
529.07	287.89
529.24	252.78
529.41	358.10
529.58	304.27
529.75	292.57
529.92	308.95
530.09	304.27
530.26	353.42
530.43	262.14
530.60	280.86
530.77	320.65
530.94	386.19
531.11	360.44
531.28	271.50
531.46	297.25
531.63	367.46
531.80	351.08
531.97	273.84
532.14	290.23
532.31	344.06
532.48	341.72
532.65	241.08
532.82	330.02
532.99	271.50
533.16	341.72
533.33	276.18
533.50	234.05
533.67	285.55
533.84	308.95
534.01	322.99
534.18	292.57
534.35	243.42
534.52	259.80
534.69	311.29
534.86	365.12
535.03	308.95
535.20	346.40
535.37	407.25
535.54	318.31
535.71	327.68
535.88	304.27
536.05	327.68
536.22	383.85
536.38	318.31
536.55	365.12
536.72	404.91
536.89	198.95
537.06	346.40
537.23	386.19
537.40	301.93
537.57	271.50
537.74	346.40
537.91	416.62
538.08	327.68
538.25	355.76
538.42	322.99
538.59	304.27
538.75	255.12
538.92	278.52
539.09	304.27
539.26	287.89
539.43	330.02
539.60	283.20
539.77	290.23
539.94	358.10
540.11	320.65
540.28	273.84
540.44	414.27
540.61	301.93
540.78	262.14
540.95	276.18
541.12	358.10
541.29	339.38
541.46	407.25
541.62	322.99
541.79	264.48
541.96	231.71
542.13	315.97
542.30	222.35
542.47	297.25
542.63	156.82
542.80	322.99
542.97	292.57
543.14	325.33
543.31	344.06
543.48	365.12
543.64	311.29
543.81	393.21
543.98	280.86
544.15	287.89
544.32	252.78
544.48	297.25
544.65	308.95
544.82	339.38
544.99	318.31
545.16	322.99
545.32	318.31
545.49	301.93
545.66	339.38
545.83	325.33
546.00	255.12
546.16	313.63
546.33	353.42
546.50	376.83
546.67	379.17
546.83	404.91
547.00	362.78
547.17	306.61
547.34	287.89
547.50	290.23
547.67	299.59
547.84	365.12
548.00	294.91
548.17	318.31
548.34	334.70
548.51	369.80
548.67	351.08
548.84	376.83
549.01	292.57
549.18	355.76
549.34	297.25
549.51	334.70
549.68	372.15
549.84	320.65
550.01	358.10
550.18	479.81
550.34	330.02
550.51	287.89
550.68	449.38
550.84	395.55
551.01	348.74
551.18	353.42
551.34	372.15
551.51	360.44
551.68	348.74
551.84	337.04
552.01	301.93
552.18	278.52
552.34	376.83
552.51	313.63
552.68	264.48
552.84	308.95
553.01	379.17
553.18	330.02
553.34	259.80
553.51	318.31
553.67	393.21
553.84	383.85
554.01	421.30
554.17	355.76
554.34	339.38
554.51	381.51
554.67	425.98
554.84	322.99
555.00	325.33
555.17	339.38
555.33	376.83
555.50	322.99
555.67	313.63
555.83	346.40
556.00	299.59
556.16	540.66
556.33	297.25
556.50	308.95
556.66	290.23
556.83	294.91
556.99	313.63
557.16	351.08
557.32	283.20
557.49	297.25
557.65	369.80
557.82	311.29
557.98	297.25
558.15	278.52
558.32	287.89
558.48	334.70
558.65	283.20
558.81	208.31
558.98	271.50
559.14	283.20
559.31	278.52
559.47	367.46
559.64	315.97
559.80	236.39
559.97	285.55
560.13	285.55
560.30	285.55
560.46	355.76
560.63	299.59
560.79	276.18
560.96	294.91
561.12	322.99
561.29	271.50
561.45	294.91
561.61	339.38
561.78	463.43
561.94	292.57
562.11	283.20
562.27	297.25
562.44	278.52
562.60	400.23
562.77	355.76
562.93	454.06
563.10	397.89
563.26	257.46
563.42	294.91
563.59	290.23
563.75	374.49
563.92	355.76
564.08	287.89
564.24	313.63
564.41	355.76
564.57	301.93
564.74	390.87
564.90	397.89
565.07	337.04
565.23	379.17
565.39	297.25
565.56	372.15
565.72	259.80
565.88	276.18
566.05	290.23
566.21	241.08
566.38	325.33
566.54	390.87
566.70	313.63
566.87	283.20
567.03	177.88
567.19	334.70
567.36	341.72
567.52	283.20
567.68	234.05
567.85	341.72
568.01	322.99
568.17	308.95
568.34	278.52
568.50	297.25
568.66	330.02
568.83	390.87
568.99	290.23
569.15	327.68
569.32	241.08
569.48	299.59
569.64	271.50
569.81	334.70
569.97	259.80
570.13	248.10
570.30	224.69
570.46	273.84
570.62	241.08
570.78	308.95
570.95	252.78
571.11	344.06
571.27	353.42
571.43	337.04
571.60	311.29
571.76	294.91
571.92	248.10
572.09	259.80
572.25	358.10
572.41	374.49
572.57	208.31
572.74	315.97
572.90	344.06
573.06	358.10
573.22	306.61
573.38	353.42
573.55	372.15
573.71	341.72
573.87	304.27
574.03	266.82
574.20	315.97
574.36	285.55
574.52	273.84
574.68	224.69
574.84	290.23
575.01	341.72
575.17	358.10
575.33	217.67
575.49	252.78
575.65	301.93
575.82	294.91
575.98	358.10
576.14	344.06
576.30	313.63
576.46	353.42
576.62	381.51
576.79	339.38
576.95	379.17
577.11	346.40
577.27	273.84
577.43	341.72
577.59	346.40
577.75	325.33
577.92	290.23
578.08	344.06
578.24	311.29
578.40	311.29
578.56	337.04
578.72	379.17
578.88	330.02
579.04	271.50
579.21	320.65
579.37	215.33
579.53	238.73
579.69	325.33
579.85	276.18
580.01	297.25
580.17	299.59
580.33	285.55
580.49	297.25
580.65	278.52
580.82	308.95
580.98	264.48
581.14	304.27
581.30	351.08
581.46	278.52
581.62	425.98
581.78	334.70
581.94	379.17
582.10	334.70
582.26	435.34
582.42	327.68
582.58	287.89
582.74	325.33
582.90	388.53
583.06	353.42
583.22	299.59
583.38	266.82
583.54	271.50
583.70	369.80
583.86	369.80
584.02	287.89
584.18	367.46
584.34	306.61
584.50	351.08
584.66	351.08
584.82	313.63
584.98	308.95
585.14	320.65
585.30	241.08
585.46	191.92
585.62	212.99
585.78	205.97
585.94	273.84
586.10	280.86
586.26	283.20
586.42	407.25
586.58	390.87
586.74	320.65
586.90	409.59
587.06	245.76
587.22	379.17
587.38	304.27
587.54	252.78
587.70	311.29
587.86	322.99
588.02	203.63
588.18	259.80
588.34	280.86
588.49	210.65
588.65	175.54
588.81	252.78
588.97	205.97
589.13	215.33
589.29	217.67
589.45	285.55
589.61	290.23
589.77	266.82
589.93	229.37
590.08	369.80
590.24	322.99
590.40	308.95
590.56	285.55
590.72	220.01
590.88	224.69
591.04	344.06
591.20	238.73
591.35	280.86
591.51	320.65
591.67	280.86
591.83	215.33
591.99	241.08
592.15	294.91
592.31	339.38
592.46	208.31
592.62	266.82
592.78	306.61
592.94	248.10
593.10	224.69
593.26	276.18
593.41	273.84
593.57	236.39
593.73	262.14
593.89	264.48
594.05	264.48
594.20	278.52
594.36	301.93
594.52	224.69
594.68	262.14
594.84	318.31
594.99	341.72
595.15	322.99
595.31	313.63
595.47	339.38
595.62	287.89
595.78	311.29
595.94	248.10
596.10	311.29
596.25	252.78
596.41	301.93
596.57	252.78
596.73	196.60
596.88	243.42
597.04	252.78
597.20	227.03
597.36	278.52
597.51	299.59
597.67	234.05
597.83	257.46
597.99	266.82
598.14	241.08
598.30	257.46
598.46	259.80
598.61	294.91
598.77	236.39
598.93	198.95
599.09	301.93
599.24	255.12
599.40	290.23
599.56	187.24
599.71	191.92
599.87	252.78
600.03	285.55
600.18	330.02
600.34	297.25
600.50	236.39
600.65	194.26
600.81	297.25
600.97	189.58
601.12	191.92
601.28	383.85
601.44	250.44
601.59	147.45
601.75	238.73
601.91	243.42
602.06	243.42
602.22	379.17
602.37	334.70
602.53	252.78
602.69	285.55
602.84	266.82
603.00	245.76
603.16	306.61
603.31	304.27
603.47	374.49
603.62	222.35
603.78	210.65
603.94	362.78
604.09	203.63
604.25	217.67
604.40	301.93
604.56	313.63
604.71	257.46
604.87	245.76
605.03	290.23
605.18	234.05
605.34	304.27
605.49	280.86
605.65	276.18
605.80	287.89
605.96	248.10
606.12	224.69
606.27	231.71
606.43	201.29
606.58	243.42
606.74	315.97
606.89	196.60
607.05	280.86
607.20	217.67
607.36	243.42
607.51	227.03
607.67	217.67
607.82	224.69
607.98	264.48
608.13	189.58
608.29	231.71
608.44	264.48
608.60	334.70
608.75	304.27
608.91	308.95
609.06	337.04
609.22	234.05
609.37	173.20
609.53	290.23
609.68	126.39
609.84	250.44
609.99	294.91
610.15	154.48
610.30	276.18
610.46	318.31
610.61	238.73
610.76	243.42
610.92	212.99
611.07	180.22
611.23	346.40
611.38	320.65
611.54	210.65
611.69	182.56
611.84	105.32
612.00	189.58
612.15	170.86
612.31	180.22
612.46	236.39
612.62	49.15
612.77	278.52
612.92	222.35
613.08	283.20
613.23	250.44
613.39	224.69
613.54	149.79
613.69	145.11
613.85	205.97
614.00	175.54
614.15	152.13
614.31	163.84
614.46	215.33
614.62	278.52
614.77	255.12
614.92	161.50
615.08	224.69
615.23	266.82
615.38	271.50
615.54	196.60
615.69	126.39
615.84	170.86
616.00	187.24
616.15	248.10
616.30	189.58
616.46	189.58
616.61	182.56
616.76	168.52
616.92	194.26
617.07	194.26
617.22	212.99
617.37	299.59
617.53	229.37
617.68	241.08
617.83	189.58
617.99	315.97
618.14	318.31
618.29	273.84
618.45	276.18
618.60	159.16
618.75	203.63
618.90	93.62
619.06	112.35
619.21	271.50
619.36	262.14
619.51	255.12
619.67	234.05
619.82	212.99
619.97	243.42
620.12	203.63
620.28	187.24
620.43	205.97
620.58	241.08
620.73	266.82
620.89	236.39
621.04	236.39
621.19	388.53
621.34	217.67
621.49	191.92
621.65	201.29
621.80	156.82
621.95	145.11
622.10	250.44
622.25	168.52
622.41	252.78
622.56	245.76
622.71	194.26
622.86	147.45
623.01	201.29
623.16	231.71
623.32	142.77
623.47	241.08
623.62	196.60
