SpectraSuite Data File
++++++++++++++++++++++++++++++++++++
Date: Mon Oct 07 15:00:04 GMT-05:00 2013
User: price-jones
Dark Spectrum Present: No
Reference Spectrum Present: No
Number of Sampled Component Spectra: 1
Spectrometers: USB2+H05261
Integration Time (usec): 1000000 (USB2+H05261)
Spectra Averaged: 1 (USB2+H05261)
Boxcar Smoothing: 0 (USB2+H05261)
Correct for Electrical Dark: No (USB2+H05261)
Strobe/Lamp Enabled: No (USB2+H05261)
Correct for Detector Non-linearity: No (USB2+H05261)
Correct for Stray Light: No (USB2+H05261)
Number of Pixels in Processed Spectrum: 2048
>>>>>Begin Processed Spectral Data<<<<<
365.73	0.00
365.92	0.00
366.12	0.00
366.32	0.00
366.52	0.00
366.72	184.90
366.91	0.00
367.11	156.82
367.31	72.56
367.51	84.26
367.70	255.12
367.90	351.08
368.10	205.97
368.30	110.01
368.49	16.38
368.69	365.12
368.89	133.41
369.09	0.00
369.28	154.48
369.48	0.00
369.68	0.00
369.87	187.24
370.07	18.72
370.27	500.87
370.47	271.50
370.66	266.82
370.86	468.11
371.06	856.64
371.25	1022.81
371.45	365.12
371.65	812.17
371.84	250.44
372.04	189.58
372.24	545.34
372.44	447.04
372.63	512.58
372.83	894.08
373.03	507.90
373.22	386.19
373.42	418.96
373.62	447.04
373.81	627.26
374.01	856.64
374.21	709.18
374.40	379.17
374.60	784.08
374.79	500.87
374.99	430.66
375.19	650.67
375.38	608.54
375.58	552.37
375.78	739.61
375.97	744.29
376.17	1214.74
376.37	627.26
376.56	709.18
376.76	409.59
376.95	313.63
377.15	746.63
377.35	648.33
377.54	692.80
377.74	433.00
377.93	393.21
378.13	631.94
378.33	809.83
378.52	482.15
378.72	821.53
378.91	725.57
379.11	440.02
379.31	393.21
379.50	299.59
379.70	737.27
379.89	837.91
380.09	477.47
380.28	327.68
380.48	627.26
380.68	358.10
380.87	294.91
381.07	730.25
381.26	788.76
381.46	390.87
381.65	669.39
381.85	477.47
382.04	730.25
382.24	753.65
382.43	543.00
382.63	418.96
382.83	582.79
383.02	781.74
383.22	950.26
383.41	411.93
383.61	564.07
383.80	919.83
384.00	582.79
384.19	444.70
384.39	620.24
384.58	528.96
384.78	667.05
384.97	622.58
385.17	533.64
385.36	519.60
385.56	791.10
385.75	346.40
385.95	552.37
386.14	723.23
386.34	463.43
386.53	692.80
386.72	451.72
386.92	943.24
387.11	744.29
387.31	697.48
387.50	395.55
387.70	379.17
387.89	615.56
388.09	451.72
388.28	383.85
388.48	315.97
388.67	833.23
388.86	603.86
389.06	585.13
389.25	770.04
389.45	645.99
389.64	643.65
389.84	891.74
390.03	709.18
390.22	697.48
390.42	482.15
390.61	456.40
390.81	341.72
391.00	582.79
391.19	940.90
391.39	582.79
391.58	746.63
391.78	585.13
391.97	608.54
392.16	470.45
392.36	917.49
392.55	947.92
392.75	557.05
392.94	472.79
393.13	706.84
393.33	311.29
393.52	461.09
393.71	968.98
393.91	730.25
394.10	468.11
394.29	482.15
394.49	472.79
394.68	681.10
394.88	961.96
395.07	959.62
395.26	711.52
395.46	681.10
395.65	889.40
395.84	819.19
396.04	1439.43
396.23	643.65
396.42	519.60
396.62	760.67
396.81	767.70
397.00	524.28
397.19	741.95
397.39	571.09
397.58	1100.05
397.77	561.73
397.97	774.72
398.16	727.91
398.35	847.27
398.55	585.13
398.74	725.57
398.93	1078.99
399.12	645.99
399.32	858.98
399.51	805.14
399.70	1053.24
399.90	943.24
400.09	926.85
400.28	976.00
400.47	636.63
400.67	987.71
400.86	807.48
401.05	992.39
401.24	990.05
401.44	1074.31
401.63	1095.37
401.82	1132.82
402.01	660.03
402.21	1032.18
402.40	863.66
402.59	770.04
402.78	772.38
402.97	840.25
403.17	882.38
403.36	1022.81
403.55	835.57
403.74	823.87
403.93	854.30
404.13	1170.27
404.32	734.93
404.51	767.70
404.70	1139.84
404.89	835.57
405.09	1303.68
405.28	938.55
405.47	805.14
405.66	1057.92
405.85	1135.16
406.05	821.53
406.24	835.57
406.43	959.62
406.62	1036.86
406.81	1544.75
407.00	1165.59
407.20	947.92
407.39	952.60
407.58	884.72
407.77	1027.50
407.96	1303.68
408.15	1235.80
408.34	1135.16
408.54	1013.45
408.73	1067.28
408.92	950.26
409.11	1210.06
409.30	1282.61
409.49	814.51
409.68	894.08
409.87	978.34
410.07	765.36
410.26	943.24
410.45	849.61
410.64	858.98
410.83	1069.62
411.02	945.58
411.21	1231.12
411.40	1313.04
411.59	990.05
411.78	896.43
411.98	1006.43
412.17	877.70
412.36	976.00
412.55	1022.81
412.74	1160.91
412.93	1523.69
413.12	999.41
413.31	1266.23
413.50	1270.91
413.69	1036.86
413.88	1514.33
414.07	1090.69
414.26	1196.01
414.45	924.51
414.64	1163.25
414.83	1226.44
415.02	1245.16
415.22	1259.21
415.41	1458.15
415.60	1088.35
415.79	1153.88
415.98	1666.46
416.17	1188.99
416.36	1203.04
416.55	1029.84
416.74	1270.91
416.93	1437.09
417.12	1048.56
417.31	1137.50
417.50	1107.07
417.69	1748.38
417.88	1160.91
418.07	1006.43
418.26	1093.03
418.45	1156.22
418.64	1575.18
418.83	1345.81
419.02	1315.38
419.21	1235.80
419.39	1301.34
419.58	1064.94
419.77	1071.97
419.96	1420.71
420.15	1596.25
420.34	1252.19
420.53	1472.20
420.72	1617.31
420.91	1355.17
421.10	1226.44
421.29	1343.47
421.48	1434.75
421.67	1516.67
421.86	1181.97
422.05	1139.84
422.24	1083.67
422.43	1291.98
422.61	1071.97
422.80	1238.14
422.99	1289.64
423.18	1188.99
423.37	1593.90
423.56	1404.32
423.75	1383.26
423.94	1118.78
424.13	1266.23
424.32	1086.01
424.50	1160.91
424.69	1249.85
424.88	1586.88
425.07	1097.71
425.26	1427.73
425.45	1549.43
425.64	1039.20
425.83	1186.65
426.01	1610.29
426.20	1427.73
426.39	1165.59
426.58	1221.76
426.77	1364.53
426.96	1399.64
427.15	1301.34
427.33	1132.82
427.52	1296.66
427.71	1364.53
427.90	1427.73
428.09	1219.42
428.28	1083.67
428.46	1245.16
428.65	1369.21
428.84	1203.04
429.03	1610.29
429.22	1116.44
429.40	1036.86
429.59	903.45
429.78	1418.36
429.97	1008.77
430.16	1039.20
430.34	1036.86
430.53	976.00
430.72	1086.01
430.91	1404.32
431.10	1060.26
431.28	1301.34
431.47	1696.89
431.66	1603.27
431.85	1259.21
432.03	1306.02
432.22	2064.35
432.41	1256.87
432.60	1675.82
432.79	1310.70
432.97	1434.75
433.16	1289.64
433.35	1184.31
433.54	1170.27
433.72	1493.26
433.91	1528.37
434.10	1268.57
434.28	1399.64
434.47	1291.98
434.66	1568.16
434.85	1301.34
435.03	1425.39
435.22	1865.41
435.41	1923.92
435.59	1809.23
435.78	1526.03
435.97	1476.88
436.16	1797.53
436.34	1490.92
436.53	1612.63
436.72	1776.47
436.90	1701.57
437.09	1579.86
437.28	1416.02
437.46	1401.98
437.65	1612.63
437.84	1607.95
438.02	1418.36
438.21	1600.93
438.40	1366.87
438.58	1345.81
438.77	1563.48
438.96	1575.18
439.14	1390.28
439.33	1661.78
439.52	1572.84
439.70	1629.01
439.89	1727.32
440.08	1556.46
440.26	1502.62
440.45	2085.42
440.63	1832.64
440.82	1739.02
441.01	1764.76
441.19	1701.57
441.38	1619.65
441.57	1778.81
441.75	2010.52
441.94	2186.06
442.12	1809.23
442.31	1717.95
442.50	1675.82
442.68	1671.14
442.87	1708.59
443.05	1652.42
443.24	1741.36
443.43	1933.28
443.61	2235.21
443.80	1788.17
443.98	1748.38
444.17	1603.27
444.35	1968.39
444.54	1823.28
444.73	1734.34
444.91	2099.46
445.10	1460.49
445.28	1582.20
445.47	1694.55
445.65	1732.00
445.84	1643.06
446.02	1755.40
446.21	1621.99
446.39	1699.23
446.58	1818.60
446.77	1743.70
446.95	1760.08
447.14	2012.86
447.32	2263.30
447.51	1839.66
447.69	1966.05
447.88	1858.39
448.06	2300.75
448.25	1888.81
448.43	1708.59
448.62	1636.03
448.80	1921.58
448.99	1973.07
449.17	1799.87
449.36	1720.29
449.54	2092.44
449.73	1713.27
449.91	2113.50
450.10	1970.73
450.28	2703.32
450.46	2579.27
450.65	2181.38
450.83	2043.29
451.02	1973.07
451.20	1923.92
451.39	1923.92
451.57	1933.28
451.76	1804.55
451.94	1923.92
452.13	2054.99
452.31	2179.04
452.49	2026.90
452.68	1680.50
452.86	1937.96
453.05	2392.03
453.23	1963.71
453.42	1739.02
453.60	1877.11
453.78	2026.90
453.97	1701.57
454.15	1795.19
454.34	1776.47
454.52	1799.87
454.70	2429.48
454.89	2125.21
455.07	1732.00
455.26	2239.89
455.44	2064.35
455.62	2045.63
455.81	2108.82
455.99	2122.87
456.17	2162.66
456.36	1959.03
456.54	2071.37
456.73	1975.41
456.91	1959.03
457.09	2085.42
457.28	2452.88
457.46	2146.27
457.64	2188.40
457.83	2040.95
458.01	1874.77
458.19	2062.01
458.38	2108.82
458.56	2167.34
458.74	1907.54
458.93	2174.36
459.11	2263.30
459.29	1842.00
459.48	2296.07
459.66	2548.84
459.84	2267.98
460.03	3190.15
460.21	2450.54
460.39	2176.70
460.57	2476.29
460.76	2286.70
460.94	2148.61
461.12	2562.89
461.31	2593.31
461.49	2169.68
461.67	2183.72
461.85	2310.11
462.04	2127.55
462.22	8720.84
462.40	2518.42
462.59	2502.03
462.77	2143.93
462.95	2321.81
463.13	1956.69
463.32	2396.71
463.50	2223.51
463.68	2317.13
463.86	2284.36
464.05	2059.67
464.23	2480.97
464.41	2223.51
464.59	2026.90
464.78	2165.00
464.96	1952.01
465.14	2143.93
465.32	1954.35
465.50	2382.67
465.69	2452.88
465.87	1966.05
466.05	2221.17
466.23	1898.17
466.41	2052.65
466.60	2062.01
466.78	2155.63
466.96	2443.52
467.14	2256.28
467.32	2469.27
467.51	2286.70
467.69	2326.49
467.87	2696.30
468.05	2204.78
468.23	2850.77
468.41	2382.67
468.60	2197.76
468.78	2179.04
468.96	2597.99
469.14	2389.69
469.32	1921.58
469.50	2047.97
469.69	2293.72
469.87	2242.23
470.05	2193.08
470.23	2270.32
470.41	2104.14
470.59	2237.55
470.77	2298.41
470.95	2396.71
471.14	2487.99
471.32	2253.94
471.50	2869.50
471.68	2389.69
471.86	2548.84
472.04	2359.26
472.22	2558.21
472.40	2106.48
472.58	2108.82
472.77	2242.23
472.95	2251.60
473.13	3021.63
473.31	2719.70
473.49	2111.16
473.67	2239.89
473.85	2537.14
474.03	2668.21
474.21	2544.16
474.39	2860.13
474.57	3052.06
474.75	2588.63
474.93	2277.34
475.12	2303.09
475.30	2356.92
475.48	2530.12
475.66	2567.57
475.84	2455.22
476.02	2375.64
476.20	2595.65
476.38	2532.46
476.56	3272.07
476.74	2504.37
476.92	2342.88
477.10	2544.16
477.28	2806.30
477.46	2576.93
477.64	2871.84
477.82	2722.04
478.00	2628.42
478.18	2693.96
478.36	2633.10
478.54	2483.31
478.72	2633.10
478.90	2764.17
479.08	2843.75
479.26	2850.77
479.44	2635.44
479.62	2656.51
479.80	2754.81
479.98	2644.81
480.16	2637.78
480.34	3014.61
480.52	2633.10
480.70	2918.65
480.88	2656.51
481.06	2733.75
481.24	2715.02
481.41	2848.43
481.59	3056.74
481.77	2991.20
481.95	2796.94
482.13	3393.78
482.31	3049.72
482.49	2827.37
482.67	3152.70
482.85	3101.21
483.03	3162.06
483.21	3000.57
483.39	2904.60
483.57	2991.20
483.74	3513.14
483.92	3070.78
484.10	2904.60
484.28	3499.10
484.46	3695.71
484.64	3021.63
484.82	3129.30
485.00	3112.91
485.18	2981.84
485.35	2932.69
485.53	2492.67
485.71	2967.80
485.89	2321.81
486.07	2738.43
486.25	3735.50
486.43	3201.85
486.61	3190.15
486.78	3274.41
486.96	2785.24
487.14	3061.42
487.32	3152.70
487.50	3293.13
487.68	3499.10
487.85	3173.77
488.03	3431.23
488.21	3686.34
488.39	3253.34
488.57	3463.99
488.75	3243.98
488.92	7030.97
489.10	3833.80
489.28	4079.55
489.46	3569.32
489.64	3758.90
489.81	3669.96
489.99	3686.34
490.17	3639.53
490.35	4559.36
490.53	3616.13
490.70	3478.04
490.88	3875.93
491.06	3735.50
491.24	3908.69
491.41	4163.81
491.59	3599.74
491.77	3375.05
491.95	3503.78
492.13	3536.55
492.30	3779.97
492.48	3915.72
492.66	4077.21
492.84	3763.58
493.01	3878.27
493.19	3714.43
493.37	4320.63
493.54	4091.26
493.72	4072.53
493.90	4030.40
494.08	3999.98
494.25	4245.73
494.43	4205.94
494.61	4058.49
494.79	4002.32
494.96	3925.08
495.14	4271.48
495.32	3955.51
495.49	3925.08
495.67	4198.92
495.85	4168.49
496.02	4060.83
496.20	4388.50
496.38	4386.16
496.55	4236.37
496.73	4262.12
496.91	4201.26
497.09	4472.76
497.26	4308.93
497.44	4145.09
497.62	4250.41
497.79	4070.19
497.97	4198.92
498.14	4388.50
498.32	4285.52
498.50	4315.95
498.67	4332.33
498.85	4571.07
499.03	4315.95
499.20	4524.26
499.38	4437.66
499.56	4395.53
499.73	4741.93
499.91	4634.26
500.08	4524.26
500.26	4126.36
500.44	4131.05
500.61	4404.89
500.79	4030.40
500.97	4358.08
501.14	4660.01
501.32	4339.35
501.49	4470.42
501.67	4367.44
501.84	4498.51
502.02	4283.18
502.20	4966.62
502.37	4559.36
502.55	4465.74
502.72	4514.89
502.90	4795.76
503.07	4667.03
503.25	4725.54
503.43	4269.14
503.60	4210.62
503.78	4381.48
503.95	4454.04
504.13	4404.89
504.30	4718.52
504.48	4755.97
504.65	5142.16
504.83	4730.22
505.01	4650.64
505.18	4774.69
505.36	4723.20
505.53	4730.22
505.71	4634.26
505.88	5125.77
506.06	4898.74
506.23	4667.03
506.41	4540.64
506.58	4833.21
506.76	4875.34
506.93	4636.60
507.11	4711.50
507.28	4557.02
507.46	4400.21
507.63	4645.96
507.81	4365.10
507.98	4561.70
508.16	4730.22
508.33	4814.48
508.50	4966.62
508.68	5015.77
508.85	4915.12
509.03	4725.54
509.20	4748.95
509.38	4901.08
509.55	5004.07
509.73	5102.37
509.90	5130.45
510.08	4683.41
510.25	4997.04
510.42	4610.86
510.60	4842.57
510.77	5170.24
510.95	5355.15
511.12	4919.81
511.30	5179.61
511.47	5235.78
511.64	5633.67
511.82	4959.60
511.99	4938.53
512.17	4844.91
512.34	4601.49
512.51	4767.67
512.69	4699.80
512.86	5341.10
513.04	4786.40
513.21	5116.41
513.38	4870.65
513.56	4737.24
513.73	4753.63
513.90	4596.81
514.08	4606.17
514.25	4987.68
514.43	5146.84
514.60	4741.93
514.77	4835.55
514.95	5064.92
515.12	4975.98
515.29	4987.68
515.47	5179.61
515.64	5064.92
515.81	5163.22
515.99	5357.49
516.16	4779.37
516.33	4737.24
516.51	4060.83
516.68	3974.23
516.85	4266.80
517.03	4325.31
517.20	4627.24
517.37	4997.04
517.54	5043.85
517.72	4734.90
517.89	4285.52
518.06	4140.41
518.24	4910.44
518.41	5233.44
518.58	5039.17
518.75	4760.65
518.93	5004.07
519.10	4943.21
519.27	4898.74
519.45	5179.61
519.62	5231.10
519.79	5327.06
519.96	4770.01
520.14	5020.45
520.31	5366.85
520.48	5135.14
520.65	5165.56
520.83	5350.46
521.00	5383.23
521.17	5612.60
521.34	5135.14
521.52	5284.93
521.69	5350.46
521.86	5378.55
522.03	5451.11
522.20	5542.39
522.38	4898.74
522.55	5109.39
522.72	4926.83
522.89	5350.46
523.07	5839.64
523.24	5320.04
523.41	5315.36
523.58	5376.21
523.75	5385.57
523.92	5373.87
524.10	5523.66
524.27	5420.68
524.44	5437.06
524.61	5575.16
524.78	5298.97
524.96	5504.94
525.13	5352.81
525.30	5671.12
525.47	5647.71
525.64	5497.92
525.81	5329.40
525.98	5114.07
526.16	4915.12
526.33	4578.09
526.50	4770.01
526.67	4617.88
526.84	4678.73
527.01	4844.91
527.18	5458.13
527.36	5416.00
527.53	5313.02
527.70	5668.78
527.87	5282.59
528.04	5839.64
528.21	5313.02
528.38	5792.83
528.55	6083.05
528.72	6003.47
528.89	6118.16
529.07	5720.27
529.24	5710.91
529.41	5912.19
529.58	5401.96
529.75	5387.91
529.92	5816.23
530.09	5575.16
530.26	5774.10
530.43	5816.23
530.60	5785.80
530.77	5778.78
530.94	5926.24
531.11	5607.92
531.28	5558.77
531.46	5486.22
531.63	5764.74
531.80	5755.38
531.97	5628.99
532.14	5413.66
532.31	5238.12
532.48	5432.38
532.65	5357.49
532.82	5167.90
532.99	5472.17
533.16	5614.95
533.33	5497.92
533.50	5439.40
533.67	5399.62
533.84	5593.88
534.01	5717.93
534.18	5418.34
534.35	5631.33
534.52	5750.70
534.69	6263.27
534.86	5816.23
535.03	5720.27
535.20	5750.70
535.37	6221.14
535.54	5977.73
535.71	5687.50
535.88	6204.76
536.05	5666.44
536.22	5774.10
536.38	5643.03
536.55	5502.60
536.72	5902.83
536.89	5270.89
537.06	5661.76
537.23	5657.07
537.40	5888.79
537.57	5860.70
537.74	5874.74
537.91	6010.50
538.08	5858.36
538.25	5879.43
538.42	5664.10
538.59	5912.19
538.75	5533.03
538.92	5724.95
539.09	6043.26
539.26	5551.75
539.43	5841.98
539.60	5577.50
539.77	5755.38
539.94	5689.84
540.11	5631.33
540.28	5954.32
540.44	5717.93
540.61	5458.13
540.78	5500.26
540.95	5338.76
541.12	6120.50
541.29	5647.71
541.46	6141.57
541.62	5844.32
541.79	5703.89
541.96	5406.64
542.13	5621.97
542.30	5364.51
542.47	6029.22
542.63	5533.03
542.80	5624.31
542.97	5991.77
543.14	5612.60
543.31	5863.04
543.48	5804.53
543.64	6132.20
543.81	6019.86
543.98	5781.12
544.15	5568.13
544.32	5755.38
544.48	5451.11
544.65	5769.42
544.82	5720.27
544.99	5624.31
545.16	6136.88
545.32	5689.84
545.49	6054.97
545.66	5790.49
545.83	5666.44
546.00	5554.09
546.16	5713.25
546.33	5727.29
546.50	5755.38
546.67	6106.46
546.83	5947.30
547.00	5767.08
547.17	5380.89
547.34	5383.23
547.50	5540.05
547.67	5720.27
547.84	5586.86
548.00	5973.05
548.17	5612.60
548.34	5795.17
548.51	6181.35
548.67	6263.27
548.84	5708.57
549.01	5795.17
549.18	5839.64
549.34	5837.30
549.51	5975.39
549.68	5916.87
549.84	5825.59
550.01	5598.56
550.18	7311.83
550.34	6715.00
550.51	5757.72
550.68	6307.74
550.84	5589.20
551.01	5907.51
551.18	6012.84
551.34	5853.68
551.51	5919.21
551.68	5767.08
551.84	5994.11
552.01	5703.89
552.18	5614.95
552.34	5722.61
552.51	5788.14
552.68	5846.66
552.84	5659.42
553.01	5832.62
553.18	6090.07
553.34	5699.20
553.51	5537.71
553.67	5996.45
553.84	6478.60
554.01	6078.37
554.17	5830.27
554.34	5914.53
554.51	6090.07
554.67	6249.23
554.84	6026.88
555.00	5975.39
555.17	6064.33
555.33	6059.65
555.50	6054.97
555.67	5886.45
555.83	5715.59
556.00	5799.85
556.16	7960.16
556.33	5858.36
556.50	5628.99
556.66	5795.17
556.83	5343.44
556.99	5570.48
557.16	5764.74
557.32	5738.99
557.49	5575.16
557.65	5713.25
557.82	5605.58
557.98	5734.31
558.15	5467.49
558.32	5338.76
558.48	5472.17
558.65	5589.20
558.81	5888.79
558.98	5437.06
559.14	5816.23
559.31	5605.58
559.47	5727.29
559.64	5296.63
559.80	5799.85
559.97	5453.45
560.13	5757.72
560.30	5511.96
560.46	5874.74
560.63	5841.98
560.79	5851.34
560.96	5682.82
561.12	5500.26
561.29	5657.07
561.45	5317.70
561.61	5746.02
561.78	6712.66
561.94	5680.48
562.11	5596.22
562.27	5783.46
562.44	5556.43
562.60	5713.25
562.77	5781.12
562.93	6523.07
563.10	5881.77
563.26	5727.29
563.42	5853.68
563.59	5837.30
563.75	5619.63
563.92	5907.51
564.08	5909.85
564.24	6195.40
564.41	6298.38
564.57	5685.16
564.74	5753.04
564.90	5771.76
565.07	5687.50
565.23	5914.53
565.39	5556.43
565.56	5750.70
565.72	5320.04
565.88	5687.50
566.05	5521.32
566.21	5661.76
566.38	5832.62
566.54	5668.78
566.70	5633.67
566.87	5617.29
567.03	5390.25
567.19	5750.70
567.36	6076.03
567.52	5699.20
567.68	5664.10
567.85	5668.78
568.01	5453.45
568.17	5320.04
568.34	5408.98
568.50	5809.21
568.66	5390.25
568.83	6436.47
568.99	5411.32
569.15	5652.39
569.32	5776.44
569.48	5561.11
569.64	5521.32
569.81	5453.45
569.97	5397.28
570.13	5636.01
570.30	5404.30
570.46	5275.57
570.62	5233.44
570.78	5137.48
570.95	5144.50
571.11	6010.50
571.27	6066.67
571.43	5338.76
571.60	5706.23
571.76	5341.10
571.92	5598.56
572.09	5619.63
572.25	5612.60
572.41	5647.71
572.57	5537.71
572.74	6195.40
572.90	5839.64
573.06	5617.29
573.22	5905.17
573.38	5989.43
573.55	5921.56
573.71	5865.38
573.87	5912.19
574.03	5547.07
574.20	5378.55
574.36	5928.58
574.52	5397.28
574.68	5397.28
574.84	5678.14
575.01	5441.75
575.17	5696.86
575.33	5469.83
575.49	5753.04
575.65	5874.74
575.82	5671.12
575.98	6228.17
576.14	5626.65
576.30	5558.77
576.46	5537.71
576.62	5619.63
576.79	5636.01
576.95	5940.28
577.11	5401.96
577.27	5273.23
577.43	5895.81
577.59	5921.56
577.75	5703.89
577.92	5401.96
578.08	5268.55
578.24	5235.78
578.40	5706.23
578.56	5928.58
578.72	5884.11
578.88	5596.22
579.04	5472.17
579.21	5654.73
579.37	5500.26
579.53	5540.05
579.69	6099.44
579.85	5373.87
580.01	5858.36
580.17	5401.96
580.33	5486.22
580.49	5603.24
580.65	5724.95
580.82	5631.33
580.98	5617.29
581.14	5493.24
581.30	5970.71
581.46	5469.83
581.62	5891.13
581.78	5458.13
581.94	5797.51
582.10	5313.02
582.26	5673.46
582.42	5523.66
582.58	5837.30
582.74	5610.26
582.90	5891.13
583.06	5753.04
583.22	5591.54
583.38	5446.43
583.54	5619.63
583.70	6064.33
583.86	5781.12
584.02	5589.20
584.18	6071.35
584.34	5689.84
584.50	5799.85
584.66	5572.82
584.82	5418.34
584.98	5729.63
585.14	5535.37
585.30	5708.57
585.46	5437.06
585.62	5156.20
585.78	5425.36
585.94	5657.07
586.10	5547.07
586.26	5600.90
586.42	6087.73
586.58	5834.96
586.74	5584.52
586.90	5495.58
587.06	5722.61
587.22	5706.23
587.38	5252.16
587.54	5502.60
587.70	5652.39
587.86	5755.38
588.02	5174.92
588.18	5329.40
588.34	5467.49
588.49	4491.49
588.65	4645.96
588.81	4755.97
588.97	4568.73
589.13	4683.41
589.29	4870.65
589.45	5217.05
589.61	5022.79
589.77	5577.50
589.93	5102.37
590.08	5158.54
590.24	5235.78
590.40	5380.89
590.56	5612.60
590.72	5249.82
590.88	5179.61
591.04	5364.51
591.20	5104.71
591.35	5565.79
591.51	5203.01
591.67	5125.77
591.83	5083.64
591.99	5392.59
592.15	5605.58
592.31	5371.53
592.46	5224.08
592.62	5563.45
592.78	5111.73
592.94	5224.08
593.10	5132.79
593.26	5235.78
593.41	5476.85
593.57	5261.52
593.73	5109.39
593.89	5437.06
594.05	5240.46
594.20	4887.04
594.36	5582.18
594.52	4945.55
594.68	5074.28
594.84	5453.45
594.99	5706.23
595.15	5488.56
595.31	5603.24
595.47	5956.66
595.62	5413.66
595.78	5324.72
595.94	5221.74
596.10	5549.41
596.25	5408.98
596.41	5614.95
596.57	5142.16
596.73	5198.33
596.88	5261.52
597.04	5385.57
597.20	5233.44
597.36	5247.48
597.51	5078.96
597.67	5121.09
597.83	5132.79
597.99	5481.53
598.14	5291.95
