SpectraSuite Data File
++++++++++++++++++++++++++++++++++++
Date: Mon Oct 07 15:00:01 GMT-05:00 2013
User: price-jones
Dark Spectrum Present: No
Reference Spectrum Present: No
Number of Sampled Component Spectra: 1
Spectrometers: USB2+H05261
Integration Time (usec): 100000 (USB2+H05261)
Spectra Averaged: 1 (USB2+H05261)
Boxcar Smoothing: 0 (USB2+H05261)
Correct for Electrical Dark: No (USB2+H05261)
Strobe/Lamp Enabled: No (USB2+H05261)
Correct for Detector Non-linearity: No (USB2+H05261)
Correct for Stray Light: No (USB2+H05261)
Number of Pixels in Processed Spectrum: 2048
>>>>>Begin Processed Spectral Data<<<<<
365.73	0.00
365.92	0.00
366.12	0.00
366.32	0.00
366.52	0.00
366.72	0.00
366.91	0.00
367.11	0.00
367.31	0.00
367.51	0.00
367.70	0.00
367.90	0.00
368.10	0.00
368.30	0.00
368.49	0.00
368.69	0.00
368.89	0.00
369.09	0.00
369.28	0.00
369.48	0.00
369.68	0.00
369.87	0.00
370.07	0.00
370.27	0.00
370.47	0.00
370.66	0.00
370.86	0.00
371.06	0.00
371.25	0.00
371.45	0.00
371.65	0.00
371.84	0.00
372.04	0.00
372.24	0.00
372.44	0.00
372.63	0.00
372.83	0.00
373.03	0.00
373.22	0.00
373.42	0.00
373.62	0.00
373.81	0.00
374.01	0.00
374.21	0.00
374.40	0.00
374.60	0.00
374.79	0.00
374.99	0.00
375.19	0.00
375.38	0.00
375.58	0.00
375.78	0.00
375.97	0.00
376.17	0.00
376.37	0.00
376.56	0.00
376.76	0.00
376.95	0.00
377.15	0.00
377.35	0.00
377.54	0.00
377.74	0.00
377.93	0.00
378.13	0.00
378.33	0.00
378.52	0.00
378.72	0.00
378.91	0.00
379.11	0.00
379.31	0.00
379.50	0.00
379.70	0.00
379.89	0.00
380.09	0.00
380.28	0.00
380.48	0.00
380.68	0.00
380.87	0.00
381.07	0.00
381.26	0.00
381.46	0.00
381.65	0.00
381.85	0.00
382.04	0.00
382.24	0.00
382.43	0.00
382.63	0.00
382.83	0.00
383.02	0.00
383.22	0.00
383.41	0.00
383.61	0.00
383.80	0.00
384.00	0.00
384.19	0.00
384.39	0.00
384.58	0.00
384.78	0.00
384.97	0.00
385.17	0.00
385.36	0.00
385.56	0.00
385.75	0.00
385.95	0.00
386.14	0.00
386.34	0.00
386.53	0.00
386.72	0.00
386.92	0.00
387.11	0.00
387.31	0.00
387.50	0.00
387.70	0.00
387.89	0.00
388.09	0.00
388.28	0.00
388.48	0.00
388.67	0.00
388.86	0.00
389.06	0.00
389.25	0.00
389.45	0.00
389.64	0.00
389.84	0.00
390.03	0.00
390.22	0.00
390.42	0.00
390.61	0.00
390.81	0.00
391.00	0.00
391.19	0.00
391.39	0.00
391.58	0.00
391.78	0.00
391.97	0.00
392.16	0.00
392.36	0.00
392.55	0.00
392.75	0.00
392.94	0.00
393.13	0.00
393.33	0.00
393.52	0.00
393.71	0.00
393.91	0.00
394.10	0.00
394.29	0.00
394.49	0.00
394.68	0.00
394.88	0.00
395.07	0.00
395.26	0.00
395.46	0.00
395.65	0.00
395.84	0.00
396.04	0.00
396.23	0.00
396.42	0.00
396.62	0.00
396.81	0.00
397.00	0.00
397.19	0.00
397.39	0.00
397.58	0.00
397.77	0.00
397.97	0.00
398.16	0.00
398.35	0.00
398.55	0.00
398.74	0.00
398.93	0.00
399.12	0.00
399.32	0.00
399.51	0.00
399.70	0.00
399.90	0.00
400.09	0.00
400.28	0.00
400.47	0.00
400.67	0.00
400.86	0.00
401.05	0.00
401.24	0.00
401.44	0.00
401.63	0.00
401.82	0.00
402.01	0.00
402.21	0.00
402.40	0.00
402.59	0.00
402.78	0.00
402.97	0.00
403.17	0.00
403.36	0.00
403.55	0.00
403.74	0.00
403.93	0.00
404.13	0.00
404.32	0.00
404.51	0.00
404.70	0.00
404.89	0.00
405.09	0.00
405.28	0.00
405.47	0.00
405.66	0.00
405.85	0.00
406.05	0.00
406.24	0.00
406.43	0.00
406.62	0.00
406.81	0.00
407.00	0.00
407.20	0.00
407.39	0.00
407.58	0.00
407.77	0.00
407.96	0.00
408.15	0.00
408.34	0.00
408.54	0.00
408.73	0.00
408.92	0.00
409.11	0.00
409.30	0.00
409.49	0.00
409.68	0.00
409.87	0.00
410.07	0.00
410.26	0.00
410.45	0.00
410.64	0.00
410.83	0.00
411.02	0.00
411.21	0.00
411.40	0.00
411.59	0.00
411.78	0.00
411.98	0.00
412.17	0.00
412.36	0.00
412.55	0.00
412.74	0.00
412.93	0.00
413.12	0.00
413.31	0.00
413.50	0.00
413.69	0.00
413.88	0.00
414.07	0.00
414.26	0.00
414.45	0.00
414.64	0.00
414.83	0.00
415.02	0.00
415.22	0.00
415.41	0.00
415.60	0.00
415.79	0.00
415.98	0.00
416.17	0.00
416.36	0.00
416.55	0.00
416.74	0.00
416.93	0.00
417.12	0.00
417.31	0.00
417.50	0.00
417.69	0.00
417.88	0.00
418.07	0.00
418.26	0.00
418.45	0.00
418.64	0.00
418.83	0.00
419.02	0.00
419.21	0.00
419.39	0.00
419.58	0.00
419.77	0.00
419.96	0.00
420.15	0.00
420.34	0.00
420.53	0.00
420.72	0.00
420.91	0.00
421.10	0.00
421.29	0.00
421.48	0.00
421.67	0.00
421.86	0.00
422.05	0.00
422.24	0.00
422.43	0.00
422.61	0.00
422.80	0.00
422.99	0.00
423.18	0.00
423.37	0.00
423.56	0.00
423.75	0.00
423.94	0.00
424.13	0.00
424.32	0.00
424.50	0.00
424.69	0.00
424.88	0.00
425.07	0.00
425.26	0.00
425.45	0.00
425.64	0.00
425.83	0.00
426.01	0.00
426.20	0.00
426.39	0.00
426.58	0.00
426.77	0.00
426.96	0.00
427.15	0.00
427.33	0.00
427.52	0.00
427.71	0.00
427.90	0.00
428.09	0.00
428.28	0.00
428.46	0.00
428.65	0.00
428.84	0.00
429.03	0.00
429.22	0.00
429.40	0.00
429.59	0.00
429.78	0.00
429.97	0.00
430.16	0.00
430.34	0.00
430.53	0.00
430.72	0.00
430.91	0.00
431.10	0.00
431.28	0.00
431.47	0.00
431.66	0.00
431.85	0.00
432.03	0.00
432.22	0.00
432.41	0.00
432.60	0.00
432.79	0.00
432.97	0.00
433.16	0.00
433.35	0.00
433.54	0.00
433.72	0.00
433.91	0.00
434.10	0.00
434.28	0.00
434.47	0.00
434.66	0.00
434.85	0.00
435.03	0.00
435.22	0.00
435.41	0.00
435.59	0.00
435.78	0.00
435.97	0.00
436.16	0.00
436.34	0.00
436.53	0.00
436.72	0.00
436.90	0.00
437.09	0.00
437.28	0.00
437.46	0.00
437.65	0.00
437.84	0.00
438.02	0.00
438.21	0.00
438.40	0.00
438.58	0.00
438.77	0.00
438.96	0.00
439.14	0.00
439.33	0.00
439.52	0.00
439.70	0.00
439.89	0.00
440.08	0.00
440.26	0.00
440.45	0.00
440.63	0.00
440.82	0.00
441.01	0.00
441.19	0.00
441.38	0.00
441.57	0.00
441.75	0.00
441.94	0.00
442.12	0.00
442.31	0.00
442.50	0.00
442.68	0.00
442.87	0.00
443.05	0.00
443.24	0.00
443.43	7.02
443.61	21.06
443.80	0.00
443.98	0.00
444.17	0.00
444.35	0.00
444.54	0.00
444.73	0.00
444.91	0.00
445.10	0.00
445.28	0.00
445.47	0.00
445.65	0.00
445.84	0.00
446.02	0.00
446.21	0.00
446.39	0.00
446.58	0.00
446.77	0.00
446.95	0.00
447.14	0.00
447.32	0.00
447.51	0.00
447.69	0.00
447.88	0.00
448.06	0.00
448.25	0.00
448.43	0.00
448.62	0.00
448.80	16.38
448.99	0.00
449.17	0.00
449.36	0.00
449.54	0.00
449.73	0.00
449.91	0.00
450.10	0.00
450.28	0.00
450.46	91.28
450.65	25.75
450.83	0.00
451.02	0.00
451.20	0.00
451.39	0.00
451.57	0.00
451.76	0.00
451.94	0.00
452.13	0.00
452.31	0.00
452.49	0.00
452.68	0.00
452.86	0.00
453.05	0.00
453.23	0.00
453.42	0.00
453.60	0.00
453.78	0.00
453.97	0.00
454.15	0.00
454.34	0.00
454.52	0.00
454.70	0.00
454.89	0.00
455.07	0.00
455.26	0.00
455.44	0.00
455.62	0.00
455.81	0.00
455.99	0.00
456.17	0.00
456.36	4.68
456.54	0.00
456.73	0.00
456.91	0.00
457.09	0.00
457.28	23.41
457.46	0.00
457.64	7.02
457.83	0.00
458.01	0.00
458.19	0.00
458.38	0.00
458.56	0.00
458.74	0.00
458.93	0.00
459.11	0.00
459.29	0.00
459.48	0.00
459.66	0.00
459.84	7.02
460.03	119.37
460.21	21.06
460.39	0.00
460.57	0.00
460.76	0.00
460.94	0.00
461.12	46.81
461.31	0.00
461.49	0.00
461.67	0.00
461.85	4.68
462.04	0.00
462.22	526.62
462.40	0.00
462.59	0.00
462.77	0.00
462.95	0.00
463.13	0.00
463.32	0.00
463.50	72.56
463.68	58.51
463.86	0.00
464.05	0.00
464.23	0.00
464.41	0.00
464.59	0.00
464.78	0.00
464.96	0.00
465.14	0.00
465.32	0.00
465.50	0.00
465.69	0.00
465.87	0.00
466.05	23.41
466.23	0.00
466.41	0.00
466.60	0.00
466.78	0.00
466.96	7.02
467.14	0.00
467.32	0.00
467.51	11.70
467.69	35.11
467.87	0.00
468.05	11.70
468.23	0.00
468.41	0.00
468.60	0.00
468.78	0.00
468.96	14.04
469.14	0.00
469.32	0.00
469.50	0.00
469.69	0.00
469.87	0.00
470.05	0.00
470.23	0.00
470.41	0.00
470.59	63.19
470.77	0.00
470.95	0.00
471.14	0.00
471.32	0.00
471.50	0.00
471.68	0.00
471.86	28.09
472.04	98.30
472.22	35.11
472.40	0.00
472.58	23.41
472.77	0.00
472.95	0.00
473.13	65.54
473.31	0.00
473.49	0.00
473.67	0.00
473.85	0.00
474.03	35.11
474.21	7.02
474.39	91.28
474.57	0.00
474.75	16.38
474.93	49.15
475.12	0.00
475.30	4.68
475.48	0.00
475.66	0.00
475.84	0.00
476.02	18.72
476.20	86.60
476.38	0.00
476.56	84.26
476.74	37.45
476.92	46.81
477.10	56.17
477.28	0.00
477.46	25.75
477.64	0.00
477.82	0.00
478.00	79.58
478.18	16.38
478.36	0.00
478.54	0.00
478.72	25.75
478.90	58.51
479.08	7.02
479.26	56.17
479.44	14.04
479.62	37.45
479.80	2.34
479.98	42.13
480.16	0.00
480.34	42.13
480.52	21.06
480.70	0.00
480.88	7.02
481.06	0.00
481.24	4.68
481.41	46.81
481.59	102.98
481.77	30.43
481.95	0.00
482.13	107.66
482.31	16.38
482.49	0.00
482.67	7.02
482.85	51.49
483.03	0.00
483.21	77.24
483.39	114.69
483.57	28.09
483.74	133.41
483.92	37.45
484.10	46.81
484.28	91.28
484.46	187.24
484.64	28.09
484.82	37.45
485.00	28.09
485.18	44.47
485.35	28.09
485.53	0.00
485.71	53.83
485.89	0.00
486.07	30.43
486.25	65.54
486.43	65.54
486.61	102.98
486.78	154.48
486.96	63.19
487.14	110.01
487.32	95.96
487.50	23.41
487.68	135.75
487.85	124.05
488.03	100.64
488.21	152.13
488.39	124.05
488.57	135.75
488.75	135.75
488.92	393.21
489.10	93.62
489.28	168.52
489.46	63.19
489.64	84.26
489.81	98.30
489.99	220.01
490.17	124.05
490.35	121.71
490.53	98.30
490.70	126.39
490.88	95.96
491.06	74.90
491.24	102.98
491.41	107.66
491.59	152.13
491.77	124.05
491.95	191.92
492.13	156.82
492.30	145.11
492.48	229.37
492.66	194.26
492.84	86.60
493.01	173.20
493.19	81.92
493.37	203.63
493.54	187.24
493.72	152.13
493.90	145.11
494.08	70.22
494.25	163.84
494.43	205.97
494.61	166.18
494.79	88.94
494.96	119.37
495.14	152.13
495.32	238.73
495.49	156.82
495.67	112.35
495.85	215.33
496.02	110.01
496.20	152.13
496.38	156.82
496.55	145.11
496.73	198.95
496.91	168.52
497.09	205.97
497.26	220.01
497.44	180.22
497.62	180.22
497.79	86.60
497.97	215.33
498.14	142.77
498.32	140.43
498.50	259.80
498.67	215.33
498.85	191.92
499.03	180.22
499.20	208.31
499.38	210.65
499.56	203.63
499.73	290.23
499.91	182.56
500.08	311.29
500.26	224.69
500.44	114.69
500.61	238.73
500.79	170.86
500.97	208.31
501.14	201.29
501.32	224.69
501.49	147.45
501.67	149.79
501.84	217.67
502.02	159.16
502.20	208.31
502.37	189.58
502.55	152.13
502.72	250.44
502.90	252.78
503.07	189.58
503.25	187.24
503.43	236.39
503.60	142.77
503.78	126.39
503.95	220.01
504.13	175.54
504.30	250.44
504.48	259.80
504.65	222.35
504.83	236.39
505.01	187.24
505.18	231.71
505.36	166.18
505.53	189.58
505.71	229.37
505.88	315.97
506.06	245.76
506.23	241.08
506.41	173.20
506.58	205.97
506.76	145.11
506.93	184.90
507.11	152.13
507.28	180.22
507.46	184.90
507.63	280.86
507.81	212.99
507.98	220.01
508.16	234.05
508.33	243.42
508.50	173.20
508.68	194.26
508.85	313.63
509.03	327.68
509.20	196.60
509.38	245.76
509.55	266.82
509.73	196.60
509.90	327.68
510.08	227.03
510.25	245.76
510.42	241.08
510.60	191.92
510.77	180.22
510.95	276.18
511.12	234.05
511.30	308.95
511.47	287.89
511.64	245.76
511.82	327.68
511.99	198.95
512.17	231.71
512.34	166.18
512.51	285.55
512.69	163.84
512.86	149.79
513.04	269.16
513.21	234.05
513.38	273.84
513.56	201.29
513.73	217.67
513.90	290.23
514.08	208.31
514.25	299.59
514.43	227.03
514.60	177.88
514.77	212.99
514.95	243.42
515.12	187.24
515.29	222.35
515.47	212.99
515.64	280.86
515.81	241.08
515.99	215.33
516.16	182.56
516.33	250.44
516.51	173.20
516.68	166.18
516.85	175.54
517.03	220.01
517.20	210.65
517.37	290.23
517.54	257.46
517.72	243.42
517.89	170.86
518.06	135.75
518.24	191.92
518.41	315.97
518.58	280.86
518.75	198.95
518.93	243.42
519.10	201.29
519.27	245.76
519.45	227.03
519.62	287.89
519.79	271.50
519.96	222.35
520.14	330.02
520.31	234.05
520.48	184.90
520.65	308.95
520.83	304.27
521.00	299.59
521.17	273.84
521.34	203.63
521.52	264.48
521.69	308.95
521.86	266.82
522.03	266.82
522.20	358.10
522.38	248.10
522.55	189.58
522.72	170.86
522.89	222.35
523.07	315.97
523.24	287.89
523.41	248.10
523.58	259.80
523.75	348.74
523.92	198.95
524.10	201.29
524.27	269.16
524.44	334.70
524.61	386.19
524.78	280.86
524.96	339.38
525.13	262.14
525.30	285.55
525.47	367.46
525.64	234.05
525.81	388.53
525.98	301.93
526.16	297.25
526.33	245.76
526.50	257.46
526.67	152.13
526.84	175.54
527.01	224.69
527.18	330.02
527.36	210.65
527.53	266.82
527.70	313.63
527.87	330.02
528.04	351.08
528.21	308.95
528.38	320.65
528.55	266.82
528.72	337.04
528.89	334.70
529.07	308.95
529.24	271.50
529.41	334.70
529.58	273.84
529.75	252.78
529.92	358.10
530.09	299.59
530.26	318.31
530.43	367.46
530.60	360.44
530.77	353.42
530.94	306.61
531.11	360.44
531.28	306.61
531.46	290.23
531.63	315.97
531.80	318.31
531.97	372.15
532.14	283.20
532.31	241.08
532.48	299.59
532.65	241.08
532.82	269.16
532.99	337.04
533.16	322.99
533.33	292.57
533.50	341.72
533.67	266.82
533.84	245.76
534.01	369.80
534.18	273.84
534.35	294.91
534.52	402.57
534.69	327.68
534.86	227.03
535.03	355.76
535.20	306.61
535.37	360.44
535.54	367.46
535.71	400.23
535.88	346.40
536.05	388.53
536.22	255.12
536.38	234.05
536.55	257.46
536.72	259.80
536.89	276.18
537.06	339.38
537.23	353.42
537.40	330.02
537.57	276.18
537.74	313.63
537.91	337.04
538.08	301.93
538.25	365.12
538.42	278.52
538.59	308.95
538.75	322.99
538.92	369.80
539.09	304.27
539.26	259.80
539.43	425.98
539.60	339.38
539.77	376.83
539.94	280.86
540.11	297.25
540.28	339.38
540.44	383.85
540.61	332.36
540.78	271.50
540.95	306.61
541.12	304.27
541.29	311.29
541.46	355.76
541.62	297.25
541.79	299.59
541.96	250.44
542.13	330.02
542.30	290.23
542.47	266.82
542.63	337.04
542.80	348.74
542.97	376.83
543.14	341.72
543.31	337.04
543.48	180.22
543.64	367.46
543.81	379.17
543.98	341.72
544.15	283.20
544.32	313.63
544.48	339.38
544.65	332.36
544.82	304.27
544.99	348.74
545.16	379.17
545.32	311.29
545.49	313.63
545.66	311.29
545.83	358.10
546.00	339.38
546.16	346.40
546.33	400.23
546.50	330.02
546.67	395.55
546.83	369.80
547.00	313.63
547.17	292.57
547.34	259.80
547.50	266.82
547.67	358.10
547.84	278.52
548.00	327.68
548.17	283.20
548.34	341.72
548.51	332.36
548.67	397.89
548.84	325.33
549.01	259.80
549.18	451.72
549.34	362.78
549.51	358.10
549.68	369.80
549.84	358.10
550.01	276.18
550.18	496.19
550.34	409.59
550.51	346.40
550.68	306.61
550.84	334.70
551.01	332.36
551.18	306.61
551.34	348.74
551.51	346.40
551.68	313.63
551.84	341.72
552.01	322.99
552.18	313.63
552.34	257.46
552.51	315.97
552.68	358.10
552.84	301.93
553.01	348.74
553.18	299.59
553.34	285.55
553.51	252.78
553.67	351.08
553.84	381.51
554.01	395.55
554.17	402.57
554.34	344.06
554.51	210.65
554.67	355.76
554.84	292.57
555.00	425.98
555.17	353.42
555.33	330.02
555.50	381.51
555.67	320.65
555.83	311.29
556.00	257.46
556.16	454.06
556.33	372.15
556.50	320.65
556.66	245.76
556.83	269.16
556.99	301.93
557.16	257.46
557.32	400.23
557.49	318.31
557.65	322.99
557.82	290.23
557.98	243.42
558.15	341.72
558.32	318.31
558.48	236.39
558.65	241.08
558.81	280.86
558.98	318.31
559.14	386.19
559.31	313.63
559.47	346.40
559.64	311.29
559.80	367.46
559.97	325.33
560.13	308.95
560.30	257.46
560.46	299.59
560.63	348.74
560.79	315.97
560.96	337.04
561.12	252.78
561.29	325.33
561.45	355.76
561.61	299.59
561.78	386.19
561.94	351.08
562.11	334.70
562.27	325.33
562.44	259.80
562.60	283.20
562.77	365.12
562.93	395.55
563.10	220.01
563.26	318.31
563.42	395.55
563.59	276.18
563.75	243.42
563.92	332.36
564.08	383.85
564.24	322.99
564.41	360.44
564.57	437.68
564.74	257.46
564.90	355.76
565.07	276.18
565.23	337.04
565.39	287.89
565.56	283.20
565.72	266.82
565.88	348.74
566.05	276.18
566.21	245.76
566.38	320.65
566.54	330.02
566.70	248.10
566.87	276.18
567.03	433.00
567.19	252.78
567.36	362.78
567.52	306.61
567.68	294.91
567.85	301.93
568.01	238.73
568.17	332.36
568.34	306.61
568.50	311.29
568.66	285.55
568.83	435.34
568.99	327.68
569.15	311.29
569.32	416.62
569.48	322.99
569.64	297.25
569.81	250.44
569.97	257.46
570.13	355.76
570.30	227.03
570.46	306.61
570.62	255.12
570.78	283.20
570.95	266.82
571.11	341.72
571.27	409.59
571.43	313.63
571.60	299.59
571.76	301.93
571.92	280.86
572.09	278.52
572.25	271.50
572.41	250.44
572.57	369.80
572.74	332.36
572.90	337.04
573.06	278.52
573.22	248.10
573.38	402.57
573.55	362.78
573.71	386.19
573.87	355.76
574.03	252.78
574.20	301.93
574.36	337.04
574.52	259.80
574.68	271.50
574.84	332.36
575.01	241.08
575.17	397.89
575.33	262.14
575.49	348.74
575.65	320.65
575.82	374.49
575.98	339.38
576.14	215.33
576.30	297.25
576.46	273.84
576.62	337.04
576.79	259.80
576.95	271.50
577.11	238.73
577.27	287.89
577.43	367.46
577.59	315.97
577.75	308.95
577.92	285.55
578.08	285.55
578.24	292.57
578.40	259.80
578.56	381.51
578.72	388.53
578.88	346.40
579.04	386.19
579.21	313.63
579.37	262.14
579.53	346.40
579.69	236.39
579.85	358.10
580.01	299.59
580.17	294.91
580.33	346.40
580.49	353.42
580.65	332.36
580.82	220.01
580.98	269.16
581.14	304.27
581.30	358.10
581.46	280.86
581.62	259.80
581.78	271.50
581.94	231.71
582.10	250.44
582.26	315.97
582.42	299.59
582.58	379.17
582.74	299.59
582.90	262.14
583.06	348.74
583.22	332.36
583.38	292.57
583.54	330.02
583.70	360.44
583.86	395.55
584.02	308.95
584.18	322.99
584.34	337.04
584.50	276.18
584.66	344.06
584.82	318.31
584.98	264.48
585.14	299.59
585.30	220.01
585.46	224.69
585.62	224.69
585.78	259.80
585.94	259.80
586.10	196.60
586.26	308.95
586.42	339.38
586.58	313.63
586.74	283.20
586.90	290.23
587.06	285.55
587.22	294.91
587.38	236.39
587.54	318.31
587.70	341.72
587.86	294.91
588.02	264.48
588.18	292.57
588.34	299.59
588.49	177.88
588.65	177.88
588.81	156.82
588.97	161.50
589.13	189.58
589.29	304.27
589.45	241.08
589.61	255.12
589.77	257.46
589.93	269.16
590.08	330.02
590.24	212.99
590.40	292.57
590.56	280.86
590.72	271.50
590.88	262.14
591.04	290.23
591.20	255.12
591.35	320.65
591.51	334.70
591.67	269.16
591.83	252.78
591.99	266.82
592.15	318.31
592.31	304.27
592.46	241.08
592.62	264.48
592.78	238.73
592.94	229.37
593.10	306.61
593.26	290.23
593.41	311.29
593.57	252.78
593.73	297.25
593.89	297.25
594.05	297.25
594.20	369.80
594.36	304.27
594.52	173.20
594.68	194.26
594.84	220.01
594.99	339.38
595.15	332.36
595.31	224.69
595.47	299.59
595.62	248.10
595.78	266.82
595.94	255.12
596.10	266.82
596.25	220.01
596.41	187.24
596.57	346.40
596.73	280.86
596.88	248.10
597.04	290.23
597.20	187.24
597.36	301.93
597.51	250.44
597.67	276.18
597.83	245.76
597.99	425.98
598.14	297.25
598.30	255.12
598.46	318.31
598.61	285.55
598.77	271.50
598.93	191.92
599.09	224.69
599.24	210.65
599.40	313.63
599.56	266.82
599.71	292.57
599.87	292.57
600.03	306.61
600.18	198.95
600.34	362.78
600.50	264.48
600.65	189.58
600.81	196.60
600.97	248.10
601.12	264.48
601.28	236.39
601.44	222.35
601.59	278.52
601.75	245.76
601.91	311.29
602.06	372.15
602.22	355.76
602.37	292.57
602.53	198.95
602.69	255.12
602.84	266.82
603.00	304.27
603.16	297.25
603.31	308.95
603.47	264.48
603.62	236.39
603.78	217.67
603.94	290.23
604.09	231.71
604.25	264.48
604.40	339.38
604.56	299.59
604.71	182.56
604.87	297.25
605.03	238.73
605.18	198.95
605.34	320.65
605.49	229.37
605.65	339.38
605.80	241.08
605.96	285.55
606.12	203.63
606.27	231.71
606.43	252.78
606.58	304.27
606.74	320.65
606.89	191.92
607.05	322.99
607.20	227.03
607.36	245.76
607.51	182.56
607.67	327.68
607.82	297.25
607.98	341.72
608.13	208.31
608.29	266.82
608.44	311.29
608.60	273.84
608.75	259.80
608.91	227.03
609.06	241.08
609.22	304.27
609.37	220.01
609.53	212.99
609.68	283.20
609.84	238.73
609.99	215.33
610.15	311.29
610.30	227.03
610.46	313.63
610.61	301.93
610.76	201.29
610.92	224.69
611.07	203.63
611.23	318.31
611.38	266.82
611.54	217.67
611.69	182.56
611.84	191.92
612.00	238.73
612.15	241.08
612.31	191.92
612.46	93.62
612.62	166.18
612.77	194.26
612.92	294.91
613.08	255.12
613.23	227.03
613.39	154.48
613.54	276.18
613.69	166.18
613.85	337.04
614.00	248.10
614.15	72.56
614.31	208.31
614.46	287.89
614.62	245.76
614.77	257.46
614.92	201.29
615.08	212.99
615.23	245.76
615.38	262.14
615.54	210.65
615.69	100.64
615.84	128.73
616.00	95.96
616.15	180.22
616.30	156.82
616.46	248.10
616.61	156.82
616.76	180.22
616.92	229.37
617.07	194.26
617.22	243.42
617.37	198.95
617.53	191.92
617.68	182.56
617.83	191.92
617.99	262.14
618.14	227.03
618.29	241.08
618.45	217.67
618.60	161.50
618.75	175.54
618.90	152.13
619.06	196.60
619.21	276.18
619.36	241.08
619.51	114.69
619.67	217.67
619.82	215.33
619.97	189.58
620.12	191.92
620.28	266.82
620.43	227.03
620.58	170.86
620.73	306.61
620.89	173.20
621.04	180.22
621.19	259.80
621.34	255.12
621.49	135.75
621.65	201.29
621.80	191.92
621.95	198.95
622.10	229.37
622.25	91.28
622.41	149.79
622.56	196.60
622.71	220.01
622.86	208.31
623.01	227.03
623.16	241.08
623.32	126.39
623.47	138.09
623.62	184.90
