SpectraSuite Data File
++++++++++++++++++++++++++++++++++++
Date: Mon Oct 07 15:00:30 GMT-05:00 2013
User: price-jones
Dark Spectrum Present: No
Reference Spectrum Present: No
Number of Sampled Component Spectra: 1
Spectrometers: USB2+H05261
Integration Time (usec): 1000000 (USB2+H05261)
Spectra Averaged: 1 (USB2+H05261)
Boxcar Smoothing: 0 (USB2+H05261)
Correct for Electrical Dark: No (USB2+H05261)
Strobe/Lamp Enabled: No (USB2+H05261)
Correct for Detector Non-linearity: No (USB2+H05261)
Correct for Stray Light: No (USB2+H05261)
Number of Pixels in Processed Spectrum: 2048
>>>>>Begin Processed Spectral Data<<<<<
365.73	0.00
365.92	0.00
366.12	0.00
366.32	0.00
366.52	0.00
366.72	131.07
366.91	0.00
367.11	133.41
367.31	81.92
367.51	154.48
367.70	210.65
367.90	416.62
368.10	191.92
368.30	266.82
368.49	0.00
368.69	313.63
368.89	149.79
369.09	39.79
369.28	117.03
369.48	0.00
369.68	60.85
369.87	266.82
370.07	4.68
370.27	484.49
370.47	301.93
370.66	100.64
370.86	341.72
371.06	620.24
371.25	884.72
371.45	290.23
371.65	552.37
371.84	259.80
372.04	124.05
372.24	362.78
372.44	252.78
372.63	423.64
372.83	805.14
373.03	299.59
373.22	140.43
373.42	180.22
373.62	306.61
373.81	510.24
374.01	606.20
374.21	535.98
374.40	388.53
374.60	676.41
374.79	369.80
374.99	241.08
375.19	400.23
375.38	500.87
375.58	330.02
375.78	585.13
375.97	557.05
376.17	1074.31
376.37	266.82
376.56	489.17
376.76	271.50
376.95	198.95
377.15	538.32
377.35	437.68
377.54	416.62
377.74	149.79
377.93	243.42
378.13	430.66
378.33	622.58
378.52	430.66
378.72	653.01
378.91	510.24
379.11	264.48
379.31	229.37
379.50	74.90
379.70	676.41
379.89	568.75
380.09	271.50
380.28	191.92
380.48	397.89
380.68	191.92
380.87	117.03
381.07	404.91
381.26	594.50
381.46	133.41
381.65	479.81
381.85	332.36
382.04	601.52
382.24	528.96
382.43	297.25
382.63	187.24
382.83	313.63
383.02	566.41
383.22	657.69
383.41	238.73
383.61	435.34
383.80	636.63
384.00	334.70
384.19	250.44
384.39	388.53
384.58	229.37
384.78	451.72
384.97	437.68
385.17	351.08
385.36	290.23
385.56	519.60
385.75	166.18
385.95	315.97
386.14	507.90
386.34	311.29
386.53	484.49
386.72	243.42
386.92	760.67
387.11	425.98
387.31	442.36
387.50	187.24
387.70	163.84
387.89	397.89
388.09	175.54
388.28	154.48
388.48	180.22
388.67	575.77
388.86	362.78
389.06	306.61
389.25	472.79
389.45	400.23
389.64	360.44
389.84	664.71
390.03	526.62
390.22	407.25
390.42	299.59
390.61	196.60
390.81	117.03
391.00	320.65
391.19	645.99
391.39	318.31
391.58	564.07
391.78	379.17
391.97	362.78
392.16	252.78
392.36	702.16
392.55	592.16
392.75	369.80
392.94	248.10
393.13	493.85
393.33	112.35
393.52	159.16
393.71	774.72
393.91	433.00
394.10	184.90
394.29	152.13
394.49	229.37
394.68	454.06
394.88	653.01
395.07	676.41
395.26	451.72
395.46	355.76
395.65	585.13
395.84	486.83
396.04	1125.80
396.23	416.62
396.42	304.27
396.62	475.13
396.81	456.40
397.00	397.89
397.19	423.64
397.39	283.20
397.58	741.95
397.77	283.20
397.97	353.42
398.16	423.64
398.35	449.38
398.55	196.60
398.74	369.80
398.93	638.97
399.12	227.03
399.32	538.32
399.51	297.25
399.70	540.66
399.90	477.47
400.09	528.96
400.28	650.67
400.47	348.74
400.67	575.77
400.86	388.53
401.05	519.60
401.24	723.23
401.44	678.76
401.63	552.37
401.82	657.69
402.01	203.63
402.21	571.09
402.40	482.15
402.59	351.08
402.78	266.82
402.97	386.19
403.17	301.93
403.36	491.51
403.55	402.57
403.74	353.42
403.93	425.98
404.13	734.93
404.32	222.35
404.51	325.33
404.70	641.31
404.89	395.55
405.09	947.92
405.28	381.51
405.47	241.08
405.66	550.03
405.85	765.36
406.05	421.30
406.24	372.15
406.43	568.75
406.62	498.53
406.81	940.90
407.00	648.33
407.20	454.06
407.39	418.96
407.58	301.93
407.77	489.17
407.96	772.38
408.15	573.43
408.34	528.96
408.54	475.13
408.73	493.85
408.92	444.70
409.11	528.96
409.30	730.25
409.49	231.71
409.68	402.57
409.87	526.62
410.07	292.57
410.26	428.32
410.45	470.45
410.64	290.23
410.83	514.92
411.02	418.96
411.21	695.14
411.40	692.80
411.59	351.08
411.78	341.72
411.98	479.81
412.17	320.65
412.36	365.12
412.55	374.49
412.74	540.66
412.93	891.74
413.12	346.40
413.31	795.78
413.50	547.69
413.69	482.15
413.88	887.06
414.07	535.98
414.26	461.09
414.45	339.38
414.64	554.71
414.83	517.26
415.02	498.53
415.22	594.50
415.41	744.29
415.60	369.80
415.79	414.27
415.98	896.43
416.17	447.04
416.36	528.96
416.55	229.37
416.74	650.67
416.93	634.29
417.12	440.02
417.31	409.59
417.50	449.38
417.69	938.55
417.88	482.15
418.07	327.68
418.26	479.81
418.45	479.81
418.64	924.51
418.83	645.99
419.02	603.86
419.21	498.53
419.39	589.82
419.58	337.04
419.77	372.15
419.96	706.84
420.15	973.66
420.34	543.00
420.53	512.58
420.72	798.12
420.91	538.32
421.10	524.28
421.29	538.32
421.48	706.84
421.67	758.33
421.86	491.51
422.05	400.23
422.24	404.91
422.43	538.32
422.61	353.42
422.80	456.40
422.99	557.05
423.18	400.23
423.37	866.00
423.56	624.92
423.75	667.05
423.94	409.59
424.13	433.00
424.32	397.89
424.50	433.00
424.69	496.19
424.88	823.87
425.07	465.77
425.26	620.24
425.45	653.01
425.64	386.19
425.83	475.13
426.01	819.19
426.20	599.18
426.39	510.24
426.58	465.77
426.77	528.96
426.96	655.35
427.15	613.22
427.33	383.85
427.52	582.79
427.71	681.10
427.90	582.79
428.09	489.17
428.28	386.19
428.46	482.15
428.65	678.76
428.84	437.68
429.03	889.40
429.22	484.49
429.40	414.27
429.59	341.72
429.78	802.80
429.97	505.56
430.16	388.53
430.34	416.62
430.53	360.44
430.72	475.13
430.91	763.01
431.10	388.53
431.28	571.09
431.47	779.40
431.66	741.95
431.85	440.02
432.03	486.83
432.22	1221.76
432.41	486.83
432.60	922.17
432.79	496.19
432.97	573.43
433.16	521.94
433.35	444.70
433.54	524.28
433.72	641.31
433.91	751.31
434.10	507.90
434.28	615.56
434.47	498.53
434.66	767.70
434.85	407.25
435.03	566.41
435.22	999.41
435.41	980.68
435.59	690.46
435.78	716.20
435.97	512.58
436.16	910.47
436.34	645.99
436.53	676.41
436.72	884.72
436.90	774.72
437.09	709.18
437.28	681.10
437.46	479.81
437.65	667.05
437.84	758.33
438.02	767.70
438.21	758.33
438.40	524.28
438.58	402.57
438.77	716.20
438.96	573.43
439.14	414.27
439.33	702.16
439.52	517.26
439.70	596.84
439.89	856.64
440.08	678.76
440.26	660.03
440.45	1029.84
440.63	690.46
440.82	599.18
441.01	720.88
441.19	617.90
441.38	643.65
441.57	688.12
441.75	952.60
441.94	990.05
442.12	692.80
442.31	564.07
442.50	641.31
442.68	566.41
442.87	615.56
443.05	655.35
443.24	737.27
443.43	723.23
443.61	1004.09
443.80	662.37
443.98	603.86
444.17	585.13
444.35	964.30
444.54	645.99
444.73	650.67
444.91	938.55
445.10	512.58
445.28	510.24
445.47	671.73
445.65	589.82
445.84	493.85
446.02	589.82
446.21	610.88
446.39	585.13
446.58	828.55
446.77	629.60
446.95	575.77
447.14	880.04
447.32	1050.90
447.51	603.86
447.69	725.57
447.88	631.94
448.06	1057.92
448.25	751.31
448.43	479.81
448.62	547.69
448.80	741.95
448.99	861.32
449.17	507.90
449.36	662.37
449.54	966.64
449.73	482.15
449.91	751.31
450.10	543.00
450.28	1299.00
450.46	1268.57
450.65	945.58
450.83	802.80
451.02	638.97
451.20	645.99
451.39	685.78
451.57	592.16
451.76	521.94
451.94	674.07
452.13	772.38
452.31	947.92
452.49	854.30
452.68	456.40
452.86	791.10
453.05	1226.44
453.23	760.67
453.42	489.17
453.60	681.10
453.78	713.86
453.97	503.22
454.15	482.15
454.34	594.50
454.52	610.88
454.70	1102.39
454.89	844.93
455.07	559.39
455.26	821.53
455.44	947.92
455.62	667.05
455.81	748.97
455.99	781.74
456.17	854.30
456.36	636.63
456.54	592.16
456.73	573.43
456.91	585.13
457.09	758.33
457.28	964.30
457.46	734.93
457.64	924.51
457.83	566.41
458.01	564.07
458.19	716.20
458.38	575.77
458.56	758.33
458.74	526.62
458.93	856.64
459.11	966.64
459.29	610.88
459.48	847.27
459.66	1196.01
459.84	947.92
460.03	1647.74
460.21	971.32
460.39	685.78
460.57	1013.45
460.76	772.38
460.94	784.08
461.12	1146.86
461.31	1132.82
461.49	674.07
461.67	657.69
461.85	751.31
462.04	692.80
462.22	2626.08
462.40	915.15
462.59	973.66
462.77	648.33
462.95	884.72
463.13	528.96
463.32	997.07
463.50	833.23
463.68	842.59
463.86	770.04
464.05	660.03
464.23	999.41
464.41	842.59
464.59	638.97
464.78	566.41
464.96	531.30
465.14	723.23
465.32	641.31
465.50	894.08
465.69	788.76
465.87	489.17
466.05	891.74
466.23	543.00
466.41	713.86
466.60	823.87
466.78	727.91
466.96	1111.75
467.14	866.00
467.32	1001.75
467.51	866.00
467.69	866.00
467.87	1224.10
468.05	807.48
468.23	1277.93
468.41	1006.43
468.60	753.65
468.78	748.97
468.96	997.07
469.14	917.49
469.32	535.98
469.50	587.47
469.69	858.98
469.87	720.88
470.05	805.14
470.23	720.88
470.41	554.71
470.59	634.29
470.77	830.89
470.95	748.97
471.14	1097.71
471.32	711.52
471.50	1114.10
471.68	753.65
471.86	954.94
472.04	662.37
472.22	777.06
472.40	505.56
472.58	568.75
472.77	566.41
472.95	753.65
473.13	1357.51
473.31	1184.31
473.49	528.96
473.67	641.31
473.85	894.08
474.03	990.05
474.21	833.23
474.39	1149.20
474.57	1256.87
474.75	840.25
474.93	648.33
475.12	575.77
475.30	704.50
475.48	798.12
475.66	795.78
475.84	823.87
476.02	774.72
476.20	959.62
476.38	868.34
476.56	1504.96
476.74	800.46
476.92	660.03
477.10	800.46
477.28	945.58
477.46	800.46
477.64	1036.86
477.82	777.06
478.00	730.25
478.18	786.42
478.36	858.98
478.54	734.93
478.72	704.50
478.90	753.65
479.08	945.58
479.26	814.51
479.44	739.61
479.62	685.78
479.80	784.08
479.98	631.94
480.16	697.48
480.34	1008.77
480.52	692.80
480.70	1046.22
480.88	723.23
481.06	669.39
481.24	823.87
481.41	847.27
481.59	1048.56
481.77	936.21
481.95	931.53
482.13	1289.64
482.31	924.51
482.49	732.59
482.67	1053.24
482.85	1090.69
483.03	1060.26
483.21	915.15
483.39	706.84
483.57	819.19
483.74	1394.96
483.92	1025.15
484.10	791.10
484.28	1165.59
484.46	1673.48
484.64	868.34
484.82	959.62
485.00	730.25
485.18	905.79
485.35	1008.77
485.53	739.61
485.71	1139.84
485.89	547.69
486.07	777.06
486.25	1614.97
486.43	1032.18
486.61	1071.97
486.78	1100.05
486.96	641.31
487.14	905.79
487.32	840.25
487.50	884.72
487.68	1146.86
487.85	861.32
488.03	1116.44
488.21	1444.11
488.39	954.94
488.57	1137.50
488.75	936.21
488.92	4842.57
489.10	1203.04
489.28	1614.97
489.46	772.38
489.64	1004.09
489.81	1062.60
489.99	1268.57
490.17	1001.75
490.35	1727.32
490.53	994.73
490.70	873.02
490.88	1282.61
491.06	936.21
491.24	1172.61
491.41	1472.20
491.59	1095.37
491.77	837.91
491.95	844.93
492.13	903.45
492.30	1083.67
492.48	1006.43
492.66	1179.63
492.84	1053.24
493.01	1130.48
493.19	1001.75
493.37	1467.52
493.54	1273.25
493.72	1226.44
493.90	959.62
494.08	922.17
494.25	1170.27
494.43	1151.54
494.61	1095.37
494.79	903.45
494.96	870.68
495.14	1263.89
495.32	1032.18
495.49	1160.91
495.67	1219.42
495.85	1104.73
496.02	910.47
496.20	1277.93
496.38	1289.64
496.55	1114.10
496.73	1331.76
496.91	1018.13
497.09	1366.87
497.26	1062.60
497.44	1170.27
497.62	1156.22
497.79	1083.67
497.97	1261.55
498.14	1284.95
498.32	1163.25
498.50	1256.87
498.67	1100.05
498.85	1184.31
499.03	1109.41
499.20	1097.71
499.38	1172.61
499.56	1144.52
499.73	1568.16
499.91	1432.41
500.08	1432.41
500.26	1174.95
500.44	1046.22
500.61	1078.99
500.79	1048.56
500.97	1441.77
501.14	1591.56
501.32	1191.33
501.49	1495.60
501.67	1107.07
501.84	1203.04
502.02	1022.81
502.20	1732.00
502.37	1380.92
502.55	1060.26
502.72	1210.06
502.90	1373.89
503.07	1306.02
503.25	1263.89
503.43	1015.79
503.60	1071.97
503.78	1313.04
503.95	1130.48
504.13	1104.73
504.30	1366.87
504.48	1511.99
504.65	1643.06
504.83	1451.13
505.01	1139.84
505.18	1308.36
505.36	1212.40
505.53	1256.87
505.71	1093.03
505.88	1614.97
506.06	1214.74
506.23	1151.54
506.41	1151.54
506.58	1378.58
506.76	1364.53
506.93	1123.46
507.11	1329.42
507.28	971.32
507.46	1055.58
507.63	1294.32
507.81	952.60
507.98	1231.12
508.16	1245.16
508.33	1238.14
508.50	1420.71
508.68	1280.27
508.85	1270.91
509.03	1181.97
509.20	1186.65
509.38	1357.51
509.55	1504.96
509.73	1462.83
509.90	1579.86
510.08	1139.84
510.25	1348.15
510.42	1181.97
510.60	1270.91
510.77	1411.34
510.95	1540.07
511.12	1266.23
511.30	1479.22
511.47	1488.58
511.64	1818.60
511.82	1217.08
511.99	1249.85
512.17	1287.29
512.34	1118.78
512.51	1034.52
512.69	1167.93
512.86	1523.69
513.04	1151.54
513.21	1299.00
513.38	1097.71
513.56	1121.12
513.73	1221.76
513.90	997.07
514.08	1050.90
514.25	1301.34
514.43	1357.51
514.60	1109.41
514.77	1174.95
514.95	1387.94
515.12	1130.48
515.29	1268.57
515.47	1343.47
515.64	1282.61
515.81	1228.78
515.99	1507.30
516.16	1392.62
516.33	1495.60
516.51	1076.65
516.68	1034.52
516.85	1043.88
517.03	1095.37
517.20	1364.53
517.37	1446.45
517.54	1427.73
517.72	1160.91
517.89	954.94
518.06	987.71
518.24	1724.97
518.41	1715.61
518.58	1507.30
518.75	1107.07
518.93	1256.87
519.10	1275.59
519.27	1170.27
519.45	1273.25
519.62	1254.53
519.79	1324.74
519.96	1135.16
520.14	1355.17
520.31	1729.66
520.48	1252.19
520.65	1299.00
520.83	1521.35
521.00	1523.69
521.17	1650.08
521.34	1212.40
521.52	1308.36
521.69	1238.14
521.86	1310.70
522.03	1533.05
522.20	1741.36
522.38	1193.67
522.55	1411.34
522.72	1090.69
522.89	1479.22
523.07	1956.69
523.24	1399.64
523.41	1287.29
523.58	1207.72
523.75	1284.95
523.92	1121.12
524.10	1504.96
524.27	1263.89
524.44	1296.66
524.61	1659.44
524.78	1128.14
524.96	1411.34
525.13	1369.21
525.30	1626.67
525.47	1572.84
525.64	1481.56
525.81	1390.28
525.98	1338.79
526.16	1123.46
526.33	1158.57
526.50	1118.78
526.67	1001.75
526.84	1097.71
527.01	1076.65
527.18	1406.66
527.36	1324.74
527.53	1217.08
527.70	1633.69
527.87	1324.74
528.04	1879.45
528.21	1217.08
528.38	1586.88
528.55	1687.53
528.72	1743.70
528.89	2071.37
529.07	1448.79
529.24	1425.39
529.41	1741.36
529.58	1404.32
529.75	1221.76
529.92	1561.14
530.09	1336.45
530.26	1612.63
530.43	1500.28
530.60	1270.91
530.77	1359.85
530.94	1493.26
531.11	1610.29
531.28	1324.74
531.46	1261.55
531.63	1521.35
531.80	1451.13
531.97	1614.97
532.14	1315.38
532.31	1366.87
532.48	1500.28
532.65	1376.24
532.82	1144.52
532.99	1207.72
533.16	1306.02
533.33	1355.17
533.50	1291.98
533.67	1174.95
533.84	1509.65
534.01	1462.83
534.18	1247.51
534.35	1413.68
534.52	1338.79
534.69	2003.50
534.86	1331.76
535.03	1263.89
535.20	1261.55
535.37	1664.12
535.54	1434.75
535.71	1299.00
535.88	1783.49
536.05	1249.85
536.22	1444.11
536.38	1308.36
536.55	1467.52
536.72	1579.86
536.89	1254.53
537.06	1291.98
537.23	1235.80
537.40	1299.00
537.57	1121.12
537.74	1521.35
537.91	1612.63
538.08	1458.15
538.25	1612.63
538.42	1345.81
538.59	1434.75
538.75	1373.89
538.92	1404.32
539.09	1575.18
539.26	1299.00
539.43	1675.82
539.60	1291.98
539.77	1535.39
539.94	1362.19
540.11	1432.41
540.28	1755.40
540.44	1764.76
540.61	1406.66
540.78	1228.78
540.95	1135.16
541.12	1724.97
541.29	1177.29
541.46	1736.68
541.62	1427.73
541.79	1179.63
541.96	1102.39
542.13	1240.48
542.30	1107.07
542.47	1519.01
542.63	1334.11
542.80	1432.41
542.97	1661.78
543.14	1378.58
543.31	1554.12
543.48	1380.92
543.64	1432.41
543.81	1343.47
543.98	1252.19
544.15	1121.12
544.32	1329.42
544.48	1245.16
544.65	1242.82
544.82	1188.99
544.99	1263.89
545.16	1591.56
545.32	1320.06
545.49	1441.77
545.66	1310.70
545.83	1184.31
546.00	1095.37
546.16	1394.96
546.33	1306.02
546.50	1317.72
546.67	1743.70
546.83	1554.12
547.00	1308.36
547.17	1071.97
547.34	1184.31
547.50	1334.11
547.67	1254.53
547.84	1240.48
548.00	1479.22
548.17	1268.57
548.34	1369.21
548.51	1832.64
548.67	1696.89
548.84	1317.72
549.01	1315.38
549.18	1420.71
549.34	1268.57
549.51	1387.94
549.68	1453.47
549.84	1350.49
550.01	1174.95
550.18	2874.18
550.34	2202.44
550.51	1406.66
550.68	1966.05
550.84	1280.27
551.01	1418.36
551.18	1465.18
551.34	1348.15
551.51	1355.17
551.68	1270.91
551.84	1465.18
552.01	1221.76
552.18	1303.68
552.34	1306.02
552.51	1320.06
552.68	1537.73
552.84	1149.20
553.01	1371.55
553.18	1554.12
553.34	1303.68
553.51	1004.09
553.67	1568.16
553.84	1837.32
554.01	1542.41
554.17	1430.07
554.34	1226.44
554.51	1570.50
554.67	1715.61
554.84	1472.20
555.00	1507.30
555.17	1409.00
555.33	1603.27
555.50	1392.62
555.67	1451.13
555.83	1123.46
556.00	1315.38
556.16	3412.50
556.33	1460.49
556.50	1308.36
556.66	1369.21
556.83	1196.01
556.99	1291.98
557.16	1451.13
557.32	1252.19
557.49	1186.65
557.65	1184.31
557.82	1121.12
557.98	1383.26
558.15	1090.69
558.32	1231.12
558.48	1231.12
558.65	1378.58
558.81	1446.45
558.98	1214.74
559.14	1418.36
559.31	1331.76
559.47	1502.62
559.64	1226.44
559.80	1427.73
559.97	1097.71
560.13	1341.13
560.30	1013.45
560.46	1193.67
560.63	1249.85
560.79	1186.65
560.96	1277.93
561.12	1144.52
561.29	1460.49
561.45	1263.89
561.61	1296.66
561.78	2363.94
561.94	1306.02
562.11	1184.31
562.27	1373.89
562.44	1081.33
562.60	1277.93
562.77	1203.04
562.93	1982.43
563.10	1324.74
563.26	1270.91
563.42	1540.07
563.59	1404.32
563.75	1104.73
563.92	1563.48
564.08	1380.92
564.24	1570.50
564.41	1858.39
564.57	1146.86
564.74	1249.85
564.90	1364.53
565.07	1423.05
565.23	1448.79
565.39	1114.10
565.56	1418.36
565.72	1186.65
565.88	1219.42
566.05	1163.25
566.21	1095.37
566.38	1420.71
566.54	1364.53
566.70	1174.95
566.87	1142.18
567.03	1020.47
567.19	1205.38
567.36	1425.39
567.52	1123.46
567.68	1462.83
567.85	1350.49
568.01	1196.01
568.17	980.68
568.34	1184.31
568.50	1629.01
568.66	1025.15
568.83	1987.11
568.99	1081.33
569.15	1441.77
569.32	1247.51
569.48	1254.53
569.64	1132.82
569.81	1170.27
569.97	1139.84
570.13	1432.41
570.30	1095.37
570.46	1179.63
570.62	1076.65
570.78	1163.25
570.95	1039.20
571.11	1689.87
571.27	1797.53
571.43	1083.67
571.60	1385.60
571.76	1181.97
571.92	1254.53
572.09	1139.84
572.25	1207.72
572.41	1226.44
572.57	1235.80
572.74	1757.74
572.90	1434.75
573.06	1306.02
573.22	1401.98
573.38	1519.01
573.55	1420.71
573.71	1523.69
573.87	1364.53
574.03	1020.47
574.20	1137.50
574.36	1479.22
574.52	1153.88
574.68	1036.86
574.84	1280.27
575.01	1142.18
575.17	1214.74
575.33	1039.20
575.49	1446.45
575.65	1479.22
575.82	1315.38
575.98	1872.43
576.14	1217.08
576.30	1163.25
576.46	1167.93
576.62	1242.82
576.79	1357.51
576.95	1547.09
577.11	1071.97
577.27	1027.50
577.43	1516.67
577.59	1680.50
577.75	1324.74
577.92	1163.25
578.08	1074.31
578.24	1078.99
578.40	1448.79
578.56	1577.52
578.72	1460.49
578.88	1437.09
579.04	1158.57
579.21	1245.16
579.37	1128.14
579.53	1231.12
579.69	1523.69
579.85	1104.73
580.01	1359.85
580.17	1114.10
580.33	1069.62
580.49	1212.40
580.65	1341.13
580.82	1125.80
580.98	1097.71
581.14	1071.97
581.30	1530.71
581.46	1207.72
581.62	1458.15
581.78	1144.52
581.94	1242.82
582.10	816.85
582.26	1125.80
582.42	1018.13
582.58	1352.83
582.74	1224.10
582.90	1184.31
583.06	1266.23
583.22	1270.91
583.38	1095.37
583.54	1011.11
583.70	1570.50
583.86	1287.29
584.02	1210.06
584.18	1472.20
584.34	1022.81
584.50	1254.53
584.66	1088.35
584.82	980.68
584.98	1186.65
585.14	1015.79
585.30	1502.62
585.46	1158.57
585.62	1069.62
585.78	1064.94
585.94	1350.49
586.10	1053.24
586.26	1193.67
586.42	1629.01
586.58	1364.53
586.74	1170.27
586.90	1203.04
587.06	1308.36
587.22	1153.88
587.38	1114.10
587.54	1025.15
587.70	1378.58
587.86	1416.02
588.02	1074.31
588.18	1299.00
588.34	1296.66
588.49	774.72
588.65	922.17
588.81	910.47
588.97	781.74
589.13	1060.26
589.29	1097.71
589.45	1418.36
589.61	1086.01
589.77	1411.34
589.93	1060.26
590.08	968.98
590.24	880.04
590.40	1165.59
590.56	1343.47
590.72	1146.86
590.88	905.79
591.04	1170.27
591.20	957.28
591.35	1502.62
591.51	1062.60
591.67	868.34
591.83	1025.15
591.99	1170.27
592.15	1369.21
592.31	1177.29
592.46	1013.45
592.62	1401.98
592.78	896.43
592.94	929.19
593.10	954.94
593.26	952.60
593.41	1268.57
593.57	1153.88
593.73	1008.77
593.89	1387.94
594.05	1123.46
594.20	971.32
594.36	1416.02
594.52	1006.43
594.68	938.55
594.84	1355.17
594.99	1497.94
595.15	1231.12
595.31	1406.66
595.47	1589.22
595.62	1165.59
595.78	1071.97
595.94	1109.41
596.10	1348.15
596.25	1118.78
596.41	1273.25
596.57	978.34
596.73	933.87
596.88	1053.24
597.04	1221.76
597.20	882.38
597.36	1104.73
597.51	905.79
597.67	1006.43
597.83	1006.43
597.99	1322.40
598.14	1146.86
598.30	1462.83
598.46	1088.35
598.61	1439.43
598.77	1207.72
598.93	1076.65
599.09	1088.35
599.24	1130.48
599.40	1523.69
599.56	1179.63
599.71	1135.16
599.87	964.30
600.03	1130.48
600.18	1048.56
600.34	1210.06
600.50	1020.47
600.65	840.25
600.81	1338.79
600.97	954.94
601.12	891.74
601.28	1451.13
601.44	1053.24
601.59	863.66
601.75	1118.78
601.91	936.21
602.06	1228.78
602.22	1923.92
602.37	1210.06
602.53	1100.05
602.69	1287.29
