SpectraSuite Data File
++++++++++++++++++++++++++++++++++++
Date: Mon Oct 07 15:00:11 GMT-05:00 2013
User: price-jones
Dark Spectrum Present: No
Reference Spectrum Present: No
Number of Sampled Component Spectra: 1
Spectrometers: USB2+H05261
Integration Time (usec): 1000000 (USB2+H05261)
Spectra Averaged: 1 (USB2+H05261)
Boxcar Smoothing: 0 (USB2+H05261)
Correct for Electrical Dark: No (USB2+H05261)
Strobe/Lamp Enabled: No (USB2+H05261)
Correct for Detector Non-linearity: No (USB2+H05261)
Correct for Stray Light: No (USB2+H05261)
Number of Pixels in Processed Spectrum: 2048
>>>>>Begin Processed Spectral Data<<<<<
365.73	0.00
365.92	0.00
366.12	0.00
366.32	0.00
366.52	0.00
366.72	245.76
366.91	0.00
367.11	201.29
367.31	32.77
367.51	100.64
367.70	243.42
367.90	433.00
368.10	170.86
368.30	273.84
368.49	0.00
368.69	301.93
368.89	140.43
369.09	0.00
369.28	60.85
369.48	0.00
369.68	53.83
369.87	266.82
370.07	37.45
370.27	512.58
370.47	315.97
370.66	259.80
370.86	454.06
371.06	777.06
371.25	1053.24
371.45	402.57
371.65	636.63
371.84	217.67
372.04	152.13
372.24	409.59
372.44	320.65
372.63	479.81
372.83	833.23
373.03	428.32
373.22	322.99
373.42	362.78
373.62	287.89
373.81	564.07
374.01	643.65
374.21	683.44
374.40	414.27
374.60	709.18
374.79	414.27
374.99	400.23
375.19	578.11
375.38	587.47
375.58	397.89
375.78	664.71
375.97	650.67
376.17	1076.65
376.37	463.43
376.56	587.47
376.76	273.84
376.95	334.70
377.15	643.65
377.35	655.35
377.54	521.94
377.74	276.18
377.93	297.25
378.13	482.15
378.33	732.59
378.52	418.96
378.72	725.57
378.91	648.33
379.11	367.46
379.31	428.32
379.50	166.18
379.70	713.86
379.89	812.17
380.09	395.55
380.28	217.67
380.48	379.17
380.68	346.40
380.87	271.50
381.07	552.37
381.26	730.25
381.46	344.06
381.65	533.64
381.85	308.95
382.04	723.23
382.24	603.86
382.43	393.21
382.63	224.69
382.83	390.87
383.02	711.52
383.22	858.98
383.41	297.25
383.61	461.09
383.80	795.78
384.00	543.00
384.19	287.89
384.39	517.26
384.58	311.29
384.78	624.92
384.97	596.84
385.17	510.24
385.36	362.78
385.56	688.12
385.75	191.92
385.95	376.83
386.14	643.65
386.34	365.12
386.53	484.49
386.72	292.57
386.92	788.76
387.11	533.64
387.31	575.77
387.50	245.76
387.70	243.42
387.89	465.77
388.09	386.19
388.28	346.40
388.48	259.80
388.67	674.07
388.86	444.70
389.06	383.85
389.25	554.71
389.45	510.24
389.64	519.60
389.84	774.72
390.03	594.50
390.22	582.79
390.42	503.22
390.61	337.04
390.81	238.73
391.00	465.77
391.19	734.93
391.39	411.93
391.58	622.58
391.78	547.69
391.97	521.94
392.16	191.92
392.36	863.66
392.55	763.01
392.75	493.85
392.94	367.46
393.13	748.97
393.33	283.20
393.52	372.15
393.71	809.83
393.91	484.49
394.10	334.70
394.29	397.89
394.49	425.98
394.68	559.39
394.88	854.30
395.07	737.27
395.26	540.66
395.46	491.51
395.65	786.42
395.84	592.16
396.04	1306.02
396.23	578.11
396.42	348.74
396.62	538.32
396.81	631.94
397.00	510.24
397.19	606.20
397.39	425.98
397.58	819.19
397.77	538.32
397.97	496.19
398.16	538.32
398.35	840.25
398.55	449.38
398.74	559.39
398.93	908.13
399.12	510.24
399.32	669.39
399.51	503.22
399.70	744.29
399.90	643.65
400.09	725.57
400.28	868.34
400.47	510.24
400.67	805.14
400.86	650.67
401.05	774.72
401.24	870.68
401.44	788.76
401.63	788.76
401.82	905.79
402.01	428.32
402.21	837.91
402.40	667.05
402.59	547.69
402.78	531.30
402.97	496.19
403.17	638.97
403.36	814.51
403.55	610.88
403.74	613.22
403.93	634.29
404.13	945.58
404.32	468.11
404.51	564.07
404.70	835.57
404.89	594.50
405.09	1193.67
405.28	641.31
405.47	379.17
405.66	807.48
405.85	961.96
406.05	702.16
406.24	620.24
406.43	723.23
406.62	772.38
406.81	1303.68
407.00	966.64
407.20	690.46
407.39	638.97
407.58	587.47
407.77	891.74
407.96	973.66
408.15	922.17
408.34	833.23
408.54	758.33
408.73	751.31
408.92	692.80
409.11	919.83
409.30	1004.09
409.49	498.53
409.68	681.10
409.87	737.27
410.07	601.52
410.26	660.03
410.45	564.07
410.64	634.29
410.83	779.40
411.02	622.58
411.21	898.77
411.40	978.34
411.59	627.26
411.78	683.44
411.98	732.59
412.17	601.52
412.36	823.87
412.55	667.05
412.74	936.21
412.93	1299.00
413.12	674.07
413.31	1004.09
413.50	896.43
413.69	821.53
413.88	1282.61
414.07	844.93
414.26	755.99
414.45	720.88
414.64	844.93
414.83	915.15
415.02	835.57
415.22	1041.54
415.41	1179.63
415.60	755.99
415.79	870.68
415.98	1156.22
416.17	929.19
416.36	840.25
416.55	681.10
416.74	1064.94
416.93	1135.16
417.12	763.01
417.31	828.55
417.50	760.67
417.69	1385.60
417.88	978.34
418.07	704.50
418.26	770.04
418.45	851.96
418.64	1313.04
418.83	985.37
419.02	924.51
419.21	961.96
419.39	915.15
419.58	699.82
419.77	763.01
419.96	1067.28
420.15	1296.66
420.34	917.49
420.53	945.58
420.72	1151.54
420.91	997.07
421.10	912.81
421.29	931.53
421.48	1011.11
421.67	1067.28
421.86	805.14
422.05	875.36
422.24	821.53
422.43	868.34
422.61	732.59
422.80	917.49
422.99	954.94
423.18	823.87
423.37	1231.12
423.56	1046.22
423.75	1055.58
423.94	737.27
424.13	800.46
424.32	760.67
424.50	821.53
424.69	851.96
424.88	1270.91
425.07	851.96
425.26	947.92
425.45	1039.20
425.64	772.38
425.83	802.80
426.01	1231.12
426.20	1027.50
426.39	851.96
426.58	779.40
426.77	868.34
426.96	1025.15
427.15	976.00
427.33	765.36
427.52	968.98
427.71	940.90
427.90	985.37
428.09	856.64
428.28	800.46
428.46	847.27
428.65	1074.31
428.84	894.08
429.03	1284.95
429.22	784.08
429.40	758.33
429.59	702.16
429.78	1043.88
429.97	837.91
430.16	734.93
430.34	716.20
430.53	788.76
430.72	889.40
430.91	1029.84
431.10	737.27
431.28	1046.22
431.47	1245.16
431.66	1210.06
431.85	844.93
432.03	940.90
432.22	1621.99
432.41	1022.81
432.60	1327.08
432.79	891.74
432.97	1008.77
433.16	983.02
433.35	755.99
433.54	837.91
433.72	1142.18
433.91	1111.75
434.10	922.17
434.28	1104.73
434.47	936.21
434.66	1294.32
434.85	1020.47
435.03	976.00
435.22	1371.55
435.41	1453.47
435.59	1191.33
435.78	1191.33
435.97	961.96
436.16	1338.79
436.34	1046.22
436.53	1153.88
436.72	1369.21
436.90	1287.29
437.09	1181.97
437.28	1064.94
437.46	1032.18
437.65	1196.01
437.84	1116.44
438.02	1118.78
438.21	1078.99
438.40	889.40
438.58	873.02
438.77	1022.81
438.96	1116.44
439.14	924.51
439.33	1338.79
439.52	1128.14
439.70	987.71
439.89	1163.25
440.08	1046.22
440.26	997.07
440.45	1589.22
440.63	1221.76
440.82	1128.14
441.01	1198.35
441.19	1181.97
441.38	1139.84
441.57	1156.22
441.75	1530.71
441.94	1631.35
442.12	1338.79
442.31	1228.78
442.50	1172.61
442.68	1142.18
442.87	1245.16
443.05	1160.91
443.24	1277.93
443.43	1343.47
443.61	1547.09
443.80	1268.57
443.98	1114.10
444.17	1186.65
444.35	1495.60
444.54	1226.44
444.73	1191.33
444.91	1572.84
445.10	1083.67
445.28	1081.33
445.47	1289.64
445.65	1139.84
445.84	1055.58
446.02	1177.29
446.21	1128.14
446.39	1174.95
446.58	1306.02
446.77	1149.20
446.95	1210.06
447.14	1329.42
447.32	1699.23
447.51	1327.08
447.69	1451.13
447.88	1336.45
448.06	1689.87
448.25	1322.40
448.43	1111.75
448.62	1109.41
448.80	1369.21
448.99	1439.43
449.17	1210.06
449.36	1205.38
449.54	1561.14
449.73	1282.61
449.91	1544.75
450.10	1308.36
450.28	2050.31
450.46	1856.04
450.65	1586.88
450.83	1437.09
451.02	1369.21
451.20	1427.73
451.39	1348.15
451.57	1256.87
451.76	1196.01
451.94	1383.26
452.13	1523.69
452.31	1554.12
452.49	1453.47
452.68	1123.46
452.86	1369.21
453.05	1895.83
453.23	1376.24
453.42	1170.27
453.60	1409.00
453.78	1380.92
453.97	1130.48
454.15	1137.50
454.34	1121.12
454.52	1179.63
454.70	1682.85
454.89	1497.94
455.07	1217.08
455.26	1533.05
455.44	1657.10
455.62	1366.87
455.81	1448.79
455.99	1596.25
456.17	1579.86
456.36	1378.58
456.54	1343.47
456.73	1364.53
456.91	1427.73
457.09	1504.96
457.28	1739.02
457.46	1453.47
457.64	1689.87
457.83	1390.28
458.01	1299.00
458.19	1488.58
458.38	1371.55
458.56	1558.80
458.74	1188.99
458.93	1500.28
459.11	1636.03
459.29	1289.64
459.48	1589.22
459.66	1888.81
459.84	1659.44
460.03	2462.24
460.21	1664.12
460.39	1523.69
460.57	1846.68
460.76	1596.25
460.94	1563.48
461.12	2005.84
461.31	1870.09
461.49	1504.96
461.67	1364.53
461.85	1610.29
462.04	1453.47
462.22	8039.74
462.40	1949.67
462.59	1881.79
462.77	1387.94
462.95	1572.84
463.13	1399.64
463.32	1792.85
463.50	1514.33
463.68	1708.59
463.86	1544.75
464.05	1458.15
464.23	1781.15
464.41	1577.52
464.59	1294.32
464.78	1434.75
464.96	1224.10
465.14	1654.76
465.32	1383.26
465.50	1682.85
465.69	1699.23
465.87	1235.80
466.05	1549.43
466.23	1275.59
466.41	1350.49
466.60	1446.45
466.78	1514.33
466.96	1696.89
467.14	1626.67
467.32	1849.02
467.51	1762.42
467.69	1675.82
467.87	1872.43
468.05	1481.56
468.23	2045.63
468.41	1790.51
468.60	1495.60
468.78	1645.40
468.96	1767.10
469.14	1572.84
469.32	1308.36
469.50	1259.21
469.69	1575.18
469.87	1556.46
470.05	1526.03
470.23	1544.75
470.41	1420.71
470.59	1315.38
470.77	1577.52
470.95	1511.99
471.14	1902.86
471.32	1570.50
471.50	2052.65
471.68	1629.01
471.86	1806.89
472.04	1357.51
472.22	1570.50
472.40	1249.85
472.58	1409.00
472.77	1378.58
472.95	1565.82
473.13	2024.56
473.31	1975.41
473.49	1359.85
473.67	1458.15
473.85	1853.70
474.03	1837.32
474.21	1762.42
474.39	1970.73
474.57	2246.91
474.75	1746.04
474.93	1554.12
475.12	1444.11
475.30	1540.07
475.48	1659.44
475.66	1708.59
475.84	1755.40
476.02	1607.95
476.20	1788.17
476.38	1631.35
476.56	2469.27
476.74	1806.89
476.92	1722.63
477.10	1671.14
477.28	1968.39
477.46	1724.97
477.64	1961.37
477.82	1813.92
478.00	1727.32
478.18	1832.64
478.36	1746.04
478.54	1743.70
478.72	1631.35
478.90	1867.75
479.08	1905.20
479.26	1870.09
479.44	1804.55
479.62	1675.82
479.80	1785.83
479.98	1732.00
480.16	1687.53
480.34	2076.06
480.52	1893.49
480.70	2120.53
480.88	1781.15
481.06	1804.55
481.24	1874.77
481.41	1937.96
481.59	2258.62
481.77	1933.28
481.95	1849.02
482.13	2340.54
482.31	2015.20
482.49	1837.32
482.67	2155.63
482.85	2118.18
483.03	2139.25
483.21	2054.99
483.39	1959.03
483.57	1923.92
483.74	2487.99
483.92	2148.61
484.10	1781.15
484.28	2267.98
484.46	2843.75
484.64	2026.90
484.82	2092.44
485.00	2001.16
485.18	2106.48
485.35	2024.56
485.53	1748.38
485.71	2153.29
485.89	1472.20
486.07	1909.88
486.25	2658.85
486.43	2188.40
486.61	2265.64
486.78	2043.29
486.96	1856.04
487.14	2033.93
487.32	2022.22
487.50	2097.12
487.68	2401.39
487.85	2218.83
488.03	2338.20
488.21	2511.39
488.39	2275.00
488.57	2305.43
488.75	2120.53
488.92	5790.49
489.10	2530.12
489.28	2860.13
489.46	2349.90
489.64	2410.75
489.81	2431.82
489.99	2649.49
490.17	2345.22
490.35	3117.59
490.53	2356.92
490.70	2195.42
490.88	2665.87
491.06	2377.98
491.24	2605.02
491.41	2899.92
491.59	2410.75
491.77	2120.53
491.95	2183.72
492.13	2167.34
492.30	2455.22
492.48	2565.23
492.66	2492.67
492.84	2373.30
493.01	2558.21
493.19	2300.75
493.37	2904.60
493.54	2813.32
493.72	2717.36
493.90	2490.33
494.08	2525.44
494.25	2841.41
494.43	2909.29
494.61	2654.17
494.79	2459.90
494.96	2560.55
495.14	2715.02
495.32	2574.59
495.49	2661.19
495.67	2686.94
495.85	2677.57
496.02	2558.21
496.20	2946.73
496.38	2841.41
496.55	2724.38
496.73	2928.01
496.91	2691.62
497.09	3054.40
497.26	2925.67
497.44	2782.90
497.62	2717.36
497.79	2745.45
497.97	2883.54
498.14	2937.37
498.32	2958.44
498.50	2853.11
498.67	2675.23
498.85	2881.20
499.03	2928.01
499.20	2761.83
499.38	2977.16
499.56	2913.97
499.73	3335.26
499.91	2984.18
500.08	3000.57
500.26	2759.49
500.44	2675.23
500.61	2775.88
500.79	2607.36
500.97	2988.86
501.14	3124.62
501.32	2827.37
501.49	3112.91
501.67	2878.86
501.84	2848.43
502.02	2523.10
502.20	3445.27
502.37	3073.12
502.55	2836.73
502.72	2818.00
502.90	3054.40
503.07	3005.25
503.25	2841.41
503.43	2724.38
503.60	2761.83
503.78	2829.71
503.95	2862.48
504.13	2888.22
504.30	3265.05
504.48	3269.73
504.65	3321.22
504.83	3187.81
505.01	2881.20
505.18	3068.44
505.36	3115.25
505.53	3045.04
505.71	3075.46
505.88	3480.38
506.06	2944.39
506.23	2895.24
506.41	2902.26
506.58	3246.32
506.76	3112.91
506.93	2977.16
507.11	3141.00
507.28	2897.58
507.46	2874.18
507.63	2951.42
507.81	2740.77
507.98	2918.65
508.16	3068.44
508.33	3030.99
508.50	3349.31
508.68	3145.68
508.85	3297.81
509.03	3040.36
509.20	2916.31
509.38	3112.91
509.55	3365.69
509.73	3267.39
509.90	3480.38
510.08	2944.39
510.25	3206.53
510.42	2981.84
510.60	3000.57
510.77	3426.54
510.95	3314.20
511.12	3131.64
511.30	3372.71
511.47	3552.93
511.64	3761.24
511.82	3171.43
511.99	3054.40
512.17	3061.42
512.34	2899.92
512.51	2897.58
512.69	3026.31
512.86	3585.70
513.04	3197.17
513.21	3253.34
513.38	3030.99
513.56	2977.16
513.73	2904.60
513.90	2918.65
514.08	2935.03
514.25	3162.06
514.43	3302.50
514.60	2937.37
514.77	2972.48
514.95	3293.13
515.12	2963.12
515.29	3253.34
515.47	3155.04
515.64	3112.91
515.81	3101.21
515.99	3414.84
516.16	3077.80
516.33	3075.46
516.51	2715.02
516.68	2420.11
516.85	2607.36
517.03	2785.24
517.20	3265.05
517.37	3253.34
517.54	3363.35
517.72	3138.66
517.89	2605.02
518.06	2712.68
518.24	3496.76
518.41	3604.42
518.58	3265.05
518.75	2988.86
518.93	3098.87
519.10	3215.90
519.27	3122.27
519.45	3295.47
519.62	3290.79
519.79	3419.52
519.96	3157.38
520.14	3222.92
520.31	3517.83
520.48	3033.33
520.65	3321.22
520.83	3536.55
521.00	3452.29
521.17	3620.81
521.34	3173.77
521.52	3246.32
521.69	3328.24
521.86	3433.57
522.03	3583.36
522.20	3728.47
522.38	3185.47
522.55	3356.33
522.72	2998.23
522.89	3522.51
523.07	3960.19
523.24	3393.78
523.41	3255.69
523.58	3461.65
523.75	3372.71
523.92	3272.07
524.10	3520.17
524.27	3501.44
524.44	3372.71
524.61	3737.84
524.78	3232.28
524.96	3445.27
525.13	3487.40
525.30	3658.26
525.47	3709.75
525.64	3396.12
525.81	3417.18
525.98	3302.50
526.16	3152.70
526.33	2918.65
526.50	2850.77
526.67	2951.42
526.84	2918.65
527.01	3110.57
527.18	3323.56
527.36	3403.14
527.53	3234.62
527.70	3681.66
527.87	3449.95
528.04	3953.16
528.21	3267.39
528.38	3829.12
528.55	3962.53
528.72	3936.78
528.89	4163.81
529.07	3545.91
529.24	3566.98
529.41	3840.82
529.58	3536.55
529.75	3377.39
529.92	3665.28
530.09	3496.76
530.26	3826.78
530.43	3651.24
530.60	3571.66
530.77	3574.00
530.94	3744.86
531.11	3660.60
531.28	3686.34
531.46	3251.00
531.63	3637.19
531.80	3583.36
531.97	3655.92
532.14	3459.31
532.31	3480.38
532.48	3414.84
532.65	3318.88
532.82	3187.81
532.99	3487.40
533.16	3517.83
533.33	3590.38
533.50	3452.29
533.67	3361.01
533.84	3674.64
534.01	3541.23
534.18	3325.90
534.35	3588.04
534.52	3609.11
534.69	4320.63
534.86	3517.83
535.03	3674.64
535.20	3688.68
535.37	3899.33
535.54	3716.77
535.71	3609.11
535.88	4063.17
536.05	3419.52
536.22	3782.31
536.38	3440.59
536.55	3496.76
536.72	3810.39
536.89	3248.66
537.06	3447.61
537.23	3288.45
537.40	3506.12
537.57	3396.12
537.74	3824.44
537.91	3707.41
538.08	3461.65
538.25	3693.37
538.42	3571.66
538.59	3552.93
538.75	3417.18
538.92	3744.86
539.09	3712.09
539.26	3342.28
539.43	3871.25
539.60	3503.78
539.77	3595.06
539.94	3332.92
540.11	3562.30
540.28	3822.09
540.44	3728.47
540.61	3454.63
540.78	3468.67
540.95	3325.90
541.12	3962.53
541.29	3438.25
541.46	3932.10
541.62	3630.17
541.79	3459.31
541.96	3251.00
542.13	3459.31
542.30	3272.07
542.47	3742.52
542.63	3393.78
542.80	3674.64
542.97	3861.88
543.14	3543.57
543.31	3737.84
543.48	3499.10
543.64	3765.92
543.81	3772.94
543.98	3400.80
544.15	3330.58
544.32	3559.95
544.48	3646.55
544.65	3531.87
544.82	3454.63
544.99	3527.19
545.16	3815.07
545.32	3517.83
545.49	3847.84
545.66	3653.58
545.83	3456.97
546.00	3368.03
546.16	3538.89
546.33	3606.77
546.50	3658.26
546.67	3950.82
546.83	3850.18
547.00	3616.13
547.17	3478.04
547.34	3297.81
547.50	3552.93
547.67	3503.78
547.84	3396.12
548.00	3733.15
548.17	3461.65
548.34	3595.06
548.51	4044.45
548.67	3957.85
548.84	3541.23
549.01	3705.07
549.18	3684.00
549.34	3662.94
549.51	3545.91
549.68	3623.15
549.84	3534.21
550.01	3447.61
550.18	5313.02
550.34	4491.49
550.51	3646.55
550.68	4145.09
550.84	3536.55
551.01	3630.17
551.18	3803.37
551.34	3576.34
551.51	3534.21
551.68	3744.86
551.84	3808.05
552.01	3510.80
552.18	3506.12
552.34	3545.91
552.51	3487.40
552.68	3906.35
552.84	3480.38
553.01	3662.94
553.18	3810.39
553.34	3456.97
553.51	3370.37
553.67	3789.33
553.84	4217.65
554.01	3819.75
554.17	3733.15
554.34	3417.18
554.51	3887.63
554.67	4004.66
554.84	3833.80
555.00	3658.26
555.17	3688.68
555.33	3887.63
555.50	3770.60
555.67	3714.43
555.83	3400.80
556.00	3712.09
556.16	5659.42
556.33	3819.75
556.50	3431.23
556.66	3449.95
556.83	3398.46
556.99	3438.25
557.16	3660.60
557.32	3597.40
557.49	3538.89
557.65	3487.40
557.82	3414.84
557.98	3740.18
558.15	3442.93
558.32	3349.31
558.48	3356.33
558.65	3337.60
558.81	3482.72
558.98	3449.95
559.14	3660.60
559.31	3475.70
559.47	3646.55
559.64	3220.58
559.80	3714.43
559.97	3323.56
560.13	3585.70
560.30	3295.47
560.46	3595.06
560.63	3492.08
560.79	3536.55
560.96	3698.05
561.12	3311.86
561.29	3471.01
561.45	3428.88
561.61	3578.68
561.78	4564.04
561.94	3478.04
562.11	3419.52
562.27	3627.83
562.44	3274.41
562.60	3531.87
562.77	3461.65
562.93	4262.12
563.10	3564.64
563.26	3330.58
563.42	3854.86
563.59	3571.66
563.75	3382.07
563.92	3939.12
564.08	3632.51
564.24	3887.63
564.41	4117.00
564.57	3138.66
564.74	3382.07
564.90	3588.04
565.07	3744.86
565.23	3665.28
565.39	3403.14
565.56	3480.38
565.72	3218.24
565.88	3487.40
566.05	3339.94
566.21	3456.97
566.38	3550.59
566.54	3492.08
566.70	3384.41
566.87	3382.07
567.03	3393.78
567.19	3604.42
567.36	3796.35
567.52	3475.70
567.68	3620.81
567.85	3473.36
568.01	3241.64
568.17	3239.30
568.34	3372.71
568.50	3679.32
568.66	3297.81
568.83	4255.09
568.99	3368.03
569.15	3552.93
569.32	3339.94
569.48	3351.65
569.64	3166.74
569.81	3286.11
569.97	3248.66
570.13	3658.26
570.30	3166.74
570.46	3246.32
570.62	3204.19
570.78	3190.15
570.95	3059.08
571.11	3889.97
571.27	3948.48
571.43	3141.00
571.60	3545.91
571.76	3349.31
571.92	3524.85
572.09	3431.23
572.25	3356.33
572.41	3396.12
572.57	3452.29
572.74	3889.97
572.90	3674.64
573.06	3545.91
573.22	3625.49
573.38	3765.92
573.55	3578.68
573.71	3705.07
573.87	3646.55
574.03	3204.19
574.20	3382.07
574.36	3632.51
574.52	3199.51
574.68	3267.39
574.84	3447.61
575.01	3363.35
575.17	3548.25
575.33	3351.65
575.49	3595.06
575.65	3588.04
575.82	3562.30
575.98	4030.40
576.14	3368.03
576.30	3440.59
576.46	3435.91
576.62	3419.52
576.79	3566.98
576.95	3812.73
577.11	3246.32
577.27	3279.09
577.43	3695.71
577.59	3730.81
577.75	3562.30
577.92	3201.85
578.08	3180.79
578.24	3183.13
578.40	3583.36
578.56	3662.94
578.72	3667.62
578.88	3496.76
579.04	3323.56
579.21	3377.39
579.37	3510.80
579.53	3229.94
579.69	3691.02
579.85	3290.79
580.01	3564.64
580.17	3180.79
580.33	3255.69
580.49	3463.99
580.65	3536.55
580.82	3449.95
580.98	3108.23
581.14	3272.07
581.30	3744.86
581.46	3471.01
581.62	3613.79
581.78	3379.73
581.94	3574.00
582.10	3215.90
582.26	3435.91
582.42	3330.58
582.58	3543.57
582.74	3300.16
582.90	3529.53
583.06	3459.31
583.22	3513.14
583.38	3372.71
583.54	3258.03
583.70	3831.46
583.86	3501.44
584.02	3339.94
584.18	3786.99
584.34	3300.16
584.50	3456.97
584.66	3353.99
584.82	3267.39
584.98	3328.24
585.14	3225.26
585.30	3571.66
585.46	3316.54
585.62	3005.25
585.78	3279.09
585.94	3459.31
586.10	3365.69
586.26	3393.78
586.42	3943.80
586.58	3559.95
586.74	3346.97
586.90	3426.54
587.06	3555.27
587.22	3487.40
587.38	3267.39
587.54	3272.07
587.70	3627.83
587.86	3435.91
588.02	3136.32
588.18	3262.71
588.34	3321.22
588.49	2548.84
588.65	2951.42
588.81	2853.11
588.97	2729.06
589.13	3009.93
589.29	3087.17
589.45	3239.30
589.61	3066.10
589.77	3466.33
589.93	3080.14
590.08	2963.12
590.24	3042.70
590.40	3110.57
590.56	3466.33
590.72	3178.45
590.88	3012.27
591.04	3187.81
591.20	3218.24
591.35	3555.27
591.51	3241.64
591.67	3061.42
591.83	3126.96
591.99	3382.07
592.15	3332.92
592.31	3276.75
592.46	3112.91
592.62	3318.88
592.78	2967.80
592.94	3080.14
593.10	3009.93
593.26	3009.93
593.41	3332.92
593.57	3262.71
593.73	3126.96
593.89	3496.76
594.05	3038.02
594.20	3000.57
594.36	3389.10
594.52	2871.84
594.68	2928.01
594.84	3421.86
594.99	3595.06
595.15	3211.22
595.31	3323.56
595.47	3688.68
595.62	3220.58
595.78	3138.66
595.94	3103.55
596.10	3461.65
596.25	3276.75
596.41	3543.57
596.57	3019.29
596.73	3056.74
596.88	3164.40
597.04	3152.70
597.20	2988.86
597.36	3180.79
597.51	3040.36
597.67	3087.17
597.83	3066.10
597.99	3468.67
598.14	2995.89
598.30	3417.18
598.46	3049.72
598.61	3503.78
598.77	3262.71
598.93	3028.65
599.09	3141.00
599.24	3155.04
