SpectraSuite Data File
++++++++++++++++++++++++++++++++++++
Date: Mon Oct 07 14:59:56 GMT-05:00 2013
User: price-jones
Dark Spectrum Present: No
Reference Spectrum Present: No
Number of Sampled Component Spectra: 1
Spectrometers: USB2+H05261
Integration Time (usec): 100000 (USB2+H05261)
Spectra Averaged: 1 (USB2+H05261)
Boxcar Smoothing: 0 (USB2+H05261)
Correct for Electrical Dark: No (USB2+H05261)
Strobe/Lamp Enabled: No (USB2+H05261)
Correct for Detector Non-linearity: No (USB2+H05261)
Correct for Stray Light: No (USB2+H05261)
Number of Pixels in Processed Spectrum: 2048
>>>>>Begin Processed Spectral Data<<<<<
365.73	0.00
365.92	0.00
366.12	0.00
366.32	0.00
366.52	0.00
366.72	0.00
366.91	0.00
367.11	0.00
367.31	0.00
367.51	0.00
367.70	0.00
367.90	0.00
368.10	0.00
368.30	0.00
368.49	0.00
368.69	0.00
368.89	0.00
369.09	0.00
369.28	0.00
369.48	0.00
369.68	0.00
369.87	0.00
370.07	0.00
370.27	0.00
370.47	0.00
370.66	0.00
370.86	0.00
371.06	0.00
371.25	0.00
371.45	0.00
371.65	0.00
371.84	0.00
372.04	0.00
372.24	0.00
372.44	0.00
372.63	0.00
372.83	0.00
373.03	0.00
373.22	0.00
373.42	0.00
373.62	0.00
373.81	0.00
374.01	0.00
374.21	0.00
374.40	0.00
374.60	0.00
374.79	0.00
374.99	0.00
375.19	0.00
375.38	0.00
375.58	0.00
375.78	0.00
375.97	0.00
376.17	0.00
376.37	0.00
376.56	0.00
376.76	0.00
376.95	0.00
377.15	0.00
377.35	0.00
377.54	0.00
377.74	0.00
377.93	0.00
378.13	0.00
378.33	0.00
378.52	0.00
378.72	0.00
378.91	0.00
379.11	0.00
379.31	0.00
379.50	0.00
379.70	0.00
379.89	0.00
380.09	0.00
380.28	0.00
380.48	0.00
380.68	0.00
380.87	0.00
381.07	0.00
381.26	0.00
381.46	0.00
381.65	0.00
381.85	0.00
382.04	0.00
382.24	0.00
382.43	0.00
382.63	0.00
382.83	0.00
383.02	0.00
383.22	0.00
383.41	0.00
383.61	0.00
383.80	0.00
384.00	0.00
384.19	0.00
384.39	0.00
384.58	0.00
384.78	0.00
384.97	0.00
385.17	0.00
385.36	0.00
385.56	0.00
385.75	0.00
385.95	0.00
386.14	0.00
386.34	0.00
386.53	0.00
386.72	0.00
386.92	0.00
387.11	0.00
387.31	0.00
387.50	0.00
387.70	0.00
387.89	0.00
388.09	0.00
388.28	0.00
388.48	0.00
388.67	0.00
388.86	0.00
389.06	0.00
389.25	0.00
389.45	0.00
389.64	0.00
389.84	0.00
390.03	0.00
390.22	0.00
390.42	0.00
390.61	0.00
390.81	0.00
391.00	0.00
391.19	0.00
391.39	0.00
391.58	0.00
391.78	0.00
391.97	0.00
392.16	0.00
392.36	0.00
392.55	0.00
392.75	0.00
392.94	0.00
393.13	0.00
393.33	0.00
393.52	0.00
393.71	0.00
393.91	0.00
394.10	0.00
394.29	0.00
394.49	0.00
394.68	0.00
394.88	0.00
395.07	0.00
395.26	0.00
395.46	0.00
395.65	0.00
395.84	0.00
396.04	0.00
396.23	0.00
396.42	0.00
396.62	0.00
396.81	0.00
397.00	0.00
397.19	0.00
397.39	0.00
397.58	0.00
397.77	0.00
397.97	0.00
398.16	0.00
398.35	0.00
398.55	0.00
398.74	0.00
398.93	0.00
399.12	0.00
399.32	0.00
399.51	0.00
399.70	0.00
399.90	0.00
400.09	0.00
400.28	0.00
400.47	0.00
400.67	0.00
400.86	0.00
401.05	0.00
401.24	0.00
401.44	0.00
401.63	0.00
401.82	0.00
402.01	0.00
402.21	0.00
402.40	0.00
402.59	0.00
402.78	0.00
402.97	0.00
403.17	0.00
403.36	0.00
403.55	0.00
403.74	0.00
403.93	0.00
404.13	0.00
404.32	0.00
404.51	0.00
404.70	0.00
404.89	0.00
405.09	0.00
405.28	0.00
405.47	0.00
405.66	0.00
405.85	0.00
406.05	0.00
406.24	0.00
406.43	0.00
406.62	0.00
406.81	0.00
407.00	0.00
407.20	0.00
407.39	0.00
407.58	0.00
407.77	0.00
407.96	0.00
408.15	0.00
408.34	0.00
408.54	0.00
408.73	0.00
408.92	0.00
409.11	0.00
409.30	0.00
409.49	0.00
409.68	0.00
409.87	0.00
410.07	0.00
410.26	0.00
410.45	0.00
410.64	0.00
410.83	0.00
411.02	0.00
411.21	0.00
411.40	0.00
411.59	0.00
411.78	0.00
411.98	0.00
412.17	0.00
412.36	0.00
412.55	0.00
412.74	0.00
412.93	0.00
413.12	0.00
413.31	0.00
413.50	0.00
413.69	0.00
413.88	0.00
414.07	0.00
414.26	0.00
414.45	0.00
414.64	0.00
414.83	0.00
415.02	0.00
415.22	0.00
415.41	0.00
415.60	0.00
415.79	0.00
415.98	0.00
416.17	0.00
416.36	0.00
416.55	0.00
416.74	0.00
416.93	0.00
417.12	0.00
417.31	0.00
417.50	0.00
417.69	0.00
417.88	0.00
418.07	0.00
418.26	0.00
418.45	0.00
418.64	0.00
418.83	0.00
419.02	0.00
419.21	0.00
419.39	0.00
419.58	0.00
419.77	0.00
419.96	0.00
420.15	0.00
420.34	0.00
420.53	0.00
420.72	0.00
420.91	0.00
421.10	0.00
421.29	0.00
421.48	0.00
421.67	0.00
421.86	0.00
422.05	0.00
422.24	0.00
422.43	0.00
422.61	0.00
422.80	0.00
422.99	0.00
423.18	0.00
423.37	0.00
423.56	0.00
423.75	0.00
423.94	0.00
424.13	0.00
424.32	0.00
424.50	0.00
424.69	0.00
424.88	0.00
425.07	0.00
425.26	0.00
425.45	0.00
425.64	0.00
425.83	0.00
426.01	0.00
426.20	0.00
426.39	0.00
426.58	0.00
426.77	0.00
426.96	0.00
427.15	0.00
427.33	0.00
427.52	0.00
427.71	0.00
427.90	0.00
428.09	0.00
428.28	0.00
428.46	0.00
428.65	0.00
428.84	0.00
429.03	0.00
429.22	0.00
429.40	0.00
429.59	0.00
429.78	0.00
429.97	0.00
430.16	0.00
430.34	0.00
430.53	0.00
430.72	0.00
430.91	0.00
431.10	0.00
431.28	0.00
431.47	0.00
431.66	0.00
431.85	0.00
432.03	0.00
432.22	0.00
432.41	0.00
432.60	0.00
432.79	0.00
432.97	0.00
433.16	0.00
433.35	0.00
433.54	0.00
433.72	0.00
433.91	0.00
434.10	0.00
434.28	0.00
434.47	0.00
434.66	0.00
434.85	0.00
435.03	0.00
435.22	0.00
435.41	0.00
435.59	0.00
435.78	0.00
435.97	0.00
436.16	0.00
436.34	0.00
436.53	0.00
436.72	0.00
436.90	0.00
437.09	0.00
437.28	0.00
437.46	0.00
437.65	0.00
437.84	0.00
438.02	0.00
438.21	0.00
438.40	0.00
438.58	0.00
438.77	0.00
438.96	0.00
439.14	0.00
439.33	0.00
439.52	0.00
439.70	0.00
439.89	0.00
440.08	0.00
440.26	0.00
440.45	0.00
440.63	0.00
440.82	0.00
441.01	0.00
441.19	0.00
441.38	0.00
441.57	0.00
441.75	0.00
441.94	7.02
442.12	0.00
442.31	0.00
442.50	0.00
442.68	0.00
442.87	0.00
443.05	0.00
443.24	0.00
443.43	0.00
443.61	0.00
443.80	0.00
443.98	0.00
444.17	46.81
444.35	42.13
444.54	0.00
444.73	0.00
444.91	0.00
445.10	0.00
445.28	0.00
445.47	0.00
445.65	0.00
445.84	0.00
446.02	0.00
446.21	0.00
446.39	0.00
446.58	0.00
446.77	0.00
446.95	0.00
447.14	0.00
447.32	32.77
447.51	0.00
447.69	0.00
447.88	0.00
448.06	0.00
448.25	0.00
448.43	0.00
448.62	0.00
448.80	0.00
448.99	0.00
449.17	0.00
449.36	0.00
449.54	11.70
449.73	0.00
449.91	0.00
450.10	0.00
450.28	9.36
450.46	16.38
450.65	16.38
450.83	0.00
451.02	0.00
451.20	0.00
451.39	0.00
451.57	0.00
451.76	0.00
451.94	0.00
452.13	0.00
452.31	11.70
452.49	0.00
452.68	0.00
452.86	0.00
453.05	0.00
453.23	0.00
453.42	0.00
453.60	0.00
453.78	0.00
453.97	4.68
454.15	25.75
454.34	0.00
454.52	0.00
454.70	0.00
454.89	0.00
455.07	0.00
455.26	9.36
455.44	4.68
455.62	0.00
455.81	28.09
455.99	0.00
456.17	0.00
456.36	0.00
456.54	0.00
456.73	0.00
456.91	0.00
457.09	0.00
457.28	46.81
457.46	0.00
457.64	0.00
457.83	0.00
458.01	0.00
458.19	0.00
458.38	0.00
458.56	25.75
458.74	28.09
458.93	7.02
459.11	0.00
459.29	0.00
459.48	2.34
459.66	0.00
459.84	0.00
460.03	21.06
460.21	56.17
460.39	0.00
460.57	37.45
460.76	0.00
460.94	0.00
461.12	9.36
461.31	0.00
461.49	0.00
461.67	0.00
461.85	0.00
462.04	51.49
462.22	617.90
462.40	0.00
462.59	0.00
462.77	70.22
462.95	0.00
463.13	0.00
463.32	44.47
463.50	0.00
463.68	11.70
463.86	0.00
464.05	0.00
464.23	0.00
464.41	0.00
464.59	0.00
464.78	18.72
464.96	0.00
465.14	0.00
465.32	0.00
465.50	42.13
465.69	7.02
465.87	0.00
466.05	49.15
466.23	0.00
466.41	25.75
466.60	0.00
466.78	0.00
466.96	25.75
467.14	0.00
467.32	14.04
467.51	25.75
467.69	53.83
467.87	46.81
468.05	0.00
468.23	11.70
468.41	53.83
468.60	0.00
468.78	37.45
468.96	23.41
469.14	0.00
469.32	0.00
469.50	0.00
469.69	0.00
469.87	42.13
470.05	0.00
470.23	0.00
470.41	0.00
470.59	0.00
470.77	0.00
470.95	0.00
471.14	93.62
471.32	0.00
471.50	44.47
471.68	0.00
471.86	110.01
472.04	0.00
472.22	0.00
472.40	0.00
472.58	0.00
472.77	0.00
472.95	25.75
473.13	11.70
473.31	60.85
473.49	0.00
473.67	0.00
473.85	18.72
474.03	0.00
474.21	0.00
474.39	39.79
474.57	46.81
474.75	14.04
474.93	53.83
475.12	35.11
475.30	53.83
475.48	23.41
475.66	0.00
475.84	37.45
476.02	0.00
476.20	46.81
476.38	23.41
476.56	105.32
476.74	39.79
476.92	16.38
477.10	102.98
477.28	0.00
477.46	0.00
477.64	4.68
477.82	133.41
478.00	23.41
478.18	42.13
478.36	0.00
478.54	0.00
478.72	0.00
478.90	0.00
479.08	72.56
479.26	65.54
479.44	16.38
479.62	21.06
479.80	63.19
479.98	79.58
480.16	32.77
480.34	70.22
480.52	0.00
480.70	49.15
480.88	35.11
481.06	25.75
481.24	9.36
481.41	65.54
481.59	114.69
481.77	105.32
481.95	56.17
482.13	58.51
482.31	0.00
482.49	2.34
482.67	28.09
482.85	86.60
483.03	11.70
483.21	105.32
483.39	25.75
483.57	91.28
483.74	35.11
483.92	79.58
484.10	0.00
484.28	173.20
484.46	201.29
484.64	140.43
484.82	56.17
485.00	51.49
485.18	44.47
485.35	30.43
485.53	0.00
485.71	9.36
485.89	0.00
486.07	30.43
486.25	198.95
486.43	32.77
486.61	53.83
486.78	114.69
486.96	9.36
487.14	100.64
487.32	100.64
487.50	25.75
487.68	58.51
487.85	23.41
488.03	86.60
488.21	128.73
488.39	100.64
488.57	30.43
488.75	70.22
488.92	482.15
489.10	173.20
489.28	222.35
489.46	105.32
489.64	184.90
489.81	51.49
489.99	131.07
490.17	156.82
490.35	231.71
490.53	173.20
490.70	39.79
490.88	152.13
491.06	231.71
491.24	81.92
491.41	168.52
491.59	128.73
491.77	86.60
491.95	23.41
492.13	182.56
492.30	180.22
492.48	182.56
492.66	135.75
492.84	163.84
493.01	147.45
493.19	166.18
493.37	210.65
493.54	138.09
493.72	142.77
493.90	156.82
494.08	189.58
494.25	88.94
494.43	128.73
494.61	159.16
494.79	154.48
494.96	194.26
495.14	222.35
495.32	84.26
495.49	208.31
495.67	203.63
495.85	234.05
496.02	224.69
496.20	280.86
496.38	126.39
496.55	217.67
496.73	201.29
496.91	191.92
497.09	168.52
497.26	184.90
497.44	175.54
497.62	147.45
497.79	152.13
497.97	205.97
498.14	198.95
498.32	159.16
498.50	128.73
498.67	187.24
498.85	182.56
499.03	210.65
499.20	201.29
499.38	152.13
499.56	238.73
499.73	217.67
499.91	107.66
500.08	271.50
500.26	250.44
500.44	196.60
500.61	236.39
500.79	159.16
500.97	175.54
501.14	250.44
501.32	128.73
501.49	154.48
501.67	231.71
501.84	194.26
502.02	201.29
502.20	264.48
502.37	227.03
502.55	264.48
502.72	175.54
502.90	243.42
503.07	182.56
503.25	276.18
503.43	248.10
503.60	203.63
503.78	243.42
503.95	170.86
504.13	224.69
504.30	334.70
504.48	262.14
504.65	269.16
504.83	262.14
505.01	215.33
505.18	220.01
505.36	259.80
505.53	262.14
505.71	259.80
505.88	245.76
506.06	187.24
506.23	238.73
506.41	149.79
506.58	180.22
506.76	299.59
506.93	210.65
507.11	283.20
507.28	210.65
507.46	266.82
507.63	241.08
507.81	175.54
507.98	252.78
508.16	194.26
508.33	266.82
508.50	283.20
508.68	269.16
508.85	229.37
509.03	327.68
509.20	271.50
509.38	283.20
509.55	311.29
509.73	346.40
509.90	311.29
510.08	271.50
510.25	276.18
510.42	168.52
510.60	227.03
510.77	262.14
510.95	271.50
511.12	210.65
511.30	203.63
511.47	248.10
511.64	348.74
511.82	287.89
511.99	271.50
512.17	285.55
512.34	299.59
512.51	290.23
512.69	297.25
512.86	388.53
513.04	304.27
513.21	280.86
513.38	250.44
513.56	229.37
513.73	278.52
513.90	250.44
514.08	330.02
514.25	271.50
514.43	259.80
514.60	241.08
514.77	257.46
514.95	355.76
515.12	241.08
515.29	255.12
515.47	250.44
515.64	346.40
515.81	229.37
515.99	306.61
516.16	276.18
516.33	229.37
516.51	250.44
516.68	191.92
516.85	168.52
517.03	271.50
517.20	257.46
517.37	255.12
517.54	273.84
517.72	220.01
517.89	147.45
518.06	126.39
518.24	308.95
518.41	353.42
518.58	292.57
518.75	217.67
518.93	210.65
519.10	215.33
519.27	339.38
519.45	278.52
519.62	262.14
519.79	229.37
519.96	236.39
520.14	262.14
520.31	234.05
520.48	184.90
520.65	227.03
520.83	372.15
521.00	334.70
521.17	365.12
521.34	252.78
521.52	273.84
521.69	355.76
521.86	344.06
522.03	322.99
522.20	276.18
522.38	339.38
522.55	297.25
522.72	229.37
522.89	140.43
523.07	320.65
523.24	332.36
523.41	360.44
523.58	283.20
523.75	271.50
523.92	365.12
524.10	315.97
524.27	322.99
524.44	262.14
524.61	381.51
524.78	276.18
524.96	283.20
525.13	257.46
525.30	355.76
525.47	360.44
525.64	269.16
525.81	351.08
525.98	285.55
526.16	315.97
526.33	245.76
526.50	248.10
526.67	227.03
526.84	182.56
527.01	243.42
527.18	301.93
527.36	294.91
527.53	285.55
527.70	339.38
527.87	365.12
528.04	308.95
528.21	299.59
528.38	330.02
528.55	315.97
528.72	444.70
528.89	402.57
529.07	341.72
529.24	388.53
529.41	414.27
529.58	388.53
529.75	416.62
529.92	322.99
530.09	330.02
530.26	372.15
530.43	381.51
530.60	360.44
530.77	358.10
530.94	383.85
531.11	341.72
531.28	264.48
531.46	346.40
531.63	315.97
531.80	393.21
531.97	325.33
532.14	250.44
532.31	376.83
532.48	330.02
532.65	315.97
532.82	276.18
532.99	283.20
533.16	269.16
533.33	337.04
533.50	381.51
533.67	322.99
533.84	360.44
534.01	313.63
534.18	297.25
534.35	332.36
534.52	285.55
534.69	503.22
534.86	344.06
535.03	315.97
535.20	339.38
535.37	320.65
535.54	400.23
535.71	393.21
535.88	346.40
536.05	372.15
536.22	313.63
536.38	315.97
536.55	301.93
536.72	386.19
536.89	248.10
537.06	311.29
537.23	334.70
537.40	313.63
537.57	337.04
537.74	304.27
537.91	344.06
538.08	301.93
538.25	416.62
538.42	341.72
538.59	372.15
538.75	383.85
538.92	327.68
539.09	428.32
539.26	346.40
539.43	395.55
539.60	402.57
539.77	442.36
539.94	381.51
540.11	252.78
540.28	358.10
540.44	344.06
540.61	266.82
540.78	278.52
540.95	332.36
541.12	416.62
541.29	243.42
541.46	428.32
541.62	278.52
541.79	327.68
541.96	334.70
542.13	351.08
542.30	351.08
542.47	369.80
542.63	348.74
542.80	337.04
542.97	353.42
543.14	341.72
543.31	393.21
543.48	397.89
543.64	339.38
543.81	362.78
543.98	308.95
544.15	362.78
544.32	416.62
544.48	369.80
544.65	304.27
544.82	327.68
544.99	341.72
545.16	308.95
545.32	346.40
545.49	358.10
545.66	362.78
545.83	332.36
546.00	308.95
546.16	301.93
546.33	360.44
546.50	327.68
546.67	360.44
546.83	458.74
547.00	365.12
547.17	337.04
547.34	290.23
547.50	418.96
547.67	348.74
547.84	334.70
548.00	353.42
548.17	339.38
548.34	285.55
548.51	381.51
548.67	383.85
548.84	400.23
549.01	416.62
549.18	330.02
549.34	397.89
549.51	365.12
549.68	421.30
549.84	355.76
550.01	351.08
550.18	486.83
550.34	447.04
550.51	367.46
550.68	451.72
550.84	351.08
551.01	339.38
551.18	339.38
551.34	339.38
551.51	346.40
551.68	332.36
551.84	297.25
552.01	276.18
552.18	388.53
552.34	435.34
552.51	388.53
552.68	383.85
552.84	327.68
553.01	444.70
553.18	362.78
553.34	299.59
553.51	353.42
553.67	383.85
553.84	418.96
554.01	397.89
554.17	341.72
554.34	334.70
554.51	330.02
554.67	379.17
554.84	355.76
555.00	330.02
555.17	355.76
555.33	433.00
555.50	402.57
555.67	402.57
555.83	351.08
556.00	337.04
556.16	540.66
556.33	383.85
556.50	313.63
556.66	264.48
556.83	264.48
556.99	365.12
557.16	290.23
557.32	358.10
557.49	365.12
557.65	283.20
557.82	304.27
557.98	337.04
558.15	372.15
558.32	315.97
558.48	353.42
558.65	290.23
558.81	294.91
558.98	435.34
559.14	337.04
559.31	353.42
559.47	327.68
559.64	332.36
559.80	358.10
559.97	318.31
560.13	351.08
560.30	341.72
560.46	266.82
560.63	348.74
560.79	360.44
560.96	315.97
561.12	372.15
561.29	351.08
561.45	283.20
561.61	259.80
561.78	360.44
561.94	266.82
562.11	313.63
562.27	290.23
562.44	337.04
562.60	290.23
562.77	383.85
562.93	425.98
563.10	348.74
563.26	381.51
563.42	374.49
563.59	355.76
563.75	287.89
563.92	346.40
564.08	421.30
564.24	409.59
564.41	435.34
564.57	301.93
564.74	390.87
564.90	337.04
565.07	344.06
565.23	379.17
565.39	313.63
565.56	308.95
565.72	322.99
565.88	301.93
566.05	292.57
566.21	376.83
566.38	337.04
566.54	250.44
566.70	290.23
566.87	266.82
567.03	273.84
567.19	353.42
567.36	292.57
567.52	320.65
567.68	362.78
567.85	266.82
568.01	306.61
568.17	217.67
568.34	308.95
568.50	433.00
568.66	320.65
568.83	301.93
568.99	365.12
569.15	365.12
569.32	327.68
569.48	339.38
569.64	330.02
569.81	238.73
569.97	269.16
570.13	315.97
570.30	292.57
570.46	245.76
570.62	266.82
570.78	344.06
570.95	304.27
571.11	315.97
571.27	407.25
571.43	315.97
571.60	383.85
571.76	280.86
571.92	400.23
572.09	292.57
572.25	367.46
572.41	301.93
572.57	341.72
572.74	444.70
572.90	337.04
573.06	348.74
573.22	430.66
573.38	313.63
573.55	294.91
573.71	360.44
573.87	423.64
574.03	287.89
574.20	325.33
574.36	395.55
574.52	337.04
574.68	250.44
574.84	322.99
575.01	299.59
575.17	447.04
575.33	362.78
575.49	353.42
575.65	365.12
575.82	379.17
575.98	379.17
576.14	283.20
576.30	339.38
576.46	306.61
576.62	301.93
576.79	285.55
576.95	285.55
577.11	344.06
577.27	374.49
577.43	276.18
577.59	367.46
577.75	301.93
577.92	290.23
578.08	278.52
578.24	227.03
578.40	362.78
578.56	388.53
578.72	376.83
578.88	308.95
579.04	320.65
579.21	311.29
579.37	304.27
579.53	327.68
579.69	367.46
579.85	248.10
580.01	372.15
580.17	313.63
580.33	322.99
580.49	320.65
580.65	269.16
580.82	339.38
580.98	332.36
581.14	325.33
581.30	299.59
581.46	325.33
581.62	337.04
581.78	372.15
581.94	360.44
582.10	250.44
582.26	337.04
582.42	259.80
582.58	299.59
582.74	280.86
582.90	339.38
583.06	353.42
583.22	236.39
583.38	257.46
583.54	292.57
583.70	360.44
583.86	360.44
584.02	397.89
584.18	383.85
584.34	362.78
584.50	348.74
584.66	322.99
584.82	318.31
584.98	390.87
585.14	299.59
585.30	313.63
585.46	297.25
585.62	299.59
585.78	294.91
585.94	276.18
586.10	383.85
586.26	285.55
586.42	379.17
586.58	297.25
586.74	283.20
586.90	311.29
587.06	245.76
587.22	280.86
587.38	290.23
587.54	395.55
587.70	294.91
587.86	320.65
588.02	341.72
588.18	334.70
588.34	271.50
588.49	252.78
588.65	264.48
588.81	231.71
588.97	231.71
589.13	210.65
589.29	269.16
589.45	248.10
589.61	259.80
589.77	334.70
589.93	297.25
590.08	313.63
590.24	301.93
590.40	306.61
590.56	290.23
590.72	280.86
590.88	313.63
591.04	266.82
591.20	248.10
591.35	379.17
591.51	255.12
591.67	294.91
591.83	264.48
591.99	250.44
592.15	322.99
592.31	358.10
592.46	196.60
592.62	318.31
592.78	187.24
592.94	283.20
593.10	252.78
593.26	266.82
593.41	381.51
593.57	276.18
593.73	287.89
593.89	337.04
594.05	269.16
594.20	285.55
594.36	273.84
594.52	250.44
594.68	311.29
594.84	341.72
594.99	358.10
595.15	243.42
595.31	332.36
595.47	241.08
595.62	280.86
595.78	245.76
595.94	322.99
596.10	276.18
596.25	220.01
596.41	337.04
596.57	287.89
596.73	358.10
596.88	257.46
597.04	250.44
597.20	306.61
597.36	278.52
597.51	182.56
597.67	276.18
597.83	276.18
597.99	313.63
598.14	220.01
598.30	278.52
598.46	311.29
598.61	339.38
598.77	339.38
598.93	266.82
599.09	313.63
599.24	355.76
599.40	332.36
599.56	322.99
599.71	287.89
599.87	301.93
600.03	248.10
600.18	299.59
600.34	297.25
600.50	262.14
600.65	205.97
600.81	292.57
600.97	266.82
601.12	318.31
601.28	287.89
601.44	271.50
601.59	259.80
601.75	280.86
601.91	215.33
602.06	341.72
602.22	332.36
602.37	266.82
602.53	243.42
602.69	269.16
602.84	205.97
603.00	308.95
603.16	301.93
603.31	308.95
603.47	304.27
603.62	250.44
603.78	243.42
603.94	227.03
604.09	229.37
604.25	318.31
604.40	433.00
604.56	257.46
604.71	294.91
604.87	334.70
605.03	292.57
605.18	353.42
605.34	304.27
605.49	271.50
605.65	191.92
605.80	278.52
605.96	255.12
606.12	184.90
606.27	346.40
606.43	243.42
606.58	322.99
606.74	367.46
606.89	311.29
607.05	271.50
607.20	327.68
607.36	220.01
607.51	325.33
607.67	283.20
607.82	245.76
607.98	290.23
608.13	327.68
608.29	156.82
608.44	266.82
608.60	236.39
608.75	322.99
608.91	290.23
609.06	250.44
609.22	294.91
609.37	205.97
609.53	191.92
609.68	285.55
609.84	234.05
609.99	215.33
610.15	248.10
610.30	252.78
610.46	264.48
610.61	252.78
610.76	250.44
610.92	292.57
611.07	271.50
611.23	360.44
611.38	238.73
611.54	245.76
611.69	266.82
611.84	252.78
612.00	234.05
612.15	224.69
612.31	236.39
612.46	236.39
612.62	184.90
612.77	292.57
612.92	287.89
613.08	245.76
613.23	229.37
613.39	156.82
613.54	241.08
613.69	187.24
613.85	196.60
614.00	215.33
614.15	271.50
614.31	259.80
614.46	222.35
614.62	241.08
614.77	351.08
614.92	304.27
615.08	220.01
615.23	227.03
615.38	248.10
615.54	248.10
615.69	154.48
615.84	154.48
616.00	182.56
616.15	203.63
616.30	191.92
616.46	252.78
616.61	140.43
616.76	262.14
616.92	262.14
617.07	128.73
617.22	142.77
617.37	180.22
617.53	250.44
617.68	161.50
617.83	297.25
617.99	290.23
618.14	217.67
618.29	297.25
618.45	264.48
618.60	299.59
618.75	203.63
618.90	182.56
619.06	231.71
619.21	252.78
619.36	238.73
619.51	189.58
619.67	184.90
619.82	250.44
619.97	222.35
620.12	224.69
620.28	182.56
620.43	182.56
620.58	222.35
620.73	177.88
620.89	208.31
621.04	264.48
621.19	262.14
621.34	208.31
621.49	262.14
621.65	196.60
621.80	236.39
621.95	212.99
622.10	212.99
622.25	177.88
622.41	70.22
622.56	208.31
622.71	208.31
622.86	227.03
623.01	280.86
623.16	236.39
