SpectraSuite Data File
++++++++++++++++++++++++++++++++++++
Date: Mon Oct 07 14:59:57 GMT-05:00 2013
User: price-jones
Dark Spectrum Present: No
Reference Spectrum Present: No
Number of Sampled Component Spectra: 1
Spectrometers: USB2+H05261
Integration Time (usec): 100000 (USB2+H05261)
Spectra Averaged: 1 (USB2+H05261)
Boxcar Smoothing: 0 (USB2+H05261)
Correct for Electrical Dark: No (USB2+H05261)
Strobe/Lamp Enabled: No (USB2+H05261)
Correct for Detector Non-linearity: No (USB2+H05261)
Correct for Stray Light: No (USB2+H05261)
Number of Pixels in Processed Spectrum: 2048
>>>>>Begin Processed Spectral Data<<<<<
365.73	0.00
365.92	0.00
366.12	0.00
366.32	0.00
366.52	0.00
366.72	0.00
366.91	0.00
367.11	0.00
367.31	0.00
367.51	0.00
367.70	0.00
367.90	0.00
368.10	0.00
368.30	0.00
368.49	0.00
368.69	0.00
368.89	0.00
369.09	0.00
369.28	0.00
369.48	0.00
369.68	0.00
369.87	0.00
370.07	0.00
370.27	0.00
370.47	0.00
370.66	0.00
370.86	0.00
371.06	0.00
371.25	0.00
371.45	0.00
371.65	0.00
371.84	0.00
372.04	0.00
372.24	0.00
372.44	0.00
372.63	0.00
372.83	0.00
373.03	0.00
373.22	0.00
373.42	0.00
373.62	0.00
373.81	0.00
374.01	0.00
374.21	0.00
374.40	0.00
374.60	0.00
374.79	0.00
374.99	0.00
375.19	0.00
375.38	0.00
375.58	0.00
375.78	0.00
375.97	0.00
376.17	0.00
376.37	0.00
376.56	0.00
376.76	0.00
376.95	0.00
377.15	0.00
377.35	0.00
377.54	0.00
377.74	0.00
377.93	0.00
378.13	0.00
378.33	0.00
378.52	0.00
378.72	0.00
378.91	0.00
379.11	0.00
379.31	0.00
379.50	0.00
379.70	0.00
379.89	0.00
380.09	0.00
380.28	0.00
380.48	0.00
380.68	0.00
380.87	0.00
381.07	0.00
381.26	0.00
381.46	0.00
381.65	0.00
381.85	0.00
382.04	0.00
382.24	0.00
382.43	0.00
382.63	0.00
382.83	0.00
383.02	0.00
383.22	0.00
383.41	0.00
383.61	0.00
383.80	0.00
384.00	0.00
384.19	0.00
384.39	0.00
384.58	0.00
384.78	0.00
384.97	0.00
385.17	0.00
385.36	0.00
385.56	0.00
385.75	0.00
385.95	0.00
386.14	0.00
386.34	0.00
386.53	0.00
386.72	0.00
386.92	0.00
387.11	0.00
387.31	0.00
387.50	0.00
387.70	0.00
387.89	0.00
388.09	0.00
388.28	0.00
388.48	0.00
388.67	0.00
388.86	0.00
389.06	0.00
389.25	0.00
389.45	0.00
389.64	0.00
389.84	0.00
390.03	0.00
390.22	0.00
390.42	0.00
390.61	0.00
390.81	0.00
391.00	0.00
391.19	0.00
391.39	0.00
391.58	0.00
391.78	0.00
391.97	0.00
392.16	0.00
392.36	0.00
392.55	0.00
392.75	0.00
392.94	0.00
393.13	0.00
393.33	0.00
393.52	0.00
393.71	0.00
393.91	0.00
394.10	0.00
394.29	0.00
394.49	0.00
394.68	0.00
394.88	0.00
395.07	0.00
395.26	0.00
395.46	0.00
395.65	0.00
395.84	0.00
396.04	0.00
396.23	0.00
396.42	0.00
396.62	0.00
396.81	0.00
397.00	0.00
397.19	0.00
397.39	0.00
397.58	0.00
397.77	0.00
397.97	0.00
398.16	0.00
398.35	0.00
398.55	0.00
398.74	0.00
398.93	0.00
399.12	0.00
399.32	0.00
399.51	0.00
399.70	0.00
399.90	0.00
400.09	0.00
400.28	0.00
400.47	0.00
400.67	0.00
400.86	0.00
401.05	0.00
401.24	0.00
401.44	0.00
401.63	0.00
401.82	0.00
402.01	0.00
402.21	0.00
402.40	0.00
402.59	0.00
402.78	0.00
402.97	0.00
403.17	0.00
403.36	0.00
403.55	0.00
403.74	0.00
403.93	0.00
404.13	0.00
404.32	0.00
404.51	0.00
404.70	0.00
404.89	0.00
405.09	0.00
405.28	0.00
405.47	0.00
405.66	0.00
405.85	0.00
406.05	0.00
406.24	0.00
406.43	0.00
406.62	0.00
406.81	0.00
407.00	0.00
407.20	0.00
407.39	0.00
407.58	0.00
407.77	0.00
407.96	0.00
408.15	0.00
408.34	0.00
408.54	0.00
408.73	0.00
408.92	0.00
409.11	0.00
409.30	0.00
409.49	0.00
409.68	0.00
409.87	0.00
410.07	0.00
410.26	0.00
410.45	0.00
410.64	0.00
410.83	0.00
411.02	0.00
411.21	0.00
411.40	0.00
411.59	0.00
411.78	0.00
411.98	0.00
412.17	0.00
412.36	0.00
412.55	0.00
412.74	0.00
412.93	0.00
413.12	0.00
413.31	0.00
413.50	0.00
413.69	0.00
413.88	0.00
414.07	0.00
414.26	0.00
414.45	0.00
414.64	0.00
414.83	0.00
415.02	0.00
415.22	0.00
415.41	0.00
415.60	0.00
415.79	0.00
415.98	0.00
416.17	0.00
416.36	0.00
416.55	0.00
416.74	0.00
416.93	0.00
417.12	0.00
417.31	0.00
417.50	0.00
417.69	0.00
417.88	0.00
418.07	0.00
418.26	0.00
418.45	0.00
418.64	0.00
418.83	0.00
419.02	0.00
419.21	0.00
419.39	0.00
419.58	0.00
419.77	0.00
419.96	0.00
420.15	0.00
420.34	0.00
420.53	0.00
420.72	0.00
420.91	0.00
421.10	0.00
421.29	0.00
421.48	0.00
421.67	0.00
421.86	0.00
422.05	0.00
422.24	0.00
422.43	0.00
422.61	0.00
422.80	0.00
422.99	0.00
423.18	0.00
423.37	0.00
423.56	0.00
423.75	0.00
423.94	0.00
424.13	0.00
424.32	0.00
424.50	0.00
424.69	0.00
424.88	0.00
425.07	0.00
425.26	0.00
425.45	0.00
425.64	0.00
425.83	0.00
426.01	0.00
426.20	0.00
426.39	0.00
426.58	0.00
426.77	0.00
426.96	0.00
427.15	0.00
427.33	0.00
427.52	0.00
427.71	0.00
427.90	0.00
428.09	0.00
428.28	0.00
428.46	0.00
428.65	0.00
428.84	0.00
429.03	0.00
429.22	0.00
429.40	0.00
429.59	0.00
429.78	0.00
429.97	0.00
430.16	0.00
430.34	0.00
430.53	0.00
430.72	0.00
430.91	0.00
431.10	0.00
431.28	0.00
431.47	0.00
431.66	0.00
431.85	0.00
432.03	0.00
432.22	0.00
432.41	0.00
432.60	0.00
432.79	0.00
432.97	0.00
433.16	0.00
433.35	0.00
433.54	0.00
433.72	0.00
433.91	0.00
434.10	0.00
434.28	0.00
434.47	0.00
434.66	0.00
434.85	0.00
435.03	0.00
435.22	0.00
435.41	32.77
435.59	0.00
435.78	0.00
435.97	0.00
436.16	0.00
436.34	0.00
436.53	0.00
436.72	0.00
436.90	0.00
437.09	0.00
437.28	0.00
437.46	0.00
437.65	0.00
437.84	0.00
438.02	0.00
438.21	0.00
438.40	0.00
438.58	0.00
438.77	7.02
438.96	0.00
439.14	0.00
439.33	0.00
439.52	0.00
439.70	0.00
439.89	0.00
440.08	0.00
440.26	0.00
440.45	0.00
440.63	0.00
440.82	32.77
441.01	0.00
441.19	0.00
441.38	0.00
441.57	0.00
441.75	0.00
441.94	0.00
442.12	0.00
442.31	0.00
442.50	0.00
442.68	0.00
442.87	0.00
443.05	0.00
443.24	0.00
443.43	0.00
443.61	7.02
443.80	0.00
443.98	0.00
444.17	0.00
444.35	0.00
444.54	0.00
444.73	0.00
444.91	0.00
445.10	0.00
445.28	0.00
445.47	0.00
445.65	0.00
445.84	0.00
446.02	0.00
446.21	0.00
446.39	0.00
446.58	0.00
446.77	0.00
446.95	0.00
447.14	0.00
447.32	0.00
447.51	0.00
447.69	0.00
447.88	0.00
448.06	0.00
448.25	0.00
448.43	0.00
448.62	0.00
448.80	0.00
448.99	0.00
449.17	0.00
449.36	0.00
449.54	0.00
449.73	0.00
449.91	0.00
450.10	0.00
450.28	4.68
450.46	25.75
450.65	14.04
450.83	11.70
451.02	0.00
451.20	0.00
451.39	0.00
451.57	0.00
451.76	7.02
451.94	0.00
452.13	23.41
452.31	0.00
452.49	0.00
452.68	0.00
452.86	0.00
453.05	0.00
453.23	0.00
453.42	0.00
453.60	0.00
453.78	16.38
453.97	0.00
454.15	0.00
454.34	0.00
454.52	2.34
454.70	0.00
454.89	0.00
455.07	0.00
455.26	0.00
455.44	0.00
455.62	0.00
455.81	0.00
455.99	0.00
456.17	0.00
456.36	7.02
456.54	0.00
456.73	0.00
456.91	0.00
457.09	0.00
457.28	0.00
457.46	0.00
457.64	4.68
457.83	0.00
458.01	0.00
458.19	0.00
458.38	21.06
458.56	0.00
458.74	0.00
458.93	0.00
459.11	0.00
459.29	0.00
459.48	0.00
459.66	0.00
459.84	0.00
460.03	58.51
460.21	0.00
460.39	0.00
460.57	0.00
460.76	0.00
460.94	0.00
461.12	0.00
461.31	0.00
461.49	0.00
461.67	0.00
461.85	0.00
462.04	21.06
462.22	582.79
462.40	44.47
462.59	88.94
462.77	0.00
462.95	0.00
463.13	0.00
463.32	0.00
463.50	28.09
463.68	0.00
463.86	32.77
464.05	39.79
464.23	0.00
464.41	2.34
464.59	0.00
464.78	0.00
464.96	0.00
465.14	0.00
465.32	0.00
465.50	0.00
465.69	23.41
465.87	0.00
466.05	0.00
466.23	0.00
466.41	0.00
466.60	0.00
466.78	0.00
466.96	30.43
467.14	39.79
467.32	0.00
467.51	11.70
467.69	0.00
467.87	23.41
468.05	0.00
468.23	51.49
468.41	0.00
468.60	2.34
468.78	0.00
468.96	51.49
469.14	0.00
469.32	0.00
469.50	0.00
469.69	0.00
469.87	18.72
470.05	0.00
470.23	0.00
470.41	0.00
470.59	23.41
470.77	0.00
470.95	0.00
471.14	28.09
471.32	0.00
471.50	44.47
471.68	18.72
471.86	0.00
472.04	0.00
472.22	32.77
472.40	0.00
472.58	0.00
472.77	0.00
472.95	0.00
473.13	77.24
473.31	35.11
473.49	0.00
473.67	0.00
473.85	0.00
474.03	0.00
474.21	0.00
474.39	0.00
474.57	11.70
474.75	56.17
474.93	7.02
475.12	53.83
475.30	0.00
475.48	0.00
475.66	18.72
475.84	0.00
476.02	0.00
476.20	65.54
476.38	0.00
476.56	51.49
476.74	25.75
476.92	65.54
477.10	28.09
477.28	0.00
477.46	53.83
477.64	44.47
477.82	100.64
478.00	14.04
478.18	0.00
478.36	56.17
478.54	0.00
478.72	0.00
478.90	0.00
479.08	88.94
479.26	7.02
479.44	0.00
479.62	37.45
479.80	79.58
479.98	21.06
480.16	16.38
480.34	67.88
480.52	39.79
480.70	77.24
480.88	44.47
481.06	9.36
481.24	77.24
481.41	0.00
481.59	16.38
481.77	35.11
481.95	56.17
482.13	142.77
482.31	86.60
482.49	0.00
482.67	98.30
482.85	0.00
483.03	88.94
483.21	86.60
483.39	65.54
483.57	37.45
483.74	93.62
483.92	18.72
484.10	86.60
484.28	147.45
484.46	189.58
484.64	170.86
484.82	32.77
485.00	0.00
485.18	39.79
485.35	117.03
485.53	81.92
485.71	72.56
485.89	0.00
486.07	21.06
486.25	128.73
486.43	25.75
486.61	117.03
486.78	112.35
486.96	0.00
487.14	88.94
487.32	46.81
487.50	65.54
487.68	70.22
487.85	84.26
488.03	91.28
488.21	138.09
488.39	131.07
488.57	138.09
488.75	72.56
488.92	433.00
489.10	128.73
489.28	147.45
489.46	163.84
489.64	93.62
489.81	107.66
489.99	201.29
490.17	88.94
490.35	175.54
490.53	42.13
490.70	79.58
490.88	121.71
491.06	107.66
491.24	107.66
491.41	145.11
491.59	112.35
491.77	51.49
491.95	128.73
492.13	60.85
492.30	147.45
492.48	152.13
492.66	140.43
492.84	95.96
493.01	149.79
493.19	128.73
493.37	191.92
493.54	194.26
493.72	166.18
493.90	98.30
494.08	98.30
494.25	140.43
494.43	168.52
494.61	170.86
494.79	168.52
494.96	81.92
495.14	138.09
495.32	126.39
495.49	166.18
495.67	110.01
495.85	175.54
496.02	177.88
496.20	227.03
496.38	142.77
496.55	189.58
496.73	140.43
496.91	175.54
497.09	264.48
497.26	191.92
497.44	147.45
497.62	159.16
497.79	142.77
497.97	231.71
498.14	194.26
498.32	229.37
498.50	210.65
498.67	154.48
498.85	262.14
499.03	180.22
499.20	248.10
499.38	145.11
499.56	135.75
499.73	161.50
499.91	210.65
500.08	266.82
500.26	215.33
500.44	156.82
500.61	131.07
500.79	184.90
500.97	191.92
501.14	224.69
501.32	156.82
501.49	252.78
501.67	238.73
501.84	194.26
502.02	236.39
502.20	278.52
502.37	227.03
502.55	110.01
502.72	238.73
502.90	224.69
503.07	142.77
503.25	234.05
503.43	241.08
503.60	184.90
503.78	166.18
503.95	271.50
504.13	168.52
504.30	306.61
504.48	220.01
504.65	311.29
504.83	191.92
505.01	196.60
505.18	161.50
505.36	243.42
505.53	269.16
505.71	294.91
505.88	252.78
506.06	191.92
506.23	180.22
506.41	241.08
506.58	322.99
506.76	224.69
506.93	332.36
507.11	262.14
507.28	220.01
507.46	220.01
507.63	220.01
507.81	205.97
507.98	217.67
508.16	234.05
508.33	273.84
508.50	248.10
508.68	243.42
508.85	311.29
509.03	245.76
509.20	241.08
509.38	231.71
509.55	231.71
509.73	285.55
509.90	212.99
510.08	149.79
510.25	301.93
510.42	189.58
510.60	285.55
510.77	227.03
510.95	189.58
511.12	248.10
511.30	311.29
511.47	348.74
511.64	264.48
511.82	327.68
511.99	208.31
512.17	252.78
512.34	224.69
512.51	252.78
512.69	257.46
512.86	381.51
513.04	243.42
513.21	255.12
513.38	311.29
513.56	208.31
513.73	278.52
513.90	203.63
514.08	173.20
514.25	241.08
514.43	159.16
514.60	205.97
514.77	224.69
514.95	283.20
515.12	215.33
515.29	241.08
515.47	301.93
515.64	325.33
515.81	273.84
515.99	285.55
516.16	238.73
516.33	280.86
516.51	196.60
516.68	184.90
516.85	107.66
517.03	182.56
517.20	243.42
517.37	264.48
517.54	229.37
517.72	280.86
517.89	180.22
518.06	175.54
518.24	156.82
518.41	337.04
518.58	266.82
518.75	163.84
518.93	287.89
519.10	222.35
519.27	294.91
519.45	273.84
519.62	266.82
519.79	332.36
519.96	201.29
520.14	238.73
520.31	311.29
520.48	304.27
520.65	259.80
520.83	339.38
521.00	388.53
521.17	325.33
521.34	280.86
521.52	327.68
521.69	360.44
521.86	318.31
522.03	301.93
522.20	306.61
522.38	238.73
522.55	222.35
522.72	294.91
522.89	264.48
523.07	388.53
523.24	332.36
523.41	259.80
523.58	264.48
523.75	271.50
523.92	227.03
524.10	299.59
524.27	287.89
524.44	308.95
524.61	346.40
524.78	292.57
524.96	280.86
525.13	297.25
525.30	297.25
525.47	280.86
525.64	353.42
525.81	318.31
525.98	313.63
526.16	248.10
526.33	245.76
526.50	304.27
526.67	198.95
526.84	262.14
527.01	248.10
527.18	320.65
527.36	330.02
527.53	322.99
527.70	325.33
527.87	327.68
528.04	379.17
528.21	294.91
528.38	383.85
528.55	430.66
528.72	337.04
528.89	365.12
529.07	278.52
529.24	243.42
529.41	395.55
529.58	344.06
529.75	241.08
529.92	381.51
530.09	283.20
530.26	393.21
530.43	315.97
530.60	337.04
530.77	369.80
530.94	372.15
531.11	297.25
531.28	330.02
531.46	255.12
531.63	339.38
531.80	388.53
531.97	287.89
532.14	250.44
532.31	313.63
532.48	332.36
532.65	362.78
532.82	280.86
532.99	322.99
533.16	266.82
533.33	278.52
533.50	341.72
533.67	236.39
533.84	390.87
534.01	301.93
534.18	236.39
534.35	355.76
534.52	332.36
534.69	369.80
534.86	388.53
535.03	397.89
535.20	353.42
535.37	355.76
535.54	297.25
535.71	346.40
535.88	383.85
536.05	280.86
536.22	390.87
536.38	308.95
536.55	320.65
536.72	376.83
536.89	250.44
537.06	318.31
537.23	395.55
537.40	348.74
537.57	322.99
537.74	390.87
537.91	437.68
538.08	411.93
538.25	351.08
538.42	250.44
538.59	306.61
538.75	292.57
538.92	367.46
539.09	287.89
539.26	273.84
539.43	332.36
539.60	348.74
539.77	379.17
539.94	334.70
540.11	313.63
540.28	304.27
540.44	358.10
540.61	236.39
540.78	301.93
540.95	278.52
541.12	423.64
541.29	194.26
541.46	397.89
541.62	402.57
541.79	205.97
541.96	224.69
542.13	217.67
542.30	322.99
542.47	381.51
542.63	369.80
542.80	301.93
542.97	348.74
543.14	287.89
543.31	355.76
543.48	320.65
543.64	306.61
543.81	318.31
543.98	257.46
544.15	269.16
544.32	280.86
544.48	299.59
544.65	376.83
544.82	337.04
544.99	320.65
545.16	379.17
545.32	325.33
545.49	381.51
545.66	367.46
545.83	278.52
546.00	269.16
546.16	292.57
546.33	355.76
546.50	376.83
546.67	379.17
546.83	379.17
547.00	390.87
547.17	353.42
547.34	334.70
547.50	290.23
547.67	393.21
547.84	383.85
548.00	381.51
548.17	320.65
548.34	376.83
548.51	416.62
548.67	381.51
548.84	339.38
549.01	360.44
549.18	337.04
549.34	393.21
549.51	365.12
549.68	390.87
549.84	334.70
550.01	393.21
550.18	468.11
550.34	341.72
550.51	365.12
550.68	435.34
550.84	259.80
551.01	327.68
551.18	353.42
551.34	433.00
551.51	374.49
551.68	332.36
551.84	421.30
552.01	346.40
552.18	325.33
552.34	379.17
552.51	348.74
552.68	308.95
552.84	294.91
553.01	346.40
553.18	358.10
553.34	264.48
553.51	355.76
553.67	353.42
553.84	423.64
554.01	386.19
554.17	369.80
554.34	304.27
554.51	376.83
554.67	346.40
554.84	447.04
555.00	379.17
555.17	348.74
555.33	351.08
555.50	383.85
555.67	327.68
555.83	339.38
556.00	369.80
556.16	575.77
556.33	322.99
556.50	325.33
556.66	344.06
556.83	306.61
556.99	222.35
557.16	313.63
557.32	318.31
557.49	318.31
557.65	334.70
557.82	409.59
557.98	423.64
558.15	332.36
558.32	311.29
558.48	245.76
558.65	290.23
558.81	283.20
558.98	297.25
559.14	332.36
559.31	243.42
559.47	334.70
559.64	351.08
559.80	353.42
559.97	322.99
560.13	404.91
560.30	318.31
560.46	308.95
560.63	461.09
560.79	348.74
560.96	402.57
561.12	334.70
561.29	337.04
561.45	360.44
561.61	306.61
561.78	463.43
561.94	315.97
562.11	320.65
562.27	395.55
562.44	393.21
562.60	444.70
562.77	322.99
562.93	376.83
563.10	332.36
563.26	257.46
563.42	334.70
563.59	348.74
563.75	418.96
563.92	330.02
564.08	332.36
564.24	358.10
564.41	362.78
564.57	215.33
564.74	287.89
564.90	383.85
565.07	301.93
565.23	339.38
565.39	330.02
565.56	348.74
565.72	269.16
565.88	287.89
566.05	358.10
566.21	381.51
566.38	339.38
566.54	348.74
566.70	334.70
566.87	292.57
567.03	299.59
567.19	365.12
567.36	369.80
567.52	404.91
567.68	330.02
567.85	304.27
568.01	341.72
568.17	280.86
568.34	325.33
568.50	315.97
568.66	278.52
568.83	355.76
568.99	283.20
569.15	330.02
569.32	435.34
569.48	311.29
569.64	360.44
569.81	330.02
569.97	231.71
570.13	332.36
570.30	250.44
570.46	315.97
570.62	320.65
570.78	287.89
570.95	229.37
571.11	367.46
571.27	334.70
571.43	306.61
571.60	294.91
571.76	292.57
571.92	308.95
572.09	278.52
572.25	421.30
572.41	334.70
572.57	313.63
572.74	369.80
572.90	346.40
573.06	299.59
573.22	355.76
573.38	278.52
573.55	290.23
573.71	297.25
573.87	266.82
574.03	189.58
574.20	322.99
574.36	437.68
574.52	360.44
574.68	346.40
574.84	290.23
575.01	304.27
575.17	348.74
575.33	383.85
575.49	435.34
575.65	360.44
575.82	341.72
575.98	411.93
576.14	285.55
576.30	353.42
576.46	311.29
576.62	337.04
576.79	325.33
576.95	294.91
577.11	189.58
577.27	292.57
577.43	325.33
577.59	290.23
577.75	271.50
577.92	234.05
578.08	252.78
578.24	266.82
578.40	313.63
578.56	322.99
578.72	358.10
578.88	320.65
579.04	318.31
579.21	360.44
579.37	320.65
579.53	294.91
579.69	346.40
579.85	327.68
580.01	393.21
580.17	292.57
580.33	255.12
580.49	334.70
580.65	353.42
580.82	318.31
580.98	304.27
581.14	330.02
581.30	369.80
581.46	360.44
581.62	456.40
581.78	278.52
581.94	372.15
582.10	327.68
582.26	299.59
582.42	311.29
582.58	360.44
582.74	369.80
582.90	327.68
583.06	287.89
583.22	250.44
583.38	367.46
583.54	362.78
583.70	306.61
583.86	381.51
584.02	294.91
584.18	414.27
584.34	351.08
584.50	297.25
584.66	318.31
584.82	215.33
584.98	334.70
585.14	198.95
585.30	362.78
585.46	311.29
585.62	259.80
585.78	271.50
585.94	351.08
586.10	294.91
586.26	313.63
586.42	372.15
586.58	255.12
586.74	341.72
586.90	297.25
587.06	264.48
587.22	304.27
587.38	299.59
587.54	315.97
587.70	290.23
587.86	257.46
588.02	301.93
588.18	325.33
588.34	348.74
588.49	156.82
588.65	142.77
588.81	222.35
588.97	84.26
589.13	196.60
589.29	236.39
589.45	294.91
589.61	252.78
589.77	276.18
589.93	245.76
590.08	220.01
590.24	280.86
590.40	266.82
590.56	334.70
590.72	241.08
590.88	245.76
591.04	266.82
591.20	315.97
591.35	400.23
591.51	290.23
591.67	283.20
591.83	259.80
591.99	229.37
592.15	243.42
592.31	304.27
592.46	339.38
592.62	339.38
592.78	231.71
592.94	278.52
593.10	220.01
593.26	222.35
593.41	315.97
593.57	266.82
593.73	269.16
593.89	304.27
594.05	245.76
594.20	308.95
594.36	365.12
594.52	273.84
594.68	297.25
594.84	299.59
594.99	325.33
595.15	290.23
595.31	308.95
595.47	339.38
595.62	255.12
595.78	271.50
595.94	278.52
596.10	252.78
596.25	290.23
596.41	351.08
596.57	248.10
596.73	344.06
596.88	355.76
597.04	322.99
597.20	337.04
597.36	367.46
597.51	173.20
597.67	325.33
597.83	276.18
597.99	264.48
598.14	252.78
598.30	353.42
598.46	332.36
598.61	332.36
598.77	238.73
598.93	276.18
599.09	248.10
599.24	241.08
599.40	255.12
599.56	224.69
599.71	231.71
599.87	252.78
600.03	304.27
600.18	285.55
600.34	292.57
600.50	276.18
600.65	301.93
600.81	238.73
600.97	227.03
601.12	248.10
601.28	311.29
601.44	252.78
601.59	224.69
601.75	259.80
601.91	205.97
602.06	259.80
602.22	297.25
602.37	287.89
602.53	315.97
602.69	236.39
602.84	250.44
603.00	182.56
603.16	278.52
603.31	327.68
603.47	313.63
603.62	173.20
603.78	231.71
603.94	231.71
604.09	304.27
604.25	311.29
604.40	280.86
604.56	290.23
604.71	353.42
604.87	276.18
605.03	227.03
605.18	327.68
605.34	306.61
605.49	315.97
605.65	220.01
605.80	266.82
605.96	327.68
606.12	227.03
606.27	278.52
606.43	264.48
606.58	264.48
606.74	257.46
606.89	311.29
607.05	294.91
607.20	290.23
607.36	276.18
607.51	224.69
607.67	159.16
607.82	217.67
607.98	292.57
608.13	250.44
608.29	255.12
608.44	212.99
608.60	222.35
608.75	334.70
608.91	325.33
609.06	222.35
609.22	287.89
609.37	273.84
609.53	304.27
609.68	238.73
609.84	276.18
609.99	168.52
610.15	278.52
610.30	201.29
610.46	304.27
610.61	269.16
610.76	208.31
610.92	203.63
611.07	177.88
611.23	379.17
611.38	306.61
611.54	229.37
611.69	217.67
611.84	184.90
612.00	259.80
612.15	290.23
612.31	290.23
612.46	177.88
612.62	245.76
612.77	294.91
612.92	245.76
613.08	285.55
613.23	255.12
613.39	210.65
613.54	285.55
613.69	259.80
613.85	184.90
614.00	238.73
614.15	203.63
614.31	149.79
614.46	255.12
614.62	271.50
614.77	290.23
614.92	217.67
615.08	262.14
615.23	285.55
615.38	294.91
615.54	236.39
615.69	147.45
615.84	248.10
616.00	224.69
616.15	203.63
616.30	79.58
616.46	229.37
616.61	184.90
616.76	189.58
616.92	194.26
617.07	236.39
617.22	131.07
617.37	229.37
617.53	198.95
617.68	205.97
617.83	215.33
617.99	266.82
618.14	306.61
618.29	301.93
618.45	159.16
618.60	229.37
618.75	191.92
618.90	189.58
619.06	224.69
619.21	271.50
619.36	299.59
619.51	114.69
619.67	217.67
619.82	175.54
619.97	248.10
620.12	227.03
620.28	222.35
620.43	210.65
620.58	201.29
620.73	238.73
620.89	224.69
621.04	224.69
621.19	262.14
621.34	212.99
621.49	201.29
621.65	222.35
621.80	145.11
621.95	180.22
622.10	229.37
622.25	156.82
622.41	231.71
622.56	220.01
622.71	229.37
622.86	243.42
623.01	217.67
623.16	177.88
623.32	198.95
623.47	222.35
