SpectraSuite Data File
++++++++++++++++++++++++++++++++++++
Date: Mon Oct 07 15:00:31 GMT-05:00 2013
User: price-jones
Dark Spectrum Present: No
Reference Spectrum Present: No
Number of Sampled Component Spectra: 1
Spectrometers: USB2+H05261
Integration Time (usec): 1000000 (USB2+H05261)
Spectra Averaged: 1 (USB2+H05261)
Boxcar Smoothing: 0 (USB2+H05261)
Correct for Electrical Dark: No (USB2+H05261)
Strobe/Lamp Enabled: No (USB2+H05261)
Correct for Detector Non-linearity: No (USB2+H05261)
Correct for Stray Light: No (USB2+H05261)
Number of Pixels in Processed Spectrum: 2048
>>>>>Begin Processed Spectral Data<<<<<
365.73	0.00
365.92	0.00
366.12	0.00
366.32	0.00
366.52	0.00
366.72	198.95
366.91	0.00
367.11	105.32
367.31	35.11
367.51	117.03
367.70	163.84
367.90	421.30
368.10	243.42
368.30	236.39
368.49	0.00
368.69	327.68
368.89	142.77
369.09	100.64
369.28	91.28
369.48	0.00
369.68	58.51
369.87	252.78
370.07	9.36
370.27	641.31
370.47	255.12
370.66	107.66
370.86	353.42
371.06	711.52
371.25	1013.45
371.45	278.52
371.65	578.11
371.84	177.88
372.04	126.39
372.24	355.76
372.44	201.29
372.63	383.85
372.83	777.06
373.03	280.86
373.22	217.67
373.42	145.11
373.62	238.73
373.81	444.70
374.01	627.26
374.21	648.33
374.40	297.25
374.60	739.61
374.79	304.27
374.99	297.25
375.19	440.02
375.38	531.30
375.58	390.87
375.78	676.41
375.97	498.53
376.17	1053.24
376.37	346.40
376.56	475.13
376.76	220.01
376.95	147.45
377.15	498.53
377.35	470.45
377.54	404.91
377.74	255.12
377.93	236.39
378.13	472.79
378.33	645.99
378.52	313.63
378.72	662.37
378.91	517.26
379.11	278.52
379.31	212.99
379.50	114.69
379.70	617.90
379.89	540.66
380.09	294.91
380.28	187.24
380.48	353.42
380.68	198.95
380.87	44.47
381.07	421.30
381.26	720.88
381.46	166.18
381.65	512.58
381.85	259.80
382.04	517.26
382.24	435.34
382.43	304.27
382.63	147.45
382.83	327.68
383.02	648.33
383.22	765.36
383.41	182.56
383.61	416.62
383.80	688.12
384.00	369.80
384.19	325.33
384.39	365.12
384.58	313.63
384.78	484.49
384.97	440.02
385.17	313.63
385.36	208.31
385.56	493.85
385.75	100.64
385.95	315.97
386.14	601.52
386.34	348.74
386.53	465.77
386.72	201.29
386.92	727.91
387.11	440.02
387.31	512.58
387.50	145.11
387.70	149.79
387.89	346.40
388.09	170.86
388.28	145.11
388.48	142.77
388.67	545.34
388.86	327.68
389.06	311.29
389.25	472.79
389.45	416.62
389.64	372.15
389.84	669.39
390.03	477.47
390.22	470.45
390.42	397.89
390.61	201.29
390.81	149.79
391.00	337.04
391.19	582.79
391.39	304.27
391.58	538.32
391.78	376.83
391.97	407.25
392.16	138.09
392.36	631.94
392.55	585.13
392.75	465.77
392.94	177.88
393.13	690.46
393.33	110.01
393.52	280.86
393.71	765.36
393.91	397.89
394.10	135.75
394.29	238.73
394.49	252.78
394.68	395.55
394.88	608.54
395.07	655.35
395.26	393.21
395.46	372.15
395.65	624.92
395.84	451.72
396.04	1179.63
396.23	367.46
396.42	266.82
396.62	456.40
396.81	444.70
397.00	369.80
397.19	470.45
397.39	278.52
397.58	732.59
397.77	311.29
397.97	327.68
398.16	353.42
398.35	550.03
398.55	177.88
398.74	313.63
398.93	624.92
399.12	299.59
399.32	561.73
399.51	341.72
399.70	498.53
399.90	514.92
400.09	493.85
400.28	660.03
400.47	337.04
400.67	657.69
400.86	388.53
401.05	503.22
401.24	580.45
401.44	596.84
401.63	624.92
401.82	748.97
402.01	152.13
402.21	552.37
402.40	444.70
402.59	313.63
402.78	379.17
402.97	369.80
403.17	437.68
403.36	493.85
403.55	341.72
403.74	360.44
403.93	348.74
404.13	753.65
404.32	339.38
404.51	297.25
404.70	636.63
404.89	320.65
405.09	976.00
405.28	458.74
405.47	215.33
405.66	535.98
405.85	617.90
406.05	395.55
406.24	322.99
406.43	456.40
406.62	535.98
406.81	1111.75
407.00	681.10
407.20	442.36
407.39	386.19
407.58	353.42
407.77	531.30
407.96	699.82
408.15	620.24
408.34	589.82
408.54	566.41
408.73	505.56
408.92	416.62
409.11	601.52
409.30	763.01
409.49	236.39
409.68	344.06
409.87	482.15
410.07	271.50
410.26	402.57
410.45	393.21
410.64	243.42
410.83	433.00
411.02	416.62
411.21	559.39
411.40	622.58
411.59	470.45
411.78	360.44
411.98	458.74
412.17	255.12
412.36	313.63
412.55	325.33
412.74	727.91
412.93	1013.45
413.12	444.70
413.31	725.57
413.50	606.20
413.69	437.68
413.88	830.89
414.07	477.47
414.26	512.58
414.45	318.31
414.64	493.85
414.83	655.35
415.02	561.73
415.22	674.07
415.41	784.08
415.60	355.76
415.79	451.72
415.98	805.14
416.17	475.13
416.36	496.19
416.55	346.40
416.74	571.09
416.93	681.10
417.12	414.27
417.31	409.59
417.50	472.79
417.69	1008.77
417.88	540.66
418.07	297.25
418.26	433.00
418.45	566.41
418.64	863.66
418.83	526.62
419.02	442.36
419.21	528.96
419.39	461.09
419.58	241.08
419.77	390.87
419.96	688.12
420.15	940.90
420.34	479.81
420.53	589.82
420.72	798.12
420.91	636.63
421.10	491.51
421.29	610.88
421.48	655.35
421.67	711.52
421.86	444.70
422.05	493.85
422.24	416.62
422.43	617.90
422.61	327.68
422.80	430.66
422.99	470.45
423.18	337.04
423.37	849.61
423.56	641.31
423.75	671.73
423.94	369.80
424.13	500.87
424.32	407.25
424.50	425.98
424.69	456.40
424.88	915.15
425.07	458.74
425.26	613.22
425.45	711.52
425.64	299.59
425.83	461.09
426.01	887.06
426.20	634.29
426.39	430.66
426.58	456.40
426.77	636.63
426.96	660.03
427.15	599.18
427.33	411.93
427.52	519.60
427.71	540.66
427.90	624.92
428.09	437.68
428.28	334.70
428.46	355.76
428.65	599.18
428.84	409.59
429.03	887.06
429.22	512.58
429.40	344.06
429.59	365.12
429.78	826.21
429.97	503.22
430.16	374.49
430.34	463.43
430.53	435.34
430.72	442.36
430.91	765.36
431.10	367.46
431.28	503.22
431.47	704.50
431.66	685.78
431.85	388.53
432.03	568.75
432.22	1226.44
432.41	543.00
432.60	882.38
432.79	393.21
432.97	650.67
433.16	447.04
433.35	334.70
433.54	519.60
433.72	711.52
433.91	758.33
434.10	447.04
434.28	596.84
434.47	575.77
434.66	788.76
434.85	435.34
435.03	624.92
435.22	985.37
435.41	1043.88
435.59	676.41
435.78	624.92
435.97	468.11
436.16	905.79
436.34	566.41
436.53	650.67
436.72	812.17
436.90	793.44
437.09	706.84
437.28	641.31
437.46	507.90
437.65	812.17
437.84	645.99
438.02	631.94
438.21	716.20
438.40	533.64
438.58	332.36
438.77	627.26
438.96	645.99
439.14	416.62
439.33	763.01
439.52	589.82
439.70	592.16
439.89	779.40
440.08	709.18
440.26	755.99
440.45	1036.86
440.63	732.59
440.82	601.52
441.01	624.92
441.19	573.43
441.38	676.41
441.57	571.09
441.75	926.85
441.94	978.34
442.12	692.80
442.31	477.47
442.50	599.18
442.68	648.33
442.87	603.86
443.05	582.79
443.24	603.86
443.43	784.08
443.61	976.00
443.80	617.90
443.98	557.05
444.17	664.71
444.35	840.25
444.54	589.82
444.73	493.85
444.91	866.00
445.10	428.32
445.28	538.32
445.47	704.50
445.65	615.56
445.84	566.41
446.02	561.73
446.21	608.54
446.39	580.45
446.58	791.10
446.77	545.34
446.95	603.86
447.14	819.19
447.32	1062.60
447.51	751.31
447.69	655.35
447.88	737.27
448.06	968.98
448.25	709.18
448.43	510.24
448.62	416.62
448.80	711.52
448.99	917.49
449.17	568.75
449.36	486.83
449.54	814.51
449.73	526.62
449.91	901.11
450.10	564.07
450.28	1378.58
450.46	1231.12
450.65	901.11
450.83	725.57
451.02	641.31
451.20	713.86
451.39	678.76
451.57	519.60
451.76	573.43
451.94	732.59
452.13	894.08
452.31	910.47
452.49	763.01
452.68	521.94
452.86	702.16
453.05	1240.48
453.23	744.29
453.42	468.11
453.60	716.20
453.78	779.40
453.97	472.79
454.15	514.92
454.34	550.03
454.52	519.60
454.70	1121.12
454.89	889.40
455.07	484.49
455.26	781.74
455.44	931.53
455.62	531.30
455.81	807.48
455.99	814.51
456.17	863.66
456.36	636.63
456.54	606.20
456.73	617.90
456.91	554.71
457.09	802.80
457.28	945.58
457.46	688.12
457.64	924.51
457.83	765.36
458.01	521.94
458.19	854.30
458.38	681.10
458.56	753.65
458.74	550.03
458.93	791.10
459.11	978.34
459.29	535.98
459.48	821.53
459.66	1156.22
459.84	877.70
460.03	1757.74
460.21	994.73
460.39	690.46
460.57	1048.56
460.76	891.74
460.94	758.33
461.12	1116.44
461.31	1130.48
461.49	671.73
461.67	706.84
461.85	730.25
462.04	645.99
462.22	2679.91
462.40	800.46
462.59	987.71
462.77	622.58
462.95	779.40
463.13	531.30
463.32	919.83
463.50	746.63
463.68	837.91
463.86	802.80
464.05	587.47
464.23	961.96
464.41	851.96
464.59	648.33
464.78	704.50
464.96	540.66
465.14	734.93
465.32	610.88
465.50	770.04
465.69	894.08
465.87	524.28
466.05	968.98
466.23	507.90
466.41	627.26
466.60	699.82
466.78	779.40
466.96	866.00
467.14	805.14
467.32	931.53
467.51	870.68
467.69	847.27
467.87	1259.21
468.05	706.84
468.23	1308.36
468.41	992.39
468.60	711.52
468.78	823.87
468.96	1114.10
469.14	891.74
469.32	500.87
469.50	552.37
469.69	866.00
469.87	798.12
470.05	814.51
470.23	695.14
470.41	601.52
470.59	702.16
470.77	765.36
470.95	744.29
471.14	1036.86
471.32	746.63
471.50	1137.50
471.68	758.33
471.86	877.70
472.04	599.18
472.22	894.08
472.40	580.45
472.58	512.58
472.77	610.88
472.95	624.92
473.13	1352.83
473.31	1153.88
473.49	540.66
473.67	524.28
473.85	851.96
474.03	819.19
474.21	770.04
474.39	1048.56
474.57	1205.38
474.75	856.64
474.93	690.46
475.12	557.05
475.30	624.92
475.48	842.59
475.66	779.40
475.84	741.95
476.02	702.16
476.20	1020.47
476.38	823.87
476.56	1549.43
476.74	786.42
476.92	746.63
477.10	814.51
477.28	985.37
477.46	746.63
477.64	929.19
477.82	713.86
478.00	697.48
478.18	863.66
478.36	903.45
478.54	770.04
478.72	732.59
478.90	851.96
479.08	924.51
479.26	828.55
479.44	781.74
479.62	664.71
479.80	746.63
479.98	814.51
480.16	755.99
480.34	1095.37
480.52	788.76
480.70	1013.45
480.88	702.16
481.06	688.12
481.24	711.52
481.41	791.10
481.59	924.51
481.77	966.64
481.95	844.93
482.13	1320.06
482.31	882.38
482.49	704.50
482.67	1004.09
482.85	1100.05
483.03	1046.22
483.21	926.85
483.39	746.63
483.57	887.06
483.74	1357.51
483.92	898.77
484.10	645.99
484.28	1196.01
484.46	1713.27
484.64	763.01
484.82	819.19
485.00	823.87
485.18	917.49
485.35	901.11
485.53	667.05
485.71	1156.22
485.89	575.77
486.07	807.48
486.25	1563.48
486.43	1067.28
486.61	1093.03
486.78	1020.47
486.96	683.44
487.14	830.89
487.32	844.93
487.50	877.70
487.68	1158.57
487.85	851.96
488.03	1071.97
488.21	1313.04
488.39	903.45
488.57	1219.42
488.75	940.90
488.92	4468.08
489.10	1158.57
489.28	1474.54
489.46	763.01
489.64	1020.47
489.81	947.92
489.99	1139.84
490.17	1025.15
490.35	1823.28
490.53	1043.88
490.70	751.31
490.88	1224.10
491.06	940.90
491.24	1210.06
491.41	1530.71
491.59	1071.97
491.77	798.12
491.95	821.53
492.13	863.66
492.30	1018.13
492.48	976.00
492.66	1022.81
492.84	894.08
493.01	1118.78
493.19	1022.81
493.37	1446.45
493.54	1277.93
493.72	1125.80
493.90	1062.60
494.08	1032.18
494.25	1174.95
494.43	1132.82
494.61	1088.35
494.79	940.90
494.96	952.60
495.14	1270.91
495.32	1004.09
495.49	1228.78
495.67	1097.71
495.85	1036.86
496.02	912.81
496.20	1430.07
496.38	1196.01
496.55	1097.71
496.73	1214.74
496.91	987.71
497.09	1334.11
497.26	1156.22
497.44	1121.12
497.62	1165.59
497.79	1142.18
497.97	1324.74
498.14	1359.85
498.32	1327.08
498.50	1303.68
498.67	1076.65
498.85	1224.10
499.03	1050.90
499.20	1100.05
499.38	1188.99
499.56	1095.37
499.73	1645.40
499.91	1385.60
500.08	1350.49
500.26	1046.22
500.44	1076.65
500.61	1219.42
500.79	1114.10
500.97	1327.08
501.14	1647.74
501.32	1163.25
501.49	1437.09
501.67	1114.10
501.84	1268.57
502.02	898.77
502.20	1621.99
502.37	1273.25
502.55	1181.97
502.72	1142.18
502.90	1383.26
503.07	1214.74
503.25	1284.95
503.43	919.83
503.60	1109.41
503.78	1200.69
503.95	1205.38
504.13	1214.74
504.30	1324.74
504.48	1490.92
504.65	1579.86
504.83	1343.47
505.01	1196.01
505.18	1315.38
505.36	1221.76
505.53	1214.74
505.71	1130.48
505.88	1619.65
506.06	1221.76
506.23	1284.95
506.41	1177.29
506.58	1416.02
506.76	1299.00
506.93	1057.92
507.11	1315.38
507.28	1036.86
507.46	1086.01
507.63	1196.01
507.81	1046.22
507.98	1210.06
508.16	1123.46
508.33	1132.82
508.50	1364.53
508.68	1313.04
508.85	1247.51
509.03	1121.12
509.20	1184.31
509.38	1350.49
509.55	1427.73
509.73	1460.49
509.90	1605.61
510.08	1064.94
510.25	1441.77
510.42	1083.67
510.60	1205.38
510.77	1432.41
510.95	1523.69
511.12	1249.85
511.30	1350.49
511.47	1425.39
511.64	1818.60
511.82	1226.44
511.99	1111.75
512.17	1170.27
512.34	1034.52
512.51	1095.37
512.69	1097.71
512.86	1654.76
513.04	1034.52
513.21	1291.98
513.38	1198.35
513.56	1135.16
513.73	1123.46
513.90	1088.35
514.08	1008.77
514.25	1273.25
514.43	1324.74
514.60	964.30
514.77	1064.94
514.95	1238.14
515.12	1078.99
515.29	1247.51
515.47	1366.87
515.64	1282.61
515.81	1174.95
515.99	1596.25
516.16	1390.28
516.33	1458.15
516.51	1060.26
516.68	978.34
516.85	966.64
517.03	1142.18
517.20	1303.68
517.37	1275.59
517.54	1474.54
517.72	1130.48
517.89	884.72
518.06	987.71
518.24	1736.68
518.41	1839.66
518.58	1355.17
518.75	1055.58
518.93	1289.64
519.10	1275.59
519.27	1116.44
519.45	1224.10
519.62	1301.34
519.79	1425.39
519.96	1027.50
520.14	1270.91
520.31	1577.52
520.48	1261.55
520.65	1322.40
520.83	1432.41
521.00	1427.73
521.17	1570.50
521.34	1224.10
521.52	1289.64
521.69	1329.42
521.86	1247.51
522.03	1504.96
522.20	1792.85
522.38	1090.69
522.55	1376.24
522.72	1069.62
522.89	1495.60
523.07	1776.47
523.24	1268.57
523.41	1198.35
523.58	1306.02
523.75	1198.35
523.92	1151.54
524.10	1345.81
524.27	1240.48
524.44	1231.12
524.61	1624.33
524.78	1132.82
524.96	1500.28
525.13	1401.98
525.30	1610.29
525.47	1540.07
525.64	1493.26
525.81	1369.21
525.98	1320.06
526.16	1198.35
526.33	992.39
526.50	1069.62
526.67	1015.79
526.84	1088.35
527.01	1116.44
527.18	1362.19
527.36	1205.38
527.53	1090.69
527.70	1575.18
527.87	1317.72
528.04	1844.34
528.21	1200.69
528.38	1493.26
528.55	1666.46
528.72	1493.26
528.89	1844.34
529.07	1224.10
529.24	1404.32
529.41	1680.50
529.58	1291.98
529.75	1266.23
529.92	1409.00
530.09	1373.89
530.26	1647.74
530.43	1460.49
530.60	1423.05
530.77	1427.73
530.94	1544.75
531.11	1540.07
531.28	1289.64
531.46	1198.35
531.63	1334.11
531.80	1432.41
531.97	1533.05
532.14	1465.18
532.31	1500.28
532.48	1343.47
532.65	1362.19
532.82	1100.05
532.99	1266.23
533.16	1376.24
533.33	1425.39
533.50	1320.06
533.67	1179.63
533.84	1369.21
534.01	1406.66
534.18	1240.48
534.35	1376.24
534.52	1329.42
534.69	1928.60
534.86	1317.72
535.03	1350.49
535.20	1324.74
535.37	1708.59
535.54	1481.56
535.71	1345.81
535.88	1685.19
536.05	1235.80
536.22	1479.22
536.38	1259.21
536.55	1387.94
536.72	1624.33
536.89	1102.39
537.06	1320.06
537.23	1214.74
537.40	1310.70
537.57	1301.34
537.74	1568.16
537.91	1572.84
538.08	1350.49
538.25	1563.48
538.42	1261.55
538.59	1362.19
538.75	1343.47
538.92	1338.79
539.09	1490.92
539.26	1284.95
539.43	1624.33
539.60	1401.98
539.77	1488.58
539.94	1203.04
540.11	1483.90
540.28	1739.02
540.44	1706.25
540.61	1287.29
540.78	1291.98
540.95	1130.48
541.12	1741.36
541.29	1214.74
541.46	1732.00
541.62	1373.89
541.79	1221.76
541.96	1078.99
542.13	1317.72
542.30	1181.97
542.47	1610.29
542.63	1268.57
542.80	1483.90
542.97	1668.80
543.14	1345.81
543.31	1504.96
543.48	1282.61
543.64	1350.49
543.81	1331.76
543.98	1104.73
544.15	1043.88
544.32	1366.87
544.48	1313.04
544.65	1200.69
544.82	1151.54
544.99	1287.29
545.16	1610.29
545.32	1266.23
545.49	1430.07
545.66	1313.04
545.83	1156.22
546.00	1114.10
546.16	1200.69
546.33	1256.87
546.50	1200.69
546.67	1715.61
546.83	1682.85
547.00	1296.66
547.17	1156.22
547.34	1125.80
547.50	1226.44
547.67	1303.68
547.84	1130.48
548.00	1479.22
548.17	1205.38
548.34	1214.74
548.51	1811.57
548.67	1645.40
548.84	1233.46
549.01	1423.05
549.18	1413.68
549.34	1409.00
549.51	1380.92
549.68	1490.92
549.84	1266.23
550.01	1109.41
550.18	2789.92
550.34	2204.78
550.51	1495.60
550.68	1820.94
550.84	1242.82
551.01	1296.66
551.18	1561.14
551.34	1446.45
551.51	1090.69
551.68	1306.02
551.84	1493.26
552.01	1299.00
552.18	1268.57
552.34	1233.46
552.51	1366.87
552.68	1401.98
552.84	1256.87
553.01	1387.94
553.18	1430.07
553.34	1228.78
553.51	1043.88
553.67	1416.02
553.84	1818.60
554.01	1523.69
554.17	1479.22
554.34	1163.25
554.51	1427.73
554.67	1563.48
554.84	1650.08
555.00	1441.77
555.17	1280.27
555.33	1535.39
555.50	1401.98
555.67	1350.49
555.83	1095.37
556.00	1259.21
556.16	3393.78
556.33	1378.58
556.50	1261.55
556.66	1289.64
556.83	1158.57
556.99	1149.20
557.16	1221.76
557.32	1210.06
557.49	1214.74
557.65	1188.99
557.82	1240.48
557.98	1231.12
558.15	1158.57
558.32	1212.40
558.48	1116.44
558.65	1315.38
558.81	1373.89
558.98	1238.14
559.14	1507.30
559.31	1317.72
559.47	1390.28
559.64	1088.35
559.80	1467.52
559.97	1090.69
560.13	1181.97
560.30	1086.01
560.46	1282.61
560.63	1242.82
560.79	1362.19
560.96	1357.51
561.12	1160.91
561.29	1376.24
561.45	1203.04
561.61	1362.19
561.78	2282.02
561.94	1282.61
562.11	1224.10
562.27	1268.57
562.44	1188.99
562.60	1179.63
562.77	1174.95
562.93	2040.95
563.10	1336.45
563.26	1177.29
563.42	1596.25
563.59	1336.45
563.75	1163.25
563.92	1511.99
564.08	1324.74
564.24	1558.80
564.41	1856.04
564.57	1160.91
564.74	1100.05
564.90	1301.34
565.07	1366.87
565.23	1451.13
565.39	1137.50
565.56	1362.19
565.72	1114.10
565.88	1170.27
566.05	1078.99
566.21	1165.59
566.38	1420.71
566.54	1338.79
566.70	1158.57
566.87	1109.41
567.03	1050.90
567.19	1233.46
567.36	1343.47
567.52	1212.40
567.68	1392.62
567.85	1287.29
568.01	1123.46
568.17	1015.79
568.34	1165.59
568.50	1624.33
568.66	1008.77
568.83	2059.67
568.99	1090.69
569.15	1432.41
569.32	1149.20
569.48	1158.57
569.64	1027.50
569.81	1263.89
569.97	1034.52
570.13	1453.47
570.30	1212.40
570.46	1116.44
570.62	1158.57
570.78	1156.22
570.95	985.37
571.11	1762.42
571.27	1629.01
571.43	997.07
571.60	1357.51
571.76	1179.63
571.92	1156.22
572.09	1081.33
572.25	1170.27
572.41	1275.59
572.57	1156.22
572.74	1666.46
572.90	1406.66
573.06	1217.08
573.22	1352.83
573.38	1397.30
573.55	1416.02
573.71	1481.56
573.87	1364.53
574.03	1081.33
574.20	1146.86
574.36	1483.90
574.52	1053.24
574.68	1057.92
574.84	1172.61
575.01	1137.50
575.17	1291.98
575.33	1088.35
575.49	1502.62
575.65	1586.88
575.82	1355.17
575.98	1820.94
576.14	1107.07
576.30	1177.29
576.46	1104.73
576.62	1261.55
576.79	1303.68
576.95	1568.16
577.11	1057.92
577.27	959.62
577.43	1521.35
577.59	1605.61
577.75	1289.64
577.92	1217.08
578.08	1097.71
578.24	966.64
578.40	1453.47
578.56	1537.73
578.72	1579.86
578.88	1472.20
579.04	1160.91
579.21	1242.82
579.37	1196.01
579.53	1107.07
579.69	1418.36
579.85	1004.09
580.01	1303.68
580.17	1043.88
580.33	1172.61
580.49	1256.87
580.65	1301.34
580.82	1102.39
580.98	966.64
581.14	922.17
581.30	1542.41
581.46	1247.51
581.62	1413.68
581.78	1097.71
581.94	1327.08
582.10	950.26
582.26	1114.10
582.42	1036.86
582.58	1130.48
582.74	1139.84
582.90	1137.50
583.06	1210.06
583.22	1247.51
583.38	1025.15
583.54	1013.45
583.70	1577.52
583.86	1249.85
584.02	1142.18
584.18	1500.28
584.34	1004.09
584.50	1163.25
584.66	1088.35
584.82	1001.75
584.98	1231.12
585.14	1226.44
585.30	1357.51
585.46	1118.78
585.62	910.47
585.78	971.32
585.94	1359.85
586.10	1139.84
586.26	1158.57
586.42	1582.20
586.58	1273.25
586.74	1043.88
586.90	1200.69
587.06	1203.04
587.22	1207.72
587.38	1022.81
587.54	1057.92
587.70	1413.68
587.86	1451.13
588.02	957.28
588.18	1170.27
588.34	1291.98
588.49	779.40
588.65	973.66
588.81	924.51
588.97	922.17
589.13	1011.11
589.29	1071.97
589.45	1383.26
589.61	1130.48
589.77	1406.66
589.93	1015.79
590.08	908.13
590.24	933.87
590.40	1029.84
590.56	1275.59
590.72	1057.92
590.88	990.05
591.04	1219.42
591.20	954.94
591.35	1540.07
591.51	1093.03
591.67	880.04
591.83	973.66
591.99	1200.69
592.15	1256.87
592.31	1226.44
592.46	1055.58
592.62	1275.59
592.78	997.07
592.94	786.42
593.10	912.81
593.26	910.47
593.41	1177.29
593.57	1076.65
593.73	945.58
593.89	1245.16
594.05	1093.03
594.20	1022.81
594.36	1364.53
594.52	966.64
594.68	1036.86
594.84	1308.36
594.99	1502.62
595.15	1277.93
595.31	1338.79
595.47	1528.37
595.62	1067.28
595.78	1125.80
595.94	1050.90
596.10	1362.19
596.25	1064.94
596.41	1217.08
596.57	947.92
596.73	938.55
596.88	1111.75
597.04	1177.29
597.20	959.62
597.36	1181.97
597.51	1043.88
597.67	992.39
597.83	931.53
597.99	1226.44
598.14	1137.50
598.30	1453.47
598.46	1032.18
598.61	1476.88
598.77	1163.25
598.93	954.94
599.09	1008.77
599.24	1130.48
599.40	1399.64
599.56	1071.97
599.71	1076.65
599.87	1053.24
600.03	1196.01
600.18	1004.09
600.34	1177.29
600.50	917.49
600.65	858.98
600.81	1336.45
600.97	908.13
601.12	1116.44
601.28	1404.32
601.44	1097.71
601.59	849.61
601.75	1149.20
601.91	936.21
602.06	1135.16
602.22	1933.28
602.37	1200.69
602.53	997.07
602.69	1184.31
602.84	849.61
