SpectraSuite Data File
++++++++++++++++++++++++++++++++++++
Date: Mon Oct 07 14:59:59 GMT-05:00 2013
User: price-jones
Dark Spectrum Present: No
Reference Spectrum Present: No
Number of Sampled Component Spectra: 1
Spectrometers: USB2+H05261
Integration Time (usec): 100000 (USB2+H05261)
Spectra Averaged: 1 (USB2+H05261)
Boxcar Smoothing: 0 (USB2+H05261)
Correct for Electrical Dark: No (USB2+H05261)
Strobe/Lamp Enabled: No (USB2+H05261)
Correct for Detector Non-linearity: No (USB2+H05261)
Correct for Stray Light: No (USB2+H05261)
Number of Pixels in Processed Spectrum: 2048
>>>>>Begin Processed Spectral Data<<<<<
365.73	0.00
365.92	0.00
366.12	0.00
366.32	0.00
366.52	0.00
366.72	0.00
366.91	0.00
367.11	0.00
367.31	0.00
367.51	0.00
367.70	0.00
367.90	0.00
368.10	0.00
368.30	0.00
368.49	0.00
368.69	0.00
368.89	0.00
369.09	0.00
369.28	0.00
369.48	0.00
369.68	0.00
369.87	0.00
370.07	0.00
370.27	0.00
370.47	0.00
370.66	0.00
370.86	0.00
371.06	0.00
371.25	0.00
371.45	0.00
371.65	0.00
371.84	0.00
372.04	0.00
372.24	0.00
372.44	0.00
372.63	0.00
372.83	0.00
373.03	0.00
373.22	0.00
373.42	0.00
373.62	0.00
373.81	0.00
374.01	0.00
374.21	0.00
374.40	0.00
374.60	0.00
374.79	0.00
374.99	0.00
375.19	0.00
375.38	0.00
375.58	0.00
375.78	0.00
375.97	0.00
376.17	0.00
376.37	0.00
376.56	0.00
376.76	0.00
376.95	0.00
377.15	0.00
377.35	0.00
377.54	0.00
377.74	0.00
377.93	0.00
378.13	0.00
378.33	0.00
378.52	0.00
378.72	0.00
378.91	0.00
379.11	0.00
379.31	0.00
379.50	0.00
379.70	0.00
379.89	0.00
380.09	0.00
380.28	0.00
380.48	0.00
380.68	0.00
380.87	0.00
381.07	0.00
381.26	0.00
381.46	0.00
381.65	0.00
381.85	0.00
382.04	0.00
382.24	0.00
382.43	0.00
382.63	0.00
382.83	0.00
383.02	0.00
383.22	0.00
383.41	0.00
383.61	0.00
383.80	0.00
384.00	0.00
384.19	0.00
384.39	0.00
384.58	0.00
384.78	0.00
384.97	0.00
385.17	0.00
385.36	0.00
385.56	0.00
385.75	0.00
385.95	0.00
386.14	0.00
386.34	0.00
386.53	0.00
386.72	0.00
386.92	0.00
387.11	0.00
387.31	0.00
387.50	0.00
387.70	0.00
387.89	0.00
388.09	0.00
388.28	0.00
388.48	0.00
388.67	0.00
388.86	0.00
389.06	0.00
389.25	0.00
389.45	0.00
389.64	0.00
389.84	0.00
390.03	0.00
390.22	0.00
390.42	0.00
390.61	0.00
390.81	0.00
391.00	0.00
391.19	0.00
391.39	0.00
391.58	0.00
391.78	0.00
391.97	0.00
392.16	0.00
392.36	0.00
392.55	0.00
392.75	0.00
392.94	0.00
393.13	0.00
393.33	0.00
393.52	0.00
393.71	0.00
393.91	0.00
394.10	0.00
394.29	0.00
394.49	0.00
394.68	0.00
394.88	0.00
395.07	0.00
395.26	0.00
395.46	0.00
395.65	0.00
395.84	0.00
396.04	0.00
396.23	0.00
396.42	0.00
396.62	0.00
396.81	0.00
397.00	0.00
397.19	0.00
397.39	0.00
397.58	0.00
397.77	0.00
397.97	0.00
398.16	0.00
398.35	0.00
398.55	0.00
398.74	0.00
398.93	0.00
399.12	0.00
399.32	0.00
399.51	0.00
399.70	0.00
399.90	0.00
400.09	0.00
400.28	0.00
400.47	0.00
400.67	0.00
400.86	0.00
401.05	0.00
401.24	0.00
401.44	0.00
401.63	0.00
401.82	0.00
402.01	0.00
402.21	0.00
402.40	0.00
402.59	0.00
402.78	0.00
402.97	0.00
403.17	0.00
403.36	0.00
403.55	0.00
403.74	0.00
403.93	0.00
404.13	0.00
404.32	0.00
404.51	0.00
404.70	0.00
404.89	0.00
405.09	0.00
405.28	0.00
405.47	0.00
405.66	0.00
405.85	0.00
406.05	0.00
406.24	0.00
406.43	0.00
406.62	0.00
406.81	32.77
407.00	0.00
407.20	0.00
407.39	0.00
407.58	0.00
407.77	0.00
407.96	0.00
408.15	0.00
408.34	0.00
408.54	0.00
408.73	0.00
408.92	0.00
409.11	0.00
409.30	0.00
409.49	0.00
409.68	0.00
409.87	0.00
410.07	0.00
410.26	0.00
410.45	0.00
410.64	0.00
410.83	0.00
411.02	0.00
411.21	0.00
411.40	0.00
411.59	0.00
411.78	0.00
411.98	0.00
412.17	0.00
412.36	0.00
412.55	0.00
412.74	0.00
412.93	0.00
413.12	0.00
413.31	0.00
413.50	0.00
413.69	0.00
413.88	0.00
414.07	0.00
414.26	0.00
414.45	0.00
414.64	0.00
414.83	0.00
415.02	0.00
415.22	0.00
415.41	0.00
415.60	0.00
415.79	0.00
415.98	0.00
416.17	0.00
416.36	0.00
416.55	0.00
416.74	0.00
416.93	0.00
417.12	0.00
417.31	0.00
417.50	0.00
417.69	0.00
417.88	0.00
418.07	0.00
418.26	0.00
418.45	0.00
418.64	0.00
418.83	0.00
419.02	0.00
419.21	0.00
419.39	0.00
419.58	0.00
419.77	0.00
419.96	0.00
420.15	0.00
420.34	0.00
420.53	0.00
420.72	0.00
420.91	0.00
421.10	0.00
421.29	0.00
421.48	0.00
421.67	0.00
421.86	0.00
422.05	0.00
422.24	0.00
422.43	0.00
422.61	0.00
422.80	0.00
422.99	0.00
423.18	0.00
423.37	0.00
423.56	0.00
423.75	0.00
423.94	0.00
424.13	0.00
424.32	0.00
424.50	0.00
424.69	0.00
424.88	0.00
425.07	0.00
425.26	0.00
425.45	0.00
425.64	0.00
425.83	0.00
426.01	0.00
426.20	0.00
426.39	0.00
426.58	0.00
426.77	0.00
426.96	0.00
427.15	0.00
427.33	0.00
427.52	0.00
427.71	0.00
427.90	0.00
428.09	0.00
428.28	0.00
428.46	0.00
428.65	0.00
428.84	0.00
429.03	0.00
429.22	0.00
429.40	0.00
429.59	0.00
429.78	0.00
429.97	0.00
430.16	0.00
430.34	0.00
430.53	0.00
430.72	0.00
430.91	0.00
431.10	0.00
431.28	0.00
431.47	0.00
431.66	0.00
431.85	0.00
432.03	0.00
432.22	0.00
432.41	0.00
432.60	0.00
432.79	0.00
432.97	0.00
433.16	0.00
433.35	0.00
433.54	0.00
433.72	0.00
433.91	0.00
434.10	0.00
434.28	0.00
434.47	0.00
434.66	0.00
434.85	0.00
435.03	0.00
435.22	0.00
435.41	0.00
435.59	0.00
435.78	0.00
435.97	0.00
436.16	39.79
436.34	0.00
436.53	0.00
436.72	28.09
436.90	0.00
437.09	0.00
437.28	0.00
437.46	0.00
437.65	0.00
437.84	0.00
438.02	0.00
438.21	0.00
438.40	0.00
438.58	0.00
438.77	0.00
438.96	0.00
439.14	0.00
439.33	0.00
439.52	0.00
439.70	0.00
439.89	0.00
440.08	0.00
440.26	0.00
440.45	0.00
440.63	0.00
440.82	0.00
441.01	0.00
441.19	0.00
441.38	0.00
441.57	0.00
441.75	0.00
441.94	0.00
442.12	0.00
442.31	0.00
442.50	0.00
442.68	0.00
442.87	0.00
443.05	0.00
443.24	0.00
443.43	0.00
443.61	0.00
443.80	0.00
443.98	0.00
444.17	0.00
444.35	2.34
444.54	0.00
444.73	0.00
444.91	0.00
445.10	0.00
445.28	0.00
445.47	0.00
445.65	32.77
445.84	0.00
446.02	0.00
446.21	0.00
446.39	0.00
446.58	0.00
446.77	0.00
446.95	0.00
447.14	0.00
447.32	0.00
447.51	0.00
447.69	0.00
447.88	0.00
448.06	0.00
448.25	0.00
448.43	0.00
448.62	0.00
448.80	0.00
448.99	0.00
449.17	0.00
449.36	0.00
449.54	0.00
449.73	0.00
449.91	0.00
450.10	0.00
450.28	21.06
450.46	39.79
450.65	0.00
450.83	0.00
451.02	0.00
451.20	0.00
451.39	0.00
451.57	0.00
451.76	0.00
451.94	0.00
452.13	0.00
452.31	0.00
452.49	0.00
452.68	0.00
452.86	0.00
453.05	0.00
453.23	0.00
453.42	0.00
453.60	0.00
453.78	0.00
453.97	0.00
454.15	0.00
454.34	0.00
454.52	0.00
454.70	35.11
454.89	0.00
455.07	0.00
455.26	0.00
455.44	0.00
455.62	0.00
455.81	0.00
455.99	30.43
456.17	0.00
456.36	0.00
456.54	0.00
456.73	0.00
456.91	0.00
457.09	0.00
457.28	0.00
457.46	0.00
457.64	14.04
457.83	4.68
458.01	0.00
458.19	25.75
458.38	0.00
458.56	0.00
458.74	0.00
458.93	9.36
459.11	0.00
459.29	0.00
459.48	0.00
459.66	0.00
459.84	0.00
460.03	0.00
460.21	0.00
460.39	2.34
460.57	16.38
460.76	23.41
460.94	0.00
461.12	0.00
461.31	0.00
461.49	0.00
461.67	44.47
461.85	0.00
462.04	7.02
462.22	657.69
462.40	72.56
462.59	0.00
462.77	0.00
462.95	0.00
463.13	0.00
463.32	0.00
463.50	0.00
463.68	0.00
463.86	51.49
464.05	0.00
464.23	0.00
464.41	49.15
464.59	0.00
464.78	0.00
464.96	0.00
465.14	0.00
465.32	0.00
465.50	21.06
465.69	23.41
465.87	0.00
466.05	0.00
466.23	0.00
466.41	0.00
466.60	16.38
466.78	0.00
466.96	0.00
467.14	0.00
467.32	25.75
467.51	0.00
467.69	23.41
467.87	60.85
468.05	0.00
468.23	25.75
468.41	28.09
468.60	18.72
468.78	35.11
468.96	0.00
469.14	77.24
469.32	0.00
469.50	0.00
469.69	0.00
469.87	0.00
470.05	0.00
470.23	0.00
470.41	0.00
470.59	0.00
470.77	0.00
470.95	7.02
471.14	65.54
471.32	0.00
471.50	2.34
471.68	0.00
471.86	0.00
472.04	0.00
472.22	0.00
472.40	0.00
472.58	0.00
472.77	0.00
472.95	0.00
473.13	53.83
473.31	81.92
473.49	0.00
473.67	9.36
473.85	60.85
474.03	0.00
474.21	32.77
474.39	0.00
474.57	21.06
474.75	0.00
474.93	0.00
475.12	0.00
475.30	0.00
475.48	0.00
475.66	16.38
475.84	18.72
476.02	0.00
476.20	0.00
476.38	49.15
476.56	72.56
476.74	84.26
476.92	9.36
477.10	0.00
477.28	28.09
477.46	0.00
477.64	46.81
477.82	42.13
478.00	21.06
478.18	79.58
478.36	0.00
478.54	0.00
478.72	81.92
478.90	46.81
479.08	84.26
479.26	0.00
479.44	23.41
479.62	0.00
479.80	84.26
479.98	37.45
480.16	23.41
480.34	23.41
480.52	37.45
480.70	119.37
480.88	0.00
481.06	70.22
481.24	79.58
481.41	51.49
481.59	30.43
481.77	39.79
481.95	0.00
482.13	102.98
482.31	7.02
482.49	49.15
482.67	140.43
482.85	21.06
483.03	18.72
483.21	74.90
483.39	0.00
483.57	98.30
483.74	72.56
483.92	91.28
484.10	21.06
484.28	39.79
484.46	65.54
484.64	110.01
484.82	63.19
485.00	81.92
485.18	67.88
485.35	51.49
485.53	0.00
485.71	63.19
485.89	67.88
486.07	77.24
486.25	140.43
486.43	86.60
486.61	58.51
486.78	79.58
486.96	0.00
487.14	65.54
487.32	63.19
487.50	152.13
487.68	133.41
487.85	56.17
488.03	156.82
488.21	184.90
488.39	126.39
488.57	149.79
488.75	65.54
488.92	402.57
489.10	25.75
489.28	145.11
489.46	102.98
489.64	182.56
489.81	28.09
489.99	112.35
490.17	161.50
490.35	187.24
490.53	60.85
490.70	154.48
490.88	196.60
491.06	128.73
491.24	105.32
491.41	175.54
491.59	58.51
491.77	44.47
491.95	133.41
492.13	236.39
492.30	152.13
492.48	126.39
492.66	149.79
492.84	124.05
493.01	166.18
493.19	173.20
493.37	203.63
493.54	138.09
493.72	138.09
493.90	88.94
494.08	236.39
494.25	126.39
494.43	184.90
494.61	220.01
494.79	191.92
494.96	105.32
495.14	100.64
495.32	168.52
495.49	191.92
495.67	227.03
495.85	205.97
496.02	173.20
496.20	227.03
496.38	182.56
496.55	170.86
496.73	161.50
496.91	194.26
497.09	189.58
497.26	138.09
497.44	208.31
497.62	70.22
497.79	231.71
497.97	191.92
498.14	205.97
498.32	241.08
498.50	217.67
498.67	212.99
498.85	189.58
499.03	236.39
499.20	187.24
499.38	163.84
499.56	184.90
499.73	269.16
499.91	301.93
500.08	262.14
500.26	175.54
500.44	205.97
500.61	210.65
500.79	140.43
500.97	220.01
501.14	189.58
501.32	177.88
501.49	234.05
501.67	119.37
501.84	201.29
502.02	149.79
502.20	227.03
502.37	135.75
502.55	276.18
502.72	266.82
502.90	191.92
503.07	191.92
503.25	189.58
503.43	149.79
503.60	241.08
503.78	250.44
503.95	241.08
504.13	229.37
504.30	262.14
504.48	320.65
504.65	269.16
504.83	231.71
505.01	243.42
505.18	201.29
505.36	294.91
505.53	217.67
505.71	238.73
505.88	250.44
506.06	234.05
506.23	220.01
506.41	163.84
506.58	173.20
506.76	297.25
506.93	210.65
507.11	313.63
507.28	252.78
507.46	217.67
507.63	191.92
507.81	156.82
507.98	248.10
508.16	236.39
508.33	229.37
508.50	297.25
508.68	269.16
508.85	243.42
509.03	271.50
509.20	189.58
509.38	255.12
509.55	322.99
509.73	248.10
509.90	290.23
510.08	264.48
510.25	182.56
510.42	210.65
510.60	234.05
510.77	170.86
510.95	322.99
511.12	222.35
511.30	348.74
511.47	273.84
511.64	358.10
511.82	238.73
511.99	273.84
512.17	285.55
512.34	243.42
512.51	266.82
512.69	264.48
512.86	271.50
513.04	203.63
513.21	337.04
513.38	222.35
513.56	205.97
513.73	147.45
513.90	187.24
514.08	175.54
514.25	264.48
514.43	306.61
514.60	210.65
514.77	159.16
514.95	269.16
515.12	238.73
515.29	299.59
515.47	348.74
515.64	278.52
515.81	252.78
515.99	318.31
516.16	259.80
516.33	184.90
516.51	170.86
516.68	140.43
516.85	138.09
517.03	248.10
517.20	170.86
517.37	273.84
517.54	290.23
517.72	304.27
517.89	107.66
518.06	117.03
518.24	299.59
518.41	273.84
518.58	318.31
518.75	210.65
518.93	276.18
519.10	227.03
519.27	236.39
519.45	257.46
519.62	248.10
519.79	266.82
519.96	229.37
520.14	322.99
520.31	339.38
520.48	238.73
520.65	264.48
520.83	353.42
521.00	273.84
521.17	259.80
521.34	243.42
521.52	304.27
521.69	294.91
521.86	320.65
522.03	330.02
522.20	318.31
522.38	259.80
522.55	287.89
522.72	189.58
522.89	304.27
523.07	337.04
523.24	334.70
523.41	306.61
523.58	297.25
523.75	276.18
523.92	299.59
524.10	369.80
524.27	243.42
524.44	220.01
524.61	358.10
524.78	313.63
524.96	311.29
525.13	304.27
525.30	339.38
525.47	334.70
525.64	266.82
525.81	290.23
525.98	266.82
526.16	196.60
526.33	245.76
526.50	229.37
526.67	301.93
526.84	187.24
527.01	297.25
527.18	294.91
527.36	313.63
527.53	308.95
527.70	330.02
527.87	203.63
528.04	400.23
528.21	313.63
528.38	299.59
528.55	318.31
528.72	320.65
528.89	381.51
529.07	383.85
529.24	435.34
529.41	318.31
529.58	353.42
529.75	351.08
529.92	304.27
530.09	351.08
530.26	365.12
530.43	409.59
530.60	276.18
530.77	294.91
530.94	395.55
531.11	339.38
531.28	285.55
531.46	395.55
531.63	327.68
531.80	369.80
531.97	280.86
532.14	301.93
532.31	346.40
532.48	273.84
532.65	271.50
532.82	283.20
532.99	353.42
533.16	358.10
533.33	276.18
533.50	327.68
533.67	322.99
533.84	290.23
534.01	383.85
534.18	285.55
534.35	369.80
534.52	369.80
534.69	409.59
534.86	353.42
535.03	358.10
535.20	337.04
535.37	369.80
535.54	337.04
535.71	344.06
535.88	278.52
536.05	367.46
536.22	271.50
536.38	306.61
536.55	292.57
536.72	269.16
536.89	255.12
537.06	294.91
537.23	355.76
537.40	367.46
537.57	379.17
537.74	311.29
537.91	381.51
538.08	372.15
538.25	369.80
538.42	341.72
538.59	407.25
538.75	346.40
538.92	285.55
539.09	334.70
539.26	294.91
539.43	376.83
539.60	320.65
539.77	325.33
539.94	386.19
540.11	294.91
540.28	278.52
540.44	447.04
540.61	327.68
540.78	280.86
540.95	243.42
541.12	346.40
541.29	322.99
541.46	344.06
541.62	433.00
541.79	315.97
541.96	344.06
542.13	341.72
542.30	210.65
542.47	325.33
542.63	346.40
542.80	271.50
542.97	374.49
543.14	318.31
543.31	388.53
543.48	407.25
543.64	395.55
543.81	348.74
543.98	283.20
544.15	315.97
544.32	325.33
544.48	369.80
544.65	248.10
544.82	421.30
544.99	348.74
545.16	341.72
545.32	306.61
545.49	421.30
545.66	320.65
545.83	330.02
546.00	294.91
546.16	311.29
546.33	287.89
546.50	339.38
546.67	444.70
546.83	397.89
547.00	280.86
547.17	294.91
547.34	369.80
547.50	320.65
547.67	358.10
547.84	273.84
548.00	318.31
548.17	409.59
548.34	322.99
548.51	428.32
548.67	369.80
548.84	339.38
549.01	404.91
549.18	353.42
549.34	423.64
549.51	402.57
549.68	365.12
549.84	344.06
550.01	320.65
550.18	528.96
550.34	362.78
550.51	414.27
550.68	365.12
550.84	322.99
551.01	355.76
551.18	390.87
551.34	353.42
551.51	271.50
551.68	397.89
551.84	299.59
552.01	287.89
552.18	337.04
552.34	351.08
552.51	341.72
552.68	337.04
552.84	393.21
553.01	372.15
553.18	355.76
553.34	360.44
553.51	308.95
553.67	327.68
553.84	351.08
554.01	327.68
554.17	358.10
554.34	365.12
554.51	346.40
554.67	327.68
554.84	358.10
555.00	304.27
555.17	379.17
555.33	400.23
555.50	386.19
555.67	287.89
555.83	381.51
556.00	425.98
556.16	554.71
556.33	332.36
556.50	360.44
556.66	294.91
556.83	292.57
556.99	348.74
557.16	372.15
557.32	418.96
557.49	351.08
557.65	294.91
557.82	355.76
557.98	308.95
558.15	184.90
558.32	386.19
558.48	332.36
558.65	367.46
558.81	322.99
558.98	294.91
559.14	273.84
559.31	393.21
559.47	337.04
559.64	301.93
559.80	379.17
559.97	322.99
560.13	346.40
560.30	301.93
560.46	257.46
560.63	348.74
560.79	292.57
560.96	269.16
561.12	278.52
561.29	383.85
561.45	311.29
561.61	243.42
561.78	407.25
561.94	266.82
562.11	283.20
562.27	318.31
562.44	379.17
562.60	294.91
562.77	383.85
562.93	367.46
563.10	390.87
563.26	447.04
563.42	334.70
563.59	339.38
563.75	358.10
563.92	362.78
564.08	381.51
564.24	287.89
564.41	334.70
564.57	280.86
564.74	381.51
564.90	332.36
565.07	250.44
565.23	325.33
565.39	358.10
565.56	290.23
565.72	318.31
565.88	252.78
566.05	278.52
566.21	334.70
566.38	322.99
566.54	411.93
566.70	276.18
566.87	379.17
567.03	304.27
567.19	346.40
567.36	308.95
567.52	365.12
567.68	362.78
567.85	409.59
568.01	283.20
568.17	365.12
568.34	262.14
568.50	365.12
568.66	325.33
568.83	465.77
568.99	344.06
569.15	341.72
569.32	297.25
569.48	330.02
569.64	292.57
569.81	334.70
569.97	308.95
570.13	334.70
570.30	358.10
570.46	330.02
570.62	278.52
570.78	348.74
570.95	262.14
571.11	379.17
571.27	407.25
571.43	245.76
571.60	285.55
571.76	297.25
571.92	273.84
572.09	346.40
572.25	344.06
572.41	306.61
572.57	383.85
572.74	407.25
572.90	292.57
573.06	325.33
573.22	325.33
573.38	397.89
573.55	299.59
573.71	449.38
573.87	437.68
574.03	278.52
574.20	308.95
574.36	360.44
574.52	285.55
574.68	318.31
574.84	400.23
575.01	262.14
575.17	388.53
575.33	304.27
575.49	332.36
575.65	372.15
575.82	393.21
575.98	472.79
576.14	196.60
576.30	306.61
576.46	313.63
576.62	339.38
576.79	322.99
576.95	423.64
577.11	341.72
577.27	285.55
577.43	414.27
577.59	348.74
577.75	376.83
577.92	292.57
578.08	215.33
578.24	262.14
578.40	348.74
578.56	344.06
578.72	285.55
578.88	280.86
579.04	320.65
579.21	404.91
579.37	271.50
579.53	238.73
579.69	299.59
579.85	273.84
580.01	341.72
580.17	257.46
580.33	339.38
580.49	306.61
580.65	393.21
580.82	330.02
580.98	301.93
581.14	290.23
581.30	330.02
581.46	287.89
581.62	332.36
581.78	273.84
581.94	402.57
582.10	308.95
582.26	318.31
582.42	294.91
582.58	334.70
582.74	248.10
582.90	262.14
583.06	365.12
583.22	360.44
583.38	287.89
583.54	283.20
583.70	416.62
583.86	285.55
584.02	301.93
584.18	353.42
584.34	322.99
584.50	332.36
584.66	308.95
584.82	304.27
584.98	358.10
585.14	294.91
585.30	313.63
585.46	348.74
585.62	322.99
585.78	320.65
585.94	315.97
586.10	428.32
586.26	297.25
586.42	325.33
586.58	367.46
586.74	337.04
586.90	320.65
587.06	360.44
587.22	278.52
587.38	304.27
587.54	348.74
587.70	367.46
587.86	337.04
588.02	269.16
588.18	243.42
588.34	227.03
588.49	220.01
588.65	173.20
588.81	248.10
588.97	149.79
589.13	271.50
589.29	212.99
589.45	330.02
589.61	234.05
589.77	308.95
589.93	269.16
590.08	238.73
590.24	264.48
590.40	318.31
590.56	332.36
590.72	203.63
590.88	220.01
591.04	304.27
591.20	252.78
591.35	360.44
591.51	252.78
591.67	166.18
591.83	182.56
591.99	278.52
592.15	278.52
592.31	304.27
592.46	297.25
592.62	264.48
592.78	276.18
592.94	217.67
593.10	252.78
593.26	290.23
593.41	367.46
593.57	257.46
593.73	322.99
593.89	271.50
594.05	304.27
594.20	245.76
594.36	250.44
594.52	308.95
594.68	201.29
594.84	367.46
594.99	404.91
595.15	341.72
595.31	400.23
595.47	383.85
595.62	353.42
595.78	224.69
595.94	301.93
596.10	372.15
596.25	304.27
596.41	386.19
596.57	304.27
596.73	332.36
596.88	189.58
597.04	280.86
597.20	231.71
597.36	290.23
597.51	297.25
597.67	252.78
597.83	227.03
597.99	273.84
598.14	294.91
598.30	266.82
598.46	215.33
598.61	287.89
598.77	250.44
598.93	168.52
599.09	264.48
599.24	306.61
599.40	269.16
599.56	229.37
599.71	255.12
599.87	269.16
600.03	376.83
600.18	212.99
600.34	234.05
600.50	248.10
600.65	224.69
600.81	196.60
600.97	273.84
601.12	283.20
601.28	337.04
601.44	318.31
601.59	262.14
601.75	248.10
601.91	252.78
602.06	224.69
602.22	479.81
602.37	269.16
602.53	280.86
602.69	330.02
602.84	238.73
603.00	285.55
603.16	346.40
603.31	334.70
603.47	245.76
603.62	238.73
603.78	280.86
603.94	337.04
604.09	271.50
604.25	344.06
604.40	339.38
604.56	278.52
604.71	280.86
604.87	217.67
605.03	189.58
605.18	255.12
605.34	285.55
605.49	243.42
605.65	278.52
605.80	290.23
605.96	337.04
606.12	299.59
606.27	365.12
606.43	241.08
606.58	285.55
606.74	308.95
606.89	334.70
607.05	395.55
607.20	236.39
607.36	255.12
607.51	222.35
607.67	255.12
607.82	299.59
607.98	301.93
608.13	243.42
608.29	241.08
608.44	322.99
608.60	234.05
608.75	276.18
608.91	262.14
609.06	259.80
609.22	243.42
609.37	276.18
609.53	322.99
609.68	304.27
609.84	280.86
609.99	114.69
610.15	191.92
610.30	308.95
610.46	332.36
610.61	264.48
610.76	252.78
610.92	229.37
611.07	250.44
611.23	290.23
611.38	220.01
611.54	184.90
611.69	283.20
611.84	180.22
612.00	161.50
612.15	112.35
612.31	110.01
612.46	175.54
612.62	117.03
612.77	297.25
612.92	250.44
613.08	252.78
613.23	241.08
613.39	259.80
613.54	140.43
613.69	203.63
613.85	212.99
614.00	189.58
614.15	276.18
614.31	212.99
614.46	264.48
614.62	138.09
614.77	292.57
614.92	271.50
615.08	184.90
615.23	269.16
615.38	257.46
615.54	255.12
615.69	210.65
615.84	208.31
616.00	215.33
616.15	173.20
616.30	276.18
616.46	196.60
616.61	236.39
616.76	196.60
616.92	376.83
617.07	217.67
617.22	241.08
617.37	196.60
617.53	243.42
617.68	201.29
617.83	283.20
617.99	304.27
618.14	224.69
618.29	210.65
618.45	133.41
618.60	161.50
618.75	215.33
618.90	189.58
619.06	145.11
619.21	222.35
619.36	283.20
619.51	175.54
619.67	203.63
619.82	107.66
619.97	243.42
620.12	322.99
620.28	243.42
620.43	227.03
620.58	315.97
620.73	255.12
620.89	255.12
621.04	175.54
621.19	250.44
621.34	154.48
621.49	208.31
621.65	234.05
621.80	201.29
621.95	128.73
622.10	283.20
622.25	170.86
622.41	112.35
622.56	159.16
622.71	175.54
622.86	210.65
623.01	191.92
623.16	262.14
623.32	241.08
