SpectraSuite Data File
++++++++++++++++++++++++++++++++++++
Date: Mon Oct 07 14:59:56 GMT-05:00 2013
User: price-jones
Dark Spectrum Present: No
Reference Spectrum Present: No
Number of Sampled Component Spectra: 1
Spectrometers: USB2+H05261
Integration Time (usec): 100000 (USB2+H05261)
Spectra Averaged: 1 (USB2+H05261)
Boxcar Smoothing: 0 (USB2+H05261)
Correct for Electrical Dark: No (USB2+H05261)
Strobe/Lamp Enabled: No (USB2+H05261)
Correct for Detector Non-linearity: No (USB2+H05261)
Correct for Stray Light: No (USB2+H05261)
Number of Pixels in Processed Spectrum: 2048
>>>>>Begin Processed Spectral Data<<<<<
365.73	0.00
365.92	0.00
366.12	0.00
366.32	0.00
366.52	0.00
366.72	0.00
366.91	0.00
367.11	0.00
367.31	0.00
367.51	0.00
367.70	0.00
367.90	0.00
368.10	0.00
368.30	0.00
368.49	0.00
368.69	0.00
368.89	0.00
369.09	0.00
369.28	0.00
369.48	0.00
369.68	0.00
369.87	0.00
370.07	0.00
370.27	0.00
370.47	0.00
370.66	0.00
370.86	0.00
371.06	0.00
371.25	0.00
371.45	0.00
371.65	0.00
371.84	0.00
372.04	0.00
372.24	0.00
372.44	0.00
372.63	0.00
372.83	0.00
373.03	0.00
373.22	0.00
373.42	0.00
373.62	0.00
373.81	0.00
374.01	0.00
374.21	0.00
374.40	0.00
374.60	0.00
374.79	0.00
374.99	0.00
375.19	0.00
375.38	0.00
375.58	0.00
375.78	0.00
375.97	0.00
376.17	0.00
376.37	0.00
376.56	0.00
376.76	0.00
376.95	0.00
377.15	0.00
377.35	0.00
377.54	0.00
377.74	0.00
377.93	0.00
378.13	0.00
378.33	0.00
378.52	0.00
378.72	0.00
378.91	0.00
379.11	0.00
379.31	0.00
379.50	0.00
379.70	0.00
379.89	0.00
380.09	0.00
380.28	0.00
380.48	0.00
380.68	0.00
380.87	0.00
381.07	0.00
381.26	0.00
381.46	0.00
381.65	0.00
381.85	0.00
382.04	0.00
382.24	0.00
382.43	0.00
382.63	0.00
382.83	0.00
383.02	0.00
383.22	0.00
383.41	0.00
383.61	0.00
383.80	0.00
384.00	0.00
384.19	0.00
384.39	0.00
384.58	0.00
384.78	0.00
384.97	0.00
385.17	0.00
385.36	0.00
385.56	0.00
385.75	0.00
385.95	0.00
386.14	0.00
386.34	0.00
386.53	0.00
386.72	0.00
386.92	0.00
387.11	0.00
387.31	0.00
387.50	0.00
387.70	0.00
387.89	0.00
388.09	0.00
388.28	0.00
388.48	0.00
388.67	0.00
388.86	0.00
389.06	0.00
389.25	0.00
389.45	0.00
389.64	0.00
389.84	0.00
390.03	0.00
390.22	0.00
390.42	0.00
390.61	0.00
390.81	0.00
391.00	0.00
391.19	0.00
391.39	0.00
391.58	0.00
391.78	0.00
391.97	0.00
392.16	0.00
392.36	0.00
392.55	0.00
392.75	0.00
392.94	0.00
393.13	0.00
393.33	0.00
393.52	0.00
393.71	0.00
393.91	0.00
394.10	0.00
394.29	0.00
394.49	0.00
394.68	0.00
394.88	0.00
395.07	0.00
395.26	0.00
395.46	0.00
395.65	0.00
395.84	0.00
396.04	0.00
396.23	0.00
396.42	0.00
396.62	0.00
396.81	0.00
397.00	0.00
397.19	0.00
397.39	0.00
397.58	0.00
397.77	0.00
397.97	0.00
398.16	0.00
398.35	0.00
398.55	0.00
398.74	0.00
398.93	0.00
399.12	0.00
399.32	0.00
399.51	0.00
399.70	0.00
399.90	0.00
400.09	0.00
400.28	0.00
400.47	0.00
400.67	0.00
400.86	0.00
401.05	0.00
401.24	0.00
401.44	0.00
401.63	0.00
401.82	0.00
402.01	0.00
402.21	0.00
402.40	0.00
402.59	0.00
402.78	0.00
402.97	0.00
403.17	0.00
403.36	0.00
403.55	0.00
403.74	0.00
403.93	0.00
404.13	0.00
404.32	0.00
404.51	0.00
404.70	0.00
404.89	0.00
405.09	0.00
405.28	0.00
405.47	0.00
405.66	0.00
405.85	0.00
406.05	0.00
406.24	0.00
406.43	0.00
406.62	0.00
406.81	0.00
407.00	0.00
407.20	0.00
407.39	0.00
407.58	0.00
407.77	0.00
407.96	0.00
408.15	0.00
408.34	0.00
408.54	0.00
408.73	0.00
408.92	0.00
409.11	0.00
409.30	0.00
409.49	0.00
409.68	0.00
409.87	0.00
410.07	0.00
410.26	0.00
410.45	0.00
410.64	0.00
410.83	0.00
411.02	0.00
411.21	0.00
411.40	0.00
411.59	0.00
411.78	0.00
411.98	0.00
412.17	0.00
412.36	0.00
412.55	0.00
412.74	0.00
412.93	0.00
413.12	0.00
413.31	0.00
413.50	0.00
413.69	0.00
413.88	0.00
414.07	0.00
414.26	0.00
414.45	0.00
414.64	0.00
414.83	0.00
415.02	0.00
415.22	0.00
415.41	0.00
415.60	0.00
415.79	0.00
415.98	0.00
416.17	0.00
416.36	0.00
416.55	0.00
416.74	0.00
416.93	0.00
417.12	0.00
417.31	0.00
417.50	0.00
417.69	0.00
417.88	0.00
418.07	0.00
418.26	0.00
418.45	0.00
418.64	0.00
418.83	0.00
419.02	0.00
419.21	0.00
419.39	0.00
419.58	0.00
419.77	0.00
419.96	0.00
420.15	0.00
420.34	0.00
420.53	0.00
420.72	0.00
420.91	0.00
421.10	0.00
421.29	0.00
421.48	0.00
421.67	0.00
421.86	0.00
422.05	0.00
422.24	0.00
422.43	0.00
422.61	0.00
422.80	0.00
422.99	0.00
423.18	0.00
423.37	0.00
423.56	0.00
423.75	0.00
423.94	0.00
424.13	0.00
424.32	0.00
424.50	0.00
424.69	0.00
424.88	0.00
425.07	0.00
425.26	0.00
425.45	0.00
425.64	0.00
425.83	0.00
426.01	0.00
426.20	0.00
426.39	0.00
426.58	0.00
426.77	0.00
426.96	0.00
427.15	0.00
427.33	0.00
427.52	0.00
427.71	0.00
427.90	0.00
428.09	0.00
428.28	0.00
428.46	0.00
428.65	0.00
428.84	0.00
429.03	0.00
429.22	0.00
429.40	0.00
429.59	0.00
429.78	0.00
429.97	0.00
430.16	0.00
430.34	0.00
430.53	0.00
430.72	0.00
430.91	0.00
431.10	0.00
431.28	0.00
431.47	0.00
431.66	0.00
431.85	0.00
432.03	0.00
432.22	0.00
432.41	0.00
432.60	0.00
432.79	0.00
432.97	0.00
433.16	0.00
433.35	0.00
433.54	0.00
433.72	0.00
433.91	0.00
434.10	0.00
434.28	0.00
434.47	0.00
434.66	0.00
434.85	0.00
435.03	0.00
435.22	0.00
435.41	0.00
435.59	0.00
435.78	0.00
435.97	0.00
436.16	0.00
436.34	0.00
436.53	0.00
436.72	0.00
436.90	0.00
437.09	0.00
437.28	0.00
437.46	0.00
437.65	0.00
437.84	0.00
438.02	0.00
438.21	0.00
438.40	0.00
438.58	0.00
438.77	0.00
438.96	0.00
439.14	0.00
439.33	0.00
439.52	0.00
439.70	0.00
439.89	0.00
440.08	0.00
440.26	0.00
440.45	0.00
440.63	0.00
440.82	0.00
441.01	0.00
441.19	0.00
441.38	0.00
441.57	0.00
441.75	0.00
441.94	0.00
442.12	0.00
442.31	0.00
442.50	0.00
442.68	0.00
442.87	0.00
443.05	0.00
443.24	0.00
443.43	9.36
443.61	0.00
443.80	0.00
443.98	0.00
444.17	0.00
444.35	0.00
444.54	0.00
444.73	0.00
444.91	0.00
445.10	0.00
445.28	0.00
445.47	0.00
445.65	0.00
445.84	0.00
446.02	0.00
446.21	0.00
446.39	0.00
446.58	0.00
446.77	0.00
446.95	0.00
447.14	0.00
447.32	0.00
447.51	0.00
447.69	0.00
447.88	0.00
448.06	0.00
448.25	16.38
448.43	0.00
448.62	0.00
448.80	0.00
448.99	0.00
449.17	0.00
449.36	0.00
449.54	0.00
449.73	0.00
449.91	14.04
450.10	0.00
450.28	0.00
450.46	0.00
450.65	79.58
450.83	7.02
451.02	0.00
451.20	37.45
451.39	0.00
451.57	0.00
451.76	0.00
451.94	0.00
452.13	0.00
452.31	0.00
452.49	39.79
452.68	0.00
452.86	14.04
453.05	0.00
453.23	0.00
453.42	0.00
453.60	0.00
453.78	0.00
453.97	0.00
454.15	0.00
454.34	0.00
454.52	0.00
454.70	0.00
454.89	0.00
455.07	0.00
455.26	0.00
455.44	0.00
455.62	0.00
455.81	0.00
455.99	0.00
456.17	0.00
456.36	0.00
456.54	0.00
456.73	0.00
456.91	0.00
457.09	9.36
457.28	37.45
457.46	0.00
457.64	21.06
457.83	0.00
458.01	0.00
458.19	0.00
458.38	0.00
458.56	0.00
458.74	0.00
458.93	14.04
459.11	21.06
459.29	0.00
459.48	0.00
459.66	63.19
459.84	0.00
460.03	91.28
460.21	37.45
460.39	0.00
460.57	14.04
460.76	21.06
460.94	0.00
461.12	21.06
461.31	0.00
461.49	0.00
461.67	0.00
461.85	0.00
462.04	0.00
462.22	622.58
462.40	53.83
462.59	0.00
462.77	18.72
462.95	0.00
463.13	0.00
463.32	9.36
463.50	0.00
463.68	0.00
463.86	0.00
464.05	0.00
464.23	65.54
464.41	0.00
464.59	0.00
464.78	0.00
464.96	0.00
465.14	0.00
465.32	0.00
465.50	0.00
465.69	7.02
465.87	0.00
466.05	0.00
466.23	0.00
466.41	0.00
466.60	0.00
466.78	0.00
466.96	0.00
467.14	0.00
467.32	0.00
467.51	46.81
467.69	32.77
467.87	4.68
468.05	4.68
468.23	32.77
468.41	0.00
468.60	0.00
468.78	7.02
468.96	18.72
469.14	11.70
469.32	0.00
469.50	14.04
469.69	70.22
469.87	0.00
470.05	4.68
470.23	0.00
470.41	0.00
470.59	0.00
470.77	0.00
470.95	7.02
471.14	37.45
471.32	0.00
471.50	0.00
471.68	39.79
471.86	0.00
472.04	0.00
472.22	4.68
472.40	0.00
472.58	0.00
472.77	0.00
472.95	35.11
473.13	105.32
473.31	21.06
473.49	0.00
473.67	23.41
473.85	4.68
474.03	16.38
474.21	44.47
474.39	30.43
474.57	7.02
474.75	49.15
474.93	63.19
475.12	2.34
475.30	0.00
475.48	0.00
475.66	0.00
475.84	23.41
476.02	23.41
476.20	23.41
476.38	79.58
476.56	79.58
476.74	0.00
476.92	21.06
477.10	0.00
477.28	25.75
477.46	0.00
477.64	0.00
477.82	74.90
478.00	0.00
478.18	23.41
478.36	0.00
478.54	44.47
478.72	46.81
478.90	56.17
479.08	0.00
479.26	60.85
479.44	105.32
479.62	18.72
479.80	100.64
479.98	0.00
480.16	58.51
480.34	159.16
480.52	28.09
480.70	0.00
480.88	30.43
481.06	0.00
481.24	63.19
481.41	58.51
481.59	77.24
481.77	95.96
481.95	72.56
482.13	161.50
482.31	77.24
482.49	67.88
482.67	152.13
482.85	147.45
483.03	35.11
483.21	81.92
483.39	79.58
483.57	32.77
483.74	117.03
483.92	107.66
484.10	37.45
484.28	56.17
484.46	138.09
484.64	63.19
484.82	175.54
485.00	70.22
485.18	72.56
485.35	0.00
485.53	30.43
485.71	79.58
485.89	30.43
486.07	77.24
486.25	182.56
486.43	72.56
486.61	110.01
486.78	98.30
486.96	60.85
487.14	67.88
487.32	72.56
487.50	100.64
487.68	81.92
487.85	98.30
488.03	142.77
488.21	138.09
488.39	149.79
488.57	72.56
488.75	67.88
488.92	414.27
489.10	166.18
489.28	191.92
489.46	102.98
489.64	126.39
489.81	72.56
489.99	110.01
490.17	70.22
490.35	243.42
490.53	114.69
490.70	58.51
490.88	145.11
491.06	91.28
491.24	86.60
491.41	166.18
491.59	128.73
491.77	86.60
491.95	77.24
492.13	135.75
492.30	180.22
492.48	170.86
492.66	161.50
492.84	198.95
493.01	166.18
493.19	152.13
493.37	166.18
493.54	180.22
493.72	191.92
493.90	187.24
494.08	147.45
494.25	198.95
494.43	217.67
494.61	220.01
494.79	156.82
494.96	156.82
495.14	177.88
495.32	159.16
495.49	126.39
495.67	98.30
495.85	65.54
496.02	154.48
496.20	236.39
496.38	205.97
496.55	159.16
496.73	194.26
496.91	128.73
497.09	208.31
497.26	189.58
497.44	229.37
497.62	182.56
497.79	238.73
497.97	177.88
498.14	220.01
498.32	102.98
498.50	227.03
498.67	231.71
498.85	231.71
499.03	201.29
499.20	220.01
499.38	154.48
499.56	262.14
499.73	269.16
499.91	315.97
500.08	191.92
500.26	133.41
500.44	133.41
500.61	283.20
500.79	241.08
500.97	234.05
501.14	264.48
501.32	278.52
501.49	173.20
501.67	224.69
501.84	210.65
502.02	234.05
502.20	306.61
502.37	198.95
502.55	222.35
502.72	224.69
502.90	259.80
503.07	311.29
503.25	210.65
503.43	203.63
503.60	222.35
503.78	191.92
503.95	241.08
504.13	212.99
504.30	245.76
504.48	238.73
504.65	292.57
504.83	269.16
505.01	205.97
505.18	203.63
505.36	271.50
505.53	217.67
505.71	166.18
505.88	334.70
506.06	269.16
506.23	238.73
506.41	229.37
506.58	278.52
506.76	252.78
506.93	215.33
507.11	280.86
507.28	292.57
507.46	198.95
507.63	205.97
507.81	250.44
507.98	280.86
508.16	273.84
508.33	297.25
508.50	212.99
508.68	269.16
508.85	220.01
509.03	269.16
509.20	290.23
509.38	315.97
509.55	322.99
509.73	325.33
509.90	259.80
510.08	241.08
510.25	262.14
510.42	250.44
510.60	297.25
510.77	313.63
510.95	266.82
511.12	308.95
511.30	339.38
511.47	313.63
511.64	369.80
511.82	248.10
511.99	292.57
512.17	276.18
512.34	266.82
512.51	210.65
512.69	208.31
512.86	271.50
513.04	238.73
513.21	273.84
513.38	227.03
513.56	241.08
513.73	304.27
513.90	234.05
514.08	126.39
514.25	262.14
514.43	241.08
514.60	301.93
514.77	222.35
514.95	276.18
515.12	205.97
515.29	215.33
515.47	243.42
515.64	346.40
515.81	259.80
515.99	320.65
516.16	166.18
516.33	168.52
516.51	100.64
516.68	124.05
516.85	189.58
517.03	236.39
517.20	341.72
517.37	344.06
517.54	231.71
517.72	269.16
517.89	184.90
518.06	133.41
518.24	283.20
518.41	266.82
518.58	325.33
518.75	229.37
518.93	212.99
519.10	297.25
519.27	269.16
519.45	217.67
519.62	287.89
519.79	276.18
519.96	301.93
520.14	290.23
520.31	306.61
520.48	278.52
520.65	255.12
520.83	353.42
521.00	259.80
521.17	287.89
521.34	320.65
521.52	306.61
521.69	299.59
521.86	315.97
522.03	341.72
522.20	262.14
522.38	297.25
522.55	308.95
522.72	327.68
522.89	294.91
523.07	374.49
523.24	327.68
523.41	372.15
523.58	330.02
523.75	325.33
523.92	351.08
524.10	365.12
524.27	386.19
524.44	320.65
524.61	327.68
524.78	351.08
524.96	351.08
525.13	348.74
525.30	311.29
525.47	278.52
525.64	266.82
525.81	280.86
525.98	224.69
526.16	273.84
526.33	191.92
526.50	180.22
526.67	248.10
526.84	252.78
527.01	264.48
527.18	311.29
527.36	299.59
527.53	245.76
527.70	435.34
527.87	276.18
528.04	421.30
528.21	332.36
528.38	393.21
528.55	479.81
528.72	425.98
528.89	414.27
529.07	369.80
529.24	301.93
529.41	440.02
529.58	278.52
529.75	224.69
529.92	395.55
530.09	273.84
530.26	428.32
530.43	332.36
530.60	383.85
530.77	418.96
530.94	304.27
531.11	334.70
531.28	299.59
531.46	341.72
531.63	301.93
531.80	327.68
531.97	325.33
532.14	292.57
532.31	287.89
532.48	262.14
532.65	308.95
532.82	299.59
532.99	271.50
533.16	308.95
533.33	360.44
533.50	257.46
533.67	243.42
533.84	374.49
534.01	353.42
534.18	306.61
534.35	304.27
534.52	313.63
534.69	397.89
534.86	290.23
535.03	318.31
535.20	433.00
535.37	435.34
535.54	430.66
535.71	369.80
535.88	341.72
536.05	376.83
536.22	348.74
536.38	367.46
536.55	311.29
536.72	362.78
536.89	269.16
537.06	318.31
537.23	339.38
537.40	325.33
537.57	304.27
537.74	327.68
537.91	339.38
538.08	278.52
538.25	409.59
538.42	276.18
538.59	404.91
538.75	315.97
538.92	252.78
539.09	367.46
539.26	297.25
539.43	379.17
539.60	334.70
539.77	325.33
539.94	362.78
540.11	285.55
540.28	358.10
540.44	372.15
540.61	358.10
540.78	414.27
540.95	344.06
541.12	414.27
541.29	287.89
541.46	407.25
541.62	390.87
541.79	372.15
541.96	224.69
542.13	360.44
542.30	301.93
542.47	372.15
542.63	353.42
542.80	402.57
542.97	374.49
543.14	330.02
543.31	351.08
543.48	294.91
543.64	355.76
543.81	353.42
543.98	358.10
544.15	358.10
544.32	341.72
544.48	372.15
544.65	311.29
544.82	334.70
544.99	278.52
545.16	294.91
545.32	341.72
545.49	430.66
545.66	360.44
545.83	372.15
546.00	311.29
546.16	290.23
546.33	315.97
546.50	311.29
546.67	397.89
546.83	376.83
547.00	264.48
547.17	306.61
547.34	344.06
547.50	332.36
547.67	322.99
547.84	360.44
548.00	330.02
548.17	315.97
548.34	339.38
548.51	465.77
548.67	381.51
548.84	416.62
549.01	358.10
549.18	304.27
549.34	379.17
549.51	386.19
549.68	311.29
549.84	365.12
550.01	397.89
550.18	447.04
550.34	489.17
550.51	358.10
550.68	362.78
550.84	339.38
551.01	365.12
551.18	444.70
551.34	397.89
551.51	482.15
551.68	433.00
551.84	346.40
552.01	367.46
552.18	362.78
552.34	330.02
552.51	327.68
552.68	285.55
552.84	348.74
553.01	402.57
553.18	395.55
553.34	416.62
553.51	315.97
553.67	390.87
553.84	447.04
554.01	334.70
554.17	290.23
554.34	388.53
554.51	322.99
554.67	402.57
554.84	416.62
555.00	365.12
555.17	367.46
555.33	414.27
555.50	341.72
555.67	435.34
555.83	367.46
556.00	271.50
556.16	648.33
556.33	416.62
556.50	339.38
556.66	383.85
556.83	318.31
556.99	365.12
557.16	393.21
557.32	337.04
557.49	327.68
557.65	386.19
557.82	306.61
557.98	322.99
558.15	294.91
558.32	299.59
558.48	271.50
558.65	341.72
558.81	376.83
558.98	353.42
559.14	367.46
559.31	299.59
559.47	390.87
559.64	283.20
559.80	346.40
559.97	360.44
560.13	360.44
560.30	358.10
560.46	330.02
560.63	430.66
560.79	383.85
560.96	369.80
561.12	344.06
561.29	353.42
561.45	299.59
561.61	360.44
561.78	374.49
561.94	379.17
562.11	388.53
562.27	383.85
562.44	351.08
562.60	433.00
562.77	313.63
562.93	416.62
563.10	402.57
563.26	365.12
563.42	402.57
563.59	374.49
563.75	297.25
563.92	393.21
564.08	318.31
564.24	381.51
564.41	299.59
564.57	241.08
564.74	311.29
564.90	306.61
565.07	362.78
565.23	372.15
565.39	374.49
565.56	346.40
565.72	320.65
565.88	271.50
566.05	290.23
566.21	355.76
566.38	395.55
566.54	372.15
566.70	346.40
566.87	280.86
567.03	252.78
567.19	339.38
567.36	332.36
567.52	367.46
567.68	255.12
567.85	393.21
568.01	353.42
568.17	271.50
568.34	344.06
568.50	353.42
568.66	248.10
568.83	409.59
568.99	376.83
569.15	346.40
569.32	297.25
569.48	330.02
569.64	367.46
569.81	334.70
569.97	393.21
570.13	337.04
570.30	278.52
570.46	322.99
570.62	318.31
570.78	313.63
570.95	280.86
571.11	332.36
571.27	416.62
571.43	344.06
571.60	348.74
571.76	320.65
571.92	341.72
572.09	402.57
572.25	400.23
572.41	351.08
572.57	386.19
572.74	353.42
572.90	346.40
573.06	313.63
573.22	243.42
573.38	381.51
573.55	353.42
573.71	369.80
573.87	280.86
574.03	287.89
574.20	262.14
574.36	351.08
574.52	330.02
574.68	383.85
574.84	287.89
575.01	262.14
575.17	372.15
575.33	278.52
575.49	407.25
575.65	393.21
575.82	346.40
575.98	304.27
576.14	306.61
576.30	341.72
576.46	383.85
576.62	322.99
576.79	355.76
576.95	337.04
577.11	351.08
577.27	404.91
577.43	337.04
577.59	339.38
577.75	315.97
577.92	320.65
578.08	339.38
578.24	273.84
578.40	369.80
578.56	341.72
578.72	315.97
578.88	365.12
579.04	320.65
579.21	325.33
579.37	205.97
579.53	337.04
579.69	468.11
579.85	360.44
580.01	369.80
580.17	299.59
580.33	346.40
580.49	322.99
580.65	365.12
580.82	379.17
580.98	393.21
581.14	379.17
581.30	276.18
581.46	283.20
581.62	365.12
581.78	388.53
581.94	315.97
582.10	327.68
582.26	362.78
582.42	341.72
582.58	376.83
582.74	264.48
582.90	322.99
583.06	311.29
583.22	271.50
583.38	273.84
583.54	276.18
583.70	374.49
583.86	318.31
584.02	257.46
584.18	451.72
584.34	332.36
584.50	330.02
584.66	351.08
584.82	280.86
584.98	362.78
585.14	276.18
585.30	381.51
585.46	259.80
585.62	315.97
585.78	238.73
585.94	283.20
586.10	404.91
586.26	320.65
586.42	362.78
586.58	315.97
586.74	245.76
586.90	390.87
587.06	360.44
587.22	374.49
587.38	283.20
587.54	304.27
587.70	262.14
587.86	280.86
588.02	301.93
588.18	287.89
588.34	346.40
588.49	229.37
588.65	220.01
588.81	142.77
588.97	234.05
589.13	198.95
589.29	285.55
589.45	264.48
589.61	227.03
589.77	390.87
589.93	257.46
590.08	292.57
590.24	229.37
590.40	351.08
590.56	360.44
590.72	248.10
590.88	292.57
591.04	292.57
591.20	227.03
591.35	372.15
591.51	346.40
591.67	229.37
591.83	287.89
591.99	271.50
592.15	374.49
592.31	351.08
592.46	276.18
592.62	383.85
592.78	259.80
592.94	220.01
593.10	266.82
593.26	344.06
593.41	212.99
593.57	327.68
593.73	227.03
593.89	355.76
594.05	229.37
594.20	243.42
594.36	297.25
594.52	285.55
594.68	301.93
594.84	285.55
594.99	252.78
595.15	276.18
595.31	339.38
595.47	379.17
595.62	341.72
595.78	376.83
595.94	243.42
596.10	379.17
596.25	339.38
596.41	322.99
596.57	322.99
596.73	313.63
596.88	325.33
597.04	252.78
597.20	269.16
597.36	238.73
597.51	227.03
597.67	297.25
597.83	238.73
597.99	351.08
598.14	287.89
598.30	332.36
598.46	264.48
598.61	243.42
598.77	294.91
598.93	266.82
599.09	241.08
599.24	290.23
599.40	278.52
599.56	215.33
599.71	273.84
599.87	351.08
600.03	255.12
600.18	264.48
600.34	231.71
600.50	227.03
600.65	358.10
600.81	255.12
600.97	290.23
601.12	283.20
601.28	315.97
601.44	245.76
601.59	327.68
601.75	212.99
601.91	250.44
602.06	264.48
602.22	367.46
602.37	238.73
602.53	348.74
602.69	285.55
602.84	257.46
603.00	313.63
603.16	386.19
603.31	255.12
603.47	276.18
603.62	264.48
603.78	327.68
603.94	285.55
604.09	308.95
604.25	262.14
604.40	348.74
604.56	210.65
604.71	383.85
604.87	332.36
605.03	243.42
605.18	278.52
605.34	330.02
605.49	299.59
605.65	334.70
605.80	215.33
605.96	231.71
606.12	283.20
606.27	234.05
606.43	269.16
606.58	327.68
606.74	332.36
606.89	241.08
607.05	313.63
607.20	285.55
607.36	248.10
607.51	227.03
607.67	259.80
607.82	264.48
607.98	313.63
608.13	264.48
608.29	280.86
608.44	374.49
608.60	245.76
608.75	334.70
608.91	269.16
609.06	245.76
609.22	269.16
609.37	241.08
609.53	210.65
609.68	243.42
609.84	189.58
609.99	248.10
610.15	276.18
610.30	196.60
610.46	271.50
610.61	224.69
610.76	280.86
610.92	191.92
611.07	287.89
611.23	386.19
611.38	266.82
611.54	161.50
611.69	301.93
611.84	290.23
612.00	280.86
612.15	231.71
612.31	259.80
612.46	215.33
612.62	182.56
612.77	292.57
612.92	231.71
613.08	210.65
613.23	287.89
613.39	166.18
613.54	159.16
613.69	177.88
613.85	194.26
614.00	243.42
614.15	203.63
614.31	189.58
614.46	266.82
614.62	196.60
614.77	308.95
614.92	238.73
615.08	278.52
615.23	236.39
615.38	269.16
615.54	212.99
615.69	283.20
615.84	182.56
616.00	273.84
616.15	126.39
616.30	168.52
616.46	156.82
616.61	210.65
616.76	248.10
616.92	208.31
617.07	191.92
617.22	250.44
617.37	170.86
617.53	149.79
617.68	229.37
617.83	332.36
617.99	285.55
618.14	327.68
618.29	273.84
618.45	285.55
618.60	173.20
618.75	184.90
618.90	110.01
619.06	252.78
619.21	306.61
619.36	212.99
619.51	121.71
619.67	238.73
619.82	198.95
619.97	224.69
620.12	255.12
620.28	215.33
620.43	255.12
620.58	222.35
620.73	271.50
620.89	259.80
621.04	201.29
621.19	271.50
621.34	154.48
621.49	159.16
621.65	269.16
621.80	110.01
621.95	203.63
622.10	201.29
622.25	128.73
622.41	212.99
622.56	161.50
622.71	191.92
622.86	224.69
623.01	224.69
623.16	203.63
623.32	154.48
