SpectraSuite Data File
++++++++++++++++++++++++++++++++++++
Date: Mon Oct 07 14:59:56 GMT-05:00 2013
User: price-jones
Dark Spectrum Present: No
Reference Spectrum Present: No
Number of Sampled Component Spectra: 1
Spectrometers: USB2+H05261
Integration Time (usec): 100000 (USB2+H05261)
Spectra Averaged: 1 (USB2+H05261)
Boxcar Smoothing: 0 (USB2+H05261)
Correct for Electrical Dark: No (USB2+H05261)
Strobe/Lamp Enabled: No (USB2+H05261)
Correct for Detector Non-linearity: No (USB2+H05261)
Correct for Stray Light: No (USB2+H05261)
Number of Pixels in Processed Spectrum: 2048
>>>>>Begin Processed Spectral Data<<<<<
365.73	0.00
365.92	0.00
366.12	0.00
366.32	0.00
366.52	0.00
366.72	0.00
366.91	0.00
367.11	0.00
367.31	0.00
367.51	0.00
367.70	0.00
367.90	0.00
368.10	0.00
368.30	0.00
368.49	0.00
368.69	0.00
368.89	0.00
369.09	0.00
369.28	0.00
369.48	0.00
369.68	0.00
369.87	0.00
370.07	0.00
370.27	0.00
370.47	0.00
370.66	0.00
370.86	0.00
371.06	0.00
371.25	0.00
371.45	0.00
371.65	0.00
371.84	0.00
372.04	0.00
372.24	0.00
372.44	0.00
372.63	0.00
372.83	0.00
373.03	0.00
373.22	0.00
373.42	0.00
373.62	0.00
373.81	0.00
374.01	0.00
374.21	0.00
374.40	0.00
374.60	0.00
374.79	0.00
374.99	0.00
375.19	0.00
375.38	0.00
375.58	0.00
375.78	0.00
375.97	0.00
376.17	0.00
376.37	0.00
376.56	0.00
376.76	0.00
376.95	0.00
377.15	0.00
377.35	0.00
377.54	0.00
377.74	0.00
377.93	0.00
378.13	0.00
378.33	0.00
378.52	0.00
378.72	0.00
378.91	0.00
379.11	0.00
379.31	0.00
379.50	0.00
379.70	0.00
379.89	0.00
380.09	0.00
380.28	0.00
380.48	0.00
380.68	0.00
380.87	0.00
381.07	0.00
381.26	0.00
381.46	0.00
381.65	0.00
381.85	0.00
382.04	0.00
382.24	0.00
382.43	0.00
382.63	0.00
382.83	0.00
383.02	0.00
383.22	0.00
383.41	0.00
383.61	0.00
383.80	0.00
384.00	0.00
384.19	0.00
384.39	0.00
384.58	0.00
384.78	0.00
384.97	0.00
385.17	0.00
385.36	0.00
385.56	0.00
385.75	0.00
385.95	0.00
386.14	0.00
386.34	0.00
386.53	0.00
386.72	0.00
386.92	0.00
387.11	0.00
387.31	0.00
387.50	0.00
387.70	0.00
387.89	0.00
388.09	0.00
388.28	0.00
388.48	0.00
388.67	0.00
388.86	0.00
389.06	0.00
389.25	0.00
389.45	0.00
389.64	0.00
389.84	0.00
390.03	0.00
390.22	0.00
390.42	0.00
390.61	0.00
390.81	0.00
391.00	0.00
391.19	0.00
391.39	0.00
391.58	0.00
391.78	0.00
391.97	0.00
392.16	0.00
392.36	0.00
392.55	0.00
392.75	0.00
392.94	0.00
393.13	0.00
393.33	0.00
393.52	0.00
393.71	0.00
393.91	0.00
394.10	0.00
394.29	0.00
394.49	0.00
394.68	0.00
394.88	0.00
395.07	0.00
395.26	0.00
395.46	0.00
395.65	0.00
395.84	0.00
396.04	0.00
396.23	0.00
396.42	0.00
396.62	0.00
396.81	0.00
397.00	0.00
397.19	0.00
397.39	0.00
397.58	0.00
397.77	0.00
397.97	0.00
398.16	0.00
398.35	0.00
398.55	0.00
398.74	0.00
398.93	0.00
399.12	0.00
399.32	0.00
399.51	0.00
399.70	0.00
399.90	0.00
400.09	0.00
400.28	0.00
400.47	0.00
400.67	0.00
400.86	0.00
401.05	0.00
401.24	0.00
401.44	0.00
401.63	0.00
401.82	0.00
402.01	0.00
402.21	0.00
402.40	0.00
402.59	0.00
402.78	0.00
402.97	0.00
403.17	0.00
403.36	0.00
403.55	0.00
403.74	0.00
403.93	0.00
404.13	0.00
404.32	0.00
404.51	0.00
404.70	0.00
404.89	0.00
405.09	0.00
405.28	0.00
405.47	0.00
405.66	0.00
405.85	0.00
406.05	0.00
406.24	0.00
406.43	0.00
406.62	0.00
406.81	0.00
407.00	0.00
407.20	0.00
407.39	0.00
407.58	0.00
407.77	0.00
407.96	0.00
408.15	0.00
408.34	0.00
408.54	0.00
408.73	0.00
408.92	0.00
409.11	0.00
409.30	0.00
409.49	0.00
409.68	0.00
409.87	0.00
410.07	0.00
410.26	0.00
410.45	0.00
410.64	0.00
410.83	0.00
411.02	0.00
411.21	0.00
411.40	0.00
411.59	0.00
411.78	0.00
411.98	0.00
412.17	0.00
412.36	0.00
412.55	0.00
412.74	0.00
412.93	0.00
413.12	0.00
413.31	0.00
413.50	0.00
413.69	0.00
413.88	0.00
414.07	0.00
414.26	0.00
414.45	0.00
414.64	0.00
414.83	0.00
415.02	0.00
415.22	0.00
415.41	0.00
415.60	0.00
415.79	0.00
415.98	0.00
416.17	0.00
416.36	0.00
416.55	0.00
416.74	0.00
416.93	0.00
417.12	0.00
417.31	0.00
417.50	0.00
417.69	0.00
417.88	0.00
418.07	0.00
418.26	0.00
418.45	0.00
418.64	0.00
418.83	0.00
419.02	0.00
419.21	0.00
419.39	0.00
419.58	0.00
419.77	0.00
419.96	0.00
420.15	0.00
420.34	0.00
420.53	0.00
420.72	0.00
420.91	0.00
421.10	0.00
421.29	0.00
421.48	0.00
421.67	0.00
421.86	0.00
422.05	0.00
422.24	0.00
422.43	0.00
422.61	0.00
422.80	0.00
422.99	0.00
423.18	0.00
423.37	0.00
423.56	0.00
423.75	0.00
423.94	0.00
424.13	0.00
424.32	0.00
424.50	0.00
424.69	0.00
424.88	0.00
425.07	0.00
425.26	0.00
425.45	0.00
425.64	0.00
425.83	0.00
426.01	0.00
426.20	0.00
426.39	0.00
426.58	0.00
426.77	0.00
426.96	0.00
427.15	0.00
427.33	0.00
427.52	0.00
427.71	0.00
427.90	0.00
428.09	0.00
428.28	0.00
428.46	0.00
428.65	0.00
428.84	0.00
429.03	0.00
429.22	0.00
429.40	0.00
429.59	0.00
429.78	0.00
429.97	0.00
430.16	0.00
430.34	0.00
430.53	0.00
430.72	0.00
430.91	0.00
431.10	0.00
431.28	0.00
431.47	0.00
431.66	0.00
431.85	0.00
432.03	0.00
432.22	0.00
432.41	0.00
432.60	0.00
432.79	0.00
432.97	0.00
433.16	0.00
433.35	0.00
433.54	0.00
433.72	0.00
433.91	0.00
434.10	0.00
434.28	0.00
434.47	0.00
434.66	0.00
434.85	0.00
435.03	0.00
435.22	0.00
435.41	0.00
435.59	0.00
435.78	0.00
435.97	0.00
436.16	0.00
436.34	0.00
436.53	0.00
436.72	0.00
436.90	0.00
437.09	0.00
437.28	0.00
437.46	0.00
437.65	0.00
437.84	0.00
438.02	0.00
438.21	0.00
438.40	0.00
438.58	0.00
438.77	0.00
438.96	0.00
439.14	0.00
439.33	0.00
439.52	0.00
439.70	0.00
439.89	0.00
440.08	0.00
440.26	0.00
440.45	0.00
440.63	0.00
440.82	0.00
441.01	0.00
441.19	0.00
441.38	0.00
441.57	0.00
441.75	0.00
441.94	39.79
442.12	0.00
442.31	0.00
442.50	0.00
442.68	0.00
442.87	0.00
443.05	0.00
443.24	0.00
443.43	0.00
443.61	0.00
443.80	0.00
443.98	0.00
444.17	0.00
444.35	2.34
444.54	0.00
444.73	0.00
444.91	0.00
445.10	0.00
445.28	0.00
445.47	0.00
445.65	0.00
445.84	0.00
446.02	0.00
446.21	0.00
446.39	0.00
446.58	0.00
446.77	2.34
446.95	0.00
447.14	0.00
447.32	0.00
447.51	0.00
447.69	0.00
447.88	0.00
448.06	0.00
448.25	0.00
448.43	30.43
448.62	0.00
448.80	0.00
448.99	0.00
449.17	0.00
449.36	0.00
449.54	0.00
449.73	0.00
449.91	0.00
450.10	0.00
450.28	25.75
450.46	42.13
450.65	0.00
450.83	0.00
451.02	32.77
451.20	0.00
451.39	0.00
451.57	0.00
451.76	0.00
451.94	0.00
452.13	0.00
452.31	0.00
452.49	25.75
452.68	0.00
452.86	0.00
453.05	44.47
453.23	0.00
453.42	0.00
453.60	0.00
453.78	0.00
453.97	0.00
454.15	0.00
454.34	0.00
454.52	0.00
454.70	0.00
454.89	0.00
455.07	0.00
455.26	0.00
455.44	56.17
455.62	0.00
455.81	0.00
455.99	0.00
456.17	0.00
456.36	0.00
456.54	16.38
456.73	0.00
456.91	0.00
457.09	0.00
457.28	11.70
457.46	0.00
457.64	0.00
457.83	0.00
458.01	0.00
458.19	0.00
458.38	0.00
458.56	0.00
458.74	0.00
458.93	0.00
459.11	7.02
459.29	0.00
459.48	2.34
459.66	81.92
459.84	0.00
460.03	42.13
460.21	0.00
460.39	0.00
460.57	30.43
460.76	0.00
460.94	0.00
461.12	72.56
461.31	0.00
461.49	0.00
461.67	18.72
461.85	23.41
462.04	0.00
462.22	580.45
462.40	44.47
462.59	46.81
462.77	0.00
462.95	44.47
463.13	23.41
463.32	0.00
463.50	0.00
463.68	0.00
463.86	4.68
464.05	0.00
464.23	0.00
464.41	0.00
464.59	37.45
464.78	0.00
464.96	0.00
465.14	0.00
465.32	0.00
465.50	0.00
465.69	7.02
465.87	4.68
466.05	30.43
466.23	0.00
466.41	0.00
466.60	0.00
466.78	0.00
466.96	16.38
467.14	32.77
467.32	0.00
467.51	28.09
467.69	4.68
467.87	0.00
468.05	0.00
468.23	44.47
468.41	14.04
468.60	0.00
468.78	0.00
468.96	58.51
469.14	0.00
469.32	0.00
469.50	0.00
469.69	0.00
469.87	49.15
470.05	0.00
470.23	0.00
470.41	0.00
470.59	30.43
470.77	30.43
470.95	0.00
471.14	44.47
471.32	2.34
471.50	70.22
471.68	0.00
471.86	16.38
472.04	0.00
472.22	18.72
472.40	0.00
472.58	0.00
472.77	0.00
472.95	0.00
473.13	23.41
473.31	4.68
473.49	0.00
473.67	0.00
473.85	35.11
474.03	0.00
474.21	0.00
474.39	114.69
474.57	37.45
474.75	86.60
474.93	0.00
475.12	9.36
475.30	0.00
475.48	0.00
475.66	0.00
475.84	0.00
476.02	2.34
476.20	28.09
476.38	0.00
476.56	32.77
476.74	35.11
476.92	28.09
477.10	37.45
477.28	63.19
477.46	88.94
477.64	135.75
477.82	9.36
478.00	44.47
478.18	0.00
478.36	9.36
478.54	0.00
478.72	0.00
478.90	32.77
479.08	91.28
479.26	39.79
479.44	35.11
479.62	0.00
479.80	74.90
479.98	51.49
480.16	79.58
480.34	119.37
480.52	39.79
480.70	32.77
480.88	21.06
481.06	4.68
481.24	16.38
481.41	56.17
481.59	175.54
481.77	72.56
481.95	32.77
482.13	42.13
482.31	67.88
482.49	131.07
482.67	77.24
482.85	142.77
483.03	60.85
483.21	88.94
483.39	56.17
483.57	77.24
483.74	133.41
483.92	49.15
484.10	32.77
484.28	58.51
484.46	189.58
484.64	9.36
484.82	9.36
485.00	51.49
485.18	149.79
485.35	44.47
485.53	0.00
485.71	35.11
485.89	0.00
486.07	0.00
486.25	187.24
486.43	28.09
486.61	79.58
486.78	110.01
486.96	42.13
487.14	56.17
487.32	140.43
487.50	25.75
487.68	110.01
487.85	18.72
488.03	145.11
488.21	126.39
488.39	140.43
488.57	56.17
488.75	25.75
488.92	510.24
489.10	203.63
489.28	205.97
489.46	100.64
489.64	152.13
489.81	124.05
489.99	138.09
490.17	72.56
490.35	229.37
490.53	84.26
490.70	110.01
490.88	105.32
491.06	117.03
491.24	124.05
491.41	140.43
491.59	79.58
491.77	77.24
491.95	84.26
492.13	114.69
492.30	166.18
492.48	229.37
492.66	203.63
492.84	182.56
493.01	196.60
493.19	166.18
493.37	259.80
493.54	187.24
493.72	114.69
493.90	114.69
494.08	212.99
494.25	135.75
494.43	222.35
494.61	191.92
494.79	243.42
494.96	124.05
495.14	161.50
495.32	145.11
495.49	203.63
495.67	271.50
495.85	175.54
496.02	119.37
496.20	280.86
496.38	234.05
496.55	194.26
496.73	212.99
496.91	198.95
497.09	215.33
497.26	203.63
497.44	243.42
497.62	112.35
497.79	231.71
497.97	166.18
498.14	250.44
498.32	217.67
498.50	299.59
498.67	215.33
498.85	231.71
499.03	177.88
499.20	191.92
499.38	145.11
499.56	161.50
499.73	210.65
499.91	238.73
500.08	180.22
500.26	173.20
500.44	191.92
500.61	215.33
500.79	220.01
500.97	166.18
501.14	208.31
501.32	212.99
501.49	238.73
501.67	175.54
501.84	217.67
502.02	149.79
502.20	299.59
502.37	231.71
502.55	156.82
502.72	210.65
502.90	280.86
503.07	194.26
503.25	189.58
503.43	173.20
503.60	124.05
503.78	138.09
503.95	152.13
504.13	145.11
504.30	170.86
504.48	212.99
504.65	313.63
504.83	304.27
505.01	276.18
505.18	201.29
505.36	210.65
505.53	227.03
505.71	135.75
505.88	332.36
506.06	238.73
506.23	194.26
506.41	311.29
506.58	229.37
506.76	248.10
506.93	205.97
507.11	224.69
507.28	170.86
507.46	156.82
507.63	145.11
507.81	154.48
507.98	227.03
508.16	255.12
508.33	191.92
508.50	306.61
508.68	234.05
508.85	304.27
509.03	208.31
509.20	245.76
509.38	184.90
509.55	283.20
509.73	341.72
509.90	255.12
510.08	229.37
510.25	297.25
510.42	318.31
510.60	264.48
510.77	276.18
510.95	346.40
511.12	280.86
511.30	311.29
511.47	372.15
511.64	292.57
511.82	210.65
511.99	285.55
512.17	220.01
512.34	224.69
512.51	241.08
512.69	271.50
512.86	327.68
513.04	297.25
513.21	229.37
513.38	327.68
513.56	327.68
513.73	257.46
513.90	259.80
514.08	212.99
514.25	259.80
514.43	224.69
514.60	227.03
514.77	257.46
514.95	294.91
515.12	278.52
515.29	308.95
515.47	245.76
515.64	234.05
515.81	252.78
515.99	262.14
516.16	217.67
516.33	222.35
516.51	184.90
516.68	98.30
516.85	114.69
517.03	269.16
517.20	234.05
517.37	276.18
517.54	280.86
517.72	217.67
517.89	184.90
518.06	177.88
518.24	215.33
518.41	294.91
518.58	271.50
518.75	252.78
518.93	266.82
519.10	264.48
519.27	229.37
519.45	248.10
519.62	283.20
519.79	269.16
519.96	264.48
520.14	318.31
520.31	344.06
520.48	252.78
520.65	304.27
520.83	322.99
521.00	304.27
521.17	313.63
521.34	330.02
521.52	243.42
521.69	283.20
521.86	360.44
522.03	280.86
522.20	250.44
522.38	334.70
522.55	250.44
522.72	217.67
522.89	301.93
523.07	381.51
523.24	315.97
523.41	351.08
523.58	332.36
523.75	315.97
523.92	283.20
524.10	355.76
524.27	266.82
524.44	287.89
524.61	318.31
524.78	297.25
524.96	334.70
525.13	320.65
525.30	353.42
525.47	320.65
525.64	339.38
525.81	369.80
525.98	353.42
526.16	250.44
526.33	264.48
526.50	182.56
526.67	259.80
526.84	170.86
527.01	299.59
527.18	369.80
527.36	334.70
527.53	194.26
527.70	273.84
527.87	315.97
528.04	376.83
528.21	212.99
528.38	409.59
528.55	376.83
528.72	355.76
528.89	360.44
529.07	379.17
529.24	278.52
529.41	372.15
529.58	313.63
529.75	245.76
529.92	315.97
530.09	257.46
530.26	362.78
530.43	376.83
530.60	348.74
530.77	369.80
530.94	341.72
531.11	287.89
531.28	365.12
531.46	280.86
531.63	334.70
531.80	339.38
531.97	339.38
532.14	365.12
532.31	259.80
532.48	297.25
532.65	318.31
532.82	203.63
532.99	372.15
533.16	325.33
533.33	269.16
533.50	297.25
533.67	294.91
533.84	276.18
534.01	440.02
534.18	266.82
534.35	376.83
534.52	299.59
534.69	437.68
534.86	318.31
535.03	341.72
535.20	376.83
535.37	393.21
535.54	369.80
535.71	386.19
535.88	395.55
536.05	330.02
536.22	346.40
536.38	308.95
536.55	337.04
536.72	365.12
536.89	290.23
537.06	367.46
537.23	301.93
537.40	280.86
537.57	287.89
537.74	346.40
537.91	332.36
538.08	421.30
538.25	222.35
538.42	416.62
538.59	287.89
538.75	325.33
538.92	294.91
539.09	313.63
539.26	259.80
539.43	390.87
539.60	376.83
539.77	325.33
539.94	353.42
540.11	397.89
540.28	355.76
540.44	355.76
540.61	243.42
540.78	285.55
540.95	374.49
541.12	372.15
541.29	306.61
541.46	315.97
541.62	320.65
541.79	365.12
541.96	379.17
542.13	285.55
542.30	351.08
542.47	322.99
542.63	341.72
542.80	332.36
542.97	360.44
543.14	367.46
543.31	341.72
543.48	339.38
543.64	400.23
543.81	353.42
543.98	315.97
544.15	276.18
544.32	360.44
544.48	421.30
544.65	320.65
544.82	444.70
544.99	428.32
545.16	372.15
545.32	447.04
545.49	330.02
545.66	369.80
545.83	341.72
546.00	374.49
546.16	430.66
546.33	351.08
546.50	306.61
546.67	472.79
546.83	341.72
547.00	325.33
547.17	351.08
547.34	330.02
547.50	308.95
547.67	383.85
547.84	299.59
548.00	339.38
548.17	386.19
548.34	360.44
548.51	365.12
548.67	447.04
548.84	393.21
549.01	376.83
549.18	355.76
549.34	339.38
549.51	351.08
549.68	255.12
549.84	311.29
550.01	280.86
550.18	503.22
550.34	411.93
550.51	402.57
550.68	365.12
550.84	339.38
551.01	313.63
551.18	351.08
551.34	386.19
551.51	358.10
551.68	337.04
551.84	383.85
552.01	360.44
552.18	332.36
552.34	400.23
552.51	381.51
552.68	369.80
552.84	339.38
553.01	346.40
553.18	372.15
553.34	304.27
553.51	283.20
553.67	425.98
553.84	428.32
554.01	393.21
554.17	353.42
554.34	428.32
554.51	379.17
554.67	390.87
554.84	404.91
555.00	313.63
555.17	362.78
555.33	409.59
555.50	346.40
555.67	372.15
555.83	315.97
556.00	372.15
556.16	568.75
556.33	306.61
556.50	332.36
556.66	344.06
556.83	294.91
556.99	351.08
557.16	362.78
557.32	358.10
557.49	348.74
557.65	365.12
557.82	322.99
557.98	278.52
558.15	273.84
558.32	299.59
558.48	283.20
558.65	294.91
558.81	327.68
558.98	334.70
559.14	374.49
559.31	313.63
559.47	346.40
559.64	325.33
559.80	374.49
559.97	243.42
560.13	332.36
560.30	280.86
560.46	374.49
560.63	386.19
560.79	421.30
560.96	322.99
561.12	294.91
561.29	327.68
561.45	332.36
561.61	320.65
561.78	454.06
561.94	311.29
562.11	320.65
562.27	332.36
562.44	351.08
562.60	444.70
562.77	322.99
562.93	411.93
563.10	351.08
563.26	297.25
563.42	365.12
563.59	297.25
563.75	355.76
563.92	311.29
564.08	308.95
564.24	358.10
564.41	425.98
564.57	269.16
564.74	320.65
564.90	369.80
565.07	325.33
565.23	330.02
565.39	222.35
565.56	308.95
565.72	273.84
565.88	409.59
566.05	358.10
566.21	346.40
566.38	318.31
566.54	344.06
566.70	372.15
566.87	362.78
567.03	290.23
567.19	400.23
567.36	404.91
567.52	334.70
567.68	369.80
567.85	315.97
568.01	283.20
568.17	224.69
568.34	234.05
568.50	297.25
568.66	278.52
568.83	362.78
568.99	332.36
569.15	280.86
569.32	315.97
569.48	327.68
569.64	255.12
569.81	351.08
569.97	341.72
570.13	264.48
570.30	241.08
570.46	227.03
570.62	273.84
570.78	318.31
570.95	241.08
571.11	390.87
571.27	402.57
571.43	243.42
571.60	372.15
571.76	306.61
571.92	367.46
572.09	271.50
572.25	299.59
572.41	252.78
572.57	308.95
572.74	397.89
572.90	411.93
573.06	449.38
573.22	348.74
573.38	430.66
573.55	400.23
573.71	383.85
573.87	271.50
574.03	273.84
574.20	330.02
574.36	318.31
574.52	367.46
574.68	376.83
574.84	290.23
575.01	311.29
575.17	341.72
575.33	334.70
575.49	327.68
575.65	332.36
575.82	379.17
575.98	407.25
576.14	395.55
576.30	304.27
576.46	374.49
576.62	367.46
576.79	266.82
576.95	360.44
577.11	271.50
577.27	229.37
577.43	320.65
577.59	348.74
577.75	355.76
577.92	313.63
578.08	351.08
578.24	266.82
578.40	369.80
578.56	360.44
578.72	348.74
578.88	294.91
579.04	313.63
579.21	330.02
579.37	313.63
579.53	348.74
579.69	379.17
579.85	416.62
580.01	297.25
580.17	355.76
580.33	266.82
580.49	486.83
580.65	297.25
580.82	351.08
580.98	337.04
581.14	308.95
581.30	365.12
581.46	339.38
581.62	397.89
581.78	304.27
581.94	355.76
582.10	351.08
582.26	217.67
582.42	315.97
582.58	423.64
582.74	334.70
582.90	304.27
583.06	285.55
583.22	353.42
583.38	301.93
583.54	409.59
583.70	440.02
583.86	344.06
584.02	330.02
584.18	348.74
584.34	325.33
584.50	330.02
584.66	283.20
584.82	346.40
584.98	344.06
585.14	362.78
585.30	381.51
585.46	341.72
585.62	322.99
585.78	327.68
585.94	212.99
586.10	322.99
586.26	360.44
586.42	428.32
586.58	341.72
586.74	365.12
586.90	273.84
587.06	355.76
587.22	440.02
587.38	297.25
587.54	271.50
587.70	383.85
587.86	266.82
588.02	304.27
588.18	320.65
588.34	346.40
588.49	222.35
588.65	243.42
588.81	229.37
588.97	259.80
589.13	170.86
589.29	191.92
589.45	339.38
589.61	196.60
589.77	322.99
589.93	318.31
590.08	297.25
590.24	330.02
590.40	290.23
590.56	271.50
590.72	271.50
590.88	257.46
591.04	266.82
591.20	344.06
591.35	348.74
591.51	203.63
591.67	236.39
591.83	299.59
591.99	222.35
592.15	285.55
592.31	297.25
592.46	266.82
592.62	283.20
592.78	266.82
592.94	304.27
593.10	234.05
593.26	269.16
593.41	346.40
593.57	320.65
593.73	315.97
593.89	278.52
594.05	294.91
594.20	341.72
594.36	308.95
594.52	327.68
594.68	278.52
594.84	353.42
594.99	327.68
595.15	386.19
595.31	292.57
595.47	379.17
595.62	344.06
595.78	278.52
595.94	299.59
596.10	337.04
596.25	318.31
596.41	390.87
596.57	278.52
596.73	301.93
596.88	262.14
597.04	255.12
597.20	276.18
597.36	299.59
597.51	299.59
597.67	271.50
597.83	276.18
597.99	266.82
598.14	285.55
598.30	292.57
598.46	241.08
598.61	339.38
598.77	257.46
598.93	187.24
599.09	222.35
599.24	184.90
599.40	318.31
599.56	201.29
599.71	306.61
599.87	297.25
600.03	255.12
600.18	320.65
600.34	280.86
600.50	250.44
600.65	191.92
600.81	311.29
600.97	229.37
601.12	290.23
601.28	301.93
601.44	222.35
601.59	264.48
601.75	299.59
601.91	238.73
602.06	304.27
602.22	355.76
602.37	252.78
602.53	315.97
602.69	229.37
602.84	236.39
603.00	252.78
603.16	299.59
603.31	264.48
603.47	351.08
603.62	297.25
603.78	262.14
603.94	360.44
604.09	262.14
604.25	297.25
604.40	411.93
604.56	304.27
604.71	236.39
604.87	299.59
605.03	299.59
605.18	273.84
605.34	355.76
605.49	222.35
605.65	313.63
605.80	257.46
605.96	273.84
606.12	287.89
606.27	294.91
606.43	264.48
606.58	301.93
606.74	255.12
606.89	315.97
607.05	395.55
607.20	252.78
607.36	264.48
607.51	257.46
607.67	276.18
607.82	301.93
607.98	264.48
608.13	301.93
608.29	198.95
608.44	264.48
608.60	252.78
608.75	290.23
608.91	318.31
609.06	318.31
609.22	222.35
609.37	299.59
609.53	283.20
609.68	339.38
609.84	320.65
609.99	266.82
610.15	245.76
610.30	304.27
610.46	241.08
610.61	299.59
610.76	222.35
610.92	283.20
611.07	222.35
611.23	339.38
611.38	264.48
611.54	262.14
611.69	269.16
611.84	266.82
612.00	166.18
612.15	252.78
612.31	245.76
612.46	278.52
612.62	215.33
612.77	292.57
612.92	285.55
613.08	290.23
613.23	266.82
613.39	189.58
613.54	215.33
613.69	201.29
613.85	306.61
614.00	271.50
614.15	252.78
614.31	198.95
614.46	297.25
614.62	269.16
614.77	301.93
614.92	194.26
615.08	210.65
615.23	306.61
615.38	227.03
615.54	250.44
615.69	180.22
615.84	105.32
616.00	191.92
616.15	241.08
616.30	243.42
616.46	271.50
616.61	191.92
616.76	231.71
616.92	227.03
617.07	271.50
617.22	269.16
617.37	184.90
617.53	264.48
617.68	304.27
617.83	285.55
617.99	360.44
618.14	212.99
618.29	257.46
618.45	252.78
618.60	269.16
618.75	227.03
618.90	212.99
619.06	299.59
619.21	334.70
619.36	285.55
619.51	170.86
619.67	205.97
619.82	208.31
619.97	315.97
620.12	257.46
620.28	241.08
620.43	243.42
620.58	257.46
620.73	245.76
620.89	217.67
621.04	234.05
621.19	259.80
621.34	273.84
621.49	191.92
621.65	280.86
621.80	170.86
621.95	173.20
622.10	241.08
622.25	184.90
622.41	203.63
622.56	177.88
622.71	131.07
622.86	217.67
623.01	182.56
623.16	294.91
623.32	173.20
