SpectraSuite Data File
++++++++++++++++++++++++++++++++++++
Date: Mon Oct 07 14:59:57 GMT-05:00 2013
User: price-jones
Dark Spectrum Present: No
Reference Spectrum Present: No
Number of Sampled Component Spectra: 1
Spectrometers: USB2+H05261
Integration Time (usec): 100000 (USB2+H05261)
Spectra Averaged: 1 (USB2+H05261)
Boxcar Smoothing: 0 (USB2+H05261)
Correct for Electrical Dark: No (USB2+H05261)
Strobe/Lamp Enabled: No (USB2+H05261)
Correct for Detector Non-linearity: No (USB2+H05261)
Correct for Stray Light: No (USB2+H05261)
Number of Pixels in Processed Spectrum: 2048
>>>>>Begin Processed Spectral Data<<<<<
365.73	0.00
365.92	0.00
366.12	0.00
366.32	0.00
366.52	0.00
366.72	0.00
366.91	0.00
367.11	0.00
367.31	0.00
367.51	0.00
367.70	0.00
367.90	0.00
368.10	0.00
368.30	0.00
368.49	0.00
368.69	0.00
368.89	0.00
369.09	0.00
369.28	0.00
369.48	0.00
369.68	0.00
369.87	0.00
370.07	0.00
370.27	0.00
370.47	0.00
370.66	0.00
370.86	0.00
371.06	0.00
371.25	0.00
371.45	0.00
371.65	0.00
371.84	0.00
372.04	0.00
372.24	0.00
372.44	0.00
372.63	0.00
372.83	0.00
373.03	0.00
373.22	0.00
373.42	0.00
373.62	0.00
373.81	0.00
374.01	0.00
374.21	0.00
374.40	0.00
374.60	0.00
374.79	0.00
374.99	0.00
375.19	0.00
375.38	0.00
375.58	0.00
375.78	0.00
375.97	0.00
376.17	0.00
376.37	0.00
376.56	0.00
376.76	0.00
376.95	0.00
377.15	0.00
377.35	0.00
377.54	0.00
377.74	0.00
377.93	0.00
378.13	0.00
378.33	0.00
378.52	0.00
378.72	0.00
378.91	0.00
379.11	0.00
379.31	0.00
379.50	0.00
379.70	0.00
379.89	0.00
380.09	0.00
380.28	0.00
380.48	0.00
380.68	0.00
380.87	0.00
381.07	0.00
381.26	0.00
381.46	0.00
381.65	0.00
381.85	0.00
382.04	0.00
382.24	0.00
382.43	0.00
382.63	0.00
382.83	0.00
383.02	0.00
383.22	0.00
383.41	0.00
383.61	0.00
383.80	0.00
384.00	0.00
384.19	0.00
384.39	0.00
384.58	0.00
384.78	0.00
384.97	0.00
385.17	0.00
385.36	0.00
385.56	0.00
385.75	0.00
385.95	0.00
386.14	0.00
386.34	0.00
386.53	0.00
386.72	0.00
386.92	0.00
387.11	0.00
387.31	0.00
387.50	0.00
387.70	0.00
387.89	0.00
388.09	0.00
388.28	0.00
388.48	0.00
388.67	0.00
388.86	0.00
389.06	0.00
389.25	0.00
389.45	0.00
389.64	0.00
389.84	0.00
390.03	0.00
390.22	0.00
390.42	0.00
390.61	0.00
390.81	0.00
391.00	0.00
391.19	0.00
391.39	0.00
391.58	0.00
391.78	0.00
391.97	0.00
392.16	0.00
392.36	0.00
392.55	0.00
392.75	0.00
392.94	0.00
393.13	0.00
393.33	0.00
393.52	0.00
393.71	0.00
393.91	0.00
394.10	0.00
394.29	0.00
394.49	0.00
394.68	0.00
394.88	0.00
395.07	0.00
395.26	0.00
395.46	0.00
395.65	0.00
395.84	0.00
396.04	0.00
396.23	0.00
396.42	0.00
396.62	0.00
396.81	0.00
397.00	0.00
397.19	0.00
397.39	0.00
397.58	0.00
397.77	0.00
397.97	0.00
398.16	0.00
398.35	0.00
398.55	0.00
398.74	0.00
398.93	0.00
399.12	0.00
399.32	0.00
399.51	0.00
399.70	0.00
399.90	0.00
400.09	0.00
400.28	0.00
400.47	0.00
400.67	0.00
400.86	0.00
401.05	0.00
401.24	0.00
401.44	0.00
401.63	0.00
401.82	0.00
402.01	0.00
402.21	0.00
402.40	0.00
402.59	0.00
402.78	0.00
402.97	0.00
403.17	0.00
403.36	0.00
403.55	0.00
403.74	0.00
403.93	0.00
404.13	0.00
404.32	0.00
404.51	0.00
404.70	0.00
404.89	0.00
405.09	0.00
405.28	0.00
405.47	0.00
405.66	0.00
405.85	0.00
406.05	0.00
406.24	0.00
406.43	0.00
406.62	0.00
406.81	0.00
407.00	0.00
407.20	0.00
407.39	0.00
407.58	0.00
407.77	0.00
407.96	0.00
408.15	0.00
408.34	0.00
408.54	0.00
408.73	0.00
408.92	0.00
409.11	0.00
409.30	0.00
409.49	0.00
409.68	0.00
409.87	0.00
410.07	0.00
410.26	0.00
410.45	0.00
410.64	0.00
410.83	0.00
411.02	0.00
411.21	0.00
411.40	0.00
411.59	0.00
411.78	0.00
411.98	0.00
412.17	0.00
412.36	0.00
412.55	0.00
412.74	0.00
412.93	0.00
413.12	0.00
413.31	0.00
413.50	0.00
413.69	0.00
413.88	0.00
414.07	0.00
414.26	0.00
414.45	0.00
414.64	0.00
414.83	0.00
415.02	0.00
415.22	0.00
415.41	0.00
415.60	0.00
415.79	0.00
415.98	0.00
416.17	0.00
416.36	0.00
416.55	0.00
416.74	0.00
416.93	0.00
417.12	0.00
417.31	0.00
417.50	0.00
417.69	0.00
417.88	0.00
418.07	0.00
418.26	0.00
418.45	0.00
418.64	0.00
418.83	0.00
419.02	0.00
419.21	0.00
419.39	0.00
419.58	0.00
419.77	0.00
419.96	0.00
420.15	0.00
420.34	0.00
420.53	0.00
420.72	0.00
420.91	0.00
421.10	0.00
421.29	0.00
421.48	0.00
421.67	0.00
421.86	0.00
422.05	0.00
422.24	0.00
422.43	0.00
422.61	0.00
422.80	0.00
422.99	0.00
423.18	0.00
423.37	0.00
423.56	0.00
423.75	0.00
423.94	0.00
424.13	0.00
424.32	0.00
424.50	0.00
424.69	0.00
424.88	0.00
425.07	0.00
425.26	0.00
425.45	0.00
425.64	0.00
425.83	0.00
426.01	0.00
426.20	0.00
426.39	0.00
426.58	0.00
426.77	0.00
426.96	0.00
427.15	0.00
427.33	0.00
427.52	0.00
427.71	0.00
427.90	0.00
428.09	0.00
428.28	0.00
428.46	0.00
428.65	0.00
428.84	0.00
429.03	0.00
429.22	0.00
429.40	0.00
429.59	0.00
429.78	0.00
429.97	0.00
430.16	0.00
430.34	0.00
430.53	0.00
430.72	0.00
430.91	0.00
431.10	0.00
431.28	0.00
431.47	0.00
431.66	0.00
431.85	0.00
432.03	0.00
432.22	0.00
432.41	0.00
432.60	0.00
432.79	0.00
432.97	0.00
433.16	0.00
433.35	0.00
433.54	0.00
433.72	0.00
433.91	0.00
434.10	0.00
434.28	0.00
434.47	0.00
434.66	0.00
434.85	0.00
435.03	0.00
435.22	0.00
435.41	0.00
435.59	0.00
435.78	0.00
435.97	0.00
436.16	0.00
436.34	0.00
436.53	0.00
436.72	0.00
436.90	0.00
437.09	0.00
437.28	0.00
437.46	0.00
437.65	0.00
437.84	0.00
438.02	0.00
438.21	0.00
438.40	0.00
438.58	0.00
438.77	0.00
438.96	0.00
439.14	0.00
439.33	0.00
439.52	0.00
439.70	0.00
439.89	0.00
440.08	0.00
440.26	0.00
440.45	0.00
440.63	0.00
440.82	0.00
441.01	28.09
441.19	0.00
441.38	9.36
441.57	0.00
441.75	21.06
441.94	0.00
442.12	0.00
442.31	0.00
442.50	0.00
442.68	0.00
442.87	0.00
443.05	0.00
443.24	0.00
443.43	0.00
443.61	0.00
443.80	0.00
443.98	0.00
444.17	0.00
444.35	18.72
444.54	0.00
444.73	0.00
444.91	0.00
445.10	0.00
445.28	0.00
445.47	0.00
445.65	0.00
445.84	37.45
446.02	0.00
446.21	0.00
446.39	0.00
446.58	56.17
446.77	0.00
446.95	0.00
447.14	0.00
447.32	0.00
447.51	0.00
447.69	0.00
447.88	0.00
448.06	37.45
448.25	0.00
448.43	0.00
448.62	0.00
448.80	0.00
448.99	0.00
449.17	0.00
449.36	0.00
449.54	0.00
449.73	0.00
449.91	0.00
450.10	0.00
450.28	32.77
450.46	9.36
450.65	30.43
450.83	0.00
451.02	0.00
451.20	0.00
451.39	23.41
451.57	0.00
451.76	0.00
451.94	0.00
452.13	0.00
452.31	0.00
452.49	0.00
452.68	0.00
452.86	0.00
453.05	0.00
453.23	0.00
453.42	0.00
453.60	0.00
453.78	0.00
453.97	0.00
454.15	0.00
454.34	0.00
454.52	0.00
454.70	14.04
454.89	0.00
455.07	0.00
455.26	0.00
455.44	0.00
455.62	14.04
455.81	0.00
455.99	0.00
456.17	0.00
456.36	0.00
456.54	0.00
456.73	0.00
456.91	0.00
457.09	0.00
457.28	0.00
457.46	0.00
457.64	9.36
457.83	0.00
458.01	0.00
458.19	0.00
458.38	0.00
458.56	0.00
458.74	0.00
458.93	39.79
459.11	7.02
459.29	0.00
459.48	18.72
459.66	88.94
459.84	14.04
460.03	81.92
460.21	0.00
460.39	0.00
460.57	0.00
460.76	0.00
460.94	0.00
461.12	11.70
461.31	16.38
461.49	60.85
461.67	0.00
461.85	0.00
462.04	0.00
462.22	599.18
462.40	0.00
462.59	0.00
462.77	11.70
462.95	25.75
463.13	0.00
463.32	0.00
463.50	23.41
463.68	14.04
463.86	0.00
464.05	0.00
464.23	0.00
464.41	0.00
464.59	0.00
464.78	0.00
464.96	0.00
465.14	0.00
465.32	0.00
465.50	0.00
465.69	0.00
465.87	0.00
466.05	0.00
466.23	0.00
466.41	0.00
466.60	4.68
466.78	0.00
466.96	0.00
467.14	4.68
467.32	65.54
467.51	0.00
467.69	4.68
467.87	0.00
468.05	0.00
468.23	25.75
468.41	0.00
468.60	0.00
468.78	0.00
468.96	0.00
469.14	9.36
469.32	0.00
469.50	0.00
469.69	0.00
469.87	0.00
470.05	0.00
470.23	0.00
470.41	0.00
470.59	0.00
470.77	9.36
470.95	0.00
471.14	0.00
471.32	49.15
471.50	35.11
471.68	2.34
471.86	53.83
472.04	0.00
472.22	0.00
472.40	0.00
472.58	23.41
472.77	16.38
472.95	14.04
473.13	79.58
473.31	0.00
473.49	0.00
473.67	11.70
473.85	37.45
474.03	46.81
474.21	25.75
474.39	0.00
474.57	25.75
474.75	49.15
474.93	46.81
475.12	0.00
475.30	0.00
475.48	28.09
475.66	21.06
475.84	25.75
476.02	72.56
476.20	11.70
476.38	0.00
476.56	142.77
476.74	49.15
476.92	0.00
477.10	56.17
477.28	100.64
477.46	0.00
477.64	81.92
477.82	110.01
478.00	37.45
478.18	93.62
478.36	0.00
478.54	16.38
478.72	88.94
478.90	70.22
479.08	49.15
479.26	95.96
479.44	32.77
479.62	32.77
479.80	0.00
479.98	0.00
480.16	56.17
480.34	107.66
480.52	0.00
480.70	53.83
480.88	28.09
481.06	95.96
481.24	0.00
481.41	88.94
481.59	74.90
481.77	23.41
481.95	49.15
482.13	53.83
482.31	72.56
482.49	21.06
482.67	119.37
482.85	72.56
483.03	60.85
483.21	112.35
483.39	0.00
483.57	84.26
483.74	131.07
483.92	74.90
484.10	35.11
484.28	77.24
484.46	224.69
484.64	51.49
484.82	79.58
485.00	107.66
485.18	168.52
485.35	56.17
485.53	28.09
485.71	25.75
485.89	51.49
486.07	42.13
486.25	65.54
486.43	49.15
486.61	88.94
486.78	102.98
486.96	25.75
487.14	81.92
487.32	23.41
487.50	124.05
487.68	74.90
487.85	53.83
488.03	140.43
488.21	98.30
488.39	46.81
488.57	91.28
488.75	39.79
488.92	440.02
489.10	35.11
489.28	147.45
489.46	56.17
489.64	210.65
489.81	170.86
489.99	65.54
490.17	161.50
490.35	208.31
490.53	98.30
490.70	128.73
490.88	112.35
491.06	147.45
491.24	189.58
491.41	175.54
491.59	163.84
491.77	63.19
491.95	23.41
492.13	58.51
492.30	208.31
492.48	187.24
492.66	133.41
492.84	152.13
493.01	177.88
493.19	107.66
493.37	184.90
493.54	145.11
493.72	156.82
493.90	224.69
494.08	91.28
494.25	227.03
494.43	177.88
494.61	166.18
494.79	173.20
494.96	149.79
495.14	217.67
495.32	149.79
495.49	189.58
495.67	182.56
495.85	203.63
496.02	264.48
496.20	224.69
496.38	168.52
496.55	245.76
496.73	234.05
496.91	241.08
497.09	252.78
497.26	227.03
497.44	191.92
497.62	220.01
497.79	245.76
497.97	182.56
498.14	170.86
498.32	210.65
498.50	269.16
498.67	154.48
498.85	217.67
499.03	271.50
499.20	156.82
499.38	217.67
499.56	187.24
499.73	348.74
499.91	175.54
500.08	205.97
500.26	182.56
500.44	238.73
500.61	248.10
500.79	231.71
500.97	201.29
501.14	227.03
501.32	149.79
501.49	248.10
501.67	114.69
501.84	203.63
502.02	187.24
502.20	346.40
502.37	189.58
502.55	208.31
502.72	187.24
502.90	252.78
503.07	285.55
503.25	220.01
503.43	250.44
503.60	191.92
503.78	255.12
503.95	234.05
504.13	210.65
504.30	238.73
504.48	182.56
504.65	280.86
504.83	194.26
505.01	227.03
505.18	304.27
505.36	224.69
505.53	278.52
505.71	301.93
505.88	344.06
506.06	276.18
506.23	257.46
506.41	262.14
506.58	236.39
506.76	224.69
506.93	187.24
507.11	290.23
507.28	210.65
507.46	189.58
507.63	229.37
507.81	189.58
507.98	245.76
508.16	184.90
508.33	227.03
508.50	210.65
508.68	280.86
508.85	196.60
509.03	252.78
509.20	248.10
509.38	250.44
509.55	210.65
509.73	341.72
509.90	297.25
510.08	255.12
510.25	245.76
510.42	238.73
510.60	308.95
510.77	311.29
510.95	346.40
511.12	252.78
511.30	252.78
511.47	311.29
511.64	358.10
511.82	259.80
511.99	231.71
512.17	255.12
512.34	271.50
512.51	212.99
512.69	311.29
512.86	273.84
513.04	142.77
513.21	266.82
513.38	201.29
513.56	156.82
513.73	215.33
513.90	194.26
514.08	273.84
514.25	285.55
514.43	212.99
514.60	259.80
514.77	290.23
514.95	259.80
515.12	299.59
515.29	313.63
515.47	238.73
515.64	285.55
515.81	271.50
515.99	334.70
516.16	266.82
516.33	159.16
516.51	187.24
516.68	131.07
516.85	220.01
517.03	168.52
517.20	220.01
517.37	301.93
517.54	325.33
517.72	325.33
517.89	201.29
518.06	140.43
518.24	234.05
518.41	353.42
518.58	266.82
518.75	196.60
518.93	320.65
519.10	287.89
519.27	184.90
519.45	280.86
519.62	297.25
519.79	315.97
519.96	217.67
520.14	250.44
520.31	252.78
520.48	304.27
520.65	262.14
520.83	287.89
521.00	299.59
521.17	280.86
521.34	341.72
521.52	315.97
521.69	355.76
521.86	252.78
522.03	257.46
522.20	313.63
522.38	287.89
522.55	255.12
522.72	304.27
522.89	285.55
523.07	358.10
523.24	301.93
523.41	313.63
523.58	311.29
523.75	311.29
523.92	259.80
524.10	315.97
524.27	330.02
524.44	255.12
524.61	367.46
524.78	243.42
524.96	311.29
525.13	451.72
525.30	360.44
525.47	376.83
525.64	271.50
525.81	287.89
525.98	344.06
526.16	327.68
526.33	285.55
526.50	269.16
526.67	149.79
526.84	220.01
527.01	229.37
527.18	278.52
527.36	311.29
527.53	283.20
527.70	369.80
527.87	388.53
528.04	304.27
528.21	304.27
528.38	365.12
528.55	327.68
528.72	433.00
528.89	386.19
529.07	362.78
529.24	348.74
529.41	376.83
529.58	290.23
529.75	287.89
529.92	287.89
530.09	311.29
530.26	353.42
530.43	308.95
530.60	379.17
530.77	358.10
530.94	402.57
531.11	360.44
531.28	376.83
531.46	327.68
531.63	355.76
531.80	369.80
531.97	367.46
532.14	346.40
532.31	327.68
532.48	259.80
532.65	252.78
532.82	308.95
532.99	311.29
533.16	318.31
533.33	278.52
533.50	365.12
533.67	248.10
533.84	299.59
534.01	344.06
534.18	358.10
534.35	397.89
534.52	262.14
534.69	416.62
534.86	304.27
535.03	330.02
535.20	252.78
535.37	425.98
535.54	346.40
535.71	409.59
535.88	386.19
536.05	365.12
536.22	346.40
536.38	334.70
536.55	276.18
536.72	346.40
536.89	400.23
537.06	372.15
537.23	283.20
537.40	332.36
537.57	313.63
537.74	383.85
537.91	341.72
538.08	397.89
538.25	351.08
538.42	367.46
538.59	337.04
538.75	362.78
538.92	353.42
539.09	306.61
539.26	369.80
539.43	402.57
539.60	318.31
539.77	351.08
539.94	318.31
540.11	292.57
540.28	351.08
540.44	334.70
540.61	315.97
540.78	297.25
540.95	283.20
541.12	299.59
541.29	407.25
541.46	374.49
541.62	332.36
541.79	304.27
541.96	348.74
542.13	287.89
542.30	369.80
542.47	461.09
542.63	339.38
542.80	304.27
542.97	372.15
543.14	379.17
543.31	381.51
543.48	330.02
543.64	379.17
543.81	355.76
543.98	423.64
544.15	327.68
544.32	280.86
544.48	383.85
544.65	318.31
544.82	437.68
544.99	414.27
545.16	381.51
545.32	320.65
545.49	365.12
545.66	404.91
545.83	351.08
546.00	332.36
546.16	376.83
546.33	276.18
546.50	304.27
546.67	475.13
546.83	362.78
547.00	451.72
547.17	290.23
547.34	287.89
547.50	337.04
547.67	304.27
547.84	346.40
548.00	332.36
548.17	330.02
548.34	271.50
548.51	383.85
548.67	470.45
548.84	360.44
549.01	383.85
549.18	325.33
549.34	313.63
549.51	344.06
549.68	386.19
549.84	283.20
550.01	353.42
550.18	535.98
550.34	393.21
550.51	355.76
550.68	383.85
550.84	325.33
551.01	418.96
551.18	435.34
551.34	397.89
551.51	301.93
551.68	379.17
551.84	365.12
552.01	292.57
552.18	379.17
552.34	351.08
552.51	348.74
552.68	337.04
552.84	294.91
553.01	372.15
553.18	388.53
553.34	358.10
553.51	332.36
553.67	376.83
553.84	440.02
554.01	381.51
554.17	416.62
554.34	332.36
554.51	376.83
554.67	423.64
554.84	402.57
555.00	465.77
555.17	402.57
555.33	290.23
555.50	332.36
555.67	346.40
555.83	407.25
556.00	318.31
556.16	622.58
556.33	337.04
556.50	231.71
556.66	285.55
556.83	341.72
556.99	322.99
557.16	390.87
557.32	351.08
557.49	358.10
557.65	252.78
557.82	362.78
557.98	320.65
558.15	313.63
558.32	306.61
558.48	301.93
558.65	390.87
558.81	388.53
558.98	299.59
559.14	287.89
559.31	346.40
559.47	397.89
559.64	320.65
559.80	341.72
559.97	358.10
560.13	290.23
560.30	388.53
560.46	353.42
560.63	320.65
560.79	353.42
560.96	337.04
561.12	306.61
561.29	339.38
561.45	245.76
561.61	325.33
561.78	482.15
561.94	301.93
562.11	301.93
562.27	262.14
562.44	299.59
562.60	320.65
562.77	332.36
562.93	430.66
563.10	365.12
563.26	353.42
563.42	416.62
563.59	386.19
563.75	276.18
563.92	294.91
564.08	322.99
564.24	327.68
564.41	400.23
564.57	372.15
564.74	386.19
564.90	353.42
565.07	411.93
565.23	327.68
565.39	285.55
565.56	374.49
565.72	318.31
565.88	304.27
566.05	229.37
566.21	306.61
566.38	404.91
566.54	395.55
566.70	348.74
566.87	344.06
567.03	369.80
567.19	315.97
567.36	409.59
567.52	341.72
567.68	264.48
567.85	285.55
568.01	379.17
568.17	262.14
568.34	243.42
568.50	365.12
568.66	330.02
568.83	390.87
568.99	264.48
569.15	344.06
569.32	259.80
569.48	292.57
569.64	252.78
569.81	318.31
569.97	372.15
570.13	308.95
570.30	292.57
570.46	269.16
570.62	231.71
570.78	257.46
570.95	322.99
571.11	315.97
571.27	374.49
571.43	285.55
571.60	362.78
571.76	308.95
571.92	346.40
572.09	344.06
572.25	351.08
572.41	262.14
572.57	294.91
572.74	397.89
572.90	383.85
573.06	372.15
573.22	294.91
573.38	318.31
573.55	353.42
573.71	411.93
573.87	346.40
574.03	292.57
574.20	315.97
574.36	348.74
574.52	313.63
574.68	337.04
574.84	351.08
575.01	334.70
575.17	325.33
575.33	322.99
575.49	367.46
575.65	330.02
575.82	339.38
575.98	322.99
576.14	369.80
576.30	332.36
576.46	355.76
576.62	301.93
576.79	379.17
576.95	297.25
577.11	372.15
577.27	346.40
577.43	353.42
577.59	273.84
577.75	280.86
577.92	287.89
578.08	353.42
578.24	245.76
578.40	344.06
578.56	330.02
578.72	341.72
578.88	372.15
579.04	351.08
579.21	313.63
579.37	311.29
579.53	306.61
579.69	444.70
579.85	294.91
580.01	376.83
580.17	327.68
580.33	294.91
580.49	346.40
580.65	376.83
580.82	334.70
580.98	313.63
581.14	306.61
581.30	351.08
581.46	252.78
581.62	374.49
581.78	278.52
581.94	407.25
582.10	334.70
582.26	287.89
582.42	271.50
582.58	383.85
582.74	348.74
582.90	362.78
583.06	325.33
583.22	337.04
583.38	280.86
583.54	376.83
583.70	369.80
583.86	332.36
584.02	390.87
584.18	337.04
584.34	334.70
584.50	360.44
584.66	341.72
584.82	334.70
584.98	379.17
585.14	313.63
585.30	411.93
585.46	442.36
585.62	367.46
585.78	297.25
585.94	264.48
586.10	367.46
586.26	369.80
586.42	369.80
586.58	313.63
586.74	313.63
586.90	283.20
587.06	397.89
587.22	397.89
587.38	294.91
587.54	315.97
587.70	341.72
587.86	334.70
588.02	278.52
588.18	159.16
588.34	297.25
588.49	208.31
588.65	231.71
588.81	248.10
588.97	147.45
589.13	217.67
589.29	238.73
589.45	278.52
589.61	327.68
589.77	325.33
589.93	285.55
590.08	278.52
590.24	252.78
590.40	292.57
590.56	297.25
590.72	290.23
590.88	292.57
591.04	306.61
591.20	313.63
591.35	304.27
591.51	334.70
591.67	257.46
591.83	304.27
591.99	306.61
592.15	351.08
592.31	210.65
592.46	259.80
592.62	400.23
592.78	241.08
592.94	304.27
593.10	346.40
593.26	238.73
593.41	297.25
593.57	337.04
593.73	339.38
593.89	287.89
594.05	325.33
594.20	241.08
594.36	393.21
594.52	311.29
594.68	248.10
594.84	397.89
594.99	337.04
595.15	278.52
595.31	367.46
595.47	447.04
595.62	285.55
595.78	283.20
595.94	337.04
596.10	311.29
596.25	203.63
596.41	278.52
596.57	191.92
596.73	313.63
596.88	241.08
597.04	189.58
597.20	250.44
597.36	327.68
597.51	234.05
597.67	248.10
597.83	325.33
597.99	231.71
598.14	287.89
598.30	346.40
598.46	271.50
598.61	330.02
598.77	332.36
598.93	278.52
599.09	290.23
599.24	287.89
599.40	229.37
599.56	301.93
599.71	313.63
599.87	358.10
600.03	304.27
600.18	327.68
600.34	304.27
600.50	220.01
600.65	283.20
600.81	421.30
600.97	318.31
601.12	315.97
601.28	311.29
601.44	266.82
601.59	255.12
601.75	257.46
601.91	269.16
602.06	252.78
602.22	280.86
602.37	327.68
602.53	257.46
602.69	257.46
602.84	271.50
603.00	231.71
603.16	325.33
603.31	292.57
603.47	346.40
603.62	250.44
603.78	191.92
603.94	297.25
604.09	287.89
604.25	334.70
604.40	271.50
604.56	149.79
604.71	276.18
604.87	325.33
605.03	327.68
605.18	285.55
605.34	287.89
605.49	369.80
605.65	245.76
605.80	308.95
605.96	255.12
606.12	346.40
606.27	259.80
606.43	266.82
606.58	287.89
606.74	273.84
606.89	245.76
607.05	313.63
607.20	248.10
607.36	273.84
607.51	189.58
607.67	292.57
607.82	250.44
607.98	210.65
608.13	248.10
608.29	287.89
608.44	318.31
608.60	271.50
608.75	252.78
608.91	266.82
609.06	341.72
609.22	318.31
609.37	210.65
609.53	236.39
609.68	220.01
609.84	175.54
609.99	203.63
610.15	322.99
610.30	238.73
610.46	304.27
610.61	215.33
610.76	322.99
610.92	269.16
611.07	205.97
611.23	376.83
611.38	238.73
611.54	243.42
611.69	234.05
611.84	201.29
612.00	229.37
612.15	278.52
612.31	217.67
612.46	217.67
612.62	241.08
612.77	313.63
612.92	297.25
613.08	243.42
613.23	280.86
613.39	201.29
613.54	205.97
613.69	229.37
613.85	287.89
614.00	259.80
614.15	231.71
614.31	152.13
614.46	243.42
614.62	306.61
614.77	234.05
614.92	241.08
615.08	194.26
615.23	236.39
615.38	285.55
615.54	259.80
615.69	262.14
615.84	201.29
616.00	224.69
616.15	250.44
616.30	208.31
616.46	180.22
616.61	161.50
616.76	180.22
616.92	215.33
617.07	245.76
617.22	182.56
617.37	236.39
617.53	248.10
617.68	241.08
617.83	318.31
617.99	264.48
618.14	245.76
618.29	229.37
618.45	297.25
618.60	194.26
618.75	147.45
618.90	189.58
619.06	236.39
619.21	259.80
619.36	299.59
619.51	189.58
619.67	194.26
619.82	147.45
619.97	271.50
620.12	194.26
620.28	210.65
620.43	278.52
620.58	287.89
620.73	322.99
620.89	332.36
621.04	248.10
621.19	231.71
621.34	159.16
621.49	208.31
621.65	234.05
621.80	241.08
621.95	170.86
622.10	290.23
622.25	241.08
622.41	173.20
622.56	273.84
622.71	182.56
622.86	238.73
623.01	229.37
623.16	222.35
