SpectraSuite Data File
++++++++++++++++++++++++++++++++++++
Date: Mon Oct 07 14:59:55 GMT-05:00 2013
User: price-jones
Dark Spectrum Present: No
Reference Spectrum Present: No
Number of Sampled Component Spectra: 1
Spectrometers: USB2+H05261
Integration Time (usec): 100000 (USB2+H05261)
Spectra Averaged: 1 (USB2+H05261)
Boxcar Smoothing: 0 (USB2+H05261)
Correct for Electrical Dark: No (USB2+H05261)
Strobe/Lamp Enabled: No (USB2+H05261)
Correct for Detector Non-linearity: No (USB2+H05261)
Correct for Stray Light: No (USB2+H05261)
Number of Pixels in Processed Spectrum: 2048
>>>>>Begin Processed Spectral Data<<<<<
365.73	0.00
365.92	0.00
366.12	0.00
366.32	0.00
366.52	0.00
366.72	0.00
366.91	0.00
367.11	0.00
367.31	0.00
367.51	0.00
367.70	0.00
367.90	0.00
368.10	0.00
368.30	0.00
368.49	0.00
368.69	0.00
368.89	0.00
369.09	0.00
369.28	0.00
369.48	0.00
369.68	0.00
369.87	0.00
370.07	0.00
370.27	0.00
370.47	0.00
370.66	0.00
370.86	0.00
371.06	0.00
371.25	0.00
371.45	0.00
371.65	0.00
371.84	0.00
372.04	0.00
372.24	0.00
372.44	0.00
372.63	0.00
372.83	0.00
373.03	0.00
373.22	0.00
373.42	0.00
373.62	0.00
373.81	0.00
374.01	0.00
374.21	0.00
374.40	0.00
374.60	0.00
374.79	0.00
374.99	0.00
375.19	0.00
375.38	0.00
375.58	0.00
375.78	0.00
375.97	0.00
376.17	0.00
376.37	0.00
376.56	0.00
376.76	0.00
376.95	0.00
377.15	0.00
377.35	0.00
377.54	0.00
377.74	0.00
377.93	0.00
378.13	0.00
378.33	0.00
378.52	0.00
378.72	0.00
378.91	0.00
379.11	0.00
379.31	0.00
379.50	0.00
379.70	0.00
379.89	0.00
380.09	0.00
380.28	0.00
380.48	0.00
380.68	0.00
380.87	0.00
381.07	0.00
381.26	0.00
381.46	0.00
381.65	0.00
381.85	0.00
382.04	0.00
382.24	0.00
382.43	0.00
382.63	0.00
382.83	0.00
383.02	0.00
383.22	0.00
383.41	0.00
383.61	0.00
383.80	0.00
384.00	0.00
384.19	0.00
384.39	0.00
384.58	0.00
384.78	0.00
384.97	0.00
385.17	0.00
385.36	0.00
385.56	0.00
385.75	0.00
385.95	0.00
386.14	0.00
386.34	0.00
386.53	0.00
386.72	0.00
386.92	0.00
387.11	0.00
387.31	0.00
387.50	0.00
387.70	0.00
387.89	0.00
388.09	0.00
388.28	0.00
388.48	0.00
388.67	0.00
388.86	0.00
389.06	0.00
389.25	0.00
389.45	0.00
389.64	0.00
389.84	0.00
390.03	0.00
390.22	0.00
390.42	0.00
390.61	0.00
390.81	0.00
391.00	0.00
391.19	0.00
391.39	0.00
391.58	0.00
391.78	0.00
391.97	0.00
392.16	0.00
392.36	0.00
392.55	0.00
392.75	0.00
392.94	0.00
393.13	0.00
393.33	0.00
393.52	0.00
393.71	0.00
393.91	0.00
394.10	0.00
394.29	0.00
394.49	0.00
394.68	0.00
394.88	0.00
395.07	0.00
395.26	0.00
395.46	0.00
395.65	0.00
395.84	0.00
396.04	0.00
396.23	0.00
396.42	0.00
396.62	0.00
396.81	0.00
397.00	0.00
397.19	0.00
397.39	0.00
397.58	0.00
397.77	0.00
397.97	0.00
398.16	0.00
398.35	0.00
398.55	0.00
398.74	0.00
398.93	0.00
399.12	0.00
399.32	0.00
399.51	0.00
399.70	0.00
399.90	0.00
400.09	0.00
400.28	0.00
400.47	0.00
400.67	0.00
400.86	0.00
401.05	0.00
401.24	0.00
401.44	0.00
401.63	0.00
401.82	0.00
402.01	0.00
402.21	0.00
402.40	0.00
402.59	0.00
402.78	0.00
402.97	0.00
403.17	0.00
403.36	0.00
403.55	0.00
403.74	0.00
403.93	0.00
404.13	0.00
404.32	0.00
404.51	0.00
404.70	0.00
404.89	0.00
405.09	0.00
405.28	0.00
405.47	0.00
405.66	0.00
405.85	0.00
406.05	0.00
406.24	0.00
406.43	0.00
406.62	0.00
406.81	0.00
407.00	0.00
407.20	0.00
407.39	0.00
407.58	0.00
407.77	0.00
407.96	0.00
408.15	0.00
408.34	0.00
408.54	0.00
408.73	0.00
408.92	0.00
409.11	0.00
409.30	0.00
409.49	0.00
409.68	0.00
409.87	0.00
410.07	0.00
410.26	0.00
410.45	0.00
410.64	0.00
410.83	0.00
411.02	0.00
411.21	0.00
411.40	0.00
411.59	0.00
411.78	0.00
411.98	0.00
412.17	0.00
412.36	0.00
412.55	0.00
412.74	0.00
412.93	0.00
413.12	0.00
413.31	0.00
413.50	0.00
413.69	0.00
413.88	0.00
414.07	0.00
414.26	0.00
414.45	0.00
414.64	0.00
414.83	0.00
415.02	0.00
415.22	0.00
415.41	0.00
415.60	0.00
415.79	0.00
415.98	0.00
416.17	0.00
416.36	0.00
416.55	0.00
416.74	0.00
416.93	0.00
417.12	0.00
417.31	0.00
417.50	0.00
417.69	0.00
417.88	0.00
418.07	0.00
418.26	0.00
418.45	0.00
418.64	0.00
418.83	0.00
419.02	0.00
419.21	0.00
419.39	0.00
419.58	0.00
419.77	0.00
419.96	0.00
420.15	0.00
420.34	0.00
420.53	0.00
420.72	0.00
420.91	0.00
421.10	0.00
421.29	0.00
421.48	0.00
421.67	0.00
421.86	0.00
422.05	0.00
422.24	0.00
422.43	0.00
422.61	0.00
422.80	0.00
422.99	0.00
423.18	0.00
423.37	0.00
423.56	0.00
423.75	0.00
423.94	0.00
424.13	0.00
424.32	0.00
424.50	0.00
424.69	0.00
424.88	0.00
425.07	0.00
425.26	0.00
425.45	0.00
425.64	0.00
425.83	0.00
426.01	0.00
426.20	0.00
426.39	0.00
426.58	0.00
426.77	0.00
426.96	0.00
427.15	0.00
427.33	0.00
427.52	0.00
427.71	0.00
427.90	0.00
428.09	0.00
428.28	0.00
428.46	0.00
428.65	0.00
428.84	0.00
429.03	0.00
429.22	0.00
429.40	0.00
429.59	0.00
429.78	0.00
429.97	0.00
430.16	0.00
430.34	0.00
430.53	0.00
430.72	0.00
430.91	0.00
431.10	0.00
431.28	0.00
431.47	0.00
431.66	0.00
431.85	0.00
432.03	0.00
432.22	7.02
432.41	0.00
432.60	0.00
432.79	0.00
432.97	0.00
433.16	0.00
433.35	0.00
433.54	0.00
433.72	0.00
433.91	0.00
434.10	0.00
434.28	0.00
434.47	0.00
434.66	0.00
434.85	0.00
435.03	0.00
435.22	0.00
435.41	0.00
435.59	0.00
435.78	0.00
435.97	0.00
436.16	0.00
436.34	0.00
436.53	0.00
436.72	0.00
436.90	0.00
437.09	0.00
437.28	0.00
437.46	0.00
437.65	0.00
437.84	0.00
438.02	0.00
438.21	0.00
438.40	0.00
438.58	0.00
438.77	0.00
438.96	0.00
439.14	0.00
439.33	0.00
439.52	0.00
439.70	0.00
439.89	0.00
440.08	0.00
440.26	0.00
440.45	16.38
440.63	0.00
440.82	0.00
441.01	0.00
441.19	0.00
441.38	0.00
441.57	0.00
441.75	0.00
441.94	0.00
442.12	0.00
442.31	0.00
442.50	0.00
442.68	0.00
442.87	0.00
443.05	0.00
443.24	0.00
443.43	0.00
443.61	0.00
443.80	0.00
443.98	0.00
444.17	0.00
444.35	0.00
444.54	0.00
444.73	0.00
444.91	0.00
445.10	0.00
445.28	0.00
445.47	0.00
445.65	0.00
445.84	0.00
446.02	0.00
446.21	0.00
446.39	0.00
446.58	14.04
446.77	0.00
446.95	0.00
447.14	0.00
447.32	0.00
447.51	0.00
447.69	0.00
447.88	0.00
448.06	0.00
448.25	16.38
448.43	0.00
448.62	0.00
448.80	0.00
448.99	0.00
449.17	2.34
449.36	0.00
449.54	0.00
449.73	0.00
449.91	0.00
450.10	0.00
450.28	0.00
450.46	2.34
450.65	60.85
450.83	0.00
451.02	0.00
451.20	0.00
451.39	0.00
451.57	0.00
451.76	0.00
451.94	23.41
452.13	14.04
452.31	0.00
452.49	0.00
452.68	0.00
452.86	0.00
453.05	0.00
453.23	0.00
453.42	0.00
453.60	0.00
453.78	16.38
453.97	0.00
454.15	0.00
454.34	0.00
454.52	0.00
454.70	0.00
454.89	0.00
455.07	0.00
455.26	0.00
455.44	0.00
455.62	18.72
455.81	0.00
455.99	0.00
456.17	0.00
456.36	0.00
456.54	0.00
456.73	0.00
456.91	0.00
457.09	0.00
457.28	0.00
457.46	0.00
457.64	0.00
457.83	0.00
458.01	0.00
458.19	0.00
458.38	0.00
458.56	0.00
458.74	0.00
458.93	0.00
459.11	0.00
459.29	0.00
459.48	0.00
459.66	0.00
459.84	0.00
460.03	63.19
460.21	0.00
460.39	0.00
460.57	58.51
460.76	21.06
460.94	0.00
461.12	0.00
461.31	21.06
461.49	21.06
461.67	0.00
461.85	0.00
462.04	0.00
462.22	603.86
462.40	0.00
462.59	77.24
462.77	0.00
462.95	0.00
463.13	0.00
463.32	0.00
463.50	0.00
463.68	9.36
463.86	0.00
464.05	0.00
464.23	0.00
464.41	0.00
464.59	0.00
464.78	0.00
464.96	0.00
465.14	0.00
465.32	0.00
465.50	0.00
465.69	0.00
465.87	0.00
466.05	9.36
466.23	0.00
466.41	32.77
466.60	0.00
466.78	0.00
466.96	0.00
467.14	0.00
467.32	0.00
467.51	39.79
467.69	51.49
467.87	44.47
468.05	49.15
468.23	91.28
468.41	0.00
468.60	0.00
468.78	0.00
468.96	0.00
469.14	25.75
469.32	0.00
469.50	0.00
469.69	0.00
469.87	25.75
470.05	0.00
470.23	0.00
470.41	0.00
470.59	0.00
470.77	0.00
470.95	42.13
471.14	0.00
471.32	0.00
471.50	39.79
471.68	51.49
471.86	0.00
472.04	37.45
472.22	0.00
472.40	0.00
472.58	0.00
472.77	0.00
472.95	16.38
473.13	51.49
473.31	49.15
473.49	18.72
473.67	0.00
473.85	21.06
474.03	72.56
474.21	0.00
474.39	14.04
474.57	84.26
474.75	2.34
474.93	7.02
475.12	9.36
475.30	39.79
475.48	51.49
475.66	7.02
475.84	4.68
476.02	70.22
476.20	32.77
476.38	60.85
476.56	86.60
476.74	0.00
476.92	0.00
477.10	0.00
477.28	44.47
477.46	0.00
477.64	23.41
477.82	56.17
478.00	72.56
478.18	56.17
478.36	7.02
478.54	74.90
478.72	35.11
478.90	42.13
479.08	0.00
479.26	46.81
479.44	77.24
479.62	0.00
479.80	11.70
479.98	35.11
480.16	95.96
480.34	112.35
480.52	25.75
480.70	56.17
480.88	58.51
481.06	84.26
481.24	72.56
481.41	105.32
481.59	18.72
481.77	21.06
481.95	56.17
482.13	112.35
482.31	88.94
482.49	51.49
482.67	81.92
482.85	77.24
483.03	28.09
483.21	142.77
483.39	53.83
483.57	67.88
483.74	126.39
483.92	44.47
484.10	37.45
484.28	119.37
484.46	117.03
484.64	95.96
484.82	46.81
485.00	65.54
485.18	72.56
485.35	18.72
485.53	39.79
485.71	49.15
485.89	42.13
486.07	0.00
486.25	131.07
486.43	46.81
486.61	91.28
486.78	107.66
486.96	58.51
487.14	112.35
487.32	67.88
487.50	84.26
487.68	140.43
487.85	88.94
488.03	154.48
488.21	168.52
488.39	21.06
488.57	84.26
488.75	63.19
488.92	428.32
489.10	149.79
489.28	147.45
489.46	114.69
489.64	112.35
489.81	81.92
489.99	149.79
490.17	147.45
490.35	227.03
490.53	156.82
490.70	25.75
490.88	117.03
491.06	145.11
491.24	152.13
491.41	173.20
491.59	95.96
491.77	18.72
491.95	126.39
492.13	98.30
492.30	65.54
492.48	70.22
492.66	105.32
492.84	159.16
493.01	152.13
493.19	67.88
493.37	175.54
493.54	100.64
493.72	138.09
493.90	88.94
494.08	177.88
494.25	236.39
494.43	208.31
494.61	175.54
494.79	163.84
494.96	182.56
495.14	163.84
495.32	156.82
495.49	166.18
495.67	173.20
495.85	114.69
496.02	161.50
496.20	203.63
496.38	210.65
496.55	173.20
496.73	250.44
496.91	152.13
497.09	227.03
497.26	191.92
497.44	170.86
497.62	135.75
497.79	182.56
497.97	147.45
498.14	189.58
498.32	161.50
498.50	248.10
498.67	142.77
498.85	229.37
499.03	231.71
499.20	236.39
499.38	257.46
499.56	259.80
499.73	238.73
499.91	175.54
500.08	224.69
500.26	198.95
500.44	175.54
500.61	220.01
500.79	152.13
500.97	138.09
501.14	264.48
501.32	269.16
501.49	222.35
501.67	170.86
501.84	266.82
502.02	191.92
502.20	285.55
502.37	215.33
502.55	191.92
502.72	292.57
502.90	248.10
503.07	222.35
503.25	168.52
503.43	161.50
503.60	147.45
503.78	187.24
503.95	126.39
504.13	196.60
504.30	191.92
504.48	210.65
504.65	299.59
504.83	250.44
505.01	245.76
505.18	287.89
505.36	248.10
505.53	224.69
505.71	238.73
505.88	290.23
506.06	248.10
506.23	224.69
506.41	236.39
506.58	297.25
506.76	306.61
506.93	294.91
507.11	229.37
507.28	299.59
507.46	210.65
507.63	131.07
507.81	236.39
507.98	257.46
508.16	245.76
508.33	208.31
508.50	170.86
508.68	334.70
508.85	276.18
509.03	203.63
509.20	236.39
509.38	203.63
509.55	327.68
509.73	236.39
509.90	346.40
510.08	297.25
510.25	299.59
510.42	231.71
510.60	264.48
510.77	243.42
510.95	311.29
511.12	276.18
511.30	318.31
511.47	290.23
511.64	304.27
511.82	259.80
511.99	257.46
512.17	276.18
512.34	224.69
512.51	269.16
512.69	283.20
512.86	358.10
513.04	191.92
513.21	236.39
513.38	250.44
513.56	203.63
513.73	255.12
513.90	201.29
514.08	243.42
514.25	276.18
514.43	252.78
514.60	280.86
514.77	224.69
514.95	311.29
515.12	269.16
515.29	353.42
515.47	299.59
515.64	334.70
515.81	203.63
515.99	238.73
516.16	248.10
516.33	203.63
516.51	91.28
516.68	166.18
516.85	175.54
517.03	203.63
517.20	262.14
517.37	308.95
517.54	320.65
517.72	285.55
517.89	205.97
518.06	131.07
518.24	224.69
518.41	315.97
518.58	255.12
518.75	194.26
518.93	217.67
519.10	250.44
519.27	252.78
519.45	257.46
519.62	381.51
519.79	285.55
519.96	259.80
520.14	259.80
520.31	339.38
520.48	348.74
520.65	259.80
520.83	346.40
521.00	330.02
521.17	353.42
521.34	264.48
521.52	290.23
521.69	339.38
521.86	374.49
522.03	351.08
522.20	369.80
522.38	318.31
522.55	367.46
522.72	320.65
522.89	318.31
523.07	297.25
523.24	320.65
523.41	266.82
523.58	369.80
523.75	315.97
523.92	360.44
524.10	320.65
524.27	339.38
524.44	297.25
524.61	327.68
524.78	271.50
524.96	348.74
525.13	351.08
525.30	362.78
525.47	344.06
525.64	294.91
525.81	220.01
525.98	297.25
526.16	243.42
526.33	287.89
526.50	220.01
526.67	217.67
526.84	241.08
527.01	266.82
527.18	273.84
527.36	276.18
527.53	353.42
527.70	372.15
527.87	344.06
528.04	341.72
528.21	414.27
528.38	428.32
528.55	395.55
528.72	325.33
528.89	451.72
529.07	313.63
529.24	353.42
529.41	383.85
529.58	322.99
529.75	306.61
529.92	287.89
530.09	334.70
530.26	367.46
530.43	395.55
530.60	367.46
530.77	411.93
530.94	346.40
531.11	390.87
531.28	383.85
531.46	306.61
531.63	292.57
531.80	418.96
531.97	353.42
532.14	294.91
532.31	346.40
532.48	386.19
532.65	276.18
532.82	318.31
532.99	273.84
533.16	320.65
533.33	322.99
533.50	255.12
533.67	285.55
533.84	381.51
534.01	395.55
534.18	255.12
534.35	337.04
534.52	383.85
534.69	395.55
534.86	287.89
535.03	383.85
535.20	273.84
535.37	414.27
535.54	264.48
535.71	259.80
535.88	372.15
536.05	386.19
536.22	358.10
536.38	297.25
536.55	315.97
536.72	304.27
536.89	231.71
537.06	360.44
537.23	407.25
537.40	425.98
537.57	299.59
537.74	407.25
537.91	397.89
538.08	348.74
538.25	381.51
538.42	330.02
538.59	374.49
538.75	306.61
538.92	325.33
539.09	348.74
539.26	341.72
539.43	358.10
539.60	404.91
539.77	320.65
539.94	297.25
540.11	315.97
540.28	283.20
540.44	285.55
540.61	327.68
540.78	360.44
540.95	227.03
541.12	369.80
541.29	290.23
541.46	376.83
541.62	327.68
541.79	325.33
541.96	262.14
542.13	222.35
542.30	315.97
542.47	390.87
542.63	383.85
542.80	348.74
542.97	358.10
543.14	395.55
543.31	386.19
543.48	365.12
543.64	358.10
543.81	355.76
543.98	339.38
544.15	367.46
544.32	334.70
544.48	315.97
544.65	280.86
544.82	330.02
544.99	330.02
545.16	416.62
545.32	360.44
545.49	400.23
545.66	318.31
545.83	285.55
546.00	285.55
546.16	365.12
546.33	325.33
546.50	285.55
546.67	402.57
546.83	358.10
547.00	311.29
547.17	287.89
547.34	339.38
547.50	306.61
547.67	283.20
547.84	283.20
548.00	507.90
548.17	376.83
548.34	437.68
548.51	369.80
548.67	294.91
548.84	294.91
549.01	376.83
549.18	395.55
549.34	402.57
549.51	362.78
549.68	421.30
549.84	322.99
550.01	372.15
550.18	463.43
550.34	421.30
550.51	355.76
550.68	482.15
550.84	334.70
551.01	322.99
551.18	367.46
551.34	369.80
551.51	351.08
551.68	358.10
551.84	358.10
552.01	409.59
552.18	381.51
552.34	383.85
552.51	334.70
552.68	372.15
552.84	351.08
553.01	344.06
553.18	372.15
553.34	271.50
553.51	372.15
553.67	386.19
553.84	463.43
554.01	339.38
554.17	315.97
554.34	346.40
554.51	421.30
554.67	435.34
554.84	414.27
555.00	407.25
555.17	402.57
555.33	360.44
555.50	367.46
555.67	341.72
555.83	348.74
556.00	358.10
556.16	580.45
556.33	379.17
556.50	358.10
556.66	358.10
556.83	264.48
556.99	390.87
557.16	358.10
557.32	308.95
557.49	388.53
557.65	304.27
557.82	262.14
557.98	334.70
558.15	290.23
558.32	278.52
558.48	297.25
558.65	332.36
558.81	362.78
558.98	351.08
559.14	337.04
559.31	315.97
559.47	358.10
559.64	337.04
559.80	325.33
559.97	290.23
560.13	397.89
560.30	355.76
560.46	271.50
560.63	369.80
560.79	362.78
560.96	327.68
561.12	372.15
561.29	388.53
561.45	259.80
561.61	297.25
561.78	421.30
561.94	322.99
562.11	362.78
562.27	306.61
562.44	243.42
562.60	346.40
562.77	353.42
562.93	475.13
563.10	299.59
563.26	369.80
563.42	402.57
563.59	379.17
563.75	365.12
563.92	383.85
564.08	379.17
564.24	358.10
564.41	332.36
564.57	355.76
564.74	290.23
564.90	411.93
565.07	454.06
565.23	374.49
565.39	306.61
565.56	320.65
565.72	229.37
565.88	360.44
566.05	351.08
566.21	334.70
566.38	313.63
566.54	308.95
566.70	390.87
566.87	320.65
567.03	297.25
567.19	346.40
567.36	325.33
567.52	318.31
567.68	294.91
567.85	425.98
568.01	390.87
568.17	276.18
568.34	290.23
568.50	306.61
568.66	255.12
568.83	407.25
568.99	341.72
569.15	348.74
569.32	201.29
569.48	285.55
569.64	395.55
569.81	332.36
569.97	250.44
570.13	334.70
570.30	297.25
570.46	339.38
570.62	332.36
570.78	276.18
570.95	287.89
571.11	332.36
571.27	313.63
571.43	325.33
571.60	341.72
571.76	292.57
571.92	390.87
572.09	290.23
572.25	294.91
572.41	306.61
572.57	306.61
572.74	416.62
572.90	376.83
573.06	344.06
573.22	264.48
573.38	411.93
573.55	322.99
573.71	353.42
573.87	404.91
574.03	381.51
574.20	304.27
574.36	367.46
574.52	264.48
574.68	306.61
574.84	416.62
575.01	360.44
575.17	395.55
575.33	330.02
575.49	379.17
575.65	294.91
575.82	285.55
575.98	355.76
576.14	355.76
576.30	355.76
576.46	299.59
576.62	339.38
576.79	367.46
576.95	372.15
577.11	292.57
577.27	353.42
577.43	341.72
577.59	407.25
577.75	372.15
577.92	353.42
578.08	337.04
578.24	236.39
578.40	283.20
578.56	292.57
578.72	351.08
578.88	327.68
579.04	390.87
579.21	344.06
579.37	360.44
579.53	287.89
579.69	348.74
579.85	330.02
580.01	388.53
580.17	271.50
580.33	290.23
580.49	390.87
580.65	458.74
580.82	330.02
580.98	241.08
581.14	376.83
581.30	381.51
581.46	292.57
581.62	397.89
581.78	287.89
581.94	339.38
582.10	339.38
582.26	414.27
582.42	374.49
582.58	451.72
582.74	360.44
582.90	355.76
583.06	374.49
583.22	376.83
583.38	325.33
583.54	252.78
583.70	351.08
583.86	308.95
584.02	365.12
584.18	301.93
584.34	308.95
584.50	334.70
584.66	264.48
584.82	297.25
584.98	337.04
585.14	234.05
585.30	322.99
585.46	322.99
585.62	304.27
585.78	290.23
585.94	297.25
586.10	250.44
586.26	299.59
586.42	369.80
586.58	376.83
586.74	306.61
586.90	337.04
587.06	243.42
587.22	283.20
587.38	304.27
587.54	236.39
587.70	362.78
587.86	402.57
588.02	252.78
588.18	348.74
588.34	315.97
588.49	163.84
588.65	227.03
588.81	252.78
588.97	220.01
589.13	250.44
589.29	264.48
589.45	339.38
589.61	236.39
589.77	308.95
589.93	306.61
590.08	344.06
590.24	388.53
590.40	299.59
590.56	416.62
590.72	269.16
590.88	327.68
591.04	255.12
591.20	313.63
591.35	362.78
591.51	238.73
591.67	290.23
591.83	262.14
591.99	320.65
592.15	337.04
592.31	271.50
592.46	341.72
592.62	292.57
592.78	292.57
592.94	313.63
593.10	248.10
593.26	252.78
593.41	318.31
593.57	313.63
593.73	234.05
593.89	365.12
594.05	386.19
594.20	252.78
594.36	287.89
594.52	264.48
594.68	234.05
594.84	290.23
594.99	362.78
595.15	280.86
595.31	280.86
595.47	400.23
595.62	262.14
595.78	383.85
595.94	306.61
596.10	344.06
596.25	330.02
596.41	278.52
596.57	292.57
596.73	320.65
596.88	290.23
597.04	297.25
597.20	269.16
597.36	220.01
597.51	262.14
597.67	285.55
597.83	234.05
597.99	290.23
598.14	285.55
598.30	355.76
598.46	351.08
598.61	346.40
598.77	294.91
598.93	341.72
599.09	278.52
599.24	273.84
599.40	330.02
599.56	252.78
599.71	294.91
599.87	269.16
600.03	308.95
600.18	318.31
600.34	280.86
600.50	208.31
600.65	346.40
600.81	292.57
600.97	287.89
601.12	257.46
601.28	365.12
601.44	210.65
601.59	327.68
601.75	306.61
601.91	278.52
602.06	276.18
602.22	423.64
602.37	292.57
602.53	198.95
602.69	231.71
602.84	280.86
603.00	355.76
603.16	308.95
603.31	273.84
603.47	315.97
603.62	287.89
603.78	231.71
603.94	334.70
604.09	308.95
604.25	322.99
604.40	271.50
604.56	376.83
604.71	271.50
604.87	283.20
605.03	266.82
605.18	297.25
605.34	344.06
605.49	311.29
605.65	252.78
605.80	234.05
605.96	337.04
606.12	273.84
606.27	339.38
606.43	339.38
606.58	252.78
606.74	301.93
606.89	395.55
607.05	304.27
607.20	301.93
607.36	287.89
607.51	313.63
607.67	280.86
607.82	212.99
607.98	322.99
608.13	322.99
608.29	290.23
608.44	245.76
608.60	318.31
608.75	318.31
608.91	318.31
609.06	248.10
609.22	355.76
609.37	304.27
609.53	280.86
609.68	224.69
609.84	241.08
609.99	252.78
610.15	201.29
610.30	271.50
610.46	271.50
610.61	292.57
610.76	222.35
610.92	243.42
611.07	262.14
611.23	337.04
611.38	215.33
611.54	231.71
611.69	196.60
611.84	189.58
612.00	175.54
612.15	184.90
612.31	208.31
612.46	208.31
612.62	273.84
612.77	346.40
612.92	250.44
613.08	264.48
613.23	294.91
613.39	248.10
613.54	264.48
613.69	184.90
613.85	250.44
614.00	290.23
614.15	318.31
614.31	294.91
614.46	353.42
614.62	266.82
614.77	280.86
614.92	224.69
615.08	248.10
615.23	161.50
615.38	215.33
615.54	294.91
615.69	173.20
615.84	189.58
616.00	170.86
616.15	208.31
616.30	315.97
616.46	198.95
616.61	229.37
616.76	308.95
616.92	231.71
617.07	248.10
617.22	238.73
617.37	177.88
617.53	234.05
617.68	294.91
617.83	184.90
617.99	294.91
618.14	390.87
618.29	194.26
618.45	269.16
618.60	234.05
618.75	212.99
618.90	173.20
619.06	250.44
619.21	252.78
619.36	297.25
619.51	269.16
619.67	248.10
619.82	212.99
619.97	238.73
620.12	266.82
620.28	271.50
620.43	224.69
620.58	257.46
620.73	198.95
620.89	271.50
621.04	180.22
621.19	278.52
621.34	189.58
621.49	205.97
621.65	266.82
621.80	203.63
621.95	175.54
622.10	189.58
622.25	227.03
622.41	220.01
622.56	215.33
622.71	145.11
622.86	229.37
623.01	201.29
623.16	304.27
623.32	152.13
