SpectraSuite Data File
++++++++++++++++++++++++++++++++++++
Date: Mon Oct 07 15:00:01 GMT-05:00 2013
User: price-jones
Dark Spectrum Present: No
Reference Spectrum Present: No
Number of Sampled Component Spectra: 1
Spectrometers: USB2+H05261
Integration Time (usec): 100000 (USB2+H05261)
Spectra Averaged: 1 (USB2+H05261)
Boxcar Smoothing: 0 (USB2+H05261)
Correct for Electrical Dark: No (USB2+H05261)
Strobe/Lamp Enabled: No (USB2+H05261)
Correct for Detector Non-linearity: No (USB2+H05261)
Correct for Stray Light: No (USB2+H05261)
Number of Pixels in Processed Spectrum: 2048
>>>>>Begin Processed Spectral Data<<<<<
365.73	0.00
365.92	0.00
366.12	0.00
366.32	0.00
366.52	0.00
366.72	0.00
366.91	0.00
367.11	0.00
367.31	0.00
367.51	0.00
367.70	0.00
367.90	0.00
368.10	0.00
368.30	0.00
368.49	0.00
368.69	0.00
368.89	0.00
369.09	0.00
369.28	0.00
369.48	0.00
369.68	0.00
369.87	0.00
370.07	0.00
370.27	0.00
370.47	0.00
370.66	0.00
370.86	0.00
371.06	0.00
371.25	0.00
371.45	0.00
371.65	0.00
371.84	0.00
372.04	0.00
372.24	0.00
372.44	0.00
372.63	0.00
372.83	0.00
373.03	0.00
373.22	0.00
373.42	0.00
373.62	0.00
373.81	0.00
374.01	0.00
374.21	0.00
374.40	0.00
374.60	0.00
374.79	0.00
374.99	0.00
375.19	0.00
375.38	0.00
375.58	0.00
375.78	0.00
375.97	0.00
376.17	0.00
376.37	0.00
376.56	0.00
376.76	0.00
376.95	0.00
377.15	0.00
377.35	0.00
377.54	0.00
377.74	0.00
377.93	0.00
378.13	0.00
378.33	0.00
378.52	0.00
378.72	0.00
378.91	0.00
379.11	0.00
379.31	0.00
379.50	0.00
379.70	0.00
379.89	0.00
380.09	0.00
380.28	0.00
380.48	0.00
380.68	0.00
380.87	0.00
381.07	0.00
381.26	0.00
381.46	0.00
381.65	0.00
381.85	0.00
382.04	0.00
382.24	0.00
382.43	0.00
382.63	0.00
382.83	0.00
383.02	0.00
383.22	0.00
383.41	0.00
383.61	0.00
383.80	0.00
384.00	0.00
384.19	0.00
384.39	0.00
384.58	0.00
384.78	0.00
384.97	0.00
385.17	0.00
385.36	0.00
385.56	0.00
385.75	0.00
385.95	0.00
386.14	0.00
386.34	0.00
386.53	0.00
386.72	0.00
386.92	0.00
387.11	0.00
387.31	0.00
387.50	0.00
387.70	0.00
387.89	0.00
388.09	0.00
388.28	0.00
388.48	0.00
388.67	0.00
388.86	0.00
389.06	0.00
389.25	0.00
389.45	0.00
389.64	0.00
389.84	0.00
390.03	0.00
390.22	0.00
390.42	0.00
390.61	0.00
390.81	0.00
391.00	0.00
391.19	0.00
391.39	0.00
391.58	0.00
391.78	0.00
391.97	0.00
392.16	0.00
392.36	0.00
392.55	0.00
392.75	0.00
392.94	0.00
393.13	0.00
393.33	0.00
393.52	0.00
393.71	0.00
393.91	0.00
394.10	0.00
394.29	0.00
394.49	0.00
394.68	0.00
394.88	0.00
395.07	0.00
395.26	0.00
395.46	0.00
395.65	0.00
395.84	0.00
396.04	0.00
396.23	0.00
396.42	0.00
396.62	0.00
396.81	0.00
397.00	0.00
397.19	0.00
397.39	0.00
397.58	0.00
397.77	0.00
397.97	0.00
398.16	0.00
398.35	0.00
398.55	0.00
398.74	0.00
398.93	0.00
399.12	0.00
399.32	0.00
399.51	0.00
399.70	0.00
399.90	0.00
400.09	0.00
400.28	0.00
400.47	0.00
400.67	0.00
400.86	0.00
401.05	0.00
401.24	0.00
401.44	0.00
401.63	0.00
401.82	0.00
402.01	0.00
402.21	0.00
402.40	0.00
402.59	0.00
402.78	0.00
402.97	0.00
403.17	0.00
403.36	0.00
403.55	0.00
403.74	0.00
403.93	0.00
404.13	0.00
404.32	0.00
404.51	0.00
404.70	0.00
404.89	0.00
405.09	0.00
405.28	0.00
405.47	0.00
405.66	0.00
405.85	0.00
406.05	0.00
406.24	0.00
406.43	0.00
406.62	0.00
406.81	0.00
407.00	0.00
407.20	0.00
407.39	0.00
407.58	0.00
407.77	0.00
407.96	0.00
408.15	0.00
408.34	0.00
408.54	0.00
408.73	0.00
408.92	0.00
409.11	0.00
409.30	0.00
409.49	0.00
409.68	0.00
409.87	0.00
410.07	0.00
410.26	0.00
410.45	0.00
410.64	0.00
410.83	0.00
411.02	0.00
411.21	0.00
411.40	0.00
411.59	0.00
411.78	0.00
411.98	0.00
412.17	0.00
412.36	0.00
412.55	0.00
412.74	0.00
412.93	0.00
413.12	0.00
413.31	0.00
413.50	0.00
413.69	0.00
413.88	0.00
414.07	0.00
414.26	0.00
414.45	0.00
414.64	0.00
414.83	0.00
415.02	0.00
415.22	0.00
415.41	0.00
415.60	0.00
415.79	0.00
415.98	0.00
416.17	0.00
416.36	0.00
416.55	0.00
416.74	0.00
416.93	0.00
417.12	0.00
417.31	0.00
417.50	0.00
417.69	0.00
417.88	0.00
418.07	0.00
418.26	0.00
418.45	0.00
418.64	0.00
418.83	0.00
419.02	0.00
419.21	0.00
419.39	0.00
419.58	0.00
419.77	0.00
419.96	0.00
420.15	0.00
420.34	0.00
420.53	0.00
420.72	0.00
420.91	0.00
421.10	0.00
421.29	0.00
421.48	0.00
421.67	0.00
421.86	0.00
422.05	0.00
422.24	0.00
422.43	0.00
422.61	0.00
422.80	0.00
422.99	0.00
423.18	0.00
423.37	0.00
423.56	0.00
423.75	0.00
423.94	0.00
424.13	0.00
424.32	0.00
424.50	0.00
424.69	0.00
424.88	0.00
425.07	0.00
425.26	0.00
425.45	0.00
425.64	0.00
425.83	0.00
426.01	0.00
426.20	0.00
426.39	0.00
426.58	0.00
426.77	0.00
426.96	0.00
427.15	0.00
427.33	0.00
427.52	0.00
427.71	0.00
427.90	0.00
428.09	0.00
428.28	0.00
428.46	0.00
428.65	0.00
428.84	0.00
429.03	0.00
429.22	0.00
429.40	0.00
429.59	0.00
429.78	0.00
429.97	0.00
430.16	0.00
430.34	0.00
430.53	0.00
430.72	0.00
430.91	0.00
431.10	0.00
431.28	0.00
431.47	0.00
431.66	0.00
431.85	0.00
432.03	0.00
432.22	0.00
432.41	0.00
432.60	0.00
432.79	0.00
432.97	0.00
433.16	0.00
433.35	0.00
433.54	0.00
433.72	0.00
433.91	0.00
434.10	0.00
434.28	0.00
434.47	0.00
434.66	0.00
434.85	0.00
435.03	0.00
435.22	0.00
435.41	0.00
435.59	0.00
435.78	0.00
435.97	0.00
436.16	0.00
436.34	0.00
436.53	0.00
436.72	0.00
436.90	0.00
437.09	0.00
437.28	0.00
437.46	0.00
437.65	0.00
437.84	0.00
438.02	0.00
438.21	0.00
438.40	0.00
438.58	0.00
438.77	0.00
438.96	0.00
439.14	0.00
439.33	0.00
439.52	0.00
439.70	0.00
439.89	0.00
440.08	0.00
440.26	0.00
440.45	0.00
440.63	0.00
440.82	0.00
441.01	0.00
441.19	0.00
441.38	0.00
441.57	0.00
441.75	0.00
441.94	0.00
442.12	0.00
442.31	0.00
442.50	0.00
442.68	0.00
442.87	0.00
443.05	0.00
443.24	0.00
443.43	0.00
443.61	0.00
443.80	0.00
443.98	0.00
444.17	0.00
444.35	28.09
444.54	0.00
444.73	0.00
444.91	0.00
445.10	0.00
445.28	0.00
445.47	0.00
445.65	0.00
445.84	0.00
446.02	0.00
446.21	0.00
446.39	0.00
446.58	25.75
446.77	0.00
446.95	0.00
447.14	0.00
447.32	0.00
447.51	0.00
447.69	0.00
447.88	0.00
448.06	0.00
448.25	0.00
448.43	0.00
448.62	0.00
448.80	0.00
448.99	32.77
449.17	0.00
449.36	0.00
449.54	0.00
449.73	0.00
449.91	0.00
450.10	0.00
450.28	53.83
450.46	0.00
450.65	23.41
450.83	0.00
451.02	0.00
451.20	0.00
451.39	0.00
451.57	11.70
451.76	0.00
451.94	0.00
452.13	0.00
452.31	0.00
452.49	0.00
452.68	0.00
452.86	0.00
453.05	79.58
453.23	0.00
453.42	0.00
453.60	0.00
453.78	0.00
453.97	0.00
454.15	0.00
454.34	0.00
454.52	0.00
454.70	0.00
454.89	0.00
455.07	0.00
455.26	0.00
455.44	0.00
455.62	0.00
455.81	0.00
455.99	53.83
456.17	0.00
456.36	0.00
456.54	0.00
456.73	0.00
456.91	0.00
457.09	0.00
457.28	23.41
457.46	0.00
457.64	2.34
457.83	0.00
458.01	0.00
458.19	4.68
458.38	0.00
458.56	0.00
458.74	0.00
458.93	0.00
459.11	0.00
459.29	0.00
459.48	0.00
459.66	0.00
459.84	0.00
460.03	72.56
460.21	0.00
460.39	0.00
460.57	0.00
460.76	7.02
460.94	0.00
461.12	0.00
461.31	0.00
461.49	0.00
461.67	0.00
461.85	0.00
462.04	0.00
462.22	638.97
462.40	44.47
462.59	0.00
462.77	0.00
462.95	0.00
463.13	0.00
463.32	0.00
463.50	0.00
463.68	0.00
463.86	0.00
464.05	0.00
464.23	0.00
464.41	0.00
464.59	0.00
464.78	0.00
464.96	0.00
465.14	2.34
465.32	0.00
465.50	0.00
465.69	0.00
465.87	0.00
466.05	0.00
466.23	0.00
466.41	0.00
466.60	0.00
466.78	0.00
466.96	42.13
467.14	0.00
467.32	23.41
467.51	0.00
467.69	0.00
467.87	0.00
468.05	0.00
468.23	0.00
468.41	0.00
468.60	0.00
468.78	0.00
468.96	0.00
469.14	30.43
469.32	4.68
469.50	0.00
469.69	21.06
469.87	21.06
470.05	0.00
470.23	0.00
470.41	0.00
470.59	0.00
470.77	0.00
470.95	0.00
471.14	67.88
471.32	0.00
471.50	0.00
471.68	60.85
471.86	28.09
472.04	0.00
472.22	23.41
472.40	0.00
472.58	0.00
472.77	0.00
472.95	0.00
473.13	51.49
473.31	11.70
473.49	0.00
473.67	0.00
473.85	0.00
474.03	9.36
474.21	23.41
474.39	14.04
474.57	0.00
474.75	0.00
474.93	0.00
475.12	4.68
475.30	0.00
475.48	25.75
475.66	39.79
475.84	18.72
476.02	4.68
476.20	0.00
476.38	0.00
476.56	42.13
476.74	93.62
476.92	0.00
477.10	84.26
477.28	60.85
477.46	30.43
477.64	63.19
477.82	23.41
478.00	0.00
478.18	0.00
478.36	84.26
478.54	84.26
478.72	9.36
478.90	23.41
479.08	0.00
479.26	56.17
479.44	39.79
479.62	14.04
479.80	0.00
479.98	0.00
480.16	65.54
480.34	72.56
480.52	2.34
480.70	56.17
480.88	91.28
481.06	0.00
481.24	32.77
481.41	14.04
481.59	65.54
481.77	35.11
481.95	67.88
482.13	100.64
482.31	67.88
482.49	0.00
482.67	49.15
482.85	81.92
483.03	56.17
483.21	18.72
483.39	14.04
483.57	86.60
483.74	72.56
483.92	79.58
484.10	56.17
484.28	37.45
484.46	117.03
484.64	67.88
484.82	86.60
485.00	74.90
485.18	117.03
485.35	37.45
485.53	11.70
485.71	14.04
485.89	0.00
486.07	56.17
486.25	161.50
486.43	205.97
486.61	49.15
486.78	107.66
486.96	51.49
487.14	147.45
487.32	140.43
487.50	46.81
487.68	140.43
487.85	39.79
488.03	74.90
488.21	86.60
488.39	114.69
488.57	133.41
488.75	32.77
488.92	491.51
489.10	126.39
489.28	124.05
489.46	86.60
489.64	88.94
489.81	60.85
489.99	154.48
490.17	91.28
490.35	217.67
490.53	107.66
490.70	98.30
490.88	138.09
491.06	168.52
491.24	166.18
491.41	88.94
491.59	138.09
491.77	60.85
491.95	102.98
492.13	147.45
492.30	117.03
492.48	117.03
492.66	131.07
492.84	145.11
493.01	100.64
493.19	189.58
493.37	168.52
493.54	112.35
493.72	128.73
493.90	163.84
494.08	110.01
494.25	135.75
494.43	234.05
494.61	210.65
494.79	121.71
494.96	86.60
495.14	212.99
495.32	105.32
495.49	81.92
495.67	184.90
495.85	161.50
496.02	105.32
496.20	180.22
496.38	208.31
496.55	173.20
496.73	131.07
496.91	149.79
497.09	170.86
497.26	245.76
497.44	135.75
497.62	231.71
497.79	196.60
497.97	168.52
498.14	180.22
498.32	60.85
498.50	245.76
498.67	102.98
498.85	222.35
499.03	112.35
499.20	191.92
499.38	187.24
499.56	152.13
499.73	243.42
499.91	205.97
500.08	154.48
500.26	222.35
500.44	241.08
500.61	224.69
500.79	194.26
500.97	201.29
501.14	161.50
501.32	84.26
501.49	248.10
501.67	135.75
501.84	215.33
502.02	163.84
502.20	271.50
502.37	227.03
502.55	241.08
502.72	152.13
502.90	269.16
503.07	212.99
503.25	205.97
503.43	245.76
503.60	147.45
503.78	191.92
503.95	124.05
504.13	215.33
504.30	318.31
504.48	292.57
504.65	236.39
504.83	234.05
505.01	149.79
505.18	196.60
505.36	304.27
505.53	259.80
505.71	229.37
505.88	248.10
506.06	182.56
506.23	184.90
506.41	168.52
506.58	198.95
506.76	255.12
506.93	301.93
507.11	198.95
507.28	203.63
507.46	177.88
507.63	259.80
507.81	252.78
507.98	205.97
508.16	266.82
508.33	255.12
508.50	278.52
508.68	231.71
508.85	196.60
509.03	184.90
509.20	292.57
509.38	278.52
509.55	255.12
509.73	259.80
509.90	180.22
510.08	212.99
510.25	248.10
510.42	201.29
510.60	227.03
510.77	259.80
510.95	238.73
511.12	287.89
511.30	294.91
511.47	241.08
511.64	358.10
511.82	236.39
511.99	308.95
512.17	241.08
512.34	236.39
512.51	208.31
512.69	269.16
512.86	278.52
513.04	245.76
513.21	266.82
513.38	264.48
513.56	259.80
513.73	273.84
513.90	236.39
514.08	196.60
514.25	276.18
514.43	234.05
514.60	257.46
514.77	257.46
514.95	297.25
515.12	243.42
515.29	278.52
515.47	411.93
515.64	245.76
515.81	217.67
515.99	311.29
516.16	238.73
516.33	250.44
516.51	217.67
516.68	105.32
516.85	168.52
517.03	133.41
517.20	255.12
517.37	250.44
517.54	304.27
517.72	252.78
517.89	203.63
518.06	149.79
518.24	304.27
518.41	262.14
518.58	198.95
518.75	159.16
518.93	252.78
519.10	189.58
519.27	210.65
519.45	266.82
519.62	311.29
519.79	369.80
519.96	205.97
520.14	220.01
520.31	255.12
520.48	198.95
520.65	271.50
520.83	264.48
521.00	283.20
521.17	229.37
521.34	304.27
521.52	327.68
521.69	318.31
521.86	294.91
522.03	257.46
522.20	196.60
522.38	351.08
522.55	220.01
522.72	264.48
522.89	252.78
523.07	355.76
523.24	311.29
523.41	283.20
523.58	320.65
523.75	346.40
523.92	301.93
524.10	341.72
524.27	278.52
524.44	383.85
524.61	339.38
524.78	269.16
524.96	294.91
525.13	304.27
525.30	285.55
525.47	334.70
525.64	283.20
525.81	248.10
525.98	217.67
526.16	212.99
526.33	201.29
526.50	189.58
526.67	257.46
526.84	227.03
527.01	220.01
527.18	245.76
527.36	304.27
527.53	325.33
527.70	318.31
527.87	322.99
528.04	358.10
528.21	320.65
528.38	374.49
528.55	315.97
528.72	287.89
528.89	344.06
529.07	318.31
529.24	285.55
529.41	416.62
529.58	248.10
529.75	271.50
529.92	358.10
530.09	304.27
530.26	409.59
530.43	327.68
530.60	369.80
530.77	418.96
530.94	301.93
531.11	318.31
531.28	332.36
531.46	269.16
531.63	306.61
531.80	243.42
531.97	287.89
532.14	339.38
532.31	273.84
532.48	304.27
532.65	297.25
532.82	306.61
532.99	257.46
533.16	215.33
533.33	278.52
533.50	388.53
533.67	301.93
533.84	327.68
534.01	379.17
534.18	297.25
534.35	365.12
534.52	276.18
534.69	416.62
534.86	330.02
535.03	325.33
535.20	372.15
535.37	418.96
535.54	358.10
535.71	376.83
535.88	353.42
536.05	297.25
536.22	294.91
536.38	327.68
536.55	287.89
536.72	308.95
536.89	339.38
537.06	243.42
537.23	269.16
537.40	325.33
537.57	339.38
537.74	348.74
537.91	299.59
538.08	330.02
538.25	315.97
538.42	292.57
538.59	327.68
538.75	234.05
538.92	285.55
539.09	257.46
539.26	257.46
539.43	276.18
539.60	325.33
539.77	351.08
539.94	255.12
540.11	327.68
540.28	362.78
540.44	327.68
540.61	262.14
540.78	304.27
540.95	278.52
541.12	369.80
541.29	227.03
541.46	442.36
541.62	369.80
541.79	294.91
541.96	280.86
542.13	351.08
542.30	353.42
542.47	332.36
542.63	266.82
542.80	294.91
542.97	355.76
543.14	315.97
543.31	362.78
543.48	304.27
543.64	372.15
543.81	369.80
543.98	243.42
544.15	315.97
544.32	402.57
544.48	339.38
544.65	355.76
544.82	327.68
544.99	320.65
545.16	416.62
545.32	386.19
545.49	299.59
545.66	322.99
545.83	315.97
546.00	287.89
546.16	318.31
546.33	346.40
546.50	301.93
546.67	353.42
546.83	330.02
547.00	325.33
547.17	311.29
547.34	271.50
547.50	369.80
547.67	330.02
547.84	318.31
548.00	320.65
548.17	311.29
548.34	306.61
548.51	400.23
548.67	360.44
548.84	231.71
549.01	344.06
549.18	411.93
549.34	273.84
549.51	367.46
549.68	376.83
549.84	280.86
550.01	248.10
550.18	468.11
550.34	390.87
550.51	313.63
550.68	442.36
550.84	294.91
551.01	339.38
551.18	297.25
551.34	344.06
551.51	353.42
551.68	365.12
551.84	297.25
552.01	334.70
552.18	337.04
552.34	367.46
552.51	313.63
552.68	332.36
552.84	217.67
553.01	351.08
553.18	320.65
553.34	280.86
553.51	390.87
553.67	262.14
553.84	365.12
554.01	355.76
554.17	367.46
554.34	358.10
554.51	367.46
554.67	395.55
554.84	355.76
555.00	425.98
555.17	334.70
555.33	395.55
555.50	285.55
555.67	381.51
555.83	250.44
556.00	313.63
556.16	512.58
556.33	393.21
556.50	278.52
556.66	332.36
556.83	294.91
556.99	287.89
557.16	414.27
557.32	229.37
557.49	315.97
557.65	332.36
557.82	327.68
557.98	304.27
558.15	315.97
558.32	229.37
558.48	236.39
558.65	245.76
558.81	341.72
558.98	330.02
559.14	325.33
559.31	404.91
559.47	278.52
559.64	325.33
559.80	386.19
559.97	341.72
560.13	299.59
560.30	217.67
560.46	346.40
560.63	362.78
560.79	297.25
560.96	358.10
561.12	241.08
561.29	341.72
561.45	250.44
561.61	304.27
561.78	411.93
561.94	224.69
562.11	351.08
562.27	301.93
562.44	290.23
562.60	245.76
562.77	287.89
562.93	376.83
563.10	320.65
563.26	351.08
563.42	402.57
563.59	287.89
563.75	344.06
563.92	365.12
564.08	231.71
564.24	397.89
564.41	400.23
564.57	177.88
564.74	390.87
564.90	234.05
565.07	332.36
565.23	311.29
565.39	266.82
565.56	285.55
565.72	290.23
565.88	379.17
566.05	292.57
566.21	243.42
566.38	290.23
566.54	308.95
566.70	304.27
566.87	325.33
567.03	344.06
567.19	332.36
567.36	383.85
567.52	243.42
567.68	271.50
567.85	388.53
568.01	348.74
568.17	273.84
568.34	341.72
568.50	388.53
568.66	299.59
568.83	402.57
568.99	266.82
569.15	299.59
569.32	339.38
569.48	304.27
569.64	294.91
569.81	287.89
569.97	248.10
570.13	285.55
570.30	374.49
570.46	311.29
570.62	212.99
570.78	334.70
570.95	320.65
571.11	250.44
571.27	313.63
571.43	315.97
571.60	381.51
571.76	306.61
571.92	348.74
572.09	311.29
572.25	322.99
572.41	386.19
572.57	262.14
572.74	294.91
572.90	304.27
573.06	276.18
573.22	294.91
573.38	397.89
573.55	365.12
573.71	341.72
573.87	290.23
574.03	395.55
574.20	334.70
574.36	346.40
574.52	243.42
574.68	339.38
574.84	355.76
575.01	313.63
575.17	287.89
575.33	252.78
575.49	416.62
575.65	325.33
575.82	322.99
575.98	365.12
576.14	322.99
576.30	299.59
576.46	236.39
576.62	369.80
576.79	273.84
576.95	297.25
577.11	320.65
577.27	358.10
577.43	304.27
577.59	327.68
577.75	313.63
577.92	320.65
578.08	222.35
578.24	217.67
578.40	238.73
578.56	266.82
578.72	271.50
578.88	301.93
579.04	259.80
579.21	273.84
579.37	311.29
579.53	273.84
579.69	325.33
579.85	245.76
580.01	367.46
580.17	231.71
580.33	290.23
580.49	379.17
580.65	301.93
580.82	327.68
580.98	245.76
581.14	285.55
581.30	304.27
581.46	301.93
581.62	311.29
581.78	304.27
581.94	278.52
582.10	280.86
582.26	241.08
582.42	360.44
582.58	198.95
582.74	320.65
582.90	341.72
583.06	318.31
583.22	327.68
583.38	287.89
583.54	294.91
583.70	381.51
583.86	339.38
584.02	313.63
584.18	304.27
584.34	320.65
584.50	320.65
584.66	318.31
584.82	320.65
584.98	320.65
585.14	344.06
585.30	341.72
585.46	351.08
585.62	292.57
585.78	348.74
585.94	344.06
586.10	198.95
586.26	280.86
586.42	409.59
586.58	306.61
586.74	344.06
586.90	276.18
587.06	315.97
587.22	313.63
587.38	322.99
587.54	245.76
587.70	276.18
587.86	355.76
588.02	285.55
588.18	266.82
588.34	238.73
588.49	215.33
588.65	191.92
588.81	327.68
588.97	184.90
589.13	149.79
589.29	203.63
589.45	322.99
589.61	257.46
589.77	318.31
589.93	210.65
590.08	299.59
590.24	287.89
590.40	332.36
590.56	351.08
590.72	238.73
590.88	248.10
591.04	252.78
591.20	259.80
591.35	358.10
591.51	276.18
591.67	294.91
591.83	241.08
591.99	337.04
592.15	280.86
592.31	308.95
592.46	313.63
592.62	325.33
592.78	259.80
592.94	306.61
593.10	234.05
593.26	283.20
593.41	330.02
593.57	241.08
593.73	248.10
593.89	273.84
594.05	187.24
594.20	262.14
594.36	341.72
594.52	311.29
594.68	252.78
594.84	304.27
594.99	325.33
595.15	278.52
595.31	222.35
595.47	290.23
595.62	339.38
595.78	224.69
595.94	264.48
596.10	297.25
596.25	205.97
596.41	262.14
596.57	236.39
596.73	238.73
596.88	217.67
597.04	248.10
597.20	330.02
597.36	283.20
597.51	252.78
597.67	306.61
597.83	351.08
597.99	224.69
598.14	255.12
598.30	294.91
598.46	287.89
598.61	320.65
598.77	306.61
598.93	252.78
599.09	280.86
599.24	238.73
599.40	358.10
599.56	313.63
599.71	278.52
599.87	255.12
600.03	264.48
600.18	175.54
600.34	173.20
600.50	285.55
600.65	280.86
600.81	306.61
600.97	227.03
601.12	269.16
601.28	372.15
601.44	227.03
601.59	212.99
601.75	322.99
601.91	205.97
602.06	362.78
602.22	337.04
602.37	280.86
602.53	252.78
602.69	327.68
602.84	257.46
603.00	285.55
603.16	311.29
603.31	306.61
603.47	301.93
603.62	243.42
603.78	269.16
603.94	285.55
604.09	271.50
604.25	290.23
604.40	243.42
604.56	236.39
604.71	320.65
604.87	290.23
605.03	198.95
605.18	294.91
605.34	278.52
605.49	308.95
605.65	196.60
605.80	276.18
605.96	308.95
606.12	304.27
606.27	257.46
606.43	248.10
606.58	306.61
606.74	294.91
606.89	290.23
607.05	180.22
607.20	322.99
607.36	301.93
607.51	229.37
607.67	259.80
607.82	280.86
607.98	292.57
608.13	299.59
608.29	269.16
608.44	278.52
608.60	208.31
608.75	367.46
608.91	248.10
609.06	437.68
609.22	287.89
609.37	234.05
609.53	283.20
609.68	170.86
609.84	255.12
609.99	243.42
610.15	252.78
610.30	299.59
610.46	238.73
610.61	290.23
610.76	241.08
610.92	266.82
611.07	189.58
611.23	339.38
611.38	344.06
611.54	229.37
611.69	191.92
611.84	224.69
612.00	248.10
612.15	161.50
612.31	229.37
612.46	198.95
612.62	243.42
612.77	266.82
612.92	227.03
613.08	234.05
613.23	182.56
613.39	245.76
613.54	191.92
613.69	224.69
613.85	208.31
614.00	236.39
614.15	184.90
614.31	229.37
614.46	269.16
614.62	248.10
614.77	262.14
614.92	250.44
615.08	229.37
615.23	264.48
615.38	208.31
615.54	93.62
615.69	215.33
615.84	168.52
616.00	166.18
616.15	163.84
616.30	184.90
616.46	131.07
616.61	145.11
616.76	149.79
616.92	196.60
617.07	280.86
617.22	271.50
617.37	203.63
617.53	184.90
617.68	184.90
617.83	182.56
617.99	262.14
618.14	285.55
618.29	229.37
618.45	180.22
618.60	245.76
618.75	238.73
618.90	203.63
619.06	212.99
619.21	320.65
619.36	259.80
619.51	198.95
619.67	236.39
619.82	236.39
619.97	198.95
620.12	245.76
620.28	205.97
620.43	245.76
620.58	231.71
620.73	187.24
620.89	180.22
621.04	245.76
621.19	224.69
621.34	308.95
621.49	119.37
621.65	241.08
621.80	208.31
621.95	234.05
622.10	278.52
622.25	194.26
622.41	231.71
622.56	224.69
622.71	140.43
622.86	208.31
623.01	238.73
623.16	182.56
623.32	121.71
623.47	212.99
