SpectraSuite Data File
++++++++++++++++++++++++++++++++++++
Date: Mon Oct 07 15:00:25 GMT-05:00 2013
User: price-jones
Dark Spectrum Present: No
Reference Spectrum Present: No
Number of Sampled Component Spectra: 1
Spectrometers: USB2+H05261
Integration Time (usec): 1000000 (USB2+H05261)
Spectra Averaged: 1 (USB2+H05261)
Boxcar Smoothing: 0 (USB2+H05261)
Correct for Electrical Dark: No (USB2+H05261)
Strobe/Lamp Enabled: No (USB2+H05261)
Correct for Detector Non-linearity: No (USB2+H05261)
Correct for Stray Light: No (USB2+H05261)
Number of Pixels in Processed Spectrum: 2048
>>>>>Begin Processed Spectral Data<<<<<
365.73	0.00
365.92	0.00
366.12	0.00
366.32	0.00
366.52	0.00
366.72	182.56
366.91	0.00
367.11	205.97
367.31	114.69
367.51	152.13
367.70	210.65
367.90	444.70
368.10	234.05
368.30	175.54
368.49	0.00
368.69	416.62
368.89	140.43
369.09	0.00
369.28	81.92
369.48	0.00
369.68	91.28
369.87	138.09
370.07	4.68
370.27	486.83
370.47	269.16
370.66	91.28
370.86	355.76
371.06	669.39
371.25	917.49
371.45	212.99
371.65	496.19
371.84	119.37
372.04	44.47
372.24	360.44
372.44	222.35
372.63	435.34
372.83	774.72
373.03	311.29
373.22	166.18
373.42	208.31
373.62	313.63
373.81	489.17
374.01	587.47
374.21	589.82
374.40	262.14
374.60	709.18
374.79	353.42
374.99	358.10
375.19	390.87
375.38	566.41
375.58	428.32
375.78	643.65
375.97	533.64
376.17	964.30
376.37	360.44
376.56	465.77
376.76	245.76
376.95	212.99
377.15	557.05
377.35	552.37
377.54	404.91
377.74	271.50
377.93	278.52
378.13	484.49
378.33	587.47
378.52	351.08
378.72	664.71
378.91	545.34
379.11	238.73
379.31	283.20
379.50	142.77
379.70	554.71
379.89	578.11
380.09	278.52
380.28	224.69
380.48	341.72
380.68	184.90
380.87	121.71
381.07	409.59
381.26	709.18
381.46	187.24
381.65	601.52
381.85	318.31
382.04	641.31
382.24	433.00
382.43	346.40
382.63	177.88
382.83	280.86
383.02	533.64
383.22	660.03
383.41	177.88
383.61	351.08
383.80	777.06
384.00	306.61
384.19	337.04
384.39	449.38
384.58	278.52
384.78	451.72
384.97	383.85
385.17	355.76
385.36	306.61
385.56	589.82
385.75	166.18
385.95	287.89
386.14	505.56
386.34	278.52
386.53	355.76
386.72	205.97
386.92	723.23
387.11	444.70
387.31	489.17
387.50	243.42
387.70	131.07
387.89	381.51
388.09	166.18
388.28	163.84
388.48	177.88
388.67	479.81
388.86	315.97
389.06	337.04
389.25	507.90
389.45	414.27
389.64	358.10
389.84	671.73
390.03	486.83
390.22	388.53
390.42	322.99
390.61	231.71
390.81	161.50
391.00	365.12
391.19	699.82
391.39	290.23
391.58	578.11
391.78	383.85
391.97	407.25
392.16	215.33
392.36	704.50
392.55	624.92
392.75	367.46
392.94	315.97
393.13	517.26
393.33	175.54
393.52	227.03
393.71	692.80
393.91	447.04
394.10	220.01
394.29	337.04
394.49	257.46
394.68	519.60
394.88	641.31
395.07	688.12
395.26	414.27
395.46	344.06
395.65	709.18
395.84	475.13
396.04	1196.01
396.23	339.38
396.42	292.57
396.62	451.72
396.81	482.15
397.00	435.34
397.19	447.04
397.39	290.23
397.58	692.80
397.77	353.42
397.97	395.55
398.16	395.55
398.35	526.62
398.55	198.95
398.74	400.23
398.93	671.73
399.12	294.91
399.32	552.37
399.51	334.70
399.70	484.49
399.90	454.06
400.09	498.53
400.28	702.16
400.47	369.80
400.67	650.67
400.86	393.21
401.05	465.77
401.24	601.52
401.44	601.52
401.63	657.69
401.82	704.50
402.01	334.70
402.21	610.88
402.40	510.24
402.59	308.95
402.78	334.70
402.97	409.59
403.17	390.87
403.36	517.26
403.55	341.72
403.74	430.66
403.93	358.10
404.13	664.71
404.32	379.17
404.51	224.69
404.70	638.97
404.89	355.76
405.09	854.30
405.28	407.25
405.47	245.76
405.66	550.03
405.85	660.03
406.05	470.45
406.24	411.93
406.43	472.79
406.62	557.05
406.81	1076.65
407.00	741.95
407.20	552.37
407.39	449.38
407.58	327.68
407.77	636.63
407.96	798.12
408.15	695.14
408.34	554.71
408.54	461.09
408.73	461.09
408.92	433.00
409.11	608.54
409.30	746.63
409.49	287.89
409.68	430.66
409.87	440.02
410.07	264.48
410.26	486.83
410.45	416.62
410.64	245.76
410.83	393.21
411.02	330.02
411.21	587.47
411.40	702.16
411.59	442.36
411.78	369.80
411.98	472.79
412.17	348.74
412.36	437.68
412.55	407.25
412.74	655.35
412.93	947.92
413.12	381.51
413.31	739.61
413.50	629.60
413.69	404.91
413.88	866.00
414.07	507.90
414.26	547.69
414.45	367.46
414.64	585.13
414.83	653.01
415.02	578.11
415.22	676.41
415.41	809.83
415.60	369.80
415.79	519.60
415.98	901.11
416.17	575.77
416.36	514.92
416.55	393.21
416.74	650.67
416.93	786.42
417.12	505.56
417.31	461.09
417.50	449.38
417.69	997.07
417.88	601.52
418.07	325.33
418.26	498.53
418.45	440.02
418.64	945.58
418.83	599.18
419.02	599.18
419.21	512.58
419.39	531.30
419.58	428.32
419.77	444.70
419.96	755.99
420.15	912.81
420.34	545.34
420.53	582.79
420.72	692.80
420.91	571.09
421.10	606.20
421.29	648.33
421.48	720.88
421.67	812.17
421.86	435.34
422.05	568.75
422.24	496.19
422.43	631.94
422.61	372.15
422.80	444.70
422.99	512.58
423.18	463.43
423.37	915.15
423.56	716.20
423.75	779.40
423.94	447.04
424.13	550.03
424.32	528.96
424.50	547.69
424.69	624.92
424.88	924.51
425.07	451.72
425.26	601.52
425.45	739.61
425.64	313.63
425.83	489.17
426.01	795.78
426.20	732.59
426.39	416.62
426.58	540.66
426.77	582.79
426.96	713.86
427.15	648.33
427.33	461.09
427.52	627.26
427.71	636.63
427.90	688.12
428.09	383.85
428.28	393.21
428.46	596.84
428.65	706.84
428.84	521.94
429.03	936.21
429.22	557.05
429.40	381.51
429.59	353.42
429.78	791.10
429.97	489.17
430.16	423.64
430.34	482.15
430.53	353.42
430.72	547.69
430.91	849.61
431.10	458.74
431.28	641.31
431.47	823.87
431.66	617.90
431.85	435.34
432.03	514.92
432.22	1149.20
432.41	601.52
432.60	910.47
432.79	498.53
432.97	657.69
433.16	538.32
433.35	433.00
433.54	505.56
433.72	667.05
433.91	826.21
434.10	507.90
434.28	636.63
434.47	585.13
434.66	830.89
434.85	564.07
435.03	589.82
435.22	1064.94
435.41	1062.60
435.59	777.06
435.78	660.03
435.97	526.62
436.16	835.57
436.34	669.39
436.53	697.48
436.72	964.30
436.90	802.80
437.09	650.67
437.28	643.65
437.46	559.39
437.65	734.93
437.84	882.38
438.02	671.73
438.21	770.04
438.40	533.64
438.58	437.68
438.77	669.39
438.96	667.05
439.14	514.92
439.33	905.79
439.52	521.94
439.70	709.18
439.89	826.21
440.08	671.73
440.26	685.78
440.45	1109.41
440.63	650.67
440.82	704.50
441.01	688.12
441.19	627.26
441.38	613.22
441.57	676.41
441.75	990.05
441.94	1053.24
442.12	671.73
442.31	587.47
442.50	718.54
442.68	653.01
442.87	587.47
443.05	601.52
443.24	716.20
443.43	791.10
443.61	999.41
443.80	746.63
443.98	627.26
444.17	690.46
444.35	959.62
444.54	662.37
444.73	557.05
444.91	1125.80
445.10	568.75
445.28	620.24
445.47	765.36
445.65	737.27
445.84	627.26
446.02	816.85
446.21	550.03
446.39	603.86
446.58	856.64
446.77	575.77
446.95	713.86
447.14	844.93
447.32	1139.84
447.51	709.18
447.69	674.07
447.88	800.46
448.06	1156.22
448.25	877.70
448.43	578.11
448.62	519.60
448.80	800.46
448.99	849.61
449.17	587.47
449.36	547.69
449.54	910.47
449.73	617.90
449.91	791.10
450.10	674.07
450.28	1481.56
450.46	1341.13
450.65	987.71
450.83	826.21
451.02	702.16
451.20	739.61
451.39	725.57
451.57	730.25
451.76	613.22
451.94	681.10
452.13	905.79
452.31	971.32
452.49	903.45
452.68	475.13
452.86	833.23
453.05	1114.10
453.23	716.20
453.42	580.45
453.60	620.24
453.78	791.10
453.97	575.77
454.15	552.37
454.34	585.13
454.52	561.73
454.70	1067.28
454.89	891.74
455.07	543.00
455.26	847.27
455.44	990.05
455.62	692.80
455.81	807.48
455.99	898.77
456.17	880.04
456.36	812.17
456.54	641.31
456.73	695.14
456.91	634.29
457.09	837.91
457.28	1097.71
457.46	807.48
457.64	1046.22
457.83	704.50
458.01	617.90
458.19	863.66
458.38	713.86
458.56	795.78
458.74	538.32
458.93	777.06
459.11	854.30
459.29	587.47
459.48	936.21
459.66	1289.64
459.84	999.41
460.03	1846.68
460.21	1036.86
460.39	786.42
460.57	1048.56
460.76	919.83
460.94	830.89
461.12	1303.68
461.31	1245.16
461.49	863.66
461.67	753.65
461.85	844.93
462.04	737.27
462.22	2761.83
462.40	973.66
462.59	1107.07
462.77	624.92
462.95	823.87
463.13	550.03
463.32	1039.20
463.50	823.87
463.68	873.02
463.86	821.53
464.05	667.05
464.23	1165.59
464.41	929.19
464.59	657.69
464.78	720.88
464.96	552.37
465.14	863.66
465.32	760.67
465.50	1008.77
465.69	978.34
465.87	613.22
466.05	926.85
466.23	561.73
466.41	826.21
466.60	711.52
466.78	784.08
466.96	1146.86
467.14	894.08
467.32	1107.07
467.51	870.68
467.69	990.05
467.87	1163.25
468.05	788.76
468.23	1331.76
468.41	1020.47
468.60	788.76
468.78	901.11
468.96	1128.14
469.14	891.74
469.32	603.86
469.50	660.03
469.69	870.68
469.87	826.21
470.05	772.38
470.23	770.04
470.41	634.29
470.59	674.07
470.77	896.43
470.95	739.61
471.14	1029.84
471.32	802.80
471.50	1261.55
471.68	870.68
471.86	908.13
472.04	723.23
472.22	753.65
472.40	575.77
472.58	723.23
472.77	662.37
472.95	777.06
473.13	1385.60
473.31	1214.74
473.49	589.82
473.67	650.67
473.85	1015.79
474.03	1034.52
474.21	910.47
474.39	1233.46
474.57	1352.83
474.75	968.98
474.93	777.06
475.12	641.31
475.30	737.27
475.48	849.61
475.66	861.32
475.84	837.91
476.02	968.98
476.20	1069.62
476.38	877.70
476.56	1614.97
476.74	866.00
476.92	823.87
477.10	844.93
477.28	1083.67
477.46	774.72
477.64	1116.44
477.82	842.59
478.00	795.78
478.18	912.81
478.36	910.47
478.54	739.61
478.72	800.46
478.90	919.83
479.08	1071.97
479.26	924.51
479.44	840.25
479.62	741.95
479.80	816.85
479.98	765.36
480.16	774.72
480.34	1104.73
480.52	896.43
480.70	1025.15
480.88	791.10
481.06	753.65
481.24	858.98
481.41	910.47
481.59	1081.33
481.77	1004.09
481.95	840.25
482.13	1343.47
482.31	1015.79
482.49	837.91
482.67	1149.20
482.85	1132.82
483.03	1102.39
483.21	1011.11
483.39	880.04
483.57	947.92
483.74	1355.17
483.92	1011.11
484.10	858.98
484.28	1212.40
484.46	1703.91
484.64	1029.84
484.82	1013.45
485.00	898.77
485.18	1050.90
485.35	997.07
485.53	800.46
485.71	1287.29
485.89	610.88
486.07	870.68
486.25	1664.12
486.43	1240.48
486.61	1149.20
486.78	1118.78
486.96	746.63
487.14	964.30
487.32	889.40
487.50	922.17
487.68	1301.34
487.85	940.90
488.03	1228.78
488.21	1500.28
488.39	1060.26
488.57	1284.95
488.75	1015.79
488.92	4678.73
489.10	1357.51
489.28	1640.72
489.46	952.60
489.64	1128.14
489.81	1249.85
489.99	1254.53
490.17	1060.26
490.35	2036.27
490.53	1135.16
490.70	1020.47
490.88	1448.79
491.06	1060.26
491.24	1310.70
491.41	1561.14
491.59	1233.46
491.77	905.79
491.95	985.37
492.13	983.02
492.30	1240.48
492.48	1111.75
492.66	1205.38
492.84	1093.03
493.01	1196.01
493.19	1093.03
493.37	1603.27
493.54	1397.30
493.72	1261.55
493.90	1102.39
494.08	1142.18
494.25	1446.45
494.43	1261.55
494.61	1146.86
494.79	1020.47
494.96	1020.47
495.14	1486.24
495.32	1221.76
495.49	1322.40
495.67	1320.06
495.85	1210.06
496.02	1184.31
496.20	1526.03
496.38	1462.83
496.55	1364.53
496.73	1441.77
496.91	1174.95
497.09	1460.49
497.26	1259.21
497.44	1228.78
497.62	1364.53
497.79	1212.40
497.97	1469.86
498.14	1345.81
498.32	1338.79
498.50	1432.41
498.67	1123.46
498.85	1352.83
499.03	1270.91
499.20	1242.82
499.38	1294.32
499.56	1327.08
499.73	1785.83
499.91	1490.92
500.08	1537.73
500.26	1303.68
500.44	1149.20
500.61	1380.92
500.79	1116.44
500.97	1495.60
501.14	1558.80
501.32	1364.53
501.49	1638.38
501.67	1371.55
501.84	1418.36
502.02	1062.60
502.20	1867.75
502.37	1495.60
502.55	1240.48
502.72	1378.58
502.90	1589.22
503.07	1327.08
503.25	1444.11
503.43	1156.22
503.60	1273.25
503.78	1425.39
503.95	1256.87
504.13	1291.98
504.30	1540.07
504.48	1629.01
504.65	1778.81
504.83	1565.82
505.01	1235.80
505.18	1586.88
505.36	1373.89
505.53	1380.92
505.71	1331.76
505.88	1671.14
506.06	1240.48
506.23	1380.92
506.41	1291.98
506.58	1540.07
506.76	1469.86
506.93	1235.80
507.11	1488.58
507.28	1270.91
507.46	1266.23
507.63	1406.66
507.81	1210.06
507.98	1320.06
508.16	1397.30
508.33	1289.64
508.50	1568.16
508.68	1479.22
508.85	1352.83
509.03	1254.53
509.20	1343.47
509.38	1467.52
509.55	1762.42
509.73	1636.03
509.90	1694.55
510.08	1242.82
510.25	1687.53
510.42	1301.34
510.60	1465.18
510.77	1558.80
510.95	1732.00
511.12	1247.51
511.30	1584.54
511.47	1598.59
511.64	1902.86
511.82	1329.42
511.99	1376.24
512.17	1310.70
512.34	1294.32
512.51	1203.04
512.69	1364.53
512.86	1839.66
513.04	1212.40
513.21	1469.86
513.38	1352.83
513.56	1277.93
513.73	1324.74
513.90	1303.68
514.08	1179.63
514.25	1488.58
514.43	1469.86
514.60	1317.72
514.77	1310.70
514.95	1497.94
515.12	1315.38
515.29	1448.79
515.47	1425.39
515.64	1509.65
515.81	1413.68
515.99	1820.94
516.16	1446.45
516.33	1654.76
516.51	1273.25
516.68	1086.01
516.85	1135.16
517.03	1156.22
517.20	1519.01
517.37	1526.03
517.54	1533.05
517.72	1364.53
517.89	1046.22
518.06	1174.95
518.24	1912.22
518.41	1949.67
518.58	1600.93
518.75	1247.51
518.93	1362.19
519.10	1453.47
519.27	1327.08
519.45	1394.96
519.62	1413.68
519.79	1619.65
519.96	1320.06
520.14	1373.89
520.31	1678.16
520.48	1369.21
520.65	1397.30
520.83	1666.46
521.00	1696.89
521.17	1748.38
521.34	1416.02
521.52	1535.39
521.69	1511.99
521.86	1467.52
522.03	1582.20
522.20	1933.28
522.38	1366.87
522.55	1551.78
522.72	1299.00
522.89	1813.92
523.07	2040.95
523.24	1511.99
523.41	1345.81
523.58	1502.62
523.75	1519.01
523.92	1383.26
524.10	1493.26
524.27	1563.48
524.44	1460.49
524.61	1776.47
524.78	1322.40
524.96	1640.72
525.13	1570.50
525.30	1919.24
525.47	1692.21
525.64	1514.33
525.81	1488.58
525.98	1479.22
526.16	1324.74
526.33	1224.10
526.50	1167.93
526.67	1144.52
526.84	1193.67
527.01	1254.53
527.18	1486.24
527.36	1558.80
527.53	1207.72
527.70	1654.76
527.87	1397.30
528.04	2022.22
528.21	1369.21
528.38	1851.36
528.55	1933.28
528.72	1879.45
528.89	2085.42
529.07	1523.69
529.24	1495.60
529.41	1879.45
529.58	1568.16
529.75	1394.96
529.92	1753.06
530.09	1507.30
530.26	1736.68
530.43	1753.06
530.60	1584.54
530.77	1533.05
530.94	1750.72
531.11	1715.61
531.28	1355.17
531.46	1448.79
531.63	1483.90
531.80	1605.61
531.97	1682.85
532.14	1554.12
532.31	1572.84
532.48	1633.69
532.65	1633.69
532.82	1242.82
532.99	1444.11
533.16	1554.12
533.33	1612.63
533.50	1460.49
533.67	1404.32
533.84	1636.03
534.01	1631.35
534.18	1444.11
534.35	1528.37
534.52	1596.25
534.69	2033.93
534.86	1535.39
535.03	1490.92
535.20	1561.14
535.37	1806.89
535.54	1631.35
535.71	1535.39
535.88	1926.26
536.05	1439.43
536.22	1755.40
536.38	1432.41
536.55	1537.73
536.72	1806.89
536.89	1406.66
537.06	1404.32
537.23	1392.62
537.40	1465.18
537.57	1448.79
537.74	1736.68
537.91	1689.87
538.08	1509.65
538.25	1654.76
538.42	1446.45
538.59	1617.31
538.75	1472.20
538.92	1453.47
539.09	1769.44
539.26	1416.02
539.43	1867.75
539.60	1458.15
539.77	1572.84
539.94	1549.43
540.11	1638.38
540.28	1933.28
540.44	1984.77
540.61	1369.21
540.78	1387.94
540.95	1327.08
541.12	2057.33
541.29	1416.02
541.46	2003.50
541.62	1619.65
541.79	1357.51
541.96	1317.72
542.13	1460.49
542.30	1385.60
542.47	1701.57
542.63	1511.99
542.80	1551.78
542.97	1905.20
543.14	1434.75
543.31	1589.22
543.48	1617.31
543.64	1633.69
543.81	1416.02
543.98	1390.28
544.15	1315.38
544.32	1427.73
544.48	1495.60
544.65	1453.47
544.82	1420.71
544.99	1437.09
545.16	1790.51
545.32	1439.43
545.49	1600.93
545.66	1537.73
545.83	1343.47
546.00	1359.85
546.16	1448.79
546.33	1409.00
546.50	1394.96
546.67	1870.09
546.83	1673.48
547.00	1521.35
547.17	1385.60
547.34	1303.68
547.50	1570.50
547.67	1540.07
547.84	1315.38
548.00	1739.02
548.17	1465.18
548.34	1493.26
548.51	1937.96
548.67	1858.39
548.84	1425.39
549.01	1535.39
549.18	1596.25
549.34	1577.52
549.51	1575.18
549.68	1575.18
549.84	1514.33
550.01	1322.40
550.18	3112.91
550.34	2422.45
550.51	1675.82
550.68	2195.42
550.84	1378.58
551.01	1511.99
551.18	1776.47
551.34	1624.33
551.51	1474.54
551.68	1437.09
551.84	1755.40
552.01	1383.26
552.18	1479.22
552.34	1472.20
552.51	1469.86
552.68	1673.48
552.84	1418.36
553.01	1631.35
553.18	1710.93
553.34	1345.81
553.51	1378.58
553.67	1600.93
553.84	2094.78
554.01	1666.46
554.17	1582.20
554.34	1411.34
554.51	1638.38
554.67	1816.26
554.84	1860.73
555.00	1528.37
555.17	1607.95
555.33	1778.81
555.50	1488.58
555.67	1692.21
555.83	1249.85
556.00	1519.01
556.16	3634.85
556.33	1692.21
556.50	1474.54
556.66	1383.26
556.83	1245.16
556.99	1413.68
557.16	1535.39
557.32	1399.64
557.49	1439.43
557.65	1373.89
557.82	1301.34
557.98	1411.34
558.15	1294.32
558.32	1423.05
558.48	1301.34
558.65	1371.55
558.81	1673.48
558.98	1303.68
559.14	1703.91
559.31	1481.56
559.47	1556.46
559.64	1336.45
559.80	1816.26
559.97	1350.49
560.13	1420.71
560.30	1275.59
560.46	1289.64
560.63	1371.55
560.79	1437.09
560.96	1488.58
561.12	1425.39
561.29	1556.46
561.45	1458.15
561.61	1572.84
561.78	2459.90
561.94	1432.41
562.11	1399.64
562.27	1467.52
562.44	1299.00
562.60	1324.74
562.77	1397.30
562.93	2200.10
563.10	1519.01
563.26	1448.79
563.42	1687.53
563.59	1497.94
563.75	1231.12
563.92	1778.81
564.08	1535.39
564.24	1614.97
564.41	2052.65
564.57	1273.25
564.74	1350.49
564.90	1565.82
565.07	1650.08
565.23	1575.18
565.39	1341.13
565.56	1584.54
565.72	1364.53
565.88	1397.30
566.05	1231.12
566.21	1383.26
566.38	1607.95
566.54	1462.83
566.70	1313.04
566.87	1263.89
567.03	1167.93
567.19	1392.62
567.36	1610.29
567.52	1299.00
567.68	1586.88
567.85	1614.97
568.01	1308.36
568.17	1287.29
568.34	1336.45
568.50	1664.12
568.66	1219.42
568.83	2216.49
568.99	1266.23
569.15	1507.30
569.32	1313.04
569.48	1362.19
569.64	1181.97
569.81	1406.66
569.97	1280.27
570.13	1526.03
570.30	1193.67
570.46	1261.55
570.62	1306.02
570.78	1308.36
570.95	1069.62
571.11	1842.00
571.27	1991.80
571.43	1156.22
571.60	1673.48
571.76	1249.85
571.92	1376.24
572.09	1359.85
572.25	1299.00
572.41	1366.87
572.57	1336.45
572.74	1839.66
572.90	1544.75
573.06	1451.13
573.22	1469.86
573.38	1783.49
573.55	1713.27
573.71	1722.63
573.87	1589.22
574.03	1277.93
574.20	1348.15
574.36	1586.88
574.52	1242.82
574.68	1249.85
574.84	1467.52
575.01	1383.26
575.17	1526.03
575.33	1270.91
575.49	1619.65
575.65	1685.19
575.82	1612.63
575.98	1970.73
576.14	1413.68
576.30	1308.36
576.46	1275.59
576.62	1411.34
576.79	1483.90
576.95	1753.06
577.11	1214.74
577.27	1153.88
577.43	1729.66
577.59	1865.41
577.75	1439.43
577.92	1277.93
578.08	1210.06
578.24	1174.95
578.40	1610.29
578.56	1753.06
578.72	1757.74
578.88	1682.85
579.04	1334.11
579.21	1481.56
579.37	1287.29
579.53	1277.93
579.69	1664.12
579.85	1203.04
580.01	1432.41
580.17	1291.98
580.33	1343.47
580.49	1409.00
580.65	1521.35
580.82	1348.15
580.98	1184.31
581.14	1146.86
581.30	1678.16
581.46	1394.96
581.62	1659.44
581.78	1210.06
581.94	1411.34
582.10	1153.88
582.26	1345.81
582.42	1233.46
582.58	1528.37
582.74	1210.06
582.90	1310.70
583.06	1504.96
583.22	1397.30
583.38	1219.42
583.54	1252.19
583.70	1760.08
583.86	1348.15
584.02	1268.57
584.18	1678.16
584.34	1261.55
584.50	1380.92
584.66	1151.54
584.82	1132.82
584.98	1373.89
585.14	1371.55
585.30	1633.69
585.46	1334.11
585.62	1020.47
585.78	1284.95
585.94	1530.71
586.10	1280.27
586.26	1451.13
586.42	1837.32
586.58	1439.43
586.74	1233.46
586.90	1383.26
587.06	1441.77
587.22	1362.19
587.38	1196.01
587.54	1198.35
587.70	1528.37
587.86	1671.14
588.02	1214.74
588.18	1359.85
588.34	1434.75
588.49	912.81
588.65	1259.21
588.81	1043.88
588.97	922.17
589.13	1123.46
589.29	1179.63
589.45	1614.97
589.61	1181.97
589.77	1600.93
589.93	1153.88
590.08	1198.35
590.24	1226.44
590.40	1348.15
590.56	1579.86
590.72	1350.49
590.88	1088.35
591.04	1313.04
591.20	1156.22
591.35	1729.66
591.51	1247.51
591.67	1100.05
591.83	1095.37
591.99	1280.27
592.15	1441.77
592.31	1458.15
592.46	1317.72
592.62	1453.47
592.78	1170.27
592.94	1093.03
593.10	1144.52
593.26	1069.62
593.41	1397.30
593.57	1282.61
593.73	1219.42
593.89	1420.71
594.05	1287.29
594.20	1160.91
594.36	1504.96
594.52	1114.10
594.68	1153.88
594.84	1416.02
594.99	1755.40
595.15	1394.96
595.31	1434.75
595.47	1778.81
595.62	1181.97
595.78	1210.06
595.94	1280.27
596.10	1626.67
596.25	1306.02
596.41	1460.49
596.57	1158.57
596.73	1203.04
596.88	1352.83
597.04	1310.70
597.20	1067.28
597.36	1336.45
597.51	1130.48
597.67	1095.37
597.83	1097.71
597.99	1434.75
598.14	1245.16
598.30	1502.62
598.46	1104.73
598.61	1565.82
598.77	1343.47
598.93	1114.10
599.09	1069.62
599.24	1284.95
599.40	1462.83
599.56	1217.08
599.71	1263.89
599.87	1179.63
600.03	1270.91
600.18	1231.12
600.34	1437.09
600.50	1125.80
600.65	1074.31
600.81	1376.24
600.97	1137.50
601.12	1186.65
601.28	1710.93
601.44	1221.76
601.59	1088.35
601.75	1289.64
601.91	1156.22
602.06	1282.61
