SpectraSuite Data File
++++++++++++++++++++++++++++++++++++
Date: Mon Oct 07 15:00:24 GMT-05:00 2013
User: price-jones
Dark Spectrum Present: No
Reference Spectrum Present: No
Number of Sampled Component Spectra: 1
Spectrometers: USB2+H05261
Integration Time (usec): 1000000 (USB2+H05261)
Spectra Averaged: 1 (USB2+H05261)
Boxcar Smoothing: 0 (USB2+H05261)
Correct for Electrical Dark: No (USB2+H05261)
Strobe/Lamp Enabled: No (USB2+H05261)
Correct for Detector Non-linearity: No (USB2+H05261)
Correct for Stray Light: No (USB2+H05261)
Number of Pixels in Processed Spectrum: 2048
>>>>>Begin Processed Spectral Data<<<<<
365.73	0.00
365.92	0.00
366.12	0.00
366.32	0.00
366.52	0.00
366.72	182.56
366.91	0.00
367.11	138.09
367.31	86.60
367.51	147.45
367.70	297.25
367.90	416.62
368.10	105.32
368.30	287.89
368.49	0.00
368.69	358.10
368.89	133.41
369.09	0.00
369.28	128.73
369.48	0.00
369.68	63.19
369.87	229.37
370.07	23.41
370.27	592.16
370.47	294.91
370.66	138.09
370.86	327.68
371.06	681.10
371.25	887.06
371.45	337.04
371.65	617.90
371.84	135.75
372.04	95.96
372.24	374.49
372.44	231.71
372.63	411.93
372.83	809.83
373.03	332.36
373.22	161.50
373.42	154.48
373.62	346.40
373.81	526.62
374.01	641.31
374.21	568.75
374.40	313.63
374.60	739.61
374.79	365.12
374.99	292.57
375.19	301.93
375.38	442.36
375.58	447.04
375.78	648.33
375.97	514.92
376.17	917.49
376.37	355.76
376.56	395.55
376.76	220.01
376.95	276.18
377.15	540.66
377.35	468.11
377.54	447.04
377.74	229.37
377.93	227.03
378.13	451.72
378.33	613.22
378.52	311.29
378.72	641.31
378.91	599.18
379.11	299.59
379.31	294.91
379.50	121.71
379.70	674.07
379.89	617.90
380.09	257.46
380.28	177.88
380.48	388.53
380.68	229.37
380.87	131.07
381.07	461.09
381.26	664.71
381.46	138.09
381.65	505.56
381.85	252.78
382.04	496.19
382.24	486.83
382.43	322.99
382.63	154.48
382.83	292.57
383.02	627.26
383.22	695.14
383.41	227.03
383.61	414.27
383.80	645.99
384.00	404.91
384.19	229.37
384.39	496.19
384.58	322.99
384.78	496.19
384.97	461.09
385.17	411.93
385.36	238.73
385.56	610.88
385.75	114.69
385.95	421.30
386.14	505.56
386.34	322.99
386.53	524.28
386.72	266.82
386.92	784.08
387.11	568.75
387.31	533.64
387.50	276.18
387.70	70.22
387.89	458.74
388.09	287.89
388.28	177.88
388.48	142.77
388.67	585.13
388.86	294.91
389.06	348.74
389.25	397.89
389.45	486.83
389.64	341.72
389.84	704.50
390.03	461.09
390.22	400.23
390.42	227.03
390.61	196.60
390.81	149.79
391.00	337.04
391.19	552.37
391.39	367.46
391.58	545.34
391.78	346.40
391.97	461.09
392.16	152.13
392.36	610.88
392.55	697.48
392.75	430.66
392.94	365.12
393.13	550.03
393.33	147.45
393.52	308.95
393.71	751.31
393.91	393.21
394.10	177.88
394.29	210.65
394.49	248.10
394.68	444.70
394.88	718.54
395.07	704.50
395.26	500.87
395.46	409.59
395.65	657.69
395.84	451.72
396.04	1203.04
396.23	395.55
396.42	212.99
396.62	437.68
396.81	526.62
397.00	416.62
397.19	428.32
397.39	301.93
397.58	734.93
397.77	337.04
397.97	414.27
398.16	423.64
398.35	580.45
398.55	290.23
398.74	400.23
398.93	662.37
399.12	308.95
399.32	543.00
399.51	355.76
399.70	571.09
399.90	507.90
400.09	538.32
400.28	695.14
400.47	341.72
400.67	601.52
400.86	395.55
401.05	585.13
401.24	697.48
401.44	594.50
401.63	620.24
401.82	578.11
402.01	252.78
402.21	561.73
402.40	449.38
402.59	334.70
402.78	393.21
402.97	297.25
403.17	550.03
403.36	589.82
403.55	367.46
403.74	358.10
403.93	292.57
404.13	734.93
404.32	308.95
404.51	278.52
404.70	664.71
404.89	376.83
405.09	943.24
405.28	470.45
405.47	262.14
405.66	585.13
405.85	664.71
406.05	381.51
406.24	449.38
406.43	545.34
406.62	650.67
406.81	1057.92
407.00	706.84
407.20	442.36
407.39	430.66
407.58	369.80
407.77	653.01
407.96	809.83
408.15	631.94
408.34	662.37
408.54	484.49
408.73	514.92
408.92	475.13
409.11	664.71
409.30	727.91
409.49	325.33
409.68	372.15
409.87	585.13
410.07	397.89
410.26	582.79
410.45	416.62
410.64	287.89
410.83	498.53
411.02	393.21
411.21	650.67
411.40	753.65
411.59	456.40
411.78	393.21
411.98	475.13
412.17	346.40
412.36	388.53
412.55	461.09
412.74	657.69
412.93	990.05
413.12	409.59
413.31	760.67
413.50	671.73
413.69	451.72
413.88	912.81
414.07	568.75
414.26	599.18
414.45	425.98
414.64	653.01
414.83	669.39
415.02	599.18
415.22	671.73
415.41	812.17
415.60	397.89
415.79	479.81
415.98	896.43
416.17	493.85
416.36	519.60
416.55	447.04
416.74	674.07
416.93	784.08
417.12	456.40
417.31	472.79
417.50	543.00
417.69	1004.09
417.88	540.66
418.07	374.49
418.26	456.40
418.45	552.37
418.64	922.17
418.83	660.03
419.02	578.11
419.21	535.98
419.39	636.63
419.58	372.15
419.77	421.30
419.96	746.63
420.15	945.58
420.34	517.26
420.53	634.29
420.72	791.10
420.91	599.18
421.10	547.69
421.29	615.56
421.48	704.50
421.67	760.67
421.86	486.83
422.05	533.64
422.24	575.77
422.43	596.84
422.61	418.96
422.80	493.85
422.99	603.86
423.18	505.56
423.37	901.11
423.56	699.82
423.75	697.48
423.94	344.06
424.13	500.87
424.32	470.45
424.50	407.25
424.69	575.77
424.88	973.66
425.07	524.28
425.26	648.33
425.45	739.61
425.64	454.06
425.83	383.85
426.01	870.68
426.20	690.46
426.39	489.17
426.58	404.91
426.77	678.76
426.96	692.80
427.15	723.23
427.33	454.06
427.52	561.73
427.71	547.69
427.90	599.18
428.09	596.84
428.28	388.53
428.46	554.71
428.65	741.95
428.84	517.26
429.03	976.00
429.22	519.60
429.40	440.02
429.59	407.25
429.78	805.14
429.97	505.56
430.16	390.87
430.34	430.66
430.53	425.98
430.72	507.90
430.91	851.96
431.10	355.76
431.28	566.41
431.47	875.36
431.66	734.93
431.85	503.22
432.03	582.79
432.22	1366.87
432.41	557.05
432.60	908.13
432.79	397.89
432.97	610.88
433.16	468.11
433.35	423.64
433.54	468.11
433.72	657.69
433.91	779.40
434.10	465.77
434.28	653.01
434.47	517.26
434.66	704.50
434.85	454.06
435.03	601.52
435.22	1074.31
435.41	1076.65
435.59	856.64
435.78	739.61
435.97	491.51
436.16	976.00
436.34	571.09
436.53	671.73
436.72	952.60
436.90	905.79
437.09	732.59
437.28	671.73
437.46	571.09
437.65	816.85
437.84	849.61
438.02	774.72
438.21	767.70
438.40	521.94
438.58	437.68
438.77	681.10
438.96	636.63
439.14	594.50
439.33	877.70
439.52	578.11
439.70	669.39
439.89	905.79
440.08	767.70
440.26	718.54
440.45	1060.26
440.63	816.85
440.82	812.17
441.01	716.20
441.19	629.60
441.38	648.33
441.57	634.29
441.75	1018.13
441.94	952.60
442.12	648.33
442.31	617.90
442.50	681.10
442.68	507.90
442.87	711.52
443.05	641.31
443.24	767.70
443.43	908.13
443.61	1149.20
443.80	774.72
443.98	503.22
444.17	615.56
444.35	954.94
444.54	662.37
444.73	660.03
444.91	1046.22
445.10	538.32
445.28	660.03
445.47	645.99
445.65	657.69
445.84	552.37
446.02	744.29
446.21	653.01
446.39	662.37
446.58	821.53
446.77	678.76
446.95	720.88
447.14	903.45
447.32	1149.20
447.51	699.82
447.69	711.52
447.88	819.19
448.06	1200.69
448.25	882.38
448.43	613.22
448.62	580.45
448.80	800.46
448.99	1011.11
449.17	629.60
449.36	547.69
449.54	924.51
449.73	613.22
449.91	858.98
450.10	641.31
450.28	1425.39
450.46	1341.13
450.65	1015.79
450.83	847.27
451.02	748.97
451.20	816.85
451.39	723.23
451.57	697.48
451.76	613.22
451.94	718.54
452.13	997.07
452.31	1102.39
452.49	940.90
452.68	634.29
452.86	826.21
453.05	1310.70
453.23	809.83
453.42	547.69
453.60	662.37
453.78	940.90
453.97	601.52
454.15	615.56
454.34	589.82
454.52	697.48
454.70	1128.14
454.89	1001.75
455.07	547.69
455.26	1011.11
455.44	999.41
455.62	737.27
455.81	819.19
455.99	828.55
456.17	912.81
456.36	795.78
456.54	657.69
456.73	688.12
456.91	727.91
457.09	875.36
457.28	1139.84
457.46	763.01
457.64	1048.56
457.83	777.06
458.01	653.01
458.19	793.44
458.38	638.97
458.56	896.43
458.74	587.47
458.93	903.45
459.11	1004.09
459.29	662.37
459.48	833.23
459.66	1163.25
459.84	1064.94
460.03	1790.51
460.21	1004.09
460.39	791.10
460.57	973.66
460.76	880.04
460.94	861.32
461.12	1256.87
461.31	1165.59
461.49	777.06
461.67	718.54
461.85	922.17
462.04	744.29
462.22	2731.41
462.40	987.71
462.59	1130.48
462.77	608.54
462.95	980.68
463.13	585.13
463.32	1036.86
463.50	950.26
463.68	973.66
463.86	880.04
464.05	833.23
464.23	1174.95
464.41	980.68
464.59	737.27
464.78	826.21
464.96	655.35
465.14	837.91
465.32	807.48
465.50	978.34
465.69	1071.97
465.87	709.18
466.05	823.87
466.23	535.98
466.41	709.18
466.60	863.66
466.78	861.32
466.96	1071.97
467.14	1004.09
467.32	1151.54
467.51	966.64
467.69	952.60
467.87	1245.16
468.05	830.89
468.23	1327.08
468.41	1130.48
468.60	784.08
468.78	929.19
468.96	1107.07
469.14	1027.50
469.32	615.56
469.50	664.71
469.69	933.87
469.87	898.77
470.05	866.00
470.23	763.01
470.41	674.07
470.59	622.58
470.77	863.66
470.95	866.00
471.14	1055.58
471.32	875.36
471.50	1296.66
471.68	898.77
471.86	933.87
472.04	653.01
472.22	868.34
472.40	627.26
472.58	641.31
472.77	638.97
472.95	755.99
473.13	1479.22
473.31	1221.76
473.49	655.35
473.67	690.46
473.85	1086.01
474.03	990.05
474.21	926.85
474.39	1291.98
474.57	1331.76
474.75	945.58
474.93	737.27
475.12	662.37
475.30	828.55
475.48	861.32
475.66	919.83
475.84	854.30
476.02	802.80
476.20	1156.22
476.38	903.45
476.56	1668.80
476.74	924.51
476.92	863.66
477.10	805.14
477.28	1174.95
477.46	933.87
477.64	1081.33
477.82	947.92
478.00	875.36
478.18	961.96
478.36	940.90
478.54	791.10
478.72	819.19
478.90	889.40
479.08	1102.39
479.26	931.53
479.44	851.96
479.62	816.85
479.80	880.04
479.98	795.78
480.16	870.68
480.34	1142.18
480.52	830.89
480.70	1111.75
480.88	854.30
481.06	875.36
481.24	915.15
481.41	868.34
481.59	1064.94
481.77	1027.50
481.95	959.62
482.13	1444.11
482.31	1060.26
482.49	828.55
482.67	1128.14
482.85	1196.01
483.03	1107.07
483.21	1039.20
483.39	819.19
483.57	901.11
483.74	1303.68
483.92	1081.33
484.10	887.06
484.28	1284.95
484.46	1825.62
484.64	870.68
484.82	1032.18
485.00	1090.69
485.18	1057.92
485.35	1039.20
485.53	748.97
485.71	1146.86
485.89	690.46
486.07	851.96
486.25	1624.33
486.43	1156.22
486.61	1301.34
486.78	1184.31
486.96	800.46
487.14	985.37
487.32	1071.97
487.50	997.07
487.68	1256.87
487.85	990.05
488.03	1231.12
488.21	1404.32
488.39	1163.25
488.57	1282.61
488.75	1083.67
488.92	4575.75
489.10	1359.85
489.28	1687.53
489.46	940.90
489.64	1186.65
489.81	1174.95
489.99	1352.83
490.17	1254.53
490.35	2019.88
490.53	1296.66
490.70	1048.56
490.88	1371.55
491.06	1043.88
491.24	1369.21
491.41	1673.48
491.59	1287.29
491.77	983.02
491.95	1053.24
492.13	1081.33
492.30	1167.93
492.48	1146.86
492.66	1177.29
492.84	1046.22
493.01	1343.47
493.19	1025.15
493.37	1589.22
493.54	1383.26
493.72	1455.81
493.90	1100.05
494.08	1102.39
494.25	1430.07
494.43	1371.55
494.61	1226.44
494.79	1158.57
494.96	1170.27
495.14	1455.81
495.32	1153.88
495.49	1313.04
495.67	1294.32
495.85	1254.53
496.02	1116.44
496.20	1519.01
496.38	1432.41
496.55	1322.40
496.73	1472.20
496.91	1280.27
497.09	1523.69
497.26	1324.74
497.44	1322.40
497.62	1217.08
497.79	1242.82
497.97	1392.62
498.14	1451.13
498.32	1392.62
498.50	1462.83
498.67	1231.12
498.85	1287.29
499.03	1245.16
499.20	1401.98
499.38	1289.64
499.56	1306.02
499.73	1874.77
499.91	1521.35
500.08	1626.67
500.26	1364.53
500.44	1303.68
500.61	1444.11
500.79	1226.44
500.97	1575.18
501.14	1753.06
501.32	1479.22
501.49	1727.32
501.67	1317.72
501.84	1511.99
502.02	1149.20
502.20	1867.75
502.37	1446.45
502.55	1210.06
502.72	1348.15
502.90	1458.15
503.07	1423.05
503.25	1469.86
503.43	1184.31
503.60	1301.34
503.78	1486.24
503.95	1352.83
504.13	1188.99
504.30	1598.59
504.48	1659.44
504.65	1851.36
504.83	1629.01
505.01	1411.34
505.18	1481.56
505.36	1441.77
505.53	1493.26
505.71	1387.94
505.88	1799.87
506.06	1479.22
506.23	1235.80
506.41	1308.36
506.58	1610.29
506.76	1530.71
506.93	1373.89
507.11	1561.14
507.28	1385.60
507.46	1371.55
507.63	1465.18
507.81	1313.04
507.98	1303.68
508.16	1455.81
508.33	1420.71
508.50	1596.25
508.68	1458.15
508.85	1490.92
509.03	1299.00
509.20	1254.53
509.38	1530.71
509.55	1685.19
509.73	1771.79
509.90	1748.38
510.08	1322.40
510.25	1708.59
510.42	1193.67
510.60	1469.86
510.77	1572.84
510.95	1774.13
511.12	1364.53
511.30	1654.76
511.47	1776.47
511.64	1977.75
511.82	1416.02
511.99	1378.58
512.17	1329.42
512.34	1303.68
512.51	1313.04
512.69	1369.21
512.86	1781.15
513.04	1306.02
513.21	1561.14
513.38	1329.42
513.56	1289.64
513.73	1392.62
513.90	1156.22
514.08	1301.34
514.25	1488.58
514.43	1533.05
514.60	1247.51
514.77	1320.06
514.95	1425.39
515.12	1266.23
515.29	1547.09
515.47	1544.75
515.64	1465.18
515.81	1401.98
515.99	1874.77
516.16	1542.41
516.33	1591.56
516.51	1277.93
516.68	1102.39
516.85	1146.86
517.03	1291.98
517.20	1586.88
517.37	1626.67
517.54	1488.58
517.72	1380.92
517.89	1111.75
518.06	1142.18
518.24	1977.75
518.41	1886.47
518.58	1708.59
518.75	1296.66
518.93	1441.77
519.10	1481.56
519.27	1310.70
519.45	1544.75
519.62	1556.46
519.79	1568.16
519.96	1299.00
520.14	1528.37
520.31	1813.92
520.48	1561.14
520.65	1535.39
520.83	1605.61
521.00	1732.00
521.17	1849.02
521.34	1420.71
521.52	1514.33
521.69	1554.12
521.86	1591.56
522.03	1792.85
522.20	2040.95
522.38	1479.22
522.55	1528.37
522.72	1336.45
522.89	1811.57
523.07	2031.58
523.24	1453.47
523.41	1504.96
523.58	1481.56
523.75	1476.88
523.92	1511.99
524.10	1715.61
524.27	1504.96
524.44	1519.01
524.61	1914.56
524.78	1488.58
524.96	1757.74
525.13	1643.06
525.30	1944.99
525.47	1748.38
525.64	1591.56
525.81	1572.84
525.98	1511.99
526.16	1476.88
526.33	1334.11
526.50	1188.99
526.67	1114.10
526.84	1196.01
527.01	1362.19
527.18	1568.16
527.36	1526.03
527.53	1348.15
527.70	1940.30
527.87	1572.84
528.04	2017.54
528.21	1448.79
528.38	1851.36
528.55	1893.49
528.72	1940.30
528.89	2225.85
529.07	1596.25
529.24	1584.54
529.41	2097.12
529.58	1626.67
529.75	1490.92
529.92	1734.34
530.09	1699.23
530.26	1916.90
530.43	1673.48
530.60	1572.84
530.77	1617.31
530.94	1755.40
531.11	1858.39
531.28	1516.67
531.46	1387.94
531.63	1701.57
531.80	1750.72
531.97	1682.85
532.14	1540.07
532.31	1717.95
532.48	1563.48
532.65	1600.93
532.82	1331.76
532.99	1465.18
533.16	1474.54
533.33	1540.07
533.50	1561.14
533.67	1411.34
533.84	1631.35
534.01	1607.95
534.18	1556.46
534.35	1631.35
534.52	1614.97
534.69	2141.59
534.86	1621.99
535.03	1589.22
535.20	1591.56
535.37	1851.36
535.54	1685.19
535.71	1565.82
535.88	2040.95
536.05	1528.37
536.22	1682.85
536.38	1401.98
536.55	1652.42
536.72	1870.09
536.89	1331.76
537.06	1481.56
537.23	1432.41
537.40	1603.27
537.57	1439.43
537.74	1769.44
537.91	1795.19
538.08	1652.42
538.25	1724.97
538.42	1577.52
538.59	1640.72
538.75	1497.94
538.92	1668.80
539.09	1739.02
539.26	1416.02
539.43	1891.15
539.60	1561.14
539.77	1741.36
539.94	1584.54
540.11	1771.79
540.28	2001.16
540.44	1968.39
540.61	1514.33
540.78	1519.01
540.95	1341.13
541.12	2001.16
541.29	1451.13
541.46	1973.07
541.62	1713.27
541.79	1399.64
541.96	1397.30
542.13	1481.56
542.30	1404.32
542.47	1769.44
542.63	1530.71
542.80	1701.57
542.97	1816.26
543.14	1530.71
543.31	1767.10
543.48	1572.84
543.64	1694.55
543.81	1551.78
543.98	1432.41
544.15	1299.00
544.32	1472.20
544.48	1404.32
544.65	1598.59
544.82	1348.15
544.99	1474.54
545.16	2003.50
545.32	1497.94
545.49	1638.38
545.66	1577.52
545.83	1495.60
546.00	1444.11
546.16	1497.94
546.33	1378.58
546.50	1549.43
546.67	1898.17
546.83	1858.39
547.00	1659.44
547.17	1481.56
547.34	1380.92
547.50	1509.65
547.67	1572.84
547.84	1413.68
548.00	1626.67
548.17	1476.88
548.34	1528.37
548.51	1933.28
548.67	1811.57
548.84	1502.62
549.01	1640.72
549.18	1558.80
549.34	1727.32
549.51	1685.19
549.68	1671.14
549.84	1619.65
550.01	1226.44
550.18	3105.89
550.34	2310.11
550.51	1607.95
550.68	2092.44
550.84	1528.37
551.01	1657.10
551.18	1778.81
551.34	1467.52
551.51	1626.67
551.68	1528.37
551.84	1710.93
552.01	1493.26
552.18	1476.88
552.34	1516.67
552.51	1486.24
552.68	1734.34
552.84	1528.37
553.01	1619.65
553.18	1767.10
553.34	1448.79
553.51	1275.59
553.67	1664.12
553.84	2097.12
554.01	1820.94
554.17	1696.89
554.34	1376.24
554.51	1668.80
554.67	1874.77
554.84	1813.92
555.00	1741.36
555.17	1699.23
555.33	1783.49
555.50	1661.78
555.67	1636.03
555.83	1371.55
556.00	1493.26
556.16	3613.79
556.33	1640.72
556.50	1572.84
556.66	1521.35
556.83	1444.11
556.99	1406.66
557.16	1507.30
557.32	1481.56
557.49	1453.47
557.65	1425.39
557.82	1448.79
557.98	1572.84
558.15	1366.87
558.32	1502.62
558.48	1427.73
558.65	1497.94
558.81	1636.03
558.98	1425.39
559.14	1729.66
559.31	1521.35
559.47	1717.95
559.64	1301.34
559.80	1757.74
559.97	1392.62
560.13	1568.16
560.30	1397.30
560.46	1439.43
560.63	1474.54
560.79	1465.18
560.96	1598.59
561.12	1460.49
561.29	1593.90
561.45	1479.22
561.61	1640.72
561.78	2574.59
561.94	1507.30
562.11	1371.55
562.27	1551.78
562.44	1301.34
562.60	1500.28
562.77	1479.22
562.93	2129.89
563.10	1584.54
563.26	1568.16
563.42	1837.32
563.59	1551.78
563.75	1357.51
563.92	1757.74
564.08	1558.80
564.24	1673.48
564.41	2031.58
564.57	1205.38
564.74	1411.34
564.90	1614.97
565.07	1633.69
565.23	1643.06
565.39	1409.00
565.56	1558.80
565.72	1254.53
565.88	1397.30
566.05	1355.17
566.21	1432.41
566.38	1624.33
566.54	1647.74
566.70	1469.86
566.87	1341.13
567.03	1198.35
567.19	1549.43
567.36	1572.84
567.52	1465.18
567.68	1626.67
567.85	1593.90
568.01	1310.70
568.17	1240.48
568.34	1413.68
568.50	1732.00
568.66	1193.67
568.83	2214.15
568.99	1373.89
569.15	1633.69
569.32	1364.53
569.48	1460.49
569.64	1317.72
569.81	1507.30
569.97	1320.06
570.13	1497.94
570.30	1324.74
570.46	1196.01
570.62	1310.70
570.78	1284.95
570.95	1254.53
571.11	1935.62
571.27	1923.92
571.43	1191.33
571.60	1619.65
571.76	1306.02
571.92	1392.62
572.09	1329.42
572.25	1411.34
572.41	1406.66
572.57	1502.62
572.74	1994.14
572.90	1645.40
573.06	1544.75
573.22	1631.35
573.38	1739.02
573.55	1699.23
573.71	1659.44
573.87	1678.16
574.03	1373.89
574.20	1341.13
574.36	1680.50
574.52	1345.81
574.68	1355.17
574.84	1598.59
575.01	1343.47
575.17	1589.22
575.33	1301.34
575.49	1764.76
575.65	1657.10
575.82	1607.95
575.98	1991.80
576.14	1416.02
576.30	1217.08
576.46	1399.64
576.62	1416.02
576.79	1528.37
576.95	1755.40
577.11	1313.04
577.27	1174.95
577.43	1806.89
577.59	1809.23
577.75	1521.35
577.92	1252.19
578.08	1350.49
578.24	1231.12
578.40	1633.69
578.56	1673.48
578.72	1816.26
578.88	1659.44
579.04	1364.53
579.21	1437.09
579.37	1322.40
579.53	1306.02
579.69	1638.38
579.85	1249.85
580.01	1636.03
580.17	1259.21
580.33	1249.85
580.49	1411.34
580.65	1509.65
580.82	1380.92
580.98	1355.17
581.14	1226.44
581.30	1713.27
581.46	1448.79
581.62	1727.32
581.78	1299.00
581.94	1563.48
582.10	1254.53
582.26	1327.08
582.42	1394.96
582.58	1542.41
582.74	1427.73
582.90	1514.33
583.06	1465.18
583.22	1472.20
583.38	1256.87
583.54	1256.87
583.70	1788.17
583.86	1547.09
584.02	1306.02
584.18	1788.17
584.34	1322.40
584.50	1423.05
584.66	1341.13
584.82	1228.78
584.98	1385.60
585.14	1284.95
585.30	1799.87
585.46	1301.34
585.62	1212.40
585.78	1334.11
585.94	1521.35
586.10	1303.68
586.26	1390.28
586.42	1781.15
586.58	1643.06
586.74	1338.79
586.90	1301.34
587.06	1540.07
587.22	1507.30
587.38	1125.80
587.54	1256.87
587.70	1570.50
587.86	1568.16
588.02	1235.80
588.18	1376.24
588.34	1411.34
588.49	959.62
588.65	1123.46
588.81	1163.25
588.97	947.92
589.13	1097.71
589.29	1284.95
589.45	1593.90
589.61	1401.98
589.77	1610.29
589.93	1266.23
590.08	1310.70
590.24	1167.93
590.40	1284.95
590.56	1514.33
590.72	1364.53
590.88	954.94
591.04	1380.92
591.20	1193.67
591.35	1776.47
591.51	1245.16
591.67	1121.12
591.83	1263.89
591.99	1437.09
592.15	1593.90
592.31	1467.52
592.46	1334.11
592.62	1542.41
592.78	1090.69
592.94	1177.29
593.10	1102.39
593.26	994.73
593.41	1355.17
593.57	1355.17
593.73	1184.31
593.89	1565.82
594.05	1203.04
594.20	1149.20
594.36	1645.40
594.52	1315.38
594.68	1093.03
594.84	1430.07
594.99	1699.23
595.15	1420.71
595.31	1570.50
595.47	1757.74
595.62	1306.02
595.78	1310.70
595.94	1273.25
596.10	1621.99
596.25	1289.64
596.41	1519.01
596.57	1245.16
596.73	1277.93
596.88	1266.23
597.04	1331.76
597.20	1181.97
597.36	1401.98
597.51	1172.61
597.67	1093.03
597.83	1139.84
597.99	1547.09
598.14	1371.55
598.30	1598.59
598.46	1268.57
598.61	1668.80
598.77	1423.05
598.93	1207.72
599.09	1329.42
599.24	1310.70
599.40	1469.86
599.56	1327.08
599.71	1343.47
599.87	1263.89
600.03	1252.19
600.18	1252.19
600.34	1366.87
600.50	1186.65
600.65	1095.37
600.81	1455.81
600.97	1188.99
601.12	1259.21
601.28	1610.29
601.44	1261.55
601.59	994.73
601.75	1249.85
601.91	1088.35
