SpectraSuite Data File
++++++++++++++++++++++++++++++++++++
Date: Mon Oct 07 14:59:56 GMT-05:00 2013
User: price-jones
Dark Spectrum Present: No
Reference Spectrum Present: No
Number of Sampled Component Spectra: 1
Spectrometers: USB2+H05261
Integration Time (usec): 100000 (USB2+H05261)
Spectra Averaged: 1 (USB2+H05261)
Boxcar Smoothing: 0 (USB2+H05261)
Correct for Electrical Dark: No (USB2+H05261)
Strobe/Lamp Enabled: No (USB2+H05261)
Correct for Detector Non-linearity: No (USB2+H05261)
Correct for Stray Light: No (USB2+H05261)
Number of Pixels in Processed Spectrum: 2048
>>>>>Begin Processed Spectral Data<<<<<
365.73	0.00
365.92	0.00
366.12	0.00
366.32	0.00
366.52	0.00
366.72	0.00
366.91	0.00
367.11	0.00
367.31	0.00
367.51	0.00
367.70	0.00
367.90	0.00
368.10	0.00
368.30	0.00
368.49	0.00
368.69	0.00
368.89	0.00
369.09	0.00
369.28	0.00
369.48	0.00
369.68	0.00
369.87	0.00
370.07	0.00
370.27	0.00
370.47	0.00
370.66	0.00
370.86	0.00
371.06	0.00
371.25	0.00
371.45	0.00
371.65	0.00
371.84	0.00
372.04	0.00
372.24	0.00
372.44	0.00
372.63	0.00
372.83	0.00
373.03	0.00
373.22	0.00
373.42	0.00
373.62	0.00
373.81	0.00
374.01	0.00
374.21	0.00
374.40	0.00
374.60	0.00
374.79	0.00
374.99	0.00
375.19	0.00
375.38	0.00
375.58	0.00
375.78	0.00
375.97	0.00
376.17	0.00
376.37	0.00
376.56	0.00
376.76	0.00
376.95	0.00
377.15	0.00
377.35	0.00
377.54	0.00
377.74	0.00
377.93	0.00
378.13	0.00
378.33	0.00
378.52	0.00
378.72	0.00
378.91	0.00
379.11	0.00
379.31	0.00
379.50	0.00
379.70	0.00
379.89	0.00
380.09	0.00
380.28	0.00
380.48	0.00
380.68	0.00
380.87	0.00
381.07	0.00
381.26	0.00
381.46	0.00
381.65	0.00
381.85	0.00
382.04	0.00
382.24	0.00
382.43	0.00
382.63	0.00
382.83	0.00
383.02	0.00
383.22	0.00
383.41	0.00
383.61	0.00
383.80	0.00
384.00	0.00
384.19	0.00
384.39	0.00
384.58	0.00
384.78	0.00
384.97	0.00
385.17	0.00
385.36	0.00
385.56	0.00
385.75	0.00
385.95	0.00
386.14	0.00
386.34	0.00
386.53	0.00
386.72	0.00
386.92	0.00
387.11	0.00
387.31	0.00
387.50	0.00
387.70	0.00
387.89	0.00
388.09	0.00
388.28	0.00
388.48	0.00
388.67	0.00
388.86	0.00
389.06	0.00
389.25	0.00
389.45	0.00
389.64	0.00
389.84	0.00
390.03	0.00
390.22	0.00
390.42	0.00
390.61	0.00
390.81	0.00
391.00	0.00
391.19	0.00
391.39	0.00
391.58	0.00
391.78	0.00
391.97	0.00
392.16	0.00
392.36	0.00
392.55	0.00
392.75	0.00
392.94	0.00
393.13	0.00
393.33	0.00
393.52	0.00
393.71	0.00
393.91	0.00
394.10	0.00
394.29	0.00
394.49	0.00
394.68	0.00
394.88	0.00
395.07	0.00
395.26	0.00
395.46	0.00
395.65	0.00
395.84	0.00
396.04	0.00
396.23	0.00
396.42	0.00
396.62	0.00
396.81	0.00
397.00	0.00
397.19	0.00
397.39	0.00
397.58	0.00
397.77	0.00
397.97	0.00
398.16	0.00
398.35	0.00
398.55	0.00
398.74	0.00
398.93	0.00
399.12	0.00
399.32	0.00
399.51	0.00
399.70	0.00
399.90	0.00
400.09	0.00
400.28	0.00
400.47	0.00
400.67	0.00
400.86	0.00
401.05	0.00
401.24	0.00
401.44	0.00
401.63	0.00
401.82	0.00
402.01	0.00
402.21	0.00
402.40	0.00
402.59	0.00
402.78	0.00
402.97	0.00
403.17	0.00
403.36	0.00
403.55	0.00
403.74	0.00
403.93	0.00
404.13	0.00
404.32	0.00
404.51	0.00
404.70	0.00
404.89	0.00
405.09	0.00
405.28	0.00
405.47	0.00
405.66	0.00
405.85	0.00
406.05	0.00
406.24	0.00
406.43	0.00
406.62	0.00
406.81	0.00
407.00	0.00
407.20	0.00
407.39	0.00
407.58	0.00
407.77	0.00
407.96	0.00
408.15	0.00
408.34	0.00
408.54	0.00
408.73	0.00
408.92	0.00
409.11	0.00
409.30	0.00
409.49	0.00
409.68	0.00
409.87	0.00
410.07	0.00
410.26	0.00
410.45	0.00
410.64	0.00
410.83	0.00
411.02	0.00
411.21	0.00
411.40	0.00
411.59	0.00
411.78	0.00
411.98	0.00
412.17	0.00
412.36	0.00
412.55	0.00
412.74	0.00
412.93	0.00
413.12	0.00
413.31	0.00
413.50	0.00
413.69	0.00
413.88	0.00
414.07	0.00
414.26	0.00
414.45	0.00
414.64	0.00
414.83	0.00
415.02	0.00
415.22	0.00
415.41	0.00
415.60	0.00
415.79	0.00
415.98	0.00
416.17	0.00
416.36	0.00
416.55	0.00
416.74	0.00
416.93	0.00
417.12	0.00
417.31	0.00
417.50	0.00
417.69	0.00
417.88	0.00
418.07	0.00
418.26	0.00
418.45	0.00
418.64	0.00
418.83	0.00
419.02	0.00
419.21	0.00
419.39	0.00
419.58	0.00
419.77	0.00
419.96	0.00
420.15	0.00
420.34	0.00
420.53	0.00
420.72	0.00
420.91	0.00
421.10	0.00
421.29	0.00
421.48	0.00
421.67	0.00
421.86	0.00
422.05	0.00
422.24	0.00
422.43	0.00
422.61	0.00
422.80	0.00
422.99	0.00
423.18	0.00
423.37	0.00
423.56	0.00
423.75	0.00
423.94	0.00
424.13	0.00
424.32	0.00
424.50	0.00
424.69	0.00
424.88	0.00
425.07	0.00
425.26	0.00
425.45	0.00
425.64	0.00
425.83	0.00
426.01	0.00
426.20	0.00
426.39	0.00
426.58	0.00
426.77	0.00
426.96	0.00
427.15	0.00
427.33	0.00
427.52	0.00
427.71	0.00
427.90	0.00
428.09	0.00
428.28	0.00
428.46	0.00
428.65	0.00
428.84	0.00
429.03	0.00
429.22	0.00
429.40	0.00
429.59	0.00
429.78	0.00
429.97	0.00
430.16	0.00
430.34	0.00
430.53	0.00
430.72	0.00
430.91	0.00
431.10	0.00
431.28	0.00
431.47	0.00
431.66	0.00
431.85	0.00
432.03	0.00
432.22	0.00
432.41	0.00
432.60	0.00
432.79	0.00
432.97	0.00
433.16	0.00
433.35	0.00
433.54	0.00
433.72	0.00
433.91	0.00
434.10	0.00
434.28	0.00
434.47	0.00
434.66	0.00
434.85	0.00
435.03	0.00
435.22	0.00
435.41	0.00
435.59	0.00
435.78	0.00
435.97	0.00
436.16	0.00
436.34	0.00
436.53	0.00
436.72	0.00
436.90	0.00
437.09	0.00
437.28	0.00
437.46	0.00
437.65	0.00
437.84	0.00
438.02	0.00
438.21	0.00
438.40	0.00
438.58	0.00
438.77	0.00
438.96	0.00
439.14	0.00
439.33	0.00
439.52	0.00
439.70	0.00
439.89	0.00
440.08	0.00
440.26	0.00
440.45	2.34
440.63	0.00
440.82	0.00
441.01	0.00
441.19	0.00
441.38	0.00
441.57	0.00
441.75	30.43
441.94	53.83
442.12	0.00
442.31	0.00
442.50	0.00
442.68	0.00
442.87	0.00
443.05	0.00
443.24	0.00
443.43	0.00
443.61	0.00
443.80	0.00
443.98	0.00
444.17	0.00
444.35	0.00
444.54	0.00
444.73	0.00
444.91	0.00
445.10	0.00
445.28	0.00
445.47	0.00
445.65	0.00
445.84	0.00
446.02	0.00
446.21	0.00
446.39	0.00
446.58	0.00
446.77	0.00
446.95	0.00
447.14	0.00
447.32	0.00
447.51	0.00
447.69	0.00
447.88	0.00
448.06	0.00
448.25	0.00
448.43	0.00
448.62	0.00
448.80	0.00
448.99	4.68
449.17	0.00
449.36	0.00
449.54	0.00
449.73	0.00
449.91	0.00
450.10	0.00
450.28	18.72
450.46	18.72
450.65	4.68
450.83	0.00
451.02	4.68
451.20	0.00
451.39	0.00
451.57	0.00
451.76	0.00
451.94	0.00
452.13	4.68
452.31	0.00
452.49	0.00
452.68	0.00
452.86	0.00
453.05	44.47
453.23	0.00
453.42	0.00
453.60	0.00
453.78	35.11
453.97	0.00
454.15	0.00
454.34	0.00
454.52	0.00
454.70	0.00
454.89	18.72
455.07	0.00
455.26	0.00
455.44	0.00
455.62	0.00
455.81	0.00
455.99	0.00
456.17	51.49
456.36	0.00
456.54	0.00
456.73	0.00
456.91	0.00
457.09	2.34
457.28	0.00
457.46	37.45
457.64	0.00
457.83	0.00
458.01	28.09
458.19	11.70
458.38	0.00
458.56	16.38
458.74	0.00
458.93	0.00
459.11	0.00
459.29	0.00
459.48	0.00
459.66	32.77
459.84	0.00
460.03	107.66
460.21	51.49
460.39	0.00
460.57	63.19
460.76	0.00
460.94	0.00
461.12	46.81
461.31	0.00
461.49	37.45
461.67	0.00
461.85	35.11
462.04	28.09
462.22	610.88
462.40	0.00
462.59	0.00
462.77	4.68
462.95	0.00
463.13	0.00
463.32	0.00
463.50	0.00
463.68	0.00
463.86	0.00
464.05	23.41
464.23	0.00
464.41	18.72
464.59	0.00
464.78	0.00
464.96	16.38
465.14	0.00
465.32	0.00
465.50	0.00
465.69	0.00
465.87	7.02
466.05	0.00
466.23	0.00
466.41	0.00
466.60	0.00
466.78	0.00
466.96	0.00
467.14	0.00
467.32	0.00
467.51	0.00
467.69	0.00
467.87	51.49
468.05	9.36
468.23	30.43
468.41	7.02
468.60	0.00
468.78	0.00
468.96	7.02
469.14	0.00
469.32	0.00
469.50	0.00
469.69	0.00
469.87	0.00
470.05	0.00
470.23	0.00
470.41	0.00
470.59	0.00
470.77	39.79
470.95	14.04
471.14	9.36
471.32	0.00
471.50	39.79
471.68	14.04
471.86	0.00
472.04	42.13
472.22	37.45
472.40	0.00
472.58	0.00
472.77	18.72
472.95	53.83
473.13	58.51
473.31	42.13
473.49	23.41
473.67	0.00
473.85	18.72
474.03	0.00
474.21	63.19
474.39	21.06
474.57	60.85
474.75	53.83
474.93	0.00
475.12	0.00
475.30	0.00
475.48	37.45
475.66	51.49
475.84	0.00
476.02	0.00
476.20	9.36
476.38	0.00
476.56	124.05
476.74	0.00
476.92	0.00
477.10	56.17
477.28	18.72
477.46	0.00
477.64	11.70
477.82	2.34
478.00	117.03
478.18	51.49
478.36	0.00
478.54	0.00
478.72	88.94
478.90	93.62
479.08	95.96
479.26	0.00
479.44	16.38
479.62	44.47
479.80	28.09
479.98	0.00
480.16	112.35
480.34	30.43
480.52	74.90
480.70	102.98
480.88	4.68
481.06	0.00
481.24	2.34
481.41	0.00
481.59	114.69
481.77	67.88
481.95	86.60
482.13	112.35
482.31	124.05
482.49	0.00
482.67	133.41
482.85	53.83
483.03	63.19
483.21	32.77
483.39	46.81
483.57	65.54
483.74	86.60
483.92	114.69
484.10	42.13
484.28	42.13
484.46	72.56
484.64	46.81
484.82	65.54
485.00	42.13
485.18	0.00
485.35	84.26
485.53	0.00
485.71	91.28
485.89	21.06
486.07	0.00
486.25	42.13
486.43	142.77
486.61	84.26
486.78	53.83
486.96	65.54
487.14	25.75
487.32	79.58
487.50	23.41
487.68	133.41
487.85	93.62
488.03	124.05
488.21	42.13
488.39	70.22
488.57	112.35
488.75	107.66
488.92	496.19
489.10	138.09
489.28	177.88
489.46	121.71
489.64	124.05
489.81	184.90
489.99	121.71
490.17	105.32
490.35	224.69
490.53	163.84
490.70	63.19
490.88	198.95
491.06	81.92
491.24	124.05
491.41	135.75
491.59	79.58
491.77	163.84
491.95	187.24
492.13	67.88
492.30	182.56
492.48	203.63
492.66	159.16
492.84	140.43
493.01	222.35
493.19	107.66
493.37	189.58
493.54	198.95
493.72	163.84
493.90	142.77
494.08	133.41
494.25	217.67
494.43	149.79
494.61	133.41
494.79	170.86
494.96	180.22
495.14	112.35
495.32	187.24
495.49	175.54
495.67	210.65
495.85	154.48
496.02	163.84
496.20	259.80
496.38	210.65
496.55	236.39
496.73	194.26
496.91	175.54
497.09	243.42
497.26	191.92
497.44	201.29
497.62	180.22
497.79	201.29
497.97	147.45
498.14	194.26
498.32	173.20
498.50	203.63
498.67	227.03
498.85	217.67
499.03	222.35
499.20	77.24
499.38	138.09
499.56	259.80
499.73	297.25
499.91	196.60
500.08	212.99
500.26	203.63
500.44	259.80
500.61	205.97
500.79	180.22
500.97	222.35
501.14	187.24
501.32	147.45
501.49	152.13
501.67	170.86
501.84	215.33
502.02	198.95
502.20	180.22
502.37	257.46
502.55	212.99
502.72	184.90
502.90	194.26
503.07	168.52
503.25	210.65
503.43	180.22
503.60	177.88
503.78	196.60
503.95	222.35
504.13	175.54
504.30	266.82
504.48	264.48
504.65	292.57
504.83	280.86
505.01	201.29
505.18	262.14
505.36	215.33
505.53	170.86
505.71	257.46
505.88	231.71
506.06	287.89
506.23	285.55
506.41	243.42
506.58	266.82
506.76	252.78
506.93	205.97
507.11	264.48
507.28	205.97
507.46	196.60
507.63	201.29
507.81	248.10
507.98	337.04
508.16	234.05
508.33	194.26
508.50	257.46
508.68	198.95
508.85	227.03
509.03	308.95
509.20	170.86
509.38	266.82
509.55	234.05
509.73	243.42
509.90	337.04
510.08	243.42
510.25	210.65
510.42	255.12
510.60	271.50
510.77	215.33
510.95	203.63
511.12	187.24
511.30	189.58
511.47	283.20
511.64	351.08
511.82	250.44
511.99	297.25
512.17	245.76
512.34	201.29
512.51	203.63
512.69	161.50
512.86	283.20
513.04	222.35
513.21	243.42
513.38	245.76
513.56	245.76
513.73	285.55
513.90	245.76
514.08	259.80
514.25	229.37
514.43	262.14
514.60	212.99
514.77	215.33
514.95	229.37
515.12	159.16
515.29	266.82
515.47	238.73
515.64	311.29
515.81	198.95
515.99	287.89
516.16	280.86
516.33	203.63
516.51	119.37
516.68	149.79
516.85	63.19
517.03	180.22
517.20	252.78
517.37	332.36
517.54	360.44
517.72	133.41
517.89	140.43
518.06	147.45
518.24	283.20
518.41	334.70
518.58	201.29
518.75	252.78
518.93	290.23
519.10	203.63
519.27	320.65
519.45	201.29
519.62	325.33
519.79	212.99
519.96	224.69
520.14	290.23
520.31	285.55
520.48	280.86
520.65	231.71
520.83	292.57
521.00	250.44
521.17	351.08
521.34	212.99
521.52	266.82
521.69	327.68
521.86	327.68
522.03	337.04
522.20	346.40
522.38	257.46
522.55	280.86
522.72	264.48
522.89	308.95
523.07	334.70
523.24	322.99
523.41	269.16
523.58	276.18
523.75	287.89
523.92	273.84
524.10	327.68
524.27	301.93
524.44	294.91
524.61	276.18
524.78	290.23
524.96	353.42
525.13	292.57
525.30	393.21
525.47	315.97
525.64	322.99
525.81	250.44
525.98	210.65
526.16	285.55
526.33	212.99
526.50	224.69
526.67	177.88
526.84	187.24
527.01	315.97
527.18	255.12
527.36	285.55
527.53	313.63
527.70	433.00
527.87	315.97
528.04	376.83
528.21	301.93
528.38	379.17
528.55	393.21
528.72	435.34
528.89	463.43
529.07	456.40
529.24	355.76
529.41	294.91
529.58	325.33
529.75	227.03
529.92	360.44
530.09	360.44
530.26	341.72
530.43	404.91
530.60	411.93
530.77	285.55
530.94	397.89
531.11	313.63
531.28	327.68
531.46	374.49
531.63	395.55
531.80	362.78
531.97	348.74
532.14	337.04
532.31	290.23
532.48	262.14
532.65	255.12
532.82	341.72
532.99	318.31
533.16	276.18
533.33	318.31
533.50	374.49
533.67	369.80
533.84	250.44
534.01	339.38
534.18	327.68
534.35	278.52
534.52	327.68
534.69	418.96
534.86	339.38
535.03	374.49
535.20	484.49
535.37	400.23
535.54	369.80
535.71	351.08
535.88	435.34
536.05	325.33
536.22	360.44
536.38	292.57
536.55	386.19
536.72	297.25
536.89	266.82
537.06	318.31
537.23	348.74
537.40	362.78
537.57	346.40
537.74	404.91
537.91	355.76
538.08	397.89
538.25	337.04
538.42	330.02
538.59	255.12
538.75	327.68
538.92	365.12
539.09	404.91
539.26	388.53
539.43	411.93
539.60	339.38
539.77	290.23
539.94	355.76
540.11	320.65
540.28	367.46
540.44	369.80
540.61	222.35
540.78	231.71
540.95	322.99
541.12	376.83
541.29	409.59
541.46	348.74
541.62	369.80
541.79	269.16
541.96	325.33
542.13	337.04
542.30	325.33
542.47	348.74
542.63	325.33
542.80	273.84
542.97	325.33
543.14	308.95
543.31	292.57
543.48	330.02
543.64	404.91
543.81	390.87
543.98	381.51
544.15	400.23
544.32	339.38
544.48	308.95
544.65	348.74
544.82	292.57
544.99	322.99
545.16	414.27
545.32	404.91
545.49	339.38
545.66	344.06
545.83	393.21
546.00	322.99
546.16	318.31
546.33	358.10
546.50	327.68
546.67	449.38
546.83	362.78
547.00	388.53
547.17	255.12
547.34	358.10
547.50	353.42
547.67	322.99
547.84	257.46
548.00	418.96
548.17	285.55
548.34	339.38
548.51	444.70
548.67	400.23
548.84	301.93
549.01	292.57
549.18	299.59
549.34	313.63
549.51	355.76
549.68	320.65
549.84	351.08
550.01	325.33
550.18	512.58
550.34	503.22
550.51	280.86
550.68	393.21
550.84	245.76
551.01	327.68
551.18	353.42
551.34	393.21
551.51	367.46
551.68	388.53
551.84	428.32
552.01	318.31
552.18	322.99
552.34	313.63
552.51	386.19
552.68	463.43
552.84	414.27
553.01	332.36
553.18	337.04
553.34	449.38
553.51	264.48
553.67	301.93
553.84	365.12
554.01	322.99
554.17	437.68
554.34	337.04
554.51	320.65
554.67	430.66
554.84	418.96
555.00	362.78
555.17	407.25
555.33	369.80
555.50	374.49
555.67	416.62
555.83	276.18
556.00	351.08
556.16	613.22
556.33	379.17
556.50	365.12
556.66	374.49
556.83	341.72
556.99	365.12
557.16	379.17
557.32	252.78
557.49	374.49
557.65	337.04
557.82	301.93
557.98	341.72
558.15	266.82
558.32	306.61
558.48	330.02
558.65	386.19
558.81	315.97
558.98	334.70
559.14	269.16
559.31	280.86
559.47	388.53
559.64	346.40
559.80	292.57
559.97	360.44
560.13	393.21
560.30	344.06
560.46	346.40
560.63	421.30
560.79	381.51
560.96	301.93
561.12	341.72
561.29	348.74
561.45	337.04
561.61	346.40
561.78	379.17
561.94	367.46
562.11	308.95
562.27	332.36
562.44	266.82
562.60	287.89
562.77	411.93
562.93	440.02
563.10	447.04
563.26	299.59
563.42	393.21
563.59	390.87
563.75	339.38
563.92	447.04
564.08	362.78
564.24	367.46
564.41	456.40
564.57	374.49
564.74	290.23
564.90	430.66
565.07	402.57
565.23	348.74
565.39	341.72
565.56	341.72
565.72	311.29
565.88	271.50
566.05	248.10
566.21	299.59
566.38	294.91
566.54	346.40
566.70	332.36
566.87	365.12
567.03	301.93
567.19	285.55
567.36	360.44
567.52	344.06
567.68	287.89
567.85	402.57
568.01	308.95
568.17	351.08
568.34	409.59
568.50	304.27
568.66	341.72
568.83	381.51
568.99	320.65
569.15	294.91
569.32	332.36
569.48	229.37
569.64	308.95
569.81	337.04
569.97	278.52
570.13	341.72
570.30	367.46
570.46	306.61
570.62	222.35
570.78	313.63
570.95	299.59
571.11	400.23
571.27	346.40
571.43	390.87
571.60	306.61
571.76	365.12
571.92	360.44
572.09	351.08
572.25	339.38
572.41	315.97
572.57	311.29
572.74	344.06
572.90	360.44
573.06	353.42
573.22	306.61
573.38	386.19
573.55	376.83
573.71	374.49
573.87	348.74
574.03	325.33
574.20	386.19
574.36	386.19
574.52	299.59
574.68	344.06
574.84	353.42
575.01	283.20
575.17	353.42
575.33	266.82
575.49	346.40
575.65	332.36
575.82	301.93
575.98	369.80
576.14	306.61
576.30	365.12
576.46	271.50
576.62	351.08
576.79	386.19
576.95	332.36
577.11	290.23
577.27	280.86
577.43	402.57
577.59	351.08
577.75	304.27
577.92	297.25
578.08	229.37
578.24	294.91
578.40	243.42
578.56	313.63
578.72	379.17
578.88	327.68
579.04	290.23
579.21	271.50
579.37	227.03
579.53	243.42
579.69	327.68
579.85	395.55
580.01	325.33
580.17	269.16
580.33	315.97
580.49	334.70
580.65	299.59
580.82	346.40
580.98	259.80
581.14	318.31
581.30	337.04
581.46	334.70
581.62	498.53
581.78	269.16
581.94	278.52
582.10	372.15
582.26	318.31
582.42	287.89
582.58	299.59
582.74	330.02
582.90	346.40
583.06	369.80
583.22	304.27
583.38	346.40
583.54	238.73
583.70	341.72
583.86	383.85
584.02	285.55
584.18	404.91
584.34	402.57
584.50	306.61
584.66	308.95
584.82	248.10
584.98	306.61
585.14	353.42
585.30	360.44
585.46	322.99
585.62	322.99
585.78	337.04
585.94	330.02
586.10	402.57
586.26	376.83
586.42	322.99
586.58	287.89
586.74	297.25
586.90	322.99
587.06	308.95
587.22	313.63
587.38	177.88
587.54	294.91
587.70	269.16
587.86	390.87
588.02	330.02
588.18	273.84
588.34	294.91
588.49	222.35
588.65	184.90
588.81	173.20
588.97	196.60
589.13	205.97
589.29	276.18
589.45	285.55
589.61	278.52
589.77	266.82
589.93	292.57
590.08	292.57
590.24	273.84
590.40	264.48
590.56	313.63
590.72	248.10
590.88	292.57
591.04	297.25
591.20	278.52
591.35	287.89
591.51	313.63
591.67	234.05
591.83	283.20
591.99	337.04
592.15	339.38
592.31	248.10
592.46	250.44
592.62	334.70
592.78	287.89
592.94	292.57
593.10	301.93
593.26	278.52
593.41	313.63
593.57	313.63
593.73	257.46
593.89	351.08
594.05	315.97
594.20	236.39
594.36	341.72
594.52	273.84
594.68	215.33
594.84	325.33
594.99	390.87
595.15	234.05
595.31	301.93
595.47	440.02
595.62	330.02
595.78	269.16
595.94	315.97
596.10	383.85
596.25	278.52
596.41	313.63
596.57	210.65
596.73	306.61
596.88	280.86
597.04	255.12
597.20	287.89
597.36	241.08
597.51	306.61
597.67	269.16
597.83	250.44
597.99	285.55
598.14	327.68
598.30	334.70
598.46	234.05
598.61	308.95
598.77	278.52
598.93	280.86
599.09	234.05
599.24	313.63
599.40	318.31
599.56	381.51
599.71	262.14
599.87	290.23
600.03	313.63
600.18	231.71
600.34	241.08
600.50	369.80
600.65	255.12
600.81	315.97
600.97	149.79
601.12	283.20
601.28	339.38
601.44	241.08
601.59	304.27
601.75	301.93
601.91	264.48
602.06	255.12
602.22	416.62
602.37	264.48
602.53	243.42
602.69	287.89
602.84	292.57
603.00	259.80
603.16	383.85
603.31	393.21
603.47	348.74
603.62	191.92
603.78	149.79
603.94	285.55
604.09	318.31
604.25	299.59
604.40	229.37
604.56	299.59
604.71	346.40
604.87	271.50
605.03	322.99
605.18	306.61
605.34	386.19
605.49	278.52
605.65	266.82
605.80	283.20
605.96	173.20
606.12	231.71
606.27	269.16
606.43	313.63
606.58	299.59
606.74	252.78
606.89	348.74
607.05	280.86
607.20	341.72
607.36	203.63
607.51	287.89
607.67	262.14
607.82	257.46
607.98	337.04
608.13	299.59
608.29	210.65
608.44	327.68
608.60	280.86
608.75	273.84
608.91	245.76
609.06	294.91
609.22	294.91
609.37	187.24
609.53	245.76
609.68	236.39
609.84	273.84
609.99	234.05
610.15	266.82
610.30	252.78
610.46	198.95
610.61	212.99
610.76	203.63
610.92	229.37
611.07	248.10
611.23	306.61
611.38	276.18
611.54	173.20
611.69	224.69
611.84	297.25
612.00	212.99
612.15	187.24
612.31	227.03
612.46	215.33
612.62	238.73
612.77	269.16
612.92	177.88
613.08	236.39
613.23	227.03
613.39	294.91
613.54	203.63
613.69	231.71
613.85	243.42
614.00	154.48
614.15	201.29
614.31	187.24
614.46	215.33
614.62	131.07
614.77	241.08
614.92	187.24
615.08	255.12
615.23	231.71
615.38	290.23
615.54	198.95
615.69	264.48
615.84	166.18
616.00	142.77
616.15	154.48
616.30	241.08
616.46	205.97
616.61	198.95
616.76	236.39
616.92	131.07
617.07	187.24
617.22	252.78
617.37	184.90
617.53	264.48
617.68	241.08
617.83	191.92
617.99	313.63
618.14	252.78
618.29	224.69
618.45	280.86
618.60	227.03
618.75	229.37
618.90	135.75
619.06	325.33
619.21	337.04
619.36	203.63
619.51	259.80
619.67	248.10
619.82	220.01
619.97	222.35
620.12	222.35
620.28	234.05
620.43	252.78
620.58	301.93
620.73	360.44
620.89	191.92
621.04	212.99
621.19	215.33
621.34	159.16
621.49	166.18
621.65	255.12
621.80	212.99
621.95	187.24
622.10	194.26
622.25	149.79
622.41	212.99
622.56	264.48
622.71	259.80
622.86	180.22
623.01	177.88
623.16	269.16
623.32	140.43
