SpectraSuite Data File
++++++++++++++++++++++++++++++++++++
Date: Mon Oct 07 15:00:20 GMT-05:00 2013
User: price-jones
Dark Spectrum Present: No
Reference Spectrum Present: No
Number of Sampled Component Spectra: 1
Spectrometers: USB2+H05261
Integration Time (usec): 1000000 (USB2+H05261)
Spectra Averaged: 1 (USB2+H05261)
Boxcar Smoothing: 0 (USB2+H05261)
Correct for Electrical Dark: No (USB2+H05261)
Strobe/Lamp Enabled: No (USB2+H05261)
Correct for Detector Non-linearity: No (USB2+H05261)
Correct for Stray Light: No (USB2+H05261)
Number of Pixels in Processed Spectrum: 2048
>>>>>Begin Processed Spectral Data<<<<<
365.73	0.00
365.92	0.00
366.12	0.00
366.32	0.00
366.52	0.00
366.72	161.50
366.91	0.00
367.11	156.82
367.31	35.11
367.51	203.63
367.70	252.78
367.90	472.79
368.10	149.79
368.30	217.67
368.49	0.00
368.69	365.12
368.89	58.51
369.09	4.68
369.28	74.90
369.48	0.00
369.68	21.06
369.87	252.78
370.07	63.19
370.27	533.64
370.47	344.06
370.66	184.90
370.86	461.09
371.06	627.26
371.25	889.40
371.45	170.86
371.65	550.03
371.84	154.48
372.04	131.07
372.24	362.78
372.44	266.82
372.63	351.08
372.83	814.51
373.03	339.38
373.22	208.31
373.42	297.25
373.62	365.12
373.81	491.51
374.01	660.03
374.21	671.73
374.40	280.86
374.60	678.76
374.79	325.33
374.99	337.04
375.19	477.47
375.38	491.51
375.58	407.25
375.78	709.18
375.97	622.58
376.17	1041.54
376.37	402.57
376.56	533.64
376.76	168.52
376.95	220.01
377.15	484.49
377.35	601.52
377.54	486.83
377.74	168.52
377.93	126.39
378.13	362.78
378.33	641.31
378.52	346.40
378.72	746.63
378.91	601.52
379.11	269.16
379.31	271.50
379.50	180.22
379.70	655.35
379.89	568.75
380.09	292.57
380.28	79.58
380.48	414.27
380.68	315.97
380.87	154.48
381.07	500.87
381.26	676.41
381.46	161.50
381.65	449.38
381.85	337.04
382.04	594.50
382.24	472.79
382.43	301.93
382.63	198.95
382.83	362.78
383.02	615.56
383.22	765.36
383.41	196.60
383.61	372.15
383.80	650.67
384.00	358.10
384.19	304.27
384.39	379.17
384.58	287.89
384.78	538.32
384.97	493.85
385.17	365.12
385.36	360.44
385.56	561.73
385.75	201.29
385.95	365.12
386.14	617.90
386.34	304.27
386.53	468.11
386.72	283.20
386.92	734.93
387.11	526.62
387.31	533.64
387.50	187.24
387.70	271.50
387.89	409.59
388.09	330.02
388.28	276.18
388.48	259.80
388.67	587.47
388.86	393.21
389.06	393.21
389.25	503.22
389.45	477.47
389.64	344.06
389.84	645.99
390.03	479.81
390.22	456.40
390.42	346.40
390.61	180.22
390.81	163.84
391.00	379.17
391.19	685.78
391.39	381.51
391.58	533.64
391.78	388.53
391.97	449.38
392.16	217.67
392.36	702.16
392.55	571.09
392.75	437.68
392.94	264.48
393.13	613.22
393.33	142.77
393.52	320.65
393.71	830.89
393.91	425.98
394.10	175.54
394.29	292.57
394.49	231.71
394.68	528.96
394.88	725.57
395.07	575.77
395.26	517.26
395.46	433.00
395.65	711.52
395.84	461.09
396.04	1224.10
396.23	386.19
396.42	327.68
396.62	528.96
396.81	519.60
397.00	416.62
397.19	416.62
397.39	327.68
397.58	875.36
397.77	383.85
397.97	339.38
398.16	472.79
398.35	580.45
398.55	304.27
398.74	425.98
398.93	653.01
399.12	388.53
399.32	589.82
399.51	393.21
399.70	573.43
399.90	580.45
400.09	547.69
400.28	774.72
400.47	470.45
400.67	660.03
400.86	454.06
401.05	683.44
401.24	671.73
401.44	737.27
401.63	699.82
401.82	858.98
402.01	287.89
402.21	636.63
402.40	458.74
402.59	383.85
402.78	411.93
402.97	358.10
403.17	512.58
403.36	535.98
403.55	376.83
403.74	330.02
403.93	381.51
404.13	809.83
404.32	367.46
404.51	374.49
404.70	653.01
404.89	374.49
405.09	961.96
405.28	512.58
405.47	278.52
405.66	648.33
405.85	751.31
406.05	535.98
406.24	484.49
406.43	571.09
406.62	592.16
406.81	1125.80
407.00	767.70
407.20	620.24
407.39	400.23
407.58	404.91
407.77	603.86
407.96	861.32
408.15	739.61
408.34	676.41
408.54	503.22
408.73	528.96
408.92	585.13
409.11	674.07
409.30	884.72
409.49	404.91
409.68	519.60
409.87	643.65
410.07	447.04
410.26	540.66
410.45	514.92
410.64	330.02
410.83	559.39
411.02	447.04
411.21	671.73
411.40	683.44
411.59	519.60
411.78	468.11
411.98	566.41
412.17	477.47
412.36	514.92
412.55	533.64
412.74	777.06
412.93	1013.45
413.12	390.87
413.31	866.00
413.50	660.03
413.69	521.94
413.88	947.92
414.07	622.58
414.26	688.12
414.45	568.75
414.64	706.84
414.83	634.29
415.02	531.30
415.22	814.51
415.41	891.74
415.60	416.62
415.79	566.41
415.98	936.21
416.17	592.16
416.36	688.12
416.55	484.49
416.74	763.01
416.93	894.08
417.12	592.16
417.31	559.39
417.50	540.66
417.69	1100.05
417.88	620.24
418.07	397.89
418.26	461.09
418.45	561.73
418.64	959.62
418.83	744.29
419.02	697.48
419.21	699.82
419.39	688.12
419.58	545.34
419.77	521.94
419.96	847.27
420.15	1062.60
420.34	627.26
420.53	805.14
420.72	922.17
420.91	734.93
421.10	578.11
421.29	718.54
421.48	816.85
421.67	858.98
421.86	615.56
422.05	613.22
422.24	601.52
422.43	732.59
422.61	489.17
422.80	543.00
422.99	571.09
423.18	531.30
423.37	1041.54
423.56	737.27
423.75	800.46
423.94	538.32
424.13	648.33
424.32	578.11
424.50	573.43
424.69	571.09
424.88	1013.45
425.07	592.16
425.26	685.78
425.45	866.00
425.64	440.02
425.83	559.39
426.01	924.51
426.20	734.93
426.39	580.45
426.58	496.19
426.77	657.69
426.96	840.25
427.15	681.10
427.33	528.96
427.52	753.65
427.71	622.58
427.90	690.46
428.09	547.69
428.28	402.57
428.46	669.39
428.65	779.40
428.84	643.65
429.03	1046.22
429.22	535.98
429.40	454.06
429.59	437.68
429.78	880.04
429.97	561.73
430.16	540.66
430.34	559.39
430.53	526.62
430.72	510.24
430.91	917.49
431.10	524.28
431.28	657.69
431.47	898.77
431.66	826.21
431.85	634.29
432.03	613.22
432.22	1233.46
432.41	608.54
432.60	1001.75
432.79	531.30
432.97	709.18
433.16	603.86
433.35	535.98
433.54	594.50
433.72	774.72
433.91	901.11
434.10	535.98
434.28	788.76
434.47	631.94
434.66	828.55
434.85	641.31
435.03	711.52
435.22	1179.63
435.41	1198.35
435.59	880.04
435.78	866.00
435.97	538.32
436.16	985.37
436.34	739.61
436.53	772.38
436.72	999.41
436.90	964.30
437.09	847.27
437.28	802.80
437.46	671.73
437.65	929.19
437.84	870.68
438.02	854.30
438.21	954.94
438.40	727.91
438.58	535.98
438.77	866.00
438.96	744.29
439.14	587.47
439.33	917.49
439.52	692.80
439.70	716.20
439.89	950.26
440.08	812.17
440.26	725.57
440.45	1231.12
440.63	847.27
440.82	842.59
441.01	823.87
441.19	784.08
441.38	748.97
441.57	823.87
441.75	1135.16
441.94	1184.31
442.12	842.59
442.31	741.95
442.50	755.99
442.68	758.33
442.87	877.70
443.05	823.87
443.24	880.04
443.43	924.51
443.61	1240.48
443.80	819.19
443.98	851.96
444.17	727.91
444.35	1076.65
444.54	779.40
444.73	807.48
444.91	1144.52
445.10	643.65
445.28	704.50
445.47	793.44
445.65	821.53
445.84	676.41
446.02	809.83
446.21	767.70
446.39	777.06
446.58	983.02
446.77	816.85
446.95	861.32
447.14	835.57
447.32	1240.48
447.51	908.13
447.69	814.51
447.88	936.21
448.06	1226.44
448.25	917.49
448.43	681.10
448.62	699.82
448.80	945.58
448.99	1041.54
449.17	697.48
449.36	695.14
449.54	1135.16
449.73	765.36
449.91	990.05
450.10	856.64
450.28	1516.67
450.46	1437.09
450.65	1153.88
450.83	1020.47
451.02	858.98
451.20	896.43
451.39	828.55
451.57	940.90
451.76	779.40
451.94	842.59
452.13	1029.84
452.31	1076.65
452.49	938.55
452.68	669.39
452.86	877.70
453.05	1357.51
453.23	800.46
453.42	653.01
453.60	870.68
453.78	915.15
453.97	737.27
454.15	681.10
454.34	767.70
454.52	732.59
454.70	1299.00
454.89	1090.69
455.07	767.70
455.26	1011.11
455.44	1137.50
455.62	753.65
455.81	959.62
455.99	1090.69
456.17	1114.10
456.36	889.40
456.54	961.96
456.73	786.42
456.91	849.61
457.09	964.30
457.28	1240.48
457.46	940.90
457.64	1188.99
457.83	781.74
458.01	786.42
458.19	994.73
458.38	793.44
458.56	1078.99
458.74	730.25
458.93	1036.86
459.11	1123.46
459.29	730.25
459.48	976.00
459.66	1336.45
459.84	1146.86
460.03	2064.35
460.21	1217.08
460.39	861.32
460.57	1322.40
460.76	966.64
460.94	1053.24
461.12	1399.64
461.31	1327.08
461.49	854.30
461.67	922.17
461.85	1029.84
462.04	912.81
462.22	7400.77
462.40	1317.72
462.59	1249.85
462.77	819.19
462.95	1114.10
463.13	788.76
463.32	1203.04
463.50	966.64
463.68	1123.46
463.86	917.49
464.05	781.74
464.23	1221.76
464.41	1158.57
464.59	884.72
464.78	875.36
464.96	779.40
465.14	992.39
465.32	870.68
465.50	1132.82
465.69	1163.25
465.87	737.27
466.05	1093.03
466.23	770.04
466.41	950.26
466.60	894.08
466.78	868.34
466.96	1210.06
467.14	1064.94
467.32	1238.14
467.51	1188.99
467.69	1116.44
467.87	1380.92
468.05	978.34
468.23	1521.35
468.41	1167.93
468.60	952.60
468.78	1029.84
468.96	1270.91
469.14	1261.55
469.32	739.61
469.50	891.74
469.69	994.73
469.87	1081.33
470.05	1060.26
470.23	959.62
470.41	767.70
470.59	826.21
470.77	1013.45
470.95	1001.75
471.14	1308.36
471.32	985.37
471.50	1469.86
471.68	1086.01
471.86	1074.31
472.04	844.93
472.22	1036.86
472.40	758.33
472.58	830.89
472.77	788.76
472.95	1018.13
473.13	1530.71
473.31	1345.81
473.49	779.40
473.67	887.06
473.85	1111.75
474.03	1163.25
474.21	966.64
474.39	1416.02
474.57	1523.69
474.75	1174.95
474.93	971.32
475.12	964.30
475.30	894.08
475.48	1071.97
475.66	1102.39
475.84	1081.33
476.02	1032.18
476.20	1299.00
476.38	1062.60
476.56	1717.95
476.74	1034.52
476.92	985.37
477.10	1142.18
477.28	1153.88
477.46	1055.58
477.64	1268.57
477.82	1130.48
478.00	1149.20
478.18	1238.14
478.36	1064.94
478.54	999.41
478.72	1116.44
478.90	1043.88
479.08	1198.35
479.26	1233.46
479.44	1069.62
479.62	973.66
479.80	1097.71
479.98	950.26
480.16	1081.33
480.34	1369.21
480.52	889.40
480.70	1301.34
480.88	1027.50
481.06	985.37
481.24	1086.01
481.41	1153.88
481.59	1416.02
481.77	1228.78
481.95	1151.54
482.13	1549.43
482.31	1277.93
482.49	1116.44
482.67	1280.27
482.85	1462.83
483.03	1301.34
483.21	1249.85
483.39	1069.62
483.57	1095.37
483.74	1675.82
483.92	1242.82
484.10	1032.18
484.28	1483.90
484.46	1989.46
484.64	1240.48
484.82	1214.74
485.00	1158.57
485.18	1238.14
485.35	1336.45
485.53	968.98
485.71	1425.39
485.89	933.87
486.07	1078.99
486.25	1898.17
486.43	1357.51
486.61	1399.64
486.78	1423.05
486.96	1165.59
487.14	1174.95
487.32	1212.40
487.50	1261.55
487.68	1540.07
487.85	1196.01
488.03	1497.94
488.21	1596.25
488.39	1277.93
488.57	1626.67
488.75	1338.79
488.92	4873.00
489.10	1593.90
489.28	1891.15
489.46	1313.04
489.64	1397.30
489.81	1483.90
489.99	1600.93
490.17	1341.13
490.35	2258.62
490.53	1383.26
490.70	1282.61
490.88	1748.38
491.06	1409.00
491.24	1605.61
491.41	1942.64
491.59	1629.01
491.77	1228.78
491.95	1291.98
492.13	1303.68
492.30	1495.60
492.48	1420.71
492.66	1451.13
492.84	1451.13
493.01	1600.93
493.19	1357.51
493.37	2104.14
493.54	1654.76
493.72	1762.42
493.90	1453.47
494.08	1399.64
494.25	1629.01
494.43	1696.89
494.61	1624.33
494.79	1542.41
494.96	1324.74
495.14	1680.50
495.32	1420.71
495.49	1579.86
495.67	1577.52
495.85	1472.20
496.02	1366.87
496.20	1748.38
496.38	1717.95
496.55	1528.37
496.73	1748.38
496.91	1523.69
497.09	1909.88
497.26	1652.42
497.44	1469.86
497.62	1621.99
497.79	1544.75
497.97	1727.32
498.14	1839.66
498.32	1657.10
498.50	1771.79
498.67	1572.84
498.85	1715.61
499.03	1640.72
499.20	1666.46
499.38	1647.74
499.56	1563.48
499.73	2272.66
499.91	1998.82
500.08	1851.36
500.26	1657.10
500.44	1572.84
500.61	1685.19
500.79	1570.50
500.97	1802.21
501.14	2125.21
501.32	1703.91
501.49	1877.11
501.67	1645.40
501.84	1774.13
502.02	1497.94
502.20	2204.78
502.37	1916.90
502.55	1666.46
502.72	1603.27
502.90	1886.47
503.07	1827.96
503.25	1753.06
503.43	1444.11
503.60	1530.71
503.78	1797.53
503.95	1497.94
504.13	1619.65
504.30	1874.77
504.48	1998.82
504.65	2167.34
504.83	1952.01
505.01	1699.23
505.18	1898.17
505.36	1778.81
505.53	1778.81
505.71	1703.91
505.88	2209.47
506.06	1825.62
506.23	1680.50
506.41	1673.48
506.58	1750.72
506.76	1804.55
506.93	1722.63
507.11	1813.92
507.28	1652.42
507.46	1591.56
507.63	1724.97
507.81	1575.18
507.98	1633.69
508.16	1795.19
508.33	1724.97
508.50	1909.88
508.68	1797.53
508.85	1905.20
509.03	1678.16
509.20	1736.68
509.38	1923.92
509.55	2188.40
509.73	1961.37
509.90	2087.76
510.08	1692.21
510.25	2162.66
510.42	1706.25
510.60	1811.57
510.77	2087.76
510.95	2134.57
511.12	1743.70
511.30	1970.73
511.47	2052.65
511.64	2340.54
511.82	1849.02
511.99	1767.10
512.17	1717.95
512.34	1673.48
512.51	1720.29
512.69	1589.22
512.86	2200.10
513.04	1666.46
513.21	1895.83
513.38	1600.93
513.56	1692.21
513.73	1724.97
513.90	1603.27
514.08	1633.69
514.25	1771.79
514.43	1825.62
514.60	1575.18
514.77	1750.72
514.95	1863.07
515.12	1713.27
515.29	1966.05
515.47	1895.83
515.64	1825.62
515.81	1886.47
515.99	2291.38
516.16	1968.39
516.33	2015.20
516.51	1488.58
516.68	1371.55
516.85	1575.18
517.03	1476.88
517.20	1937.96
517.37	1827.96
517.54	1989.46
517.72	1626.67
517.89	1392.62
518.06	1533.05
518.24	2370.96
518.41	2387.35
518.58	1879.45
518.75	1654.76
518.93	1823.28
519.10	1795.19
519.27	1781.15
519.45	2031.58
519.62	1884.13
519.79	2050.31
519.96	1659.44
520.14	1785.83
520.31	2162.66
520.48	1804.55
520.65	1923.92
520.83	2113.50
521.00	1956.69
521.17	2040.95
521.34	1874.77
521.52	2040.95
521.69	1914.56
521.86	1998.82
522.03	2111.16
522.20	2340.54
522.38	1809.23
522.55	1940.30
522.72	1607.95
522.89	2225.85
523.07	2539.48
523.24	1968.39
523.41	1907.54
523.58	1879.45
523.75	1900.52
523.92	1734.34
524.10	1926.26
524.27	1905.20
524.44	1804.55
524.61	2265.64
524.78	1856.04
524.96	2080.74
525.13	1907.54
525.30	2282.02
525.47	2122.87
525.64	1912.22
525.81	1954.35
525.98	1884.13
526.16	1774.13
526.33	1640.72
526.50	1526.03
526.67	1521.35
526.84	1612.63
527.01	1659.44
527.18	1994.14
527.36	1944.99
527.53	1813.92
527.70	2230.53
527.87	1942.64
528.04	2476.29
528.21	1792.85
528.38	2216.49
528.55	2258.62
528.72	2434.16
528.89	2452.88
529.07	2008.18
529.24	1994.14
529.41	2399.05
529.58	2050.31
529.75	1937.96
529.92	2099.46
530.09	2024.56
530.26	2200.10
530.43	2214.15
530.60	2071.37
530.77	1982.43
530.94	2377.98
531.11	2172.02
531.28	2022.22
531.46	1959.03
531.63	2040.95
531.80	2157.97
531.97	2157.97
532.14	1963.71
532.31	2047.97
532.48	2024.56
532.65	1959.03
532.82	1727.32
532.99	1851.36
533.16	2008.18
533.33	1961.37
533.50	1996.48
533.67	1832.64
533.84	2167.34
534.01	2108.82
534.18	2033.93
534.35	2043.29
534.52	1998.82
534.69	2581.61
534.86	2062.01
535.03	1949.67
535.20	1968.39
535.37	2317.13
535.54	2169.68
535.71	1998.82
535.88	2420.11
536.05	1956.69
536.22	2057.33
536.38	1881.79
536.55	2050.31
536.72	2242.23
536.89	1767.10
537.06	1818.60
537.23	1916.90
537.40	1930.94
537.57	1893.49
537.74	2244.57
537.91	2127.55
538.08	2001.16
538.25	2094.78
538.42	1830.30
538.59	2108.82
538.75	1895.83
538.92	1935.62
539.09	2155.63
539.26	1949.67
539.43	2319.47
539.60	2092.44
539.77	2071.37
539.94	1923.92
540.11	2038.61
540.28	2218.83
540.44	2340.54
540.61	1959.03
540.78	1849.02
540.95	1872.43
541.12	2396.71
541.29	1809.23
541.46	2441.18
541.62	2120.53
541.79	1886.47
541.96	1788.17
542.13	1926.26
542.30	1816.26
542.47	2207.13
542.63	2057.33
542.80	2087.76
542.97	2303.09
543.14	1947.33
543.31	2200.10
543.48	1923.92
543.64	2047.97
543.81	2015.20
543.98	1898.17
544.15	1762.42
544.32	1914.56
544.48	1937.96
544.65	1879.45
544.82	1795.19
544.99	1987.11
545.16	2284.36
545.32	1937.96
545.49	2118.18
545.66	1947.33
545.83	1776.47
546.00	1830.30
546.16	1888.81
546.33	1914.56
546.50	1902.86
546.67	2326.49
546.83	2204.78
547.00	2071.37
547.17	1792.85
547.34	1762.42
547.50	2038.61
547.67	1926.26
547.84	1874.77
548.00	2225.85
548.17	1820.94
548.34	1952.01
548.51	2441.18
548.67	2286.70
548.84	1937.96
549.01	2026.90
549.18	2139.25
549.34	2090.10
549.51	2087.76
549.68	2052.65
549.84	1954.35
550.01	1788.17
550.18	3433.57
550.34	2719.70
550.51	2052.65
550.68	2567.57
550.84	1839.66
551.01	1930.94
551.18	2146.27
551.34	1973.07
551.51	1998.82
551.68	1914.56
551.84	2202.44
552.01	1785.83
552.18	1795.19
552.34	1970.73
552.51	1905.20
552.68	2132.23
552.84	1834.98
553.01	2043.29
553.18	2352.24
553.34	1891.15
553.51	1720.29
553.67	2193.08
553.84	2464.58
554.01	2181.38
554.17	2195.42
554.34	1741.36
554.51	2153.29
554.67	2289.04
554.84	2141.59
555.00	2090.10
555.17	2073.71
555.33	2232.87
555.50	2073.71
555.67	2113.50
555.83	1767.10
556.00	1865.41
556.16	4088.92
556.33	2118.18
556.50	1914.56
556.66	1811.57
556.83	1881.79
556.99	1820.94
557.16	1919.24
557.32	1839.66
557.49	1849.02
557.65	1783.49
557.82	1776.47
557.98	1860.73
558.15	1713.27
558.32	1849.02
558.48	1739.02
558.65	1776.47
558.81	1944.99
558.98	1727.32
559.14	2050.31
559.31	2059.67
559.47	2015.20
559.64	1760.08
559.80	2127.55
559.97	1689.87
560.13	1898.17
560.30	1734.34
560.46	1818.60
560.63	1968.39
560.79	1991.80
560.96	1905.20
561.12	1816.26
561.29	1937.96
561.45	1827.96
561.61	1942.64
561.78	2939.71
561.94	1870.09
562.11	1757.74
562.27	1898.17
562.44	1715.61
562.60	1832.64
562.77	1844.34
562.93	2672.89
563.10	1928.60
563.26	1968.39
563.42	2235.21
563.59	1966.05
563.75	1703.91
563.92	2183.72
564.08	1895.83
564.24	2134.57
564.41	2605.02
564.57	1645.40
564.74	1825.62
564.90	2036.27
565.07	2064.35
565.23	2136.91
565.39	1699.23
565.56	2012.86
565.72	1671.14
565.88	1795.19
566.05	1783.49
566.21	1877.11
566.38	1912.22
566.54	1881.79
566.70	1818.60
566.87	1767.10
567.03	1483.90
567.19	1888.81
567.36	1914.56
567.52	1762.42
567.68	1923.92
567.85	1984.77
568.01	1743.70
568.17	1603.27
568.34	1755.40
568.50	2228.19
568.66	1577.52
568.83	2637.78
568.99	1652.42
569.15	2008.18
569.32	1764.76
569.48	1844.34
569.64	1610.29
569.81	1762.42
569.97	1680.50
570.13	1987.11
570.30	1757.74
570.46	1739.02
570.62	1598.59
570.78	1626.67
570.95	1472.20
571.11	2293.72
571.27	2317.13
571.43	1591.56
571.60	1991.80
571.76	1764.76
571.92	1675.82
572.09	1696.89
572.25	1818.60
572.41	1877.11
572.57	1785.83
572.74	2396.71
572.90	1996.48
573.06	1944.99
573.22	1916.90
573.38	2069.03
573.55	2059.67
573.71	2108.82
573.87	1998.82
574.03	1739.02
574.20	1764.76
574.36	2038.61
574.52	1717.95
574.68	1720.29
574.84	1937.96
575.01	1612.63
575.17	1956.69
575.33	1799.87
575.49	2010.52
575.65	2052.65
575.82	1947.33
575.98	2424.80
576.14	1832.64
576.30	1781.15
576.46	1664.12
576.62	1816.26
576.79	1898.17
576.95	2244.57
577.11	1631.35
577.27	1612.63
577.43	2104.14
577.59	2134.57
577.75	1818.60
577.92	1638.38
578.08	1680.50
578.24	1561.14
578.40	1970.73
578.56	2221.17
578.72	2136.91
578.88	2031.58
579.04	1659.44
579.21	1895.83
579.37	1666.46
579.53	1706.25
579.69	2064.35
579.85	1530.71
580.01	1877.11
580.17	1680.50
580.33	1568.16
580.49	1895.83
580.65	1891.15
580.82	1746.04
580.98	1591.56
581.14	1643.06
581.30	2092.44
581.46	1858.39
581.62	2162.66
581.78	1638.38
581.94	1975.41
582.10	1568.16
582.26	1788.17
582.42	1682.85
582.58	1994.14
582.74	1804.55
582.90	1748.38
583.06	1888.81
583.22	1872.43
583.38	1624.33
583.54	1565.82
583.70	2085.42
583.86	1760.08
584.02	1701.57
584.18	2101.80
584.34	1776.47
584.50	1813.92
584.66	1633.69
584.82	1629.01
584.98	1760.08
585.14	1647.74
585.30	2024.56
585.46	1732.00
585.62	1605.61
585.78	1636.03
585.94	1954.35
586.10	1741.36
586.26	1717.95
586.42	2207.13
586.58	1851.36
586.74	1818.60
586.90	1830.30
587.06	1863.07
587.22	1767.10
587.38	1549.43
587.54	1678.16
587.70	1961.37
587.86	1891.15
588.02	1687.53
588.18	1762.42
588.34	1809.23
588.49	1205.38
588.65	1465.18
588.81	1345.81
588.97	1181.97
589.13	1425.39
589.29	1551.78
589.45	1975.41
589.61	1659.44
589.77	1888.81
589.93	1605.61
590.08	1685.19
590.24	1479.22
590.40	1739.02
590.56	1872.43
590.72	1713.27
590.88	1479.22
591.04	1820.94
591.20	1556.46
591.35	2050.31
591.51	1696.89
591.67	1542.41
591.83	1650.08
591.99	1792.85
592.15	1977.75
592.31	1746.04
592.46	1636.03
592.62	1905.20
592.78	1526.03
592.94	1584.54
593.10	1486.24
593.26	1526.03
593.41	1813.92
593.57	1565.82
593.73	1556.46
593.89	1811.57
594.05	1558.80
594.20	1558.80
594.36	2052.65
594.52	1486.24
594.68	1654.76
594.84	1907.54
594.99	2080.74
595.15	1757.74
595.31	1785.83
595.47	2160.31
595.62	1739.02
595.78	1806.89
595.94	1547.09
596.10	1923.92
596.25	1603.27
596.41	1750.72
596.57	1537.73
596.73	1638.38
596.88	1654.76
597.04	1680.50
597.20	1486.24
597.36	1650.08
597.51	1474.54
597.67	1488.58
597.83	1523.69
597.99	1790.51
598.14	1757.74
598.30	1989.46
598.46	1504.96
598.61	1968.39
598.77	1764.76
598.93	1607.95
599.09	1589.22
599.24	1750.72
599.40	1966.05
599.56	1617.31
599.71	1661.78
599.87	1591.56
600.03	1511.99
600.18	1657.10
600.34	1816.26
600.50	1500.28
600.65	1406.66
600.81	1884.13
600.97	1493.26
601.12	1612.63
