SpectraSuite Data File
++++++++++++++++++++++++++++++++++++
Date: Mon Oct 07 15:00:01 GMT-05:00 2013
User: price-jones
Dark Spectrum Present: No
Reference Spectrum Present: No
Number of Sampled Component Spectra: 1
Spectrometers: USB2+H05261
Integration Time (usec): 100000 (USB2+H05261)
Spectra Averaged: 1 (USB2+H05261)
Boxcar Smoothing: 0 (USB2+H05261)
Correct for Electrical Dark: No (USB2+H05261)
Strobe/Lamp Enabled: No (USB2+H05261)
Correct for Detector Non-linearity: No (USB2+H05261)
Correct for Stray Light: No (USB2+H05261)
Number of Pixels in Processed Spectrum: 2048
>>>>>Begin Processed Spectral Data<<<<<
365.73	0.00
365.92	0.00
366.12	0.00
366.32	0.00
366.52	0.00
366.72	0.00
366.91	0.00
367.11	0.00
367.31	0.00
367.51	0.00
367.70	0.00
367.90	0.00
368.10	0.00
368.30	0.00
368.49	0.00
368.69	0.00
368.89	0.00
369.09	0.00
369.28	0.00
369.48	0.00
369.68	0.00
369.87	0.00
370.07	0.00
370.27	0.00
370.47	0.00
370.66	0.00
370.86	0.00
371.06	0.00
371.25	0.00
371.45	0.00
371.65	0.00
371.84	0.00
372.04	0.00
372.24	0.00
372.44	0.00
372.63	0.00
372.83	0.00
373.03	0.00
373.22	0.00
373.42	0.00
373.62	0.00
373.81	0.00
374.01	0.00
374.21	0.00
374.40	0.00
374.60	0.00
374.79	0.00
374.99	0.00
375.19	0.00
375.38	0.00
375.58	0.00
375.78	0.00
375.97	0.00
376.17	0.00
376.37	0.00
376.56	0.00
376.76	0.00
376.95	0.00
377.15	0.00
377.35	0.00
377.54	0.00
377.74	0.00
377.93	0.00
378.13	0.00
378.33	0.00
378.52	0.00
378.72	0.00
378.91	0.00
379.11	0.00
379.31	0.00
379.50	0.00
379.70	0.00
379.89	0.00
380.09	0.00
380.28	0.00
380.48	0.00
380.68	0.00
380.87	0.00
381.07	0.00
381.26	0.00
381.46	0.00
381.65	0.00
381.85	0.00
382.04	0.00
382.24	0.00
382.43	0.00
382.63	0.00
382.83	0.00
383.02	0.00
383.22	0.00
383.41	0.00
383.61	0.00
383.80	0.00
384.00	0.00
384.19	0.00
384.39	0.00
384.58	0.00
384.78	0.00
384.97	0.00
385.17	0.00
385.36	0.00
385.56	0.00
385.75	0.00
385.95	0.00
386.14	0.00
386.34	0.00
386.53	0.00
386.72	0.00
386.92	0.00
387.11	0.00
387.31	0.00
387.50	0.00
387.70	0.00
387.89	0.00
388.09	0.00
388.28	0.00
388.48	0.00
388.67	0.00
388.86	0.00
389.06	0.00
389.25	0.00
389.45	0.00
389.64	0.00
389.84	0.00
390.03	0.00
390.22	0.00
390.42	0.00
390.61	0.00
390.81	0.00
391.00	0.00
391.19	0.00
391.39	0.00
391.58	0.00
391.78	0.00
391.97	0.00
392.16	0.00
392.36	0.00
392.55	0.00
392.75	0.00
392.94	0.00
393.13	0.00
393.33	0.00
393.52	0.00
393.71	0.00
393.91	0.00
394.10	0.00
394.29	0.00
394.49	0.00
394.68	0.00
394.88	0.00
395.07	0.00
395.26	0.00
395.46	0.00
395.65	0.00
395.84	0.00
396.04	0.00
396.23	0.00
396.42	0.00
396.62	0.00
396.81	0.00
397.00	0.00
397.19	0.00
397.39	0.00
397.58	0.00
397.77	0.00
397.97	0.00
398.16	0.00
398.35	0.00
398.55	0.00
398.74	0.00
398.93	0.00
399.12	0.00
399.32	0.00
399.51	0.00
399.70	0.00
399.90	0.00
400.09	0.00
400.28	0.00
400.47	0.00
400.67	0.00
400.86	0.00
401.05	0.00
401.24	0.00
401.44	0.00
401.63	0.00
401.82	0.00
402.01	0.00
402.21	0.00
402.40	0.00
402.59	0.00
402.78	0.00
402.97	0.00
403.17	0.00
403.36	0.00
403.55	0.00
403.74	0.00
403.93	0.00
404.13	0.00
404.32	0.00
404.51	0.00
404.70	0.00
404.89	0.00
405.09	0.00
405.28	0.00
405.47	0.00
405.66	0.00
405.85	0.00
406.05	0.00
406.24	0.00
406.43	0.00
406.62	0.00
406.81	0.00
407.00	0.00
407.20	0.00
407.39	0.00
407.58	0.00
407.77	0.00
407.96	0.00
408.15	0.00
408.34	0.00
408.54	0.00
408.73	0.00
408.92	0.00
409.11	0.00
409.30	0.00
409.49	0.00
409.68	0.00
409.87	0.00
410.07	0.00
410.26	0.00
410.45	0.00
410.64	0.00
410.83	0.00
411.02	0.00
411.21	0.00
411.40	0.00
411.59	0.00
411.78	0.00
411.98	0.00
412.17	0.00
412.36	0.00
412.55	0.00
412.74	0.00
412.93	0.00
413.12	0.00
413.31	0.00
413.50	0.00
413.69	0.00
413.88	0.00
414.07	0.00
414.26	0.00
414.45	0.00
414.64	0.00
414.83	0.00
415.02	0.00
415.22	0.00
415.41	0.00
415.60	0.00
415.79	0.00
415.98	0.00
416.17	0.00
416.36	0.00
416.55	0.00
416.74	0.00
416.93	0.00
417.12	0.00
417.31	0.00
417.50	0.00
417.69	0.00
417.88	0.00
418.07	0.00
418.26	0.00
418.45	0.00
418.64	0.00
418.83	0.00
419.02	0.00
419.21	0.00
419.39	0.00
419.58	0.00
419.77	0.00
419.96	0.00
420.15	0.00
420.34	0.00
420.53	0.00
420.72	0.00
420.91	0.00
421.10	0.00
421.29	0.00
421.48	0.00
421.67	0.00
421.86	0.00
422.05	0.00
422.24	0.00
422.43	0.00
422.61	0.00
422.80	0.00
422.99	0.00
423.18	0.00
423.37	0.00
423.56	0.00
423.75	0.00
423.94	0.00
424.13	0.00
424.32	0.00
424.50	0.00
424.69	0.00
424.88	0.00
425.07	0.00
425.26	0.00
425.45	0.00
425.64	0.00
425.83	0.00
426.01	0.00
426.20	0.00
426.39	0.00
426.58	0.00
426.77	0.00
426.96	0.00
427.15	0.00
427.33	0.00
427.52	0.00
427.71	0.00
427.90	0.00
428.09	0.00
428.28	0.00
428.46	0.00
428.65	0.00
428.84	0.00
429.03	0.00
429.22	0.00
429.40	0.00
429.59	0.00
429.78	0.00
429.97	0.00
430.16	0.00
430.34	0.00
430.53	0.00
430.72	0.00
430.91	0.00
431.10	0.00
431.28	0.00
431.47	0.00
431.66	0.00
431.85	0.00
432.03	0.00
432.22	0.00
432.41	0.00
432.60	0.00
432.79	0.00
432.97	21.06
433.16	0.00
433.35	0.00
433.54	0.00
433.72	0.00
433.91	0.00
434.10	0.00
434.28	0.00
434.47	0.00
434.66	0.00
434.85	0.00
435.03	0.00
435.22	0.00
435.41	0.00
435.59	0.00
435.78	0.00
435.97	0.00
436.16	0.00
436.34	0.00
436.53	0.00
436.72	0.00
436.90	0.00
437.09	0.00
437.28	0.00
437.46	0.00
437.65	0.00
437.84	0.00
438.02	0.00
438.21	0.00
438.40	0.00
438.58	0.00
438.77	0.00
438.96	0.00
439.14	0.00
439.33	0.00
439.52	0.00
439.70	0.00
439.89	0.00
440.08	0.00
440.26	0.00
440.45	0.00
440.63	0.00
440.82	0.00
441.01	0.00
441.19	0.00
441.38	0.00
441.57	0.00
441.75	0.00
441.94	0.00
442.12	0.00
442.31	0.00
442.50	0.00
442.68	0.00
442.87	0.00
443.05	0.00
443.24	0.00
443.43	0.00
443.61	0.00
443.80	0.00
443.98	0.00
444.17	0.00
444.35	0.00
444.54	0.00
444.73	0.00
444.91	0.00
445.10	0.00
445.28	0.00
445.47	0.00
445.65	0.00
445.84	0.00
446.02	0.00
446.21	0.00
446.39	0.00
446.58	0.00
446.77	0.00
446.95	0.00
447.14	0.00
447.32	0.00
447.51	0.00
447.69	0.00
447.88	0.00
448.06	0.00
448.25	0.00
448.43	0.00
448.62	0.00
448.80	0.00
448.99	4.68
449.17	0.00
449.36	0.00
449.54	0.00
449.73	9.36
449.91	0.00
450.10	0.00
450.28	0.00
450.46	53.83
450.65	30.43
450.83	0.00
451.02	0.00
451.20	0.00
451.39	0.00
451.57	0.00
451.76	0.00
451.94	16.38
452.13	0.00
452.31	0.00
452.49	0.00
452.68	0.00
452.86	0.00
453.05	0.00
453.23	0.00
453.42	0.00
453.60	0.00
453.78	0.00
453.97	0.00
454.15	0.00
454.34	4.68
454.52	0.00
454.70	0.00
454.89	0.00
455.07	0.00
455.26	0.00
455.44	0.00
455.62	0.00
455.81	0.00
455.99	0.00
456.17	0.00
456.36	0.00
456.54	0.00
456.73	0.00
456.91	37.45
457.09	0.00
457.28	0.00
457.46	2.34
457.64	0.00
457.83	0.00
458.01	0.00
458.19	0.00
458.38	0.00
458.56	0.00
458.74	0.00
458.93	0.00
459.11	0.00
459.29	0.00
459.48	0.00
459.66	0.00
459.84	14.04
460.03	79.58
460.21	117.03
460.39	0.00
460.57	7.02
460.76	0.00
460.94	0.00
461.12	102.98
461.31	0.00
461.49	0.00
461.67	0.00
461.85	0.00
462.04	0.00
462.22	683.44
462.40	9.36
462.59	0.00
462.77	7.02
462.95	0.00
463.13	0.00
463.32	0.00
463.50	0.00
463.68	0.00
463.86	0.00
464.05	0.00
464.23	0.00
464.41	0.00
464.59	0.00
464.78	0.00
464.96	0.00
465.14	0.00
465.32	0.00
465.50	7.02
465.69	0.00
465.87	0.00
466.05	0.00
466.23	0.00
466.41	0.00
466.60	0.00
466.78	32.77
466.96	0.00
467.14	0.00
467.32	0.00
467.51	46.81
467.69	9.36
467.87	77.24
468.05	7.02
468.23	11.70
468.41	0.00
468.60	0.00
468.78	0.00
468.96	0.00
469.14	2.34
469.32	0.00
469.50	0.00
469.69	11.70
469.87	0.00
470.05	0.00
470.23	0.00
470.41	0.00
470.59	0.00
470.77	0.00
470.95	0.00
471.14	0.00
471.32	0.00
471.50	0.00
471.68	0.00
471.86	0.00
472.04	0.00
472.22	0.00
472.40	0.00
472.58	4.68
472.77	0.00
472.95	0.00
473.13	46.81
473.31	86.60
473.49	9.36
473.67	9.36
473.85	42.13
474.03	35.11
474.21	9.36
474.39	79.58
474.57	18.72
474.75	0.00
474.93	0.00
475.12	0.00
475.30	0.00
475.48	0.00
475.66	0.00
475.84	32.77
476.02	7.02
476.20	0.00
476.38	46.81
476.56	88.94
476.74	77.24
476.92	0.00
477.10	0.00
477.28	16.38
477.46	0.00
477.64	11.70
477.82	0.00
478.00	0.00
478.18	25.75
478.36	28.09
478.54	0.00
478.72	7.02
478.90	0.00
479.08	51.49
479.26	65.54
479.44	0.00
479.62	0.00
479.80	0.00
479.98	0.00
480.16	0.00
480.34	37.45
480.52	0.00
480.70	7.02
480.88	0.00
481.06	53.83
481.24	16.38
481.41	49.15
481.59	163.84
481.77	44.47
481.95	53.83
482.13	95.96
482.31	30.43
482.49	105.32
482.67	119.37
482.85	9.36
483.03	39.79
483.21	23.41
483.39	16.38
483.57	70.22
483.74	65.54
483.92	11.70
484.10	25.75
484.28	81.92
484.46	93.62
484.64	95.96
484.82	56.17
485.00	0.00
485.18	100.64
485.35	32.77
485.53	0.00
485.71	28.09
485.89	0.00
486.07	25.75
486.25	161.50
486.43	23.41
486.61	30.43
486.78	72.56
486.96	7.02
487.14	88.94
487.32	42.13
487.50	79.58
487.68	114.69
487.85	93.62
488.03	180.22
488.21	131.07
488.39	91.28
488.57	131.07
488.75	100.64
488.92	395.55
489.10	88.94
489.28	236.39
489.46	65.54
489.64	128.73
489.81	208.31
489.99	224.69
490.17	91.28
490.35	255.12
490.53	149.79
490.70	121.71
490.88	161.50
491.06	170.86
491.24	93.62
491.41	147.45
491.59	161.50
491.77	44.47
491.95	131.07
492.13	23.41
492.30	46.81
492.48	177.88
492.66	81.92
492.84	84.26
493.01	210.65
493.19	135.75
493.37	170.86
493.54	177.88
493.72	196.60
493.90	124.05
494.08	180.22
494.25	198.95
494.43	227.03
494.61	187.24
494.79	110.01
494.96	166.18
495.14	250.44
495.32	154.48
495.49	166.18
495.67	189.58
495.85	198.95
496.02	212.99
496.20	180.22
496.38	180.22
496.55	149.79
496.73	222.35
496.91	152.13
497.09	262.14
497.26	212.99
497.44	180.22
497.62	152.13
497.79	168.52
497.97	196.60
498.14	187.24
498.32	191.92
498.50	234.05
498.67	187.24
498.85	205.97
499.03	194.26
499.20	201.29
499.38	227.03
499.56	149.79
499.73	241.08
499.91	180.22
500.08	156.82
500.26	145.11
500.44	147.45
500.61	203.63
500.79	203.63
500.97	212.99
501.14	259.80
501.32	175.54
501.49	163.84
501.67	194.26
501.84	175.54
502.02	124.05
502.20	224.69
502.37	205.97
502.55	245.76
502.72	222.35
502.90	208.31
503.07	220.01
503.25	208.31
503.43	191.92
503.60	187.24
503.78	100.64
503.95	203.63
504.13	156.82
504.30	166.18
504.48	220.01
504.65	243.42
504.83	224.69
505.01	266.82
505.18	245.76
505.36	304.27
505.53	271.50
505.71	299.59
505.88	257.46
506.06	243.42
506.23	257.46
506.41	266.82
506.58	191.92
506.76	266.82
506.93	238.73
507.11	152.13
507.28	234.05
507.46	234.05
507.63	201.29
507.81	205.97
507.98	187.24
508.16	245.76
508.33	224.69
508.50	196.60
508.68	245.76
508.85	212.99
509.03	231.71
509.20	224.69
509.38	220.01
509.55	229.37
509.73	243.42
509.90	313.63
510.08	163.84
510.25	180.22
510.42	135.75
510.60	248.10
510.77	245.76
510.95	245.76
511.12	250.44
511.30	273.84
511.47	266.82
511.64	313.63
511.82	248.10
511.99	210.65
512.17	184.90
512.34	191.92
512.51	238.73
512.69	248.10
512.86	266.82
513.04	215.33
513.21	294.91
513.38	175.54
513.56	170.86
513.73	182.56
513.90	210.65
514.08	264.48
514.25	290.23
514.43	297.25
514.60	257.46
514.77	250.44
514.95	250.44
515.12	189.58
515.29	215.33
515.47	269.16
515.64	299.59
515.81	257.46
515.99	252.78
516.16	271.50
516.33	238.73
516.51	173.20
516.68	191.92
516.85	175.54
517.03	93.62
517.20	220.01
517.37	252.78
517.54	208.31
517.72	304.27
517.89	145.11
518.06	231.71
518.24	306.61
518.41	259.80
518.58	264.48
518.75	308.95
518.93	252.78
519.10	194.26
519.27	278.52
519.45	250.44
519.62	271.50
519.79	175.54
519.96	152.13
520.14	236.39
520.31	273.84
520.48	229.37
520.65	203.63
520.83	278.52
521.00	245.76
521.17	341.72
521.34	379.17
521.52	245.76
521.69	315.97
521.86	259.80
522.03	238.73
522.20	346.40
522.38	269.16
522.55	297.25
522.72	231.71
522.89	290.23
523.07	262.14
523.24	365.12
523.41	273.84
523.58	341.72
523.75	276.18
523.92	297.25
524.10	271.50
524.27	271.50
524.44	273.84
524.61	227.03
524.78	241.08
524.96	330.02
525.13	208.31
525.30	325.33
525.47	203.63
525.64	315.97
525.81	313.63
525.98	255.12
526.16	166.18
526.33	259.80
526.50	147.45
526.67	248.10
526.84	241.08
527.01	173.20
527.18	234.05
527.36	243.42
527.53	337.04
527.70	341.72
527.87	362.78
528.04	297.25
528.21	255.12
528.38	339.38
528.55	374.49
528.72	334.70
528.89	418.96
529.07	287.89
529.24	360.44
529.41	266.82
529.58	250.44
529.75	313.63
529.92	330.02
530.09	327.68
530.26	311.29
530.43	372.15
530.60	269.16
530.77	379.17
530.94	351.08
531.11	297.25
531.28	327.68
531.46	285.55
531.63	318.31
531.80	262.14
531.97	311.29
532.14	292.57
532.31	220.01
532.48	297.25
532.65	285.55
532.82	276.18
532.99	311.29
533.16	271.50
533.33	351.08
533.50	308.95
533.67	308.95
533.84	278.52
534.01	383.85
534.18	266.82
534.35	332.36
534.52	407.25
534.69	299.59
534.86	374.49
535.03	283.20
535.20	334.70
535.37	365.12
535.54	332.36
535.71	278.52
535.88	346.40
536.05	320.65
536.22	301.93
536.38	383.85
536.55	250.44
536.72	337.04
536.89	262.14
537.06	344.06
537.23	341.72
537.40	234.05
537.57	241.08
537.74	353.42
537.91	327.68
538.08	358.10
538.25	318.31
538.42	341.72
538.59	325.33
538.75	273.84
538.92	313.63
539.09	304.27
539.26	304.27
539.43	344.06
539.60	292.57
539.77	362.78
539.94	325.33
540.11	325.33
540.28	360.44
540.44	402.57
540.61	334.70
540.78	297.25
540.95	301.93
541.12	351.08
541.29	365.12
541.46	341.72
541.62	290.23
541.79	301.93
541.96	367.46
542.13	294.91
542.30	177.88
542.47	334.70
542.63	287.89
542.80	264.48
542.97	346.40
543.14	304.27
543.31	301.93
543.48	320.65
543.64	306.61
543.81	287.89
543.98	269.16
544.15	262.14
544.32	306.61
544.48	376.83
544.65	299.59
544.82	248.10
544.99	318.31
545.16	318.31
545.32	299.59
545.49	400.23
545.66	393.21
545.83	248.10
546.00	280.86
546.16	322.99
546.33	346.40
546.50	390.87
546.67	388.53
546.83	330.02
547.00	362.78
547.17	280.86
547.34	248.10
547.50	339.38
547.67	318.31
547.84	386.19
548.00	360.44
548.17	346.40
548.34	311.29
548.51	442.36
548.67	416.62
548.84	348.74
549.01	313.63
549.18	344.06
549.34	365.12
549.51	369.80
549.68	330.02
549.84	292.57
550.01	341.72
550.18	496.19
550.34	411.93
550.51	292.57
550.68	404.91
550.84	355.76
551.01	381.51
551.18	308.95
551.34	402.57
551.51	290.23
551.68	318.31
551.84	334.70
552.01	308.95
552.18	360.44
552.34	369.80
552.51	252.78
552.68	311.29
552.84	332.36
553.01	306.61
553.18	376.83
553.34	383.85
553.51	341.72
553.67	304.27
553.84	283.20
554.01	372.15
554.17	414.27
554.34	311.29
554.51	299.59
554.67	374.49
554.84	280.86
555.00	388.53
555.17	351.08
555.33	355.76
555.50	348.74
555.67	355.76
555.83	330.02
556.00	369.80
556.16	437.68
556.33	362.78
556.50	327.68
556.66	236.39
556.83	325.33
556.99	245.76
557.16	346.40
557.32	365.12
557.49	374.49
557.65	341.72
557.82	236.39
557.98	224.69
558.15	234.05
558.32	318.31
558.48	283.20
558.65	234.05
558.81	322.99
558.98	271.50
559.14	362.78
559.31	271.50
559.47	308.95
559.64	245.76
559.80	367.46
559.97	285.55
560.13	222.35
560.30	257.46
560.46	325.33
560.63	301.93
560.79	379.17
560.96	369.80
561.12	264.48
561.29	311.29
561.45	353.42
561.61	358.10
561.78	428.32
561.94	278.52
562.11	248.10
562.27	414.27
562.44	311.29
562.60	337.04
562.77	330.02
562.93	376.83
563.10	273.84
563.26	259.80
563.42	386.19
563.59	383.85
563.75	266.82
563.92	369.80
564.08	334.70
564.24	365.12
564.41	447.04
564.57	313.63
564.74	322.99
564.90	311.29
565.07	381.51
565.23	262.14
565.39	367.46
565.56	315.97
565.72	266.82
565.88	348.74
566.05	271.50
566.21	234.05
566.38	255.12
566.54	280.86
566.70	355.76
566.87	245.76
567.03	315.97
567.19	351.08
567.36	437.68
567.52	318.31
567.68	414.27
567.85	360.44
568.01	337.04
568.17	231.71
568.34	262.14
568.50	358.10
568.66	339.38
568.83	409.59
568.99	283.20
569.15	402.57
569.32	222.35
569.48	255.12
569.64	271.50
569.81	301.93
569.97	315.97
570.13	339.38
570.30	184.90
570.46	266.82
570.62	241.08
570.78	250.44
570.95	358.10
571.11	322.99
571.27	292.57
571.43	196.60
571.60	306.61
571.76	330.02
571.92	315.97
572.09	308.95
572.25	311.29
572.41	198.95
572.57	341.72
572.74	430.66
572.90	409.59
573.06	231.71
573.22	351.08
573.38	346.40
573.55	339.38
573.71	224.69
573.87	276.18
574.03	245.76
574.20	238.73
574.36	372.15
574.52	297.25
574.68	280.86
574.84	269.16
575.01	353.42
575.17	245.76
575.33	271.50
575.49	355.76
575.65	308.95
575.82	337.04
575.98	369.80
576.14	348.74
576.30	203.63
576.46	220.01
576.62	325.33
576.79	283.20
576.95	379.17
577.11	210.65
577.27	276.18
577.43	313.63
577.59	297.25
577.75	262.14
577.92	367.46
578.08	280.86
578.24	330.02
578.40	315.97
578.56	344.06
578.72	341.72
578.88	388.53
579.04	301.93
579.21	346.40
579.37	360.44
579.53	280.86
579.69	262.14
579.85	252.78
580.01	322.99
580.17	278.52
580.33	325.33
580.49	339.38
580.65	332.36
580.82	318.31
580.98	177.88
581.14	327.68
581.30	337.04
581.46	369.80
581.62	358.10
581.78	308.95
581.94	297.25
582.10	248.10
582.26	322.99
582.42	262.14
582.58	344.06
582.74	299.59
582.90	285.55
583.06	306.61
583.22	337.04
583.38	292.57
583.54	344.06
583.70	402.57
583.86	236.39
584.02	264.48
584.18	367.46
584.34	360.44
584.50	337.04
584.66	236.39
584.82	320.65
584.98	208.31
585.14	285.55
585.30	397.89
585.46	269.16
585.62	299.59
585.78	318.31
585.94	400.23
586.10	325.33
586.26	360.44
586.42	430.66
586.58	313.63
586.74	372.15
586.90	360.44
587.06	330.02
587.22	297.25
587.38	330.02
587.54	299.59
587.70	353.42
587.86	320.65
588.02	280.86
588.18	322.99
588.34	308.95
588.49	259.80
588.65	203.63
588.81	140.43
588.97	156.82
589.13	212.99
589.29	168.52
589.45	229.37
589.61	215.33
589.77	262.14
589.93	257.46
590.08	210.65
590.24	280.86
590.40	196.60
590.56	297.25
590.72	318.31
590.88	168.52
591.04	313.63
591.20	191.92
591.35	348.74
591.51	327.68
591.67	306.61
591.83	259.80
591.99	262.14
592.15	367.46
592.31	379.17
592.46	278.52
592.62	306.61
592.78	348.74
592.94	334.70
593.10	285.55
593.26	294.91
593.41	311.29
593.57	248.10
593.73	287.89
593.89	313.63
594.05	191.92
594.20	201.29
594.36	257.46
594.52	229.37
594.68	262.14
594.84	332.36
594.99	297.25
595.15	278.52
595.31	393.21
595.47	351.08
595.62	287.89
595.78	269.16
595.94	231.71
596.10	180.22
596.25	285.55
596.41	229.37
596.57	231.71
596.73	217.67
596.88	271.50
597.04	271.50
597.20	201.29
597.36	294.91
597.51	250.44
597.67	276.18
597.83	227.03
597.99	227.03
598.14	248.10
598.30	259.80
598.46	255.12
598.61	322.99
598.77	224.69
598.93	224.69
599.09	280.86
599.24	250.44
599.40	304.27
599.56	297.25
599.71	299.59
599.87	304.27
600.03	194.26
600.18	264.48
600.34	283.20
600.50	243.42
600.65	220.01
600.81	301.93
600.97	250.44
601.12	215.33
601.28	337.04
601.44	255.12
601.59	187.24
601.75	217.67
601.91	224.69
602.06	311.29
602.22	341.72
602.37	325.33
602.53	238.73
602.69	243.42
602.84	262.14
603.00	248.10
603.16	222.35
603.31	266.82
603.47	287.89
603.62	248.10
603.78	276.18
603.94	175.54
604.09	224.69
604.25	292.57
604.40	252.78
604.56	215.33
604.71	259.80
604.87	280.86
605.03	280.86
605.18	360.44
605.34	262.14
605.49	215.33
605.65	257.46
605.80	234.05
605.96	325.33
606.12	243.42
606.27	280.86
606.43	297.25
606.58	266.82
606.74	308.95
606.89	257.46
607.05	217.67
607.20	269.16
607.36	203.63
607.51	236.39
607.67	248.10
607.82	257.46
607.98	227.03
608.13	250.44
608.29	264.48
608.44	241.08
608.60	269.16
608.75	306.61
608.91	227.03
609.06	271.50
609.22	212.99
609.37	212.99
609.53	269.16
609.68	229.37
609.84	100.64
609.99	166.18
610.15	210.65
610.30	201.29
610.46	278.52
610.61	269.16
610.76	198.95
610.92	241.08
611.07	196.60
611.23	250.44
611.38	248.10
611.54	142.77
611.69	138.09
611.84	154.48
612.00	217.67
612.15	229.37
612.31	187.24
612.46	220.01
612.62	198.95
612.77	304.27
612.92	203.63
613.08	222.35
613.23	250.44
613.39	245.76
613.54	205.97
613.69	175.54
613.85	180.22
614.00	177.88
614.15	227.03
614.31	245.76
614.46	259.80
614.62	215.33
614.77	273.84
614.92	133.41
615.08	259.80
615.23	196.60
615.38	234.05
615.54	161.50
615.69	248.10
615.84	191.92
616.00	238.73
616.15	182.56
616.30	187.24
616.46	248.10
616.61	159.16
616.76	276.18
616.92	149.79
617.07	182.56
617.22	236.39
617.37	100.64
617.53	133.41
617.68	220.01
617.83	271.50
617.99	311.29
618.14	212.99
618.29	182.56
618.45	175.54
618.60	198.95
618.75	126.39
618.90	189.58
619.06	250.44
619.21	191.92
619.36	222.35
619.51	285.55
619.67	121.71
619.82	194.26
619.97	177.88
620.12	231.71
620.28	182.56
620.43	175.54
620.58	156.82
620.73	168.52
620.89	245.76
621.04	241.08
621.19	297.25
621.34	187.24
621.49	163.84
621.65	194.26
621.80	159.16
621.95	208.31
622.10	238.73
622.25	159.16
622.41	154.48
622.56	128.73
622.71	222.35
622.86	217.67
623.01	191.92
623.16	308.95
623.32	88.94
623.47	126.39
623.62	243.42
