SpectraSuite Data File
++++++++++++++++++++++++++++++++++++
Date: Mon Oct 07 15:00:15 GMT-05:00 2013
User: price-jones
Dark Spectrum Present: No
Reference Spectrum Present: No
Number of Sampled Component Spectra: 1
Spectrometers: USB2+H05261
Integration Time (usec): 1000000 (USB2+H05261)
Spectra Averaged: 1 (USB2+H05261)
Boxcar Smoothing: 0 (USB2+H05261)
Correct for Electrical Dark: No (USB2+H05261)
Strobe/Lamp Enabled: No (USB2+H05261)
Correct for Detector Non-linearity: No (USB2+H05261)
Correct for Stray Light: No (USB2+H05261)
Number of Pixels in Processed Spectrum: 2048
>>>>>Begin Processed Spectral Data<<<<<
365.73	0.00
365.92	0.00
366.12	0.00
366.32	0.00
366.52	0.00
366.72	177.88
366.91	0.00
367.11	128.73
367.31	0.00
367.51	112.35
367.70	210.65
367.90	423.64
368.10	187.24
368.30	241.08
368.49	35.11
368.69	315.97
368.89	231.71
369.09	0.00
369.28	229.37
369.48	0.00
369.68	56.17
369.87	252.78
370.07	126.39
370.27	493.85
370.47	304.27
370.66	201.29
370.86	458.74
371.06	716.20
371.25	912.81
371.45	210.65
371.65	517.26
371.84	248.10
372.04	133.41
372.24	397.89
372.44	238.73
372.63	409.59
372.83	844.93
373.03	294.91
373.22	161.50
373.42	224.69
373.62	376.83
373.81	397.89
374.01	631.94
374.21	533.64
374.40	304.27
374.60	645.99
374.79	322.99
374.99	360.44
375.19	388.53
375.38	482.15
375.58	388.53
375.78	690.46
375.97	561.73
376.17	931.53
376.37	355.76
376.56	425.98
376.76	217.67
376.95	182.56
377.15	519.60
377.35	571.09
377.54	472.79
377.74	276.18
377.93	280.86
378.13	388.53
378.33	704.50
378.52	348.74
378.72	674.07
378.91	589.82
379.11	250.44
379.31	238.73
379.50	74.90
379.70	657.69
379.89	664.71
380.09	238.73
380.28	60.85
380.48	339.38
380.68	276.18
380.87	147.45
381.07	449.38
381.26	603.86
381.46	161.50
381.65	496.19
381.85	250.44
382.04	486.83
382.24	517.26
382.43	311.29
382.63	196.60
382.83	243.42
383.02	545.34
383.22	711.52
383.41	198.95
383.61	409.59
383.80	791.10
384.00	442.36
384.19	327.68
384.39	388.53
384.58	245.76
384.78	493.85
384.97	475.13
385.17	330.02
385.36	273.84
385.56	585.13
385.75	156.82
385.95	435.34
386.14	557.05
386.34	208.31
386.53	503.22
386.72	196.60
386.92	716.20
387.11	498.53
387.31	493.85
387.50	257.46
387.70	159.16
387.89	447.04
388.09	278.52
388.28	227.03
388.48	147.45
388.67	667.05
388.86	414.27
389.06	315.97
389.25	550.03
389.45	477.47
389.64	409.59
389.84	653.01
390.03	517.26
390.22	484.49
390.42	322.99
390.61	224.69
390.81	98.30
391.00	318.31
391.19	791.10
391.39	348.74
391.58	568.75
391.78	447.04
391.97	470.45
392.16	177.88
392.36	671.73
392.55	638.97
392.75	334.70
392.94	231.71
393.13	498.53
393.33	175.54
393.52	283.20
393.71	807.48
393.91	449.38
394.10	205.97
394.29	306.61
394.49	224.69
394.68	486.83
394.88	723.23
395.07	676.41
395.26	486.83
395.46	369.80
395.65	655.35
395.84	498.53
396.04	1303.68
396.23	355.76
396.42	306.61
396.62	437.68
396.81	507.90
397.00	397.89
397.19	571.09
397.39	383.85
397.58	798.12
397.77	348.74
397.97	421.30
398.16	442.36
398.35	559.39
398.55	222.35
398.74	397.89
398.93	725.57
399.12	376.83
399.32	692.80
399.51	374.49
399.70	594.50
399.90	559.39
400.09	561.73
400.28	730.25
400.47	451.72
400.67	615.56
400.86	416.62
401.05	610.88
401.24	767.70
401.44	674.07
401.63	711.52
401.82	767.70
402.01	306.61
402.21	650.67
402.40	491.51
402.59	330.02
402.78	418.96
402.97	320.65
403.17	491.51
403.36	592.16
403.55	393.21
403.74	330.02
403.93	477.47
404.13	770.04
404.32	332.36
404.51	430.66
404.70	711.52
404.89	372.15
405.09	961.96
405.28	514.92
405.47	294.91
405.66	631.94
405.85	828.55
406.05	517.26
406.24	491.51
406.43	585.13
406.62	664.71
406.81	1142.18
407.00	718.54
407.20	510.24
407.39	517.26
407.58	400.23
407.77	559.39
407.96	746.63
408.15	791.10
408.34	669.39
408.54	629.60
408.73	543.00
408.92	540.66
409.11	706.84
409.30	798.12
409.49	414.27
409.68	402.57
409.87	554.71
410.07	341.72
410.26	613.22
410.45	468.11
410.64	463.43
410.83	610.88
411.02	435.34
411.21	716.20
411.40	819.19
411.59	554.71
411.78	437.68
411.98	531.30
412.17	423.64
412.36	433.00
412.55	444.70
412.74	786.42
412.93	1090.69
413.12	482.15
413.31	800.46
413.50	634.29
413.69	545.34
413.88	961.96
414.07	671.73
414.26	571.09
414.45	451.72
414.64	650.67
414.83	732.59
415.02	655.35
415.22	702.16
415.41	784.08
415.60	411.93
415.79	617.90
415.98	912.81
416.17	631.94
416.36	631.94
416.55	461.09
416.74	685.78
416.93	730.25
417.12	601.52
417.31	479.81
417.50	545.34
417.69	1071.97
417.88	697.48
418.07	414.27
418.26	620.24
418.45	566.41
418.64	1006.43
418.83	674.07
419.02	763.01
419.21	622.58
419.39	720.88
419.58	507.90
419.77	390.87
419.96	943.24
420.15	966.64
420.34	575.77
420.53	697.48
420.72	809.83
420.91	692.80
421.10	695.14
421.29	704.50
421.48	788.76
421.67	856.64
421.86	648.33
422.05	622.58
422.24	603.86
422.43	718.54
422.61	489.17
422.80	559.39
422.99	603.86
423.18	517.26
423.37	1083.67
423.56	755.99
423.75	784.08
423.94	395.55
424.13	610.88
424.32	440.02
424.50	636.63
424.69	727.91
424.88	1011.11
425.07	566.41
425.26	690.46
425.45	816.85
425.64	442.36
425.83	592.16
426.01	896.43
426.20	692.80
426.39	535.98
426.58	538.32
426.77	711.52
426.96	779.40
427.15	758.33
427.33	557.05
427.52	674.07
427.71	580.45
427.90	779.40
428.09	557.05
428.28	444.70
428.46	552.37
428.65	793.44
428.84	589.82
429.03	1069.62
429.22	603.86
429.40	463.43
429.59	379.17
429.78	819.19
429.97	496.19
430.16	404.91
430.34	528.96
430.53	437.68
430.72	547.69
430.91	898.77
431.10	484.49
431.28	636.63
431.47	814.51
431.66	821.53
431.85	538.32
432.03	589.82
432.22	1366.87
432.41	671.73
432.60	1036.86
432.79	547.69
432.97	798.12
433.16	561.73
433.35	447.04
433.54	585.13
433.72	821.53
433.91	851.96
434.10	615.56
434.28	734.93
434.47	627.26
434.66	926.85
434.85	636.63
435.03	772.38
435.22	1018.13
435.41	1160.91
435.59	938.55
435.78	835.57
435.97	538.32
436.16	1041.54
436.34	711.52
436.53	856.64
436.72	1036.86
436.90	943.24
437.09	786.42
437.28	683.44
437.46	711.52
437.65	889.40
437.84	880.04
438.02	805.14
438.21	891.74
438.40	594.50
438.58	559.39
438.77	755.99
438.96	807.48
439.14	561.73
439.33	889.40
439.52	664.71
439.70	732.59
439.89	922.17
440.08	828.55
440.26	791.10
440.45	1193.67
440.63	898.77
440.82	889.40
441.01	809.83
441.19	676.41
441.38	720.88
441.57	732.59
441.75	1210.06
441.94	1135.16
442.12	833.23
442.31	723.23
442.50	880.04
442.68	767.70
442.87	835.57
443.05	767.70
443.24	823.87
443.43	950.26
443.61	1186.65
443.80	734.93
443.98	704.50
444.17	784.08
444.35	1111.75
444.54	814.51
444.73	734.93
444.91	1139.84
445.10	641.31
445.28	636.63
445.47	819.19
445.65	842.59
445.84	690.46
446.02	767.70
446.21	732.59
446.39	723.23
446.58	945.58
446.77	744.29
446.95	770.04
447.14	997.07
447.32	1294.32
447.51	936.21
447.69	833.23
447.88	880.04
448.06	1315.38
448.25	990.05
448.43	716.20
448.62	622.58
448.80	896.43
448.99	1076.65
449.17	739.61
449.36	720.88
449.54	1053.24
449.73	720.88
449.91	1022.81
450.10	786.42
450.28	1600.93
450.46	1458.15
450.65	1139.84
450.83	994.73
451.02	798.12
451.20	933.87
451.39	990.05
451.57	854.30
451.76	737.27
451.94	940.90
452.13	1076.65
452.31	1137.50
452.49	1006.43
452.68	662.37
452.86	924.51
453.05	1359.85
453.23	870.68
453.42	599.18
453.60	851.96
453.78	933.87
453.97	706.84
454.15	711.52
454.34	739.61
454.52	763.01
454.70	1252.19
454.89	1043.88
455.07	716.20
455.26	1018.13
455.44	1203.04
455.62	894.08
455.81	938.55
455.99	1081.33
456.17	1076.65
456.36	884.72
456.54	840.25
456.73	805.14
456.91	819.19
457.09	1043.88
457.28	1184.31
457.46	915.15
457.64	1121.12
457.83	805.14
458.01	746.63
458.19	1081.33
458.38	746.63
458.56	994.73
458.74	770.04
458.93	971.32
459.11	1027.50
459.29	812.17
459.48	1004.09
459.66	1371.55
459.84	1018.13
460.03	2108.82
460.21	1249.85
460.39	938.55
460.57	1247.51
460.76	947.92
460.94	926.85
461.12	1432.41
461.31	1343.47
461.49	816.85
461.67	826.21
461.85	973.66
462.04	945.58
462.22	7496.74
462.40	1397.30
462.59	1240.48
462.77	809.83
462.95	994.73
463.13	702.16
463.32	1151.54
463.50	954.94
463.68	1081.33
463.86	908.13
464.05	837.91
464.23	1329.42
464.41	1177.29
464.59	784.08
464.78	858.98
464.96	828.55
465.14	917.49
465.32	725.57
465.50	1100.05
465.69	1200.69
465.87	638.97
466.05	1076.65
466.23	678.76
466.41	910.47
466.60	891.74
466.78	1057.92
466.96	1249.85
467.14	1097.71
467.32	1242.82
467.51	1064.94
467.69	1158.57
467.87	1301.34
468.05	976.00
468.23	1495.60
468.41	1196.01
468.60	887.06
468.78	957.28
468.96	1252.19
469.14	1137.50
469.32	695.14
469.50	816.85
469.69	1132.82
469.87	973.66
470.05	922.17
470.23	903.45
470.41	751.31
470.59	807.48
470.77	1100.05
470.95	1025.15
471.14	1270.91
471.32	901.11
471.50	1427.73
471.68	1060.26
471.86	1086.01
472.04	851.96
472.22	966.64
472.40	809.83
472.58	727.91
472.77	788.76
472.95	1004.09
473.13	1619.65
473.31	1224.10
473.49	887.06
473.67	814.51
473.85	1107.07
474.03	1303.68
474.21	1088.35
474.39	1270.91
474.57	1425.39
474.75	1107.07
474.93	901.11
475.12	861.32
475.30	992.39
475.48	978.34
475.66	950.26
475.84	1018.13
476.02	1039.20
476.20	1280.27
476.38	980.68
476.56	1741.36
476.74	1121.12
476.92	999.41
477.10	1088.35
477.28	1296.66
477.46	1018.13
477.64	1160.91
477.82	1074.31
478.00	990.05
478.18	1104.73
478.36	1107.07
478.54	894.08
478.72	983.02
478.90	1032.18
479.08	1233.46
479.26	1214.74
479.44	1057.92
479.62	938.55
479.80	1025.15
479.98	1090.69
480.16	929.19
480.34	1371.55
480.52	1118.78
480.70	1371.55
480.88	999.41
481.06	931.53
481.24	990.05
481.41	1083.67
481.59	1373.89
481.77	1221.76
481.95	1107.07
482.13	1596.25
482.31	1196.01
482.49	1048.56
482.67	1392.62
482.85	1472.20
483.03	1259.21
483.21	1303.68
483.39	1046.22
483.57	1177.29
483.74	1523.69
483.92	1266.23
484.10	1025.15
484.28	1444.11
484.46	1952.01
484.64	1170.27
484.82	1177.29
485.00	1064.94
485.18	1203.04
485.35	1186.65
485.53	1029.84
485.71	1432.41
485.89	809.83
486.07	1027.50
486.25	1832.64
486.43	1430.07
486.61	1409.00
486.78	1350.49
486.96	945.58
487.14	1231.12
487.32	1212.40
487.50	1193.67
487.68	1427.73
487.85	1228.78
488.03	1434.75
488.21	1643.06
488.39	1345.81
488.57	1500.28
488.75	1196.01
488.92	4809.80
489.10	1511.99
489.28	1802.21
489.46	1273.25
489.64	1411.34
489.81	1399.64
489.99	1584.54
490.17	1390.28
490.35	2272.66
490.53	1350.49
490.70	1245.16
490.88	1701.57
491.06	1460.49
491.24	1603.27
491.41	1870.09
491.59	1544.75
491.77	1186.65
491.95	1224.10
492.13	1327.08
492.30	1378.58
492.48	1472.20
492.66	1432.41
492.84	1242.82
493.01	1535.39
493.19	1306.02
493.37	1818.60
493.54	1631.35
493.72	1565.82
493.90	1413.68
494.08	1341.13
494.25	1586.88
494.43	1664.12
494.61	1430.07
494.79	1336.45
494.96	1301.34
495.14	1542.41
495.32	1490.92
495.49	1563.48
495.67	1504.96
495.85	1448.79
496.02	1481.56
496.20	1668.80
496.38	1781.15
496.55	1565.82
496.73	1757.74
496.91	1530.71
497.09	1783.49
497.26	1528.37
497.44	1537.73
497.62	1521.35
497.79	1476.88
497.97	1603.27
498.14	1739.02
498.32	1741.36
498.50	1657.10
498.67	1458.15
498.85	1617.31
499.03	1530.71
499.20	1692.21
499.38	1652.42
499.56	1724.97
499.73	2167.34
499.91	1781.15
500.08	1797.53
500.26	1451.13
500.44	1394.96
500.61	1694.55
500.79	1568.16
500.97	1795.19
501.14	1982.43
501.32	1624.33
501.49	1975.41
501.67	1577.52
501.84	1689.87
502.02	1490.92
502.20	2106.48
502.37	1696.89
502.55	1626.67
502.72	1657.10
502.90	1856.04
503.07	1717.95
503.25	1771.79
503.43	1481.56
503.60	1469.86
503.78	1657.10
503.95	1661.78
504.13	1600.93
504.30	1788.17
504.48	2012.86
504.65	2139.25
504.83	1827.96
505.01	1540.07
505.18	1877.11
505.36	1743.70
505.53	1767.10
505.71	1659.44
505.88	2172.02
506.06	1675.82
506.23	1729.66
506.41	1586.88
506.58	1785.83
506.76	1762.42
506.93	1666.46
507.11	1844.34
507.28	1621.99
507.46	1554.12
507.63	1781.15
507.81	1547.09
507.98	1621.99
508.16	1671.14
508.33	1668.80
508.50	1902.86
508.68	1659.44
508.85	1788.17
509.03	1692.21
509.20	1612.63
509.38	1827.96
509.55	2066.69
509.73	1984.77
509.90	1947.33
510.08	1650.08
510.25	1914.56
510.42	1675.82
510.60	1717.95
510.77	1881.79
510.95	1984.77
511.12	1722.63
511.30	1998.82
511.47	2043.29
511.64	2310.11
511.82	1706.25
511.99	1708.59
512.17	1694.55
512.34	1483.90
512.51	1558.80
512.69	1629.01
512.86	2129.89
513.04	1652.42
513.21	1762.42
513.38	1603.27
513.56	1547.09
513.73	1678.16
513.90	1610.29
514.08	1577.52
514.25	1769.44
514.43	1851.36
514.60	1514.33
514.77	1741.36
514.95	1879.45
515.12	1650.08
515.29	1872.43
515.47	1696.89
515.64	1778.81
515.81	1736.68
515.99	2129.89
516.16	1863.07
516.33	1991.80
516.51	1521.35
516.68	1174.95
516.85	1537.73
517.03	1551.78
517.20	1914.56
517.37	1937.96
517.54	1966.05
517.72	1650.08
517.89	1523.69
518.06	1528.37
518.24	2183.72
518.41	2286.70
518.58	1947.33
518.75	1561.14
518.93	1795.19
519.10	1809.23
519.27	1769.44
519.45	1795.19
519.62	1849.02
519.79	1839.66
519.96	1495.60
520.14	1928.60
520.31	2200.10
520.48	1853.70
520.65	1914.56
520.83	1994.14
521.00	1851.36
521.17	2052.65
521.34	1661.78
521.52	1863.07
521.69	1872.43
521.86	1778.81
522.03	1991.80
522.20	2377.98
522.38	1661.78
522.55	1877.11
522.72	1554.12
522.89	2026.90
523.07	2396.71
523.24	1860.73
523.41	1788.17
523.58	1701.57
523.75	1792.85
523.92	1713.27
524.10	2036.27
524.27	1919.24
524.44	1797.53
524.61	2202.44
524.78	1813.92
524.96	1968.39
525.13	1991.80
525.30	2359.26
525.47	2122.87
525.64	1900.52
525.81	1802.21
525.98	1956.69
526.16	1687.53
526.33	1523.69
526.50	1451.13
526.67	1462.83
526.84	1511.99
527.01	1570.50
527.18	1982.43
527.36	1760.08
527.53	1617.31
527.70	2122.87
527.87	1909.88
528.04	2375.64
528.21	1785.83
528.38	2085.42
528.55	2275.00
528.72	2342.88
528.89	2471.61
529.07	1984.77
529.24	2026.90
529.41	2340.54
529.58	1952.01
529.75	1757.74
529.92	2078.40
530.09	1893.49
530.26	2150.95
530.43	2001.16
530.60	1877.11
530.77	1968.39
530.94	2167.34
531.11	2033.93
531.28	1804.55
531.46	1837.32
531.63	1888.81
531.80	1963.71
531.97	1952.01
532.14	1804.55
532.31	1928.60
532.48	1907.54
532.65	1837.32
532.82	1629.01
532.99	1856.04
533.16	1839.66
533.33	1977.75
533.50	1842.00
533.67	1722.63
533.84	1977.75
534.01	2001.16
534.18	1788.17
534.35	1989.46
534.52	2059.67
534.69	2492.67
534.86	1865.41
535.03	1933.28
535.20	1895.83
535.37	2340.54
535.54	2153.29
535.71	1923.92
535.88	2296.07
536.05	1760.08
536.22	2129.89
536.38	1842.00
536.55	1909.88
536.72	2040.95
536.89	1750.72
537.06	1818.60
537.23	1851.36
537.40	1944.99
537.57	1741.36
537.74	2122.87
537.91	2057.33
538.08	1973.07
538.25	2078.40
538.42	1893.49
538.59	1975.41
538.75	1879.45
538.92	1975.41
539.09	2078.40
539.26	1724.97
539.43	2118.18
539.60	1907.54
539.77	2017.54
539.94	1832.64
540.11	2015.20
540.28	2305.43
540.44	2214.15
540.61	1963.71
540.78	1813.92
540.95	1621.99
541.12	2352.24
541.29	1764.76
541.46	2380.32
541.62	1959.03
541.79	1715.61
541.96	1774.13
542.13	1851.36
542.30	1739.02
542.47	2263.30
542.63	1891.15
542.80	2064.35
542.97	2129.89
543.14	1909.88
543.31	1998.82
543.48	1856.04
543.64	2050.31
543.81	1998.82
543.98	1900.52
544.15	1582.20
544.32	1900.52
544.48	1844.34
544.65	1767.10
544.82	1743.70
544.99	1898.17
545.16	2200.10
545.32	1902.86
545.49	2059.67
545.66	1881.79
545.83	1774.13
546.00	1689.87
546.16	1827.96
546.33	1860.73
546.50	1795.19
546.67	2228.19
546.83	2289.04
547.00	1933.28
547.17	1741.36
547.34	1687.53
547.50	1888.81
547.67	1895.83
547.84	1713.27
548.00	2062.01
548.17	1818.60
548.34	1811.57
548.51	2387.35
548.67	2132.23
548.84	1884.13
549.01	1888.81
549.18	2045.63
549.34	1966.05
549.51	1963.71
549.68	1949.67
549.84	1921.58
550.01	1652.42
550.18	3459.31
550.34	2789.92
550.51	1952.01
550.68	2583.95
550.84	1769.44
551.01	1916.90
551.18	2179.04
551.34	1912.22
551.51	1799.87
551.68	1851.36
551.84	2073.71
552.01	1834.98
552.18	1720.29
552.34	1935.62
552.51	1837.32
552.68	2029.24
552.84	1764.76
553.01	1966.05
553.18	2118.18
553.34	1853.70
553.51	1671.14
553.67	1970.73
553.84	2464.58
554.01	2118.18
554.17	1970.73
554.34	1860.73
554.51	2026.90
554.67	2155.63
554.84	2218.83
555.00	2094.78
555.17	1898.17
555.33	2155.63
555.50	1968.39
555.67	1900.52
555.83	1678.16
556.00	1884.13
556.16	3960.19
556.33	1977.75
556.50	1858.39
556.66	1736.68
556.83	1708.59
556.99	1788.17
557.16	1912.22
557.32	1696.89
557.49	1781.15
557.65	1874.77
557.82	1696.89
557.98	1809.23
558.15	1671.14
558.32	1776.47
558.48	1650.08
558.65	1806.89
558.81	1984.77
558.98	1614.97
559.14	1877.11
559.31	1830.30
559.47	1921.58
559.64	1621.99
559.80	1923.92
559.97	1600.93
560.13	1849.02
560.30	1605.61
560.46	1739.02
560.63	1790.51
560.79	1792.85
560.96	1884.13
561.12	1661.78
561.29	1919.24
561.45	1750.72
561.61	1886.47
561.78	2782.90
561.94	1802.21
562.11	1696.89
562.27	1802.21
562.44	1607.95
562.60	1732.00
562.77	1804.55
562.93	2569.91
563.10	1912.22
563.26	1872.43
563.42	2106.48
563.59	1959.03
563.75	1715.61
563.92	2183.72
564.08	1930.94
564.24	2148.61
564.41	2385.01
564.57	1572.84
564.74	1696.89
564.90	1856.04
565.07	1966.05
565.23	2057.33
565.39	1664.12
565.56	1893.49
565.72	1607.95
565.88	1696.89
566.05	1654.76
566.21	1710.93
566.38	1977.75
566.54	1926.26
566.70	1767.10
566.87	1694.55
567.03	1537.73
567.19	1750.72
567.36	2029.24
567.52	1795.19
567.68	1973.07
567.85	1973.07
568.01	1621.99
568.17	1521.35
568.34	1614.97
568.50	2094.78
568.66	1556.46
568.83	2565.23
568.99	1713.27
569.15	1970.73
569.32	1654.76
569.48	1652.42
569.64	1626.67
569.81	1790.51
569.97	1699.23
570.13	1799.87
570.30	1722.63
570.46	1614.97
570.62	1701.57
570.78	1692.21
570.95	1504.96
571.11	2258.62
571.27	2225.85
571.43	1586.88
571.60	1937.96
571.76	1661.78
571.92	1757.74
572.09	1650.08
572.25	1750.72
572.41	1783.49
572.57	1809.23
572.74	2321.81
572.90	1959.03
573.06	1837.32
573.22	1827.96
573.38	2097.12
573.55	1940.30
573.71	2101.80
573.87	1980.09
574.03	1439.43
574.20	1792.85
574.36	2066.69
574.52	1680.50
574.68	1694.55
574.84	1764.76
575.01	1533.05
575.17	1783.49
575.33	1554.12
575.49	2024.56
575.65	1954.35
575.82	1926.26
575.98	2324.15
576.14	1750.72
576.30	1659.44
576.46	1795.19
576.62	1654.76
576.79	1816.26
576.95	2125.21
577.11	1617.31
577.27	1523.69
577.43	2050.31
577.59	2104.14
577.75	1811.57
577.92	1640.72
578.08	1610.29
578.24	1516.67
578.40	1987.11
578.56	2050.31
578.72	2136.91
578.88	2012.86
579.04	1650.08
579.21	1727.32
579.37	1664.12
579.53	1687.53
579.69	2054.99
579.85	1535.39
580.01	1930.94
580.17	1678.16
580.33	1584.54
580.49	1760.08
580.65	1935.62
580.82	1717.95
580.98	1554.12
581.14	1572.84
581.30	1980.09
581.46	1790.51
581.62	1881.79
581.78	1645.40
581.94	1877.11
582.10	1507.30
582.26	1584.54
582.42	1614.97
582.58	1853.70
582.74	1650.08
582.90	1748.38
583.06	1811.57
583.22	1724.97
583.38	1586.88
583.54	1521.35
583.70	2066.69
583.86	1781.15
584.02	1750.72
584.18	2017.54
584.34	1621.99
584.50	1614.97
584.66	1603.27
584.82	1561.14
584.98	1694.55
585.14	1619.65
585.30	1893.49
585.46	1694.55
585.62	1448.79
585.78	1547.09
585.94	1799.87
586.10	1652.42
586.26	1785.83
586.42	2132.23
586.58	1778.81
586.74	1626.67
586.90	1701.57
587.06	1792.85
587.22	1757.74
587.38	1561.14
587.54	1603.27
587.70	1900.52
587.86	1863.07
588.02	1495.60
588.18	1706.25
588.34	1767.10
588.49	1291.98
588.65	1507.30
588.81	1385.60
588.97	1252.19
589.13	1362.19
589.29	1528.37
589.45	1907.54
589.61	1542.41
589.77	1851.36
589.93	1462.83
590.08	1427.73
590.24	1486.24
590.40	1584.54
590.56	1823.28
590.72	1579.86
590.88	1404.32
591.04	1610.29
591.20	1500.28
591.35	2031.58
591.51	1495.60
591.67	1425.39
591.83	1434.75
591.99	1703.91
592.15	1837.32
592.31	1624.33
592.46	1542.41
592.62	1858.39
592.78	1509.65
592.94	1418.36
593.10	1357.51
593.26	1418.36
593.41	1680.50
593.57	1673.48
593.73	1507.30
593.89	1856.04
594.05	1472.20
594.20	1507.30
594.36	1853.70
594.52	1486.24
594.68	1486.24
594.84	1844.34
594.99	2031.58
595.15	1724.97
595.31	1809.23
595.47	2202.44
595.62	1610.29
595.78	1533.05
595.94	1544.75
596.10	1975.41
596.25	1687.53
596.41	1820.94
596.57	1476.88
596.73	1481.56
596.88	1474.54
597.04	1715.61
597.20	1502.62
597.36	1584.54
597.51	1472.20
597.67	1423.05
597.83	1544.75
597.99	1724.97
598.14	1631.35
598.30	1872.43
598.46	1497.94
598.61	1959.03
598.77	1619.65
598.93	1425.39
599.09	1490.92
599.24	1722.63
599.40	1851.36
599.56	1504.96
599.71	1526.03
599.87	1514.33
600.03	1633.69
600.18	1554.12
600.34	1645.40
600.50	1406.66
600.65	1282.61
600.81	1746.04
600.97	1425.39
601.12	1476.88
601.28	1802.21
