SpectraSuite Data File
++++++++++++++++++++++++++++++++++++
Date: Mon Oct 07 14:59:55 GMT-05:00 2013
User: price-jones
Dark Spectrum Present: No
Reference Spectrum Present: No
Number of Sampled Component Spectra: 1
Spectrometers: USB2+H05261
Integration Time (usec): 100000 (USB2+H05261)
Spectra Averaged: 1 (USB2+H05261)
Boxcar Smoothing: 0 (USB2+H05261)
Correct for Electrical Dark: No (USB2+H05261)
Strobe/Lamp Enabled: No (USB2+H05261)
Correct for Detector Non-linearity: No (USB2+H05261)
Correct for Stray Light: No (USB2+H05261)
Number of Pixels in Processed Spectrum: 2048
>>>>>Begin Processed Spectral Data<<<<<
365.73	0.00
365.92	0.00
366.12	0.00
366.32	0.00
366.52	0.00
366.72	0.00
366.91	0.00
367.11	0.00
367.31	0.00
367.51	0.00
367.70	0.00
367.90	0.00
368.10	0.00
368.30	0.00
368.49	0.00
368.69	0.00
368.89	0.00
369.09	0.00
369.28	0.00
369.48	0.00
369.68	0.00
369.87	0.00
370.07	0.00
370.27	0.00
370.47	0.00
370.66	0.00
370.86	0.00
371.06	0.00
371.25	0.00
371.45	0.00
371.65	0.00
371.84	0.00
372.04	0.00
372.24	0.00
372.44	0.00
372.63	0.00
372.83	0.00
373.03	0.00
373.22	0.00
373.42	0.00
373.62	0.00
373.81	0.00
374.01	0.00
374.21	0.00
374.40	0.00
374.60	0.00
374.79	0.00
374.99	0.00
375.19	0.00
375.38	0.00
375.58	0.00
375.78	0.00
375.97	0.00
376.17	0.00
376.37	0.00
376.56	0.00
376.76	0.00
376.95	0.00
377.15	0.00
377.35	0.00
377.54	0.00
377.74	0.00
377.93	0.00
378.13	0.00
378.33	0.00
378.52	0.00
378.72	0.00
378.91	0.00
379.11	0.00
379.31	0.00
379.50	0.00
379.70	0.00
379.89	0.00
380.09	0.00
380.28	0.00
380.48	0.00
380.68	0.00
380.87	0.00
381.07	0.00
381.26	0.00
381.46	0.00
381.65	0.00
381.85	0.00
382.04	0.00
382.24	0.00
382.43	0.00
382.63	0.00
382.83	0.00
383.02	0.00
383.22	0.00
383.41	0.00
383.61	0.00
383.80	0.00
384.00	0.00
384.19	0.00
384.39	0.00
384.58	0.00
384.78	0.00
384.97	0.00
385.17	0.00
385.36	0.00
385.56	0.00
385.75	0.00
385.95	0.00
386.14	0.00
386.34	0.00
386.53	0.00
386.72	0.00
386.92	0.00
387.11	0.00
387.31	0.00
387.50	0.00
387.70	0.00
387.89	0.00
388.09	0.00
388.28	0.00
388.48	0.00
388.67	0.00
388.86	0.00
389.06	0.00
389.25	0.00
389.45	0.00
389.64	0.00
389.84	0.00
390.03	0.00
390.22	0.00
390.42	0.00
390.61	0.00
390.81	0.00
391.00	0.00
391.19	0.00
391.39	0.00
391.58	0.00
391.78	0.00
391.97	0.00
392.16	0.00
392.36	0.00
392.55	0.00
392.75	0.00
392.94	0.00
393.13	0.00
393.33	0.00
393.52	0.00
393.71	0.00
393.91	0.00
394.10	0.00
394.29	0.00
394.49	0.00
394.68	0.00
394.88	0.00
395.07	0.00
395.26	0.00
395.46	0.00
395.65	0.00
395.84	0.00
396.04	0.00
396.23	0.00
396.42	0.00
396.62	0.00
396.81	0.00
397.00	0.00
397.19	0.00
397.39	0.00
397.58	0.00
397.77	0.00
397.97	0.00
398.16	0.00
398.35	0.00
398.55	0.00
398.74	0.00
398.93	0.00
399.12	0.00
399.32	0.00
399.51	0.00
399.70	0.00
399.90	0.00
400.09	0.00
400.28	0.00
400.47	0.00
400.67	0.00
400.86	0.00
401.05	0.00
401.24	0.00
401.44	0.00
401.63	0.00
401.82	0.00
402.01	0.00
402.21	0.00
402.40	0.00
402.59	0.00
402.78	0.00
402.97	0.00
403.17	0.00
403.36	0.00
403.55	0.00
403.74	0.00
403.93	0.00
404.13	0.00
404.32	0.00
404.51	0.00
404.70	0.00
404.89	0.00
405.09	0.00
405.28	0.00
405.47	0.00
405.66	0.00
405.85	0.00
406.05	0.00
406.24	0.00
406.43	0.00
406.62	0.00
406.81	0.00
407.00	0.00
407.20	0.00
407.39	0.00
407.58	0.00
407.77	0.00
407.96	0.00
408.15	0.00
408.34	0.00
408.54	0.00
408.73	0.00
408.92	0.00
409.11	0.00
409.30	0.00
409.49	0.00
409.68	0.00
409.87	0.00
410.07	0.00
410.26	0.00
410.45	0.00
410.64	0.00
410.83	0.00
411.02	0.00
411.21	0.00
411.40	0.00
411.59	0.00
411.78	0.00
411.98	0.00
412.17	0.00
412.36	0.00
412.55	0.00
412.74	0.00
412.93	0.00
413.12	0.00
413.31	0.00
413.50	0.00
413.69	0.00
413.88	0.00
414.07	0.00
414.26	0.00
414.45	0.00
414.64	0.00
414.83	0.00
415.02	0.00
415.22	0.00
415.41	0.00
415.60	0.00
415.79	0.00
415.98	0.00
416.17	0.00
416.36	0.00
416.55	0.00
416.74	0.00
416.93	0.00
417.12	0.00
417.31	0.00
417.50	0.00
417.69	0.00
417.88	0.00
418.07	0.00
418.26	0.00
418.45	0.00
418.64	0.00
418.83	0.00
419.02	0.00
419.21	0.00
419.39	0.00
419.58	0.00
419.77	0.00
419.96	0.00
420.15	0.00
420.34	0.00
420.53	0.00
420.72	0.00
420.91	0.00
421.10	0.00
421.29	0.00
421.48	0.00
421.67	0.00
421.86	0.00
422.05	0.00
422.24	0.00
422.43	0.00
422.61	0.00
422.80	0.00
422.99	0.00
423.18	0.00
423.37	0.00
423.56	0.00
423.75	0.00
423.94	0.00
424.13	0.00
424.32	0.00
424.50	0.00
424.69	0.00
424.88	0.00
425.07	0.00
425.26	0.00
425.45	0.00
425.64	0.00
425.83	0.00
426.01	0.00
426.20	0.00
426.39	0.00
426.58	0.00
426.77	0.00
426.96	0.00
427.15	0.00
427.33	0.00
427.52	0.00
427.71	0.00
427.90	0.00
428.09	0.00
428.28	0.00
428.46	0.00
428.65	0.00
428.84	0.00
429.03	9.36
429.22	0.00
429.40	0.00
429.59	0.00
429.78	0.00
429.97	0.00
430.16	0.00
430.34	0.00
430.53	0.00
430.72	0.00
430.91	0.00
431.10	0.00
431.28	0.00
431.47	0.00
431.66	0.00
431.85	0.00
432.03	0.00
432.22	0.00
432.41	0.00
432.60	0.00
432.79	0.00
432.97	0.00
433.16	0.00
433.35	0.00
433.54	0.00
433.72	0.00
433.91	0.00
434.10	0.00
434.28	0.00
434.47	0.00
434.66	0.00
434.85	0.00
435.03	0.00
435.22	0.00
435.41	0.00
435.59	0.00
435.78	0.00
435.97	0.00
436.16	0.00
436.34	0.00
436.53	0.00
436.72	0.00
436.90	0.00
437.09	0.00
437.28	0.00
437.46	0.00
437.65	0.00
437.84	0.00
438.02	0.00
438.21	0.00
438.40	0.00
438.58	0.00
438.77	0.00
438.96	0.00
439.14	0.00
439.33	0.00
439.52	0.00
439.70	0.00
439.89	0.00
440.08	0.00
440.26	0.00
440.45	11.70
440.63	0.00
440.82	0.00
441.01	0.00
441.19	0.00
441.38	0.00
441.57	0.00
441.75	0.00
441.94	0.00
442.12	0.00
442.31	0.00
442.50	0.00
442.68	0.00
442.87	0.00
443.05	0.00
443.24	0.00
443.43	0.00
443.61	0.00
443.80	0.00
443.98	0.00
444.17	0.00
444.35	0.00
444.54	0.00
444.73	0.00
444.91	0.00
445.10	0.00
445.28	0.00
445.47	0.00
445.65	0.00
445.84	0.00
446.02	0.00
446.21	0.00
446.39	0.00
446.58	0.00
446.77	0.00
446.95	0.00
447.14	0.00
447.32	0.00
447.51	0.00
447.69	0.00
447.88	0.00
448.06	0.00
448.25	0.00
448.43	0.00
448.62	0.00
448.80	0.00
448.99	0.00
449.17	0.00
449.36	0.00
449.54	0.00
449.73	0.00
449.91	14.04
450.10	0.00
450.28	0.00
450.46	56.17
450.65	0.00
450.83	0.00
451.02	51.49
451.20	0.00
451.39	0.00
451.57	0.00
451.76	0.00
451.94	0.00
452.13	49.15
452.31	0.00
452.49	21.06
452.68	0.00
452.86	0.00
453.05	32.77
453.23	0.00
453.42	0.00
453.60	0.00
453.78	0.00
453.97	0.00
454.15	0.00
454.34	0.00
454.52	0.00
454.70	23.41
454.89	9.36
455.07	0.00
455.26	53.83
455.44	0.00
455.62	0.00
455.81	0.00
455.99	0.00
456.17	39.79
456.36	0.00
456.54	0.00
456.73	0.00
456.91	0.00
457.09	0.00
457.28	30.43
457.46	0.00
457.64	16.38
457.83	0.00
458.01	0.00
458.19	0.00
458.38	49.15
458.56	0.00
458.74	0.00
458.93	0.00
459.11	105.32
459.29	0.00
459.48	0.00
459.66	0.00
459.84	0.00
460.03	140.43
460.21	18.72
460.39	0.00
460.57	30.43
460.76	0.00
460.94	0.00
461.12	0.00
461.31	0.00
461.49	0.00
461.67	0.00
461.85	0.00
462.04	0.00
462.22	610.88
462.40	0.00
462.59	46.81
462.77	0.00
462.95	0.00
463.13	0.00
463.32	32.77
463.50	4.68
463.68	0.00
463.86	0.00
464.05	0.00
464.23	0.00
464.41	0.00
464.59	9.36
464.78	23.41
464.96	0.00
465.14	0.00
465.32	0.00
465.50	11.70
465.69	2.34
465.87	0.00
466.05	0.00
466.23	0.00
466.41	0.00
466.60	0.00
466.78	0.00
466.96	18.72
467.14	30.43
467.32	35.11
467.51	0.00
467.69	4.68
467.87	0.00
468.05	0.00
468.23	0.00
468.41	42.13
468.60	0.00
468.78	0.00
468.96	56.17
469.14	0.00
469.32	0.00
469.50	23.41
469.69	77.24
469.87	0.00
470.05	0.00
470.23	0.00
470.41	0.00
470.59	0.00
470.77	0.00
470.95	0.00
471.14	4.68
471.32	7.02
471.50	2.34
471.68	0.00
471.86	60.85
472.04	0.00
472.22	7.02
472.40	4.68
472.58	0.00
472.77	0.00
472.95	11.70
473.13	53.83
473.31	56.17
473.49	0.00
473.67	0.00
473.85	56.17
474.03	37.45
474.21	0.00
474.39	32.77
474.57	60.85
474.75	7.02
474.93	0.00
475.12	0.00
475.30	23.41
475.48	30.43
475.66	2.34
475.84	18.72
476.02	0.00
476.20	7.02
476.38	58.51
476.56	117.03
476.74	0.00
476.92	70.22
477.10	16.38
477.28	0.00
477.46	32.77
477.64	0.00
477.82	0.00
478.00	0.00
478.18	4.68
478.36	0.00
478.54	32.77
478.72	23.41
478.90	30.43
479.08	0.00
479.26	77.24
479.44	42.13
479.62	0.00
479.80	28.09
479.98	0.00
480.16	11.70
480.34	135.75
480.52	32.77
480.70	28.09
480.88	4.68
481.06	39.79
481.24	28.09
481.41	102.98
481.59	102.98
481.77	37.45
481.95	0.00
482.13	25.75
482.31	102.98
482.49	53.83
482.67	4.68
482.85	128.73
483.03	84.26
483.21	159.16
483.39	49.15
483.57	74.90
483.74	37.45
483.92	72.56
484.10	16.38
484.28	135.75
484.46	201.29
484.64	72.56
484.82	156.82
485.00	49.15
485.18	105.32
485.35	35.11
485.53	2.34
485.71	49.15
485.89	0.00
486.07	72.56
486.25	117.03
486.43	79.58
486.61	74.90
486.78	177.88
486.96	95.96
487.14	70.22
487.32	77.24
487.50	72.56
487.68	142.77
487.85	112.35
488.03	138.09
488.21	191.92
488.39	138.09
488.57	107.66
488.75	72.56
488.92	491.51
489.10	187.24
489.28	170.86
489.46	126.39
489.64	152.13
489.81	145.11
489.99	152.13
490.17	65.54
490.35	212.99
490.53	135.75
490.70	191.92
490.88	173.20
491.06	236.39
491.24	145.11
491.41	245.76
491.59	110.01
491.77	65.54
491.95	152.13
492.13	161.50
492.30	170.86
492.48	98.30
492.66	168.52
492.84	175.54
493.01	154.48
493.19	170.86
493.37	208.31
493.54	168.52
493.72	138.09
493.90	191.92
494.08	175.54
494.25	131.07
494.43	238.73
494.61	147.45
494.79	147.45
494.96	77.24
495.14	220.01
495.32	198.95
495.49	166.18
495.67	163.84
495.85	187.24
496.02	170.86
496.20	205.97
496.38	231.71
496.55	208.31
496.73	252.78
496.91	201.29
497.09	215.33
497.26	252.78
497.44	168.52
497.62	241.08
497.79	161.50
497.97	138.09
498.14	182.56
498.32	184.90
498.50	227.03
498.67	154.48
498.85	180.22
499.03	243.42
499.20	238.73
499.38	252.78
499.56	222.35
499.73	262.14
499.91	255.12
500.08	182.56
500.26	220.01
500.44	182.56
500.61	266.82
500.79	194.26
500.97	220.01
501.14	231.71
501.32	238.73
501.49	283.20
501.67	217.67
501.84	175.54
502.02	142.77
502.20	259.80
502.37	168.52
502.55	231.71
502.72	208.31
502.90	287.89
503.07	266.82
503.25	159.16
503.43	194.26
503.60	187.24
503.78	224.69
503.95	166.18
504.13	308.95
504.30	241.08
504.48	229.37
504.65	229.37
504.83	299.59
505.01	234.05
505.18	257.46
505.36	212.99
505.53	262.14
505.71	238.73
505.88	318.31
506.06	229.37
506.23	205.97
506.41	264.48
506.58	205.97
506.76	238.73
506.93	271.50
507.11	269.16
507.28	248.10
507.46	248.10
507.63	215.33
507.81	241.08
507.98	149.79
508.16	191.92
508.33	278.52
508.50	238.73
508.68	220.01
508.85	203.63
509.03	276.18
509.20	196.60
509.38	241.08
509.55	280.86
509.73	255.12
509.90	313.63
510.08	241.08
510.25	276.18
510.42	224.69
510.60	250.44
510.77	290.23
510.95	243.42
511.12	194.26
511.30	262.14
511.47	379.17
511.64	285.55
511.82	250.44
511.99	276.18
512.17	191.92
512.34	252.78
512.51	259.80
512.69	245.76
512.86	257.46
513.04	163.84
513.21	318.31
513.38	255.12
513.56	262.14
513.73	271.50
513.90	257.46
514.08	203.63
514.25	285.55
514.43	227.03
514.60	252.78
514.77	280.86
514.95	367.46
515.12	269.16
515.29	299.59
515.47	231.71
515.64	290.23
515.81	313.63
515.99	313.63
516.16	264.48
516.33	170.86
516.51	210.65
516.68	259.80
516.85	159.16
517.03	159.16
517.20	283.20
517.37	229.37
517.54	344.06
517.72	292.57
517.89	175.54
518.06	212.99
518.24	259.80
518.41	313.63
518.58	327.68
518.75	308.95
518.93	292.57
519.10	318.31
519.27	306.61
519.45	262.14
519.62	332.36
519.79	304.27
519.96	273.84
520.14	262.14
520.31	358.10
520.48	330.02
520.65	304.27
520.83	325.33
521.00	278.52
521.17	290.23
521.34	315.97
521.52	308.95
521.69	304.27
521.86	287.89
522.03	283.20
522.20	397.89
522.38	285.55
522.55	287.89
522.72	208.31
522.89	353.42
523.07	259.80
523.24	315.97
523.41	322.99
523.58	362.78
523.75	301.93
523.92	334.70
524.10	280.86
524.27	306.61
524.44	362.78
524.61	259.80
524.78	341.72
524.96	301.93
525.13	276.18
525.30	339.38
525.47	341.72
525.64	339.38
525.81	346.40
525.98	360.44
526.16	212.99
526.33	292.57
526.50	252.78
526.67	222.35
526.84	243.42
527.01	248.10
527.18	266.82
527.36	320.65
527.53	262.14
527.70	313.63
527.87	334.70
528.04	330.02
528.21	351.08
528.38	367.46
528.55	334.70
528.72	369.80
528.89	308.95
529.07	369.80
529.24	402.57
529.41	362.78
529.58	355.76
529.75	280.86
529.92	248.10
530.09	365.12
530.26	409.59
530.43	344.06
530.60	344.06
530.77	388.53
530.94	339.38
531.11	351.08
531.28	369.80
531.46	269.16
531.63	454.06
531.80	402.57
531.97	416.62
532.14	231.71
532.31	339.38
532.48	421.30
532.65	369.80
532.82	271.50
532.99	287.89
533.16	269.16
533.33	252.78
533.50	376.83
533.67	348.74
533.84	301.93
534.01	299.59
534.18	386.19
534.35	283.20
534.52	418.96
534.69	379.17
534.86	362.78
535.03	315.97
535.20	313.63
535.37	353.42
535.54	369.80
535.71	428.32
535.88	393.21
536.05	322.99
536.22	390.87
536.38	369.80
536.55	257.46
536.72	234.05
536.89	344.06
537.06	320.65
537.23	327.68
537.40	381.51
537.57	404.91
537.74	428.32
537.91	496.19
538.08	250.44
538.25	362.78
538.42	437.68
538.59	365.12
538.75	395.55
538.92	337.04
539.09	330.02
539.26	304.27
539.43	311.29
539.60	318.31
539.77	355.76
539.94	351.08
540.11	276.18
540.28	287.89
540.44	344.06
540.61	266.82
540.78	280.86
540.95	264.48
541.12	440.02
541.29	372.15
541.46	353.42
541.62	283.20
541.79	379.17
541.96	421.30
542.13	355.76
542.30	325.33
542.47	355.76
542.63	337.04
542.80	285.55
542.97	407.25
543.14	215.33
543.31	332.36
543.48	355.76
543.64	360.44
543.81	353.42
543.98	327.68
544.15	372.15
544.32	344.06
544.48	320.65
544.65	355.76
544.82	341.72
544.99	339.38
545.16	325.33
545.32	332.36
545.49	351.08
545.66	367.46
545.83	320.65
546.00	287.89
546.16	381.51
546.33	348.74
546.50	337.04
546.67	388.53
546.83	472.79
547.00	344.06
547.17	322.99
547.34	280.86
547.50	337.04
547.67	400.23
547.84	250.44
548.00	337.04
548.17	322.99
548.34	390.87
548.51	315.97
548.67	362.78
548.84	379.17
549.01	348.74
549.18	330.02
549.34	393.21
549.51	423.64
549.68	327.68
549.84	304.27
550.01	339.38
550.18	552.37
550.34	435.34
550.51	367.46
550.68	428.32
550.84	327.68
551.01	360.44
551.18	425.98
551.34	360.44
551.51	327.68
551.68	334.70
551.84	362.78
552.01	280.86
552.18	334.70
552.34	299.59
552.51	353.42
552.68	428.32
552.84	299.59
553.01	374.49
553.18	271.50
553.34	386.19
553.51	325.33
553.67	365.12
553.84	425.98
554.01	428.32
554.17	355.76
554.34	367.46
554.51	330.02
554.67	344.06
554.84	322.99
555.00	365.12
555.17	386.19
555.33	351.08
555.50	308.95
555.67	404.91
555.83	320.65
556.00	334.70
556.16	540.66
556.33	386.19
556.50	355.76
556.66	348.74
556.83	250.44
556.99	276.18
557.16	334.70
557.32	234.05
557.49	381.51
557.65	360.44
557.82	327.68
557.98	308.95
558.15	390.87
558.32	252.78
558.48	362.78
558.65	229.37
558.81	248.10
558.98	299.59
559.14	383.85
559.31	395.55
559.47	374.49
559.64	245.76
559.80	304.27
559.97	304.27
560.13	372.15
560.30	294.91
560.46	344.06
560.63	301.93
560.79	433.00
560.96	346.40
561.12	264.48
561.29	353.42
561.45	276.18
561.61	390.87
561.78	407.25
561.94	348.74
562.11	322.99
562.27	348.74
562.44	301.93
562.60	334.70
562.77	276.18
562.93	477.47
563.10	320.65
563.26	372.15
563.42	320.65
563.59	397.89
563.75	276.18
563.92	334.70
564.08	355.76
564.24	365.12
564.41	365.12
564.57	308.95
564.74	266.82
564.90	325.33
565.07	425.98
565.23	276.18
565.39	325.33
565.56	311.29
565.72	320.65
565.88	360.44
566.05	358.10
566.21	280.86
566.38	355.76
566.54	311.29
566.70	393.21
566.87	330.02
567.03	299.59
567.19	374.49
567.36	262.14
567.52	358.10
567.68	269.16
567.85	372.15
568.01	212.99
568.17	360.44
568.34	276.18
568.50	327.68
568.66	367.46
568.83	388.53
568.99	257.46
569.15	311.29
569.32	362.78
569.48	250.44
569.64	330.02
569.81	369.80
569.97	339.38
570.13	360.44
570.30	355.76
570.46	266.82
570.62	330.02
570.78	294.91
570.95	252.78
571.11	402.57
571.27	397.89
571.43	320.65
571.60	322.99
571.76	344.06
571.92	348.74
572.09	304.27
572.25	337.04
572.41	360.44
572.57	407.25
572.74	411.93
572.90	276.18
573.06	313.63
573.22	327.68
573.38	362.78
573.55	416.62
573.71	337.04
573.87	369.80
574.03	330.02
574.20	339.38
574.36	411.93
574.52	301.93
574.68	367.46
574.84	313.63
575.01	325.33
575.17	318.31
575.33	320.65
575.49	278.52
575.65	400.23
575.82	369.80
575.98	379.17
576.14	262.14
576.30	320.65
576.46	245.76
576.62	248.10
576.79	362.78
576.95	313.63
577.11	304.27
577.27	339.38
577.43	315.97
577.59	360.44
577.75	365.12
577.92	285.55
578.08	320.65
578.24	332.36
578.40	372.15
578.56	348.74
578.72	355.76
578.88	318.31
579.04	393.21
579.21	404.91
579.37	381.51
579.53	334.70
579.69	262.14
579.85	234.05
580.01	386.19
580.17	358.10
580.33	339.38
580.49	327.68
580.65	308.95
580.82	365.12
580.98	227.03
581.14	372.15
581.30	372.15
581.46	332.36
581.62	348.74
581.78	322.99
581.94	383.85
582.10	397.89
582.26	269.16
582.42	285.55
582.58	355.76
582.74	287.89
582.90	283.20
583.06	308.95
583.22	337.04
583.38	381.51
583.54	334.70
583.70	355.76
583.86	280.86
584.02	407.25
584.18	330.02
584.34	308.95
584.50	444.70
584.66	330.02
584.82	203.63
584.98	418.96
585.14	327.68
585.30	344.06
585.46	337.04
585.62	327.68
585.78	306.61
585.94	325.33
586.10	308.95
586.26	315.97
586.42	404.91
586.58	245.76
586.74	266.82
586.90	344.06
587.06	290.23
587.22	290.23
587.38	318.31
587.54	271.50
587.70	290.23
587.86	341.72
588.02	365.12
588.18	259.80
588.34	365.12
588.49	234.05
588.65	250.44
588.81	241.08
588.97	245.76
589.13	231.71
589.29	217.67
589.45	262.14
589.61	264.48
589.77	294.91
589.93	252.78
590.08	290.23
590.24	351.08
590.40	322.99
590.56	337.04
590.72	301.93
590.88	271.50
591.04	262.14
591.20	266.82
591.35	386.19
591.51	308.95
591.67	187.24
591.83	292.57
591.99	386.19
592.15	315.97
592.31	276.18
592.46	198.95
592.62	318.31
592.78	290.23
592.94	227.03
593.10	304.27
593.26	327.68
593.41	330.02
593.57	330.02
593.73	266.82
593.89	224.69
594.05	280.86
594.20	231.71
594.36	346.40
594.52	250.44
594.68	348.74
594.84	313.63
594.99	397.89
595.15	313.63
595.31	224.69
595.47	423.64
595.62	238.73
595.78	362.78
595.94	227.03
596.10	325.33
596.25	301.93
596.41	360.44
596.57	264.48
596.73	299.59
596.88	222.35
597.04	292.57
597.20	285.55
597.36	322.99
597.51	297.25
597.67	308.95
597.83	308.95
597.99	301.93
598.14	362.78
598.30	315.97
598.46	245.76
598.61	299.59
598.77	278.52
598.93	287.89
599.09	339.38
599.24	290.23
599.40	292.57
599.56	294.91
599.71	278.52
599.87	290.23
600.03	351.08
600.18	318.31
600.34	250.44
600.50	278.52
600.65	194.26
600.81	369.80
600.97	264.48
601.12	257.46
601.28	280.86
601.44	278.52
601.59	262.14
601.75	255.12
601.91	243.42
602.06	227.03
602.22	285.55
602.37	269.16
602.53	337.04
602.69	346.40
602.84	220.01
603.00	283.20
603.16	346.40
603.31	271.50
603.47	189.58
603.62	250.44
603.78	341.72
603.94	313.63
604.09	276.18
604.25	367.46
604.40	318.31
604.56	245.76
604.71	330.02
604.87	285.55
605.03	322.99
605.18	311.29
605.34	351.08
605.49	269.16
605.65	238.73
605.80	273.84
605.96	306.61
606.12	367.46
606.27	339.38
606.43	301.93
606.58	294.91
606.74	292.57
606.89	259.80
607.05	322.99
607.20	276.18
607.36	243.42
607.51	290.23
607.67	231.71
607.82	269.16
607.98	355.76
608.13	266.82
608.29	241.08
608.44	365.12
608.60	269.16
608.75	313.63
608.91	224.69
609.06	245.76
609.22	273.84
609.37	287.89
609.53	184.90
609.68	220.01
609.84	196.60
609.99	187.24
610.15	182.56
610.30	236.39
610.46	346.40
610.61	334.70
610.76	255.12
610.92	269.16
611.07	215.33
611.23	351.08
611.38	322.99
611.54	243.42
611.69	271.50
611.84	250.44
612.00	285.55
612.15	236.39
612.31	259.80
612.46	266.82
612.62	201.29
612.77	241.08
612.92	156.82
613.08	301.93
613.23	182.56
613.39	285.55
613.54	222.35
613.69	210.65
613.85	220.01
614.00	175.54
614.15	280.86
614.31	212.99
614.46	245.76
614.62	229.37
614.77	292.57
614.92	241.08
615.08	245.76
615.23	231.71
615.38	264.48
615.54	175.54
615.69	182.56
615.84	222.35
616.00	152.13
616.15	142.77
616.30	201.29
616.46	156.82
616.61	145.11
616.76	276.18
616.92	182.56
617.07	234.05
617.22	145.11
617.37	229.37
617.53	266.82
617.68	177.88
617.83	166.18
617.99	337.04
618.14	292.57
618.29	231.71
618.45	227.03
618.60	266.82
618.75	231.71
618.90	252.78
619.06	220.01
619.21	177.88
619.36	301.93
619.51	217.67
619.67	210.65
619.82	201.29
619.97	203.63
620.12	283.20
620.28	243.42
620.43	145.11
620.58	264.48
620.73	194.26
620.89	262.14
621.04	322.99
621.19	264.48
621.34	189.58
621.49	227.03
621.65	262.14
621.80	243.42
621.95	140.43
622.10	198.95
622.25	262.14
622.41	243.42
622.56	299.59
622.71	205.97
622.86	287.89
623.01	236.39
623.16	187.24
