SpectraSuite Data File
++++++++++++++++++++++++++++++++++++
Date: Mon Oct 07 14:59:58 GMT-05:00 2013
User: price-jones
Dark Spectrum Present: No
Reference Spectrum Present: No
Number of Sampled Component Spectra: 1
Spectrometers: USB2+H05261
Integration Time (usec): 100000 (USB2+H05261)
Spectra Averaged: 1 (USB2+H05261)
Boxcar Smoothing: 0 (USB2+H05261)
Correct for Electrical Dark: No (USB2+H05261)
Strobe/Lamp Enabled: No (USB2+H05261)
Correct for Detector Non-linearity: No (USB2+H05261)
Correct for Stray Light: No (USB2+H05261)
Number of Pixels in Processed Spectrum: 2048
>>>>>Begin Processed Spectral Data<<<<<
365.73	0.00
365.92	0.00
366.12	0.00
366.32	0.00
366.52	0.00
366.72	0.00
366.91	0.00
367.11	0.00
367.31	0.00
367.51	0.00
367.70	0.00
367.90	0.00
368.10	0.00
368.30	0.00
368.49	0.00
368.69	0.00
368.89	0.00
369.09	0.00
369.28	0.00
369.48	0.00
369.68	0.00
369.87	0.00
370.07	0.00
370.27	0.00
370.47	0.00
370.66	0.00
370.86	0.00
371.06	0.00
371.25	0.00
371.45	0.00
371.65	0.00
371.84	0.00
372.04	0.00
372.24	0.00
372.44	0.00
372.63	0.00
372.83	0.00
373.03	0.00
373.22	0.00
373.42	0.00
373.62	0.00
373.81	0.00
374.01	0.00
374.21	0.00
374.40	0.00
374.60	0.00
374.79	0.00
374.99	0.00
375.19	0.00
375.38	0.00
375.58	0.00
375.78	0.00
375.97	0.00
376.17	0.00
376.37	0.00
376.56	0.00
376.76	0.00
376.95	0.00
377.15	0.00
377.35	0.00
377.54	0.00
377.74	0.00
377.93	0.00
378.13	0.00
378.33	0.00
378.52	0.00
378.72	0.00
378.91	0.00
379.11	0.00
379.31	0.00
379.50	0.00
379.70	0.00
379.89	0.00
380.09	0.00
380.28	0.00
380.48	0.00
380.68	0.00
380.87	0.00
381.07	0.00
381.26	0.00
381.46	0.00
381.65	0.00
381.85	0.00
382.04	0.00
382.24	0.00
382.43	0.00
382.63	0.00
382.83	0.00
383.02	0.00
383.22	0.00
383.41	0.00
383.61	0.00
383.80	0.00
384.00	0.00
384.19	0.00
384.39	0.00
384.58	0.00
384.78	0.00
384.97	0.00
385.17	0.00
385.36	0.00
385.56	0.00
385.75	0.00
385.95	0.00
386.14	0.00
386.34	0.00
386.53	0.00
386.72	0.00
386.92	0.00
387.11	0.00
387.31	0.00
387.50	0.00
387.70	0.00
387.89	0.00
388.09	0.00
388.28	0.00
388.48	0.00
388.67	0.00
388.86	0.00
389.06	0.00
389.25	0.00
389.45	0.00
389.64	0.00
389.84	0.00
390.03	0.00
390.22	0.00
390.42	0.00
390.61	0.00
390.81	0.00
391.00	0.00
391.19	0.00
391.39	0.00
391.58	0.00
391.78	0.00
391.97	0.00
392.16	0.00
392.36	0.00
392.55	0.00
392.75	0.00
392.94	0.00
393.13	0.00
393.33	0.00
393.52	0.00
393.71	0.00
393.91	0.00
394.10	0.00
394.29	0.00
394.49	0.00
394.68	0.00
394.88	0.00
395.07	0.00
395.26	0.00
395.46	0.00
395.65	0.00
395.84	0.00
396.04	0.00
396.23	0.00
396.42	0.00
396.62	0.00
396.81	0.00
397.00	0.00
397.19	0.00
397.39	0.00
397.58	0.00
397.77	0.00
397.97	0.00
398.16	0.00
398.35	0.00
398.55	0.00
398.74	0.00
398.93	0.00
399.12	0.00
399.32	0.00
399.51	0.00
399.70	0.00
399.90	0.00
400.09	0.00
400.28	0.00
400.47	0.00
400.67	0.00
400.86	0.00
401.05	0.00
401.24	0.00
401.44	0.00
401.63	0.00
401.82	0.00
402.01	0.00
402.21	0.00
402.40	0.00
402.59	0.00
402.78	0.00
402.97	0.00
403.17	0.00
403.36	0.00
403.55	0.00
403.74	0.00
403.93	0.00
404.13	0.00
404.32	0.00
404.51	0.00
404.70	0.00
404.89	0.00
405.09	0.00
405.28	0.00
405.47	0.00
405.66	0.00
405.85	0.00
406.05	0.00
406.24	0.00
406.43	0.00
406.62	0.00
406.81	0.00
407.00	0.00
407.20	0.00
407.39	0.00
407.58	0.00
407.77	0.00
407.96	0.00
408.15	0.00
408.34	0.00
408.54	0.00
408.73	0.00
408.92	0.00
409.11	0.00
409.30	0.00
409.49	0.00
409.68	0.00
409.87	0.00
410.07	0.00
410.26	0.00
410.45	0.00
410.64	0.00
410.83	0.00
411.02	0.00
411.21	0.00
411.40	0.00
411.59	0.00
411.78	0.00
411.98	0.00
412.17	0.00
412.36	0.00
412.55	0.00
412.74	0.00
412.93	0.00
413.12	0.00
413.31	0.00
413.50	0.00
413.69	0.00
413.88	0.00
414.07	0.00
414.26	0.00
414.45	0.00
414.64	0.00
414.83	0.00
415.02	0.00
415.22	0.00
415.41	0.00
415.60	0.00
415.79	0.00
415.98	0.00
416.17	0.00
416.36	0.00
416.55	0.00
416.74	0.00
416.93	0.00
417.12	0.00
417.31	0.00
417.50	0.00
417.69	0.00
417.88	0.00
418.07	0.00
418.26	0.00
418.45	0.00
418.64	0.00
418.83	0.00
419.02	0.00
419.21	0.00
419.39	0.00
419.58	0.00
419.77	0.00
419.96	0.00
420.15	0.00
420.34	0.00
420.53	0.00
420.72	0.00
420.91	0.00
421.10	0.00
421.29	0.00
421.48	0.00
421.67	0.00
421.86	0.00
422.05	0.00
422.24	0.00
422.43	0.00
422.61	0.00
422.80	0.00
422.99	0.00
423.18	0.00
423.37	0.00
423.56	0.00
423.75	0.00
423.94	0.00
424.13	0.00
424.32	0.00
424.50	0.00
424.69	0.00
424.88	0.00
425.07	0.00
425.26	0.00
425.45	0.00
425.64	0.00
425.83	0.00
426.01	0.00
426.20	0.00
426.39	0.00
426.58	0.00
426.77	0.00
426.96	0.00
427.15	0.00
427.33	0.00
427.52	0.00
427.71	0.00
427.90	0.00
428.09	0.00
428.28	0.00
428.46	0.00
428.65	0.00
428.84	0.00
429.03	0.00
429.22	0.00
429.40	0.00
429.59	0.00
429.78	0.00
429.97	0.00
430.16	0.00
430.34	0.00
430.53	0.00
430.72	0.00
430.91	0.00
431.10	0.00
431.28	0.00
431.47	0.00
431.66	0.00
431.85	0.00
432.03	0.00
432.22	0.00
432.41	0.00
432.60	0.00
432.79	0.00
432.97	0.00
433.16	0.00
433.35	0.00
433.54	0.00
433.72	0.00
433.91	0.00
434.10	0.00
434.28	0.00
434.47	0.00
434.66	0.00
434.85	0.00
435.03	0.00
435.22	0.00
435.41	0.00
435.59	0.00
435.78	0.00
435.97	0.00
436.16	0.00
436.34	0.00
436.53	0.00
436.72	0.00
436.90	0.00
437.09	0.00
437.28	0.00
437.46	0.00
437.65	0.00
437.84	0.00
438.02	0.00
438.21	0.00
438.40	0.00
438.58	0.00
438.77	0.00
438.96	0.00
439.14	0.00
439.33	0.00
439.52	0.00
439.70	0.00
439.89	0.00
440.08	0.00
440.26	0.00
440.45	0.00
440.63	0.00
440.82	0.00
441.01	0.00
441.19	0.00
441.38	0.00
441.57	0.00
441.75	0.00
441.94	0.00
442.12	0.00
442.31	0.00
442.50	0.00
442.68	0.00
442.87	0.00
443.05	0.00
443.24	0.00
443.43	0.00
443.61	0.00
443.80	0.00
443.98	0.00
444.17	0.00
444.35	0.00
444.54	0.00
444.73	0.00
444.91	0.00
445.10	0.00
445.28	0.00
445.47	0.00
445.65	0.00
445.84	0.00
446.02	0.00
446.21	0.00
446.39	0.00
446.58	0.00
446.77	0.00
446.95	0.00
447.14	0.00
447.32	0.00
447.51	0.00
447.69	0.00
447.88	56.17
448.06	0.00
448.25	4.68
448.43	0.00
448.62	0.00
448.80	0.00
448.99	0.00
449.17	0.00
449.36	0.00
449.54	0.00
449.73	0.00
449.91	0.00
450.10	0.00
450.28	53.83
450.46	2.34
450.65	0.00
450.83	0.00
451.02	0.00
451.20	4.68
451.39	0.00
451.57	0.00
451.76	0.00
451.94	0.00
452.13	0.00
452.31	0.00
452.49	0.00
452.68	0.00
452.86	0.00
453.05	0.00
453.23	0.00
453.42	0.00
453.60	0.00
453.78	11.70
453.97	0.00
454.15	0.00
454.34	0.00
454.52	0.00
454.70	0.00
454.89	0.00
455.07	0.00
455.26	0.00
455.44	0.00
455.62	0.00
455.81	0.00
455.99	7.02
456.17	4.68
456.36	0.00
456.54	0.00
456.73	0.00
456.91	0.00
457.09	0.00
457.28	65.54
457.46	0.00
457.64	0.00
457.83	0.00
458.01	0.00
458.19	0.00
458.38	0.00
458.56	0.00
458.74	0.00
458.93	0.00
459.11	0.00
459.29	0.00
459.48	14.04
459.66	0.00
459.84	7.02
460.03	58.51
460.21	23.41
460.39	0.00
460.57	0.00
460.76	0.00
460.94	0.00
461.12	0.00
461.31	0.00
461.49	0.00
461.67	0.00
461.85	0.00
462.04	0.00
462.22	526.62
462.40	39.79
462.59	0.00
462.77	7.02
462.95	0.00
463.13	0.00
463.32	0.00
463.50	0.00
463.68	0.00
463.86	0.00
464.05	0.00
464.23	0.00
464.41	0.00
464.59	0.00
464.78	0.00
464.96	0.00
465.14	0.00
465.32	0.00
465.50	51.49
465.69	9.36
465.87	0.00
466.05	9.36
466.23	0.00
466.41	18.72
466.60	0.00
466.78	0.00
466.96	0.00
467.14	0.00
467.32	0.00
467.51	0.00
467.69	46.81
467.87	0.00
468.05	0.00
468.23	65.54
468.41	0.00
468.60	0.00
468.78	11.70
468.96	42.13
469.14	0.00
469.32	0.00
469.50	0.00
469.69	7.02
469.87	0.00
470.05	0.00
470.23	0.00
470.41	0.00
470.59	0.00
470.77	4.68
470.95	0.00
471.14	93.62
471.32	0.00
471.50	161.50
471.68	0.00
471.86	0.00
472.04	0.00
472.22	70.22
472.40	0.00
472.58	51.49
472.77	0.00
472.95	16.38
473.13	46.81
473.31	25.75
473.49	0.00
473.67	28.09
473.85	2.34
474.03	0.00
474.21	0.00
474.39	67.88
474.57	72.56
474.75	44.47
474.93	0.00
475.12	74.90
475.30	23.41
475.48	28.09
475.66	14.04
475.84	9.36
476.02	46.81
476.20	28.09
476.38	9.36
476.56	77.24
476.74	0.00
476.92	0.00
477.10	25.75
477.28	79.58
477.46	21.06
477.64	56.17
477.82	7.02
478.00	0.00
478.18	56.17
478.36	23.41
478.54	0.00
478.72	0.00
478.90	70.22
479.08	135.75
479.26	88.94
479.44	0.00
479.62	53.83
479.80	0.00
479.98	0.00
480.16	18.72
480.34	77.24
480.52	0.00
480.70	88.94
480.88	37.45
481.06	0.00
481.24	51.49
481.41	58.51
481.59	4.68
481.77	70.22
481.95	0.00
482.13	156.82
482.31	28.09
482.49	44.47
482.67	152.13
482.85	180.22
483.03	88.94
483.21	74.90
483.39	81.92
483.57	91.28
483.74	112.35
483.92	138.09
484.10	112.35
484.28	56.17
484.46	135.75
484.64	28.09
484.82	70.22
485.00	124.05
485.18	79.58
485.35	81.92
485.53	42.13
485.71	119.37
485.89	56.17
486.07	0.00
486.25	42.13
486.43	102.98
486.61	86.60
486.78	23.41
486.96	23.41
487.14	0.00
487.32	56.17
487.50	102.98
487.68	126.39
487.85	138.09
488.03	114.69
488.21	154.48
488.39	124.05
488.57	147.45
488.75	142.77
488.92	517.26
489.10	110.01
489.28	140.43
489.46	161.50
489.64	152.13
489.81	220.01
489.99	241.08
490.17	102.98
490.35	241.08
490.53	142.77
490.70	170.86
490.88	133.41
491.06	95.96
491.24	180.22
491.41	114.69
491.59	177.88
491.77	126.39
491.95	91.28
492.13	173.20
492.30	147.45
492.48	138.09
492.66	135.75
492.84	145.11
493.01	133.41
493.19	147.45
493.37	231.71
493.54	147.45
493.72	126.39
493.90	138.09
494.08	128.73
494.25	257.46
494.43	212.99
494.61	156.82
494.79	114.69
494.96	168.52
495.14	114.69
495.32	128.73
495.49	205.97
495.67	147.45
495.85	154.48
496.02	184.90
496.20	182.56
496.38	203.63
496.55	142.77
496.73	210.65
496.91	187.24
497.09	133.41
497.26	168.52
497.44	161.50
497.62	156.82
497.79	175.54
497.97	210.65
498.14	220.01
498.32	124.05
498.50	250.44
498.67	173.20
498.85	184.90
499.03	250.44
499.20	159.16
499.38	227.03
499.56	142.77
499.73	217.67
499.91	241.08
500.08	191.92
500.26	285.55
500.44	147.45
500.61	168.52
500.79	257.46
500.97	187.24
501.14	205.97
501.32	259.80
501.49	191.92
501.67	252.78
501.84	205.97
502.02	187.24
502.20	241.08
502.37	154.48
502.55	147.45
502.72	135.75
502.90	236.39
503.07	201.29
503.25	175.54
503.43	133.41
503.60	208.31
503.78	173.20
503.95	203.63
504.13	210.65
504.30	290.23
504.48	210.65
504.65	224.69
504.83	255.12
505.01	191.92
505.18	210.65
505.36	163.84
505.53	325.33
505.71	266.82
505.88	315.97
506.06	269.16
506.23	140.43
506.41	238.73
506.58	208.31
506.76	173.20
506.93	292.57
507.11	245.76
507.28	259.80
507.46	194.26
507.63	243.42
507.81	248.10
507.98	236.39
508.16	212.99
508.33	161.50
508.50	341.72
508.68	210.65
508.85	271.50
509.03	236.39
509.20	301.93
509.38	238.73
509.55	252.78
509.73	290.23
509.90	283.20
510.08	220.01
510.25	280.86
510.42	245.76
510.60	191.92
510.77	241.08
510.95	196.60
511.12	168.52
511.30	220.01
511.47	266.82
511.64	400.23
511.82	250.44
511.99	266.82
512.17	234.05
512.34	212.99
512.51	276.18
512.69	196.60
512.86	245.76
513.04	180.22
513.21	210.65
513.38	250.44
513.56	196.60
513.73	173.20
513.90	177.88
514.08	255.12
514.25	241.08
514.43	205.97
514.60	271.50
514.77	290.23
514.95	250.44
515.12	205.97
515.29	243.42
515.47	266.82
515.64	297.25
515.81	248.10
515.99	353.42
516.16	290.23
516.33	266.82
516.51	128.73
516.68	63.19
516.85	140.43
517.03	119.37
517.20	280.86
517.37	245.76
517.54	276.18
517.72	201.29
517.89	156.82
518.06	152.13
518.24	269.16
518.41	308.95
518.58	271.50
518.75	283.20
518.93	208.31
519.10	191.92
519.27	276.18
519.45	301.93
519.62	205.97
519.79	234.05
519.96	297.25
520.14	175.54
520.31	238.73
520.48	306.61
520.65	271.50
520.83	273.84
521.00	290.23
521.17	301.93
521.34	229.37
521.52	287.89
521.69	337.04
521.86	210.65
522.03	358.10
522.20	259.80
522.38	301.93
522.55	264.48
522.72	227.03
522.89	327.68
523.07	341.72
523.24	271.50
523.41	283.20
523.58	308.95
523.75	297.25
523.92	325.33
524.10	301.93
524.27	322.99
524.44	351.08
524.61	262.14
524.78	285.55
524.96	346.40
525.13	269.16
525.30	353.42
525.47	362.78
525.64	276.18
525.81	287.89
525.98	227.03
526.16	212.99
526.33	257.46
526.50	215.33
526.67	173.20
526.84	252.78
527.01	205.97
527.18	287.89
527.36	262.14
527.53	175.54
527.70	306.61
527.87	252.78
528.04	222.35
528.21	250.44
528.38	308.95
528.55	397.89
528.72	348.74
528.89	360.44
529.07	304.27
529.24	257.46
529.41	276.18
529.58	306.61
529.75	372.15
529.92	278.52
530.09	339.38
530.26	388.53
530.43	355.76
530.60	327.68
530.77	318.31
530.94	283.20
531.11	383.85
531.28	283.20
531.46	397.89
531.63	278.52
531.80	355.76
531.97	381.51
532.14	245.76
532.31	327.68
532.48	292.57
532.65	311.29
532.82	346.40
532.99	271.50
533.16	327.68
533.33	365.12
533.50	315.97
533.67	271.50
533.84	369.80
534.01	355.76
534.18	294.91
534.35	325.33
534.52	409.59
534.69	386.19
534.86	428.32
535.03	369.80
535.20	369.80
535.37	442.36
535.54	339.38
535.71	337.04
535.88	271.50
536.05	337.04
536.22	337.04
536.38	327.68
536.55	376.83
536.72	339.38
536.89	238.73
537.06	330.02
537.23	278.52
537.40	341.72
537.57	280.86
537.74	395.55
537.91	313.63
538.08	369.80
538.25	344.06
538.42	395.55
538.59	409.59
538.75	430.66
538.92	339.38
539.09	330.02
539.26	318.31
539.43	315.97
539.60	315.97
539.77	346.40
539.94	290.23
540.11	355.76
540.28	351.08
540.44	358.10
540.61	327.68
540.78	318.31
540.95	346.40
541.12	257.46
541.29	360.44
541.46	348.74
541.62	297.25
541.79	222.35
541.96	346.40
542.13	306.61
542.30	320.65
542.47	362.78
542.63	353.42
542.80	404.91
542.97	337.04
543.14	257.46
543.31	318.31
543.48	402.57
543.64	362.78
543.81	322.99
543.98	308.95
544.15	353.42
544.32	334.70
544.48	285.55
544.65	313.63
544.82	315.97
544.99	404.91
545.16	374.49
545.32	264.48
545.49	369.80
545.66	348.74
545.83	250.44
546.00	322.99
546.16	330.02
546.33	332.36
546.50	402.57
546.67	386.19
546.83	381.51
547.00	351.08
547.17	365.12
547.34	299.59
547.50	346.40
547.67	315.97
547.84	322.99
548.00	402.57
548.17	362.78
548.34	379.17
548.51	414.27
548.67	325.33
548.84	308.95
549.01	376.83
549.18	337.04
549.34	353.42
549.51	395.55
549.68	341.72
549.84	299.59
550.01	337.04
550.18	547.69
550.34	418.96
550.51	360.44
550.68	486.83
550.84	428.32
551.01	339.38
551.18	271.50
551.34	404.91
551.51	395.55
551.68	346.40
551.84	395.55
552.01	313.63
552.18	365.12
552.34	344.06
552.51	294.91
552.68	360.44
552.84	407.25
553.01	294.91
553.18	351.08
553.34	276.18
553.51	369.80
553.67	365.12
553.84	383.85
554.01	318.31
554.17	290.23
554.34	290.23
554.51	374.49
554.67	358.10
554.84	418.96
555.00	348.74
555.17	393.21
555.33	379.17
555.50	372.15
555.67	362.78
555.83	374.49
556.00	292.57
556.16	498.53
556.33	346.40
556.50	369.80
556.66	381.51
556.83	374.49
556.99	304.27
557.16	304.27
557.32	351.08
557.49	358.10
557.65	351.08
557.82	308.95
557.98	257.46
558.15	327.68
558.32	313.63
558.48	416.62
558.65	259.80
558.81	344.06
558.98	346.40
559.14	376.83
559.31	297.25
559.47	322.99
559.64	325.33
559.80	250.44
559.97	248.10
560.13	454.06
560.30	369.80
560.46	337.04
560.63	297.25
560.79	294.91
560.96	313.63
561.12	290.23
561.29	341.72
561.45	353.42
561.61	393.21
561.78	421.30
561.94	318.31
562.11	337.04
562.27	360.44
562.44	243.42
562.60	322.99
562.77	325.33
562.93	428.32
563.10	400.23
563.26	266.82
563.42	400.23
563.59	322.99
563.75	271.50
563.92	346.40
564.08	411.93
564.24	400.23
564.41	332.36
564.57	325.33
564.74	325.33
564.90	339.38
565.07	278.52
565.23	339.38
565.39	306.61
565.56	372.15
565.72	330.02
565.88	315.97
566.05	248.10
566.21	290.23
566.38	327.68
566.54	283.20
566.70	330.02
566.87	311.29
567.03	348.74
567.19	322.99
567.36	355.76
567.52	294.91
567.68	376.83
567.85	402.57
568.01	283.20
568.17	292.57
568.34	259.80
568.50	376.83
568.66	217.67
568.83	425.98
568.99	308.95
569.15	292.57
569.32	243.42
569.48	315.97
569.64	264.48
569.81	330.02
569.97	224.69
570.13	320.65
570.30	255.12
570.46	348.74
570.62	292.57
570.78	318.31
570.95	224.69
571.11	355.76
571.27	372.15
571.43	271.50
571.60	273.84
571.76	276.18
571.92	269.16
572.09	276.18
572.25	243.42
572.41	395.55
572.57	238.73
572.74	313.63
572.90	360.44
573.06	283.20
573.22	383.85
573.38	442.36
573.55	367.46
573.71	330.02
573.87	339.38
574.03	334.70
574.20	344.06
574.36	322.99
574.52	280.86
574.68	311.29
574.84	264.48
575.01	386.19
575.17	327.68
575.33	325.33
575.49	360.44
575.65	320.65
575.82	376.83
575.98	390.87
576.14	325.33
576.30	264.48
576.46	215.33
576.62	231.71
576.79	311.29
576.95	341.72
577.11	322.99
577.27	341.72
577.43	372.15
577.59	397.89
577.75	388.53
577.92	344.06
578.08	224.69
578.24	262.14
578.40	294.91
578.56	332.36
578.72	344.06
578.88	318.31
579.04	330.02
579.21	285.55
579.37	313.63
579.53	400.23
579.69	318.31
579.85	315.97
580.01	367.46
580.17	276.18
580.33	175.54
580.49	311.29
580.65	278.52
580.82	285.55
580.98	330.02
581.14	311.29
581.30	320.65
581.46	334.70
581.62	411.93
581.78	332.36
581.94	386.19
582.10	297.25
582.26	402.57
582.42	262.14
582.58	283.20
582.74	266.82
582.90	313.63
583.06	337.04
583.22	376.83
583.38	306.61
583.54	250.44
583.70	381.51
583.86	304.27
584.02	290.23
584.18	400.23
584.34	332.36
584.50	346.40
584.66	255.12
584.82	285.55
584.98	372.15
585.14	428.32
585.30	327.68
585.46	311.29
585.62	304.27
585.78	294.91
585.94	390.87
586.10	355.76
586.26	304.27
586.42	383.85
586.58	360.44
586.74	248.10
586.90	325.33
587.06	304.27
587.22	322.99
587.38	390.87
587.54	311.29
587.70	337.04
587.86	367.46
588.02	245.76
588.18	301.93
588.34	266.82
588.49	231.71
588.65	294.91
588.81	166.18
588.97	196.60
589.13	236.39
589.29	194.26
589.45	330.02
589.61	358.10
589.77	355.76
589.93	264.48
590.08	229.37
590.24	241.08
590.40	325.33
590.56	292.57
590.72	266.82
590.88	306.61
591.04	372.15
591.20	287.89
591.35	344.06
591.51	330.02
591.67	245.76
591.83	259.80
591.99	313.63
592.15	292.57
592.31	341.72
592.46	259.80
592.62	306.61
592.78	315.97
592.94	243.42
593.10	245.76
593.26	245.76
593.41	318.31
593.57	255.12
593.73	292.57
593.89	374.49
594.05	252.78
594.20	283.20
594.36	306.61
594.52	304.27
594.68	248.10
594.84	301.93
594.99	306.61
595.15	301.93
595.31	262.14
595.47	348.74
595.62	271.50
595.78	290.23
595.94	407.25
596.10	358.10
596.25	269.16
596.41	334.70
596.57	306.61
596.73	301.93
596.88	280.86
597.04	365.12
597.20	276.18
597.36	318.31
597.51	273.84
597.67	205.97
597.83	285.55
597.99	332.36
598.14	360.44
598.30	273.84
598.46	250.44
598.61	315.97
598.77	276.18
598.93	243.42
599.09	325.33
599.24	315.97
599.40	238.73
599.56	276.18
599.71	276.18
599.87	215.33
600.03	327.68
600.18	271.50
600.34	351.08
600.50	297.25
600.65	184.90
600.81	276.18
600.97	222.35
601.12	245.76
601.28	353.42
601.44	238.73
601.59	220.01
601.75	229.37
601.91	191.92
602.06	301.93
602.22	437.68
602.37	341.72
602.53	245.76
602.69	285.55
602.84	248.10
603.00	287.89
603.16	208.31
603.31	238.73
603.47	287.89
603.62	337.04
603.78	264.48
603.94	337.04
604.09	337.04
604.25	259.80
604.40	252.78
604.56	245.76
604.71	315.97
604.87	348.74
605.03	269.16
605.18	234.05
605.34	271.50
605.49	280.86
605.65	264.48
605.80	236.39
605.96	285.55
606.12	273.84
606.27	362.78
606.43	205.97
606.58	262.14
606.74	285.55
606.89	262.14
607.05	388.53
607.20	313.63
607.36	245.76
607.51	257.46
607.67	262.14
607.82	280.86
607.98	334.70
608.13	315.97
608.29	271.50
608.44	304.27
608.60	245.76
608.75	227.03
608.91	269.16
609.06	180.22
609.22	287.89
609.37	262.14
609.53	198.95
609.68	332.36
609.84	290.23
609.99	271.50
610.15	271.50
610.30	163.84
610.46	283.20
610.61	224.69
610.76	241.08
610.92	196.60
611.07	191.92
611.23	358.10
611.38	252.78
611.54	208.31
611.69	229.37
611.84	217.67
612.00	262.14
612.15	196.60
612.31	231.71
612.46	203.63
612.62	259.80
612.77	287.89
612.92	262.14
613.08	252.78
613.23	229.37
613.39	236.39
613.54	166.18
613.69	203.63
613.85	163.84
614.00	198.95
614.15	224.69
614.31	208.31
614.46	212.99
614.62	205.97
614.77	229.37
614.92	245.76
615.08	229.37
615.23	168.52
615.38	140.43
615.54	220.01
615.69	285.55
615.84	266.82
616.00	110.01
616.15	173.20
616.30	142.77
616.46	177.88
616.61	231.71
616.76	255.12
616.92	266.82
617.07	170.86
617.22	196.60
617.37	152.13
617.53	182.56
617.68	262.14
617.83	194.26
617.99	252.78
618.14	283.20
618.29	287.89
618.45	215.33
618.60	203.63
618.75	98.30
618.90	154.48
619.06	292.57
619.21	224.69
619.36	330.02
619.51	236.39
619.67	227.03
619.82	201.29
619.97	264.48
620.12	196.60
620.28	252.78
620.43	175.54
620.58	245.76
620.73	170.86
620.89	180.22
621.04	217.67
621.19	231.71
621.34	222.35
621.49	189.58
621.65	220.01
621.80	227.03
621.95	152.13
622.10	196.60
622.25	166.18
622.41	138.09
622.56	168.52
622.71	166.18
622.86	208.31
623.01	133.41
623.16	264.48
623.32	259.80
