SpectraSuite Data File
++++++++++++++++++++++++++++++++++++
Date: Mon Oct 07 14:59:57 GMT-05:00 2013
User: price-jones
Dark Spectrum Present: No
Reference Spectrum Present: No
Number of Sampled Component Spectra: 1
Spectrometers: USB2+H05261
Integration Time (usec): 100000 (USB2+H05261)
Spectra Averaged: 1 (USB2+H05261)
Boxcar Smoothing: 0 (USB2+H05261)
Correct for Electrical Dark: No (USB2+H05261)
Strobe/Lamp Enabled: No (USB2+H05261)
Correct for Detector Non-linearity: No (USB2+H05261)
Correct for Stray Light: No (USB2+H05261)
Number of Pixels in Processed Spectrum: 2048
>>>>>Begin Processed Spectral Data<<<<<
365.73	0.00
365.92	0.00
366.12	0.00
366.32	0.00
366.52	0.00
366.72	0.00
366.91	0.00
367.11	0.00
367.31	0.00
367.51	0.00
367.70	0.00
367.90	0.00
368.10	0.00
368.30	0.00
368.49	0.00
368.69	0.00
368.89	0.00
369.09	0.00
369.28	0.00
369.48	0.00
369.68	0.00
369.87	0.00
370.07	0.00
370.27	0.00
370.47	0.00
370.66	0.00
370.86	0.00
371.06	0.00
371.25	0.00
371.45	0.00
371.65	0.00
371.84	0.00
372.04	0.00
372.24	0.00
372.44	0.00
372.63	0.00
372.83	0.00
373.03	0.00
373.22	0.00
373.42	0.00
373.62	0.00
373.81	0.00
374.01	0.00
374.21	0.00
374.40	0.00
374.60	0.00
374.79	0.00
374.99	0.00
375.19	0.00
375.38	0.00
375.58	0.00
375.78	0.00
375.97	0.00
376.17	0.00
376.37	0.00
376.56	0.00
376.76	0.00
376.95	0.00
377.15	0.00
377.35	0.00
377.54	0.00
377.74	0.00
377.93	0.00
378.13	0.00
378.33	0.00
378.52	0.00
378.72	0.00
378.91	0.00
379.11	0.00
379.31	0.00
379.50	0.00
379.70	0.00
379.89	0.00
380.09	0.00
380.28	0.00
380.48	0.00
380.68	0.00
380.87	0.00
381.07	0.00
381.26	0.00
381.46	0.00
381.65	0.00
381.85	0.00
382.04	0.00
382.24	0.00
382.43	0.00
382.63	0.00
382.83	0.00
383.02	0.00
383.22	0.00
383.41	0.00
383.61	0.00
383.80	0.00
384.00	0.00
384.19	0.00
384.39	0.00
384.58	0.00
384.78	0.00
384.97	0.00
385.17	0.00
385.36	0.00
385.56	0.00
385.75	0.00
385.95	0.00
386.14	0.00
386.34	0.00
386.53	0.00
386.72	0.00
386.92	0.00
387.11	0.00
387.31	0.00
387.50	0.00
387.70	0.00
387.89	0.00
388.09	0.00
388.28	0.00
388.48	0.00
388.67	0.00
388.86	0.00
389.06	0.00
389.25	0.00
389.45	0.00
389.64	0.00
389.84	0.00
390.03	0.00
390.22	0.00
390.42	0.00
390.61	0.00
390.81	0.00
391.00	0.00
391.19	0.00
391.39	0.00
391.58	0.00
391.78	0.00
391.97	0.00
392.16	0.00
392.36	0.00
392.55	0.00
392.75	0.00
392.94	0.00
393.13	0.00
393.33	0.00
393.52	0.00
393.71	0.00
393.91	0.00
394.10	0.00
394.29	0.00
394.49	0.00
394.68	0.00
394.88	0.00
395.07	0.00
395.26	0.00
395.46	0.00
395.65	0.00
395.84	0.00
396.04	0.00
396.23	0.00
396.42	0.00
396.62	0.00
396.81	0.00
397.00	0.00
397.19	0.00
397.39	0.00
397.58	0.00
397.77	0.00
397.97	0.00
398.16	0.00
398.35	0.00
398.55	0.00
398.74	0.00
398.93	0.00
399.12	0.00
399.32	0.00
399.51	0.00
399.70	0.00
399.90	0.00
400.09	0.00
400.28	0.00
400.47	0.00
400.67	0.00
400.86	0.00
401.05	0.00
401.24	0.00
401.44	0.00
401.63	0.00
401.82	0.00
402.01	0.00
402.21	0.00
402.40	0.00
402.59	0.00
402.78	0.00
402.97	0.00
403.17	0.00
403.36	0.00
403.55	0.00
403.74	0.00
403.93	0.00
404.13	0.00
404.32	0.00
404.51	0.00
404.70	0.00
404.89	0.00
405.09	0.00
405.28	0.00
405.47	0.00
405.66	0.00
405.85	0.00
406.05	0.00
406.24	0.00
406.43	0.00
406.62	0.00
406.81	0.00
407.00	0.00
407.20	0.00
407.39	0.00
407.58	0.00
407.77	0.00
407.96	0.00
408.15	0.00
408.34	0.00
408.54	0.00
408.73	0.00
408.92	0.00
409.11	0.00
409.30	0.00
409.49	0.00
409.68	0.00
409.87	0.00
410.07	0.00
410.26	0.00
410.45	0.00
410.64	0.00
410.83	0.00
411.02	0.00
411.21	0.00
411.40	0.00
411.59	0.00
411.78	0.00
411.98	0.00
412.17	0.00
412.36	0.00
412.55	0.00
412.74	0.00
412.93	0.00
413.12	0.00
413.31	0.00
413.50	0.00
413.69	0.00
413.88	0.00
414.07	0.00
414.26	0.00
414.45	0.00
414.64	0.00
414.83	0.00
415.02	0.00
415.22	0.00
415.41	0.00
415.60	0.00
415.79	0.00
415.98	0.00
416.17	0.00
416.36	0.00
416.55	0.00
416.74	0.00
416.93	0.00
417.12	0.00
417.31	0.00
417.50	0.00
417.69	0.00
417.88	0.00
418.07	0.00
418.26	0.00
418.45	0.00
418.64	0.00
418.83	0.00
419.02	0.00
419.21	0.00
419.39	0.00
419.58	0.00
419.77	0.00
419.96	0.00
420.15	0.00
420.34	0.00
420.53	0.00
420.72	0.00
420.91	0.00
421.10	0.00
421.29	0.00
421.48	0.00
421.67	0.00
421.86	0.00
422.05	0.00
422.24	0.00
422.43	0.00
422.61	0.00
422.80	0.00
422.99	0.00
423.18	0.00
423.37	0.00
423.56	0.00
423.75	0.00
423.94	0.00
424.13	0.00
424.32	0.00
424.50	0.00
424.69	0.00
424.88	0.00
425.07	0.00
425.26	0.00
425.45	0.00
425.64	0.00
425.83	0.00
426.01	0.00
426.20	0.00
426.39	0.00
426.58	0.00
426.77	0.00
426.96	0.00
427.15	0.00
427.33	0.00
427.52	0.00
427.71	0.00
427.90	0.00
428.09	0.00
428.28	0.00
428.46	0.00
428.65	0.00
428.84	0.00
429.03	0.00
429.22	0.00
429.40	0.00
429.59	0.00
429.78	0.00
429.97	0.00
430.16	0.00
430.34	0.00
430.53	0.00
430.72	0.00
430.91	0.00
431.10	0.00
431.28	0.00
431.47	0.00
431.66	0.00
431.85	0.00
432.03	0.00
432.22	0.00
432.41	0.00
432.60	0.00
432.79	0.00
432.97	0.00
433.16	0.00
433.35	0.00
433.54	0.00
433.72	0.00
433.91	0.00
434.10	0.00
434.28	0.00
434.47	0.00
434.66	0.00
434.85	0.00
435.03	0.00
435.22	0.00
435.41	0.00
435.59	0.00
435.78	0.00
435.97	0.00
436.16	0.00
436.34	0.00
436.53	0.00
436.72	0.00
436.90	0.00
437.09	0.00
437.28	0.00
437.46	0.00
437.65	0.00
437.84	0.00
438.02	0.00
438.21	0.00
438.40	0.00
438.58	0.00
438.77	0.00
438.96	0.00
439.14	0.00
439.33	0.00
439.52	0.00
439.70	0.00
439.89	0.00
440.08	0.00
440.26	0.00
440.45	0.00
440.63	0.00
440.82	0.00
441.01	0.00
441.19	0.00
441.38	0.00
441.57	0.00
441.75	0.00
441.94	0.00
442.12	0.00
442.31	0.00
442.50	0.00
442.68	0.00
442.87	0.00
443.05	0.00
443.24	0.00
443.43	0.00
443.61	4.68
443.80	0.00
443.98	0.00
444.17	0.00
444.35	7.02
444.54	0.00
444.73	0.00
444.91	0.00
445.10	0.00
445.28	0.00
445.47	0.00
445.65	0.00
445.84	0.00
446.02	0.00
446.21	0.00
446.39	0.00
446.58	0.00
446.77	0.00
446.95	0.00
447.14	0.00
447.32	0.00
447.51	0.00
447.69	0.00
447.88	0.00
448.06	0.00
448.25	0.00
448.43	0.00
448.62	0.00
448.80	0.00
448.99	14.04
449.17	0.00
449.36	0.00
449.54	0.00
449.73	0.00
449.91	0.00
450.10	0.00
450.28	81.92
450.46	0.00
450.65	0.00
450.83	0.00
451.02	0.00
451.20	0.00
451.39	0.00
451.57	0.00
451.76	0.00
451.94	0.00
452.13	0.00
452.31	0.00
452.49	0.00
452.68	0.00
452.86	0.00
453.05	0.00
453.23	28.09
453.42	0.00
453.60	0.00
453.78	0.00
453.97	0.00
454.15	0.00
454.34	0.00
454.52	0.00
454.70	7.02
454.89	30.43
455.07	0.00
455.26	0.00
455.44	0.00
455.62	0.00
455.81	25.75
455.99	0.00
456.17	0.00
456.36	0.00
456.54	0.00
456.73	0.00
456.91	0.00
457.09	0.00
457.28	0.00
457.46	0.00
457.64	0.00
457.83	0.00
458.01	0.00
458.19	0.00
458.38	0.00
458.56	0.00
458.74	0.00
458.93	18.72
459.11	0.00
459.29	0.00
459.48	65.54
459.66	0.00
459.84	9.36
460.03	65.54
460.21	0.00
460.39	0.00
460.57	30.43
460.76	0.00
460.94	0.00
461.12	0.00
461.31	23.41
461.49	0.00
461.67	0.00
461.85	0.00
462.04	0.00
462.22	533.64
462.40	0.00
462.59	42.13
462.77	0.00
462.95	0.00
463.13	0.00
463.32	0.00
463.50	0.00
463.68	7.02
463.86	0.00
464.05	0.00
464.23	0.00
464.41	0.00
464.59	0.00
464.78	4.68
464.96	0.00
465.14	4.68
465.32	0.00
465.50	0.00
465.69	0.00
465.87	11.70
466.05	0.00
466.23	0.00
466.41	0.00
466.60	0.00
466.78	0.00
466.96	23.41
467.14	0.00
467.32	4.68
467.51	0.00
467.69	0.00
467.87	21.06
468.05	0.00
468.23	56.17
468.41	46.81
468.60	4.68
468.78	14.04
468.96	11.70
469.14	0.00
469.32	0.00
469.50	0.00
469.69	0.00
469.87	7.02
470.05	0.00
470.23	46.81
470.41	35.11
470.59	0.00
470.77	0.00
470.95	0.00
471.14	65.54
471.32	0.00
471.50	124.05
471.68	35.11
471.86	18.72
472.04	0.00
472.22	0.00
472.40	0.00
472.58	0.00
472.77	0.00
472.95	0.00
473.13	42.13
473.31	126.39
473.49	0.00
473.67	0.00
473.85	0.00
474.03	21.06
474.21	49.15
474.39	56.17
474.57	72.56
474.75	0.00
474.93	51.49
475.12	44.47
475.30	0.00
475.48	0.00
475.66	0.00
475.84	39.79
476.02	11.70
476.20	11.70
476.38	9.36
476.56	147.45
476.74	0.00
476.92	51.49
477.10	0.00
477.28	49.15
477.46	0.00
477.64	0.00
477.82	0.00
478.00	11.70
478.18	84.26
478.36	72.56
478.54	0.00
478.72	60.85
478.90	0.00
479.08	28.09
479.26	18.72
479.44	32.77
479.62	18.72
479.80	60.85
479.98	11.70
480.16	49.15
480.34	51.49
480.52	23.41
480.70	105.32
480.88	102.98
481.06	11.70
481.24	51.49
481.41	133.41
481.59	91.28
481.77	102.98
481.95	0.00
482.13	112.35
482.31	0.00
482.49	81.92
482.67	166.18
482.85	95.96
483.03	86.60
483.21	86.60
483.39	72.56
483.57	42.13
483.74	152.13
483.92	0.00
484.10	142.77
484.28	58.51
484.46	205.97
484.64	0.00
484.82	98.30
485.00	51.49
485.18	93.62
485.35	58.51
485.53	105.32
485.71	0.00
485.89	0.00
486.07	39.79
486.25	77.24
486.43	131.07
486.61	105.32
486.78	70.22
486.96	63.19
487.14	140.43
487.32	72.56
487.50	100.64
487.68	60.85
487.85	91.28
488.03	91.28
488.21	98.30
488.39	124.05
488.57	91.28
488.75	79.58
488.92	496.19
489.10	86.60
489.28	166.18
489.46	102.98
489.64	60.85
489.81	180.22
489.99	145.11
490.17	175.54
490.35	308.95
490.53	145.11
490.70	102.98
490.88	159.16
491.06	175.54
491.24	124.05
491.41	168.52
491.59	161.50
491.77	114.69
491.95	63.19
492.13	107.66
492.30	142.77
492.48	231.71
492.66	135.75
492.84	135.75
493.01	110.01
493.19	28.09
493.37	196.60
493.54	187.24
493.72	166.18
493.90	152.13
494.08	210.65
494.25	224.69
494.43	215.33
494.61	201.29
494.79	140.43
494.96	72.56
495.14	234.05
495.32	84.26
495.49	98.30
495.67	194.26
495.85	156.82
496.02	140.43
496.20	257.46
496.38	306.61
496.55	212.99
496.73	285.55
496.91	159.16
497.09	231.71
497.26	152.13
497.44	259.80
497.62	187.24
497.79	229.37
497.97	173.20
498.14	259.80
498.32	156.82
498.50	205.97
498.67	187.24
498.85	255.12
499.03	280.86
499.20	177.88
499.38	259.80
499.56	229.37
499.73	266.82
499.91	222.35
500.08	189.58
500.26	152.13
500.44	166.18
500.61	140.43
500.79	212.99
500.97	194.26
501.14	112.35
501.32	159.16
501.49	168.52
501.67	168.52
501.84	215.33
502.02	124.05
502.20	299.59
502.37	163.84
502.55	212.99
502.72	280.86
502.90	227.03
503.07	201.29
503.25	266.82
503.43	135.75
503.60	222.35
503.78	184.90
503.95	203.63
504.13	236.39
504.30	220.01
504.48	234.05
504.65	198.95
504.83	259.80
505.01	292.57
505.18	241.08
505.36	257.46
505.53	255.12
505.71	210.65
505.88	238.73
506.06	203.63
506.23	184.90
506.41	241.08
506.58	341.72
506.76	271.50
506.93	173.20
507.11	252.78
507.28	210.65
507.46	231.71
507.63	245.76
507.81	220.01
507.98	243.42
508.16	231.71
508.33	306.61
508.50	194.26
508.68	248.10
508.85	248.10
509.03	276.18
509.20	205.97
509.38	220.01
509.55	241.08
509.73	198.95
509.90	311.29
510.08	257.46
510.25	304.27
510.42	257.46
510.60	191.92
510.77	322.99
510.95	259.80
511.12	203.63
511.30	308.95
511.47	287.89
511.64	259.80
511.82	231.71
511.99	243.42
512.17	280.86
512.34	283.20
512.51	334.70
512.69	203.63
512.86	229.37
513.04	196.60
513.21	252.78
513.38	203.63
513.56	203.63
513.73	222.35
513.90	201.29
514.08	257.46
514.25	229.37
514.43	194.26
514.60	241.08
514.77	297.25
514.95	180.22
515.12	220.01
515.29	297.25
515.47	299.59
515.64	248.10
515.81	241.08
515.99	238.73
516.16	203.63
516.33	262.14
516.51	187.24
516.68	191.92
516.85	173.20
517.03	170.86
517.20	257.46
517.37	212.99
517.54	304.27
517.72	339.38
517.89	201.29
518.06	191.92
518.24	266.82
518.41	241.08
518.58	238.73
518.75	220.01
518.93	128.73
519.10	215.33
519.27	266.82
519.45	318.31
519.62	304.27
519.79	327.68
519.96	262.14
520.14	287.89
520.31	341.72
520.48	379.17
520.65	285.55
520.83	259.80
521.00	273.84
521.17	383.85
521.34	287.89
521.52	215.33
521.69	339.38
521.86	395.55
522.03	322.99
522.20	344.06
522.38	229.37
522.55	269.16
522.72	224.69
522.89	294.91
523.07	334.70
523.24	341.72
523.41	278.52
523.58	362.78
523.75	327.68
523.92	306.61
524.10	262.14
524.27	374.49
524.44	327.68
524.61	290.23
524.78	308.95
524.96	245.76
525.13	262.14
525.30	383.85
525.47	339.38
525.64	334.70
525.81	304.27
525.98	220.01
526.16	287.89
526.33	217.67
526.50	208.31
526.67	269.16
526.84	229.37
527.01	191.92
527.18	187.24
527.36	355.76
527.53	290.23
527.70	346.40
527.87	252.78
528.04	334.70
528.21	306.61
528.38	325.33
528.55	372.15
528.72	369.80
528.89	451.72
529.07	376.83
529.24	327.68
529.41	409.59
529.58	280.86
529.75	311.29
529.92	262.14
530.09	320.65
530.26	421.30
530.43	416.62
530.60	330.02
530.77	308.95
530.94	351.08
531.11	320.65
531.28	330.02
531.46	285.55
531.63	322.99
531.80	337.04
531.97	273.84
532.14	337.04
532.31	304.27
532.48	334.70
532.65	259.80
532.82	292.57
532.99	341.72
533.16	369.80
533.33	369.80
533.50	374.49
533.67	236.39
533.84	308.95
534.01	332.36
534.18	273.84
534.35	425.98
534.52	322.99
534.69	388.53
534.86	327.68
535.03	451.72
535.20	337.04
535.37	421.30
535.54	388.53
535.71	344.06
535.88	388.53
536.05	308.95
536.22	353.42
536.38	341.72
536.55	198.95
536.72	325.33
536.89	222.35
537.06	236.39
537.23	278.52
537.40	299.59
537.57	301.93
537.74	435.34
537.91	327.68
538.08	355.76
538.25	337.04
538.42	308.95
538.59	325.33
538.75	325.33
538.92	297.25
539.09	337.04
539.26	334.70
539.43	334.70
539.60	276.18
539.77	346.40
539.94	402.57
540.11	220.01
540.28	337.04
540.44	414.27
540.61	306.61
540.78	294.91
540.95	229.37
541.12	372.15
541.29	334.70
541.46	421.30
541.62	339.38
541.79	355.76
541.96	297.25
542.13	301.93
542.30	355.76
542.47	308.95
542.63	311.29
542.80	362.78
542.97	313.63
543.14	318.31
543.31	299.59
543.48	341.72
543.64	322.99
543.81	308.95
543.98	322.99
544.15	313.63
544.32	376.83
544.48	346.40
544.65	306.61
544.82	334.70
544.99	294.91
545.16	358.10
545.32	365.12
545.49	381.51
545.66	379.17
545.83	360.44
546.00	301.93
546.16	362.78
546.33	468.11
546.50	278.52
546.67	397.89
546.83	311.29
547.00	311.29
547.17	304.27
547.34	348.74
547.50	292.57
547.67	407.25
547.84	311.29
548.00	437.68
548.17	339.38
548.34	351.08
548.51	433.00
548.67	332.36
548.84	339.38
549.01	271.50
549.18	393.21
549.34	327.68
549.51	255.12
549.68	278.52
549.84	280.86
550.01	358.10
550.18	564.07
550.34	449.38
550.51	264.48
550.68	475.13
550.84	374.49
551.01	381.51
551.18	332.36
551.34	348.74
551.51	325.33
551.68	461.09
551.84	334.70
552.01	428.32
552.18	308.95
552.34	332.36
552.51	360.44
552.68	325.33
552.84	337.04
553.01	332.36
553.18	409.59
553.34	325.33
553.51	311.29
553.67	414.27
553.84	369.80
554.01	395.55
554.17	337.04
554.34	313.63
554.51	447.04
554.67	390.87
554.84	330.02
555.00	327.68
555.17	390.87
555.33	428.32
555.50	369.80
555.67	369.80
555.83	301.93
556.00	292.57
556.16	552.37
556.33	297.25
556.50	306.61
556.66	304.27
556.83	297.25
556.99	301.93
557.16	337.04
557.32	449.38
557.49	379.17
557.65	339.38
557.82	304.27
557.98	353.42
558.15	400.23
558.32	348.74
558.48	322.99
558.65	348.74
558.81	276.18
558.98	332.36
559.14	358.10
559.31	355.76
559.47	299.59
559.64	313.63
559.80	318.31
559.97	304.27
560.13	442.36
560.30	344.06
560.46	306.61
560.63	227.03
560.79	369.80
560.96	346.40
561.12	238.73
561.29	393.21
561.45	337.04
561.61	315.97
561.78	397.89
561.94	243.42
562.11	355.76
562.27	292.57
562.44	313.63
562.60	322.99
562.77	404.91
562.93	454.06
563.10	402.57
563.26	304.27
563.42	360.44
563.59	362.78
563.75	341.72
563.92	332.36
564.08	369.80
564.24	367.46
564.41	418.96
564.57	292.57
564.74	280.86
564.90	294.91
565.07	276.18
565.23	374.49
565.39	334.70
565.56	290.23
565.72	376.83
565.88	379.17
566.05	259.80
566.21	318.31
566.38	351.08
566.54	402.57
566.70	313.63
566.87	315.97
567.03	344.06
567.19	383.85
567.36	397.89
567.52	276.18
567.68	266.82
567.85	330.02
568.01	285.55
568.17	287.89
568.34	369.80
568.50	381.51
568.66	297.25
568.83	379.17
568.99	294.91
569.15	334.70
569.32	374.49
569.48	318.31
569.64	299.59
569.81	201.29
569.97	306.61
570.13	292.57
570.30	283.20
570.46	313.63
570.62	273.84
570.78	318.31
570.95	238.73
571.11	299.59
571.27	351.08
571.43	299.59
571.60	339.38
571.76	290.23
571.92	287.89
572.09	395.55
572.25	308.95
572.41	339.38
572.57	334.70
572.74	383.85
572.90	250.44
573.06	271.50
573.22	327.68
573.38	334.70
573.55	287.89
573.71	362.78
573.87	325.33
574.03	411.93
574.20	400.23
574.36	332.36
574.52	311.29
574.68	297.25
574.84	344.06
575.01	355.76
575.17	346.40
575.33	376.83
575.49	194.26
575.65	397.89
575.82	341.72
575.98	318.31
576.14	358.10
576.30	344.06
576.46	266.82
576.62	315.97
576.79	332.36
576.95	283.20
577.11	276.18
577.27	330.02
577.43	315.97
577.59	400.23
577.75	390.87
577.92	280.86
578.08	332.36
578.24	306.61
578.40	325.33
578.56	325.33
578.72	367.46
578.88	383.85
579.04	322.99
579.21	304.27
579.37	248.10
579.53	334.70
579.69	297.25
579.85	231.71
580.01	252.78
580.17	315.97
580.33	234.05
580.49	372.15
580.65	358.10
580.82	236.39
580.98	348.74
581.14	360.44
581.30	411.93
581.46	360.44
581.62	259.80
581.78	372.15
581.94	400.23
582.10	360.44
582.26	266.82
582.42	280.86
582.58	346.40
582.74	381.51
582.90	280.86
583.06	381.51
583.22	241.08
583.38	297.25
583.54	358.10
583.70	351.08
583.86	341.72
584.02	227.03
584.18	353.42
584.34	332.36
584.50	393.21
584.66	381.51
584.82	365.12
584.98	306.61
585.14	278.52
585.30	339.38
585.46	201.29
585.62	299.59
585.78	290.23
585.94	292.57
586.10	259.80
586.26	287.89
586.42	320.65
586.58	313.63
586.74	301.93
586.90	313.63
587.06	238.73
587.22	257.46
587.38	292.57
587.54	250.44
587.70	383.85
587.86	341.72
588.02	276.18
588.18	330.02
588.34	280.86
588.49	212.99
588.65	236.39
588.81	227.03
588.97	238.73
589.13	231.71
589.29	215.33
589.45	259.80
589.61	227.03
589.77	365.12
589.93	285.55
590.08	283.20
590.24	271.50
590.40	271.50
590.56	367.46
590.72	264.48
590.88	325.33
591.04	372.15
591.20	266.82
591.35	390.87
591.51	283.20
591.67	198.95
591.83	227.03
591.99	287.89
592.15	348.74
592.31	280.86
592.46	297.25
592.62	355.76
592.78	208.31
592.94	250.44
593.10	301.93
593.26	266.82
593.41	269.16
593.57	318.31
593.73	344.06
593.89	248.10
594.05	313.63
594.20	191.92
594.36	292.57
594.52	224.69
594.68	299.59
594.84	404.91
594.99	339.38
595.15	287.89
595.31	334.70
595.47	353.42
595.62	250.44
595.78	262.14
595.94	294.91
596.10	337.04
596.25	339.38
596.41	365.12
596.57	257.46
596.73	297.25
596.88	304.27
597.04	243.42
597.20	327.68
597.36	278.52
597.51	341.72
597.67	348.74
597.83	276.18
597.99	280.86
598.14	222.35
598.30	341.72
598.46	231.71
598.61	330.02
598.77	351.08
598.93	299.59
599.09	306.61
599.24	292.57
599.40	322.99
599.56	365.12
599.71	311.29
599.87	269.16
600.03	308.95
600.18	217.67
600.34	301.93
600.50	266.82
600.65	262.14
600.81	285.55
600.97	259.80
601.12	187.24
601.28	433.00
601.44	243.42
601.59	217.67
601.75	269.16
601.91	227.03
602.06	257.46
602.22	327.68
602.37	201.29
602.53	320.65
602.69	325.33
602.84	278.52
603.00	273.84
603.16	301.93
603.31	348.74
603.47	367.46
603.62	182.56
603.78	344.06
603.94	390.87
604.09	318.31
604.25	273.84
604.40	252.78
604.56	269.16
604.71	177.88
604.87	234.05
605.03	360.44
605.18	285.55
605.34	355.76
605.49	334.70
605.65	320.65
605.80	339.38
605.96	241.08
606.12	280.86
606.27	290.23
606.43	252.78
606.58	358.10
606.74	273.84
606.89	278.52
607.05	320.65
607.20	273.84
607.36	308.95
607.51	161.50
607.67	266.82
607.82	212.99
607.98	341.72
608.13	234.05
608.29	231.71
608.44	266.82
608.60	215.33
608.75	334.70
608.91	252.78
609.06	203.63
609.22	252.78
609.37	273.84
609.53	241.08
609.68	220.01
609.84	229.37
609.99	250.44
610.15	332.36
610.30	227.03
610.46	250.44
610.61	287.89
610.76	177.88
610.92	271.50
611.07	220.01
611.23	287.89
611.38	243.42
611.54	245.76
611.69	227.03
611.84	217.67
612.00	231.71
612.15	292.57
612.31	255.12
612.46	252.78
612.62	245.76
612.77	266.82
612.92	222.35
613.08	231.71
613.23	220.01
613.39	152.13
613.54	170.86
613.69	152.13
613.85	191.92
614.00	198.95
614.15	241.08
614.31	203.63
614.46	215.33
614.62	212.99
614.77	212.99
614.92	259.80
615.08	266.82
615.23	325.33
615.38	191.92
615.54	234.05
615.69	217.67
615.84	196.60
616.00	210.65
616.15	243.42
616.30	196.60
616.46	187.24
616.61	131.07
616.76	271.50
616.92	283.20
617.07	147.45
617.22	189.58
617.37	248.10
617.53	170.86
617.68	222.35
617.83	271.50
617.99	280.86
618.14	264.48
618.29	220.01
618.45	205.97
618.60	189.58
618.75	191.92
618.90	184.90
619.06	222.35
619.21	229.37
619.36	264.48
619.51	208.31
619.67	152.13
619.82	177.88
619.97	212.99
620.12	266.82
620.28	220.01
620.43	203.63
620.58	215.33
620.73	250.44
620.89	243.42
621.04	264.48
621.19	276.18
621.34	203.63
621.49	121.71
621.65	175.54
621.80	194.26
621.95	180.22
622.10	163.84
622.25	133.41
622.41	161.50
622.56	231.71
622.71	234.05
622.86	243.42
623.01	257.46
623.16	285.55
623.32	180.22
