SpectraSuite Data File
++++++++++++++++++++++++++++++++++++
Date: Mon Oct 07 14:59:59 GMT-05:00 2013
User: price-jones
Dark Spectrum Present: No
Reference Spectrum Present: No
Number of Sampled Component Spectra: 1
Spectrometers: USB2+H05261
Integration Time (usec): 100000 (USB2+H05261)
Spectra Averaged: 1 (USB2+H05261)
Boxcar Smoothing: 0 (USB2+H05261)
Correct for Electrical Dark: No (USB2+H05261)
Strobe/Lamp Enabled: No (USB2+H05261)
Correct for Detector Non-linearity: No (USB2+H05261)
Correct for Stray Light: No (USB2+H05261)
Number of Pixels in Processed Spectrum: 2048
>>>>>Begin Processed Spectral Data<<<<<
365.73	0.00
365.92	0.00
366.12	0.00
366.32	0.00
366.52	0.00
366.72	0.00
366.91	0.00
367.11	0.00
367.31	0.00
367.51	0.00
367.70	0.00
367.90	0.00
368.10	0.00
368.30	0.00
368.49	0.00
368.69	0.00
368.89	0.00
369.09	0.00
369.28	0.00
369.48	0.00
369.68	0.00
369.87	0.00
370.07	0.00
370.27	0.00
370.47	0.00
370.66	0.00
370.86	0.00
371.06	0.00
371.25	0.00
371.45	0.00
371.65	0.00
371.84	0.00
372.04	0.00
372.24	0.00
372.44	0.00
372.63	0.00
372.83	0.00
373.03	0.00
373.22	0.00
373.42	0.00
373.62	0.00
373.81	0.00
374.01	0.00
374.21	0.00
374.40	0.00
374.60	0.00
374.79	0.00
374.99	0.00
375.19	0.00
375.38	0.00
375.58	0.00
375.78	0.00
375.97	0.00
376.17	0.00
376.37	0.00
376.56	0.00
376.76	0.00
376.95	0.00
377.15	0.00
377.35	0.00
377.54	0.00
377.74	0.00
377.93	0.00
378.13	0.00
378.33	0.00
378.52	0.00
378.72	0.00
378.91	0.00
379.11	0.00
379.31	0.00
379.50	0.00
379.70	0.00
379.89	0.00
380.09	0.00
380.28	0.00
380.48	0.00
380.68	0.00
380.87	0.00
381.07	0.00
381.26	0.00
381.46	0.00
381.65	0.00
381.85	0.00
382.04	0.00
382.24	0.00
382.43	0.00
382.63	0.00
382.83	0.00
383.02	0.00
383.22	0.00
383.41	0.00
383.61	0.00
383.80	0.00
384.00	0.00
384.19	0.00
384.39	0.00
384.58	0.00
384.78	0.00
384.97	0.00
385.17	0.00
385.36	0.00
385.56	0.00
385.75	0.00
385.95	0.00
386.14	0.00
386.34	0.00
386.53	0.00
386.72	0.00
386.92	0.00
387.11	0.00
387.31	0.00
387.50	0.00
387.70	0.00
387.89	0.00
388.09	0.00
388.28	0.00
388.48	0.00
388.67	0.00
388.86	0.00
389.06	0.00
389.25	0.00
389.45	0.00
389.64	0.00
389.84	0.00
390.03	0.00
390.22	0.00
390.42	0.00
390.61	0.00
390.81	0.00
391.00	0.00
391.19	0.00
391.39	0.00
391.58	0.00
391.78	0.00
391.97	0.00
392.16	0.00
392.36	0.00
392.55	0.00
392.75	0.00
392.94	0.00
393.13	0.00
393.33	0.00
393.52	0.00
393.71	0.00
393.91	0.00
394.10	0.00
394.29	0.00
394.49	0.00
394.68	0.00
394.88	0.00
395.07	0.00
395.26	0.00
395.46	0.00
395.65	0.00
395.84	0.00
396.04	0.00
396.23	0.00
396.42	0.00
396.62	0.00
396.81	0.00
397.00	0.00
397.19	0.00
397.39	0.00
397.58	0.00
397.77	0.00
397.97	0.00
398.16	0.00
398.35	0.00
398.55	0.00
398.74	0.00
398.93	0.00
399.12	0.00
399.32	0.00
399.51	0.00
399.70	0.00
399.90	0.00
400.09	0.00
400.28	0.00
400.47	0.00
400.67	0.00
400.86	0.00
401.05	0.00
401.24	0.00
401.44	0.00
401.63	0.00
401.82	0.00
402.01	0.00
402.21	0.00
402.40	0.00
402.59	0.00
402.78	0.00
402.97	0.00
403.17	0.00
403.36	0.00
403.55	0.00
403.74	0.00
403.93	0.00
404.13	0.00
404.32	0.00
404.51	0.00
404.70	0.00
404.89	0.00
405.09	0.00
405.28	0.00
405.47	0.00
405.66	0.00
405.85	0.00
406.05	0.00
406.24	0.00
406.43	0.00
406.62	0.00
406.81	0.00
407.00	0.00
407.20	0.00
407.39	0.00
407.58	0.00
407.77	0.00
407.96	0.00
408.15	0.00
408.34	0.00
408.54	0.00
408.73	0.00
408.92	0.00
409.11	0.00
409.30	0.00
409.49	0.00
409.68	0.00
409.87	0.00
410.07	0.00
410.26	0.00
410.45	0.00
410.64	0.00
410.83	0.00
411.02	0.00
411.21	0.00
411.40	0.00
411.59	0.00
411.78	0.00
411.98	0.00
412.17	0.00
412.36	0.00
412.55	0.00
412.74	0.00
412.93	0.00
413.12	0.00
413.31	0.00
413.50	0.00
413.69	0.00
413.88	0.00
414.07	0.00
414.26	0.00
414.45	0.00
414.64	0.00
414.83	0.00
415.02	0.00
415.22	0.00
415.41	0.00
415.60	0.00
415.79	0.00
415.98	0.00
416.17	0.00
416.36	0.00
416.55	0.00
416.74	0.00
416.93	0.00
417.12	0.00
417.31	0.00
417.50	0.00
417.69	0.00
417.88	0.00
418.07	0.00
418.26	0.00
418.45	0.00
418.64	0.00
418.83	0.00
419.02	0.00
419.21	0.00
419.39	0.00
419.58	0.00
419.77	0.00
419.96	0.00
420.15	0.00
420.34	0.00
420.53	0.00
420.72	0.00
420.91	0.00
421.10	0.00
421.29	0.00
421.48	0.00
421.67	0.00
421.86	0.00
422.05	0.00
422.24	0.00
422.43	0.00
422.61	0.00
422.80	0.00
422.99	0.00
423.18	0.00
423.37	0.00
423.56	0.00
423.75	0.00
423.94	0.00
424.13	0.00
424.32	0.00
424.50	0.00
424.69	0.00
424.88	0.00
425.07	0.00
425.26	0.00
425.45	0.00
425.64	0.00
425.83	0.00
426.01	0.00
426.20	0.00
426.39	0.00
426.58	0.00
426.77	0.00
426.96	0.00
427.15	0.00
427.33	0.00
427.52	0.00
427.71	0.00
427.90	0.00
428.09	0.00
428.28	0.00
428.46	0.00
428.65	0.00
428.84	0.00
429.03	0.00
429.22	0.00
429.40	0.00
429.59	0.00
429.78	0.00
429.97	0.00
430.16	0.00
430.34	0.00
430.53	0.00
430.72	0.00
430.91	0.00
431.10	0.00
431.28	0.00
431.47	0.00
431.66	0.00
431.85	0.00
432.03	0.00
432.22	0.00
432.41	0.00
432.60	0.00
432.79	0.00
432.97	0.00
433.16	0.00
433.35	0.00
433.54	0.00
433.72	0.00
433.91	0.00
434.10	0.00
434.28	0.00
434.47	0.00
434.66	0.00
434.85	0.00
435.03	0.00
435.22	0.00
435.41	0.00
435.59	0.00
435.78	0.00
435.97	0.00
436.16	0.00
436.34	0.00
436.53	0.00
436.72	0.00
436.90	0.00
437.09	0.00
437.28	0.00
437.46	0.00
437.65	0.00
437.84	0.00
438.02	0.00
438.21	0.00
438.40	0.00
438.58	0.00
438.77	0.00
438.96	0.00
439.14	0.00
439.33	0.00
439.52	0.00
439.70	0.00
439.89	0.00
440.08	0.00
440.26	0.00
440.45	0.00
440.63	0.00
440.82	0.00
441.01	0.00
441.19	0.00
441.38	0.00
441.57	0.00
441.75	0.00
441.94	0.00
442.12	0.00
442.31	0.00
442.50	0.00
442.68	23.41
442.87	0.00
443.05	0.00
443.24	0.00
443.43	0.00
443.61	0.00
443.80	0.00
443.98	0.00
444.17	0.00
444.35	0.00
444.54	0.00
444.73	0.00
444.91	0.00
445.10	0.00
445.28	0.00
445.47	0.00
445.65	0.00
445.84	0.00
446.02	0.00
446.21	0.00
446.39	0.00
446.58	0.00
446.77	0.00
446.95	0.00
447.14	0.00
447.32	0.00
447.51	0.00
447.69	0.00
447.88	25.75
448.06	0.00
448.25	0.00
448.43	0.00
448.62	0.00
448.80	2.34
448.99	0.00
449.17	0.00
449.36	0.00
449.54	0.00
449.73	0.00
449.91	0.00
450.10	0.00
450.28	42.13
450.46	93.62
450.65	0.00
450.83	0.00
451.02	0.00
451.20	0.00
451.39	0.00
451.57	0.00
451.76	0.00
451.94	0.00
452.13	0.00
452.31	0.00
452.49	0.00
452.68	0.00
452.86	0.00
453.05	0.00
453.23	0.00
453.42	0.00
453.60	0.00
453.78	0.00
453.97	0.00
454.15	0.00
454.34	23.41
454.52	0.00
454.70	0.00
454.89	0.00
455.07	0.00
455.26	0.00
455.44	0.00
455.62	0.00
455.81	0.00
455.99	0.00
456.17	0.00
456.36	0.00
456.54	0.00
456.73	0.00
456.91	0.00
457.09	4.68
457.28	0.00
457.46	0.00
457.64	0.00
457.83	0.00
458.01	0.00
458.19	0.00
458.38	0.00
458.56	9.36
458.74	0.00
458.93	32.77
459.11	0.00
459.29	0.00
459.48	18.72
459.66	9.36
459.84	35.11
460.03	168.52
460.21	0.00
460.39	0.00
460.57	51.49
460.76	0.00
460.94	0.00
461.12	14.04
461.31	51.49
461.49	25.75
461.67	0.00
461.85	0.00
462.04	0.00
462.22	610.88
462.40	49.15
462.59	42.13
462.77	0.00
462.95	0.00
463.13	0.00
463.32	4.68
463.50	0.00
463.68	72.56
463.86	0.00
464.05	4.68
464.23	0.00
464.41	28.09
464.59	0.00
464.78	0.00
464.96	0.00
465.14	23.41
465.32	4.68
465.50	0.00
465.69	0.00
465.87	4.68
466.05	0.00
466.23	0.00
466.41	16.38
466.60	0.00
466.78	0.00
466.96	0.00
467.14	0.00
467.32	0.00
467.51	0.00
467.69	0.00
467.87	51.49
468.05	0.00
468.23	23.41
468.41	0.00
468.60	0.00
468.78	0.00
468.96	0.00
469.14	0.00
469.32	0.00
469.50	0.00
469.69	0.00
469.87	7.02
470.05	0.00
470.23	0.00
470.41	0.00
470.59	0.00
470.77	0.00
470.95	0.00
471.14	0.00
471.32	0.00
471.50	18.72
471.68	0.00
471.86	30.43
472.04	0.00
472.22	0.00
472.40	0.00
472.58	0.00
472.77	0.00
472.95	0.00
473.13	25.75
473.31	51.49
473.49	0.00
473.67	0.00
473.85	0.00
474.03	0.00
474.21	0.00
474.39	2.34
474.57	4.68
474.75	58.51
474.93	0.00
475.12	42.13
475.30	0.00
475.48	39.79
475.66	11.70
475.84	0.00
476.02	14.04
476.20	0.00
476.38	0.00
476.56	201.29
476.74	0.00
476.92	70.22
477.10	7.02
477.28	81.92
477.46	77.24
477.64	63.19
477.82	11.70
478.00	4.68
478.18	49.15
478.36	23.41
478.54	44.47
478.72	0.00
478.90	0.00
479.08	0.00
479.26	79.58
479.44	0.00
479.62	0.00
479.80	46.81
479.98	51.49
480.16	21.06
480.34	21.06
480.52	79.58
480.70	107.66
480.88	44.47
481.06	2.34
481.24	0.00
481.41	4.68
481.59	93.62
481.77	0.00
481.95	65.54
482.13	95.96
482.31	51.49
482.49	16.38
482.67	84.26
482.85	100.64
483.03	51.49
483.21	4.68
483.39	51.49
483.57	21.06
483.74	102.98
483.92	30.43
484.10	53.83
484.28	95.96
484.46	77.24
484.64	23.41
484.82	16.38
485.00	79.58
485.18	0.00
485.35	0.00
485.53	25.75
485.71	84.26
485.89	0.00
486.07	11.70
486.25	58.51
486.43	51.49
486.61	91.28
486.78	42.13
486.96	56.17
487.14	67.88
487.32	51.49
487.50	65.54
487.68	88.94
487.85	39.79
488.03	86.60
488.21	149.79
488.39	32.77
488.57	79.58
488.75	93.62
488.92	425.98
489.10	107.66
489.28	184.90
489.46	117.03
489.64	203.63
489.81	138.09
489.99	128.73
490.17	135.75
490.35	187.24
490.53	58.51
490.70	121.71
490.88	203.63
491.06	117.03
491.24	182.56
491.41	173.20
491.59	28.09
491.77	65.54
491.95	102.98
492.13	126.39
492.30	133.41
492.48	187.24
492.66	198.95
492.84	70.22
493.01	159.16
493.19	177.88
493.37	170.86
493.54	173.20
493.72	241.08
493.90	173.20
494.08	170.86
494.25	124.05
494.43	262.14
494.61	149.79
494.79	121.71
494.96	142.77
495.14	156.82
495.32	135.75
495.49	114.69
495.67	112.35
495.85	161.50
496.02	135.75
496.20	170.86
496.38	229.37
496.55	88.94
496.73	156.82
496.91	187.24
497.09	175.54
497.26	224.69
497.44	217.67
497.62	161.50
497.79	208.31
497.97	142.77
498.14	135.75
498.32	241.08
498.50	266.82
498.67	205.97
498.85	280.86
499.03	220.01
499.20	138.09
499.38	217.67
499.56	227.03
499.73	280.86
499.91	224.69
500.08	201.29
500.26	205.97
500.44	191.92
500.61	191.92
500.79	175.54
500.97	187.24
501.14	177.88
501.32	131.07
501.49	184.90
501.67	163.84
501.84	245.76
502.02	170.86
502.20	266.82
502.37	177.88
502.55	252.78
502.72	220.01
502.90	196.60
503.07	278.52
503.25	255.12
503.43	177.88
503.60	133.41
503.78	217.67
503.95	266.82
504.13	276.18
504.30	187.24
504.48	241.08
504.65	215.33
504.83	283.20
505.01	180.22
505.18	220.01
505.36	264.48
505.53	238.73
505.71	308.95
505.88	290.23
506.06	194.26
506.23	205.97
506.41	278.52
506.58	215.33
506.76	264.48
506.93	241.08
507.11	201.29
507.28	271.50
507.46	259.80
507.63	217.67
507.81	168.52
507.98	201.29
508.16	212.99
508.33	224.69
508.50	259.80
508.68	222.35
508.85	259.80
509.03	262.14
509.20	203.63
509.38	198.95
509.55	224.69
509.73	255.12
509.90	297.25
510.08	198.95
510.25	222.35
510.42	222.35
510.60	191.92
510.77	238.73
510.95	257.46
511.12	201.29
511.30	337.04
511.47	194.26
511.64	397.89
511.82	241.08
511.99	276.18
512.17	238.73
512.34	215.33
512.51	149.79
512.69	259.80
512.86	217.67
513.04	196.60
513.21	198.95
513.38	285.55
513.56	173.20
513.73	227.03
513.90	208.31
514.08	238.73
514.25	287.89
514.43	234.05
514.60	220.01
514.77	201.29
514.95	243.42
515.12	117.03
515.29	299.59
515.47	315.97
515.64	236.39
515.81	259.80
515.99	283.20
516.16	297.25
516.33	194.26
516.51	98.30
516.68	196.60
516.85	117.03
517.03	159.16
517.20	252.78
517.37	299.59
517.54	346.40
517.72	173.20
517.89	173.20
518.06	147.45
518.24	325.33
518.41	287.89
518.58	325.33
518.75	259.80
518.93	318.31
519.10	294.91
519.27	245.76
519.45	187.24
519.62	273.84
519.79	215.33
519.96	236.39
520.14	220.01
520.31	304.27
520.48	208.31
520.65	344.06
520.83	227.03
521.00	264.48
521.17	318.31
521.34	318.31
521.52	234.05
521.69	311.29
521.86	301.93
522.03	304.27
522.20	332.36
522.38	325.33
522.55	198.95
522.72	217.67
522.89	217.67
523.07	428.32
523.24	276.18
523.41	299.59
523.58	299.59
523.75	330.02
523.92	271.50
524.10	248.10
524.27	332.36
524.44	297.25
524.61	301.93
524.78	294.91
524.96	283.20
525.13	353.42
525.30	383.85
525.47	337.04
525.64	220.01
525.81	353.42
525.98	325.33
526.16	248.10
526.33	257.46
526.50	121.71
526.67	152.13
526.84	311.29
527.01	224.69
527.18	287.89
527.36	161.50
527.53	280.86
527.70	390.87
527.87	252.78
528.04	355.76
528.21	278.52
528.38	212.99
528.55	257.46
528.72	376.83
528.89	407.25
529.07	229.37
529.24	297.25
529.41	430.66
529.58	304.27
529.75	283.20
529.92	341.72
530.09	306.61
530.26	369.80
530.43	332.36
530.60	330.02
530.77	287.89
530.94	407.25
531.11	322.99
531.28	255.12
531.46	271.50
531.63	227.03
531.80	365.12
531.97	327.68
532.14	311.29
532.31	287.89
532.48	248.10
532.65	273.84
532.82	327.68
532.99	351.08
533.16	311.29
533.33	332.36
533.50	278.52
533.67	266.82
533.84	367.46
534.01	348.74
534.18	339.38
534.35	311.29
534.52	271.50
534.69	325.33
534.86	313.63
535.03	292.57
535.20	290.23
535.37	397.89
535.54	402.57
535.71	388.53
535.88	360.44
536.05	255.12
536.22	297.25
536.38	234.05
536.55	280.86
536.72	339.38
536.89	252.78
537.06	318.31
537.23	360.44
537.40	369.80
537.57	301.93
537.74	390.87
537.91	250.44
538.08	327.68
538.25	287.89
538.42	266.82
538.59	278.52
538.75	306.61
538.92	311.29
539.09	397.89
539.26	290.23
539.43	360.44
539.60	325.33
539.77	297.25
539.94	344.06
540.11	257.46
540.28	238.73
540.44	334.70
540.61	287.89
540.78	262.14
540.95	236.39
541.12	344.06
541.29	351.08
541.46	395.55
541.62	376.83
541.79	308.95
541.96	379.17
542.13	325.33
542.30	257.46
542.47	227.03
542.63	346.40
542.80	346.40
542.97	348.74
543.14	381.51
543.31	337.04
543.48	367.46
543.64	379.17
543.81	325.33
543.98	341.72
544.15	393.21
544.32	313.63
544.48	353.42
544.65	351.08
544.82	393.21
544.99	423.64
545.16	280.86
545.32	325.33
545.49	362.78
545.66	337.04
545.83	365.12
546.00	294.91
546.16	266.82
546.33	397.89
546.50	386.19
546.67	414.27
546.83	285.55
547.00	365.12
547.17	315.97
547.34	273.84
547.50	311.29
547.67	365.12
547.84	308.95
548.00	355.76
548.17	283.20
548.34	395.55
548.51	344.06
548.67	411.93
548.84	252.78
549.01	285.55
549.18	322.99
549.34	332.36
549.51	318.31
549.68	344.06
549.84	386.19
550.01	283.20
550.18	543.00
550.34	360.44
550.51	304.27
550.68	379.17
550.84	304.27
551.01	287.89
551.18	348.74
551.34	332.36
551.51	337.04
551.68	292.57
551.84	344.06
552.01	360.44
552.18	273.84
552.34	308.95
552.51	255.12
552.68	383.85
552.84	262.14
553.01	332.36
553.18	411.93
553.34	348.74
553.51	325.33
553.67	351.08
553.84	393.21
554.01	315.97
554.17	337.04
554.34	325.33
554.51	430.66
554.67	500.87
554.84	390.87
555.00	374.49
555.17	301.93
555.33	456.40
555.50	313.63
555.67	374.49
555.83	341.72
556.00	306.61
556.16	561.73
556.33	355.76
556.50	337.04
556.66	315.97
556.83	348.74
556.99	320.65
557.16	280.86
557.32	276.18
557.49	400.23
557.65	255.12
557.82	341.72
557.98	283.20
558.15	353.42
558.32	355.76
558.48	308.95
558.65	276.18
558.81	327.68
558.98	273.84
559.14	379.17
559.31	325.33
559.47	383.85
559.64	304.27
559.80	386.19
559.97	311.29
560.13	297.25
560.30	351.08
560.46	308.95
560.63	332.36
560.79	332.36
560.96	362.78
561.12	433.00
561.29	264.48
561.45	388.53
561.61	250.44
561.78	416.62
561.94	308.95
562.11	346.40
562.27	325.33
562.44	313.63
562.60	313.63
562.77	339.38
562.93	383.85
563.10	304.27
563.26	351.08
563.42	294.91
563.59	311.29
563.75	325.33
563.92	351.08
564.08	318.31
564.24	330.02
564.41	334.70
564.57	327.68
564.74	318.31
564.90	297.25
565.07	301.93
565.23	322.99
565.39	306.61
565.56	266.82
565.72	362.78
565.88	294.91
566.05	369.80
566.21	271.50
566.38	318.31
566.54	355.76
566.70	273.84
566.87	287.89
567.03	276.18
567.19	304.27
567.36	381.51
567.52	337.04
567.68	461.09
567.85	358.10
568.01	271.50
568.17	369.80
568.34	351.08
568.50	353.42
568.66	287.89
568.83	442.36
568.99	351.08
569.15	304.27
569.32	278.52
569.48	355.76
569.64	243.42
569.81	308.95
569.97	269.16
570.13	388.53
570.30	287.89
570.46	231.71
570.62	292.57
570.78	348.74
570.95	313.63
571.11	402.57
571.27	388.53
571.43	290.23
571.60	379.17
571.76	374.49
571.92	245.76
572.09	276.18
572.25	264.48
572.41	290.23
572.57	442.36
572.74	407.25
572.90	292.57
573.06	362.78
573.22	341.72
573.38	322.99
573.55	360.44
573.71	374.49
573.87	337.04
574.03	257.46
574.20	330.02
574.36	374.49
574.52	304.27
574.68	322.99
574.84	351.08
575.01	320.65
575.17	297.25
575.33	308.95
575.49	379.17
575.65	325.33
575.82	283.20
575.98	308.95
576.14	304.27
576.30	278.52
576.46	297.25
576.62	276.18
576.79	266.82
576.95	367.46
577.11	220.01
577.27	351.08
577.43	325.33
577.59	355.76
577.75	205.97
577.92	339.38
578.08	320.65
578.24	294.91
578.40	376.83
578.56	266.82
578.72	271.50
578.88	388.53
579.04	250.44
579.21	325.33
579.37	376.83
579.53	224.69
579.69	322.99
579.85	276.18
580.01	318.31
580.17	304.27
580.33	344.06
580.49	285.55
580.65	365.12
580.82	290.23
580.98	280.86
581.14	283.20
581.30	280.86
581.46	330.02
581.62	395.55
581.78	358.10
581.94	325.33
582.10	320.65
582.26	365.12
582.42	337.04
582.58	306.61
582.74	313.63
582.90	276.18
583.06	269.16
583.22	327.68
583.38	292.57
583.54	299.59
583.70	344.06
583.86	369.80
584.02	297.25
584.18	337.04
584.34	308.95
584.50	285.55
584.66	393.21
584.82	283.20
584.98	311.29
585.14	304.27
585.30	313.63
585.46	360.44
585.62	362.78
585.78	278.52
585.94	322.99
586.10	262.14
586.26	315.97
586.42	369.80
586.58	360.44
586.74	299.59
586.90	276.18
587.06	294.91
587.22	318.31
587.38	252.78
587.54	318.31
587.70	311.29
587.86	327.68
588.02	337.04
588.18	308.95
588.34	271.50
588.49	212.99
588.65	215.33
588.81	184.90
588.97	112.35
589.13	262.14
589.29	285.55
589.45	311.29
589.61	292.57
589.77	273.84
589.93	250.44
590.08	229.37
590.24	227.03
590.40	344.06
590.56	341.72
590.72	292.57
590.88	292.57
591.04	208.31
591.20	297.25
591.35	372.15
591.51	271.50
591.67	311.29
591.83	241.08
591.99	283.20
592.15	306.61
592.31	234.05
592.46	269.16
592.62	315.97
592.78	257.46
592.94	234.05
593.10	243.42
593.26	269.16
593.41	337.04
593.57	287.89
593.73	271.50
593.89	217.67
594.05	238.73
594.20	287.89
594.36	222.35
594.52	283.20
594.68	273.84
594.84	245.76
594.99	341.72
595.15	334.70
595.31	297.25
595.47	299.59
595.62	212.99
595.78	320.65
595.94	358.10
596.10	327.68
596.25	379.17
596.41	294.91
596.57	250.44
596.73	255.12
596.88	299.59
597.04	259.80
597.20	241.08
597.36	297.25
597.51	283.20
597.67	315.97
597.83	231.71
597.99	257.46
598.14	208.31
598.30	348.74
598.46	264.48
598.61	236.39
598.77	250.44
598.93	203.63
599.09	269.16
599.24	283.20
599.40	332.36
599.56	355.76
599.71	259.80
599.87	224.69
600.03	264.48
600.18	346.40
600.34	262.14
600.50	236.39
600.65	175.54
600.81	294.91
600.97	278.52
601.12	322.99
601.28	344.06
601.44	273.84
601.59	245.76
601.75	306.61
601.91	203.63
602.06	217.67
602.22	325.33
602.37	227.03
602.53	184.90
602.69	231.71
602.84	280.86
603.00	315.97
603.16	290.23
603.31	367.46
603.47	273.84
603.62	250.44
603.78	304.27
603.94	365.12
604.09	201.29
604.25	306.61
604.40	259.80
604.56	313.63
604.71	259.80
604.87	238.73
605.03	245.76
605.18	311.29
605.34	348.74
605.49	315.97
605.65	299.59
605.80	262.14
605.96	299.59
606.12	297.25
606.27	259.80
606.43	308.95
606.58	264.48
606.74	255.12
606.89	203.63
607.05	269.16
607.20	252.78
607.36	285.55
607.51	245.76
607.67	273.84
607.82	236.39
607.98	313.63
608.13	227.03
608.29	194.26
608.44	315.97
608.60	252.78
608.75	348.74
608.91	355.76
609.06	252.78
609.22	301.93
609.37	285.55
609.53	311.29
609.68	276.18
609.84	191.92
609.99	196.60
610.15	187.24
610.30	280.86
610.46	264.48
610.61	205.97
610.76	250.44
610.92	236.39
611.07	250.44
611.23	308.95
611.38	198.95
611.54	243.42
611.69	241.08
611.84	182.56
612.00	222.35
612.15	262.14
612.31	156.82
612.46	280.86
612.62	208.31
612.77	276.18
612.92	227.03
613.08	330.02
613.23	210.65
613.39	231.71
613.54	159.16
613.69	154.48
613.85	220.01
614.00	262.14
614.15	243.42
614.31	231.71
614.46	334.70
614.62	280.86
614.77	203.63
614.92	283.20
615.08	227.03
615.23	215.33
615.38	245.76
615.54	175.54
615.69	252.78
615.84	198.95
616.00	257.46
616.15	140.43
616.30	217.67
616.46	196.60
616.61	161.50
616.76	280.86
616.92	210.65
617.07	177.88
617.22	271.50
617.37	161.50
617.53	217.67
617.68	236.39
617.83	238.73
617.99	238.73
618.14	196.60
618.29	201.29
618.45	234.05
618.60	241.08
618.75	210.65
618.90	189.58
619.06	292.57
619.21	222.35
619.36	304.27
619.51	236.39
619.67	198.95
619.82	208.31
619.97	234.05
620.12	159.16
620.28	208.31
620.43	156.82
620.58	170.86
620.73	250.44
620.89	271.50
621.04	311.29
621.19	264.48
621.34	215.33
621.49	126.39
621.65	187.24
621.80	140.43
621.95	114.69
622.10	210.65
622.25	184.90
622.41	182.56
622.56	205.97
622.71	266.82
622.86	224.69
623.01	142.77
623.16	273.84
623.32	168.52
623.47	191.92
