SpectraSuite Data File
++++++++++++++++++++++++++++++++++++
Date: Mon Oct 07 15:00:23 GMT-05:00 2013
User: price-jones
Dark Spectrum Present: No
Reference Spectrum Present: No
Number of Sampled Component Spectra: 1
Spectrometers: USB2+H05261
Integration Time (usec): 1000000 (USB2+H05261)
Spectra Averaged: 1 (USB2+H05261)
Boxcar Smoothing: 0 (USB2+H05261)
Correct for Electrical Dark: No (USB2+H05261)
Strobe/Lamp Enabled: No (USB2+H05261)
Correct for Detector Non-linearity: No (USB2+H05261)
Correct for Stray Light: No (USB2+H05261)
Number of Pixels in Processed Spectrum: 2048
>>>>>Begin Processed Spectral Data<<<<<
365.73	0.00
365.92	0.00
366.12	0.00
366.32	0.00
366.52	0.00
366.72	88.94
366.91	0.00
367.11	84.26
367.31	105.32
367.51	215.33
367.70	194.26
367.90	400.23
368.10	266.82
368.30	182.56
368.49	0.00
368.69	374.49
368.89	126.39
369.09	0.00
369.28	102.98
369.48	0.00
369.68	70.22
369.87	224.69
370.07	86.60
370.27	538.32
370.47	229.37
370.66	138.09
370.86	344.06
371.06	704.50
371.25	842.59
371.45	266.82
371.65	592.16
371.84	140.43
372.04	131.07
372.24	292.57
372.44	252.78
372.63	477.47
372.83	863.66
373.03	313.63
373.22	177.88
373.42	224.69
373.62	294.91
373.81	468.11
374.01	669.39
374.21	634.29
374.40	351.08
374.60	662.37
374.79	355.76
374.99	313.63
375.19	367.46
375.38	442.36
375.58	393.21
375.78	587.47
375.97	531.30
376.17	1043.88
376.37	297.25
376.56	456.40
376.76	212.99
376.95	322.99
377.15	472.79
377.35	421.30
377.54	524.28
377.74	212.99
377.93	189.58
378.13	397.89
378.33	554.71
378.52	367.46
378.72	622.58
378.91	622.58
379.11	355.76
379.31	269.16
379.50	163.84
379.70	681.10
379.89	650.67
380.09	311.29
380.28	152.13
380.48	294.91
380.68	163.84
380.87	51.49
381.07	393.21
381.26	676.41
381.46	51.49
381.65	547.69
381.85	290.23
382.04	568.75
382.24	512.58
382.43	383.85
382.63	142.77
382.83	285.55
383.02	594.50
383.22	741.95
383.41	222.35
383.61	444.70
383.80	713.86
384.00	376.83
384.19	229.37
384.39	440.02
384.58	201.29
384.78	477.47
384.97	416.62
385.17	348.74
385.36	271.50
385.56	720.88
385.75	168.52
385.95	304.27
386.14	559.39
386.34	306.61
386.53	447.04
386.72	234.05
386.92	732.59
387.11	372.15
387.31	414.27
387.50	231.71
387.70	227.03
387.89	390.87
388.09	182.56
388.28	180.22
388.48	147.45
388.67	573.43
388.86	287.89
389.06	339.38
389.25	409.59
389.45	425.98
389.64	369.80
389.84	601.52
390.03	449.38
390.22	425.98
390.42	337.04
390.61	215.33
390.81	152.13
391.00	337.04
391.19	660.03
391.39	433.00
391.58	514.92
391.78	402.57
391.97	435.34
392.16	140.43
392.36	777.06
392.55	667.05
392.75	320.65
392.94	290.23
393.13	594.50
393.33	140.43
393.52	334.70
393.71	760.67
393.91	388.53
394.10	147.45
394.29	250.44
394.49	266.82
394.68	447.04
394.88	674.07
395.07	617.90
395.26	383.85
395.46	397.89
395.65	608.54
395.84	606.20
396.04	1193.67
396.23	442.36
396.42	269.16
396.62	421.30
396.81	484.49
397.00	390.87
397.19	461.09
397.39	332.36
397.58	746.63
397.77	276.18
397.97	362.78
398.16	423.64
398.35	540.66
398.55	273.84
398.74	482.15
398.93	657.69
399.12	383.85
399.32	554.71
399.51	337.04
399.70	575.77
399.90	568.75
400.09	505.56
400.28	678.76
400.47	423.64
400.67	636.63
400.86	423.64
401.05	615.56
401.24	692.80
401.44	622.58
401.63	622.58
401.82	690.46
402.01	269.16
402.21	629.60
402.40	528.96
402.59	353.42
402.78	332.36
402.97	365.12
403.17	395.55
403.36	510.24
403.55	409.59
403.74	393.21
403.93	404.91
404.13	741.95
404.32	351.08
404.51	351.08
404.70	603.86
404.89	355.76
405.09	966.64
405.28	404.91
405.47	318.31
405.66	580.45
405.85	739.61
406.05	465.77
406.24	395.55
406.43	533.64
406.62	538.32
406.81	1071.97
407.00	767.70
407.20	507.90
407.39	425.98
407.58	365.12
407.77	596.84
407.96	858.98
408.15	669.39
408.34	629.60
408.54	643.65
408.73	578.11
408.92	477.47
409.11	751.31
409.30	718.54
409.49	320.65
409.68	390.87
409.87	498.53
410.07	325.33
410.26	517.26
410.45	465.77
410.64	400.23
410.83	477.47
411.02	486.83
411.21	603.86
411.40	725.57
411.59	479.81
411.78	374.49
411.98	442.36
412.17	313.63
412.36	381.51
412.55	428.32
412.74	704.50
412.93	1029.84
413.12	330.02
413.31	739.61
413.50	594.50
413.69	500.87
413.88	936.21
414.07	589.82
414.26	613.22
414.45	360.44
414.64	547.69
414.83	636.63
415.02	603.86
415.22	648.33
415.41	812.17
415.60	507.90
415.79	498.53
415.98	922.17
416.17	582.79
416.36	503.22
416.55	386.19
416.74	744.29
416.93	734.93
417.12	514.92
417.31	538.32
417.50	535.98
417.69	1041.54
417.88	566.41
418.07	308.95
418.26	433.00
418.45	479.81
418.64	884.72
418.83	688.12
419.02	610.88
419.21	575.77
419.39	629.60
419.58	423.64
419.77	433.00
419.96	688.12
420.15	1050.90
420.34	559.39
420.53	678.76
420.72	779.40
420.91	582.79
421.10	615.56
421.29	657.69
421.48	674.07
421.67	816.85
421.86	449.38
422.05	557.05
422.24	491.51
422.43	669.39
422.61	454.06
422.80	514.92
422.99	531.30
423.18	477.47
423.37	945.58
423.56	669.39
423.75	718.54
423.94	369.80
424.13	510.24
424.32	360.44
424.50	491.51
424.69	557.05
424.88	877.70
425.07	510.24
425.26	613.22
425.45	671.73
425.64	468.11
425.83	461.09
426.01	901.11
426.20	685.78
426.39	465.77
426.58	533.64
426.77	751.31
426.96	791.10
427.15	718.54
427.33	461.09
427.52	624.92
427.71	561.73
427.90	599.18
428.09	528.96
428.28	442.36
428.46	470.45
428.65	763.01
428.84	369.80
429.03	947.92
429.22	561.73
429.40	404.91
429.59	407.25
429.78	798.12
429.97	475.13
430.16	454.06
430.34	535.98
430.53	353.42
430.72	451.72
430.91	798.12
431.10	362.78
431.28	540.66
431.47	814.51
431.66	690.46
431.85	442.36
432.03	587.47
432.22	1259.21
432.41	620.24
432.60	929.19
432.79	468.11
432.97	657.69
433.16	538.32
433.35	454.06
433.54	447.04
433.72	711.52
433.91	763.01
434.10	599.18
434.28	608.54
434.47	575.77
434.66	833.23
434.85	486.83
435.03	645.99
435.22	1100.05
435.41	1306.02
435.59	819.19
435.78	788.76
435.97	573.43
436.16	912.81
436.34	685.78
436.53	617.90
436.72	910.47
436.90	786.42
437.09	798.12
437.28	631.94
437.46	561.73
437.65	830.89
437.84	748.97
438.02	718.54
438.21	786.42
438.40	519.60
438.58	383.85
438.77	713.86
438.96	655.35
439.14	433.00
439.33	908.13
439.52	624.92
439.70	578.11
439.89	819.19
440.08	671.73
440.26	615.56
440.45	1118.78
440.63	866.00
440.82	720.88
441.01	725.57
441.19	676.41
441.38	617.90
441.57	706.84
441.75	980.68
441.94	1111.75
442.12	676.41
442.31	617.90
442.50	697.48
442.68	655.35
442.87	685.78
443.05	599.18
443.24	812.17
443.43	961.96
443.61	1114.10
443.80	777.06
443.98	650.67
444.17	748.97
444.35	1025.15
444.54	798.12
444.73	599.18
444.91	973.66
445.10	543.00
445.28	587.47
445.47	774.72
445.65	716.20
445.84	596.84
446.02	772.38
446.21	704.50
446.39	608.54
446.58	842.59
446.77	695.14
446.95	606.20
447.14	821.53
447.32	1151.54
447.51	786.42
447.69	760.67
447.88	809.83
448.06	1151.54
448.25	870.68
448.43	594.50
448.62	575.77
448.80	793.44
448.99	1090.69
449.17	664.71
449.36	667.05
449.54	1041.54
449.73	657.69
449.91	903.45
450.10	725.57
450.28	1479.22
450.46	1409.00
450.65	1151.54
450.83	961.96
451.02	739.61
451.20	786.42
451.39	748.97
451.57	655.35
451.76	655.35
451.94	821.53
452.13	938.55
452.31	1015.79
452.49	908.13
452.68	629.60
452.86	823.87
453.05	1299.00
453.23	823.87
453.42	573.43
453.60	716.20
453.78	877.70
453.97	650.67
454.15	643.65
454.34	645.99
454.52	601.52
454.70	1102.39
454.89	933.87
455.07	599.18
455.26	826.21
455.44	992.39
455.62	774.72
455.81	957.28
455.99	987.71
456.17	849.61
456.36	674.07
456.54	704.50
456.73	699.82
456.91	681.10
457.09	964.30
457.28	1062.60
457.46	812.17
457.64	1055.58
457.83	833.23
458.01	622.58
458.19	802.80
458.38	653.01
458.56	858.98
458.74	624.92
458.93	842.59
459.11	1069.62
459.29	711.52
459.48	978.34
459.66	1296.66
459.84	950.26
460.03	1947.33
460.21	1210.06
460.39	828.55
460.57	1146.86
460.76	961.96
460.94	809.83
461.12	1383.26
461.31	1196.01
461.49	774.72
461.67	751.31
461.85	854.30
462.04	807.48
462.22	2867.16
462.40	1046.22
462.59	1111.75
462.77	765.36
462.95	896.43
463.13	617.90
463.32	1132.82
463.50	880.04
463.68	990.05
463.86	800.46
464.05	805.14
464.23	1165.59
464.41	992.39
464.59	688.12
464.78	812.17
464.96	526.62
465.14	903.45
465.32	723.23
465.50	1025.15
465.69	1008.77
465.87	589.82
466.05	978.34
466.23	638.97
466.41	739.61
466.60	812.17
466.78	795.78
466.96	1041.54
467.14	959.62
467.32	1235.80
467.51	1004.09
467.69	1011.11
467.87	1322.40
468.05	753.65
468.23	1357.51
468.41	1135.16
468.60	793.44
468.78	936.21
468.96	1207.72
469.14	1057.92
469.32	596.84
469.50	631.94
469.69	978.34
469.87	880.04
470.05	863.66
470.23	786.42
470.41	674.07
470.59	716.20
470.77	1011.11
470.95	844.93
471.14	1163.25
471.32	915.15
471.50	1212.40
471.68	931.53
471.86	1060.26
472.04	763.01
472.22	908.13
472.40	603.86
472.58	730.25
472.77	676.41
472.95	875.36
473.13	1458.15
473.31	1224.10
473.49	732.59
473.67	681.10
473.85	1048.56
474.03	1060.26
474.21	971.32
474.39	1327.08
474.57	1331.76
474.75	1020.47
474.93	842.59
475.12	704.50
475.30	868.34
475.48	894.08
475.66	938.55
475.84	968.98
476.02	908.13
476.20	1135.16
476.38	1034.52
476.56	1640.72
476.74	954.94
476.92	781.74
477.10	966.64
477.28	1137.50
477.46	978.34
477.64	1097.71
477.82	1018.13
478.00	866.00
478.18	959.62
478.36	945.58
478.54	786.42
478.72	903.45
478.90	973.66
479.08	1151.54
479.26	994.73
479.44	868.34
479.62	849.61
479.80	971.32
479.98	781.74
480.16	884.72
480.34	1170.27
480.52	844.93
480.70	1100.05
480.88	847.27
481.06	802.80
481.24	816.85
481.41	959.62
481.59	1191.33
481.77	1001.75
481.95	1060.26
482.13	1420.71
482.31	1123.46
482.49	880.04
482.67	1224.10
482.85	1317.72
483.03	1181.97
483.21	1029.84
483.39	966.64
483.57	1060.26
483.74	1483.90
483.92	1132.82
484.10	940.90
484.28	1364.53
484.46	1732.00
484.64	919.83
484.82	1107.07
485.00	1018.13
485.18	1090.69
485.35	1135.16
485.53	770.04
485.71	1256.87
485.89	709.18
486.07	997.07
486.25	1689.87
486.43	1317.72
486.61	1299.00
486.78	1228.78
486.96	901.11
487.14	1071.97
487.32	1114.10
487.50	1048.56
487.68	1348.15
487.85	990.05
488.03	1205.38
488.21	1451.13
488.39	1104.73
488.57	1308.36
488.75	997.07
488.92	4713.84
489.10	1322.40
489.28	1748.38
489.46	1006.43
489.64	1081.33
489.81	1224.10
489.99	1310.70
490.17	1163.25
490.35	2054.99
490.53	1196.01
490.70	1034.52
490.88	1455.81
491.06	1130.48
491.24	1453.47
491.41	1631.35
491.59	1320.06
491.77	1011.11
491.95	966.64
492.13	1095.37
492.30	1310.70
492.48	1231.12
492.66	1303.68
492.84	1160.91
493.01	1301.34
493.19	1135.16
493.37	1750.72
493.54	1371.55
493.72	1434.75
493.90	1249.85
494.08	1174.95
494.25	1530.71
494.43	1394.96
494.61	1217.08
494.79	1100.05
494.96	1081.33
495.14	1614.97
495.32	1224.10
495.49	1376.24
495.67	1378.58
495.85	1277.93
496.02	1196.01
496.20	1544.75
496.38	1582.20
496.55	1252.19
496.73	1479.22
496.91	1226.44
497.09	1612.63
497.26	1441.77
497.44	1294.32
497.62	1343.47
497.79	1394.96
497.97	1455.81
498.14	1523.69
498.32	1451.13
498.50	1497.94
498.67	1369.21
498.85	1373.89
499.03	1376.24
499.20	1420.71
499.38	1392.62
499.56	1378.58
499.73	1877.11
499.91	1614.97
500.08	1582.20
500.26	1338.79
500.44	1217.08
500.61	1540.07
500.79	1294.32
500.97	1563.48
501.14	1769.44
501.32	1413.68
501.49	1816.26
501.67	1357.51
501.84	1500.28
502.02	1242.82
502.20	1860.73
502.37	1394.96
502.55	1486.24
502.72	1406.66
502.90	1565.82
503.07	1441.77
503.25	1451.13
503.43	1280.27
503.60	1261.55
503.78	1472.20
503.95	1486.24
504.13	1350.49
504.30	1673.48
504.48	1621.99
504.65	1778.81
504.83	1753.06
505.01	1284.95
505.18	1657.10
505.36	1479.22
505.53	1558.80
505.71	1266.23
505.88	1888.81
506.06	1448.79
506.23	1483.90
506.41	1357.51
506.58	1465.18
506.76	1624.33
506.93	1404.32
507.11	1537.73
507.28	1228.78
507.46	1373.89
507.63	1544.75
507.81	1188.99
507.98	1359.85
508.16	1441.77
508.33	1439.43
508.50	1671.14
508.68	1490.92
508.85	1621.99
509.03	1458.15
509.20	1357.51
509.38	1621.99
509.55	1790.51
509.73	1783.49
509.90	1839.66
510.08	1341.13
510.25	1720.29
510.42	1308.36
510.60	1504.96
510.77	1708.59
510.95	1839.66
511.12	1502.62
511.30	1638.38
511.47	1715.61
511.64	2066.69
511.82	1497.94
511.99	1500.28
512.17	1397.30
512.34	1355.17
512.51	1352.83
512.69	1345.81
512.86	1811.57
513.04	1380.92
513.21	1509.65
513.38	1416.02
513.56	1411.34
513.73	1329.42
513.90	1235.80
514.08	1369.21
514.25	1568.16
514.43	1596.25
514.60	1448.79
514.77	1378.58
514.95	1488.58
515.12	1418.36
515.29	1596.25
515.47	1579.86
515.64	1589.22
515.81	1497.94
515.99	1989.46
516.16	1654.76
516.33	1743.70
516.51	1289.64
516.68	1050.90
516.85	1289.64
517.03	1331.76
517.20	1598.59
517.37	1589.22
517.54	1593.90
517.72	1413.68
517.89	1160.91
518.06	1235.80
518.24	1970.73
518.41	1926.26
518.58	1568.16
518.75	1310.70
518.93	1509.65
519.10	1605.61
519.27	1348.15
519.45	1544.75
519.62	1558.80
519.79	1584.54
519.96	1343.47
520.14	1537.73
520.31	1970.73
520.48	1654.76
520.65	1727.32
520.83	1741.36
521.00	1741.36
521.17	1893.49
521.34	1535.39
521.52	1575.18
521.69	1528.37
521.86	1575.18
522.03	1715.61
522.20	1968.39
522.38	1439.43
522.55	1556.46
522.72	1376.24
522.89	1846.68
523.07	2284.36
523.24	1586.88
523.41	1479.22
523.58	1577.52
523.75	1579.86
523.92	1427.73
524.10	1750.72
524.27	1654.76
524.44	1490.92
524.61	1968.39
524.78	1460.49
524.96	1802.21
525.13	1600.93
525.30	1891.15
525.47	1797.53
525.64	1750.72
525.81	1715.61
525.98	1596.25
526.16	1397.30
526.33	1322.40
526.50	1329.42
526.67	1228.78
526.84	1310.70
527.01	1434.75
527.18	1739.02
527.36	1596.25
527.53	1439.43
527.70	1851.36
527.87	1570.50
528.04	2251.60
528.21	1537.73
528.38	1856.04
528.55	1949.67
528.72	1966.05
528.89	2087.76
529.07	1631.35
529.24	1617.31
529.41	2080.74
529.58	1729.66
529.75	1554.12
529.92	1785.83
530.09	1750.72
530.26	1891.15
530.43	1900.52
530.60	1764.76
530.77	1724.97
530.94	1898.17
531.11	1926.26
531.28	1596.25
531.46	1406.66
531.63	1682.85
531.80	1799.87
531.97	1750.72
532.14	1575.18
532.31	1643.06
532.48	1722.63
532.65	1572.84
532.82	1446.45
532.99	1542.41
533.16	1617.31
533.33	1680.50
533.50	1540.07
533.67	1462.83
533.84	1612.63
534.01	1687.53
534.18	1619.65
534.35	1652.42
534.52	1708.59
534.69	2310.11
534.86	1582.20
535.03	1572.84
535.20	1633.69
535.37	1893.49
535.54	1865.41
535.71	1575.18
535.88	2071.37
536.05	1526.03
536.22	1762.42
536.38	1493.26
536.55	1678.16
536.72	1961.37
536.89	1493.26
537.06	1568.16
537.23	1509.65
537.40	1563.48
537.57	1717.95
537.74	1790.51
537.91	1736.68
538.08	1710.93
538.25	1769.44
538.42	1409.00
538.59	1668.80
538.75	1612.63
538.92	1724.97
539.09	1970.73
539.26	1497.94
539.43	1909.88
539.60	1654.76
539.77	1820.94
539.94	1589.22
540.11	1748.38
540.28	2024.56
540.44	2012.86
540.61	1668.80
540.78	1612.63
540.95	1446.45
541.12	2080.74
541.29	1624.33
541.46	2080.74
541.62	1795.19
541.79	1570.50
541.96	1472.20
542.13	1596.25
542.30	1453.47
542.47	1806.89
542.63	1549.43
542.80	1586.88
542.97	1933.28
543.14	1589.22
543.31	1746.04
543.48	1703.91
543.64	1760.08
543.81	1767.10
543.98	1488.58
544.15	1411.34
544.32	1530.71
544.48	1551.78
544.65	1533.05
544.82	1453.47
544.99	1542.41
545.16	1916.90
545.32	1568.16
545.49	1729.66
545.66	1614.97
545.83	1479.22
546.00	1507.30
546.16	1530.71
546.33	1514.33
546.50	1598.59
546.67	1961.37
546.83	1792.85
547.00	1703.91
547.17	1467.52
547.34	1376.24
547.50	1638.38
547.67	1593.90
547.84	1514.33
548.00	1710.93
548.17	1549.43
548.34	1511.99
548.51	2118.18
548.67	1928.60
548.84	1607.95
549.01	1701.57
549.18	1834.98
549.34	1732.00
549.51	1624.33
549.68	1734.34
549.84	1579.86
550.01	1453.47
550.18	3211.22
550.34	2445.86
550.51	1666.46
550.68	2118.18
550.84	1476.88
551.01	1659.44
551.18	1764.76
551.34	1652.42
551.51	1554.12
551.68	1689.87
551.84	1813.92
552.01	1481.56
552.18	1610.29
552.34	1715.61
552.51	1636.03
552.68	1856.04
552.84	1558.80
553.01	1621.99
553.18	1865.41
553.34	1544.75
553.51	1380.92
553.67	1764.76
553.84	2069.03
554.01	1804.55
554.17	1769.44
554.34	1460.49
554.51	1708.59
554.67	1898.17
554.84	1834.98
555.00	1827.96
555.17	1650.08
555.33	1977.75
555.50	1650.08
555.67	1687.53
555.83	1465.18
556.00	1598.59
556.16	3716.77
556.33	1687.53
556.50	1673.48
556.66	1610.29
556.83	1516.67
556.99	1537.73
557.16	1638.38
557.32	1481.56
557.49	1486.24
557.65	1448.79
557.82	1476.88
557.98	1582.20
558.15	1394.96
558.32	1530.71
558.48	1392.62
558.65	1467.52
558.81	1652.42
558.98	1465.18
559.14	1678.16
559.31	1511.99
559.47	1832.64
559.64	1437.09
559.80	1783.49
559.97	1404.32
560.13	1607.95
560.30	1261.55
560.46	1451.13
560.63	1483.90
560.79	1626.67
560.96	1568.16
561.12	1448.79
561.29	1626.67
561.45	1549.43
561.61	1579.86
561.78	2581.61
561.94	1474.54
562.11	1423.05
562.27	1593.90
562.44	1357.51
562.60	1570.50
562.77	1544.75
562.93	2317.13
563.10	1626.67
563.26	1556.46
563.42	1799.87
563.59	1696.89
563.75	1383.26
563.92	1858.39
564.08	1624.33
564.24	1799.87
564.41	1940.30
564.57	1352.83
564.74	1390.28
564.90	1619.65
565.07	1736.68
565.23	1647.74
565.39	1366.87
565.56	1605.61
565.72	1331.76
565.88	1563.48
566.05	1469.86
566.21	1495.60
566.38	1593.90
566.54	1640.72
566.70	1392.62
566.87	1502.62
567.03	1139.84
567.19	1437.09
567.36	1598.59
567.52	1434.75
567.68	1591.56
567.85	1696.89
568.01	1540.07
568.17	1263.89
568.34	1397.30
568.50	1750.72
568.66	1247.51
568.83	2389.69
568.99	1514.33
569.15	1673.48
569.32	1352.83
569.48	1486.24
569.64	1338.79
569.81	1469.86
569.97	1280.27
570.13	1720.29
570.30	1448.79
570.46	1423.05
570.62	1348.15
570.78	1373.89
570.95	1214.74
571.11	1996.48
571.27	1916.90
571.43	1291.98
571.60	1542.41
571.76	1369.21
571.92	1458.15
572.09	1364.53
572.25	1401.98
572.41	1444.11
572.57	1507.30
572.74	1912.22
572.90	1741.36
573.06	1526.03
573.22	1610.29
573.38	1701.57
573.55	1776.47
573.71	1746.04
573.87	1626.67
574.03	1364.53
574.20	1401.98
574.36	1732.00
574.52	1357.51
574.68	1322.40
574.84	1497.94
575.01	1521.35
575.17	1657.10
575.33	1383.26
575.49	1757.74
575.65	1685.19
575.82	1673.48
575.98	2141.59
576.14	1467.52
576.30	1418.36
576.46	1474.54
576.62	1483.90
576.79	1629.01
576.95	1846.68
577.11	1425.39
577.27	1263.89
577.43	1785.83
577.59	1783.49
577.75	1650.08
577.92	1509.65
578.08	1294.32
578.24	1273.25
578.40	1797.53
578.56	1870.09
578.72	1811.57
578.88	1563.48
579.04	1444.11
579.21	1427.73
579.37	1390.28
579.53	1432.41
579.69	1816.26
579.85	1238.14
580.01	1600.93
580.17	1231.12
580.33	1252.19
580.49	1397.30
580.65	1551.78
580.82	1394.96
580.98	1411.34
581.14	1376.24
581.30	1818.60
581.46	1432.41
581.62	1746.04
581.78	1355.17
581.94	1577.52
582.10	1277.93
582.26	1427.73
582.42	1322.40
582.58	1624.33
582.74	1427.73
582.90	1497.94
583.06	1661.78
583.22	1610.29
583.38	1174.95
583.54	1181.97
583.70	1806.89
583.86	1540.07
584.02	1439.43
584.18	1816.26
584.34	1331.76
584.50	1462.83
584.66	1306.02
584.82	1263.89
584.98	1476.88
585.14	1322.40
585.30	1654.76
585.46	1448.79
585.62	1224.10
585.78	1315.38
585.94	1537.73
586.10	1369.21
586.26	1462.83
586.42	2029.24
586.58	1572.84
586.74	1467.52
586.90	1486.24
587.06	1504.96
587.22	1514.33
587.38	1219.42
587.54	1373.89
587.70	1645.40
587.86	1696.89
588.02	1299.00
588.18	1516.67
588.34	1521.35
588.49	1034.52
588.65	1217.08
588.81	1205.38
588.97	1053.24
589.13	1233.46
589.29	1378.58
589.45	1579.86
589.61	1310.70
589.77	1631.35
589.93	1277.93
590.08	1282.61
590.24	1226.44
590.40	1373.89
590.56	1621.99
590.72	1275.59
590.88	1249.85
591.04	1469.86
591.20	1200.69
591.35	1813.92
591.51	1324.74
591.67	1158.57
591.83	1291.98
591.99	1439.43
592.15	1589.22
592.31	1366.87
592.46	1291.98
592.62	1474.54
592.78	1268.57
592.94	1205.38
593.10	1301.34
593.26	1123.46
593.41	1416.02
593.57	1411.34
593.73	1277.93
593.89	1511.99
594.05	1320.06
594.20	1191.33
594.36	1661.78
594.52	1322.40
594.68	1313.04
594.84	1551.78
594.99	1774.13
595.15	1502.62
595.31	1519.01
595.47	1795.19
595.62	1401.98
595.78	1268.57
595.94	1224.10
596.10	1687.53
596.25	1502.62
596.41	1551.78
596.57	1212.40
596.73	1275.59
596.88	1338.79
597.04	1313.04
597.20	1207.72
597.36	1296.66
597.51	1214.74
597.67	1160.91
597.83	1219.42
597.99	1584.54
598.14	1425.39
598.30	1692.21
598.46	1177.29
598.61	1692.21
598.77	1511.99
598.93	1238.14
599.09	1235.80
599.24	1369.21
599.40	1614.97
599.56	1261.55
599.71	1434.75
599.87	1273.25
600.03	1289.64
600.18	1320.06
600.34	1446.45
600.50	1233.46
600.65	999.41
600.81	1605.61
600.97	1107.07
601.12	1270.91
601.28	1631.35
601.44	1315.38
601.59	1193.67
601.75	1299.00
