SpectraSuite Data File
++++++++++++++++++++++++++++++++++++
Date: Mon Oct 07 15:00:29 GMT-05:00 2013
User: price-jones
Dark Spectrum Present: No
Reference Spectrum Present: No
Number of Sampled Component Spectra: 1
Spectrometers: USB2+H05261
Integration Time (usec): 1000000 (USB2+H05261)
Spectra Averaged: 1 (USB2+H05261)
Boxcar Smoothing: 0 (USB2+H05261)
Correct for Electrical Dark: No (USB2+H05261)
Strobe/Lamp Enabled: No (USB2+H05261)
Correct for Detector Non-linearity: No (USB2+H05261)
Correct for Stray Light: No (USB2+H05261)
Number of Pixels in Processed Spectrum: 2048
>>>>>Begin Processed Spectral Data<<<<<
365.73	0.00
365.92	0.00
366.12	0.00
366.32	0.00
366.52	0.00
366.72	121.71
366.91	0.00
367.11	156.82
367.31	18.72
367.51	152.13
367.70	187.24
367.90	393.21
368.10	177.88
368.30	227.03
368.49	0.00
368.69	332.36
368.89	105.32
369.09	0.00
369.28	138.09
369.48	0.00
369.68	49.15
369.87	222.35
370.07	0.00
370.27	517.26
370.47	264.48
370.66	170.86
370.86	294.91
371.06	695.14
371.25	849.61
371.45	252.78
371.65	566.41
371.84	222.35
372.04	117.03
372.24	386.19
372.44	297.25
372.63	421.30
372.83	875.36
373.03	297.25
373.22	215.33
373.42	250.44
373.62	301.93
373.81	437.68
374.01	608.54
374.21	561.73
374.40	341.72
374.60	582.79
374.79	351.08
374.99	290.23
375.19	400.23
375.38	491.51
375.58	442.36
375.78	543.00
375.97	475.13
376.17	964.30
376.37	301.93
376.56	447.04
376.76	252.78
376.95	184.90
377.15	491.51
377.35	519.60
377.54	355.76
377.74	154.48
377.93	292.57
378.13	421.30
378.33	580.45
378.52	332.36
378.72	589.82
378.91	498.53
379.11	234.05
379.31	315.97
379.50	177.88
379.70	627.26
379.89	638.97
380.09	271.50
380.28	212.99
380.48	318.31
380.68	191.92
380.87	166.18
381.07	489.17
381.26	631.94
381.46	124.05
381.65	465.77
381.85	250.44
382.04	521.94
382.24	411.93
382.43	313.63
382.63	222.35
382.83	227.03
383.02	589.82
383.22	725.57
383.41	145.11
383.61	383.85
383.80	592.16
384.00	311.29
384.19	271.50
384.39	435.34
384.58	236.39
384.78	477.47
384.97	440.02
385.17	287.89
385.36	259.80
385.56	524.28
385.75	180.22
385.95	337.04
386.14	519.60
386.34	257.46
386.53	376.83
386.72	212.99
386.92	596.84
387.11	435.34
387.31	531.30
387.50	187.24
387.70	107.66
387.89	337.04
388.09	250.44
388.28	191.92
388.48	177.88
388.67	557.05
388.86	346.40
389.06	271.50
389.25	428.32
389.45	411.93
389.64	320.65
389.84	711.52
390.03	454.06
390.22	376.83
390.42	311.29
390.61	227.03
390.81	100.64
391.00	360.44
391.19	631.94
391.39	360.44
391.58	409.59
391.78	390.87
391.97	409.59
392.16	60.85
392.36	723.23
392.55	678.76
392.75	344.06
392.94	227.03
393.13	564.07
393.33	93.62
393.52	322.99
393.71	723.23
393.91	360.44
394.10	194.26
394.29	308.95
394.49	304.27
394.68	484.49
394.88	706.84
395.07	550.03
395.26	390.87
395.46	395.55
395.65	594.50
395.84	442.36
396.04	1191.33
396.23	416.62
396.42	280.86
396.62	430.66
396.81	421.30
397.00	418.96
397.19	440.02
397.39	266.82
397.58	709.18
397.77	306.61
397.97	388.53
398.16	341.72
398.35	517.26
398.55	215.33
398.74	411.93
398.93	617.90
399.12	257.46
399.32	528.96
399.51	315.97
399.70	533.64
399.90	559.39
400.09	470.45
400.28	676.41
400.47	255.12
400.67	727.91
400.86	440.02
401.05	500.87
401.24	615.56
401.44	552.37
401.63	599.18
401.82	669.39
402.01	210.65
402.21	559.39
402.40	470.45
402.59	313.63
402.78	337.04
402.97	365.12
403.17	444.70
403.36	454.06
403.55	376.83
403.74	362.78
403.93	348.74
404.13	657.69
404.32	311.29
404.51	292.57
404.70	594.50
404.89	313.63
405.09	931.53
405.28	449.38
405.47	299.59
405.66	627.26
405.85	643.65
406.05	477.47
406.24	351.08
406.43	442.36
406.62	517.26
406.81	980.68
407.00	751.31
407.20	463.43
407.39	376.83
407.58	355.76
407.77	603.86
407.96	690.46
408.15	692.80
408.34	638.97
408.54	500.87
408.73	491.51
408.92	437.68
409.11	638.97
409.30	770.04
409.49	358.10
409.68	404.91
409.87	482.15
410.07	311.29
410.26	472.79
410.45	402.57
410.64	315.97
410.83	402.57
411.02	358.10
411.21	528.96
411.40	709.18
411.59	393.21
411.78	339.38
411.98	444.70
412.17	276.18
412.36	365.12
412.55	236.39
412.74	641.31
412.93	964.30
413.12	271.50
413.31	730.25
413.50	484.49
413.69	498.53
413.88	894.08
414.07	496.19
414.26	524.28
414.45	367.46
414.64	538.32
414.83	643.65
415.02	482.15
415.22	580.45
415.41	798.12
415.60	400.23
415.79	444.70
415.98	807.48
416.17	470.45
416.36	456.40
416.55	442.36
416.74	653.01
416.93	828.55
417.12	430.66
417.31	463.43
417.50	409.59
417.69	908.13
417.88	528.96
418.07	320.65
418.26	430.66
418.45	397.89
418.64	847.27
418.83	587.47
419.02	540.66
419.21	559.39
419.39	538.32
419.58	454.06
419.77	369.80
419.96	809.83
420.15	1004.09
420.34	540.66
420.53	636.63
420.72	786.42
420.91	528.96
421.10	528.96
421.29	641.31
421.48	667.05
421.67	681.10
421.86	489.17
422.05	538.32
422.24	507.90
422.43	606.20
422.61	320.65
422.80	430.66
422.99	571.09
423.18	346.40
423.37	856.64
423.56	552.37
423.75	660.03
423.94	341.72
424.13	486.83
424.32	362.78
424.50	397.89
424.69	543.00
424.88	889.40
425.07	421.30
425.26	634.29
425.45	657.69
425.64	369.80
425.83	425.98
426.01	791.10
426.20	571.09
426.39	517.26
426.58	475.13
426.77	543.00
426.96	723.23
427.15	613.22
427.33	440.02
427.52	526.62
427.71	547.69
427.90	552.37
428.09	461.09
428.28	372.15
428.46	517.26
428.65	699.82
428.84	472.79
429.03	1004.09
429.22	458.74
429.40	358.10
429.59	301.93
429.78	786.42
429.97	491.51
430.16	369.80
430.34	524.28
430.53	334.70
430.72	470.45
430.91	716.20
431.10	301.93
431.28	510.24
431.47	763.01
431.66	657.69
431.85	458.74
432.03	559.39
432.22	1226.44
432.41	587.47
432.60	851.96
432.79	304.27
432.97	587.47
433.16	531.30
433.35	428.32
433.54	404.91
433.72	678.76
433.91	702.16
434.10	390.87
434.28	634.29
434.47	463.43
434.66	770.04
434.85	470.45
435.03	561.73
435.22	971.32
435.41	1027.50
435.59	753.65
435.78	697.48
435.97	531.30
436.16	823.87
436.34	592.16
436.53	650.67
436.72	882.38
436.90	706.84
437.09	645.99
437.28	578.11
437.46	461.09
437.65	781.74
437.84	732.59
438.02	664.71
438.21	760.67
438.40	440.02
438.58	397.89
438.77	603.86
438.96	592.16
439.14	355.76
439.33	821.53
439.52	528.96
439.70	617.90
439.89	835.57
440.08	624.92
440.26	617.90
440.45	1041.54
440.63	737.27
440.82	688.12
441.01	601.52
441.19	571.09
441.38	622.58
441.57	575.77
441.75	950.26
441.94	1001.75
442.12	699.82
442.31	571.09
442.50	655.35
442.68	571.09
442.87	610.88
443.05	571.09
443.24	678.76
443.43	798.12
443.61	1107.07
443.80	629.60
443.98	547.69
444.17	475.13
444.35	908.13
444.54	664.71
444.73	610.88
444.91	896.43
445.10	479.81
445.28	505.56
445.47	674.07
445.65	594.50
445.84	484.49
446.02	695.14
446.21	582.79
446.39	514.92
446.58	866.00
446.77	571.09
446.95	554.71
447.14	791.10
447.32	1001.75
447.51	739.61
447.69	765.36
447.88	692.80
448.06	1139.84
448.25	821.53
448.43	573.43
448.62	500.87
448.80	678.76
448.99	858.98
449.17	573.43
449.36	615.56
449.54	954.94
449.73	517.26
449.91	765.36
450.10	653.01
450.28	1228.78
450.46	1273.25
450.65	1011.11
450.83	816.85
451.02	702.16
451.20	697.48
451.39	615.56
451.57	624.92
451.76	587.47
451.94	702.16
452.13	866.00
452.31	929.19
452.49	802.80
452.68	507.90
452.86	802.80
453.05	1327.08
453.23	702.16
453.42	528.96
453.60	788.76
453.78	732.59
453.97	493.85
454.15	484.49
454.34	585.13
454.52	543.00
454.70	1128.14
454.89	901.11
455.07	554.71
455.26	819.19
455.44	884.72
455.62	648.33
455.81	755.99
455.99	823.87
456.17	837.91
456.36	709.18
456.54	709.18
456.73	650.67
456.91	606.20
457.09	819.19
457.28	1004.09
457.46	688.12
457.64	1011.11
457.83	681.10
458.01	601.52
458.19	830.89
458.38	706.84
458.56	751.31
458.74	510.24
458.93	730.25
459.11	866.00
459.29	566.41
459.48	910.47
459.66	1174.95
459.84	851.96
460.03	1842.00
460.21	1086.01
460.39	615.56
460.57	1181.97
460.76	725.57
460.94	875.36
461.12	1149.20
461.31	1135.16
461.49	739.61
461.67	678.76
461.85	716.20
462.04	678.76
462.22	2640.12
462.40	922.17
462.59	1149.20
462.77	667.05
462.95	751.31
463.13	533.64
463.32	1008.77
463.50	826.21
463.68	791.10
463.86	788.76
464.05	690.46
464.23	1046.22
464.41	976.00
464.59	636.63
464.78	645.99
464.96	526.62
465.14	711.52
465.32	582.79
465.50	896.43
465.69	896.43
465.87	528.96
466.05	772.38
466.23	528.96
466.41	702.16
466.60	676.41
466.78	716.20
466.96	1046.22
467.14	887.06
467.32	1029.84
467.51	940.90
467.69	945.58
467.87	1067.28
468.05	763.01
468.23	1301.34
468.41	1093.03
468.60	765.36
468.78	788.76
468.96	1067.28
469.14	884.72
469.32	451.72
469.50	545.34
469.69	847.27
469.87	788.76
470.05	814.51
470.23	669.39
470.41	564.07
470.59	613.22
470.77	800.46
470.95	720.88
471.14	1177.29
471.32	697.48
471.50	1036.86
471.68	791.10
471.86	929.19
472.04	671.73
472.22	767.70
472.40	503.22
472.58	526.62
472.77	624.92
472.95	744.29
473.13	1392.62
473.31	1114.10
473.49	711.52
473.67	594.50
473.85	884.72
474.03	978.34
474.21	777.06
474.39	1121.12
474.57	1287.29
474.75	903.45
474.93	739.61
475.12	575.77
475.30	800.46
475.48	779.40
475.66	880.04
475.84	770.04
476.02	814.51
476.20	976.00
476.38	744.29
476.56	1493.26
476.74	770.04
476.92	770.04
477.10	823.87
477.28	971.32
477.46	809.83
477.64	1001.75
477.82	772.38
478.00	788.76
478.18	947.92
478.36	908.13
478.54	727.91
478.72	781.74
478.90	791.10
479.08	997.07
479.26	901.11
479.44	823.87
479.62	582.79
479.80	758.33
479.98	718.54
480.16	795.78
480.34	1090.69
480.52	711.52
480.70	961.96
480.88	746.63
481.06	760.67
481.24	800.46
481.41	823.87
481.59	999.41
481.77	875.36
481.95	842.59
482.13	1249.85
482.31	866.00
482.49	734.93
482.67	1025.15
482.85	1186.65
483.03	1020.47
483.21	931.53
483.39	807.48
483.57	809.83
483.74	1324.74
483.92	976.00
484.10	758.33
484.28	1158.57
484.46	1549.43
484.64	870.68
484.82	901.11
485.00	812.17
485.18	945.58
485.35	964.30
485.53	601.52
485.71	1130.48
485.89	578.11
486.07	784.08
486.25	1551.78
486.43	1055.58
486.61	1149.20
486.78	1088.35
486.96	737.27
487.14	814.51
487.32	940.90
487.50	812.17
487.68	1156.22
487.85	823.87
488.03	1036.86
488.21	1380.92
488.39	971.32
488.57	1184.31
488.75	851.96
488.92	4613.20
489.10	1184.31
489.28	1600.93
489.46	919.83
489.64	915.15
489.81	999.41
489.99	1153.88
490.17	1032.18
490.35	1870.09
490.53	1102.39
490.70	985.37
490.88	1277.93
491.06	997.07
491.24	1130.48
491.41	1451.13
491.59	1170.27
491.77	863.66
491.95	863.66
492.13	884.72
492.30	1078.99
492.48	919.83
492.66	1008.77
492.84	882.38
493.01	1193.67
493.19	931.53
493.37	1582.20
493.54	1331.76
493.72	1308.36
493.90	1043.88
494.08	994.73
494.25	1313.04
494.43	1221.76
494.61	1062.60
494.79	912.81
494.96	957.28
495.14	1231.12
495.32	1001.75
495.49	1256.87
495.67	1207.72
495.85	1102.39
496.02	957.28
496.20	1348.15
496.38	1277.93
496.55	1022.81
496.73	1343.47
496.91	1071.97
497.09	1362.19
497.26	1231.12
497.44	1149.20
497.62	1137.50
497.79	1156.22
497.97	1359.85
498.14	1261.55
498.32	1245.16
498.50	1308.36
498.67	1064.94
498.85	1235.80
499.03	1224.10
499.20	1203.04
499.38	1193.67
499.56	1341.13
499.73	1696.89
499.91	1488.58
500.08	1394.96
500.26	1252.19
500.44	1153.88
500.61	1214.74
500.79	1036.86
500.97	1378.58
501.14	1558.80
501.32	1427.73
501.49	1474.54
501.67	1128.14
501.84	1287.29
502.02	1076.65
502.20	1664.12
502.37	1324.74
502.55	1174.95
502.72	1083.67
502.90	1589.22
503.07	1170.27
503.25	1308.36
503.43	1064.94
503.60	1100.05
503.78	1275.59
503.95	1240.48
504.13	1076.65
504.30	1483.90
504.48	1479.22
504.65	1682.85
504.83	1497.94
505.01	1207.72
505.18	1315.38
505.36	1313.04
505.53	1245.16
505.71	1179.63
505.88	1643.06
506.06	1315.38
506.23	1247.51
506.41	1050.90
506.58	1357.51
506.76	1329.42
506.93	1198.35
507.11	1394.96
507.28	1055.58
507.46	1053.24
507.63	1390.28
507.81	1214.74
507.98	1212.40
508.16	1284.95
508.33	1310.70
508.50	1434.75
508.68	1359.85
508.85	1378.58
509.03	1100.05
509.20	1200.69
509.38	1341.13
509.55	1584.54
509.73	1509.65
509.90	1617.31
510.08	1188.99
510.25	1418.36
510.42	1062.60
510.60	1245.16
510.77	1420.71
510.95	1549.43
511.12	1259.21
511.30	1441.77
511.47	1551.78
511.64	1785.83
511.82	1280.27
511.99	1156.22
512.17	1294.32
512.34	1102.39
512.51	1191.33
512.69	1160.91
512.86	1629.01
513.04	1186.65
513.21	1327.08
513.38	1247.51
513.56	1212.40
513.73	1226.44
513.90	1100.05
514.08	1004.09
514.25	1294.32
514.43	1406.66
514.60	1198.35
514.77	1114.10
514.95	1263.89
515.12	1156.22
515.29	1355.17
515.47	1287.29
515.64	1364.53
515.81	1238.14
515.99	1624.33
516.16	1397.30
516.33	1444.11
516.51	1090.69
516.68	978.34
516.85	1027.50
517.03	1170.27
517.20	1458.15
517.37	1383.26
517.54	1364.53
517.72	1109.41
517.89	959.62
518.06	1032.18
518.24	1832.64
518.41	1617.31
518.58	1387.94
518.75	1181.97
518.93	1235.80
519.10	1357.51
519.27	1238.14
519.45	1310.70
519.62	1277.93
519.79	1441.77
519.96	1125.80
520.14	1378.58
520.31	1619.65
520.48	1291.98
520.65	1294.32
520.83	1488.58
521.00	1462.83
521.17	1626.67
521.34	1233.46
521.52	1427.73
521.69	1355.17
521.86	1308.36
522.03	1547.09
522.20	1696.89
522.38	1249.85
522.55	1301.34
522.72	997.07
522.89	1516.67
523.07	1980.09
523.24	1308.36
523.41	1203.04
523.58	1261.55
523.75	1343.47
523.92	1196.01
524.10	1439.43
524.27	1385.60
524.44	1245.16
524.61	1678.16
524.78	1200.69
524.96	1533.05
525.13	1455.81
525.30	1659.44
525.47	1526.03
525.64	1406.66
525.81	1460.49
525.98	1362.19
526.16	1294.32
526.33	1039.20
526.50	1109.41
526.67	952.60
526.84	1018.13
527.01	1151.54
527.18	1425.39
527.36	1324.74
527.53	1146.86
527.70	1579.86
527.87	1313.04
528.04	1947.33
528.21	1214.74
528.38	1671.14
528.55	1788.17
528.72	1783.49
528.89	2090.10
529.07	1378.58
529.24	1406.66
529.41	1797.53
529.58	1446.45
529.75	1291.98
529.92	1474.54
530.09	1329.42
530.26	1657.10
530.43	1451.13
530.60	1469.86
530.77	1376.24
530.94	1528.37
531.11	1490.92
531.28	1444.11
531.46	1254.53
531.63	1341.13
531.80	1558.80
531.97	1460.49
532.14	1355.17
532.31	1437.09
532.48	1458.15
532.65	1427.73
532.82	1116.44
532.99	1310.70
533.16	1350.49
533.33	1493.26
533.50	1399.64
533.67	1135.16
533.84	1497.94
534.01	1490.92
534.18	1331.76
534.35	1394.96
534.52	1434.75
534.69	2064.35
534.86	1362.19
535.03	1343.47
535.20	1369.21
535.37	1636.03
535.54	1577.52
535.71	1341.13
535.88	1732.00
536.05	1280.27
536.22	1427.73
536.38	1303.68
536.55	1432.41
536.72	1696.89
536.89	1240.48
537.06	1254.53
537.23	1289.64
537.40	1373.89
537.57	1289.64
537.74	1600.93
537.91	1650.08
538.08	1430.07
538.25	1502.62
538.42	1373.89
538.59	1434.75
538.75	1313.04
538.92	1376.24
539.09	1586.88
539.26	1355.17
539.43	1685.19
539.60	1369.21
539.77	1511.99
539.94	1397.30
540.11	1504.96
540.28	1645.40
540.44	1753.06
540.61	1320.06
540.78	1369.21
540.95	1146.86
541.12	1785.83
541.29	1320.06
541.46	1820.94
541.62	1439.43
541.79	1205.38
541.96	1261.55
542.13	1238.14
542.30	1254.53
542.47	1502.62
542.63	1355.17
542.80	1460.49
542.97	1647.74
543.14	1308.36
543.31	1526.03
543.48	1469.86
543.64	1582.20
543.81	1418.36
543.98	1301.34
544.15	1205.38
544.32	1497.94
544.48	1380.92
544.65	1308.36
544.82	1273.25
544.99	1352.83
545.16	1589.22
545.32	1210.06
545.49	1511.99
545.66	1287.29
545.83	1149.20
546.00	1203.04
546.16	1186.65
546.33	1291.98
546.50	1336.45
546.67	1701.57
546.83	1680.50
547.00	1455.81
547.17	1207.72
547.34	1238.14
547.50	1334.11
547.67	1390.28
547.84	1165.59
548.00	1547.09
548.17	1329.42
548.34	1324.74
548.51	1811.57
548.67	1640.72
548.84	1418.36
549.01	1439.43
549.18	1378.58
549.34	1497.94
549.51	1467.52
549.68	1483.90
549.84	1528.37
550.01	1198.35
550.18	2782.90
550.34	2251.60
550.51	1511.99
550.68	2026.90
550.84	1299.00
551.01	1406.66
551.18	1547.09
551.34	1329.42
551.51	1371.55
551.68	1287.29
551.84	1596.25
552.01	1324.74
552.18	1313.04
552.34	1369.21
552.51	1383.26
552.68	1593.90
552.84	1291.98
553.01	1373.89
553.18	1572.84
553.34	1214.74
553.51	1109.41
553.67	1533.05
553.84	1851.36
554.01	1558.80
554.17	1530.71
554.34	1135.16
554.51	1320.06
554.67	1640.72
554.84	1533.05
555.00	1474.54
555.17	1423.05
555.33	1647.74
555.50	1423.05
555.67	1458.15
555.83	1137.50
556.00	1261.55
556.16	3344.63
556.33	1467.52
556.50	1345.81
556.66	1310.70
556.83	1287.29
556.99	1231.12
557.16	1378.58
557.32	1214.74
557.49	1242.82
557.65	1167.93
557.82	1186.65
557.98	1331.76
558.15	1240.48
558.32	1263.89
558.48	1238.14
558.65	1289.64
558.81	1526.03
558.98	1214.74
559.14	1462.83
559.31	1399.64
559.47	1528.37
559.64	1104.73
559.80	1542.41
559.97	1121.12
560.13	1256.87
560.30	1114.10
560.46	1193.67
560.63	1320.06
560.79	1184.31
560.96	1296.66
561.12	1170.27
561.29	1481.56
561.45	1203.04
561.61	1301.34
561.78	2333.51
561.94	1284.95
562.11	1242.82
562.27	1327.08
562.44	1198.35
562.60	1233.46
562.77	1289.64
562.93	2111.16
563.10	1427.73
563.26	1320.06
563.42	1516.67
563.59	1366.87
563.75	1203.04
563.92	1659.44
564.08	1430.07
564.24	1558.80
564.41	1891.15
564.57	1081.33
564.74	1191.33
564.90	1296.66
565.07	1460.49
565.23	1519.01
565.39	1167.93
565.56	1352.83
565.72	1139.84
565.88	1167.93
566.05	1193.67
566.21	1043.88
566.38	1376.24
566.54	1416.02
566.70	1217.08
566.87	1142.18
567.03	1088.35
567.19	1277.93
567.36	1540.07
567.52	1303.68
567.68	1465.18
567.85	1453.47
568.01	1217.08
568.17	983.02
568.34	1217.08
568.50	1626.67
568.66	1088.35
568.83	2054.99
568.99	1132.82
569.15	1427.73
569.32	1254.53
569.48	1144.52
569.64	1200.69
569.81	1366.87
569.97	1132.82
570.13	1390.28
570.30	1181.97
570.46	1193.67
570.62	1231.12
570.78	1217.08
570.95	882.38
571.11	1636.03
571.27	1687.53
571.43	1081.33
571.60	1439.43
571.76	1242.82
571.92	1191.33
572.09	1135.16
572.25	1252.19
572.41	1233.46
572.57	1205.38
572.74	1844.34
572.90	1495.60
573.06	1242.82
573.22	1329.42
573.38	1591.56
573.55	1437.09
573.71	1540.07
573.87	1392.62
574.03	1111.75
574.20	1158.57
574.36	1483.90
574.52	1086.01
574.68	1160.91
574.84	1371.55
575.01	1128.14
575.17	1371.55
575.33	1188.99
575.49	1570.50
575.65	1537.73
575.82	1444.11
575.98	1937.96
576.14	1252.19
576.30	1207.72
576.46	1301.34
576.62	1317.72
576.79	1444.11
576.95	1497.94
577.11	1135.16
577.27	976.00
577.43	1500.28
577.59	1605.61
577.75	1373.89
577.92	1200.69
578.08	1086.01
578.24	999.41
578.40	1448.79
578.56	1533.05
578.72	1596.25
578.88	1453.47
579.04	1174.95
579.21	1238.14
579.37	1177.29
579.53	1252.19
579.69	1589.22
579.85	1008.77
580.01	1334.11
580.17	1151.54
580.33	1165.59
580.49	1247.51
580.65	1423.05
580.82	1242.82
580.98	1146.86
581.14	1093.03
581.30	1519.01
581.46	1280.27
581.62	1523.69
581.78	1200.69
581.94	1369.21
582.10	1001.75
582.26	1034.52
582.42	1093.03
582.58	1310.70
582.74	1151.54
582.90	1256.87
583.06	1273.25
583.22	1291.98
583.38	1050.90
583.54	1053.24
583.70	1589.22
583.86	1315.38
584.02	1196.01
584.18	1542.41
584.34	1025.15
584.50	1214.74
584.66	1177.29
584.82	987.71
584.98	1172.61
585.14	1177.29
585.30	1416.02
585.46	1116.44
585.62	863.66
585.78	1104.73
585.94	1341.13
586.10	1207.72
586.26	1249.85
586.42	1633.69
586.58	1320.06
586.74	1207.72
586.90	1235.80
587.06	1350.49
587.22	1235.80
587.38	1078.99
587.54	1069.62
587.70	1364.53
587.86	1401.98
588.02	1034.52
588.18	1240.48
588.34	1369.21
588.49	751.31
588.65	987.71
588.81	964.30
588.97	835.57
589.13	1036.86
589.29	1088.35
589.45	1439.43
589.61	1165.59
589.77	1458.15
589.93	1018.13
590.08	1015.79
590.24	997.07
590.40	1212.40
590.56	1446.45
590.72	1144.52
590.88	896.43
591.04	1268.57
591.20	1043.88
591.35	1530.71
591.51	1179.63
591.67	940.90
591.83	1097.71
591.99	1308.36
592.15	1446.45
592.31	1289.64
592.46	1013.45
592.62	1371.55
592.78	954.94
592.94	976.00
593.10	922.17
593.26	854.30
593.41	1228.78
593.57	1186.65
593.73	1076.65
593.89	1336.45
594.05	1121.12
594.20	1027.50
594.36	1397.30
594.52	985.37
594.68	1100.05
594.84	1380.92
594.99	1596.25
595.15	1327.08
595.31	1329.42
595.47	1582.20
595.62	1060.26
595.78	1071.97
595.94	1071.97
596.10	1355.17
596.25	1191.33
596.41	1432.41
596.57	1046.22
596.73	1036.86
596.88	1172.61
597.04	1128.14
597.20	997.07
597.36	1139.84
597.51	978.34
597.67	1034.52
597.83	997.07
597.99	1406.66
598.14	1226.44
598.30	1481.56
598.46	1050.90
598.61	1399.64
598.77	1186.65
598.93	971.32
599.09	1137.50
599.24	1210.06
599.40	1446.45
599.56	1181.97
599.71	1167.93
599.87	1062.60
600.03	1217.08
600.18	1104.73
600.34	1259.21
600.50	1046.22
600.65	875.36
600.81	1261.55
600.97	1057.92
601.12	1090.69
601.28	1434.75
601.44	1196.01
601.59	887.06
601.75	1170.27
601.91	1018.13
602.06	1224.10
602.22	2052.65
602.37	1256.87
602.53	1097.71
602.69	1277.93
