SpectraSuite Data File
++++++++++++++++++++++++++++++++++++
Date: Mon Oct 07 14:59:57 GMT-05:00 2013
User: price-jones
Dark Spectrum Present: No
Reference Spectrum Present: No
Number of Sampled Component Spectra: 1
Spectrometers: USB2+H05261
Integration Time (usec): 100000 (USB2+H05261)
Spectra Averaged: 1 (USB2+H05261)
Boxcar Smoothing: 0 (USB2+H05261)
Correct for Electrical Dark: No (USB2+H05261)
Strobe/Lamp Enabled: No (USB2+H05261)
Correct for Detector Non-linearity: No (USB2+H05261)
Correct for Stray Light: No (USB2+H05261)
Number of Pixels in Processed Spectrum: 2048
>>>>>Begin Processed Spectral Data<<<<<
365.73	0.00
365.92	0.00
366.12	0.00
366.32	0.00
366.52	0.00
366.72	0.00
366.91	0.00
367.11	0.00
367.31	0.00
367.51	0.00
367.70	0.00
367.90	0.00
368.10	0.00
368.30	0.00
368.49	0.00
368.69	0.00
368.89	0.00
369.09	0.00
369.28	0.00
369.48	0.00
369.68	0.00
369.87	0.00
370.07	0.00
370.27	0.00
370.47	0.00
370.66	0.00
370.86	0.00
371.06	0.00
371.25	0.00
371.45	0.00
371.65	0.00
371.84	0.00
372.04	0.00
372.24	0.00
372.44	0.00
372.63	0.00
372.83	0.00
373.03	0.00
373.22	0.00
373.42	0.00
373.62	0.00
373.81	0.00
374.01	0.00
374.21	0.00
374.40	0.00
374.60	0.00
374.79	0.00
374.99	0.00
375.19	0.00
375.38	0.00
375.58	0.00
375.78	0.00
375.97	0.00
376.17	0.00
376.37	0.00
376.56	0.00
376.76	0.00
376.95	0.00
377.15	0.00
377.35	0.00
377.54	0.00
377.74	0.00
377.93	0.00
378.13	0.00
378.33	0.00
378.52	0.00
378.72	0.00
378.91	0.00
379.11	0.00
379.31	0.00
379.50	0.00
379.70	0.00
379.89	0.00
380.09	0.00
380.28	0.00
380.48	0.00
380.68	0.00
380.87	0.00
381.07	0.00
381.26	0.00
381.46	0.00
381.65	0.00
381.85	0.00
382.04	0.00
382.24	0.00
382.43	0.00
382.63	0.00
382.83	0.00
383.02	0.00
383.22	0.00
383.41	0.00
383.61	0.00
383.80	0.00
384.00	0.00
384.19	0.00
384.39	0.00
384.58	0.00
384.78	0.00
384.97	0.00
385.17	0.00
385.36	0.00
385.56	0.00
385.75	0.00
385.95	0.00
386.14	0.00
386.34	0.00
386.53	0.00
386.72	0.00
386.92	0.00
387.11	0.00
387.31	0.00
387.50	0.00
387.70	0.00
387.89	0.00
388.09	0.00
388.28	0.00
388.48	0.00
388.67	0.00
388.86	0.00
389.06	0.00
389.25	0.00
389.45	0.00
389.64	0.00
389.84	0.00
390.03	0.00
390.22	0.00
390.42	0.00
390.61	0.00
390.81	0.00
391.00	0.00
391.19	0.00
391.39	0.00
391.58	0.00
391.78	0.00
391.97	0.00
392.16	0.00
392.36	0.00
392.55	0.00
392.75	0.00
392.94	0.00
393.13	0.00
393.33	0.00
393.52	0.00
393.71	0.00
393.91	0.00
394.10	0.00
394.29	0.00
394.49	0.00
394.68	0.00
394.88	0.00
395.07	0.00
395.26	0.00
395.46	0.00
395.65	0.00
395.84	0.00
396.04	0.00
396.23	0.00
396.42	0.00
396.62	0.00
396.81	0.00
397.00	0.00
397.19	0.00
397.39	0.00
397.58	0.00
397.77	0.00
397.97	0.00
398.16	0.00
398.35	0.00
398.55	0.00
398.74	0.00
398.93	0.00
399.12	0.00
399.32	0.00
399.51	0.00
399.70	0.00
399.90	0.00
400.09	0.00
400.28	0.00
400.47	0.00
400.67	0.00
400.86	0.00
401.05	0.00
401.24	0.00
401.44	0.00
401.63	0.00
401.82	0.00
402.01	0.00
402.21	0.00
402.40	0.00
402.59	0.00
402.78	0.00
402.97	0.00
403.17	0.00
403.36	0.00
403.55	0.00
403.74	0.00
403.93	0.00
404.13	0.00
404.32	0.00
404.51	0.00
404.70	0.00
404.89	0.00
405.09	0.00
405.28	0.00
405.47	0.00
405.66	0.00
405.85	0.00
406.05	0.00
406.24	0.00
406.43	0.00
406.62	0.00
406.81	0.00
407.00	0.00
407.20	0.00
407.39	0.00
407.58	0.00
407.77	0.00
407.96	0.00
408.15	0.00
408.34	0.00
408.54	0.00
408.73	0.00
408.92	0.00
409.11	0.00
409.30	0.00
409.49	0.00
409.68	0.00
409.87	0.00
410.07	0.00
410.26	0.00
410.45	0.00
410.64	0.00
410.83	0.00
411.02	0.00
411.21	0.00
411.40	0.00
411.59	0.00
411.78	0.00
411.98	0.00
412.17	0.00
412.36	0.00
412.55	0.00
412.74	0.00
412.93	0.00
413.12	0.00
413.31	0.00
413.50	0.00
413.69	0.00
413.88	0.00
414.07	0.00
414.26	0.00
414.45	0.00
414.64	0.00
414.83	0.00
415.02	0.00
415.22	0.00
415.41	0.00
415.60	0.00
415.79	0.00
415.98	0.00
416.17	0.00
416.36	0.00
416.55	0.00
416.74	0.00
416.93	0.00
417.12	0.00
417.31	0.00
417.50	0.00
417.69	0.00
417.88	0.00
418.07	0.00
418.26	0.00
418.45	0.00
418.64	0.00
418.83	0.00
419.02	0.00
419.21	0.00
419.39	0.00
419.58	0.00
419.77	0.00
419.96	0.00
420.15	0.00
420.34	0.00
420.53	0.00
420.72	0.00
420.91	0.00
421.10	0.00
421.29	0.00
421.48	0.00
421.67	0.00
421.86	0.00
422.05	0.00
422.24	0.00
422.43	0.00
422.61	0.00
422.80	0.00
422.99	0.00
423.18	0.00
423.37	0.00
423.56	0.00
423.75	0.00
423.94	0.00
424.13	0.00
424.32	0.00
424.50	0.00
424.69	0.00
424.88	0.00
425.07	0.00
425.26	0.00
425.45	0.00
425.64	0.00
425.83	0.00
426.01	0.00
426.20	0.00
426.39	0.00
426.58	0.00
426.77	0.00
426.96	0.00
427.15	0.00
427.33	0.00
427.52	0.00
427.71	0.00
427.90	0.00
428.09	0.00
428.28	0.00
428.46	0.00
428.65	0.00
428.84	0.00
429.03	0.00
429.22	0.00
429.40	0.00
429.59	0.00
429.78	0.00
429.97	0.00
430.16	0.00
430.34	0.00
430.53	0.00
430.72	0.00
430.91	0.00
431.10	0.00
431.28	0.00
431.47	0.00
431.66	0.00
431.85	0.00
432.03	0.00
432.22	0.00
432.41	0.00
432.60	0.00
432.79	0.00
432.97	0.00
433.16	0.00
433.35	0.00
433.54	0.00
433.72	0.00
433.91	0.00
434.10	0.00
434.28	0.00
434.47	0.00
434.66	0.00
434.85	0.00
435.03	0.00
435.22	0.00
435.41	37.45
435.59	0.00
435.78	0.00
435.97	0.00
436.16	0.00
436.34	0.00
436.53	0.00
436.72	0.00
436.90	0.00
437.09	0.00
437.28	0.00
437.46	0.00
437.65	0.00
437.84	0.00
438.02	0.00
438.21	0.00
438.40	0.00
438.58	0.00
438.77	0.00
438.96	0.00
439.14	0.00
439.33	0.00
439.52	0.00
439.70	0.00
439.89	0.00
440.08	0.00
440.26	0.00
440.45	0.00
440.63	0.00
440.82	0.00
441.01	0.00
441.19	0.00
441.38	0.00
441.57	11.70
441.75	0.00
441.94	0.00
442.12	0.00
442.31	0.00
442.50	0.00
442.68	0.00
442.87	11.70
443.05	0.00
443.24	0.00
443.43	9.36
443.61	0.00
443.80	0.00
443.98	0.00
444.17	0.00
444.35	0.00
444.54	0.00
444.73	0.00
444.91	0.00
445.10	0.00
445.28	0.00
445.47	0.00
445.65	0.00
445.84	0.00
446.02	0.00
446.21	0.00
446.39	0.00
446.58	0.00
446.77	0.00
446.95	0.00
447.14	0.00
447.32	0.00
447.51	0.00
447.69	0.00
447.88	0.00
448.06	0.00
448.25	0.00
448.43	0.00
448.62	0.00
448.80	0.00
448.99	0.00
449.17	0.00
449.36	0.00
449.54	65.54
449.73	0.00
449.91	46.81
450.10	7.02
450.28	37.45
450.46	18.72
450.65	4.68
450.83	0.00
451.02	9.36
451.20	0.00
451.39	0.00
451.57	0.00
451.76	0.00
451.94	0.00
452.13	0.00
452.31	0.00
452.49	0.00
452.68	0.00
452.86	0.00
453.05	23.41
453.23	0.00
453.42	0.00
453.60	0.00
453.78	0.00
453.97	0.00
454.15	0.00
454.34	0.00
454.52	0.00
454.70	0.00
454.89	0.00
455.07	0.00
455.26	0.00
455.44	0.00
455.62	0.00
455.81	0.00
455.99	0.00
456.17	53.83
456.36	0.00
456.54	0.00
456.73	0.00
456.91	0.00
457.09	0.00
457.28	0.00
457.46	0.00
457.64	7.02
457.83	0.00
458.01	0.00
458.19	28.09
458.38	23.41
458.56	0.00
458.74	0.00
458.93	0.00
459.11	4.68
459.29	9.36
459.48	0.00
459.66	0.00
459.84	0.00
460.03	133.41
460.21	0.00
460.39	0.00
460.57	0.00
460.76	2.34
460.94	0.00
461.12	65.54
461.31	4.68
461.49	0.00
461.67	0.00
461.85	18.72
462.04	0.00
462.22	505.56
462.40	9.36
462.59	0.00
462.77	25.75
462.95	0.00
463.13	0.00
463.32	0.00
463.50	0.00
463.68	2.34
463.86	0.00
464.05	0.00
464.23	0.00
464.41	0.00
464.59	0.00
464.78	0.00
464.96	0.00
465.14	0.00
465.32	28.09
465.50	0.00
465.69	46.81
465.87	0.00
466.05	0.00
466.23	0.00
466.41	0.00
466.60	0.00
466.78	0.00
466.96	0.00
467.14	14.04
467.32	11.70
467.51	42.13
467.69	0.00
467.87	65.54
468.05	56.17
468.23	93.62
468.41	0.00
468.60	0.00
468.78	46.81
468.96	0.00
469.14	35.11
469.32	0.00
469.50	0.00
469.69	0.00
469.87	11.70
470.05	0.00
470.23	0.00
470.41	0.00
470.59	0.00
470.77	0.00
470.95	0.00
471.14	4.68
471.32	0.00
471.50	23.41
471.68	0.00
471.86	117.03
472.04	2.34
472.22	0.00
472.40	0.00
472.58	0.00
472.77	0.00
472.95	0.00
473.13	30.43
473.31	67.88
473.49	0.00
473.67	0.00
473.85	25.75
474.03	9.36
474.21	79.58
474.39	35.11
474.57	60.85
474.75	4.68
474.93	0.00
475.12	0.00
475.30	0.00
475.48	0.00
475.66	0.00
475.84	0.00
476.02	11.70
476.20	16.38
476.38	0.00
476.56	135.75
476.74	0.00
476.92	0.00
477.10	4.68
477.28	72.56
477.46	0.00
477.64	49.15
477.82	60.85
478.00	37.45
478.18	58.51
478.36	56.17
478.54	18.72
478.72	9.36
478.90	30.43
479.08	95.96
479.26	63.19
479.44	58.51
479.62	0.00
479.80	44.47
479.98	25.75
480.16	98.30
480.34	84.26
480.52	0.00
480.70	100.64
480.88	60.85
481.06	67.88
481.24	37.45
481.41	0.00
481.59	121.71
481.77	56.17
481.95	11.70
482.13	72.56
482.31	138.09
482.49	70.22
482.67	14.04
482.85	98.30
483.03	74.90
483.21	102.98
483.39	79.58
483.57	77.24
483.74	107.66
483.92	51.49
484.10	0.00
484.28	65.54
484.46	208.31
484.64	112.35
484.82	121.71
485.00	95.96
485.18	100.64
485.35	44.47
485.53	0.00
485.71	117.03
485.89	14.04
486.07	105.32
486.25	67.88
486.43	67.88
486.61	182.56
486.78	81.92
486.96	65.54
487.14	93.62
487.32	4.68
487.50	65.54
487.68	161.50
487.85	51.49
488.03	93.62
488.21	161.50
488.39	65.54
488.57	117.03
488.75	70.22
488.92	521.94
489.10	145.11
489.28	196.60
489.46	93.62
489.64	98.30
489.81	84.26
489.99	128.73
490.17	112.35
490.35	308.95
490.53	124.05
490.70	60.85
490.88	194.26
491.06	77.24
491.24	201.29
491.41	159.16
491.59	131.07
491.77	60.85
491.95	88.94
492.13	98.30
492.30	175.54
492.48	149.79
492.66	112.35
492.84	187.24
493.01	131.07
493.19	114.69
493.37	217.67
493.54	70.22
493.72	114.69
493.90	105.32
494.08	119.37
494.25	252.78
494.43	234.05
494.61	203.63
494.79	159.16
494.96	105.32
495.14	210.65
495.32	215.33
495.49	177.88
495.67	248.10
495.85	191.92
496.02	159.16
496.20	224.69
496.38	175.54
496.55	210.65
496.73	156.82
496.91	88.94
497.09	147.45
497.26	168.52
497.44	173.20
497.62	212.99
497.79	201.29
497.97	140.43
498.14	241.08
498.32	203.63
498.50	182.56
498.67	231.71
498.85	294.91
499.03	187.24
499.20	196.60
499.38	252.78
499.56	175.54
499.73	299.59
499.91	112.35
500.08	210.65
500.26	149.79
500.44	91.28
500.61	217.67
500.79	175.54
500.97	259.80
501.14	205.97
501.32	184.90
501.49	210.65
501.67	227.03
501.84	285.55
502.02	173.20
502.20	297.25
502.37	175.54
502.55	231.71
502.72	187.24
502.90	308.95
503.07	311.29
503.25	203.63
503.43	102.98
503.60	220.01
503.78	217.67
503.95	117.03
504.13	201.29
504.30	287.89
504.48	257.46
504.65	287.89
504.83	280.86
505.01	117.03
505.18	313.63
505.36	262.14
505.53	322.99
505.71	255.12
505.88	227.03
506.06	283.20
506.23	330.02
506.41	189.58
506.58	255.12
506.76	278.52
506.93	276.18
507.11	311.29
507.28	215.33
507.46	189.58
507.63	220.01
507.81	191.92
507.98	245.76
508.16	201.29
508.33	215.33
508.50	229.37
508.68	248.10
508.85	273.84
509.03	285.55
509.20	196.60
509.38	229.37
509.55	308.95
509.73	243.42
509.90	276.18
510.08	198.95
510.25	273.84
510.42	238.73
510.60	262.14
510.77	266.82
510.95	322.99
511.12	208.31
511.30	308.95
511.47	269.16
511.64	290.23
511.82	287.89
511.99	166.18
512.17	210.65
512.34	234.05
512.51	241.08
512.69	203.63
512.86	229.37
513.04	292.57
513.21	231.71
513.38	227.03
513.56	210.65
513.73	212.99
513.90	308.95
514.08	212.99
514.25	285.55
514.43	182.56
514.60	180.22
514.77	227.03
514.95	227.03
515.12	182.56
515.29	248.10
515.47	297.25
515.64	220.01
515.81	250.44
515.99	358.10
516.16	269.16
516.33	236.39
516.51	198.95
516.68	105.32
516.85	124.05
517.03	245.76
517.20	234.05
517.37	259.80
517.54	269.16
517.72	245.76
517.89	180.22
518.06	210.65
518.24	248.10
518.41	301.93
518.58	411.93
518.75	189.58
518.93	255.12
519.10	234.05
519.27	203.63
519.45	285.55
519.62	252.78
519.79	250.44
519.96	252.78
520.14	210.65
520.31	337.04
520.48	264.48
520.65	348.74
520.83	315.97
521.00	278.52
521.17	259.80
521.34	311.29
521.52	332.36
521.69	369.80
521.86	287.89
522.03	273.84
522.20	318.31
522.38	250.44
522.55	322.99
522.72	322.99
522.89	358.10
523.07	332.36
523.24	304.27
523.41	278.52
523.58	252.78
523.75	297.25
523.92	203.63
524.10	379.17
524.27	287.89
524.44	308.95
524.61	393.21
524.78	278.52
524.96	201.29
525.13	334.70
525.30	374.49
525.47	285.55
525.64	332.36
525.81	278.52
525.98	227.03
526.16	280.86
526.33	231.71
526.50	217.67
526.67	224.69
526.84	259.80
527.01	266.82
527.18	325.33
527.36	283.20
527.53	285.55
527.70	339.38
527.87	322.99
528.04	318.31
528.21	243.42
528.38	299.59
528.55	344.06
528.72	376.83
528.89	355.76
529.07	379.17
529.24	299.59
529.41	259.80
529.58	220.01
529.75	362.78
529.92	334.70
530.09	367.46
530.26	444.70
530.43	362.78
530.60	337.04
530.77	404.91
530.94	409.59
531.11	327.68
531.28	299.59
531.46	292.57
531.63	255.12
531.80	306.61
531.97	379.17
532.14	304.27
532.31	287.89
532.48	332.36
532.65	273.84
532.82	325.33
532.99	327.68
533.16	283.20
533.33	259.80
533.50	271.50
533.67	365.12
533.84	367.46
534.01	376.83
534.18	369.80
534.35	290.23
534.52	383.85
534.69	423.64
534.86	301.93
535.03	325.33
535.20	367.46
535.37	407.25
535.54	278.52
535.71	313.63
535.88	351.08
536.05	325.33
536.22	365.12
536.38	332.36
536.55	262.14
536.72	297.25
536.89	367.46
537.06	243.42
537.23	404.91
537.40	348.74
537.57	348.74
537.74	470.45
537.91	320.65
538.08	297.25
538.25	339.38
538.42	374.49
538.59	332.36
538.75	369.80
538.92	285.55
539.09	292.57
539.26	271.50
539.43	339.38
539.60	294.91
539.77	322.99
539.94	330.02
540.11	337.04
540.28	320.65
540.44	348.74
540.61	313.63
540.78	308.95
540.95	245.76
541.12	297.25
541.29	376.83
541.46	327.68
541.62	369.80
541.79	220.01
541.96	327.68
542.13	334.70
542.30	264.48
542.47	433.00
542.63	346.40
542.80	358.10
542.97	330.02
543.14	322.99
543.31	301.93
543.48	276.18
543.64	325.33
543.81	318.31
543.98	367.46
544.15	372.15
544.32	421.30
544.48	304.27
544.65	271.50
544.82	383.85
544.99	271.50
545.16	294.91
545.32	285.55
545.49	287.89
545.66	386.19
545.83	360.44
546.00	327.68
546.16	322.99
546.33	390.87
546.50	315.97
546.67	341.72
546.83	262.14
547.00	297.25
547.17	231.71
547.34	334.70
547.50	318.31
547.67	414.27
547.84	341.72
548.00	479.81
548.17	346.40
548.34	381.51
548.51	379.17
548.67	339.38
548.84	322.99
549.01	337.04
549.18	313.63
549.34	308.95
549.51	348.74
549.68	376.83
549.84	395.55
550.01	276.18
550.18	493.85
550.34	409.59
550.51	362.78
550.68	372.15
550.84	381.51
551.01	297.25
551.18	416.62
551.34	437.68
551.51	353.42
551.68	355.76
551.84	360.44
552.01	339.38
552.18	348.74
552.34	325.33
552.51	318.31
552.68	374.49
552.84	313.63
553.01	297.25
553.18	308.95
553.34	299.59
553.51	283.20
553.67	369.80
553.84	379.17
554.01	304.27
554.17	376.83
554.34	369.80
554.51	400.23
554.67	376.83
554.84	414.27
555.00	315.97
555.17	390.87
555.33	456.40
555.50	381.51
555.67	402.57
555.83	283.20
556.00	306.61
556.16	531.30
556.33	346.40
556.50	365.12
556.66	334.70
556.83	320.65
556.99	334.70
557.16	330.02
557.32	355.76
557.49	416.62
557.65	273.84
557.82	341.72
557.98	437.68
558.15	297.25
558.32	334.70
558.48	313.63
558.65	259.80
558.81	355.76
558.98	290.23
559.14	351.08
559.31	285.55
559.47	348.74
559.64	301.93
559.80	304.27
559.97	294.91
560.13	276.18
560.30	308.95
560.46	374.49
560.63	383.85
560.79	369.80
560.96	257.46
561.12	362.78
561.29	315.97
561.45	285.55
561.61	262.14
561.78	470.45
561.94	379.17
562.11	220.01
562.27	381.51
562.44	271.50
562.60	390.87
562.77	248.10
562.93	327.68
563.10	437.68
563.26	346.40
563.42	407.25
563.59	344.06
563.75	217.67
563.92	313.63
564.08	393.21
564.24	365.12
564.41	381.51
564.57	299.59
564.74	334.70
564.90	369.80
565.07	318.31
565.23	353.42
565.39	257.46
565.56	308.95
565.72	252.78
565.88	358.10
566.05	395.55
566.21	299.59
566.38	285.55
566.54	430.66
566.70	348.74
566.87	262.14
567.03	299.59
567.19	365.12
567.36	379.17
567.52	341.72
567.68	348.74
567.85	353.42
568.01	348.74
568.17	271.50
568.34	315.97
568.50	262.14
568.66	259.80
568.83	390.87
568.99	381.51
569.15	351.08
569.32	311.29
569.48	337.04
569.64	290.23
569.81	292.57
569.97	231.71
570.13	304.27
570.30	290.23
570.46	337.04
570.62	304.27
570.78	205.97
570.95	212.99
571.11	308.95
571.27	369.80
571.43	257.46
571.60	325.33
571.76	255.12
571.92	330.02
572.09	224.69
572.25	346.40
572.41	278.52
572.57	367.46
572.74	308.95
572.90	402.57
573.06	271.50
573.22	311.29
573.38	409.59
573.55	332.36
573.71	390.87
573.87	320.65
574.03	404.91
574.20	325.33
574.36	379.17
574.52	330.02
574.68	245.76
574.84	358.10
575.01	208.31
575.17	287.89
575.33	428.32
575.49	388.53
575.65	318.31
575.82	278.52
575.98	372.15
576.14	362.78
576.30	259.80
576.46	311.29
576.62	362.78
576.79	390.87
576.95	358.10
577.11	285.55
577.27	280.86
577.43	369.80
577.59	360.44
577.75	315.97
577.92	208.31
578.08	308.95
578.24	273.84
578.40	414.27
578.56	395.55
578.72	341.72
578.88	337.04
579.04	297.25
579.21	299.59
579.37	311.29
579.53	344.06
579.69	337.04
579.85	264.48
580.01	259.80
580.17	280.86
580.33	259.80
580.49	346.40
580.65	337.04
580.82	348.74
580.98	287.89
581.14	252.78
581.30	330.02
581.46	259.80
581.62	301.93
581.78	341.72
581.94	311.29
582.10	313.63
582.26	358.10
582.42	315.97
582.58	273.84
582.74	208.31
582.90	266.82
583.06	313.63
583.22	362.78
583.38	299.59
583.54	365.12
583.70	337.04
583.86	379.17
584.02	313.63
584.18	418.96
584.34	346.40
584.50	292.57
584.66	306.61
584.82	332.36
584.98	351.08
585.14	374.49
585.30	264.48
585.46	283.20
585.62	332.36
585.78	348.74
585.94	308.95
586.10	276.18
586.26	241.08
586.42	292.57
586.58	435.34
586.74	273.84
586.90	390.87
587.06	315.97
587.22	262.14
587.38	341.72
587.54	259.80
587.70	386.19
587.86	290.23
588.02	248.10
588.18	292.57
588.34	271.50
588.49	177.88
588.65	283.20
588.81	152.13
588.97	290.23
589.13	243.42
589.29	217.67
589.45	334.70
589.61	325.33
589.77	285.55
589.93	346.40
590.08	259.80
590.24	205.97
590.40	273.84
590.56	353.42
590.72	299.59
590.88	271.50
591.04	290.23
591.20	348.74
591.35	287.89
591.51	348.74
591.67	280.86
591.83	229.37
591.99	248.10
592.15	339.38
592.31	346.40
592.46	257.46
592.62	313.63
592.78	262.14
592.94	210.65
593.10	320.65
593.26	292.57
593.41	353.42
593.57	320.65
593.73	201.29
593.89	283.20
594.05	227.03
594.20	210.65
594.36	348.74
594.52	271.50
594.68	355.76
594.84	416.62
594.99	278.52
595.15	337.04
595.31	283.20
595.47	388.53
595.62	290.23
595.78	353.42
595.94	327.68
596.10	299.59
596.25	255.12
596.41	330.02
596.57	255.12
596.73	290.23
596.88	362.78
597.04	315.97
597.20	278.52
597.36	337.04
597.51	327.68
597.67	287.89
597.83	304.27
597.99	332.36
598.14	278.52
598.30	278.52
598.46	273.84
598.61	337.04
598.77	273.84
598.93	266.82
599.09	313.63
599.24	220.01
599.40	301.93
599.56	285.55
599.71	318.31
599.87	198.95
600.03	287.89
600.18	271.50
600.34	285.55
600.50	203.63
600.65	278.52
600.81	285.55
600.97	245.76
601.12	236.39
601.28	318.31
601.44	229.37
601.59	252.78
601.75	262.14
601.91	252.78
602.06	210.65
602.22	355.76
602.37	334.70
602.53	245.76
602.69	297.25
602.84	236.39
603.00	287.89
603.16	301.93
603.31	285.55
603.47	334.70
603.62	212.99
603.78	208.31
603.94	362.78
604.09	217.67
604.25	290.23
604.40	306.61
604.56	318.31
604.71	276.18
604.87	301.93
605.03	287.89
605.18	297.25
605.34	299.59
605.49	287.89
605.65	344.06
605.80	301.93
605.96	299.59
606.12	290.23
606.27	252.78
606.43	360.44
606.58	332.36
606.74	210.65
606.89	250.44
607.05	287.89
607.20	227.03
607.36	166.18
607.51	177.88
607.67	264.48
607.82	248.10
607.98	287.89
608.13	294.91
608.29	245.76
608.44	257.46
608.60	259.80
608.75	243.42
608.91	280.86
609.06	215.33
609.22	292.57
609.37	112.35
609.53	117.03
609.68	234.05
609.84	189.58
609.99	180.22
610.15	203.63
610.30	250.44
610.46	337.04
610.61	276.18
610.76	322.99
610.92	255.12
611.07	259.80
611.23	376.83
611.38	313.63
611.54	301.93
611.69	217.67
611.84	154.48
612.00	201.29
612.15	217.67
612.31	259.80
612.46	180.22
612.62	180.22
612.77	250.44
612.92	330.02
613.08	264.48
613.23	229.37
613.39	283.20
613.54	234.05
613.69	255.12
613.85	257.46
614.00	266.82
614.15	264.48
614.31	271.50
614.46	238.73
614.62	187.24
614.77	236.39
614.92	313.63
615.08	222.35
615.23	184.90
615.38	212.99
615.54	299.59
615.69	210.65
615.84	163.84
616.00	215.33
616.15	180.22
616.30	262.14
616.46	147.45
616.61	238.73
616.76	215.33
616.92	280.86
617.07	245.76
617.22	248.10
617.37	241.08
617.53	255.12
617.68	248.10
617.83	241.08
617.99	271.50
618.14	290.23
618.29	264.48
618.45	196.60
618.60	184.90
618.75	215.33
618.90	241.08
619.06	243.42
619.21	238.73
619.36	283.20
619.51	262.14
619.67	201.29
619.82	168.52
619.97	280.86
620.12	283.20
620.28	231.71
620.43	212.99
620.58	257.46
620.73	210.65
620.89	271.50
621.04	220.01
621.19	297.25
621.34	205.97
621.49	170.86
621.65	124.05
621.80	177.88
621.95	205.97
622.10	245.76
622.25	196.60
622.41	161.50
622.56	205.97
622.71	203.63
622.86	262.14
623.01	187.24
623.16	248.10
623.32	170.86
