SpectraSuite Data File
++++++++++++++++++++++++++++++++++++
Date: Mon Oct 07 15:00:17 GMT-05:00 2013
User: price-jones
Dark Spectrum Present: No
Reference Spectrum Present: No
Number of Sampled Component Spectra: 1
Spectrometers: USB2+H05261
Integration Time (usec): 1000000 (USB2+H05261)
Spectra Averaged: 1 (USB2+H05261)
Boxcar Smoothing: 0 (USB2+H05261)
Correct for Electrical Dark: No (USB2+H05261)
Strobe/Lamp Enabled: No (USB2+H05261)
Correct for Detector Non-linearity: No (USB2+H05261)
Correct for Stray Light: No (USB2+H05261)
Number of Pixels in Processed Spectrum: 2048
>>>>>Begin Processed Spectral Data<<<<<
365.73	0.00
365.92	0.00
366.12	0.00
366.32	0.00
366.52	0.00
366.72	205.97
366.91	0.00
367.11	140.43
367.31	58.51
367.51	152.13
367.70	140.43
367.90	423.64
368.10	184.90
368.30	210.65
368.49	0.00
368.69	299.59
368.89	145.11
369.09	0.00
369.28	177.88
369.48	0.00
369.68	102.98
369.87	250.44
370.07	28.09
370.27	519.60
370.47	297.25
370.66	152.13
370.86	465.77
371.06	809.83
371.25	1018.13
371.45	369.80
371.65	538.32
371.84	304.27
372.04	173.20
372.24	468.11
372.44	315.97
372.63	444.70
372.83	849.61
373.03	381.51
373.22	294.91
373.42	304.27
373.62	402.57
373.81	538.32
374.01	770.04
374.21	683.44
374.40	454.06
374.60	823.87
374.79	416.62
374.99	376.83
375.19	557.05
375.38	594.50
375.58	458.74
375.78	800.46
375.97	631.94
376.17	1093.03
376.37	620.24
376.56	545.34
376.76	337.04
376.95	308.95
377.15	643.65
377.35	587.47
377.54	641.31
377.74	386.19
377.93	372.15
378.13	594.50
378.33	809.83
378.52	482.15
378.72	779.40
378.91	763.01
379.11	402.57
379.31	390.87
379.50	208.31
379.70	765.36
379.89	821.53
380.09	447.04
380.28	236.39
380.48	484.49
380.68	339.38
380.87	276.18
381.07	543.00
381.26	805.14
381.46	196.60
381.65	627.26
381.85	390.87
382.04	596.84
382.24	552.37
382.43	423.64
382.63	299.59
382.83	477.47
383.02	650.67
383.22	842.59
383.41	337.04
383.61	461.09
383.80	854.30
384.00	435.34
384.19	334.70
384.39	449.38
384.58	402.57
384.78	608.54
384.97	566.41
385.17	531.30
385.36	393.21
385.56	667.05
385.75	308.95
385.95	484.49
386.14	683.44
386.34	372.15
386.53	582.79
386.72	442.36
386.92	870.68
387.11	653.01
387.31	624.92
387.50	285.55
387.70	311.29
387.89	479.81
388.09	322.99
388.28	341.72
388.48	285.55
388.67	692.80
388.86	402.57
389.06	505.56
389.25	662.37
389.45	629.60
389.64	437.68
389.84	863.66
390.03	650.67
390.22	655.35
390.42	526.62
390.61	369.80
390.81	330.02
391.00	573.43
391.19	863.66
391.39	517.26
391.58	657.69
391.78	552.37
391.97	601.52
392.16	365.12
392.36	840.25
392.55	807.48
392.75	510.24
392.94	393.21
393.13	725.57
393.33	262.14
393.52	491.51
393.71	947.92
393.91	543.00
394.10	367.46
394.29	416.62
394.49	435.34
394.68	589.82
394.88	814.51
395.07	840.25
395.26	514.92
395.46	592.16
395.65	891.74
395.84	653.01
396.04	1479.22
396.23	589.82
396.42	416.62
396.62	613.22
396.81	662.37
397.00	594.50
397.19	610.88
397.39	519.60
397.58	915.15
397.77	538.32
397.97	587.47
398.16	510.24
398.35	767.70
398.55	468.11
398.74	653.01
398.93	887.06
399.12	580.45
399.32	844.93
399.51	575.77
399.70	802.80
399.90	636.63
400.09	826.21
400.28	858.98
400.47	575.77
400.67	807.48
400.86	697.48
401.05	791.10
401.24	863.66
401.44	891.74
401.63	861.32
401.82	1069.62
402.01	545.34
402.21	863.66
402.40	826.21
402.59	430.66
402.78	610.88
402.97	683.44
403.17	674.07
403.36	777.06
403.55	660.03
403.74	674.07
403.93	599.18
404.13	919.83
404.32	554.71
404.51	552.37
404.70	931.53
404.89	784.08
405.09	1296.66
405.28	594.50
405.47	519.60
405.66	950.26
405.85	1022.81
406.05	739.61
406.24	678.76
406.43	819.19
406.62	842.59
406.81	1345.81
407.00	1015.79
407.20	767.70
407.39	725.57
407.58	716.20
407.77	943.24
407.96	1041.54
408.15	968.98
408.34	912.81
408.54	812.17
408.73	812.17
408.92	863.66
409.11	915.15
409.30	1111.75
409.49	578.11
409.68	718.54
409.87	774.72
410.07	690.46
410.26	774.72
410.45	739.61
410.64	631.94
410.83	877.70
411.02	758.33
411.21	959.62
411.40	1018.13
411.59	746.63
411.78	784.08
411.98	830.89
412.17	617.90
412.36	711.52
412.55	830.89
412.74	1013.45
412.93	1291.98
413.12	737.27
413.31	1146.86
413.50	1006.43
413.69	816.85
413.88	1287.29
414.07	990.05
414.26	915.15
414.45	741.95
414.64	966.64
414.83	1048.56
415.02	957.28
415.22	1046.22
415.41	1207.72
415.60	809.83
415.79	987.71
415.98	1301.34
416.17	905.79
416.36	868.34
416.55	755.99
416.74	1142.18
416.93	1191.33
417.12	905.79
417.31	880.04
417.50	947.92
417.69	1392.62
417.88	891.74
418.07	727.91
418.26	866.00
418.45	919.83
418.64	1406.66
418.83	1102.39
419.02	1048.56
419.21	1041.54
419.39	971.32
419.58	786.42
419.77	889.40
419.96	1170.27
420.15	1479.22
420.34	954.94
420.53	1109.41
420.72	1355.17
420.91	1025.15
421.10	1039.20
421.29	1125.80
421.48	1116.44
421.67	1193.67
421.86	1020.47
422.05	964.30
422.24	870.68
422.43	992.39
422.61	889.40
422.80	933.87
422.99	1034.52
423.18	980.68
423.37	1348.15
423.56	1254.53
423.75	1097.71
423.94	896.43
424.13	997.07
424.32	868.34
424.50	933.87
424.69	1032.18
424.88	1355.17
425.07	950.26
425.26	1032.18
425.45	1184.31
425.64	840.25
425.83	915.15
426.01	1254.53
426.20	1172.61
426.39	954.94
426.58	908.13
426.77	1062.60
426.96	1128.14
427.15	1109.41
427.33	880.04
427.52	1029.84
427.71	994.73
427.90	1071.97
428.09	976.00
428.28	833.23
428.46	985.37
428.65	1167.93
428.84	844.93
429.03	1439.43
429.22	889.40
429.40	720.88
429.59	723.23
429.78	1130.48
429.97	833.23
430.16	716.20
430.34	854.30
430.53	882.38
430.72	875.36
430.91	1240.48
431.10	800.46
431.28	1088.35
431.47	1343.47
431.66	1252.19
431.85	938.55
432.03	968.98
432.22	1629.01
432.41	1036.86
432.60	1427.73
432.79	1022.81
432.97	1156.22
433.16	1022.81
433.35	873.02
433.54	950.26
433.72	1174.95
433.91	1186.65
434.10	929.19
434.28	1186.65
434.47	1046.22
434.66	1380.92
434.85	1069.62
435.03	1128.14
435.22	1610.29
435.41	1650.08
435.59	1310.70
435.78	1207.72
435.97	1203.04
436.16	1467.52
436.34	1268.57
436.53	1249.85
436.72	1434.75
436.90	1406.66
437.09	1373.89
437.28	1240.48
437.46	1153.88
437.65	1282.61
437.84	1287.29
438.02	1198.35
438.21	1224.10
438.40	1008.77
438.58	905.79
438.77	1172.61
438.96	1205.38
439.14	1067.28
439.33	1376.24
439.52	1188.99
439.70	1259.21
439.89	1397.30
440.08	1359.85
440.26	1247.51
440.45	1727.32
440.63	1380.92
440.82	1249.85
441.01	1458.15
441.19	1231.12
441.38	1235.80
441.57	1226.44
441.75	1701.57
441.94	1568.16
442.12	1334.11
442.31	1350.49
442.50	1369.21
442.68	1352.83
442.87	1343.47
443.05	1385.60
443.24	1416.02
443.43	1537.73
443.61	1734.34
443.80	1404.32
443.98	1270.91
444.17	1299.00
444.35	1596.25
444.54	1430.07
444.73	1364.53
444.91	1617.31
445.10	1186.65
445.28	1158.57
445.47	1331.76
445.65	1277.93
445.84	1200.69
446.02	1334.11
446.21	1322.40
446.39	1296.66
446.58	1516.67
446.77	1322.40
446.95	1291.98
447.14	1537.73
447.32	1881.79
447.51	1439.43
447.69	1427.73
447.88	1423.05
448.06	1844.34
448.25	1586.88
448.43	1315.38
448.62	1172.61
448.80	1479.22
448.99	1572.84
449.17	1327.08
449.36	1369.21
449.54	1666.46
449.73	1259.21
449.91	1577.52
450.10	1500.28
450.28	2064.35
450.46	2125.21
450.65	1771.79
450.83	1717.95
451.02	1453.47
451.20	1430.07
451.39	1519.01
451.57	1401.98
451.76	1409.00
451.94	1385.60
452.13	1643.06
452.31	1797.53
452.49	1577.52
452.68	1177.29
452.86	1624.33
453.05	1961.37
453.23	1493.26
453.42	1282.61
453.60	1427.73
453.78	1516.67
453.97	1294.32
454.15	1352.83
454.34	1291.98
454.52	1343.47
454.70	1930.94
454.89	1689.87
455.07	1364.53
455.26	1696.89
455.44	1748.38
455.62	1476.88
455.81	1579.86
455.99	1650.08
456.17	1710.93
456.36	1549.43
456.54	1481.56
456.73	1460.49
456.91	1441.77
457.09	1685.19
457.28	1996.48
457.46	1561.14
457.64	1827.96
457.83	1572.84
458.01	1308.36
458.19	1626.67
458.38	1467.52
458.56	1664.12
458.74	1378.58
458.93	1579.86
459.11	1769.44
459.29	1437.09
459.48	1774.13
459.66	2087.76
459.84	1813.92
460.03	2733.75
460.21	1930.94
460.39	1540.07
460.57	2012.86
460.76	1619.65
460.94	1682.85
461.12	2073.71
461.31	2012.86
461.49	1724.97
461.67	1530.71
461.85	1809.23
462.04	1516.67
462.22	8191.88
462.40	2071.37
462.59	1863.07
462.77	1486.24
462.95	1603.27
463.13	1371.55
463.32	1919.24
463.50	1741.36
463.68	1741.36
463.86	1547.09
464.05	1596.25
464.23	1923.92
464.41	1825.62
464.59	1500.28
464.78	1572.84
464.96	1420.71
465.14	1626.67
465.32	1584.54
465.50	1881.79
465.69	1919.24
465.87	1561.14
466.05	1748.38
466.23	1334.11
466.41	1596.25
466.60	1671.14
466.78	1659.44
466.96	1949.67
467.14	1743.70
467.32	2031.58
467.51	1746.04
467.69	1846.68
467.87	1996.48
468.05	1732.00
468.23	2165.00
468.41	1921.58
468.60	1682.85
468.78	1842.00
468.96	2097.12
469.14	1867.75
469.32	1474.54
469.50	1488.58
469.69	1767.10
469.87	1732.00
470.05	1703.91
470.23	1689.87
470.41	1584.54
470.59	1526.03
470.77	1769.44
470.95	1689.87
471.14	2059.67
471.32	1867.75
471.50	2289.04
471.68	1811.57
471.86	1930.94
472.04	1689.87
472.22	1830.30
472.40	1469.86
472.58	1610.29
472.77	1465.18
472.95	1661.78
473.13	2375.64
473.31	2099.46
473.49	1551.78
473.67	1584.54
473.85	1942.64
474.03	1937.96
474.21	1942.64
474.39	2146.27
474.57	2406.07
474.75	1947.33
474.93	1701.57
475.12	1554.12
475.30	1874.77
475.48	1902.86
475.66	2015.20
475.84	1820.94
476.02	1823.28
476.20	1994.14
476.38	1909.88
476.56	2574.59
476.74	1827.96
476.92	1760.08
477.10	1912.22
477.28	2113.50
477.46	2008.18
477.64	2186.06
477.82	1935.62
478.00	1987.11
478.18	2097.12
478.36	1912.22
478.54	1811.57
478.72	1893.49
478.90	1994.14
479.08	2181.38
479.26	2073.71
479.44	1982.43
479.62	1970.73
479.80	2040.95
479.98	1975.41
480.16	1919.24
480.34	2232.87
480.52	1933.28
480.70	2155.63
480.88	2022.22
481.06	2017.54
481.24	2045.63
481.41	2120.53
481.59	2370.96
481.77	2267.98
481.95	2129.89
482.13	2462.24
482.31	2277.34
482.49	2066.69
482.67	2473.95
482.85	2487.99
483.03	2417.77
483.21	2324.15
483.39	2031.58
483.57	2270.32
483.74	2630.76
483.92	2242.23
484.10	2090.10
484.28	2605.02
484.46	2967.80
484.64	2235.21
484.82	2291.38
485.00	2204.78
485.18	2204.78
485.35	2197.76
485.53	1816.26
485.71	2239.89
485.89	1792.85
486.07	1956.69
486.25	2780.56
486.43	2347.56
486.61	2466.92
486.78	2553.52
486.96	2129.89
487.14	2256.28
487.32	2328.83
487.50	2385.01
487.68	2696.30
487.85	2366.28
488.03	2616.72
488.21	2822.69
488.39	2410.75
488.57	2579.27
488.75	2310.11
488.92	5996.45
489.10	2764.17
489.28	3157.38
489.46	2534.80
489.64	2644.81
489.81	2677.57
489.99	2796.94
490.17	2679.91
490.35	3651.24
490.53	2605.02
490.70	2490.33
490.88	2876.52
491.06	2668.21
491.24	2902.26
491.41	3070.78
491.59	2757.15
491.77	2305.43
491.95	2415.43
492.13	2574.59
492.30	2726.72
492.48	2705.66
492.66	2897.58
492.84	2754.81
493.01	2843.75
493.19	2658.85
493.37	3269.73
493.54	2946.73
493.72	3049.72
493.90	2810.98
494.08	2689.28
494.25	2991.20
494.43	3112.91
494.61	2946.73
494.79	2855.45
494.96	2729.06
495.14	3070.78
495.32	2789.92
495.49	2972.48
495.67	2892.90
495.85	2895.24
496.02	2925.67
496.20	3197.17
496.38	3222.92
496.55	3009.93
496.73	3229.94
496.91	2853.11
497.09	3346.97
497.26	3094.19
497.44	3002.91
497.62	3063.76
497.79	2902.26
497.97	3192.49
498.14	3117.59
498.32	3054.40
498.50	3169.09
498.67	2988.86
498.85	3225.26
499.03	3218.24
499.20	3248.66
499.38	3199.51
499.56	3155.04
499.73	3578.68
499.91	3400.80
500.08	3456.97
500.26	2904.60
500.44	2956.10
500.61	3112.91
500.79	3047.38
500.97	3143.34
501.14	3569.32
501.32	3192.49
501.49	3370.37
501.67	3040.36
501.84	3279.09
502.02	2923.33
502.20	3705.07
502.37	3279.09
502.55	3169.09
502.72	3260.37
502.90	3531.87
503.07	3410.16
503.25	3346.97
503.43	2832.05
503.60	3171.43
503.78	3258.03
503.95	3204.19
504.13	3227.60
504.30	3662.94
504.48	3531.87
504.65	3595.06
504.83	3602.08
505.01	3307.18
505.18	3375.05
505.36	3456.97
505.53	3309.52
505.71	3468.67
505.88	3894.65
506.06	3318.88
506.23	3241.64
506.41	3267.39
506.58	3435.91
506.76	3435.91
506.93	3365.69
507.11	3517.83
507.28	3126.96
507.46	3159.72
507.63	3262.71
507.81	3115.25
507.98	3225.26
508.16	3534.21
508.33	3346.97
508.50	3625.49
508.68	3531.87
508.85	3454.63
509.03	3407.82
509.20	3403.14
509.38	3510.80
509.55	3796.35
509.73	3609.11
509.90	3815.07
510.08	3274.41
510.25	3552.93
510.42	3353.99
510.60	3492.08
510.77	3524.85
510.95	3859.54
511.12	3562.30
511.30	3751.88
511.47	3779.97
511.64	4112.32
511.82	3590.38
511.99	3494.42
512.17	3349.31
512.34	3246.32
512.51	3405.48
512.69	3372.71
512.86	3875.93
513.04	3377.39
513.21	3517.83
513.38	3403.14
513.56	3375.05
513.73	3372.71
513.90	3260.37
514.08	3201.85
514.25	3669.96
514.43	3524.85
514.60	3164.40
514.77	3454.63
514.95	3496.76
515.12	3365.69
515.29	3719.11
515.47	3742.52
515.64	3714.43
515.81	3522.51
515.99	3934.44
516.16	3482.72
516.33	3485.06
516.51	2979.50
516.68	2761.83
516.85	2967.80
517.03	3138.66
517.20	3361.01
517.37	3660.60
517.54	3632.51
517.72	3403.14
517.89	2869.50
518.06	3005.25
518.24	3740.18
518.41	3889.97
518.58	3555.27
518.75	3225.26
518.93	3363.35
519.10	3583.36
519.27	3503.78
519.45	3679.32
519.62	3866.56
519.79	3812.73
519.96	3545.91
520.14	3545.91
520.31	3887.63
520.48	3618.47
520.65	3850.18
520.83	3974.23
521.00	3950.82
521.17	4035.08
521.34	3576.34
521.52	3918.06
521.69	3894.65
521.86	3826.78
522.03	3990.61
522.20	4039.76
522.38	3466.33
522.55	3698.05
522.72	3302.50
522.89	3833.80
523.07	4231.69
523.24	3705.07
523.41	3723.79
523.58	3744.86
523.75	3871.25
523.92	3644.21
524.10	3854.86
524.27	3812.73
524.44	3875.93
524.61	4140.41
524.78	3726.13
524.96	3962.53
525.13	3889.97
525.30	4149.77
525.47	4114.66
525.64	3847.84
525.81	3803.37
525.98	3585.70
526.16	3424.20
526.33	3337.60
526.50	3253.34
526.67	3206.53
526.84	3375.05
527.01	3417.18
527.18	3840.82
527.36	3936.78
527.53	3524.85
527.70	4114.66
527.87	3801.03
528.04	4407.23
528.21	3786.99
528.38	4262.12
528.55	4346.37
528.72	4407.23
528.89	4643.62
529.07	4154.45
529.24	3911.04
529.41	4191.90
529.58	3875.93
529.75	3716.77
529.92	4046.79
530.09	4032.74
530.26	4557.02
530.43	4243.39
530.60	4042.11
530.77	4046.79
530.94	4304.25
531.11	4128.70
531.28	3974.23
531.46	3810.39
531.63	4079.55
531.80	4149.77
531.97	4074.87
532.14	3843.16
532.31	3761.24
532.48	3779.97
532.65	3686.34
532.82	3705.07
532.99	3925.08
533.16	3854.86
533.33	4032.74
533.50	3899.33
533.67	3808.05
533.84	4070.19
534.01	4032.74
534.18	3999.98
534.35	4042.11
534.52	4058.49
534.69	4416.59
534.86	4021.04
535.03	4028.06
535.20	4016.36
535.37	4535.96
535.54	4271.48
535.71	4159.13
535.88	4432.97
536.05	3894.65
536.22	4168.49
536.38	3868.91
536.55	3976.57
536.72	4152.11
536.89	3845.50
537.06	3920.40
537.23	3925.08
537.40	4088.92
537.57	4065.51
537.74	4306.59
537.91	4168.49
538.08	4014.02
538.25	4180.20
538.42	3969.55
538.59	4166.15
538.75	4070.19
538.92	3976.57
539.09	4318.29
539.26	3995.29
539.43	4346.37
539.60	3920.40
539.77	4021.04
539.94	3894.65
540.11	4032.74
540.28	4212.96
540.44	4365.10
540.61	3950.82
540.78	3955.51
540.95	3761.24
541.12	4346.37
541.29	3985.93
541.46	4451.70
541.62	4222.33
541.79	3854.86
541.96	3857.20
542.13	3922.74
542.30	3740.18
542.47	4196.58
542.63	4063.17
542.80	3999.98
542.97	4360.42
543.14	4030.40
543.31	4224.67
543.48	4093.60
543.64	4128.70
543.81	4301.90
543.98	4002.32
544.15	3920.40
544.32	3997.64
544.48	4243.39
544.65	4128.70
544.82	4014.02
544.99	3995.29
545.16	4402.55
545.32	3889.97
545.49	4093.60
545.66	4084.23
545.83	3899.33
546.00	3995.29
546.16	3995.29
546.33	4023.38
546.50	4100.62
546.67	4491.49
546.83	4306.59
547.00	4044.45
547.17	3815.07
547.34	3639.53
547.50	3988.27
547.67	3957.85
547.84	3911.04
548.00	4325.31
548.17	3955.51
548.34	4011.68
548.51	4741.93
548.67	4428.29
548.84	4072.53
549.01	4210.62
549.18	4203.60
549.34	4318.29
549.51	4152.11
549.68	4072.53
549.84	3962.53
550.01	3786.99
550.18	5703.89
550.34	4908.10
550.51	4086.58
550.68	4491.49
550.84	4086.58
551.01	4217.65
551.18	4245.73
551.34	4063.17
551.51	4063.17
551.68	4161.47
551.84	4409.57
552.01	4011.68
552.18	3995.29
552.34	4100.62
552.51	4114.66
552.68	4329.99
552.84	3932.10
553.01	4208.28
553.18	4301.90
553.34	4042.11
553.51	3847.84
553.67	4369.78
553.84	4732.56
554.01	4278.50
554.17	4234.03
554.34	3962.53
554.51	4217.65
554.67	4442.34
554.84	4348.72
555.00	4292.54
555.17	4234.03
555.33	4428.29
555.50	4177.86
555.67	4306.59
555.83	3920.40
556.00	4091.26
556.16	6169.65
556.33	4248.07
556.50	4138.07
556.66	4056.15
556.83	3815.07
556.99	3817.41
557.16	3990.61
557.32	3992.95
557.49	3815.07
557.65	4016.36
557.82	3906.35
557.98	4102.96
558.15	3829.12
558.32	3691.02
558.48	3712.09
558.65	3815.07
558.81	4138.07
558.98	3836.14
559.14	4124.02
559.31	4016.36
559.47	4175.52
559.64	3728.47
559.80	4105.30
559.97	3693.37
560.13	3864.22
560.30	3908.69
560.46	4081.89
560.63	4060.83
560.79	4182.54
560.96	4056.15
561.12	3763.58
561.29	4119.34
561.45	3953.16
561.61	3927.42
561.78	5043.85
561.94	3974.23
562.11	3810.39
562.27	3969.55
562.44	3824.44
562.60	4117.00
562.77	3908.69
562.93	4807.46
563.10	4152.11
563.26	3976.57
563.42	4409.57
563.59	4025.72
563.75	3772.94
563.92	4299.56
564.08	4093.60
564.24	4248.07
564.41	4664.69
564.57	3740.18
564.74	4016.36
564.90	4117.00
565.07	4042.11
565.23	4072.53
565.39	3784.65
565.56	3992.95
565.72	3723.79
565.88	3833.80
566.05	3906.35
566.21	3817.41
566.38	4018.70
566.54	4086.58
566.70	3967.21
566.87	3878.27
567.03	3658.26
567.19	4070.19
567.36	4140.41
567.52	3878.27
567.68	4088.92
567.85	4028.06
568.01	3829.12
568.17	3613.79
568.34	3798.69
568.50	4243.39
568.66	3782.31
568.83	4901.08
568.99	3836.14
569.15	4142.75
569.32	3831.46
569.48	3906.35
569.64	3712.09
569.81	3857.20
569.97	3754.22
570.13	4081.89
570.30	3684.00
570.46	3763.58
570.62	3742.52
570.78	3695.71
570.95	3660.60
571.11	4280.84
571.27	4311.27
571.43	3632.51
571.60	4063.17
571.76	3936.78
571.92	3948.48
572.09	3772.94
572.25	3950.82
572.41	3904.01
572.57	4021.04
572.74	4477.44
572.90	4292.54
573.06	4002.32
573.22	4109.98
573.38	4227.01
573.55	4241.05
573.71	4208.28
573.87	4126.36
574.03	3859.54
574.20	3854.86
574.36	4311.27
574.52	3896.99
574.68	3885.29
574.84	3960.19
575.01	3789.33
575.17	3964.87
575.33	3770.60
575.49	4180.20
575.65	4161.47
575.82	4154.45
575.98	4442.34
576.14	4051.47
576.30	3880.61
576.46	3971.89
576.62	3854.86
576.79	4011.68
576.95	4217.65
577.11	3660.60
577.27	3681.66
577.43	4128.70
577.59	4337.01
577.75	3974.23
577.92	3709.75
578.08	3562.30
578.24	3578.68
578.40	4131.05
578.56	4112.32
578.72	4205.94
578.88	4121.68
579.04	3796.35
579.21	3960.19
579.37	3801.03
579.53	3918.06
579.69	4152.11
579.85	3768.26
580.01	3957.85
580.17	3695.71
580.33	3892.31
580.49	4053.81
580.65	4079.55
580.82	3822.09
580.98	3801.03
581.14	3831.46
581.30	4358.08
581.46	3906.35
581.62	4285.52
581.78	3901.67
581.94	4002.32
582.10	3630.17
582.26	3796.35
582.42	3812.73
582.58	4056.15
582.74	3815.07
582.90	3974.23
583.06	4241.05
583.22	4112.32
583.38	3894.65
583.54	3796.35
583.70	4454.04
583.86	4077.21
584.02	4004.66
584.18	4229.35
584.34	3964.87
584.50	4046.79
584.66	3786.99
584.82	3566.98
584.98	3946.14
585.14	3747.20
585.30	4257.43
585.46	3667.62
585.62	3578.68
585.78	3735.50
585.94	3999.98
586.10	3887.63
586.26	3997.64
586.42	4423.61
586.58	4105.30
586.74	3913.38
586.90	3887.63
587.06	4088.92
587.22	3815.07
587.38	3597.40
587.54	3658.26
587.70	4149.77
587.86	4210.62
588.02	3709.75
588.18	3810.39
588.34	3765.92
588.49	3084.83
588.65	3201.85
588.81	3241.64
588.97	3019.29
589.13	3386.76
589.29	3559.95
589.45	3817.41
589.61	3590.38
589.77	3995.29
589.93	3552.93
590.08	3559.95
590.24	3639.53
590.40	3590.38
590.56	3878.27
590.72	3733.15
590.88	3435.91
591.04	3817.41
591.20	3562.30
591.35	4117.00
591.51	3618.47
591.67	3428.88
591.83	3592.72
591.99	3672.30
592.15	3906.35
592.31	3779.97
592.46	3616.13
592.62	3789.33
592.78	3503.78
592.94	3478.04
593.10	3623.15
593.26	3620.81
593.41	3786.99
593.57	3721.45
593.73	3581.02
593.89	3789.33
594.05	3585.70
594.20	3576.34
594.36	4016.36
594.52	3492.08
594.68	3564.64
594.84	4056.15
594.99	4180.20
595.15	3784.65
595.31	3836.14
595.47	4168.49
595.62	3604.42
595.78	3665.28
595.94	3749.54
596.10	4264.46
596.25	3918.06
596.41	3992.95
596.57	3590.38
596.73	3695.71
596.88	3712.09
597.04	3702.73
597.20	3581.02
597.36	3595.06
597.51	3482.72
597.67	3588.04
597.83	3478.04
597.99	3880.61
598.14	3590.38
598.30	3822.09
598.46	3494.42
598.61	3953.16
598.77	3782.31
598.93	3555.27
