SpectraSuite Data File
++++++++++++++++++++++++++++++++++++
Date: Mon Oct 07 15:00:00 GMT-05:00 2013
User: price-jones
Dark Spectrum Present: No
Reference Spectrum Present: No
Number of Sampled Component Spectra: 1
Spectrometers: USB2+H05261
Integration Time (usec): 100000 (USB2+H05261)
Spectra Averaged: 1 (USB2+H05261)
Boxcar Smoothing: 0 (USB2+H05261)
Correct for Electrical Dark: No (USB2+H05261)
Strobe/Lamp Enabled: No (USB2+H05261)
Correct for Detector Non-linearity: No (USB2+H05261)
Correct for Stray Light: No (USB2+H05261)
Number of Pixels in Processed Spectrum: 2048
>>>>>Begin Processed Spectral Data<<<<<
365.73	0.00
365.92	0.00
366.12	0.00
366.32	0.00
366.52	0.00
366.72	0.00
366.91	0.00
367.11	0.00
367.31	0.00
367.51	0.00
367.70	0.00
367.90	0.00
368.10	0.00
368.30	0.00
368.49	0.00
368.69	0.00
368.89	0.00
369.09	0.00
369.28	0.00
369.48	0.00
369.68	0.00
369.87	0.00
370.07	0.00
370.27	0.00
370.47	0.00
370.66	0.00
370.86	0.00
371.06	0.00
371.25	0.00
371.45	0.00
371.65	0.00
371.84	0.00
372.04	0.00
372.24	0.00
372.44	0.00
372.63	0.00
372.83	0.00
373.03	0.00
373.22	0.00
373.42	0.00
373.62	0.00
373.81	0.00
374.01	0.00
374.21	0.00
374.40	0.00
374.60	0.00
374.79	0.00
374.99	0.00
375.19	0.00
375.38	0.00
375.58	0.00
375.78	0.00
375.97	0.00
376.17	0.00
376.37	0.00
376.56	0.00
376.76	0.00
376.95	0.00
377.15	0.00
377.35	0.00
377.54	0.00
377.74	0.00
377.93	0.00
378.13	0.00
378.33	0.00
378.52	0.00
378.72	0.00
378.91	0.00
379.11	0.00
379.31	0.00
379.50	0.00
379.70	0.00
379.89	0.00
380.09	0.00
380.28	0.00
380.48	0.00
380.68	0.00
380.87	0.00
381.07	0.00
381.26	0.00
381.46	0.00
381.65	0.00
381.85	0.00
382.04	0.00
382.24	0.00
382.43	0.00
382.63	0.00
382.83	0.00
383.02	0.00
383.22	0.00
383.41	0.00
383.61	0.00
383.80	0.00
384.00	0.00
384.19	0.00
384.39	0.00
384.58	0.00
384.78	0.00
384.97	0.00
385.17	0.00
385.36	0.00
385.56	0.00
385.75	0.00
385.95	0.00
386.14	0.00
386.34	0.00
386.53	0.00
386.72	0.00
386.92	0.00
387.11	0.00
387.31	0.00
387.50	0.00
387.70	0.00
387.89	0.00
388.09	0.00
388.28	0.00
388.48	0.00
388.67	0.00
388.86	0.00
389.06	0.00
389.25	0.00
389.45	0.00
389.64	0.00
389.84	0.00
390.03	0.00
390.22	0.00
390.42	0.00
390.61	0.00
390.81	0.00
391.00	0.00
391.19	0.00
391.39	0.00
391.58	0.00
391.78	0.00
391.97	0.00
392.16	0.00
392.36	0.00
392.55	0.00
392.75	0.00
392.94	0.00
393.13	0.00
393.33	0.00
393.52	0.00
393.71	0.00
393.91	0.00
394.10	0.00
394.29	0.00
394.49	0.00
394.68	0.00
394.88	0.00
395.07	0.00
395.26	0.00
395.46	0.00
395.65	0.00
395.84	0.00
396.04	0.00
396.23	0.00
396.42	0.00
396.62	0.00
396.81	0.00
397.00	0.00
397.19	0.00
397.39	0.00
397.58	0.00
397.77	0.00
397.97	0.00
398.16	0.00
398.35	0.00
398.55	0.00
398.74	0.00
398.93	0.00
399.12	0.00
399.32	0.00
399.51	0.00
399.70	0.00
399.90	0.00
400.09	0.00
400.28	0.00
400.47	0.00
400.67	0.00
400.86	0.00
401.05	0.00
401.24	0.00
401.44	0.00
401.63	0.00
401.82	0.00
402.01	0.00
402.21	0.00
402.40	0.00
402.59	0.00
402.78	0.00
402.97	0.00
403.17	0.00
403.36	0.00
403.55	0.00
403.74	0.00
403.93	0.00
404.13	0.00
404.32	0.00
404.51	0.00
404.70	0.00
404.89	0.00
405.09	0.00
405.28	0.00
405.47	0.00
405.66	0.00
405.85	0.00
406.05	0.00
406.24	0.00
406.43	0.00
406.62	0.00
406.81	0.00
407.00	0.00
407.20	0.00
407.39	0.00
407.58	0.00
407.77	0.00
407.96	0.00
408.15	0.00
408.34	0.00
408.54	0.00
408.73	0.00
408.92	0.00
409.11	0.00
409.30	0.00
409.49	0.00
409.68	0.00
409.87	0.00
410.07	0.00
410.26	0.00
410.45	0.00
410.64	0.00
410.83	0.00
411.02	0.00
411.21	0.00
411.40	0.00
411.59	0.00
411.78	0.00
411.98	0.00
412.17	0.00
412.36	0.00
412.55	0.00
412.74	0.00
412.93	0.00
413.12	0.00
413.31	0.00
413.50	0.00
413.69	0.00
413.88	0.00
414.07	0.00
414.26	0.00
414.45	0.00
414.64	0.00
414.83	0.00
415.02	0.00
415.22	0.00
415.41	0.00
415.60	0.00
415.79	0.00
415.98	0.00
416.17	0.00
416.36	0.00
416.55	0.00
416.74	0.00
416.93	0.00
417.12	0.00
417.31	0.00
417.50	0.00
417.69	0.00
417.88	0.00
418.07	0.00
418.26	0.00
418.45	0.00
418.64	0.00
418.83	0.00
419.02	0.00
419.21	0.00
419.39	0.00
419.58	0.00
419.77	0.00
419.96	0.00
420.15	0.00
420.34	0.00
420.53	0.00
420.72	0.00
420.91	0.00
421.10	0.00
421.29	0.00
421.48	0.00
421.67	0.00
421.86	0.00
422.05	0.00
422.24	0.00
422.43	0.00
422.61	0.00
422.80	0.00
422.99	0.00
423.18	0.00
423.37	0.00
423.56	0.00
423.75	0.00
423.94	0.00
424.13	0.00
424.32	0.00
424.50	0.00
424.69	0.00
424.88	0.00
425.07	0.00
425.26	0.00
425.45	0.00
425.64	0.00
425.83	0.00
426.01	0.00
426.20	0.00
426.39	0.00
426.58	0.00
426.77	0.00
426.96	0.00
427.15	0.00
427.33	0.00
427.52	0.00
427.71	0.00
427.90	0.00
428.09	0.00
428.28	0.00
428.46	0.00
428.65	0.00
428.84	0.00
429.03	0.00
429.22	0.00
429.40	0.00
429.59	0.00
429.78	0.00
429.97	0.00
430.16	0.00
430.34	0.00
430.53	0.00
430.72	0.00
430.91	0.00
431.10	0.00
431.28	0.00
431.47	0.00
431.66	0.00
431.85	0.00
432.03	0.00
432.22	0.00
432.41	0.00
432.60	0.00
432.79	0.00
432.97	0.00
433.16	0.00
433.35	0.00
433.54	0.00
433.72	0.00
433.91	0.00
434.10	0.00
434.28	7.02
434.47	0.00
434.66	0.00
434.85	0.00
435.03	0.00
435.22	0.00
435.41	0.00
435.59	0.00
435.78	0.00
435.97	0.00
436.16	0.00
436.34	0.00
436.53	0.00
436.72	0.00
436.90	0.00
437.09	0.00
437.28	0.00
437.46	0.00
437.65	0.00
437.84	0.00
438.02	0.00
438.21	0.00
438.40	0.00
438.58	0.00
438.77	0.00
438.96	0.00
439.14	0.00
439.33	0.00
439.52	0.00
439.70	0.00
439.89	0.00
440.08	0.00
440.26	0.00
440.45	0.00
440.63	0.00
440.82	0.00
441.01	0.00
441.19	0.00
441.38	0.00
441.57	0.00
441.75	0.00
441.94	0.00
442.12	0.00
442.31	0.00
442.50	0.00
442.68	0.00
442.87	0.00
443.05	0.00
443.24	0.00
443.43	0.00
443.61	0.00
443.80	0.00
443.98	0.00
444.17	0.00
444.35	0.00
444.54	0.00
444.73	0.00
444.91	0.00
445.10	0.00
445.28	0.00
445.47	0.00
445.65	0.00
445.84	0.00
446.02	0.00
446.21	0.00
446.39	0.00
446.58	9.36
446.77	0.00
446.95	0.00
447.14	0.00
447.32	70.22
447.51	0.00
447.69	0.00
447.88	0.00
448.06	0.00
448.25	4.68
448.43	0.00
448.62	0.00
448.80	0.00
448.99	0.00
449.17	0.00
449.36	0.00
449.54	7.02
449.73	4.68
449.91	0.00
450.10	0.00
450.28	14.04
450.46	0.00
450.65	0.00
450.83	0.00
451.02	0.00
451.20	0.00
451.39	0.00
451.57	0.00
451.76	0.00
451.94	0.00
452.13	0.00
452.31	0.00
452.49	0.00
452.68	0.00
452.86	28.09
453.05	11.70
453.23	0.00
453.42	46.81
453.60	0.00
453.78	0.00
453.97	0.00
454.15	0.00
454.34	0.00
454.52	0.00
454.70	0.00
454.89	0.00
455.07	0.00
455.26	0.00
455.44	0.00
455.62	0.00
455.81	0.00
455.99	7.02
456.17	0.00
456.36	0.00
456.54	0.00
456.73	0.00
456.91	0.00
457.09	14.04
457.28	14.04
457.46	0.00
457.64	77.24
457.83	0.00
458.01	0.00
458.19	0.00
458.38	0.00
458.56	14.04
458.74	0.00
458.93	0.00
459.11	0.00
459.29	0.00
459.48	0.00
459.66	30.43
459.84	0.00
460.03	46.81
460.21	2.34
460.39	9.36
460.57	0.00
460.76	0.00
460.94	0.00
461.12	44.47
461.31	28.09
461.49	9.36
461.67	0.00
461.85	0.00
462.04	0.00
462.22	580.45
462.40	28.09
462.59	95.96
462.77	0.00
462.95	0.00
463.13	0.00
463.32	18.72
463.50	67.88
463.68	0.00
463.86	0.00
464.05	0.00
464.23	4.68
464.41	9.36
464.59	0.00
464.78	0.00
464.96	2.34
465.14	0.00
465.32	0.00
465.50	4.68
465.69	0.00
465.87	0.00
466.05	0.00
466.23	0.00
466.41	0.00
466.60	0.00
466.78	14.04
466.96	32.77
467.14	0.00
467.32	0.00
467.51	51.49
467.69	67.88
467.87	7.02
468.05	0.00
468.23	67.88
468.41	0.00
468.60	0.00
468.78	0.00
468.96	100.64
469.14	0.00
469.32	0.00
469.50	0.00
469.69	0.00
469.87	0.00
470.05	58.51
470.23	0.00
470.41	0.00
470.59	0.00
470.77	0.00
470.95	0.00
471.14	0.00
471.32	23.41
471.50	25.75
471.68	37.45
471.86	0.00
472.04	0.00
472.22	0.00
472.40	0.00
472.58	74.90
472.77	0.00
472.95	0.00
473.13	42.13
473.31	14.04
473.49	11.70
473.67	0.00
473.85	14.04
474.03	16.38
474.21	11.70
474.39	23.41
474.57	170.86
474.75	42.13
474.93	0.00
475.12	0.00
475.30	2.34
475.48	0.00
475.66	51.49
475.84	0.00
476.02	16.38
476.20	0.00
476.38	0.00
476.56	93.62
476.74	23.41
476.92	14.04
477.10	88.94
477.28	23.41
477.46	0.00
477.64	32.77
477.82	0.00
478.00	0.00
478.18	42.13
478.36	2.34
478.54	18.72
478.72	56.17
478.90	77.24
479.08	0.00
479.26	0.00
479.44	131.07
479.62	21.06
479.80	86.60
479.98	39.79
480.16	39.79
480.34	39.79
480.52	0.00
480.70	25.75
480.88	46.81
481.06	0.00
481.24	51.49
481.41	51.49
481.59	2.34
481.77	28.09
481.95	93.62
482.13	110.01
482.31	30.43
482.49	79.58
482.67	56.17
482.85	77.24
483.03	30.43
483.21	16.38
483.39	0.00
483.57	79.58
483.74	51.49
483.92	79.58
484.10	16.38
484.28	124.05
484.46	77.24
484.64	0.00
484.82	140.43
485.00	44.47
485.18	11.70
485.35	9.36
485.53	18.72
485.71	18.72
485.89	28.09
486.07	0.00
486.25	100.64
486.43	79.58
486.61	88.94
486.78	35.11
486.96	2.34
487.14	42.13
487.32	67.88
487.50	107.66
487.68	110.01
487.85	84.26
488.03	105.32
488.21	65.54
488.39	147.45
488.57	105.32
488.75	63.19
488.92	456.40
489.10	177.88
489.28	163.84
489.46	117.03
489.64	60.85
489.81	135.75
489.99	112.35
490.17	168.52
490.35	189.58
490.53	81.92
490.70	119.37
490.88	152.13
491.06	166.18
491.24	166.18
491.41	124.05
491.59	91.28
491.77	35.11
491.95	128.73
492.13	81.92
492.30	56.17
492.48	173.20
492.66	145.11
492.84	60.85
493.01	117.03
493.19	95.96
493.37	189.58
493.54	177.88
493.72	191.92
493.90	163.84
494.08	163.84
494.25	173.20
494.43	191.92
494.61	152.13
494.79	173.20
494.96	168.52
495.14	110.01
495.32	138.09
495.49	138.09
495.67	149.79
495.85	124.05
496.02	208.31
496.20	215.33
496.38	210.65
496.55	159.16
496.73	173.20
496.91	128.73
497.09	208.31
497.26	173.20
497.44	166.18
497.62	187.24
497.79	220.01
497.97	210.65
498.14	184.90
498.32	255.12
498.50	236.39
498.67	86.60
498.85	189.58
499.03	259.80
499.20	229.37
499.38	234.05
499.56	177.88
499.73	294.91
499.91	156.82
500.08	182.56
500.26	124.05
500.44	161.50
500.61	271.50
500.79	166.18
500.97	217.67
501.14	215.33
501.32	166.18
501.49	238.73
501.67	205.97
501.84	210.65
502.02	210.65
502.20	180.22
502.37	217.67
502.55	166.18
502.72	175.54
502.90	262.14
503.07	231.71
503.25	283.20
503.43	229.37
503.60	147.45
503.78	163.84
503.95	241.08
504.13	264.48
504.30	262.14
504.48	250.44
504.65	290.23
504.83	212.99
505.01	294.91
505.18	271.50
505.36	257.46
505.53	184.90
505.71	173.20
505.88	245.76
506.06	159.16
506.23	180.22
506.41	175.54
506.58	201.29
506.76	243.42
506.93	222.35
507.11	227.03
507.28	266.82
507.46	166.18
507.63	222.35
507.81	159.16
507.98	173.20
508.16	212.99
508.33	248.10
508.50	285.55
508.68	362.78
508.85	290.23
509.03	227.03
509.20	208.31
509.38	170.86
509.55	198.95
509.73	252.78
509.90	217.67
510.08	194.26
510.25	304.27
510.42	306.61
510.60	220.01
510.77	388.53
510.95	337.04
511.12	142.77
511.30	248.10
511.47	297.25
511.64	372.15
511.82	224.69
511.99	304.27
512.17	271.50
512.34	283.20
512.51	180.22
512.69	184.90
512.86	313.63
513.04	196.60
513.21	266.82
513.38	220.01
513.56	217.67
513.73	212.99
513.90	245.76
514.08	201.29
514.25	220.01
514.43	222.35
514.60	234.05
514.77	215.33
514.95	229.37
515.12	271.50
515.29	308.95
515.47	224.69
515.64	304.27
515.81	229.37
515.99	332.36
516.16	220.01
516.33	238.73
516.51	128.73
516.68	163.84
516.85	163.84
517.03	173.20
517.20	278.52
517.37	238.73
517.54	278.52
517.72	210.65
517.89	184.90
518.06	121.71
518.24	262.14
518.41	255.12
518.58	231.71
518.75	217.67
518.93	231.71
519.10	220.01
519.27	287.89
519.45	337.04
519.62	273.84
519.79	271.50
519.96	271.50
520.14	255.12
520.31	215.33
520.48	229.37
520.65	308.95
520.83	287.89
521.00	306.61
521.17	315.97
521.34	222.35
521.52	388.53
521.69	271.50
521.86	257.46
522.03	292.57
522.20	297.25
522.38	196.60
522.55	306.61
522.72	168.52
522.89	262.14
523.07	355.76
523.24	353.42
523.41	287.89
523.58	287.89
523.75	325.33
523.92	325.33
524.10	234.05
524.27	355.76
524.44	292.57
524.61	313.63
524.78	299.59
524.96	318.31
525.13	257.46
525.30	297.25
525.47	327.68
525.64	248.10
525.81	306.61
525.98	238.73
526.16	170.86
526.33	177.88
526.50	224.69
526.67	234.05
526.84	191.92
527.01	234.05
527.18	238.73
527.36	320.65
527.53	264.48
527.70	365.12
527.87	390.87
528.04	390.87
528.21	278.52
528.38	381.51
528.55	353.42
528.72	365.12
528.89	465.77
529.07	360.44
529.24	341.72
529.41	311.29
529.58	294.91
529.75	283.20
529.92	234.05
530.09	280.86
530.26	397.89
530.43	341.72
530.60	337.04
530.77	339.38
530.94	313.63
531.11	315.97
531.28	304.27
531.46	276.18
531.63	308.95
531.80	297.25
531.97	358.10
532.14	257.46
532.31	362.78
532.48	299.59
532.65	287.89
532.82	297.25
532.99	241.08
533.16	306.61
533.33	344.06
533.50	383.85
533.67	325.33
533.84	322.99
534.01	269.16
534.18	290.23
534.35	332.36
534.52	280.86
534.69	351.08
534.86	325.33
535.03	294.91
535.20	292.57
535.37	430.66
535.54	262.14
535.71	383.85
535.88	362.78
536.05	266.82
536.22	355.76
536.38	322.99
536.55	315.97
536.72	311.29
536.89	287.89
537.06	327.68
537.23	250.44
537.40	292.57
537.57	273.84
537.74	407.25
537.91	353.42
538.08	283.20
538.25	337.04
538.42	266.82
538.59	365.12
538.75	369.80
538.92	276.18
539.09	318.31
539.26	348.74
539.43	276.18
539.60	346.40
539.77	346.40
539.94	379.17
540.11	283.20
540.28	280.86
540.44	301.93
540.61	348.74
540.78	271.50
540.95	257.46
541.12	435.34
541.29	353.42
541.46	379.17
541.62	346.40
541.79	287.89
541.96	292.57
542.13	285.55
542.30	306.61
542.47	315.97
542.63	348.74
542.80	346.40
542.97	301.93
543.14	212.99
543.31	339.38
543.48	308.95
543.64	379.17
543.81	365.12
543.98	367.46
544.15	285.55
544.32	444.70
544.48	283.20
544.65	386.19
544.82	365.12
544.99	383.85
545.16	397.89
545.32	229.37
545.49	404.91
545.66	297.25
545.83	365.12
546.00	313.63
546.16	313.63
546.33	339.38
546.50	395.55
546.67	355.76
546.83	344.06
547.00	290.23
547.17	259.80
547.34	287.89
547.50	332.36
547.67	262.14
547.84	369.80
548.00	304.27
548.17	287.89
548.34	351.08
548.51	463.43
548.67	362.78
548.84	418.96
549.01	360.44
549.18	341.72
549.34	348.74
549.51	372.15
549.68	376.83
549.84	330.02
550.01	330.02
550.18	512.58
550.34	433.00
550.51	365.12
550.68	386.19
550.84	308.95
551.01	372.15
551.18	304.27
551.34	308.95
551.51	330.02
551.68	360.44
551.84	376.83
552.01	311.29
552.18	311.29
552.34	351.08
552.51	297.25
552.68	386.19
552.84	311.29
553.01	337.04
553.18	315.97
553.34	360.44
553.51	353.42
553.67	376.83
553.84	411.93
554.01	311.29
554.17	313.63
554.34	360.44
554.51	334.70
554.67	458.74
554.84	404.91
555.00	325.33
555.17	414.27
555.33	472.79
555.50	379.17
555.67	351.08
555.83	337.04
556.00	325.33
556.16	629.60
556.33	369.80
556.50	351.08
556.66	280.86
556.83	322.99
556.99	360.44
557.16	320.65
557.32	353.42
557.49	287.89
557.65	290.23
557.82	383.85
557.98	327.68
558.15	266.82
558.32	227.03
558.48	318.31
558.65	252.78
558.81	341.72
558.98	442.36
559.14	365.12
559.31	388.53
559.47	320.65
559.64	353.42
559.80	280.86
559.97	304.27
560.13	327.68
560.30	320.65
560.46	306.61
560.63	283.20
560.79	294.91
560.96	341.72
561.12	234.05
561.29	388.53
561.45	313.63
561.61	318.31
561.78	461.09
561.94	351.08
562.11	379.17
562.27	397.89
562.44	266.82
562.60	308.95
562.77	311.29
562.93	360.44
563.10	351.08
563.26	395.55
563.42	454.06
563.59	290.23
563.75	259.80
563.92	365.12
564.08	379.17
564.24	346.40
564.41	456.40
564.57	238.73
564.74	292.57
564.90	292.57
565.07	330.02
565.23	313.63
565.39	273.84
565.56	360.44
565.72	215.33
565.88	313.63
566.05	269.16
566.21	346.40
566.38	304.27
566.54	351.08
566.70	299.59
566.87	351.08
567.03	287.89
567.19	344.06
567.36	346.40
567.52	259.80
567.68	339.38
567.85	292.57
568.01	308.95
568.17	224.69
568.34	332.36
568.50	360.44
568.66	292.57
568.83	334.70
568.99	255.12
569.15	341.72
569.32	259.80
569.48	322.99
569.64	318.31
569.81	308.95
569.97	325.33
570.13	257.46
570.30	264.48
570.46	358.10
570.62	280.86
570.78	222.35
570.95	276.18
571.11	388.53
571.27	325.33
571.43	355.76
571.60	330.02
571.76	400.23
571.92	264.48
572.09	400.23
572.25	358.10
572.41	234.05
572.57	294.91
572.74	339.38
572.90	334.70
573.06	355.76
573.22	332.36
573.38	379.17
573.55	339.38
573.71	308.95
573.87	292.57
574.03	217.67
574.20	234.05
574.36	346.40
574.52	294.91
574.68	276.18
574.84	379.17
575.01	344.06
575.17	386.19
575.33	313.63
575.49	311.29
575.65	308.95
575.82	283.20
575.98	315.97
576.14	308.95
576.30	423.64
576.46	278.52
576.62	369.80
576.79	421.30
576.95	304.27
577.11	292.57
577.27	269.16
577.43	290.23
577.59	308.95
577.75	262.14
577.92	299.59
578.08	367.46
578.24	189.58
578.40	353.42
578.56	332.36
578.72	297.25
578.88	315.97
579.04	355.76
579.21	306.61
579.37	334.70
579.53	348.74
579.69	269.16
579.85	306.61
580.01	285.55
580.17	271.50
580.33	273.84
580.49	229.37
580.65	290.23
580.82	348.74
580.98	318.31
581.14	292.57
581.30	353.42
581.46	341.72
581.62	283.20
581.78	287.89
581.94	304.27
582.10	283.20
582.26	332.36
582.42	313.63
582.58	308.95
582.74	311.29
582.90	276.18
583.06	351.08
583.22	353.42
583.38	341.72
583.54	311.29
583.70	379.17
583.86	332.36
584.02	269.16
584.18	390.87
584.34	290.23
584.50	301.93
584.66	299.59
584.82	229.37
584.98	266.82
585.14	325.33
585.30	304.27
585.46	273.84
585.62	262.14
585.78	273.84
585.94	262.14
586.10	397.89
586.26	337.04
586.42	311.29
586.58	337.04
586.74	299.59
586.90	325.33
587.06	264.48
587.22	308.95
587.38	297.25
587.54	301.93
587.70	318.31
587.86	318.31
588.02	217.67
588.18	346.40
588.34	290.23
588.49	203.63
588.65	205.97
588.81	208.31
588.97	308.95
589.13	264.48
589.29	203.63
589.45	198.95
589.61	325.33
589.77	353.42
589.93	245.76
590.08	299.59
590.24	238.73
590.40	266.82
590.56	292.57
590.72	255.12
590.88	243.42
591.04	224.69
591.20	264.48
591.35	299.59
591.51	292.57
591.67	271.50
591.83	215.33
591.99	273.84
592.15	285.55
592.31	217.67
592.46	304.27
592.62	227.03
592.78	290.23
592.94	248.10
593.10	299.59
593.26	276.18
593.41	311.29
593.57	212.99
593.73	266.82
593.89	365.12
594.05	252.78
594.20	287.89
594.36	332.36
594.52	238.73
594.68	177.88
594.84	255.12
594.99	393.21
595.15	304.27
595.31	203.63
595.47	358.10
595.62	210.65
595.78	297.25
595.94	280.86
596.10	308.95
596.25	220.01
596.41	290.23
596.57	374.49
596.73	290.23
596.88	224.69
597.04	287.89
597.20	231.71
597.36	257.46
597.51	245.76
597.67	327.68
597.83	280.86
597.99	290.23
598.14	243.42
598.30	290.23
598.46	273.84
598.61	327.68
598.77	299.59
598.93	255.12
599.09	194.26
599.24	320.65
599.40	280.86
599.56	236.39
599.71	287.89
599.87	241.08
600.03	196.60
600.18	294.91
600.34	224.69
600.50	273.84
600.65	241.08
600.81	332.36
600.97	224.69
601.12	248.10
601.28	259.80
601.44	262.14
601.59	241.08
601.75	262.14
601.91	313.63
602.06	212.99
602.22	346.40
602.37	203.63
602.53	259.80
602.69	346.40
602.84	238.73
603.00	290.23
603.16	287.89
603.31	299.59
603.47	306.61
603.62	250.44
603.78	306.61
603.94	276.18
604.09	264.48
604.25	273.84
604.40	294.91
604.56	217.67
604.71	245.76
604.87	337.04
605.03	276.18
605.18	315.97
605.34	390.87
605.49	222.35
605.65	234.05
605.80	236.39
605.96	215.33
606.12	241.08
606.27	271.50
606.43	255.12
606.58	318.31
606.74	299.59
606.89	177.88
607.05	311.29
607.20	294.91
607.36	311.29
607.51	257.46
607.67	224.69
607.82	194.26
607.98	322.99
608.13	369.80
608.29	257.46
608.44	283.20
608.60	227.03
608.75	201.29
608.91	259.80
609.06	285.55
609.22	278.52
609.37	231.71
609.53	238.73
609.68	224.69
609.84	217.67
609.99	189.58
610.15	266.82
610.30	194.26
610.46	306.61
610.61	229.37
610.76	243.42
610.92	231.71
611.07	217.67
611.23	252.78
611.38	290.23
611.54	276.18
611.69	257.46
611.84	170.86
612.00	138.09
612.15	278.52
612.31	159.16
612.46	255.12
612.62	227.03
612.77	259.80
612.92	215.33
613.08	308.95
613.23	201.29
613.39	283.20
613.54	166.18
613.69	128.73
613.85	210.65
614.00	252.78
614.15	196.60
614.31	273.84
614.46	248.10
614.62	252.78
614.77	212.99
614.92	159.16
615.08	215.33
615.23	245.76
615.38	163.84
615.54	149.79
615.69	154.48
615.84	215.33
616.00	161.50
616.15	147.45
616.30	175.54
616.46	184.90
616.61	238.73
616.76	245.76
616.92	196.60
617.07	234.05
617.22	180.22
617.37	212.99
617.53	220.01
617.68	255.12
617.83	177.88
617.99	224.69
618.14	348.74
618.29	252.78
618.45	241.08
618.60	142.77
618.75	191.92
618.90	184.90
619.06	220.01
619.21	313.63
619.36	299.59
619.51	217.67
619.67	248.10
619.82	201.29
619.97	236.39
620.12	191.92
620.28	156.82
620.43	285.55
620.58	208.31
620.73	191.92
620.89	215.33
621.04	259.80
621.19	257.46
621.34	184.90
621.49	152.13
621.65	273.84
621.80	264.48
621.95	180.22
622.10	229.37
622.25	177.88
622.41	156.82
622.56	205.97
622.71	81.92
622.86	252.78
623.01	252.78
623.16	196.60
623.32	229.37
