SpectraSuite Data File
++++++++++++++++++++++++++++++++++++
Date: Mon Oct 07 14:59:59 GMT-05:00 2013
User: price-jones
Dark Spectrum Present: No
Reference Spectrum Present: No
Number of Sampled Component Spectra: 1
Spectrometers: USB2+H05261
Integration Time (usec): 100000 (USB2+H05261)
Spectra Averaged: 1 (USB2+H05261)
Boxcar Smoothing: 0 (USB2+H05261)
Correct for Electrical Dark: No (USB2+H05261)
Strobe/Lamp Enabled: No (USB2+H05261)
Correct for Detector Non-linearity: No (USB2+H05261)
Correct for Stray Light: No (USB2+H05261)
Number of Pixels in Processed Spectrum: 2048
>>>>>Begin Processed Spectral Data<<<<<
365.73	0.00
365.92	0.00
366.12	0.00
366.32	0.00
366.52	0.00
366.72	0.00
366.91	0.00
367.11	0.00
367.31	0.00
367.51	0.00
367.70	0.00
367.90	0.00
368.10	0.00
368.30	0.00
368.49	0.00
368.69	0.00
368.89	0.00
369.09	0.00
369.28	0.00
369.48	0.00
369.68	0.00
369.87	0.00
370.07	0.00
370.27	0.00
370.47	0.00
370.66	0.00
370.86	0.00
371.06	0.00
371.25	0.00
371.45	0.00
371.65	0.00
371.84	0.00
372.04	0.00
372.24	0.00
372.44	0.00
372.63	0.00
372.83	0.00
373.03	0.00
373.22	0.00
373.42	0.00
373.62	0.00
373.81	0.00
374.01	0.00
374.21	0.00
374.40	0.00
374.60	0.00
374.79	0.00
374.99	0.00
375.19	0.00
375.38	0.00
375.58	0.00
375.78	0.00
375.97	0.00
376.17	0.00
376.37	0.00
376.56	0.00
376.76	0.00
376.95	0.00
377.15	0.00
377.35	0.00
377.54	0.00
377.74	0.00
377.93	0.00
378.13	0.00
378.33	0.00
378.52	0.00
378.72	0.00
378.91	0.00
379.11	0.00
379.31	0.00
379.50	0.00
379.70	0.00
379.89	0.00
380.09	0.00
380.28	0.00
380.48	0.00
380.68	0.00
380.87	0.00
381.07	0.00
381.26	0.00
381.46	0.00
381.65	0.00
381.85	0.00
382.04	0.00
382.24	0.00
382.43	0.00
382.63	0.00
382.83	0.00
383.02	0.00
383.22	0.00
383.41	0.00
383.61	0.00
383.80	0.00
384.00	0.00
384.19	0.00
384.39	0.00
384.58	0.00
384.78	0.00
384.97	0.00
385.17	0.00
385.36	0.00
385.56	0.00
385.75	0.00
385.95	0.00
386.14	0.00
386.34	0.00
386.53	0.00
386.72	0.00
386.92	0.00
387.11	0.00
387.31	0.00
387.50	0.00
387.70	0.00
387.89	0.00
388.09	0.00
388.28	0.00
388.48	0.00
388.67	0.00
388.86	0.00
389.06	0.00
389.25	0.00
389.45	0.00
389.64	0.00
389.84	0.00
390.03	0.00
390.22	0.00
390.42	0.00
390.61	0.00
390.81	0.00
391.00	0.00
391.19	0.00
391.39	0.00
391.58	0.00
391.78	0.00
391.97	0.00
392.16	0.00
392.36	0.00
392.55	0.00
392.75	0.00
392.94	0.00
393.13	0.00
393.33	0.00
393.52	0.00
393.71	0.00
393.91	0.00
394.10	0.00
394.29	0.00
394.49	0.00
394.68	0.00
394.88	0.00
395.07	0.00
395.26	0.00
395.46	0.00
395.65	0.00
395.84	0.00
396.04	0.00
396.23	0.00
396.42	0.00
396.62	0.00
396.81	0.00
397.00	0.00
397.19	0.00
397.39	0.00
397.58	0.00
397.77	0.00
397.97	0.00
398.16	0.00
398.35	0.00
398.55	0.00
398.74	0.00
398.93	0.00
399.12	0.00
399.32	0.00
399.51	0.00
399.70	0.00
399.90	0.00
400.09	0.00
400.28	0.00
400.47	0.00
400.67	0.00
400.86	0.00
401.05	0.00
401.24	0.00
401.44	0.00
401.63	0.00
401.82	0.00
402.01	0.00
402.21	0.00
402.40	0.00
402.59	0.00
402.78	0.00
402.97	0.00
403.17	0.00
403.36	0.00
403.55	0.00
403.74	0.00
403.93	0.00
404.13	0.00
404.32	0.00
404.51	0.00
404.70	0.00
404.89	0.00
405.09	0.00
405.28	0.00
405.47	0.00
405.66	0.00
405.85	0.00
406.05	0.00
406.24	0.00
406.43	0.00
406.62	14.04
406.81	0.00
407.00	0.00
407.20	0.00
407.39	0.00
407.58	0.00
407.77	0.00
407.96	0.00
408.15	0.00
408.34	0.00
408.54	0.00
408.73	0.00
408.92	0.00
409.11	0.00
409.30	0.00
409.49	0.00
409.68	0.00
409.87	0.00
410.07	0.00
410.26	0.00
410.45	0.00
410.64	0.00
410.83	0.00
411.02	0.00
411.21	0.00
411.40	0.00
411.59	0.00
411.78	0.00
411.98	0.00
412.17	0.00
412.36	0.00
412.55	0.00
412.74	0.00
412.93	0.00
413.12	0.00
413.31	0.00
413.50	0.00
413.69	0.00
413.88	0.00
414.07	0.00
414.26	0.00
414.45	0.00
414.64	0.00
414.83	0.00
415.02	0.00
415.22	0.00
415.41	0.00
415.60	0.00
415.79	0.00
415.98	0.00
416.17	0.00
416.36	0.00
416.55	0.00
416.74	0.00
416.93	0.00
417.12	0.00
417.31	0.00
417.50	0.00
417.69	0.00
417.88	0.00
418.07	0.00
418.26	0.00
418.45	0.00
418.64	0.00
418.83	0.00
419.02	0.00
419.21	0.00
419.39	0.00
419.58	0.00
419.77	0.00
419.96	0.00
420.15	0.00
420.34	0.00
420.53	0.00
420.72	0.00
420.91	0.00
421.10	0.00
421.29	0.00
421.48	0.00
421.67	0.00
421.86	0.00
422.05	0.00
422.24	0.00
422.43	0.00
422.61	0.00
422.80	0.00
422.99	0.00
423.18	0.00
423.37	0.00
423.56	0.00
423.75	0.00
423.94	0.00
424.13	0.00
424.32	0.00
424.50	0.00
424.69	0.00
424.88	0.00
425.07	0.00
425.26	0.00
425.45	0.00
425.64	0.00
425.83	0.00
426.01	0.00
426.20	0.00
426.39	0.00
426.58	0.00
426.77	0.00
426.96	0.00
427.15	0.00
427.33	0.00
427.52	0.00
427.71	0.00
427.90	0.00
428.09	0.00
428.28	0.00
428.46	0.00
428.65	0.00
428.84	0.00
429.03	0.00
429.22	0.00
429.40	0.00
429.59	0.00
429.78	0.00
429.97	0.00
430.16	0.00
430.34	0.00
430.53	0.00
430.72	0.00
430.91	0.00
431.10	0.00
431.28	0.00
431.47	0.00
431.66	0.00
431.85	0.00
432.03	0.00
432.22	0.00
432.41	0.00
432.60	0.00
432.79	0.00
432.97	0.00
433.16	0.00
433.35	0.00
433.54	0.00
433.72	0.00
433.91	0.00
434.10	0.00
434.28	0.00
434.47	0.00
434.66	0.00
434.85	0.00
435.03	0.00
435.22	0.00
435.41	0.00
435.59	0.00
435.78	0.00
435.97	0.00
436.16	0.00
436.34	0.00
436.53	0.00
436.72	0.00
436.90	0.00
437.09	0.00
437.28	0.00
437.46	0.00
437.65	0.00
437.84	0.00
438.02	0.00
438.21	0.00
438.40	0.00
438.58	0.00
438.77	0.00
438.96	0.00
439.14	0.00
439.33	0.00
439.52	0.00
439.70	0.00
439.89	0.00
440.08	0.00
440.26	0.00
440.45	0.00
440.63	0.00
440.82	0.00
441.01	0.00
441.19	0.00
441.38	0.00
441.57	0.00
441.75	0.00
441.94	0.00
442.12	0.00
442.31	0.00
442.50	0.00
442.68	0.00
442.87	0.00
443.05	0.00
443.24	0.00
443.43	0.00
443.61	0.00
443.80	0.00
443.98	0.00
444.17	0.00
444.35	0.00
444.54	0.00
444.73	0.00
444.91	0.00
445.10	0.00
445.28	0.00
445.47	0.00
445.65	0.00
445.84	14.04
446.02	0.00
446.21	0.00
446.39	0.00
446.58	0.00
446.77	0.00
446.95	0.00
447.14	0.00
447.32	7.02
447.51	0.00
447.69	0.00
447.88	0.00
448.06	0.00
448.25	0.00
448.43	0.00
448.62	0.00
448.80	0.00
448.99	9.36
449.17	0.00
449.36	0.00
449.54	0.00
449.73	0.00
449.91	0.00
450.10	0.00
450.28	0.00
450.46	32.77
450.65	0.00
450.83	0.00
451.02	0.00
451.20	0.00
451.39	0.00
451.57	0.00
451.76	0.00
451.94	0.00
452.13	0.00
452.31	0.00
452.49	0.00
452.68	0.00
452.86	0.00
453.05	0.00
453.23	0.00
453.42	0.00
453.60	25.75
453.78	0.00
453.97	0.00
454.15	0.00
454.34	0.00
454.52	0.00
454.70	0.00
454.89	7.02
455.07	0.00
455.26	0.00
455.44	9.36
455.62	0.00
455.81	0.00
455.99	0.00
456.17	0.00
456.36	0.00
456.54	0.00
456.73	0.00
456.91	0.00
457.09	21.06
457.28	25.75
457.46	0.00
457.64	23.41
457.83	35.11
458.01	0.00
458.19	4.68
458.38	0.00
458.56	14.04
458.74	0.00
458.93	0.00
459.11	4.68
459.29	0.00
459.48	0.00
459.66	56.17
459.84	0.00
460.03	53.83
460.21	0.00
460.39	0.00
460.57	51.49
460.76	0.00
460.94	0.00
461.12	4.68
461.31	0.00
461.49	0.00
461.67	0.00
461.85	2.34
462.04	0.00
462.22	557.05
462.40	72.56
462.59	2.34
462.77	0.00
462.95	0.00
463.13	0.00
463.32	0.00
463.50	0.00
463.68	39.79
463.86	0.00
464.05	0.00
464.23	0.00
464.41	0.00
464.59	0.00
464.78	2.34
464.96	4.68
465.14	0.00
465.32	0.00
465.50	58.51
465.69	0.00
465.87	0.00
466.05	0.00
466.23	0.00
466.41	0.00
466.60	7.02
466.78	0.00
466.96	86.60
467.14	0.00
467.32	44.47
467.51	84.26
467.69	14.04
467.87	18.72
468.05	0.00
468.23	32.77
468.41	32.77
468.60	0.00
468.78	0.00
468.96	14.04
469.14	0.00
469.32	7.02
469.50	0.00
469.69	0.00
469.87	0.00
470.05	35.11
470.23	0.00
470.41	0.00
470.59	0.00
470.77	0.00
470.95	0.00
471.14	0.00
471.32	0.00
471.50	0.00
471.68	0.00
471.86	74.90
472.04	7.02
472.22	0.00
472.40	0.00
472.58	7.02
472.77	0.00
472.95	18.72
473.13	53.83
473.31	51.49
473.49	35.11
473.67	7.02
473.85	35.11
474.03	0.00
474.21	14.04
474.39	56.17
474.57	0.00
474.75	0.00
474.93	0.00
475.12	0.00
475.30	21.06
475.48	0.00
475.66	11.70
475.84	9.36
476.02	70.22
476.20	0.00
476.38	0.00
476.56	81.92
476.74	39.79
476.92	9.36
477.10	0.00
477.28	32.77
477.46	0.00
477.64	42.13
477.82	21.06
478.00	49.15
478.18	0.00
478.36	51.49
478.54	93.62
478.72	0.00
478.90	91.28
479.08	0.00
479.26	16.38
479.44	58.51
479.62	0.00
479.80	0.00
479.98	53.83
480.16	74.90
480.34	53.83
480.52	35.11
480.70	42.13
480.88	0.00
481.06	0.00
481.24	58.51
481.41	91.28
481.59	25.75
481.77	0.00
481.95	56.17
482.13	60.85
482.31	110.01
482.49	28.09
482.67	46.81
482.85	79.58
483.03	4.68
483.21	79.58
483.39	102.98
483.57	77.24
483.74	135.75
483.92	65.54
484.10	0.00
484.28	79.58
484.46	119.37
484.64	74.90
484.82	102.98
485.00	35.11
485.18	63.19
485.35	35.11
485.53	25.75
485.71	42.13
485.89	28.09
486.07	63.19
486.25	131.07
486.43	67.88
486.61	60.85
486.78	77.24
486.96	0.00
487.14	58.51
487.32	77.24
487.50	84.26
487.68	93.62
487.85	30.43
488.03	112.35
488.21	121.71
488.39	65.54
488.57	42.13
488.75	0.00
488.92	486.83
489.10	184.90
489.28	156.82
489.46	51.49
489.64	152.13
489.81	56.17
489.99	91.28
490.17	170.86
490.35	231.71
490.53	163.84
490.70	98.30
490.88	243.42
491.06	142.77
491.24	133.41
491.41	166.18
491.59	142.77
491.77	81.92
491.95	112.35
492.13	93.62
492.30	88.94
492.48	128.73
492.66	194.26
492.84	93.62
493.01	166.18
493.19	142.77
493.37	208.31
493.54	149.79
493.72	161.50
493.90	133.41
494.08	128.73
494.25	159.16
494.43	184.90
494.61	149.79
494.79	234.05
494.96	98.30
495.14	135.75
495.32	124.05
495.49	121.71
495.67	163.84
495.85	180.22
496.02	215.33
496.20	224.69
496.38	163.84
496.55	220.01
496.73	201.29
496.91	166.18
497.09	294.91
497.26	142.77
497.44	187.24
497.62	161.50
497.79	124.05
497.97	161.50
498.14	220.01
498.32	191.92
498.50	177.88
498.67	119.37
498.85	194.26
499.03	231.71
499.20	238.73
499.38	276.18
499.56	149.79
499.73	292.57
499.91	210.65
500.08	208.31
500.26	191.92
500.44	245.76
500.61	201.29
500.79	145.11
500.97	145.11
501.14	212.99
501.32	180.22
501.49	175.54
501.67	220.01
501.84	224.69
502.02	189.58
502.20	259.80
502.37	262.14
502.55	222.35
502.72	161.50
502.90	252.78
503.07	259.80
503.25	163.84
503.43	194.26
503.60	161.50
503.78	147.45
503.95	229.37
504.13	234.05
504.30	175.54
504.48	259.80
504.65	297.25
504.83	114.69
505.01	287.89
505.18	201.29
505.36	224.69
505.53	241.08
505.71	294.91
505.88	266.82
506.06	231.71
506.23	203.63
506.41	198.95
506.58	262.14
506.76	248.10
506.93	337.04
507.11	191.92
507.28	238.73
507.46	205.97
507.63	168.52
507.81	191.92
507.98	313.63
508.16	236.39
508.33	231.71
508.50	301.93
508.68	227.03
508.85	322.99
509.03	180.22
509.20	196.60
509.38	201.29
509.55	266.82
509.73	252.78
509.90	297.25
510.08	287.89
510.25	266.82
510.42	161.50
510.60	287.89
510.77	231.71
510.95	320.65
511.12	208.31
511.30	344.06
511.47	264.48
511.64	313.63
511.82	238.73
511.99	238.73
512.17	262.14
512.34	252.78
512.51	285.55
512.69	262.14
512.86	355.76
513.04	294.91
513.21	292.57
513.38	264.48
513.56	191.92
513.73	243.42
513.90	166.18
514.08	175.54
514.25	301.93
514.43	308.95
514.60	189.58
514.77	285.55
514.95	227.03
515.12	264.48
515.29	205.97
515.47	344.06
515.64	334.70
515.81	278.52
515.99	285.55
516.16	276.18
516.33	259.80
516.51	243.42
516.68	138.09
516.85	124.05
517.03	182.56
517.20	269.16
517.37	220.01
517.54	330.02
517.72	273.84
517.89	180.22
518.06	215.33
518.24	189.58
518.41	294.91
518.58	278.52
518.75	245.76
518.93	238.73
519.10	245.76
519.27	262.14
519.45	301.93
519.62	294.91
519.79	313.63
519.96	189.58
520.14	208.31
520.31	283.20
520.48	299.59
520.65	259.80
520.83	301.93
521.00	322.99
521.17	374.49
521.34	205.97
521.52	285.55
521.69	243.42
521.86	227.03
522.03	285.55
522.20	273.84
522.38	215.33
522.55	238.73
522.72	313.63
522.89	273.84
523.07	353.42
523.24	306.61
523.41	280.86
523.58	245.76
523.75	283.20
523.92	320.65
524.10	346.40
524.27	308.95
524.44	362.78
524.61	360.44
524.78	351.08
524.96	325.33
525.13	287.89
525.30	358.10
525.47	404.91
525.64	264.48
525.81	353.42
525.98	355.76
526.16	231.71
526.33	224.69
526.50	133.41
526.67	191.92
526.84	210.65
527.01	280.86
527.18	379.17
527.36	285.55
527.53	346.40
527.70	337.04
527.87	243.42
528.04	393.21
528.21	278.52
528.38	376.83
528.55	341.72
528.72	404.91
528.89	411.93
529.07	311.29
529.24	374.49
529.41	353.42
529.58	297.25
529.75	191.92
529.92	376.83
530.09	287.89
530.26	262.14
530.43	299.59
530.60	355.76
530.77	337.04
530.94	287.89
531.11	353.42
531.28	255.12
531.46	330.02
531.63	299.59
531.80	362.78
531.97	407.25
532.14	299.59
532.31	222.35
532.48	315.97
532.65	236.39
532.82	278.52
532.99	234.05
533.16	423.64
533.33	418.96
533.50	334.70
533.67	297.25
533.84	257.46
534.01	304.27
534.18	369.80
534.35	339.38
534.52	353.42
534.69	369.80
534.86	269.16
535.03	325.33
535.20	372.15
535.37	433.00
535.54	304.27
535.71	355.76
535.88	322.99
536.05	297.25
536.22	299.59
536.38	428.32
536.55	280.86
536.72	365.12
536.89	278.52
537.06	360.44
537.23	290.23
537.40	304.27
537.57	294.91
537.74	372.15
537.91	315.97
538.08	327.68
538.25	386.19
538.42	280.86
538.59	365.12
538.75	351.08
538.92	388.53
539.09	414.27
539.26	315.97
539.43	348.74
539.60	297.25
539.77	285.55
539.94	327.68
540.11	360.44
540.28	360.44
540.44	231.71
540.61	287.89
540.78	297.25
540.95	222.35
541.12	400.23
541.29	395.55
541.46	337.04
541.62	327.68
541.79	271.50
541.96	407.25
542.13	280.86
542.30	262.14
542.47	285.55
542.63	285.55
542.80	308.95
542.97	383.85
543.14	327.68
543.31	353.42
543.48	411.93
543.64	369.80
543.81	325.33
543.98	400.23
544.15	311.29
544.32	278.52
544.48	304.27
544.65	311.29
544.82	304.27
544.99	344.06
545.16	365.12
545.32	294.91
545.49	332.36
545.66	311.29
545.83	374.49
546.00	299.59
546.16	404.91
546.33	311.29
546.50	358.10
546.67	320.65
546.83	402.57
547.00	360.44
547.17	318.31
547.34	306.61
547.50	372.15
547.67	327.68
547.84	315.97
548.00	287.89
548.17	383.85
548.34	325.33
548.51	383.85
548.67	360.44
548.84	292.57
549.01	276.18
549.18	376.83
549.34	369.80
549.51	348.74
549.68	444.70
549.84	315.97
550.01	320.65
550.18	512.58
550.34	449.38
550.51	315.97
550.68	388.53
550.84	362.78
551.01	400.23
551.18	250.44
551.34	320.65
551.51	337.04
551.68	327.68
551.84	418.96
552.01	278.52
552.18	262.14
552.34	315.97
552.51	318.31
552.68	334.70
552.84	376.83
553.01	376.83
553.18	355.76
553.34	332.36
553.51	238.73
553.67	362.78
553.84	404.91
554.01	358.10
554.17	353.42
554.34	372.15
554.51	374.49
554.67	447.04
554.84	327.68
555.00	348.74
555.17	344.06
555.33	383.85
555.50	472.79
555.67	414.27
555.83	395.55
556.00	301.93
556.16	573.43
556.33	304.27
556.50	234.05
556.66	348.74
556.83	334.70
556.99	220.01
557.16	346.40
557.32	360.44
557.49	341.72
557.65	290.23
557.82	353.42
557.98	393.21
558.15	283.20
558.32	301.93
558.48	351.08
558.65	248.10
558.81	250.44
558.98	250.44
559.14	320.65
559.31	344.06
559.47	379.17
559.64	322.99
559.80	344.06
559.97	355.76
560.13	297.25
560.30	374.49
560.46	292.57
560.63	297.25
560.79	297.25
560.96	327.68
561.12	280.86
561.29	327.68
561.45	374.49
561.61	322.99
561.78	425.98
561.94	273.84
562.11	306.61
562.27	280.86
562.44	353.42
562.60	257.46
562.77	360.44
562.93	435.34
563.10	341.72
563.26	351.08
563.42	404.91
563.59	322.99
563.75	276.18
563.92	365.12
564.08	376.83
564.24	360.44
564.41	400.23
564.57	365.12
564.74	376.83
564.90	344.06
565.07	304.27
565.23	346.40
565.39	250.44
565.56	294.91
565.72	369.80
565.88	339.38
566.05	355.76
566.21	348.74
566.38	346.40
566.54	297.25
566.70	374.49
566.87	276.18
567.03	243.42
567.19	374.49
567.36	306.61
567.52	367.46
567.68	365.12
567.85	404.91
568.01	234.05
568.17	262.14
568.34	283.20
568.50	327.68
568.66	266.82
568.83	409.59
568.99	313.63
569.15	397.89
569.32	390.87
569.48	304.27
569.64	367.46
569.81	351.08
569.97	308.95
570.13	360.44
570.30	280.86
570.46	276.18
570.62	262.14
570.78	306.61
570.95	355.76
571.11	304.27
571.27	395.55
571.43	337.04
571.60	285.55
571.76	299.59
571.92	301.93
572.09	292.57
572.25	257.46
572.41	306.61
572.57	365.12
572.74	341.72
572.90	381.51
573.06	397.89
573.22	306.61
573.38	322.99
573.55	315.97
573.71	355.76
573.87	269.16
574.03	205.97
574.20	234.05
574.36	360.44
574.52	339.38
574.68	346.40
574.84	388.53
575.01	320.65
575.17	238.73
575.33	327.68
575.49	379.17
575.65	393.21
575.82	313.63
575.98	374.49
576.14	322.99
576.30	320.65
576.46	245.76
576.62	229.37
576.79	339.38
576.95	252.78
577.11	243.42
577.27	318.31
577.43	395.55
577.59	348.74
577.75	227.03
577.92	264.48
578.08	257.46
578.24	194.26
578.40	318.31
578.56	285.55
578.72	414.27
578.88	299.59
579.04	255.12
579.21	334.70
579.37	388.53
579.53	355.76
579.69	283.20
579.85	372.15
580.01	264.48
580.17	217.67
580.33	339.38
580.49	348.74
580.65	278.52
580.82	337.04
580.98	351.08
581.14	320.65
581.30	320.65
581.46	248.10
581.62	369.80
581.78	227.03
581.94	367.46
582.10	365.12
582.26	245.76
582.42	332.36
582.58	433.00
582.74	346.40
582.90	353.42
583.06	330.02
583.22	299.59
583.38	245.76
583.54	322.99
583.70	395.55
583.86	308.95
584.02	351.08
584.18	402.57
584.34	322.99
584.50	372.15
584.66	358.10
584.82	383.85
584.98	346.40
585.14	301.93
585.30	341.72
585.46	285.55
585.62	318.31
585.78	339.38
585.94	423.64
586.10	252.78
586.26	287.89
586.42	332.36
586.58	264.48
586.74	276.18
586.90	299.59
587.06	369.80
587.22	330.02
587.38	332.36
587.54	360.44
587.70	332.36
587.86	348.74
588.02	337.04
588.18	322.99
588.34	236.39
588.49	248.10
588.65	229.37
588.81	248.10
588.97	252.78
589.13	217.67
589.29	227.03
589.45	294.91
589.61	259.80
589.77	407.25
589.93	245.76
590.08	231.71
590.24	234.05
590.40	276.18
590.56	341.72
590.72	292.57
590.88	252.78
591.04	278.52
591.20	166.18
591.35	332.36
591.51	280.86
591.67	227.03
591.83	231.71
591.99	374.49
592.15	306.61
592.31	337.04
592.46	287.89
592.62	318.31
592.78	238.73
592.94	238.73
593.10	315.97
593.26	248.10
593.41	400.23
593.57	259.80
593.73	304.27
593.89	348.74
594.05	313.63
594.20	262.14
594.36	362.78
594.52	285.55
594.68	301.93
594.84	313.63
594.99	301.93
595.15	301.93
595.31	348.74
595.47	411.93
595.62	266.82
595.78	292.57
595.94	203.63
596.10	344.06
596.25	252.78
596.41	290.23
596.57	322.99
596.73	353.42
596.88	264.48
597.04	311.29
597.20	189.58
597.36	248.10
597.51	271.50
597.67	255.12
597.83	234.05
597.99	248.10
598.14	170.86
598.30	346.40
598.46	227.03
598.61	355.76
598.77	299.59
598.93	198.95
599.09	243.42
599.24	332.36
599.40	283.20
599.56	332.36
599.71	269.16
599.87	203.63
600.03	250.44
600.18	264.48
600.34	245.76
600.50	217.67
600.65	212.99
600.81	365.12
600.97	259.80
601.12	220.01
601.28	362.78
601.44	238.73
601.59	189.58
601.75	245.76
601.91	271.50
602.06	250.44
602.22	313.63
602.37	210.65
602.53	280.86
602.69	238.73
602.84	285.55
603.00	304.27
603.16	304.27
603.31	308.95
603.47	318.31
603.62	210.65
603.78	304.27
603.94	259.80
604.09	388.53
604.25	264.48
604.40	262.14
604.56	320.65
604.71	339.38
604.87	315.97
605.03	283.20
605.18	318.31
605.34	292.57
605.49	278.52
605.65	212.99
605.80	308.95
605.96	222.35
606.12	276.18
606.27	330.02
606.43	278.52
606.58	306.61
606.74	315.97
606.89	269.16
607.05	264.48
607.20	217.67
607.36	294.91
607.51	252.78
607.67	196.60
607.82	194.26
607.98	301.93
608.13	269.16
608.29	245.76
608.44	290.23
608.60	262.14
608.75	292.57
608.91	390.87
609.06	318.31
609.22	259.80
609.37	236.39
609.53	241.08
609.68	217.67
609.84	191.92
609.99	269.16
610.15	231.71
610.30	278.52
610.46	273.84
610.61	191.92
610.76	283.20
610.92	351.08
611.07	220.01
611.23	297.25
611.38	313.63
611.54	175.54
611.69	196.60
611.84	294.91
612.00	264.48
612.15	163.84
612.31	292.57
612.46	241.08
612.62	308.95
612.77	243.42
612.92	376.83
613.08	287.89
613.23	250.44
613.39	184.90
613.54	264.48
613.69	177.88
613.85	173.20
614.00	180.22
614.15	152.13
614.31	189.58
614.46	271.50
614.62	231.71
614.77	234.05
614.92	142.77
615.08	208.31
615.23	273.84
615.38	327.68
615.54	184.90
615.69	210.65
615.84	212.99
616.00	229.37
616.15	238.73
616.30	245.76
616.46	170.86
616.61	217.67
616.76	315.97
616.92	234.05
617.07	175.54
617.22	142.77
617.37	222.35
617.53	313.63
617.68	264.48
617.83	276.18
617.99	374.49
618.14	301.93
618.29	259.80
618.45	135.75
618.60	208.31
618.75	145.11
618.90	161.50
619.06	252.78
619.21	205.97
619.36	201.29
619.51	203.63
619.67	220.01
619.82	159.16
619.97	306.61
620.12	215.33
620.28	262.14
620.43	166.18
620.58	238.73
620.73	194.26
620.89	166.18
621.04	114.69
621.19	313.63
621.34	177.88
621.49	177.88
621.65	170.86
621.80	133.41
621.95	245.76
622.10	224.69
622.25	117.03
622.41	220.01
622.56	201.29
622.71	215.33
622.86	229.37
623.01	234.05
623.16	248.10
623.32	203.63
623.47	294.91
