SpectraSuite Data File
++++++++++++++++++++++++++++++++++++
Date: Mon Oct 07 14:59:56 GMT-05:00 2013
User: price-jones
Dark Spectrum Present: No
Reference Spectrum Present: No
Number of Sampled Component Spectra: 1
Spectrometers: USB2+H05261
Integration Time (usec): 100000 (USB2+H05261)
Spectra Averaged: 1 (USB2+H05261)
Boxcar Smoothing: 0 (USB2+H05261)
Correct for Electrical Dark: No (USB2+H05261)
Strobe/Lamp Enabled: No (USB2+H05261)
Correct for Detector Non-linearity: No (USB2+H05261)
Correct for Stray Light: No (USB2+H05261)
Number of Pixels in Processed Spectrum: 2048
>>>>>Begin Processed Spectral Data<<<<<
365.73	0.00
365.92	0.00
366.12	0.00
366.32	0.00
366.52	0.00
366.72	0.00
366.91	0.00
367.11	0.00
367.31	0.00
367.51	0.00
367.70	0.00
367.90	0.00
368.10	0.00
368.30	0.00
368.49	0.00
368.69	0.00
368.89	0.00
369.09	0.00
369.28	0.00
369.48	0.00
369.68	0.00
369.87	0.00
370.07	0.00
370.27	0.00
370.47	0.00
370.66	0.00
370.86	0.00
371.06	0.00
371.25	0.00
371.45	0.00
371.65	0.00
371.84	0.00
372.04	0.00
372.24	0.00
372.44	0.00
372.63	0.00
372.83	0.00
373.03	0.00
373.22	0.00
373.42	0.00
373.62	0.00
373.81	0.00
374.01	0.00
374.21	0.00
374.40	0.00
374.60	0.00
374.79	0.00
374.99	0.00
375.19	0.00
375.38	0.00
375.58	0.00
375.78	0.00
375.97	0.00
376.17	0.00
376.37	0.00
376.56	0.00
376.76	0.00
376.95	0.00
377.15	0.00
377.35	0.00
377.54	0.00
377.74	0.00
377.93	0.00
378.13	0.00
378.33	0.00
378.52	0.00
378.72	0.00
378.91	0.00
379.11	0.00
379.31	0.00
379.50	0.00
379.70	0.00
379.89	0.00
380.09	0.00
380.28	0.00
380.48	0.00
380.68	0.00
380.87	0.00
381.07	0.00
381.26	0.00
381.46	0.00
381.65	0.00
381.85	0.00
382.04	0.00
382.24	0.00
382.43	0.00
382.63	0.00
382.83	0.00
383.02	0.00
383.22	0.00
383.41	0.00
383.61	0.00
383.80	0.00
384.00	0.00
384.19	0.00
384.39	0.00
384.58	0.00
384.78	0.00
384.97	0.00
385.17	0.00
385.36	0.00
385.56	0.00
385.75	0.00
385.95	0.00
386.14	0.00
386.34	0.00
386.53	0.00
386.72	0.00
386.92	0.00
387.11	0.00
387.31	0.00
387.50	0.00
387.70	0.00
387.89	0.00
388.09	0.00
388.28	0.00
388.48	0.00
388.67	0.00
388.86	0.00
389.06	0.00
389.25	0.00
389.45	0.00
389.64	0.00
389.84	0.00
390.03	0.00
390.22	0.00
390.42	0.00
390.61	0.00
390.81	0.00
391.00	0.00
391.19	0.00
391.39	0.00
391.58	0.00
391.78	0.00
391.97	0.00
392.16	0.00
392.36	0.00
392.55	0.00
392.75	0.00
392.94	0.00
393.13	0.00
393.33	0.00
393.52	0.00
393.71	0.00
393.91	0.00
394.10	0.00
394.29	0.00
394.49	0.00
394.68	0.00
394.88	0.00
395.07	0.00
395.26	0.00
395.46	0.00
395.65	0.00
395.84	0.00
396.04	0.00
396.23	0.00
396.42	0.00
396.62	0.00
396.81	0.00
397.00	0.00
397.19	0.00
397.39	0.00
397.58	0.00
397.77	0.00
397.97	0.00
398.16	0.00
398.35	0.00
398.55	0.00
398.74	0.00
398.93	0.00
399.12	0.00
399.32	0.00
399.51	0.00
399.70	0.00
399.90	0.00
400.09	0.00
400.28	0.00
400.47	0.00
400.67	0.00
400.86	0.00
401.05	0.00
401.24	0.00
401.44	0.00
401.63	0.00
401.82	0.00
402.01	0.00
402.21	0.00
402.40	0.00
402.59	0.00
402.78	0.00
402.97	0.00
403.17	0.00
403.36	0.00
403.55	0.00
403.74	0.00
403.93	0.00
404.13	0.00
404.32	0.00
404.51	0.00
404.70	0.00
404.89	0.00
405.09	0.00
405.28	0.00
405.47	0.00
405.66	0.00
405.85	0.00
406.05	0.00
406.24	0.00
406.43	0.00
406.62	0.00
406.81	0.00
407.00	0.00
407.20	0.00
407.39	0.00
407.58	0.00
407.77	0.00
407.96	0.00
408.15	0.00
408.34	0.00
408.54	0.00
408.73	0.00
408.92	0.00
409.11	0.00
409.30	0.00
409.49	0.00
409.68	0.00
409.87	0.00
410.07	0.00
410.26	0.00
410.45	0.00
410.64	0.00
410.83	0.00
411.02	0.00
411.21	0.00
411.40	0.00
411.59	0.00
411.78	0.00
411.98	0.00
412.17	0.00
412.36	0.00
412.55	0.00
412.74	0.00
412.93	0.00
413.12	0.00
413.31	0.00
413.50	0.00
413.69	0.00
413.88	0.00
414.07	0.00
414.26	0.00
414.45	0.00
414.64	0.00
414.83	0.00
415.02	0.00
415.22	0.00
415.41	0.00
415.60	0.00
415.79	0.00
415.98	0.00
416.17	0.00
416.36	0.00
416.55	0.00
416.74	0.00
416.93	0.00
417.12	0.00
417.31	0.00
417.50	0.00
417.69	0.00
417.88	0.00
418.07	0.00
418.26	0.00
418.45	0.00
418.64	0.00
418.83	0.00
419.02	0.00
419.21	0.00
419.39	0.00
419.58	0.00
419.77	0.00
419.96	0.00
420.15	0.00
420.34	0.00
420.53	0.00
420.72	0.00
420.91	0.00
421.10	0.00
421.29	0.00
421.48	0.00
421.67	0.00
421.86	0.00
422.05	0.00
422.24	0.00
422.43	0.00
422.61	0.00
422.80	0.00
422.99	0.00
423.18	0.00
423.37	0.00
423.56	0.00
423.75	0.00
423.94	0.00
424.13	0.00
424.32	0.00
424.50	0.00
424.69	0.00
424.88	0.00
425.07	0.00
425.26	0.00
425.45	0.00
425.64	0.00
425.83	0.00
426.01	0.00
426.20	0.00
426.39	0.00
426.58	0.00
426.77	0.00
426.96	0.00
427.15	0.00
427.33	0.00
427.52	0.00
427.71	0.00
427.90	0.00
428.09	0.00
428.28	0.00
428.46	0.00
428.65	0.00
428.84	0.00
429.03	0.00
429.22	0.00
429.40	0.00
429.59	0.00
429.78	0.00
429.97	0.00
430.16	0.00
430.34	0.00
430.53	0.00
430.72	0.00
430.91	0.00
431.10	0.00
431.28	0.00
431.47	0.00
431.66	0.00
431.85	0.00
432.03	0.00
432.22	0.00
432.41	0.00
432.60	0.00
432.79	0.00
432.97	0.00
433.16	0.00
433.35	0.00
433.54	0.00
433.72	0.00
433.91	0.00
434.10	0.00
434.28	0.00
434.47	0.00
434.66	0.00
434.85	0.00
435.03	0.00
435.22	0.00
435.41	0.00
435.59	0.00
435.78	0.00
435.97	0.00
436.16	0.00
436.34	0.00
436.53	0.00
436.72	0.00
436.90	0.00
437.09	0.00
437.28	0.00
437.46	0.00
437.65	0.00
437.84	0.00
438.02	0.00
438.21	0.00
438.40	0.00
438.58	0.00
438.77	0.00
438.96	0.00
439.14	0.00
439.33	0.00
439.52	0.00
439.70	0.00
439.89	0.00
440.08	0.00
440.26	0.00
440.45	0.00
440.63	0.00
440.82	0.00
441.01	0.00
441.19	0.00
441.38	0.00
441.57	0.00
441.75	0.00
441.94	0.00
442.12	14.04
442.31	0.00
442.50	0.00
442.68	0.00
442.87	0.00
443.05	0.00
443.24	0.00
443.43	0.00
443.61	0.00
443.80	0.00
443.98	0.00
444.17	0.00
444.35	4.68
444.54	0.00
444.73	0.00
444.91	0.00
445.10	0.00
445.28	0.00
445.47	0.00
445.65	0.00
445.84	0.00
446.02	0.00
446.21	0.00
446.39	0.00
446.58	0.00
446.77	0.00
446.95	0.00
447.14	0.00
447.32	16.38
447.51	0.00
447.69	0.00
447.88	0.00
448.06	0.00
448.25	0.00
448.43	0.00
448.62	0.00
448.80	0.00
448.99	0.00
449.17	0.00
449.36	0.00
449.54	0.00
449.73	0.00
449.91	0.00
450.10	0.00
450.28	7.02
450.46	124.05
450.65	0.00
450.83	0.00
451.02	0.00
451.20	0.00
451.39	0.00
451.57	0.00
451.76	0.00
451.94	30.43
452.13	7.02
452.31	0.00
452.49	0.00
452.68	0.00
452.86	0.00
453.05	23.41
453.23	0.00
453.42	0.00
453.60	0.00
453.78	0.00
453.97	0.00
454.15	0.00
454.34	0.00
454.52	0.00
454.70	0.00
454.89	0.00
455.07	0.00
455.26	25.75
455.44	0.00
455.62	0.00
455.81	0.00
455.99	0.00
456.17	16.38
456.36	0.00
456.54	0.00
456.73	0.00
456.91	0.00
457.09	0.00
457.28	9.36
457.46	0.00
457.64	0.00
457.83	0.00
458.01	0.00
458.19	16.38
458.38	0.00
458.56	7.02
458.74	0.00
458.93	32.77
459.11	0.00
459.29	4.68
459.48	0.00
459.66	0.00
459.84	0.00
460.03	117.03
460.21	16.38
460.39	0.00
460.57	37.45
460.76	0.00
460.94	0.00
461.12	53.83
461.31	0.00
461.49	0.00
461.67	0.00
461.85	28.09
462.04	0.00
462.22	589.82
462.40	37.45
462.59	21.06
462.77	0.00
462.95	0.00
463.13	0.00
463.32	0.00
463.50	0.00
463.68	39.79
463.86	0.00
464.05	0.00
464.23	37.45
464.41	0.00
464.59	9.36
464.78	56.17
464.96	0.00
465.14	0.00
465.32	0.00
465.50	0.00
465.69	16.38
465.87	0.00
466.05	0.00
466.23	0.00
466.41	0.00
466.60	74.90
466.78	9.36
466.96	16.38
467.14	0.00
467.32	74.90
467.51	65.54
467.69	0.00
467.87	51.49
468.05	0.00
468.23	0.00
468.41	0.00
468.60	2.34
468.78	16.38
468.96	74.90
469.14	0.00
469.32	0.00
469.50	0.00
469.69	0.00
469.87	0.00
470.05	0.00
470.23	0.00
470.41	0.00
470.59	0.00
470.77	0.00
470.95	42.13
471.14	37.45
471.32	0.00
471.50	14.04
471.68	11.70
471.86	21.06
472.04	0.00
472.22	30.43
472.40	0.00
472.58	0.00
472.77	23.41
472.95	0.00
473.13	23.41
473.31	98.30
473.49	0.00
473.67	0.00
473.85	0.00
474.03	0.00
474.21	0.00
474.39	9.36
474.57	28.09
474.75	0.00
474.93	53.83
475.12	0.00
475.30	9.36
475.48	7.02
475.66	0.00
475.84	0.00
476.02	0.00
476.20	138.09
476.38	4.68
476.56	91.28
476.74	21.06
476.92	0.00
477.10	0.00
477.28	23.41
477.46	0.00
477.64	70.22
477.82	0.00
478.00	18.72
478.18	100.64
478.36	14.04
478.54	0.00
478.72	0.00
478.90	16.38
479.08	7.02
479.26	14.04
479.44	100.64
479.62	67.88
479.80	95.96
479.98	0.00
480.16	79.58
480.34	42.13
480.52	35.11
480.70	100.64
480.88	88.94
481.06	67.88
481.24	0.00
481.41	110.01
481.59	117.03
481.77	119.37
481.95	30.43
482.13	67.88
482.31	72.56
482.49	2.34
482.67	70.22
482.85	49.15
483.03	32.77
483.21	49.15
483.39	65.54
483.57	77.24
483.74	49.15
483.92	112.35
484.10	0.00
484.28	49.15
484.46	107.66
484.64	56.17
484.82	63.19
485.00	65.54
485.18	131.07
485.35	138.09
485.53	39.79
485.71	30.43
485.89	0.00
486.07	28.09
486.25	161.50
486.43	81.92
486.61	58.51
486.78	147.45
486.96	42.13
487.14	60.85
487.32	149.79
487.50	53.83
487.68	93.62
487.85	117.03
488.03	119.37
488.21	156.82
488.39	191.92
488.57	53.83
488.75	67.88
488.92	435.34
489.10	110.01
489.28	147.45
489.46	119.37
489.64	170.86
489.81	138.09
489.99	117.03
490.17	198.95
490.35	135.75
490.53	70.22
490.70	166.18
490.88	126.39
491.06	100.64
491.24	138.09
491.41	187.24
491.59	166.18
491.77	39.79
491.95	149.79
492.13	161.50
492.30	147.45
492.48	212.99
492.66	194.26
492.84	140.43
493.01	166.18
493.19	100.64
493.37	227.03
493.54	166.18
493.72	184.90
493.90	112.35
494.08	187.24
494.25	177.88
494.43	220.01
494.61	163.84
494.79	145.11
494.96	110.01
495.14	189.58
495.32	142.77
495.49	166.18
495.67	210.65
495.85	138.09
496.02	187.24
496.20	133.41
496.38	163.84
496.55	222.35
496.73	175.54
496.91	196.60
497.09	147.45
497.26	163.84
497.44	196.60
497.62	102.98
497.79	110.01
497.97	224.69
498.14	259.80
498.32	163.84
498.50	273.84
498.67	201.29
498.85	222.35
499.03	215.33
499.20	203.63
499.38	229.37
499.56	220.01
499.73	212.99
499.91	266.82
500.08	191.92
500.26	224.69
500.44	194.26
500.61	297.25
500.79	187.24
500.97	133.41
501.14	217.67
501.32	135.75
501.49	234.05
501.67	236.39
501.84	229.37
502.02	198.95
502.20	245.76
502.37	201.29
502.55	278.52
502.72	245.76
502.90	266.82
503.07	220.01
503.25	215.33
503.43	229.37
503.60	243.42
503.78	227.03
503.95	175.54
504.13	278.52
504.30	180.22
504.48	208.31
504.65	241.08
504.83	341.72
505.01	205.97
505.18	149.79
505.36	173.20
505.53	250.44
505.71	245.76
505.88	355.76
506.06	266.82
506.23	194.26
506.41	201.29
506.58	145.11
506.76	264.48
506.93	222.35
507.11	290.23
507.28	245.76
507.46	198.95
507.63	229.37
507.81	175.54
507.98	217.67
508.16	189.58
508.33	203.63
508.50	325.33
508.68	238.73
508.85	325.33
509.03	205.97
509.20	196.60
509.38	220.01
509.55	215.33
509.73	220.01
509.90	276.18
510.08	224.69
510.25	241.08
510.42	238.73
510.60	184.90
510.77	266.82
510.95	306.61
511.12	304.27
511.30	234.05
511.47	262.14
511.64	308.95
511.82	184.90
511.99	276.18
512.17	212.99
512.34	262.14
512.51	210.65
512.69	294.91
512.86	322.99
513.04	266.82
513.21	315.97
513.38	187.24
513.56	224.69
513.73	264.48
513.90	215.33
514.08	191.92
514.25	248.10
514.43	252.78
514.60	229.37
514.77	210.65
514.95	280.86
515.12	318.31
515.29	290.23
515.47	280.86
515.64	308.95
515.81	290.23
515.99	367.46
516.16	234.05
516.33	173.20
516.51	124.05
516.68	187.24
516.85	217.67
517.03	262.14
517.20	294.91
517.37	278.52
517.54	290.23
517.72	131.07
517.89	238.73
518.06	152.13
518.24	257.46
518.41	243.42
518.58	196.60
518.75	184.90
518.93	271.50
519.10	255.12
519.27	346.40
519.45	311.29
519.62	264.48
519.79	297.25
519.96	252.78
520.14	290.23
520.31	344.06
520.48	241.08
520.65	311.29
520.83	299.59
521.00	248.10
521.17	285.55
521.34	304.27
521.52	269.16
521.69	245.76
521.86	278.52
522.03	376.83
522.20	339.38
522.38	259.80
522.55	255.12
522.72	285.55
522.89	318.31
523.07	344.06
523.24	205.97
523.41	283.20
523.58	231.71
523.75	241.08
523.92	311.29
524.10	252.78
524.27	292.57
524.44	332.36
524.61	358.10
524.78	299.59
524.96	320.65
525.13	348.74
525.30	339.38
525.47	344.06
525.64	327.68
525.81	339.38
525.98	308.95
526.16	262.14
526.33	262.14
526.50	215.33
526.67	194.26
526.84	273.84
527.01	280.86
527.18	299.59
527.36	252.78
527.53	290.23
527.70	325.33
527.87	287.89
528.04	454.06
528.21	278.52
528.38	358.10
528.55	311.29
528.72	440.02
528.89	407.25
529.07	351.08
529.24	325.33
529.41	386.19
529.58	355.76
529.75	306.61
529.92	259.80
530.09	388.53
530.26	332.36
530.43	297.25
530.60	386.19
530.77	353.42
530.94	304.27
531.11	367.46
531.28	325.33
531.46	227.03
531.63	297.25
531.80	320.65
531.97	318.31
532.14	322.99
532.31	280.86
532.48	252.78
532.65	334.70
532.82	297.25
532.99	313.63
533.16	320.65
533.33	308.95
533.50	227.03
533.67	339.38
533.84	325.33
534.01	344.06
534.18	325.33
534.35	301.93
534.52	266.82
534.69	367.46
534.86	332.36
535.03	257.46
535.20	362.78
535.37	390.87
535.54	360.44
535.71	311.29
535.88	402.57
536.05	367.46
536.22	334.70
536.38	245.76
536.55	416.62
536.72	301.93
536.89	360.44
537.06	327.68
537.23	280.86
537.40	421.30
537.57	437.68
537.74	475.13
537.91	362.78
538.08	369.80
538.25	311.29
538.42	376.83
538.59	383.85
538.75	308.95
538.92	362.78
539.09	353.42
539.26	362.78
539.43	341.72
539.60	283.20
539.77	344.06
539.94	397.89
540.11	311.29
540.28	376.83
540.44	313.63
540.61	325.33
540.78	297.25
540.95	269.16
541.12	381.51
541.29	290.23
541.46	374.49
541.62	465.77
541.79	428.32
541.96	301.93
542.13	283.20
542.30	332.36
542.47	367.46
542.63	320.65
542.80	330.02
542.97	304.27
543.14	290.23
543.31	421.30
543.48	351.08
543.64	374.49
543.81	362.78
543.98	372.15
544.15	259.80
544.32	276.18
544.48	339.38
544.65	351.08
544.82	395.55
544.99	325.33
545.16	409.59
545.32	301.93
545.49	409.59
545.66	334.70
545.83	311.29
546.00	297.25
546.16	353.42
546.33	334.70
546.50	355.76
546.67	421.30
546.83	402.57
547.00	250.44
547.17	297.25
547.34	245.76
547.50	376.83
547.67	348.74
547.84	341.72
548.00	346.40
548.17	435.34
548.34	339.38
548.51	386.19
548.67	388.53
548.84	393.21
549.01	395.55
549.18	376.83
549.34	346.40
549.51	400.23
549.68	358.10
549.84	351.08
550.01	287.89
550.18	486.83
550.34	409.59
550.51	358.10
550.68	365.12
550.84	383.85
551.01	327.68
551.18	400.23
551.34	381.51
551.51	395.55
551.68	416.62
551.84	358.10
552.01	358.10
552.18	273.84
552.34	395.55
552.51	318.31
552.68	416.62
552.84	276.18
553.01	404.91
553.18	367.46
553.34	325.33
553.51	362.78
553.67	360.44
553.84	447.04
554.01	402.57
554.17	381.51
554.34	339.38
554.51	402.57
554.67	362.78
554.84	423.64
555.00	404.91
555.17	386.19
555.33	308.95
555.50	388.53
555.67	397.89
555.83	297.25
556.00	388.53
556.16	550.03
556.33	297.25
556.50	400.23
556.66	418.96
556.83	395.55
556.99	330.02
557.16	386.19
557.32	393.21
557.49	327.68
557.65	435.34
557.82	252.78
557.98	308.95
558.15	301.93
558.32	308.95
558.48	313.63
558.65	187.24
558.81	308.95
558.98	341.72
559.14	362.78
559.31	360.44
559.47	180.22
559.64	332.36
559.80	299.59
559.97	304.27
560.13	358.10
560.30	287.89
560.46	397.89
560.63	339.38
560.79	339.38
560.96	259.80
561.12	311.29
561.29	325.33
561.45	273.84
561.61	393.21
561.78	407.25
561.94	358.10
562.11	344.06
562.27	379.17
562.44	299.59
562.60	304.27
562.77	337.04
562.93	372.15
563.10	351.08
563.26	308.95
563.42	262.14
563.59	397.89
563.75	339.38
563.92	325.33
564.08	402.57
564.24	395.55
564.41	339.38
564.57	264.48
564.74	313.63
564.90	358.10
565.07	334.70
565.23	353.42
565.39	369.80
565.56	238.73
565.72	320.65
565.88	308.95
566.05	299.59
566.21	322.99
566.38	337.04
566.54	271.50
566.70	332.36
566.87	252.78
567.03	320.65
567.19	355.76
567.36	315.97
567.52	348.74
567.68	306.61
567.85	428.32
568.01	292.57
568.17	294.91
568.34	276.18
568.50	388.53
568.66	339.38
568.83	451.72
568.99	311.29
569.15	327.68
569.32	365.12
569.48	358.10
569.64	367.46
569.81	355.76
569.97	269.16
570.13	315.97
570.30	273.84
570.46	318.31
570.62	339.38
570.78	271.50
570.95	231.71
571.11	400.23
571.27	308.95
571.43	294.91
571.60	407.25
571.76	341.72
571.92	341.72
572.09	320.65
572.25	320.65
572.41	292.57
572.57	320.65
572.74	388.53
572.90	360.44
573.06	353.42
573.22	341.72
573.38	372.15
573.55	280.86
573.71	367.46
573.87	414.27
574.03	322.99
574.20	381.51
574.36	414.27
574.52	294.91
574.68	334.70
574.84	360.44
575.01	360.44
575.17	374.49
575.33	430.66
575.49	273.84
575.65	306.61
575.82	325.33
575.98	400.23
576.14	285.55
576.30	348.74
576.46	346.40
576.62	311.29
576.79	299.59
576.95	383.85
577.11	304.27
577.27	320.65
577.43	353.42
577.59	355.76
577.75	315.97
577.92	259.80
578.08	304.27
578.24	252.78
578.40	290.23
578.56	304.27
578.72	383.85
578.88	344.06
579.04	292.57
579.21	404.91
579.37	344.06
579.53	278.52
579.69	339.38
579.85	280.86
580.01	306.61
580.17	301.93
580.33	325.33
580.49	224.69
580.65	362.78
580.82	327.68
580.98	224.69
581.14	325.33
581.30	418.96
581.46	414.27
581.62	353.42
581.78	287.89
581.94	362.78
582.10	379.17
582.26	362.78
582.42	386.19
582.58	238.73
582.74	320.65
582.90	344.06
583.06	330.02
583.22	315.97
583.38	348.74
583.54	358.10
583.70	353.42
583.86	294.91
584.02	325.33
584.18	313.63
584.34	339.38
584.50	393.21
584.66	241.08
584.82	227.03
584.98	330.02
585.14	315.97
585.30	278.52
585.46	308.95
585.62	224.69
585.78	355.76
585.94	332.36
586.10	325.33
586.26	421.30
586.42	341.72
586.58	353.42
586.74	311.29
586.90	341.72
587.06	313.63
587.22	290.23
587.38	346.40
587.54	313.63
587.70	276.18
587.86	339.38
588.02	248.10
588.18	243.42
588.34	273.84
588.49	227.03
588.65	287.89
588.81	271.50
588.97	257.46
589.13	245.76
589.29	280.86
589.45	341.72
589.61	140.43
589.77	348.74
589.93	245.76
590.08	222.35
590.24	189.58
590.40	241.08
590.56	376.83
590.72	367.46
590.88	196.60
591.04	297.25
591.20	191.92
591.35	372.15
591.51	344.06
591.67	358.10
591.83	402.57
591.99	339.38
592.15	393.21
592.31	346.40
592.46	285.55
592.62	407.25
592.78	290.23
592.94	196.60
593.10	358.10
593.26	250.44
593.41	344.06
593.57	353.42
593.73	273.84
593.89	285.55
594.05	283.20
594.20	299.59
594.36	308.95
594.52	264.48
594.68	294.91
594.84	332.36
594.99	374.49
595.15	299.59
595.31	306.61
595.47	390.87
595.62	315.97
595.78	320.65
595.94	299.59
596.10	353.42
596.25	318.31
596.41	299.59
596.57	227.03
596.73	273.84
596.88	273.84
597.04	290.23
597.20	227.03
597.36	222.35
597.51	229.37
597.67	248.10
597.83	344.06
597.99	360.44
598.14	358.10
598.30	348.74
598.46	236.39
598.61	322.99
598.77	285.55
598.93	264.48
599.09	273.84
599.24	325.33
599.40	257.46
599.56	252.78
599.71	238.73
599.87	243.42
600.03	339.38
600.18	306.61
600.34	287.89
600.50	255.12
600.65	308.95
600.81	311.29
600.97	294.91
601.12	262.14
601.28	250.44
601.44	322.99
601.59	264.48
601.75	334.70
601.91	285.55
602.06	236.39
602.22	397.89
602.37	208.31
602.53	301.93
602.69	351.08
602.84	327.68
603.00	231.71
603.16	257.46
603.31	341.72
603.47	339.38
603.62	175.54
603.78	381.51
603.94	245.76
604.09	311.29
604.25	404.91
604.40	353.42
604.56	330.02
604.71	266.82
604.87	264.48
605.03	248.10
605.18	182.56
605.34	290.23
605.49	360.44
605.65	222.35
605.80	203.63
605.96	234.05
606.12	241.08
606.27	297.25
606.43	248.10
606.58	337.04
606.74	280.86
606.89	280.86
607.05	222.35
607.20	353.42
607.36	252.78
607.51	262.14
607.67	294.91
607.82	245.76
607.98	327.68
608.13	234.05
608.29	273.84
608.44	243.42
608.60	379.17
608.75	273.84
608.91	299.59
609.06	287.89
609.22	250.44
609.37	208.31
609.53	224.69
609.68	255.12
609.84	196.60
609.99	194.26
610.15	308.95
610.30	222.35
610.46	337.04
610.61	297.25
610.76	241.08
610.92	243.42
611.07	168.52
611.23	334.70
611.38	308.95
611.54	208.31
611.69	250.44
611.84	332.36
612.00	170.86
612.15	259.80
612.31	238.73
612.46	252.78
612.62	297.25
612.77	299.59
612.92	250.44
613.08	299.59
613.23	264.48
613.39	138.09
613.54	147.45
613.69	222.35
613.85	203.63
614.00	262.14
614.15	194.26
614.31	173.20
614.46	287.89
614.62	227.03
614.77	238.73
614.92	262.14
615.08	262.14
615.23	306.61
615.38	262.14
615.54	152.13
615.69	198.95
615.84	159.16
616.00	182.56
616.15	177.88
616.30	170.86
616.46	236.39
616.61	163.84
616.76	220.01
616.92	299.59
617.07	252.78
617.22	250.44
617.37	100.64
617.53	187.24
617.68	231.71
617.83	224.69
617.99	351.08
618.14	285.55
618.29	257.46
618.45	245.76
618.60	212.99
618.75	248.10
618.90	149.79
619.06	175.54
619.21	266.82
619.36	227.03
619.51	243.42
619.67	362.78
619.82	283.20
619.97	259.80
620.12	224.69
620.28	276.18
620.43	248.10
620.58	269.16
620.73	234.05
620.89	156.82
621.04	177.88
621.19	250.44
621.34	145.11
621.49	241.08
621.65	220.01
621.80	187.24
621.95	231.71
622.10	189.58
622.25	168.52
622.41	203.63
622.56	194.26
622.71	248.10
622.86	196.60
623.01	173.20
623.16	184.90
