SpectraSuite Data File
++++++++++++++++++++++++++++++++++++
Date: Mon Oct 07 15:00:12 GMT-05:00 2013
User: price-jones
Dark Spectrum Present: No
Reference Spectrum Present: No
Number of Sampled Component Spectra: 1
Spectrometers: USB2+H05261
Integration Time (usec): 1000000 (USB2+H05261)
Spectra Averaged: 1 (USB2+H05261)
Boxcar Smoothing: 0 (USB2+H05261)
Correct for Electrical Dark: No (USB2+H05261)
Strobe/Lamp Enabled: No (USB2+H05261)
Correct for Detector Non-linearity: No (USB2+H05261)
Correct for Stray Light: No (USB2+H05261)
Number of Pixels in Processed Spectrum: 2048
>>>>>Begin Processed Spectral Data<<<<<
365.73	0.00
365.92	0.00
366.12	0.00
366.32	0.00
366.52	0.00
366.72	110.01
366.91	0.00
367.11	166.18
367.31	56.17
367.51	91.28
367.70	276.18
367.90	526.62
368.10	205.97
368.30	182.56
368.49	0.00
368.69	299.59
368.89	110.01
369.09	0.00
369.28	58.51
369.48	0.00
369.68	67.88
369.87	140.43
370.07	23.41
370.27	449.38
370.47	304.27
370.66	189.58
370.86	479.81
371.06	683.44
371.25	933.87
371.45	308.95
371.65	596.84
371.84	212.99
372.04	182.56
372.24	327.68
372.44	276.18
372.63	477.47
372.83	830.89
373.03	440.02
373.22	245.76
373.42	313.63
373.62	477.47
373.81	510.24
374.01	746.63
374.21	613.22
374.40	360.44
374.60	655.35
374.79	362.78
374.99	339.38
375.19	568.75
375.38	585.13
375.58	484.49
375.78	777.06
375.97	580.45
376.17	1057.92
376.37	433.00
376.56	428.32
376.76	198.95
376.95	294.91
377.15	582.79
377.35	631.94
377.54	510.24
377.74	248.10
377.93	224.69
378.13	449.38
378.33	634.29
378.52	365.12
378.72	725.57
378.91	627.26
379.11	255.12
379.31	278.52
379.50	182.56
379.70	725.57
379.89	669.39
380.09	262.14
380.28	145.11
380.48	418.96
380.68	287.89
380.87	163.84
381.07	442.36
381.26	716.20
381.46	278.52
381.65	477.47
381.85	283.20
382.04	573.43
382.24	510.24
382.43	360.44
382.63	252.78
382.83	332.36
383.02	657.69
383.22	737.27
383.41	224.69
383.61	404.91
383.80	760.67
384.00	369.80
384.19	339.38
384.39	489.17
384.58	374.49
384.78	641.31
384.97	503.22
385.17	463.43
385.36	428.32
385.56	643.65
385.75	159.16
385.95	386.19
386.14	699.82
386.34	325.33
386.53	545.34
386.72	358.10
386.92	770.04
387.11	561.73
387.31	510.24
387.50	257.46
387.70	205.97
387.89	510.24
388.09	318.31
388.28	212.99
388.48	201.29
388.67	678.76
388.86	402.57
389.06	344.06
389.25	535.98
389.45	465.77
389.64	358.10
389.84	699.82
390.03	589.82
390.22	535.98
390.42	245.76
390.61	287.89
390.81	147.45
391.00	440.02
391.19	730.25
391.39	402.57
391.58	603.86
391.78	383.85
391.97	496.19
392.16	180.22
392.36	706.84
392.55	793.44
392.75	461.09
392.94	339.38
393.13	660.03
393.33	250.44
393.52	332.36
393.71	788.76
393.91	451.72
394.10	231.71
394.29	358.10
394.49	339.38
394.68	533.64
394.88	744.29
395.07	653.01
395.26	461.09
395.46	458.74
395.65	774.72
395.84	580.45
396.04	1193.67
396.23	461.09
396.42	404.91
396.62	559.39
396.81	521.94
397.00	500.87
397.19	491.51
397.39	472.79
397.58	835.57
397.77	407.25
397.97	468.11
398.16	589.82
398.35	660.03
398.55	334.70
398.74	535.98
398.93	713.86
399.12	449.38
399.32	683.44
399.51	451.72
399.70	610.88
399.90	629.60
400.09	641.31
400.28	725.57
400.47	456.40
400.67	681.10
400.86	571.09
401.05	751.31
401.24	830.89
401.44	734.93
401.63	727.91
401.82	753.65
402.01	369.80
402.21	772.38
402.40	545.34
402.59	540.66
402.78	524.28
402.97	535.98
403.17	547.69
403.36	697.48
403.55	528.96
403.74	449.38
403.93	470.45
404.13	788.76
404.32	395.55
404.51	521.94
404.70	767.70
404.89	505.56
405.09	1046.22
405.28	571.09
405.47	362.78
405.66	685.78
405.85	821.53
406.05	613.22
406.24	589.82
406.43	732.59
406.62	706.84
406.81	1221.76
407.00	844.93
407.20	580.45
407.39	573.43
407.58	550.03
407.77	772.38
407.96	912.81
408.15	821.53
408.34	751.31
408.54	683.44
408.73	653.01
408.92	547.69
409.11	753.65
409.30	931.53
409.49	379.17
409.68	493.85
409.87	674.07
410.07	507.90
410.26	662.37
410.45	587.47
410.64	496.19
410.83	669.39
411.02	582.79
411.21	758.33
411.40	800.46
411.59	613.22
411.78	615.56
411.98	678.76
412.17	528.96
412.36	627.26
412.55	573.43
412.74	781.74
412.93	1235.80
413.12	451.72
413.31	940.90
413.50	784.08
413.69	713.86
413.88	1184.31
414.07	734.93
414.26	751.31
414.45	603.86
414.64	779.40
414.83	814.51
415.02	819.19
415.22	854.30
415.41	1109.41
415.60	641.31
415.79	748.97
415.98	959.62
416.17	823.87
416.36	772.38
416.55	627.26
416.74	961.96
416.93	999.41
417.12	681.10
417.31	657.69
417.50	695.14
417.69	1373.89
417.88	744.29
418.07	545.34
418.26	711.52
418.45	699.82
418.64	1135.16
418.83	791.10
419.02	727.91
419.21	812.17
419.39	844.93
419.58	631.94
419.77	622.58
419.96	1041.54
420.15	1160.91
420.34	847.27
420.53	880.04
420.72	1125.80
420.91	891.74
421.10	800.46
421.29	957.28
421.48	1060.26
421.67	1011.11
421.86	723.23
422.05	816.85
422.24	648.33
422.43	786.42
422.61	533.64
422.80	823.87
422.99	748.97
423.18	699.82
423.37	1172.61
423.56	952.60
423.75	947.92
423.94	592.16
424.13	688.12
424.32	685.78
424.50	763.01
424.69	716.20
424.88	1144.52
425.07	674.07
425.26	842.59
425.45	987.71
425.64	631.94
425.83	699.82
426.01	1158.57
426.20	870.68
426.39	788.76
426.58	667.05
426.77	809.83
426.96	1041.54
427.15	924.51
427.33	737.27
427.52	877.70
427.71	940.90
427.90	842.59
428.09	699.82
428.28	491.51
428.46	760.67
428.65	905.79
428.84	704.50
429.03	1224.10
429.22	709.18
429.40	575.77
429.59	552.37
429.78	1001.75
429.97	624.92
430.16	613.22
430.34	751.31
430.53	669.39
430.72	704.50
430.91	950.26
431.10	603.86
431.28	844.93
431.47	1107.07
431.66	994.73
431.85	631.94
432.03	720.88
432.22	1451.13
432.41	809.83
432.60	1217.08
432.79	795.78
432.97	905.79
433.16	880.04
433.35	660.03
433.54	629.60
433.72	957.28
433.91	985.37
434.10	746.63
434.28	987.71
434.47	793.44
434.66	1076.65
434.85	760.67
435.03	870.68
435.22	1273.25
435.41	1516.67
435.59	1078.99
435.78	992.39
435.97	823.87
436.16	1193.67
436.34	873.02
436.53	1048.56
436.72	1203.04
436.90	1163.25
437.09	1071.97
437.28	936.21
437.46	873.02
437.65	1132.82
437.84	1078.99
438.02	1013.45
438.21	1034.52
438.40	802.80
438.58	629.60
438.77	959.62
438.96	908.13
439.14	805.14
439.33	1135.16
439.52	844.93
439.70	994.73
439.89	1167.93
440.08	929.19
440.26	1029.84
440.45	1423.05
440.63	1093.03
440.82	1100.05
441.01	1064.94
441.19	954.94
441.38	964.30
441.57	973.66
441.75	1308.36
441.94	1345.81
442.12	1114.10
442.31	983.02
442.50	1006.43
442.68	1004.09
442.87	1046.22
443.05	987.71
443.24	1191.33
443.43	1254.53
443.61	1579.86
443.80	1074.31
443.98	926.85
444.17	1034.52
444.35	1247.51
444.54	1144.52
444.73	1001.75
444.91	1235.80
445.10	854.30
445.28	971.32
445.47	1109.41
445.65	1135.16
445.84	947.92
446.02	1231.12
446.21	959.62
446.39	950.26
446.58	1219.42
446.77	983.02
446.95	1203.04
447.14	1261.55
447.32	1504.96
447.51	1053.24
447.69	1142.18
447.88	1123.46
448.06	1563.48
448.25	1210.06
448.43	940.90
448.62	947.92
448.80	1151.54
448.99	1387.94
449.17	1006.43
449.36	1039.20
449.54	1329.42
449.73	966.64
449.91	1338.79
450.10	1086.01
450.28	1879.45
450.46	1720.29
450.65	1474.54
450.83	1313.04
451.02	1221.76
451.20	1177.29
451.39	1036.86
451.57	1151.54
451.76	1006.43
451.94	1137.50
452.13	1289.64
452.31	1299.00
452.49	1273.25
452.68	924.51
452.86	1266.23
453.05	1652.42
453.23	1277.93
453.42	833.23
453.60	1123.46
453.78	1238.14
453.97	1015.79
454.15	1001.75
454.34	1025.15
454.52	952.60
454.70	1507.30
454.89	1352.83
455.07	1020.47
455.26	1334.11
455.44	1401.98
455.62	1158.57
455.81	1188.99
455.99	1336.45
456.17	1329.42
456.36	1233.46
456.54	1130.48
456.73	1172.61
456.91	1128.14
457.09	1371.55
457.28	1582.20
457.46	1198.35
457.64	1448.79
457.83	1153.88
458.01	957.28
458.19	1259.21
458.38	1207.72
458.56	1259.21
458.74	994.73
458.93	1224.10
459.11	1434.75
459.29	1100.05
459.48	1387.94
459.66	1715.61
459.84	1427.73
460.03	2422.45
460.21	1547.09
460.39	1212.40
460.57	1474.54
460.76	1287.29
460.94	1301.34
461.12	1619.65
461.31	1643.06
461.49	1247.51
461.67	1177.29
461.85	1245.16
462.04	1172.61
462.22	7651.21
462.40	1511.99
462.59	1460.49
462.77	1146.86
462.95	1380.92
463.13	1102.39
463.32	1511.99
463.50	1322.40
463.68	1453.47
463.86	1268.57
464.05	1142.18
464.23	1530.71
464.41	1282.61
464.59	1121.12
464.78	1104.73
464.96	1043.88
465.14	1371.55
465.32	1097.71
465.50	1451.13
465.69	1448.79
465.87	1055.58
466.05	1420.71
466.23	1008.77
466.41	1205.38
466.60	1212.40
466.78	1289.64
466.96	1500.28
467.14	1359.85
467.32	1692.21
467.51	1345.81
467.69	1479.22
467.87	1668.80
468.05	1221.76
468.23	1839.66
468.41	1500.28
468.60	1256.87
468.78	1320.06
468.96	1671.14
469.14	1371.55
469.32	1015.79
469.50	1107.07
469.69	1380.92
469.87	1252.19
470.05	1287.29
470.23	1210.06
470.41	1123.46
470.59	1109.41
470.77	1420.71
470.95	1338.79
471.14	1638.38
471.32	1235.80
471.50	1849.02
471.68	1458.15
471.86	1465.18
472.04	1221.76
472.22	1308.36
472.40	1174.95
472.58	1102.39
472.77	1170.27
472.95	1287.29
473.13	2001.16
473.31	1708.59
473.49	1097.71
473.67	1224.10
473.85	1593.90
474.03	1579.86
474.21	1448.79
474.39	1678.16
474.57	1799.87
474.75	1465.18
474.93	1320.06
475.12	1123.46
475.30	1275.59
475.48	1338.79
475.66	1502.62
475.84	1479.22
476.02	1390.28
476.20	1603.27
476.38	1558.80
476.56	2153.29
476.74	1430.07
476.92	1385.60
477.10	1420.71
477.28	1696.89
477.46	1514.33
477.64	1769.44
477.82	1369.21
478.00	1462.83
478.18	1563.48
478.36	1486.24
478.54	1385.60
478.72	1540.07
478.90	1390.28
479.08	1654.76
479.26	1598.59
479.44	1561.14
479.62	1469.86
479.80	1561.14
479.98	1472.20
480.16	1472.20
480.34	1746.04
480.52	1437.09
480.70	1687.53
480.88	1416.02
481.06	1465.18
481.24	1476.88
481.41	1540.07
481.59	1827.96
481.77	1713.27
481.95	1727.32
482.13	2015.20
482.31	1636.03
482.49	1462.83
482.67	1795.19
482.85	1926.26
483.03	1830.30
483.21	1645.40
483.39	1568.16
483.57	1614.97
483.74	2139.25
483.92	1734.34
484.10	1446.45
484.28	2062.01
484.46	2469.27
484.64	1717.95
484.82	1696.89
485.00	1579.86
485.18	1668.80
485.35	1643.06
485.53	1392.62
485.71	1863.07
485.89	1221.76
486.07	1418.36
486.25	2235.21
486.43	1790.51
486.61	1916.90
486.78	1909.88
486.96	1605.61
487.14	1804.55
487.32	1675.82
487.50	1724.97
487.68	2040.95
487.85	1692.21
488.03	2033.93
488.21	2321.81
488.39	1781.15
488.57	2003.50
488.75	1668.80
488.92	5453.45
489.10	2022.22
489.28	2438.84
489.46	1905.20
489.64	2001.16
489.81	2069.03
489.99	2132.23
490.17	1919.24
490.35	2834.39
490.53	2003.50
490.70	1930.94
490.88	2321.81
491.06	1905.20
491.24	2223.51
491.41	2368.62
491.59	1977.75
491.77	1715.61
491.95	1827.96
492.13	1893.49
492.30	1989.46
492.48	1991.80
492.66	2150.95
492.84	1994.14
493.01	2216.49
493.19	1912.22
493.37	2682.25
493.54	2174.36
493.72	2169.68
493.90	2026.90
494.08	2076.06
494.25	2282.02
494.43	2359.26
494.61	2176.70
494.79	2040.95
494.96	2143.93
495.14	2361.60
495.32	2085.42
495.49	2167.34
495.67	2277.34
495.85	2092.44
496.02	2040.95
496.20	2588.63
496.38	2403.73
496.55	2275.00
496.73	2523.10
496.91	2253.94
497.09	2527.78
497.26	2310.11
497.44	2420.11
497.62	2349.90
497.79	2319.47
497.97	2356.92
498.14	2399.05
498.32	2356.92
498.50	2347.56
498.67	2188.40
498.85	2356.92
499.03	2282.02
499.20	2403.73
499.38	2244.57
499.56	2321.81
499.73	2789.92
499.91	2490.33
500.08	2495.01
500.26	2298.41
500.44	2183.72
500.61	2399.05
500.79	2249.25
500.97	2420.11
501.14	2619.06
501.32	2340.54
501.49	2553.52
501.67	2239.89
501.84	2466.92
502.02	2122.87
502.20	2899.92
502.37	2590.97
502.55	2333.51
502.72	2434.16
502.90	2665.87
503.07	2551.18
503.25	2445.86
503.43	2078.40
503.60	2270.32
503.78	2347.56
503.95	2232.87
504.13	2272.66
504.30	2654.17
504.48	2808.64
504.65	2705.66
504.83	2635.44
505.01	2345.22
505.18	2628.42
505.36	2544.16
505.53	2377.98
505.71	2410.75
505.88	2867.16
506.06	2588.63
506.23	2525.44
506.41	2385.01
506.58	2651.83
506.76	2504.37
506.93	2377.98
507.11	2576.93
507.28	2389.69
507.46	2473.95
507.63	2499.69
507.81	2183.72
507.98	2427.14
508.16	2509.05
508.33	2462.24
508.50	2663.53
508.68	2644.81
508.85	2775.88
509.03	2394.37
509.20	2609.70
509.38	2544.16
509.55	2761.83
509.73	2799.28
509.90	2911.63
510.08	2389.69
510.25	2658.85
510.42	2408.41
510.60	2621.40
510.77	2726.72
510.95	2829.71
511.12	2635.44
511.30	2698.64
511.47	2850.77
511.64	3225.26
511.82	2506.71
511.99	2602.68
512.17	2399.05
512.34	2436.50
512.51	2394.37
512.69	2487.99
512.86	2981.84
513.04	2588.63
513.21	2623.74
513.38	2506.71
513.56	2452.88
513.73	2377.98
513.90	2265.64
514.08	2436.50
514.25	2651.83
514.43	2621.40
514.60	2382.67
514.77	2579.27
514.95	2722.04
515.12	2483.31
515.29	2682.25
515.47	2705.66
515.64	2619.06
515.81	2684.59
515.99	2932.69
516.16	2663.53
516.33	2672.89
516.51	2169.68
516.68	2010.52
516.85	2200.10
517.03	2286.70
517.20	2609.70
517.37	2731.41
517.54	2792.26
517.72	2553.52
517.89	2143.93
518.06	2078.40
518.24	2946.73
518.41	3016.95
518.58	2806.30
518.75	2394.37
518.93	2562.89
519.10	2726.72
519.27	2614.38
519.45	2630.76
519.62	2782.90
519.79	2878.86
519.96	2469.27
520.14	2794.60
520.31	2874.18
520.48	2626.08
520.65	2616.72
520.83	2829.71
521.00	2949.08
521.17	3030.99
521.34	2614.38
521.52	2750.13
521.69	2740.77
521.86	2726.72
522.03	2876.52
522.20	3152.70
522.38	2640.12
522.55	2649.49
522.72	2366.28
522.89	2949.08
523.07	3328.24
523.24	2691.62
523.41	2738.43
523.58	2715.02
523.75	2799.28
523.92	2829.71
524.10	2963.12
524.27	2661.19
524.44	2757.15
524.61	3084.83
524.78	2715.02
524.96	2937.37
525.13	2902.26
525.30	3143.34
525.47	2951.42
525.64	2768.85
525.81	2829.71
525.98	2708.00
526.16	2434.16
526.33	2424.80
526.50	2335.85
526.67	2317.13
526.84	2300.75
527.01	2410.75
527.18	2722.04
527.36	2757.15
527.53	2541.82
527.70	3190.15
527.87	2759.49
528.04	3269.73
528.21	2661.19
528.38	3185.47
528.55	3255.69
528.72	3290.79
528.89	3613.79
529.07	2820.35
529.24	2822.69
529.41	3286.11
529.58	2810.98
529.75	2726.72
529.92	3084.83
530.09	2904.60
530.26	3234.62
530.43	3042.70
530.60	2930.35
530.77	2881.20
530.94	3038.02
531.11	3042.70
531.28	2832.05
531.46	2717.36
531.63	2932.69
531.80	2904.60
531.97	3045.04
532.14	2890.56
532.31	2913.97
532.48	2904.60
532.65	2820.35
532.82	2691.62
532.99	2832.05
533.16	2750.13
533.33	3033.33
533.50	2810.98
533.67	2764.17
533.84	2967.80
534.01	2937.37
534.18	2832.05
534.35	2897.58
534.52	2953.76
534.69	3566.98
534.86	2888.22
535.03	2942.05
535.20	2970.14
535.37	3251.00
535.54	3035.67
535.71	2953.76
535.88	3368.03
536.05	2860.13
536.22	3052.06
536.38	2829.71
536.55	2862.48
536.72	3138.66
536.89	2562.89
537.06	2787.58
537.23	2918.65
537.40	3007.59
537.57	2890.56
537.74	3227.60
537.91	3094.19
538.08	3019.29
538.25	3019.29
538.42	2829.71
538.59	3056.74
538.75	2864.82
538.92	2935.03
539.09	3063.76
539.26	2820.35
539.43	3187.81
539.60	2876.52
539.77	3030.99
539.94	2810.98
540.11	2953.76
540.28	3143.34
540.44	3096.53
540.61	2768.85
540.78	2794.60
540.95	2630.76
541.12	3358.67
541.29	2768.85
541.46	3407.82
541.62	3009.93
541.79	2738.43
541.96	2771.19
542.13	2832.05
542.30	2672.89
542.47	3166.74
542.63	2743.11
542.80	2956.10
542.97	3222.92
543.14	2820.35
543.31	2963.12
543.48	2906.95
543.64	3075.46
543.81	3059.08
543.98	2794.60
544.15	2785.24
544.32	2768.85
544.48	2810.98
544.65	2719.70
544.82	2890.56
544.99	2862.48
545.16	3185.47
545.32	2801.62
545.49	3007.59
545.66	2932.69
545.83	2637.78
546.00	2799.28
546.16	2761.83
546.33	2803.96
546.50	2839.07
546.67	3309.52
546.83	3045.04
547.00	2937.37
547.17	2736.09
547.34	2658.85
547.50	2876.52
547.67	2869.50
547.84	2621.40
548.00	3119.93
548.17	2848.43
548.34	2810.98
548.51	3356.33
548.67	3162.06
548.84	2825.03
549.01	3023.97
549.18	2995.89
549.34	2993.55
549.51	2953.76
549.68	2998.23
549.84	2834.39
550.01	2628.42
550.18	4454.04
550.34	3714.43
550.51	3038.02
550.68	3517.83
550.84	2740.77
551.01	3016.95
551.18	3089.51
551.34	2876.52
551.51	2855.45
551.68	2843.75
551.84	3260.37
552.01	2818.00
552.18	2808.64
552.34	2979.50
552.51	2881.20
552.68	3068.44
552.84	2860.13
553.01	3009.93
553.18	3246.32
553.34	2841.41
553.51	2717.36
553.67	3152.70
553.84	3545.91
554.01	3145.68
554.17	2998.23
554.34	2780.56
554.51	3122.27
554.67	3276.75
554.84	3236.96
555.00	2993.55
555.17	2974.82
555.33	3236.96
555.50	2986.52
555.67	3173.77
555.83	2654.17
556.00	2916.31
556.16	4875.34
556.33	3124.62
556.50	2932.69
556.66	2806.30
556.83	2640.12
556.99	2794.60
557.16	2881.20
557.32	2843.75
557.49	2827.37
557.65	2750.13
557.82	2689.28
557.98	2857.79
558.15	2668.21
558.32	2679.91
558.48	2509.05
558.65	2633.10
558.81	2918.65
558.98	2630.76
559.14	2946.73
559.31	2808.64
559.47	3007.59
559.64	2675.23
559.80	2963.12
559.97	2663.53
560.13	2780.56
560.30	2628.42
560.46	2801.62
560.63	2808.64
560.79	2813.32
560.96	2918.65
561.12	2621.40
561.29	2946.73
561.45	2689.28
561.61	2932.69
561.78	3943.80
561.94	2874.18
562.11	2708.00
562.27	2874.18
562.44	2597.99
562.60	2892.90
562.77	2874.18
562.93	3517.83
563.10	2878.86
563.26	2759.49
563.42	3162.06
563.59	2876.52
563.75	2675.23
563.92	3241.64
564.08	2892.90
564.24	3091.85
564.41	3487.40
564.57	2595.65
564.74	2696.30
564.90	3019.29
565.07	2977.16
565.23	2960.78
565.39	2607.36
565.56	2902.26
565.72	2569.91
565.88	2679.91
566.05	2588.63
566.21	2733.75
566.38	2745.45
566.54	2988.86
566.70	2700.98
566.87	2729.06
567.03	2530.12
567.19	2766.51
567.36	2965.46
567.52	2745.45
567.68	2960.78
567.85	2820.35
568.01	2787.58
568.17	2572.25
568.34	2684.59
568.50	2928.01
568.66	2499.69
568.83	3510.80
568.99	2698.64
569.15	2951.42
569.32	2597.99
569.48	2745.45
569.64	2588.63
569.81	2607.36
569.97	2574.59
570.13	2806.30
570.30	2637.78
570.46	2647.15
570.62	2607.36
570.78	2612.04
570.95	2314.79
571.11	3260.37
571.27	3225.26
571.43	2516.08
571.60	2970.14
571.76	2562.89
571.92	2686.94
572.09	2504.37
572.25	2682.25
572.41	2869.50
572.57	2773.53
572.74	3286.11
572.90	3000.57
573.06	2736.09
573.22	2885.88
573.38	3131.64
573.55	2892.90
573.71	2956.10
573.87	3061.42
574.03	2513.74
574.20	2663.53
574.36	2930.35
574.52	2546.50
574.68	2651.83
574.84	2822.69
575.01	2616.72
575.17	2928.01
575.33	2504.37
575.49	2918.65
575.65	3038.02
575.82	2834.39
575.98	3431.23
576.14	2745.45
576.30	2649.49
576.46	2764.17
576.62	2825.03
576.79	2871.84
576.95	3133.98
577.11	2649.49
577.27	2436.50
577.43	3091.85
577.59	3084.83
577.75	2911.63
577.92	2509.05
578.08	2523.10
578.24	2497.35
578.40	2822.69
578.56	3030.99
578.72	3073.12
578.88	2951.42
579.04	2612.04
579.21	2850.77
579.37	2754.81
579.53	2621.40
579.69	3042.70
579.85	2502.03
580.01	2796.94
580.17	2516.08
580.33	2698.64
580.49	2684.59
580.65	2827.37
580.82	2661.19
580.98	2588.63
581.14	2495.01
581.30	3061.42
581.46	2768.85
581.62	2925.67
581.78	2551.18
581.94	2806.30
582.10	2495.01
582.26	2628.42
582.42	2803.96
582.58	2808.64
582.74	2579.27
582.90	2705.66
583.06	2782.90
583.22	2796.94
583.38	2703.32
583.54	2513.74
583.70	3075.46
583.86	2871.84
584.02	2750.13
584.18	3073.12
584.34	2588.63
584.50	2754.81
584.66	2654.17
584.82	2464.58
584.98	2703.32
585.14	2794.60
585.30	2953.76
585.46	2569.91
585.62	2490.33
585.78	2527.78
585.94	2829.71
586.10	2857.79
586.26	2771.19
586.42	3133.98
586.58	2787.58
586.74	2712.68
586.90	2672.89
587.06	2803.96
587.22	2761.83
587.38	2499.69
587.54	2628.42
587.70	3002.91
587.86	2963.12
588.02	2663.53
588.18	2619.06
588.34	2778.22
588.49	2120.53
588.65	2256.28
588.81	2179.04
588.97	2043.29
589.13	2296.07
589.29	2375.64
589.45	2724.38
589.61	2473.95
589.77	2834.39
589.93	2466.92
590.08	2300.75
590.24	2331.17
590.40	2338.20
590.56	2827.37
590.72	2548.84
590.88	2317.13
591.04	2583.95
591.20	2443.52
591.35	2918.65
591.51	2518.42
591.67	2251.60
591.83	2403.73
591.99	2588.63
592.15	2693.96
592.31	2708.00
592.46	2464.58
592.62	2766.51
592.78	2382.67
592.94	2354.58
593.10	2403.73
593.26	2207.13
593.41	2780.56
593.57	2567.57
593.73	2429.48
593.89	2649.49
594.05	2534.80
594.20	2415.43
594.36	2782.90
594.52	2431.82
594.68	2450.54
594.84	2888.22
594.99	2991.20
595.15	2630.76
595.31	2923.33
595.47	3103.55
595.62	2605.02
595.78	2576.93
595.94	2483.31
596.10	2923.33
596.25	2619.06
596.41	2775.88
596.57	2392.03
596.73	2389.69
596.88	2525.44
597.04	2523.10
597.20	2452.88
597.36	2516.08
597.51	2406.07
597.67	2413.09
597.83	2345.22
597.99	2799.28
598.14	2541.82
598.30	2722.04
598.46	2305.43
598.61	2874.18
598.77	2600.34
598.93	2314.79
599.09	2605.02
599.24	2579.27
599.40	2803.96
599.56	2478.63
599.71	2518.42
599.87	2466.92
