SpectraSuite Data File
++++++++++++++++++++++++++++++++++++
Date: Mon Oct 07 15:00:00 GMT-05:00 2013
User: price-jones
Dark Spectrum Present: No
Reference Spectrum Present: No
Number of Sampled Component Spectra: 1
Spectrometers: USB2+H05261
Integration Time (usec): 100000 (USB2+H05261)
Spectra Averaged: 1 (USB2+H05261)
Boxcar Smoothing: 0 (USB2+H05261)
Correct for Electrical Dark: No (USB2+H05261)
Strobe/Lamp Enabled: No (USB2+H05261)
Correct for Detector Non-linearity: No (USB2+H05261)
Correct for Stray Light: No (USB2+H05261)
Number of Pixels in Processed Spectrum: 2048
>>>>>Begin Processed Spectral Data<<<<<
365.73	0.00
365.92	0.00
366.12	0.00
366.32	0.00
366.52	0.00
366.72	0.00
366.91	0.00
367.11	0.00
367.31	0.00
367.51	0.00
367.70	0.00
367.90	0.00
368.10	0.00
368.30	0.00
368.49	0.00
368.69	0.00
368.89	0.00
369.09	0.00
369.28	0.00
369.48	0.00
369.68	0.00
369.87	0.00
370.07	0.00
370.27	0.00
370.47	0.00
370.66	0.00
370.86	0.00
371.06	0.00
371.25	0.00
371.45	0.00
371.65	0.00
371.84	0.00
372.04	0.00
372.24	0.00
372.44	0.00
372.63	0.00
372.83	0.00
373.03	0.00
373.22	0.00
373.42	0.00
373.62	0.00
373.81	0.00
374.01	0.00
374.21	0.00
374.40	0.00
374.60	0.00
374.79	0.00
374.99	0.00
375.19	0.00
375.38	0.00
375.58	0.00
375.78	0.00
375.97	0.00
376.17	0.00
376.37	0.00
376.56	0.00
376.76	0.00
376.95	0.00
377.15	0.00
377.35	0.00
377.54	0.00
377.74	0.00
377.93	0.00
378.13	0.00
378.33	0.00
378.52	0.00
378.72	0.00
378.91	0.00
379.11	0.00
379.31	0.00
379.50	0.00
379.70	0.00
379.89	0.00
380.09	0.00
380.28	0.00
380.48	0.00
380.68	0.00
380.87	0.00
381.07	0.00
381.26	0.00
381.46	0.00
381.65	0.00
381.85	0.00
382.04	0.00
382.24	0.00
382.43	0.00
382.63	0.00
382.83	0.00
383.02	0.00
383.22	0.00
383.41	0.00
383.61	0.00
383.80	0.00
384.00	0.00
384.19	0.00
384.39	0.00
384.58	0.00
384.78	0.00
384.97	0.00
385.17	0.00
385.36	0.00
385.56	0.00
385.75	0.00
385.95	0.00
386.14	0.00
386.34	0.00
386.53	0.00
386.72	0.00
386.92	0.00
387.11	0.00
387.31	0.00
387.50	0.00
387.70	0.00
387.89	0.00
388.09	0.00
388.28	0.00
388.48	0.00
388.67	0.00
388.86	0.00
389.06	0.00
389.25	0.00
389.45	0.00
389.64	0.00
389.84	0.00
390.03	0.00
390.22	0.00
390.42	0.00
390.61	0.00
390.81	0.00
391.00	0.00
391.19	0.00
391.39	0.00
391.58	0.00
391.78	0.00
391.97	0.00
392.16	0.00
392.36	0.00
392.55	0.00
392.75	0.00
392.94	0.00
393.13	0.00
393.33	0.00
393.52	0.00
393.71	0.00
393.91	0.00
394.10	0.00
394.29	0.00
394.49	0.00
394.68	0.00
394.88	0.00
395.07	0.00
395.26	0.00
395.46	0.00
395.65	0.00
395.84	0.00
396.04	0.00
396.23	0.00
396.42	0.00
396.62	0.00
396.81	0.00
397.00	0.00
397.19	0.00
397.39	0.00
397.58	0.00
397.77	0.00
397.97	0.00
398.16	0.00
398.35	0.00
398.55	0.00
398.74	0.00
398.93	0.00
399.12	0.00
399.32	0.00
399.51	0.00
399.70	0.00
399.90	0.00
400.09	0.00
400.28	0.00
400.47	0.00
400.67	0.00
400.86	0.00
401.05	0.00
401.24	0.00
401.44	0.00
401.63	0.00
401.82	0.00
402.01	0.00
402.21	0.00
402.40	0.00
402.59	0.00
402.78	0.00
402.97	0.00
403.17	0.00
403.36	0.00
403.55	0.00
403.74	0.00
403.93	0.00
404.13	0.00
404.32	0.00
404.51	0.00
404.70	0.00
404.89	0.00
405.09	0.00
405.28	0.00
405.47	0.00
405.66	0.00
405.85	0.00
406.05	0.00
406.24	0.00
406.43	0.00
406.62	0.00
406.81	0.00
407.00	0.00
407.20	0.00
407.39	0.00
407.58	0.00
407.77	0.00
407.96	0.00
408.15	0.00
408.34	0.00
408.54	0.00
408.73	0.00
408.92	0.00
409.11	0.00
409.30	0.00
409.49	0.00
409.68	0.00
409.87	0.00
410.07	0.00
410.26	0.00
410.45	0.00
410.64	0.00
410.83	0.00
411.02	0.00
411.21	0.00
411.40	0.00
411.59	0.00
411.78	0.00
411.98	0.00
412.17	0.00
412.36	0.00
412.55	0.00
412.74	0.00
412.93	0.00
413.12	0.00
413.31	0.00
413.50	0.00
413.69	0.00
413.88	0.00
414.07	0.00
414.26	0.00
414.45	0.00
414.64	0.00
414.83	0.00
415.02	0.00
415.22	0.00
415.41	0.00
415.60	0.00
415.79	0.00
415.98	0.00
416.17	0.00
416.36	0.00
416.55	0.00
416.74	0.00
416.93	0.00
417.12	0.00
417.31	0.00
417.50	0.00
417.69	0.00
417.88	0.00
418.07	0.00
418.26	0.00
418.45	0.00
418.64	0.00
418.83	0.00
419.02	0.00
419.21	0.00
419.39	0.00
419.58	0.00
419.77	0.00
419.96	0.00
420.15	0.00
420.34	0.00
420.53	0.00
420.72	0.00
420.91	0.00
421.10	0.00
421.29	0.00
421.48	0.00
421.67	0.00
421.86	0.00
422.05	0.00
422.24	0.00
422.43	0.00
422.61	0.00
422.80	0.00
422.99	0.00
423.18	0.00
423.37	0.00
423.56	0.00
423.75	9.36
423.94	0.00
424.13	0.00
424.32	0.00
424.50	0.00
424.69	0.00
424.88	0.00
425.07	0.00
425.26	0.00
425.45	0.00
425.64	0.00
425.83	0.00
426.01	0.00
426.20	0.00
426.39	0.00
426.58	0.00
426.77	0.00
426.96	0.00
427.15	0.00
427.33	0.00
427.52	0.00
427.71	0.00
427.90	0.00
428.09	0.00
428.28	0.00
428.46	0.00
428.65	0.00
428.84	0.00
429.03	0.00
429.22	0.00
429.40	0.00
429.59	0.00
429.78	0.00
429.97	0.00
430.16	0.00
430.34	0.00
430.53	0.00
430.72	0.00
430.91	0.00
431.10	0.00
431.28	0.00
431.47	0.00
431.66	0.00
431.85	0.00
432.03	0.00
432.22	0.00
432.41	0.00
432.60	0.00
432.79	0.00
432.97	0.00
433.16	0.00
433.35	0.00
433.54	0.00
433.72	0.00
433.91	0.00
434.10	0.00
434.28	0.00
434.47	0.00
434.66	0.00
434.85	0.00
435.03	0.00
435.22	0.00
435.41	0.00
435.59	0.00
435.78	0.00
435.97	0.00
436.16	0.00
436.34	0.00
436.53	0.00
436.72	0.00
436.90	0.00
437.09	0.00
437.28	0.00
437.46	0.00
437.65	0.00
437.84	0.00
438.02	0.00
438.21	0.00
438.40	0.00
438.58	0.00
438.77	0.00
438.96	0.00
439.14	0.00
439.33	0.00
439.52	0.00
439.70	0.00
439.89	0.00
440.08	0.00
440.26	0.00
440.45	0.00
440.63	0.00
440.82	0.00
441.01	0.00
441.19	0.00
441.38	0.00
441.57	0.00
441.75	0.00
441.94	0.00
442.12	0.00
442.31	0.00
442.50	0.00
442.68	0.00
442.87	0.00
443.05	0.00
443.24	0.00
443.43	0.00
443.61	46.81
443.80	0.00
443.98	0.00
444.17	0.00
444.35	7.02
444.54	0.00
444.73	0.00
444.91	0.00
445.10	0.00
445.28	0.00
445.47	0.00
445.65	0.00
445.84	0.00
446.02	0.00
446.21	0.00
446.39	0.00
446.58	0.00
446.77	0.00
446.95	0.00
447.14	0.00
447.32	4.68
447.51	0.00
447.69	0.00
447.88	0.00
448.06	16.38
448.25	0.00
448.43	0.00
448.62	0.00
448.80	0.00
448.99	0.00
449.17	0.00
449.36	0.00
449.54	0.00
449.73	0.00
449.91	0.00
450.10	0.00
450.28	0.00
450.46	0.00
450.65	0.00
450.83	0.00
451.02	0.00
451.20	28.09
451.39	0.00
451.57	0.00
451.76	11.70
451.94	0.00
452.13	0.00
452.31	0.00
452.49	0.00
452.68	0.00
452.86	0.00
453.05	0.00
453.23	0.00
453.42	0.00
453.60	9.36
453.78	0.00
453.97	0.00
454.15	0.00
454.34	0.00
454.52	2.34
454.70	0.00
454.89	0.00
455.07	0.00
455.26	2.34
455.44	0.00
455.62	0.00
455.81	0.00
455.99	0.00
456.17	0.00
456.36	0.00
456.54	0.00
456.73	0.00
456.91	0.00
457.09	4.68
457.28	0.00
457.46	0.00
457.64	0.00
457.83	0.00
458.01	23.41
458.19	0.00
458.38	0.00
458.56	0.00
458.74	0.00
458.93	0.00
459.11	0.00
459.29	0.00
459.48	7.02
459.66	70.22
459.84	0.00
460.03	0.00
460.21	0.00
460.39	0.00
460.57	7.02
460.76	25.75
460.94	0.00
461.12	56.17
461.31	0.00
461.49	0.00
461.67	0.00
461.85	25.75
462.04	0.00
462.22	559.39
462.40	30.43
462.59	65.54
462.77	21.06
462.95	65.54
463.13	0.00
463.32	0.00
463.50	0.00
463.68	0.00
463.86	0.00
464.05	0.00
464.23	28.09
464.41	0.00
464.59	0.00
464.78	0.00
464.96	0.00
465.14	2.34
465.32	0.00
465.50	39.79
465.69	0.00
465.87	0.00
466.05	18.72
466.23	0.00
466.41	0.00
466.60	0.00
466.78	0.00
466.96	0.00
467.14	0.00
467.32	0.00
467.51	9.36
467.69	0.00
467.87	21.06
468.05	0.00
468.23	79.58
468.41	0.00
468.60	0.00
468.78	0.00
468.96	0.00
469.14	0.00
469.32	30.43
469.50	0.00
469.69	0.00
469.87	0.00
470.05	0.00
470.23	14.04
470.41	0.00
470.59	0.00
470.77	0.00
470.95	0.00
471.14	0.00
471.32	0.00
471.50	0.00
471.68	0.00
471.86	0.00
472.04	9.36
472.22	0.00
472.40	0.00
472.58	0.00
472.77	0.00
472.95	60.85
473.13	77.24
473.31	0.00
473.49	16.38
473.67	9.36
473.85	51.49
474.03	35.11
474.21	21.06
474.39	49.15
474.57	67.88
474.75	21.06
474.93	0.00
475.12	0.00
475.30	11.70
475.48	0.00
475.66	0.00
475.84	0.00
476.02	0.00
476.20	67.88
476.38	0.00
476.56	161.50
476.74	0.00
476.92	0.00
477.10	35.11
477.28	91.28
477.46	0.00
477.64	0.00
477.82	65.54
478.00	46.81
478.18	81.92
478.36	0.00
478.54	16.38
478.72	51.49
478.90	9.36
479.08	86.60
479.26	18.72
479.44	49.15
479.62	0.00
479.80	37.45
479.98	25.75
480.16	42.13
480.34	53.83
480.52	0.00
480.70	91.28
480.88	42.13
481.06	0.00
481.24	32.77
481.41	42.13
481.59	72.56
481.77	81.92
481.95	18.72
482.13	60.85
482.31	0.00
482.49	0.00
482.67	107.66
482.85	72.56
483.03	100.64
483.21	152.13
483.39	98.30
483.57	149.79
483.74	21.06
483.92	138.09
484.10	42.13
484.28	77.24
484.46	93.62
484.64	39.79
484.82	70.22
485.00	30.43
485.18	79.58
485.35	0.00
485.53	0.00
485.71	0.00
485.89	37.45
486.07	74.90
486.25	63.19
486.43	46.81
486.61	39.79
486.78	121.71
486.96	91.28
487.14	37.45
487.32	51.49
487.50	21.06
487.68	105.32
487.85	102.98
488.03	198.95
488.21	100.64
488.39	117.03
488.57	88.94
488.75	35.11
488.92	376.83
489.10	215.33
489.28	191.92
489.46	168.52
489.64	72.56
489.81	93.62
489.99	161.50
490.17	138.09
490.35	145.11
490.53	124.05
490.70	93.62
490.88	182.56
491.06	95.96
491.24	140.43
491.41	159.16
491.59	114.69
491.77	98.30
491.95	102.98
492.13	2.34
492.30	236.39
492.48	149.79
492.66	133.41
492.84	112.35
493.01	194.26
493.19	175.54
493.37	229.37
493.54	149.79
493.72	126.39
493.90	138.09
494.08	119.37
494.25	77.24
494.43	154.48
494.61	161.50
494.79	140.43
494.96	168.52
495.14	126.39
495.32	131.07
495.49	110.01
495.67	182.56
495.85	248.10
496.02	201.29
496.20	184.90
496.38	161.50
496.55	119.37
496.73	152.13
496.91	220.01
497.09	229.37
497.26	205.97
497.44	212.99
497.62	110.01
497.79	161.50
497.97	184.90
498.14	142.77
498.32	215.33
498.50	212.99
498.67	180.22
498.85	145.11
499.03	156.82
499.20	175.54
499.38	245.76
499.56	184.90
499.73	257.46
499.91	128.73
500.08	163.84
500.26	159.16
500.44	187.24
500.61	224.69
500.79	149.79
500.97	154.48
501.14	184.90
501.32	112.35
501.49	220.01
501.67	173.20
501.84	140.43
502.02	201.29
502.20	184.90
502.37	163.84
502.55	301.93
502.72	142.77
502.90	222.35
503.07	311.29
503.25	201.29
503.43	149.79
503.60	170.86
503.78	161.50
503.95	142.77
504.13	147.45
504.30	243.42
504.48	250.44
504.65	257.46
504.83	241.08
505.01	217.67
505.18	264.48
505.36	170.86
505.53	238.73
505.71	297.25
505.88	257.46
506.06	161.50
506.23	276.18
506.41	248.10
506.58	210.65
506.76	248.10
506.93	180.22
507.11	198.95
507.28	229.37
507.46	180.22
507.63	184.90
507.81	241.08
507.98	191.92
508.16	264.48
508.33	248.10
508.50	308.95
508.68	215.33
508.85	276.18
509.03	280.86
509.20	220.01
509.38	294.91
509.55	325.33
509.73	222.35
509.90	320.65
510.08	259.80
510.25	262.14
510.42	234.05
510.60	227.03
510.77	220.01
510.95	280.86
511.12	262.14
511.30	224.69
511.47	292.57
511.64	311.29
511.82	264.48
511.99	250.44
512.17	212.99
512.34	159.16
512.51	252.78
512.69	238.73
512.86	285.55
513.04	241.08
513.21	208.31
513.38	205.97
513.56	149.79
513.73	220.01
513.90	248.10
514.08	215.33
514.25	276.18
514.43	425.98
514.60	189.58
514.77	215.33
514.95	283.20
515.12	238.73
515.29	304.27
515.47	259.80
515.64	304.27
515.81	283.20
515.99	308.95
516.16	334.70
516.33	271.50
516.51	161.50
516.68	100.64
516.85	142.77
517.03	215.33
517.20	175.54
517.37	159.16
517.54	290.23
517.72	229.37
517.89	208.31
518.06	177.88
518.24	227.03
518.41	301.93
518.58	205.97
518.75	271.50
518.93	196.60
519.10	135.75
519.27	297.25
519.45	269.16
519.62	262.14
519.79	322.99
519.96	180.22
520.14	273.84
520.31	304.27
520.48	210.65
520.65	198.95
520.83	259.80
521.00	266.82
521.17	208.31
521.34	217.67
521.52	325.33
521.69	269.16
521.86	339.38
522.03	315.97
522.20	318.31
522.38	234.05
522.55	187.24
522.72	243.42
522.89	262.14
523.07	304.27
523.24	250.44
523.41	220.01
523.58	341.72
523.75	271.50
523.92	234.05
524.10	332.36
524.27	259.80
524.44	337.04
524.61	311.29
524.78	334.70
524.96	292.57
525.13	327.68
525.30	264.48
525.47	344.06
525.64	191.92
525.81	245.76
525.98	266.82
526.16	271.50
526.33	238.73
526.50	159.16
526.67	252.78
526.84	161.50
527.01	301.93
527.18	259.80
527.36	245.76
527.53	348.74
527.70	444.70
527.87	234.05
528.04	325.33
528.21	220.01
528.38	372.15
528.55	421.30
528.72	388.53
528.89	304.27
529.07	348.74
529.24	351.08
529.41	411.93
529.58	283.20
529.75	320.65
529.92	322.99
530.09	276.18
530.26	362.78
530.43	416.62
530.60	374.49
530.77	252.78
530.94	346.40
531.11	322.99
531.28	355.76
531.46	337.04
531.63	325.33
531.80	334.70
531.97	379.17
532.14	318.31
532.31	283.20
532.48	287.89
532.65	266.82
532.82	292.57
532.99	311.29
533.16	320.65
533.33	348.74
533.50	292.57
533.67	236.39
533.84	344.06
534.01	287.89
534.18	271.50
534.35	344.06
534.52	285.55
534.69	458.74
534.86	248.10
535.03	334.70
535.20	341.72
535.37	374.49
535.54	367.46
535.71	294.91
535.88	360.44
536.05	264.48
536.22	360.44
536.38	208.31
536.55	327.68
536.72	341.72
536.89	360.44
537.06	341.72
537.23	292.57
537.40	400.23
537.57	421.30
537.74	341.72
537.91	337.04
538.08	311.29
538.25	374.49
538.42	334.70
538.59	308.95
538.75	299.59
538.92	257.46
539.09	369.80
539.26	294.91
539.43	283.20
539.60	285.55
539.77	287.89
539.94	278.52
540.11	381.51
540.28	320.65
540.44	386.19
540.61	283.20
540.78	313.63
540.95	243.42
541.12	330.02
541.29	327.68
541.46	369.80
541.62	362.78
541.79	337.04
541.96	283.20
542.13	299.59
542.30	327.68
542.47	325.33
542.63	344.06
542.80	278.52
542.97	400.23
543.14	325.33
543.31	388.53
543.48	355.76
543.64	465.77
543.81	365.12
543.98	308.95
544.15	290.23
544.32	348.74
544.48	285.55
544.65	297.25
544.82	360.44
544.99	290.23
545.16	355.76
545.32	353.42
545.49	337.04
545.66	287.89
545.83	339.38
546.00	346.40
546.16	355.76
546.33	351.08
546.50	348.74
546.67	301.93
546.83	367.46
547.00	365.12
547.17	330.02
547.34	297.25
547.50	327.68
547.67	334.70
547.84	351.08
548.00	332.36
548.17	365.12
548.34	301.93
548.51	409.59
548.67	411.93
548.84	327.68
549.01	304.27
549.18	404.91
549.34	320.65
549.51	332.36
549.68	344.06
549.84	374.49
550.01	311.29
550.18	407.25
550.34	397.89
550.51	365.12
550.68	425.98
550.84	306.61
551.01	374.49
551.18	315.97
551.34	341.72
551.51	374.49
551.68	365.12
551.84	327.68
552.01	322.99
552.18	332.36
552.34	353.42
552.51	360.44
552.68	273.84
552.84	283.20
553.01	299.59
553.18	332.36
553.34	358.10
553.51	372.15
553.67	334.70
553.84	376.83
554.01	341.72
554.17	386.19
554.34	355.76
554.51	376.83
554.67	353.42
554.84	339.38
555.00	365.12
555.17	315.97
555.33	425.98
555.50	313.63
555.67	308.95
555.83	245.76
556.00	374.49
556.16	538.32
556.33	376.83
556.50	449.38
556.66	339.38
556.83	362.78
556.99	348.74
557.16	332.36
557.32	376.83
557.49	367.46
557.65	285.55
557.82	250.44
557.98	327.68
558.15	339.38
558.32	308.95
558.48	337.04
558.65	257.46
558.81	353.42
558.98	290.23
559.14	308.95
559.31	325.33
559.47	344.06
559.64	320.65
559.80	360.44
559.97	351.08
560.13	358.10
560.30	402.57
560.46	351.08
560.63	325.33
560.79	393.21
560.96	341.72
561.12	266.82
561.29	402.57
561.45	306.61
561.61	210.65
561.78	369.80
561.94	372.15
562.11	304.27
562.27	344.06
562.44	318.31
562.60	294.91
562.77	355.76
562.93	376.83
563.10	348.74
563.26	348.74
563.42	423.64
563.59	381.51
563.75	320.65
563.92	369.80
564.08	386.19
564.24	365.12
564.41	346.40
564.57	257.46
564.74	301.93
564.90	379.17
565.07	351.08
565.23	262.14
565.39	372.15
565.56	362.78
565.72	308.95
565.88	231.71
566.05	212.99
566.21	311.29
566.38	337.04
566.54	245.76
566.70	325.33
566.87	339.38
567.03	248.10
567.19	280.86
567.36	379.17
567.52	341.72
567.68	330.02
567.85	327.68
568.01	355.76
568.17	220.01
568.34	322.99
568.50	353.42
568.66	250.44
568.83	430.66
568.99	252.78
569.15	358.10
569.32	320.65
569.48	341.72
569.64	341.72
569.81	325.33
569.97	278.52
570.13	266.82
570.30	341.72
570.46	341.72
570.62	341.72
570.78	353.42
570.95	184.90
571.11	294.91
571.27	402.57
571.43	353.42
571.60	393.21
571.76	271.50
571.92	353.42
572.09	255.12
572.25	322.99
572.41	418.96
572.57	306.61
572.74	308.95
572.90	367.46
573.06	348.74
573.22	330.02
573.38	379.17
573.55	348.74
573.71	327.68
573.87	308.95
574.03	315.97
574.20	341.72
574.36	262.14
574.52	203.63
574.68	285.55
574.84	381.51
575.01	315.97
575.17	355.76
575.33	285.55
575.49	362.78
575.65	379.17
575.82	283.20
575.98	402.57
576.14	341.72
576.30	304.27
576.46	311.29
576.62	299.59
576.79	390.87
576.95	353.42
577.11	294.91
577.27	306.61
577.43	367.46
577.59	346.40
577.75	278.52
577.92	334.70
578.08	294.91
578.24	339.38
578.40	276.18
578.56	290.23
578.72	365.12
578.88	304.27
579.04	315.97
579.21	308.95
579.37	273.84
579.53	278.52
579.69	313.63
579.85	280.86
580.01	334.70
580.17	285.55
580.33	306.61
580.49	306.61
580.65	315.97
580.82	351.08
580.98	360.44
581.14	287.89
581.30	332.36
581.46	362.78
581.62	325.33
581.78	358.10
581.94	339.38
582.10	238.73
582.26	287.89
582.42	227.03
582.58	400.23
582.74	285.55
582.90	280.86
583.06	351.08
583.22	304.27
583.38	353.42
583.54	269.16
583.70	402.57
583.86	367.46
584.02	231.71
584.18	341.72
584.34	255.12
584.50	259.80
584.66	285.55
584.82	365.12
584.98	287.89
585.14	257.46
585.30	416.62
585.46	269.16
585.62	259.80
585.78	215.33
585.94	266.82
586.10	297.25
586.26	348.74
586.42	393.21
586.58	287.89
586.74	346.40
586.90	269.16
587.06	348.74
587.22	325.33
587.38	266.82
587.54	351.08
587.70	367.46
587.86	379.17
588.02	273.84
588.18	203.63
588.34	266.82
588.49	198.95
588.65	182.56
588.81	255.12
588.97	229.37
589.13	191.92
589.29	198.95
589.45	334.70
589.61	163.84
589.77	257.46
589.93	217.67
590.08	266.82
590.24	308.95
590.40	301.93
590.56	269.16
590.72	271.50
590.88	250.44
591.04	325.33
591.20	236.39
591.35	304.27
591.51	290.23
591.67	243.42
591.83	266.82
591.99	299.59
592.15	271.50
592.31	299.59
592.46	304.27
592.62	292.57
592.78	203.63
592.94	383.85
593.10	332.36
593.26	292.57
593.41	374.49
593.57	306.61
593.73	191.92
593.89	255.12
594.05	203.63
594.20	184.90
594.36	194.26
594.52	227.03
594.68	243.42
594.84	411.93
594.99	390.87
595.15	287.89
595.31	348.74
595.47	315.97
595.62	236.39
595.78	294.91
595.94	346.40
596.10	280.86
596.25	269.16
596.41	367.46
596.57	224.69
596.73	259.80
596.88	187.24
597.04	348.74
597.20	205.97
597.36	276.18
597.51	351.08
597.67	308.95
597.83	283.20
597.99	304.27
598.14	215.33
598.30	292.57
598.46	311.29
598.61	334.70
598.77	208.31
598.93	283.20
599.09	320.65
599.24	266.82
599.40	294.91
599.56	264.48
599.71	229.37
599.87	276.18
600.03	311.29
600.18	283.20
600.34	290.23
600.50	227.03
600.65	266.82
600.81	290.23
600.97	252.78
601.12	287.89
601.28	313.63
601.44	203.63
601.59	243.42
601.75	276.18
601.91	262.14
602.06	229.37
602.22	322.99
602.37	290.23
602.53	245.76
602.69	236.39
602.84	156.82
603.00	337.04
603.16	318.31
603.31	358.10
603.47	292.57
603.62	238.73
603.78	201.29
603.94	227.03
604.09	215.33
604.25	318.31
604.40	241.08
604.56	250.44
604.71	257.46
604.87	227.03
605.03	313.63
605.18	287.89
605.34	208.31
605.49	278.52
605.65	227.03
605.80	285.55
605.96	224.69
606.12	287.89
606.27	266.82
606.43	294.91
606.58	348.74
606.74	285.55
606.89	243.42
607.05	269.16
607.20	287.89
607.36	339.38
607.51	241.08
607.67	210.65
607.82	205.97
607.98	229.37
608.13	278.52
608.29	250.44
608.44	245.76
608.60	187.24
608.75	358.10
608.91	325.33
609.06	311.29
609.22	194.26
609.37	252.78
609.53	234.05
609.68	245.76
609.84	250.44
609.99	250.44
610.15	299.59
610.30	285.55
610.46	217.67
610.61	262.14
610.76	215.33
610.92	273.84
611.07	236.39
611.23	374.49
611.38	287.89
611.54	124.05
611.69	220.01
611.84	255.12
612.00	210.65
612.15	161.50
612.31	224.69
612.46	201.29
612.62	217.67
612.77	248.10
612.92	294.91
613.08	259.80
613.23	280.86
613.39	173.20
613.54	180.22
613.69	161.50
613.85	201.29
614.00	182.56
614.15	191.92
614.31	227.03
614.46	184.90
614.62	245.76
614.77	301.93
614.92	205.97
615.08	191.92
615.23	196.60
615.38	234.05
615.54	210.65
615.69	304.27
615.84	177.88
616.00	173.20
616.15	168.52
616.30	159.16
616.46	278.52
616.61	135.75
616.76	205.97
616.92	187.24
617.07	147.45
617.22	215.33
617.37	252.78
617.53	257.46
617.68	205.97
617.83	149.79
617.99	215.33
618.14	299.59
618.29	250.44
618.45	114.69
618.60	166.18
618.75	184.90
618.90	175.54
619.06	217.67
619.21	227.03
619.36	238.73
619.51	224.69
619.67	212.99
619.82	168.52
619.97	163.84
620.12	238.73
620.28	299.59
620.43	236.39
620.58	262.14
620.73	285.55
620.89	280.86
621.04	217.67
621.19	248.10
621.34	119.37
621.49	269.16
621.65	163.84
621.80	210.65
621.95	245.76
622.10	215.33
622.25	133.41
622.41	133.41
622.56	149.79
622.71	243.42
622.86	355.76
623.01	252.78
623.16	355.76
623.32	217.67
623.47	271.50
