SpectraSuite Data File
++++++++++++++++++++++++++++++++++++
Date: Mon Oct 07 15:00:32 GMT-05:00 2013
User: price-jones
Dark Spectrum Present: No
Reference Spectrum Present: No
Number of Sampled Component Spectra: 1
Spectrometers: USB2+H05261
Integration Time (usec): 1000000 (USB2+H05261)
Spectra Averaged: 1 (USB2+H05261)
Boxcar Smoothing: 0 (USB2+H05261)
Correct for Electrical Dark: No (USB2+H05261)
Strobe/Lamp Enabled: No (USB2+H05261)
Correct for Detector Non-linearity: No (USB2+H05261)
Correct for Stray Light: No (USB2+H05261)
Number of Pixels in Processed Spectrum: 2048
>>>>>Begin Processed Spectral Data<<<<<
365.73	0.00
365.92	0.00
366.12	0.00
366.32	0.00
366.52	0.00
366.72	126.39
366.91	0.00
367.11	170.86
367.31	51.49
367.51	145.11
367.70	156.82
367.90	332.36
368.10	93.62
368.30	168.52
368.49	0.00
368.69	374.49
368.89	110.01
369.09	0.00
369.28	138.09
369.48	0.00
369.68	67.88
369.87	257.46
370.07	67.88
370.27	521.94
370.47	205.97
370.66	166.18
370.86	290.23
371.06	711.52
371.25	866.00
371.45	187.24
371.65	587.47
371.84	208.31
372.04	124.05
372.24	259.80
372.44	236.39
372.63	325.33
372.83	772.38
373.03	278.52
373.22	121.71
373.42	273.84
373.62	365.12
373.81	538.32
374.01	594.50
374.21	589.82
374.40	337.04
374.60	638.97
374.79	322.99
374.99	287.89
375.19	416.62
375.38	496.19
375.58	456.40
375.78	610.88
375.97	524.28
376.17	978.34
376.37	294.91
376.56	451.72
376.76	154.48
376.95	264.48
377.15	571.09
377.35	519.60
377.54	442.36
377.74	231.71
377.93	259.80
378.13	433.00
378.33	650.67
378.52	318.31
378.72	648.33
378.91	526.62
379.11	161.50
379.31	198.95
379.50	105.32
379.70	585.13
379.89	603.86
380.09	196.60
380.28	168.52
380.48	311.29
380.68	191.92
380.87	161.50
381.07	421.30
381.26	601.52
381.46	91.28
381.65	486.83
381.85	236.39
382.04	510.24
382.24	442.36
382.43	318.31
382.63	110.01
382.83	264.48
383.02	622.58
383.22	657.69
383.41	126.39
383.61	381.51
383.80	662.37
384.00	304.27
384.19	264.48
384.39	341.72
384.58	252.78
384.78	383.85
384.97	454.06
385.17	383.85
385.36	231.71
385.56	559.39
385.75	161.50
385.95	358.10
386.14	531.30
386.34	215.33
386.53	411.93
386.72	271.50
386.92	713.86
387.11	463.43
387.31	440.02
387.50	177.88
387.70	100.64
387.89	315.97
388.09	175.54
388.28	212.99
388.48	182.56
388.67	620.24
388.86	334.70
389.06	299.59
389.25	421.30
389.45	482.15
389.64	264.48
389.84	671.73
390.03	482.15
390.22	489.17
390.42	322.99
390.61	187.24
390.81	114.69
391.00	327.68
391.19	655.35
391.39	299.59
391.58	510.24
391.78	365.12
391.97	400.23
392.16	201.29
392.36	589.82
392.55	624.92
392.75	351.08
392.94	255.12
393.13	493.85
393.33	168.52
393.52	166.18
393.71	699.82
393.91	468.11
394.10	201.29
394.29	306.61
394.49	304.27
394.68	409.59
394.88	613.22
395.07	580.45
395.26	348.74
395.46	395.55
395.65	554.71
395.84	376.83
396.04	1226.44
396.23	355.76
396.42	184.90
396.62	428.32
396.81	491.51
397.00	437.68
397.19	397.89
397.39	390.87
397.58	819.19
397.77	306.61
397.97	327.68
398.16	322.99
398.35	573.43
398.55	217.67
398.74	428.32
398.93	645.99
399.12	285.55
399.32	472.79
399.51	330.02
399.70	566.41
399.90	498.53
400.09	547.69
400.28	674.07
400.47	332.36
400.67	599.18
400.86	379.17
401.05	437.68
401.24	622.58
401.44	662.37
401.63	547.69
401.82	669.39
402.01	234.05
402.21	528.96
402.40	440.02
402.59	332.36
402.78	374.49
402.97	402.57
403.17	411.93
403.36	425.98
403.55	379.17
403.74	318.31
403.93	355.76
404.13	674.07
404.32	215.33
404.51	369.80
404.70	554.71
404.89	372.15
405.09	922.17
405.28	421.30
405.47	166.18
405.66	540.66
405.85	704.50
406.05	423.64
406.24	365.12
406.43	489.17
406.62	543.00
406.81	1029.84
407.00	645.99
407.20	477.47
407.39	442.36
407.58	367.46
407.77	550.03
407.96	697.48
408.15	676.41
408.34	533.64
408.54	521.94
408.73	468.11
408.92	498.53
409.11	582.79
409.30	709.18
409.49	344.06
409.68	341.72
409.87	475.13
410.07	292.57
410.26	503.22
410.45	430.66
410.64	362.78
410.83	418.96
411.02	320.65
411.21	533.64
411.40	638.97
411.59	395.55
411.78	423.64
411.98	339.38
412.17	262.14
412.36	400.23
412.55	381.51
412.74	573.43
412.93	931.53
413.12	355.76
413.31	800.46
413.50	564.07
413.69	442.36
413.88	875.36
414.07	533.64
414.26	510.24
414.45	411.93
414.64	547.69
414.83	507.90
415.02	543.00
415.22	620.24
415.41	748.97
415.60	262.14
415.79	465.77
415.98	849.61
416.17	505.56
416.36	454.06
416.55	287.89
416.74	662.37
416.93	702.16
417.12	477.47
417.31	447.04
417.50	550.03
417.69	929.19
417.88	566.41
418.07	311.29
418.26	484.49
418.45	407.25
418.64	905.79
418.83	645.99
419.02	589.82
419.21	463.43
419.39	500.87
419.58	395.55
419.77	301.93
419.96	662.37
420.15	917.49
420.34	524.28
420.53	575.77
420.72	781.74
420.91	528.96
421.10	517.26
421.29	519.60
421.48	594.50
421.67	739.61
421.86	503.22
422.05	444.70
422.24	489.17
422.43	500.87
422.61	341.72
422.80	454.06
422.99	526.62
423.18	409.59
423.37	823.87
423.56	645.99
423.75	662.37
423.94	308.95
424.13	456.40
424.32	465.77
424.50	425.98
424.69	514.92
424.88	793.44
425.07	425.98
425.26	587.47
425.45	683.44
425.64	351.08
425.83	425.98
426.01	727.91
426.20	608.54
426.39	479.81
426.58	376.83
426.77	571.09
426.96	688.12
427.15	620.24
427.33	472.79
427.52	447.04
427.71	510.24
427.90	599.18
428.09	442.36
428.28	374.49
428.46	484.49
428.65	622.58
428.84	423.64
429.03	877.70
429.22	475.13
429.40	346.40
429.59	334.70
429.78	770.04
429.97	447.04
430.16	348.74
430.34	402.57
430.53	421.30
430.72	472.79
430.91	683.44
431.10	308.95
431.28	465.77
431.47	788.76
431.66	589.82
431.85	477.47
432.03	489.17
432.22	1266.23
432.41	498.53
432.60	868.34
432.79	442.36
432.97	554.71
433.16	566.41
433.35	435.34
433.54	461.09
433.72	669.39
433.91	772.38
434.10	444.70
434.28	543.00
434.47	472.79
434.66	734.93
434.85	449.38
435.03	615.56
435.22	1022.81
435.41	1029.84
435.59	755.99
435.78	615.56
435.97	470.45
436.16	802.80
436.34	568.75
436.53	655.35
436.72	877.70
436.90	713.86
437.09	638.97
437.28	610.88
437.46	465.77
437.65	753.65
437.84	734.93
438.02	725.57
438.21	655.35
438.40	489.17
438.58	304.27
438.77	634.29
438.96	622.58
439.14	444.70
439.33	763.01
439.52	458.74
439.70	608.54
439.89	758.33
440.08	667.05
440.26	667.05
440.45	954.94
440.63	695.14
440.82	638.97
441.01	676.41
441.19	559.39
441.38	573.43
441.57	573.43
441.75	912.81
441.94	912.81
442.12	601.52
442.31	524.28
442.50	592.16
442.68	580.45
442.87	662.37
443.05	599.18
443.24	653.01
443.43	788.76
443.61	987.71
443.80	770.04
443.98	543.00
444.17	543.00
444.35	903.45
444.54	627.26
444.73	559.39
444.91	929.19
445.10	470.45
445.28	538.32
445.47	706.84
445.65	580.45
445.84	496.19
446.02	660.03
446.21	566.41
446.39	568.75
446.58	744.29
446.77	526.62
446.95	594.50
447.14	814.51
447.32	1048.56
447.51	674.07
447.69	709.18
447.88	645.99
448.06	1071.97
448.25	730.25
448.43	507.90
448.62	524.28
448.80	774.72
448.99	816.85
449.17	535.98
449.36	580.45
449.54	847.27
449.73	606.20
449.91	821.53
450.10	561.73
450.28	1406.66
450.46	1224.10
450.65	1001.75
450.83	748.97
451.02	671.73
451.20	641.31
451.39	648.33
451.57	662.37
451.76	568.75
451.94	653.01
452.13	833.23
452.31	870.68
452.49	816.85
452.68	440.02
452.86	711.52
453.05	1282.61
453.23	634.29
453.42	442.36
453.60	624.92
453.78	821.53
453.97	514.92
454.15	440.02
454.34	561.73
454.52	510.24
454.70	1039.20
454.89	898.77
455.07	575.77
455.26	800.46
455.44	894.08
455.62	664.71
455.81	741.95
455.99	856.64
456.17	828.55
456.36	589.82
456.54	606.20
456.73	526.62
456.91	575.77
457.09	854.30
457.28	1011.11
457.46	711.52
457.64	987.71
457.83	575.77
458.01	510.24
458.19	807.48
458.38	592.16
458.56	730.25
458.74	512.58
458.93	821.53
459.11	931.53
459.29	535.98
459.48	863.66
459.66	1167.93
459.84	898.77
460.03	1783.49
460.21	978.34
460.39	638.97
460.57	1107.07
460.76	868.34
460.94	774.72
461.12	1277.93
461.31	1057.92
461.49	641.31
461.67	519.60
461.85	781.74
462.04	695.14
462.22	2759.49
462.40	933.87
462.59	1041.54
462.77	634.29
462.95	847.27
463.13	514.92
463.32	945.58
463.50	807.48
463.68	896.43
463.86	772.38
464.05	599.18
464.23	985.37
464.41	1006.43
464.59	568.75
464.78	582.79
464.96	559.39
465.14	720.88
465.32	559.39
465.50	842.59
465.69	919.83
465.87	517.26
466.05	903.45
466.23	430.66
466.41	678.76
466.60	692.80
466.78	716.20
466.96	950.26
467.14	795.78
467.32	976.00
467.51	924.51
467.69	854.30
467.87	1153.88
468.05	767.70
468.23	1116.44
468.41	1046.22
468.60	699.82
468.78	821.53
468.96	1076.65
469.14	866.00
469.32	489.17
469.50	510.24
469.69	833.23
469.87	723.23
470.05	760.67
470.23	718.54
470.41	500.87
470.59	613.22
470.77	748.97
470.95	725.57
471.14	1027.50
471.32	723.23
471.50	1039.20
471.68	741.95
471.86	870.68
472.04	620.24
472.22	748.97
472.40	468.11
472.58	545.34
472.77	521.94
472.95	748.97
473.13	1294.32
473.31	957.28
473.49	505.56
473.67	589.82
473.85	919.83
474.03	863.66
474.21	922.17
474.39	1008.77
474.57	1294.32
474.75	758.33
474.93	669.39
475.12	557.05
475.30	681.10
475.48	800.46
475.66	823.87
475.84	777.06
476.02	753.65
476.20	964.30
476.38	767.70
476.56	1418.36
476.74	739.61
476.92	713.86
477.10	748.97
477.28	1062.60
477.46	807.48
477.64	971.32
477.82	849.61
478.00	805.14
478.18	777.06
478.36	720.88
478.54	763.01
478.72	744.29
478.90	861.32
479.08	793.44
479.26	809.83
479.44	746.63
479.62	620.24
479.80	770.04
479.98	695.14
480.16	685.78
480.34	1067.28
480.52	676.41
480.70	910.47
480.88	610.88
481.06	730.25
481.24	716.20
481.41	814.51
481.59	964.30
481.77	833.23
481.95	751.31
482.13	1231.12
482.31	903.45
482.49	660.03
482.67	1057.92
482.85	1067.28
483.03	1020.47
483.21	971.32
483.39	800.46
483.57	894.08
483.74	1249.85
483.92	910.47
484.10	732.59
484.28	1125.80
484.46	1526.03
484.64	912.81
484.82	992.39
485.00	819.19
485.18	940.90
485.35	976.00
485.53	657.69
485.71	1221.76
485.89	545.34
486.07	727.91
486.25	1526.03
486.43	1076.65
486.61	1139.84
486.78	1076.65
486.96	662.37
487.14	847.27
487.32	882.38
487.50	777.06
487.68	1118.78
487.85	716.20
488.03	1069.62
488.21	1383.26
488.39	947.92
488.57	1144.52
488.75	915.15
488.92	4327.65
489.10	1111.75
489.28	1418.36
489.46	837.91
489.64	968.98
489.81	961.96
489.99	1219.42
490.17	973.66
490.35	1867.75
490.53	1041.54
490.70	861.32
490.88	1254.53
491.06	884.72
491.24	1097.71
491.41	1432.41
491.59	1069.62
491.77	809.83
491.95	767.70
492.13	917.49
492.30	987.71
492.48	964.30
492.66	1081.33
492.84	915.15
493.01	1198.35
493.19	919.83
493.37	1584.54
493.54	1245.16
493.72	1193.67
493.90	889.40
494.08	912.81
494.25	1219.42
494.43	1217.08
494.61	1069.62
494.79	877.70
494.96	903.45
495.14	1247.51
495.32	968.98
495.49	1163.25
495.67	1111.75
495.85	964.30
496.02	931.53
496.20	1329.42
496.38	1259.21
496.55	1193.67
496.73	1256.87
496.91	1018.13
497.09	1327.08
497.26	1142.18
497.44	1158.57
497.62	1081.33
497.79	1142.18
497.97	1212.40
498.14	1217.08
498.32	1277.93
498.50	1210.06
498.67	1055.58
498.85	1130.48
499.03	1043.88
499.20	1111.75
499.38	1121.12
499.56	1123.46
499.73	1507.30
499.91	1413.68
500.08	1341.13
500.26	1093.03
500.44	1032.18
500.61	1228.78
500.79	1011.11
500.97	1299.00
501.14	1427.73
501.32	1210.06
501.49	1537.73
501.67	1064.94
501.84	1280.27
502.02	1046.22
502.20	1739.02
502.37	1371.55
502.55	1146.86
502.72	1086.01
502.90	1334.11
503.07	1188.99
503.25	1273.25
503.43	959.62
503.60	976.00
503.78	1240.48
503.95	1062.60
504.13	1095.37
504.30	1376.24
504.48	1387.94
504.65	1533.05
504.83	1474.54
505.01	1107.07
505.18	1259.21
505.36	1238.14
505.53	1170.27
505.71	1086.01
505.88	1638.38
506.06	1226.44
506.23	1151.54
506.41	1160.91
506.58	1317.72
506.76	1306.02
506.93	1078.99
507.11	1256.87
507.28	1076.65
507.46	1062.60
507.63	1301.34
507.81	1055.58
507.98	1167.93
508.16	1226.44
508.33	1139.84
508.50	1284.95
508.68	1179.63
508.85	1214.74
509.03	1210.06
509.20	1160.91
509.38	1371.55
509.55	1394.96
509.73	1387.94
509.90	1446.45
510.08	1114.10
510.25	1380.92
510.42	1111.75
510.60	1196.01
510.77	1465.18
510.95	1446.45
511.12	1130.48
511.30	1409.00
511.47	1341.13
511.64	1891.15
511.82	1221.76
511.99	1181.97
512.17	1188.99
512.34	1032.18
512.51	1097.71
512.69	1200.69
512.86	1600.93
513.04	966.64
513.21	1266.23
513.38	1114.10
513.56	1128.14
513.73	1027.50
513.90	1067.28
514.08	1036.86
514.25	1296.66
514.43	1331.76
514.60	1006.43
514.77	1095.37
514.95	1313.04
515.12	1062.60
515.29	1327.08
515.47	1275.59
515.64	1174.95
515.81	1188.99
515.99	1603.27
516.16	1451.13
516.33	1409.00
516.51	1107.07
516.68	1020.47
516.85	1125.80
517.03	1224.10
517.20	1254.53
517.37	1294.32
517.54	1397.30
517.72	1186.65
517.89	938.55
518.06	945.58
518.24	1724.97
518.41	1643.06
518.58	1383.26
518.75	1104.73
518.93	1313.04
519.10	1303.68
519.27	1149.20
519.45	1352.83
519.62	1299.00
519.79	1383.26
519.96	1064.94
520.14	1259.21
520.31	1600.93
520.48	1242.82
520.65	1303.68
520.83	1554.12
521.00	1434.75
521.17	1612.63
521.34	1219.42
521.52	1256.87
521.69	1191.33
521.86	1270.91
522.03	1460.49
522.20	1823.28
522.38	1186.65
522.55	1394.96
522.72	1034.52
522.89	1528.37
523.07	1806.89
523.24	1235.80
523.41	1203.04
523.58	1275.59
523.75	1280.27
523.92	997.07
524.10	1275.59
524.27	1238.14
524.44	1277.93
524.61	1586.88
524.78	1231.12
524.96	1519.01
525.13	1322.40
525.30	1762.42
525.47	1514.33
525.64	1341.13
525.81	1434.75
525.98	1310.70
526.16	1231.12
526.33	1111.75
526.50	992.39
526.67	917.49
526.84	1001.75
527.01	1128.14
527.18	1294.32
527.36	1256.87
527.53	1102.39
527.70	1605.61
527.87	1282.61
528.04	1935.62
528.21	1193.67
528.38	1579.86
528.55	1598.59
528.72	1631.35
528.89	1963.71
529.07	1306.02
529.24	1287.29
529.41	1736.68
529.58	1313.04
529.75	1284.95
529.92	1586.88
530.09	1252.19
530.26	1523.69
530.43	1474.54
530.60	1324.74
530.77	1296.66
530.94	1486.24
531.11	1600.93
531.28	1221.76
531.46	1196.01
531.63	1303.68
531.80	1413.68
531.97	1392.62
532.14	1362.19
532.31	1409.00
532.48	1497.94
532.65	1380.92
532.82	1083.67
532.99	1163.25
533.16	1282.61
533.33	1294.32
533.50	1203.04
533.67	1167.93
533.84	1401.98
534.01	1420.71
534.18	1104.73
534.35	1345.81
534.52	1394.96
534.69	1998.82
534.86	1317.72
535.03	1327.08
535.20	1282.61
535.37	1570.50
535.54	1366.87
535.71	1348.15
535.88	1741.36
536.05	1284.95
536.22	1472.20
536.38	1249.85
536.55	1287.29
536.72	1696.89
536.89	1139.84
537.06	1238.14
537.23	1097.71
537.40	1191.33
537.57	1137.50
537.74	1486.24
537.91	1455.81
538.08	1238.14
538.25	1411.34
538.42	1277.93
538.59	1310.70
538.75	1261.55
538.92	1289.64
539.09	1547.09
539.26	1266.23
539.43	1640.72
539.60	1338.79
539.77	1495.60
539.94	1149.20
540.11	1413.68
540.28	1657.10
540.44	1645.40
540.61	1252.19
540.78	1224.10
540.95	1100.05
541.12	1832.64
541.29	1198.35
541.46	1732.00
541.62	1453.47
541.79	1207.72
541.96	1086.01
542.13	1247.51
542.30	1039.20
542.47	1462.83
542.63	1399.64
542.80	1420.71
542.97	1643.06
543.14	1174.95
543.31	1423.05
543.48	1240.48
543.64	1317.72
543.81	1341.13
543.98	1149.20
544.15	1121.12
544.32	1240.48
544.48	1303.68
544.65	1270.91
544.82	1231.12
544.99	1228.78
545.16	1549.43
545.32	1240.48
545.49	1350.49
545.66	1212.40
545.83	1214.74
546.00	1057.92
546.16	1184.31
546.33	1270.91
546.50	1303.68
546.67	1626.67
546.83	1593.90
547.00	1348.15
547.17	1102.39
547.34	1071.97
547.50	1256.87
547.67	1296.66
547.84	1095.37
548.00	1474.54
548.17	1074.31
548.34	1289.64
548.51	1671.14
548.67	1603.27
548.84	1228.78
549.01	1301.34
549.18	1350.49
549.34	1401.98
549.51	1343.47
549.68	1439.43
549.84	1296.66
550.01	968.98
550.18	2904.60
550.34	2148.61
550.51	1291.98
550.68	1905.20
550.84	1207.72
551.01	1331.76
551.18	1411.34
551.34	1357.51
551.51	1352.83
551.68	1268.57
551.84	1406.66
552.01	1256.87
552.18	1179.63
552.34	1287.29
552.51	1373.89
552.68	1558.80
552.84	1193.67
553.01	1348.15
553.18	1561.14
553.34	1149.20
553.51	1041.54
553.67	1423.05
553.84	1811.57
554.01	1439.43
554.17	1514.33
554.34	1280.27
554.51	1448.79
554.67	1589.22
554.84	1448.79
555.00	1448.79
555.17	1212.40
555.33	1528.37
555.50	1413.68
555.67	1287.29
555.83	1083.67
556.00	1329.42
556.16	3410.16
556.33	1425.39
556.50	1214.74
556.66	1217.08
556.83	1163.25
556.99	1111.75
557.16	1336.45
557.32	1142.18
557.49	1137.50
557.65	1174.95
557.82	1121.12
557.98	1231.12
558.15	1130.48
558.32	1128.14
558.48	1121.12
558.65	1135.16
558.81	1495.60
558.98	1118.78
559.14	1451.13
559.31	1362.19
559.47	1441.77
559.64	1123.46
559.80	1497.94
559.97	1097.71
560.13	1301.34
560.30	971.32
560.46	1200.69
560.63	1146.86
560.79	1167.93
560.96	1273.25
561.12	1095.37
561.29	1341.13
561.45	1181.97
561.61	1252.19
561.78	2354.58
561.94	1245.16
562.11	1249.85
562.27	1259.21
562.44	1245.16
562.60	1252.19
562.77	1149.20
562.93	2050.31
563.10	1254.53
563.26	1214.74
563.42	1568.16
563.59	1193.67
563.75	1191.33
563.92	1600.93
564.08	1345.81
564.24	1547.09
564.41	1827.96
564.57	1048.56
564.74	1158.57
564.90	1383.26
565.07	1406.66
565.23	1383.26
565.39	1121.12
565.56	1296.66
565.72	1111.75
565.88	1158.57
566.05	1093.03
566.21	1027.50
566.38	1254.53
566.54	1345.81
566.70	1041.54
566.87	1020.47
567.03	954.94
567.19	1254.53
567.36	1322.40
567.52	1090.69
567.68	1371.55
567.85	1299.00
568.01	1249.85
568.17	943.24
568.34	1132.82
568.50	1610.29
568.66	1064.94
568.83	1942.64
568.99	1158.57
569.15	1462.83
569.32	1146.86
569.48	1212.40
569.64	1048.56
569.81	1123.46
569.97	1083.67
570.13	1350.49
570.30	1076.65
570.46	1057.92
570.62	1095.37
570.78	1102.39
570.95	957.28
571.11	1724.97
571.27	1739.02
571.43	950.26
571.60	1390.28
571.76	1046.22
571.92	1221.76
572.09	1142.18
572.25	1210.06
572.41	1280.27
572.57	1060.26
572.74	1603.27
572.90	1390.28
573.06	1219.42
573.22	1322.40
573.38	1509.65
573.55	1383.26
573.71	1441.77
573.87	1364.53
574.03	950.26
574.20	1116.44
574.36	1430.07
574.52	1060.26
574.68	1008.77
574.84	1196.01
575.01	1174.95
575.17	1380.92
575.33	1053.24
575.49	1423.05
575.65	1387.94
575.82	1387.94
575.98	1830.30
576.14	1193.67
576.30	1125.80
576.46	1149.20
576.62	1263.89
576.79	1401.98
576.95	1626.67
577.11	1071.97
577.27	1006.43
577.43	1502.62
577.59	1572.84
577.75	1184.31
577.92	1114.10
578.08	1043.88
578.24	947.92
578.40	1448.79
578.56	1542.41
578.72	1439.43
578.88	1366.87
579.04	1022.81
579.21	1242.82
579.37	1132.82
579.53	1090.69
579.69	1486.24
579.85	983.02
580.01	1308.36
580.17	964.30
580.33	1001.75
580.49	1121.12
580.65	1348.15
580.82	1053.24
580.98	976.00
581.14	1032.18
581.30	1514.33
581.46	1186.65
581.62	1441.77
581.78	1111.75
581.94	1439.43
582.10	964.30
582.26	1100.05
582.42	1076.65
582.58	1245.16
582.74	1057.92
582.90	1196.01
583.06	1275.59
583.22	1228.78
583.38	1022.81
583.54	908.13
583.70	1519.01
583.86	1233.46
584.02	1207.72
584.18	1579.86
584.34	915.15
584.50	1139.84
584.66	1104.73
584.82	877.70
584.98	1167.93
585.14	1039.20
585.30	1416.02
585.46	1153.88
585.62	945.58
585.78	985.37
585.94	1392.62
586.10	1109.41
586.26	1057.92
586.42	1612.63
586.58	1315.38
586.74	1034.52
586.90	1121.12
587.06	1224.10
587.22	1149.20
587.38	1001.75
587.54	1078.99
587.70	1317.72
587.86	1334.11
588.02	976.00
588.18	1167.93
588.34	1256.87
588.49	741.95
588.65	1013.45
588.81	985.37
588.97	905.79
589.13	980.68
589.29	1029.84
589.45	1397.30
589.61	1128.14
589.77	1462.83
589.93	1046.22
590.08	976.00
590.24	870.68
590.40	1081.33
590.56	1256.87
590.72	999.41
590.88	959.62
591.04	1116.44
591.20	936.21
591.35	1504.96
591.51	1090.69
591.67	863.66
591.83	931.53
591.99	1252.19
592.15	1322.40
592.31	1193.67
592.46	945.58
592.62	1350.49
592.78	903.45
592.94	821.53
593.10	880.04
593.26	800.46
593.41	1217.08
593.57	1027.50
593.73	1013.45
593.89	1313.04
594.05	961.96
594.20	830.89
594.36	1362.19
594.52	959.62
594.68	917.49
594.84	1210.06
594.99	1523.69
595.15	1291.98
595.31	1334.11
595.47	1598.59
595.62	1146.86
595.78	1081.33
595.94	1020.47
596.10	1317.72
596.25	1149.20
596.41	1373.89
596.57	1013.45
596.73	971.32
596.88	997.07
597.04	1128.14
597.20	901.11
597.36	1104.73
597.51	943.24
597.67	922.17
597.83	943.24
597.99	1247.51
598.14	1146.86
598.30	1409.00
598.46	990.05
598.61	1341.13
598.77	1212.40
598.93	926.85
599.09	959.62
599.24	1111.75
599.40	1284.95
599.56	1036.86
599.71	1093.03
599.87	922.17
600.03	1081.33
600.18	1064.94
600.34	1203.04
600.50	950.26
600.65	807.48
600.81	1280.27
600.97	896.43
601.12	1032.18
601.28	1366.87
601.44	1090.69
601.59	884.72
601.75	1067.28
601.91	823.87
602.06	1139.84
602.22	1954.35
602.37	1191.33
602.53	945.58
602.69	1146.86
602.84	849.61
603.00	1039.20
603.16	1156.22
