SpectraSuite Data File
++++++++++++++++++++++++++++++++++++
Date: Mon Sep 30 18:11:43 GMT-05:00 2013
User: stostad
Dark Spectrum Present: No
Reference Spectrum Present: No
Number of Sampled Component Spectra: 1
Spectrometers: USB2+H05261
Integration Time (usec): 100000 (USB2+H05261)
Spectra Averaged: 1 (USB2+H05261)
Boxcar Smoothing: 0 (USB2+H05261)
Correct for Electrical Dark: No (USB2+H05261)
Strobe/Lamp Enabled: No (USB2+H05261)
Correct for Detector Non-linearity: No (USB2+H05261)
Correct for Stray Light: No (USB2+H05261)
Number of Pixels in Processed Spectrum: 2048
>>>>>Begin Processed Spectral Data<<<<<
365.73	156.82
365.92	156.82
366.12	156.82
366.32	79.58
366.52	39.79
366.72	56.17
366.91	46.81
367.11	30.43
367.31	28.09
367.51	0.00
367.70	16.38
367.90	51.49
368.10	18.72
368.30	7.02
368.49	32.77
368.69	32.77
368.89	11.70
369.09	49.15
369.28	70.22
369.48	88.94
369.68	23.41
369.87	44.47
370.07	63.19
370.27	189.58
370.47	140.43
370.66	416.62
370.86	409.59
371.06	411.93
371.25	425.98
371.45	383.85
371.65	458.74
371.84	423.64
372.04	442.36
372.24	475.13
372.44	402.57
372.63	383.85
372.83	550.03
373.03	463.43
373.22	498.53
373.42	461.09
373.62	421.30
373.81	447.04
374.01	503.22
374.21	503.22
374.40	449.38
374.60	510.24
374.79	571.09
374.99	533.64
375.19	503.22
375.38	521.94
375.58	519.60
375.78	580.45
375.97	601.52
376.17	606.20
376.37	557.05
376.56	468.11
376.76	521.94
376.95	498.53
377.15	578.11
377.35	587.47
377.54	610.88
377.74	496.19
377.93	559.39
378.13	557.05
378.33	594.50
378.52	587.47
378.72	557.05
378.91	582.79
379.11	540.66
379.31	540.66
379.50	594.50
379.70	620.24
379.89	660.03
380.09	627.26
380.28	641.31
380.48	634.29
380.68	629.60
380.87	601.52
381.07	671.73
381.26	692.80
381.46	669.39
381.65	667.05
381.85	653.01
382.04	620.24
382.24	641.31
382.43	718.54
382.63	671.73
382.83	657.69
383.02	699.82
383.22	697.48
383.41	650.67
383.61	711.52
383.80	763.01
384.00	704.50
384.19	751.31
384.39	753.65
384.58	774.72
384.78	744.29
384.97	716.20
385.17	613.22
385.36	727.91
385.56	692.80
385.75	755.99
385.95	760.67
386.14	821.53
386.34	751.31
386.53	704.50
386.72	833.23
386.92	798.12
387.11	840.25
387.31	854.30
387.50	786.42
387.70	835.57
387.89	861.32
388.09	812.17
388.28	847.27
388.48	891.74
388.67	880.04
388.86	898.77
389.06	870.68
389.25	875.36
389.45	851.96
389.64	954.94
389.84	947.92
390.03	861.32
390.22	889.40
390.42	910.47
390.61	919.83
390.81	926.85
391.00	924.51
391.19	968.98
391.39	866.00
391.58	870.68
391.78	1008.77
391.97	912.81
392.16	954.94
392.36	980.68
392.55	950.26
392.75	1088.35
392.94	1013.45
393.13	1013.45
393.33	1036.86
393.52	1046.22
393.71	1011.11
393.91	1118.78
394.10	1029.84
394.29	999.41
394.49	1128.14
394.68	1093.03
394.88	1071.97
395.07	1132.82
395.26	1104.73
395.46	1069.62
395.65	1132.82
395.84	1097.71
396.04	1174.95
396.23	1210.06
396.42	1149.20
396.62	1149.20
396.81	1165.59
397.00	1174.95
397.19	1242.82
397.39	1256.87
397.58	1228.78
397.77	1153.88
397.97	1226.44
398.16	1219.42
398.35	1329.42
398.55	1320.06
398.74	1174.95
398.93	1263.89
399.12	1420.71
399.32	1362.19
399.51	1359.85
399.70	1401.98
399.90	1378.58
400.09	1345.81
400.28	1329.42
400.47	1418.36
400.67	1380.92
400.86	1324.74
401.05	1350.49
401.24	1469.86
401.44	1530.71
401.63	1444.11
401.82	1483.90
402.01	1441.77
402.21	1418.36
402.40	1624.33
402.59	1563.48
402.78	1544.75
402.97	1441.77
403.17	1621.99
403.36	1530.71
403.55	1591.56
403.74	1687.53
403.93	1692.21
404.13	1701.57
404.32	1647.74
404.51	1724.97
404.70	1774.13
404.89	1591.56
405.09	1739.02
405.28	1776.47
405.47	1732.00
405.66	1785.83
405.85	1809.23
406.05	1865.41
406.24	1722.63
406.43	1771.79
406.62	1797.53
406.81	1909.88
407.00	1834.98
407.20	1928.60
407.39	1834.98
407.58	2010.52
407.77	1944.99
407.96	1893.49
408.15	1940.30
408.34	1956.69
408.54	2005.84
408.73	2104.14
408.92	2010.52
409.11	2113.50
409.30	2022.22
409.49	2057.33
409.68	2033.93
409.87	2054.99
410.07	2125.21
410.26	2125.21
410.45	2216.49
410.64	2190.74
410.83	2235.21
411.02	2162.66
411.21	2253.94
411.40	2289.04
411.59	2363.94
411.78	2289.04
411.98	2221.17
412.17	2239.89
412.36	2368.62
412.55	2335.85
412.74	2399.05
412.93	2457.56
413.12	2420.11
413.31	2504.37
413.50	2368.62
413.69	2546.50
413.88	2572.25
414.07	2616.72
414.26	2665.87
414.45	2637.78
414.64	2668.21
414.83	2710.34
415.02	2803.96
415.22	2780.56
415.41	2906.95
415.60	2848.43
415.79	2799.28
415.98	2876.52
416.17	2944.39
416.36	2902.26
416.55	2885.88
416.74	2892.90
416.93	2899.92
417.12	2953.76
417.31	3056.74
417.50	3084.83
417.69	3023.97
417.88	3098.87
418.07	3047.38
418.26	3220.58
418.45	3084.83
418.64	3192.49
418.83	3155.04
419.02	3255.69
419.21	3274.41
419.39	3438.25
419.58	3241.64
419.77	3187.81
419.96	3281.43
420.15	3337.60
420.34	3344.63
420.53	3222.92
420.72	3456.97
420.91	3417.18
421.10	3541.23
421.29	3524.85
421.48	3342.28
421.67	3531.87
421.86	3421.86
422.05	3480.38
422.24	3435.91
422.43	3637.19
422.61	3550.59
422.80	3625.49
422.99	3585.70
423.18	3513.14
423.37	3728.47
423.56	3501.44
423.75	3623.15
423.94	3538.89
424.13	3358.67
424.32	3332.92
424.50	3632.51
424.69	3684.00
424.88	3758.90
425.07	3588.04
425.26	3543.57
425.45	3426.54
425.64	3723.79
425.83	3583.36
426.01	3632.51
426.20	3693.37
426.39	3634.85
426.58	3702.73
426.77	3623.15
426.96	3674.64
427.15	3658.26
427.33	3688.68
427.52	3667.62
427.71	3744.86
427.90	3707.41
428.09	3779.97
428.28	3765.92
428.46	3882.95
428.65	3964.87
428.84	3936.78
429.03	3843.16
429.22	3669.96
429.40	3747.20
429.59	3756.56
429.78	3588.04
429.97	3548.25
430.16	3609.11
430.34	3684.00
430.53	3786.99
430.72	3859.54
430.91	3735.50
431.10	3735.50
431.28	3702.73
431.47	3845.50
431.66	3740.18
431.85	3904.01
432.03	4063.17
432.22	4081.89
432.41	4025.72
432.60	4098.28
432.79	3850.18
432.97	4154.45
433.16	4166.15
433.35	4074.87
433.54	4283.18
433.72	4152.11
433.91	4238.71
434.10	4329.99
434.28	4276.16
434.47	4421.27
434.66	4393.19
434.85	4304.25
435.03	4571.07
435.22	4631.92
435.41	4889.38
435.59	4767.67
435.78	4624.90
435.97	4589.79
436.16	4798.10
436.34	4622.56
436.53	4664.69
436.72	4727.88
436.90	4781.71
437.09	4863.63
437.28	4812.14
437.46	4826.18
437.65	4826.18
437.84	4779.37
438.02	4915.12
438.21	4802.78
438.40	4795.76
438.58	5069.60
438.77	5198.33
438.96	5067.26
439.14	5118.75
439.33	5205.35
439.52	5331.74
439.70	5467.49
439.89	5352.81
440.08	5322.38
440.26	5369.19
440.45	5394.93
440.63	5430.04
440.82	5680.48
441.01	5369.19
441.19	5598.56
441.38	5528.35
441.57	5647.71
441.75	5586.86
441.94	5755.38
442.12	5834.96
442.31	5729.63
442.50	5867.72
442.68	5720.27
442.87	5856.02
443.05	5947.30
443.24	6047.94
443.43	6097.10
443.61	5947.30
443.80	6090.07
443.98	6099.44
444.17	5919.21
444.35	6001.13
444.54	6113.48
444.73	6015.18
444.91	6024.54
445.10	6017.52
445.28	6150.93
445.47	6078.37
445.65	6134.54
445.84	5989.43
446.02	6251.57
446.21	6078.37
446.39	6015.18
446.58	6197.74
446.77	6162.63
446.95	6090.07
447.14	6022.20
447.32	6204.76
447.51	6193.06
447.69	6249.23
447.88	6162.63
448.06	6244.55
448.25	6237.53
448.43	6214.12
448.62	6300.72
448.80	6338.17
448.99	6228.17
449.17	6333.49
449.36	6387.32
449.54	6567.54
449.73	6527.75
449.91	6345.19
450.10	6469.24
450.28	6562.86
450.46	6509.03
450.65	6511.37
450.83	6415.41
451.02	6558.18
451.20	6614.35
451.39	6546.48
451.57	6527.75
451.76	6565.20
451.94	6583.93
452.13	6815.64
452.31	6644.78
452.49	6628.40
452.68	6932.67
452.86	6815.64
453.05	6633.08
453.23	6731.38
453.42	6661.16
453.60	6736.06
453.78	6759.47
453.97	6918.62
454.15	6684.57
454.34	6752.45
454.52	6991.18
454.70	7023.95
454.89	7030.97
455.07	7021.61
455.26	6904.58
455.44	6981.82
455.62	6995.86
455.81	7066.08
455.99	7133.95
456.17	7173.74
456.36	7075.44
456.54	7190.13
456.73	7332.90
456.91	7440.56
457.09	7414.82
457.28	7405.46
457.46	7115.23
457.64	7391.41
457.83	7316.51
458.01	7307.15
458.19	7508.44
458.38	7398.43
458.56	7768.24
458.74	7503.76
458.93	7632.49
459.11	7365.67
459.29	7569.29
459.48	7548.23
459.66	7714.41
459.84	7735.47
460.03	7723.77
460.21	7801.01
460.39	7885.26
460.57	7698.02
460.76	7801.01
460.94	7850.16
461.12	7805.69
461.31	7845.48
461.49	7840.79
461.67	7634.83
461.85	8105.28
462.04	7908.67
462.22	7894.63
462.40	8100.59
462.59	8142.72
462.77	8098.25
462.95	8049.10
463.13	8159.11
463.32	8444.65
463.50	8205.92
463.68	8304.22
463.86	8360.39
464.05	8039.74
464.23	8018.68
464.41	8259.75
464.59	8187.19
464.78	8409.54
464.96	8234.00
465.14	8372.10
465.32	8386.14
465.50	8437.63
465.69	8564.02
465.87	8154.43
466.05	8470.40
466.23	8430.61
466.41	8386.14
466.60	8573.38
466.78	8372.10
466.96	8400.18
467.14	8430.61
467.32	8528.91
467.51	8624.87
467.69	8517.21
467.87	8596.79
468.05	8524.23
468.23	8620.19
468.41	8765.31
468.60	8704.45
468.78	8762.97
468.96	8468.06
469.14	8800.41
469.32	8725.52
469.50	8795.73
469.69	8978.30
469.87	9067.24
470.05	9006.38
470.23	9067.24
470.41	9013.40
470.59	8861.27
470.77	8973.61
470.95	8861.27
471.14	9088.30
471.32	8994.68
471.50	9343.42
471.68	9137.45
471.86	9294.27
472.04	9034.47
472.22	9167.88
472.40	9125.75
472.58	9294.27
472.77	9109.36
472.95	9298.95
473.13	9533.00
473.31	9387.89
473.49	9404.27
473.67	9432.36
473.85	9474.49
474.03	9603.22
474.21	9645.35
474.39	9881.74
474.57	9837.27
474.75	10090.05
474.93	9975.36
475.12	9989.41
475.30	10132.18
475.48	10190.69
475.66	9994.09
475.84	10235.16
476.02	10286.65
476.20	10333.47
476.38	10539.43
476.56	10881.15
476.74	10733.70
476.92	10780.51
477.10	10836.68
477.28	10792.21
477.46	10810.93
477.64	10965.41
477.82	11190.10
478.00	11396.07
478.18	11494.37
478.36	11393.73
478.54	11534.16
478.72	11620.76
478.90	11887.58
479.08	12046.74
479.26	11922.69
479.44	12397.82
479.62	12168.45
479.80	12290.15
479.98	12603.78
480.16	12683.36
480.34	12458.67
480.52	12882.31
480.70	12849.54
480.88	12872.95
481.06	13008.70
481.24	12985.29
481.41	13322.33
481.59	13617.24
481.77	13486.17
481.95	13846.61
482.13	13937.89
482.31	13809.16
482.49	14326.42
482.67	14239.82
482.85	14216.41
483.03	14511.32
483.21	14649.41
483.39	14817.93
483.57	14913.89
483.74	15089.43
483.92	15365.62
484.10	15337.53
484.28	15349.23
484.46	15653.50
484.64	15798.62
484.82	15503.71
485.00	15929.69
485.18	16376.73
485.35	16610.78
485.53	16362.69
485.71	16769.94
485.89	16833.13
486.07	16957.18
486.25	17036.76
486.43	16996.97
486.61	17324.65
486.78	17474.44
486.96	17392.52
487.14	17956.59
487.32	18033.83
487.50	17844.24
487.68	17902.76
487.85	18300.65
488.03	18291.29
488.21	18403.63
488.39	18640.03
488.57	18888.12
488.75	19023.87
488.92	19573.90
489.10	19360.91
489.28	19555.18
489.46	19522.41
489.64	19335.17
489.81	20135.63
489.99	20091.16
490.17	20390.75
490.35	20582.67
490.53	20493.73
490.70	20325.21
490.88	20446.92
491.06	20971.20
491.24	20823.75
491.41	21275.47
491.59	21238.02
491.77	21060.14
491.95	21603.14
492.13	21441.65
492.30	21628.89
492.48	21979.97
492.66	21834.86
492.84	22155.51
493.01	22258.49
493.19	22293.60
493.37	22384.88
493.54	22403.61
493.72	22735.96
493.90	22684.47
494.08	22848.31
494.25	23026.19
494.43	23173.64
494.61	23077.68
494.79	23419.40
494.96	23304.71
495.14	23803.25
495.32	23529.41
495.49	23955.38
495.67	23531.75
495.85	23840.70
496.02	24123.90
496.20	24463.28
496.38	24093.47
496.55	24367.32
496.73	24884.58
496.91	24744.14
497.09	24622.44
497.26	24772.23
497.44	24765.21
497.62	24751.17
497.79	25343.32
497.97	25380.77
498.14	25252.04
498.32	25362.04
498.50	25315.23
498.67	25556.31
498.85	25256.72
499.03	25769.30
499.20	25523.54
499.38	25551.63
499.56	25717.81
499.73	25940.16
499.91	26118.04
500.08	26043.14
500.26	26003.35
500.44	26019.74
500.61	26136.76
500.79	26106.34
500.97	26181.23
501.14	26541.68
501.32	26551.04
501.49	26492.52
501.67	26389.54
501.84	27058.93
502.02	26649.34
502.20	26728.92
502.37	27089.36
502.55	26775.73
502.72	27000.42
502.90	27049.57
503.07	26831.90
503.25	26843.60
503.43	27124.47
503.60	26962.97
503.78	26656.36
503.95	26759.34
504.13	26897.44
504.30	27276.60
504.48	27145.53
504.65	27562.15
504.83	27454.48
505.01	27770.46
505.18	27234.47
505.36	27702.58
505.53	27775.14
505.71	27761.09
505.88	27711.94
506.06	27325.75
506.23	27613.64
506.41	27115.11
506.58	27651.09
506.76	27438.10
506.93	27908.55
507.11	27690.88
507.28	28041.96
507.46	27611.30
507.63	27857.06
507.81	27814.93
507.98	27440.44
508.16	27288.31
508.33	27756.41
508.50	28053.66
508.68	28032.60
508.85	27754.07
509.03	27248.52
509.20	27630.02
509.38	27590.24
509.55	27562.15
509.73	27852.38
509.90	26820.20
510.08	27290.65
510.25	27452.14
510.42	26888.07
510.60	26831.90
510.77	27075.32
510.95	27023.83
511.12	27089.36
511.30	27108.08
511.47	27012.12
511.64	26941.91
511.82	26642.32
511.99	26768.71
512.17	26827.22
512.34	26426.99
512.51	26759.34
512.69	26918.50
512.86	26850.63
513.04	26991.06
513.21	26848.29
513.38	26712.53
513.56	27044.89
513.73	26752.32
513.90	27290.65
514.08	27232.13
514.25	27707.26
514.43	27426.40
514.60	27527.04
514.77	27627.68
514.95	28044.30
515.12	27784.50
515.29	27943.66
515.47	28409.42
515.64	28566.24
515.81	28306.44
515.99	28259.63
516.16	28926.68
516.33	28676.24
516.51	29046.05
516.68	29006.26
516.85	28877.53
517.03	29432.24
517.20	29874.60
517.37	29385.43
517.54	29670.97
517.72	29755.23
517.89	29766.93
518.06	29923.75
518.24	30075.88
518.41	30125.04
518.58	30279.51
518.75	30115.67
518.93	30228.02
519.10	30541.65
519.27	30480.80
519.45	30632.93
519.62	31236.79
519.79	30712.51
519.96	31075.29
520.14	30993.37
520.31	30749.96
520.48	30824.86
520.65	30874.01
520.83	30941.88
521.00	30625.91
521.17	30890.39
521.34	30733.57
521.52	30508.88
521.69	30272.49
521.86	30085.25
522.03	30106.31
522.20	30225.68
522.38	30300.58
522.55	29780.98
522.72	29469.69
522.89	29413.51
523.07	29081.16
523.24	28781.57
523.41	28491.34
523.58	28584.96
523.75	28851.78
523.92	28313.46
524.10	27938.97
524.27	28133.24
524.44	27833.65
524.61	28020.89
524.78	27747.05
524.96	27707.26
525.13	27868.76
525.30	28304.10
525.47	28044.30
525.64	27854.72
525.81	27971.74
525.98	28009.19
526.16	27728.33
526.33	27779.82
526.50	28449.21
526.67	27805.56
526.84	28009.19
527.01	28002.17
527.18	27924.93
527.36	28121.54
527.53	27655.77
527.70	27817.27
527.87	28065.36
528.04	27300.01
528.21	27936.63
528.38	27683.86
528.55	27704.92
528.72	27917.91
528.89	27733.01
529.07	27253.20
529.24	27524.70
529.41	27594.92
529.58	28533.47
529.75	28388.36
529.92	28325.16
530.09	28268.99
530.26	28191.75
530.43	28615.39
530.60	28421.13
530.77	28765.18
530.94	28950.09
531.11	29275.42
531.28	28994.56
531.46	29275.42
531.63	29088.18
531.80	29649.91
531.97	29839.49
532.14	29759.91
532.31	29771.61
532.48	30223.34
532.65	30663.36
532.82	30312.28
532.99	30581.44
533.16	30888.05
533.33	31510.63
533.50	31159.55
533.67	31686.17
533.84	31756.39
534.01	32257.26
534.18	32313.44
534.35	33010.92
534.52	33209.86
534.69	33593.71
534.86	34251.40
535.03	33907.34
535.20	34506.52
535.37	34682.06
535.54	35281.24
535.71	34803.77
535.88	35456.78
536.05	35470.82
536.22	36032.55
536.38	35959.99
536.55	36341.50
536.72	36666.83
536.89	36751.09
537.06	36840.03
537.23	37897.95
537.40	37741.14
537.57	37785.61
537.74	38075.84
537.91	38639.90
538.08	39173.55
538.25	38724.16
538.42	39297.59
538.59	39435.69
538.75	39459.09
538.92	40123.80
539.09	40154.23
539.26	40261.90
539.43	40294.66
539.60	40451.48
539.77	40418.71
539.94	41198.11
540.11	41436.84
540.28	41628.77
540.44	42096.88
540.61	42162.41
540.78	41794.95
540.95	42218.58
541.12	42377.74
541.29	42665.63
541.46	42864.57
541.62	43049.47
541.79	43285.87
541.96	42864.57
542.13	43533.96
542.30	43711.84
542.47	43746.95
542.63	43824.19
542.80	43856.96
542.97	44655.08
543.14	44781.47
543.31	44854.03
543.48	45036.59
543.64	45130.21
543.81	45113.83
543.98	45228.51
544.15	44666.78
544.32	45062.33
544.48	45490.65
544.65	45324.47
544.82	45818.33
544.99	45249.58
545.16	45745.77
545.32	45558.53
545.49	46525.17
545.66	46508.79
545.83	46471.34
546.00	46464.32
546.16	46576.66
546.33	46370.69
546.50	46122.60
546.67	46543.89
546.83	46227.92
547.00	46562.62
547.17	46424.53
547.34	46066.42
547.50	46447.93
547.67	47215.63
547.84	47000.30
548.00	47395.85
548.17	47660.33
548.34	46703.05
548.51	47285.84
548.67	47098.60
548.84	46990.94
549.01	46972.21
549.18	47241.37
549.34	47283.50
549.51	47636.92
549.68	47700.12
549.84	47304.57
550.01	47742.25
550.18	47334.99
550.34	47590.11
550.51	47496.49
550.68	47388.83
550.84	47236.69
551.01	47545.64
551.18	47648.63
551.34	47941.19
551.51	47920.13
551.68	48133.12
551.84	47978.64
552.01	47702.46
552.18	48238.44
552.34	47657.99
552.51	47985.66
552.68	47700.12
552.84	47959.92
553.01	48472.49
553.18	48421.00
553.34	48205.67
553.51	48439.73
553.67	48072.26
553.84	48168.22
554.01	48519.31
554.17	48437.39
554.34	48617.61
554.51	48472.49
554.67	49022.52
554.84	48589.52
555.00	48692.50
555.17	48287.59
555.33	48090.99
555.50	48633.99
555.67	48243.12
555.83	48395.26
556.00	48568.46
556.16	48989.75
556.33	48879.75
556.50	49015.50
556.66	49003.80
556.83	48467.81
556.99	49230.83
557.16	48835.28
557.32	48837.62
557.49	48844.64
557.65	48725.27
557.82	48994.43
557.98	49179.34
558.15	48832.94
558.32	48940.60
558.48	48652.72
558.65	48638.67
558.81	48645.69
558.98	48938.26
559.14	48839.96
559.31	49031.88
559.47	48912.52
559.64	49141.89
559.80	48842.30
559.97	49104.44
560.13	48601.22
560.30	48842.30
560.46	49017.84
560.63	48769.74
560.79	48928.90
560.96	48856.34
561.12	49052.95
561.29	48788.47
561.45	48919.54
561.61	48711.23
561.78	48641.01
561.94	48582.50
562.11	48680.80
562.27	48561.44
562.44	48301.64
562.60	48615.27
562.77	48512.28
562.93	48016.09
563.10	48381.21
563.26	48013.75
563.42	48467.81
563.59	47845.23
563.75	48016.09
563.92	48046.52
564.08	47873.32
564.24	47498.83
564.41	47442.66
564.57	47107.96
564.74	47061.15
564.90	46681.98
565.07	46607.09
565.23	46742.84
565.39	45888.54
565.56	46024.29
565.72	45652.15
565.88	45565.55
566.05	45027.23
566.21	44788.49
566.38	44479.54
566.54	43887.39
566.70	43491.83
566.87	42625.84
567.03	41834.74
567.19	41413.44
567.36	40727.66
567.52	39716.55
567.68	40135.51
567.85	39283.55
568.01	38087.54
568.17	37106.85
568.34	35959.99
568.50	35215.70
568.66	34045.43
568.83	33003.89
568.99	31658.09
569.15	30801.45
569.32	29619.48
569.48	28329.84
569.64	27995.15
569.81	26314.64
569.97	25582.06
570.13	24409.45
570.30	23374.93
570.46	22546.38
570.62	21563.36
570.78	21032.05
570.95	20002.22
571.11	19917.96
571.27	19440.49
571.43	18750.03
571.60	18141.49
571.76	17776.37
571.92	17539.97
572.09	17027.40
572.25	16968.88
572.41	16816.75
572.57	16723.13
572.74	16718.45
572.90	16762.92
573.06	16531.20
573.22	16404.81
573.38	16449.28
573.55	16510.14
573.71	16458.65
573.87	16486.73
574.03	16350.98
574.20	16767.60
574.36	16709.08
574.52	16526.52
574.68	16823.77
574.84	16933.78
575.01	17116.34
575.17	17174.85
575.33	17018.04
575.49	17202.94
575.65	16964.20
575.82	17132.72
575.98	16931.44
576.14	17238.05
576.30	17057.82
576.46	17425.29
576.62	17769.35
576.79	17481.46
576.95	17296.56
577.11	17715.51
577.27	17191.23
577.43	17708.49
577.59	17865.31
577.75	17935.53
577.92	18024.47
578.08	18178.94
578.24	18214.05
578.40	18436.40
578.56	18565.13
578.72	18291.29
578.88	18436.40
579.04	18766.42
579.21	18508.96
579.37	18569.81
579.53	18417.68
579.69	18450.44
579.85	18876.42
580.01	18885.78
580.17	18789.82
580.33	18391.93
580.49	18251.50
580.65	18019.78
580.82	17846.58
580.98	17706.15
581.14	17266.13
581.30	17097.61
581.46	16638.87
581.62	16526.52
581.78	16210.55
581.94	16060.76
582.10	15126.88
582.26	14885.81
582.42	14574.52
582.58	13998.74
582.74	13940.23
582.90	13642.98
583.06	13224.03
583.22	12945.50
583.38	12514.84
583.54	12795.71
583.70	12273.77
583.86	11899.28
584.02	11754.17
584.18	11726.08
584.34	11475.65
584.50	11391.39
584.66	11344.58
584.82	11494.37
584.98	11349.26
585.14	11222.87
585.30	11276.70
585.46	11342.24
585.62	11283.72
585.78	11587.99
585.94	11375.00
586.10	11791.62
586.26	11592.67
586.42	11985.88
586.58	12393.14
586.74	12531.23
586.90	12549.95
587.06	12723.15
587.22	13144.45
587.38	13198.28
587.54	13502.55
587.70	13598.51
587.86	13776.39
588.02	13914.48
588.18	14352.16
588.34	14782.82
588.49	14745.38
588.65	15267.31
588.81	15288.38
588.97	15527.11
589.13	15674.57
589.29	15868.83
589.45	16201.19
589.61	16496.10
589.77	16702.06
589.93	16826.11
590.08	17097.61
590.24	17261.45
