SpectraSuite Data File
++++++++++++++++++++++++++++++++++++
Date: Mon Sep 30 18:11:52 GMT-05:00 2013
User: stostad
Dark Spectrum Present: No
Reference Spectrum Present: No
Number of Sampled Component Spectra: 1
Spectrometers: USB2+H05261
Integration Time (usec): 100000 (USB2+H05261)
Spectra Averaged: 1 (USB2+H05261)
Boxcar Smoothing: 0 (USB2+H05261)
Correct for Electrical Dark: No (USB2+H05261)
Strobe/Lamp Enabled: No (USB2+H05261)
Correct for Detector Non-linearity: No (USB2+H05261)
Correct for Stray Light: No (USB2+H05261)
Number of Pixels in Processed Spectrum: 2048
>>>>>Begin Processed Spectral Data<<<<<
365.73	175.54
365.92	175.54
366.12	175.54
366.32	42.13
366.52	21.06
366.72	4.68
366.91	35.11
367.11	0.00
367.31	0.00
367.51	9.36
367.70	37.45
367.90	0.00
368.10	35.11
368.30	21.06
368.49	42.13
368.69	14.04
368.89	84.26
369.09	0.00
369.28	16.38
369.48	77.24
369.68	16.38
369.87	39.79
370.07	93.62
370.27	98.30
370.47	154.48
370.66	353.42
370.86	318.31
371.06	367.46
371.25	315.97
371.45	306.61
371.65	341.72
371.84	346.40
372.04	322.99
372.24	365.12
372.44	337.04
372.63	299.59
372.83	409.59
373.03	358.10
373.22	330.02
373.42	266.82
373.62	341.72
373.81	369.80
374.01	376.83
374.21	351.08
374.40	358.10
374.60	362.78
374.79	369.80
374.99	397.89
375.19	423.64
375.38	407.25
375.58	390.87
375.78	442.36
375.97	374.49
376.17	444.70
376.37	381.51
376.56	344.06
376.76	383.85
376.95	379.17
377.15	519.60
377.35	528.96
377.54	486.83
377.74	409.59
377.93	477.47
378.13	435.34
378.33	477.47
378.52	416.62
378.72	402.57
378.91	348.74
379.11	388.53
379.31	351.08
379.50	360.44
379.70	425.98
379.89	479.81
380.09	449.38
380.28	456.40
380.48	400.23
380.68	400.23
380.87	402.57
381.07	428.32
381.26	449.38
381.46	472.79
381.65	383.85
381.85	351.08
382.04	404.91
382.24	355.76
382.43	348.74
382.63	374.49
382.83	393.21
383.02	458.74
383.22	383.85
383.41	339.38
383.61	374.49
383.80	449.38
384.00	409.59
384.19	470.45
384.39	503.22
384.58	458.74
384.78	423.64
384.97	489.17
385.17	395.55
385.36	409.59
385.56	444.70
385.75	386.19
385.95	411.93
386.14	360.44
386.34	383.85
386.53	440.02
386.72	447.04
386.92	475.13
387.11	461.09
387.31	444.70
387.50	456.40
387.70	393.21
387.89	421.30
388.09	498.53
388.28	425.98
388.48	411.93
388.67	475.13
388.86	500.87
389.06	545.34
389.25	566.41
389.45	528.96
389.64	528.96
389.84	491.51
390.03	477.47
390.22	580.45
390.42	564.07
390.61	535.98
390.81	575.77
391.00	559.39
391.19	564.07
391.39	535.98
391.58	510.24
391.78	477.47
391.97	500.87
392.16	505.56
392.36	440.02
392.55	444.70
392.75	390.87
392.94	297.25
393.13	407.25
393.33	337.04
393.52	376.83
393.71	531.30
393.91	449.38
394.10	496.19
394.29	585.13
394.49	734.93
394.68	608.54
394.88	557.05
395.07	678.76
395.26	550.03
395.46	547.69
395.65	582.79
395.84	503.22
396.04	484.49
396.23	421.30
396.42	407.25
396.62	418.96
396.81	475.13
397.00	482.15
397.19	538.32
397.39	688.12
397.58	706.84
397.77	683.44
397.97	734.93
398.16	767.70
398.35	674.07
398.55	697.48
398.74	692.80
398.93	819.19
399.12	833.23
399.32	744.29
399.51	746.63
399.70	772.38
399.90	873.02
400.09	809.83
400.28	847.27
400.47	784.08
400.67	812.17
400.86	842.59
401.05	821.53
401.24	835.57
401.44	903.45
401.63	894.08
401.82	950.26
402.01	807.48
402.21	849.61
402.40	875.36
402.59	770.04
402.78	777.06
402.97	819.19
403.17	884.72
403.36	891.74
403.55	912.81
403.74	819.19
403.93	858.98
404.13	887.06
404.32	772.38
404.51	826.21
404.70	938.55
404.89	926.85
405.09	936.21
405.28	805.14
405.47	851.96
405.66	835.57
405.85	765.36
406.05	784.08
406.24	847.27
406.43	837.91
406.62	835.57
406.81	915.15
407.00	847.27
407.20	854.30
407.39	828.55
407.58	833.23
407.77	915.15
407.96	990.05
408.15	875.36
408.34	847.27
408.54	915.15
408.73	1027.50
408.92	922.17
409.11	877.70
409.30	880.04
409.49	774.72
409.68	840.25
409.87	770.04
410.07	837.91
410.26	980.68
410.45	945.58
410.64	929.19
410.83	983.02
411.02	1027.50
411.21	1004.09
411.40	959.62
411.59	976.00
411.78	968.98
411.98	983.02
412.17	915.15
412.36	931.53
412.55	1006.43
412.74	922.17
412.93	980.68
413.12	985.37
413.31	1170.27
413.50	1083.67
413.69	976.00
413.88	1060.26
414.07	971.32
414.26	1057.92
414.45	992.39
414.64	1109.41
414.83	1097.71
415.02	997.07
415.22	994.73
415.41	997.07
415.60	1022.81
415.79	1102.39
415.98	1146.86
416.17	1057.92
416.36	1050.90
416.55	1055.58
416.74	1146.86
416.93	1067.28
417.12	983.02
417.31	997.07
417.50	1053.24
417.69	1067.28
417.88	997.07
418.07	1027.50
418.26	1018.13
418.45	1029.84
418.64	1090.69
418.83	1128.14
419.02	1107.07
419.21	1064.94
419.39	999.41
419.58	957.28
419.77	1043.88
419.96	1067.28
420.15	1200.69
420.34	1160.91
420.53	1207.72
420.72	1090.69
420.91	1111.75
421.10	1123.46
421.29	1177.29
421.48	1078.99
421.67	1128.14
421.86	1064.94
422.05	1004.09
422.24	924.51
422.43	1029.84
422.61	1142.18
422.80	1146.86
422.99	1097.71
423.18	1071.97
423.37	1123.46
423.56	1165.59
423.75	1055.58
423.94	1128.14
424.13	1050.90
424.32	1027.50
424.50	978.34
424.69	1018.13
424.88	1142.18
425.07	1036.86
425.26	1050.90
425.45	1041.54
425.64	926.85
425.83	985.37
426.01	1083.67
426.20	1158.57
426.39	1046.22
426.58	1004.09
426.77	940.90
426.96	959.62
427.15	973.66
427.33	1067.28
427.52	1090.69
427.71	1043.88
427.90	1076.65
428.09	1050.90
428.28	898.77
428.46	985.37
428.65	884.72
428.84	1020.47
429.03	1011.11
429.22	1048.56
429.40	884.72
429.59	880.04
429.78	781.74
429.97	704.50
430.16	767.70
430.34	835.57
430.53	844.93
430.72	884.72
430.91	964.30
431.10	1121.12
431.28	1219.42
431.47	1245.16
431.66	1193.67
431.85	1090.69
432.03	1064.94
432.22	983.02
432.41	1074.31
432.60	1179.63
432.79	1170.27
432.97	1153.88
433.16	1135.16
433.35	1039.20
433.54	978.34
433.72	964.30
433.91	1048.56
434.10	1193.67
434.28	1172.61
434.47	1259.21
434.66	1132.82
434.85	1177.29
435.03	1256.87
435.22	1345.81
435.41	1343.47
435.59	1277.93
435.78	1170.27
435.97	1247.51
436.16	1181.97
436.34	1266.23
436.53	1177.29
436.72	1277.93
436.90	1184.31
437.09	1217.08
437.28	1228.78
437.46	1219.42
437.65	1181.97
437.84	1029.84
438.02	1076.65
438.21	1083.67
438.40	1135.16
438.58	1128.14
438.77	1116.44
438.96	1226.44
439.14	1224.10
439.33	1268.57
439.52	1207.72
439.70	1156.22
439.89	1214.74
440.08	1165.59
440.26	1186.65
440.45	1270.91
440.63	1399.64
440.82	1423.05
441.01	1313.04
441.19	1343.47
441.38	1401.98
441.57	1416.02
441.75	1474.54
441.94	1366.87
442.12	1439.43
442.31	1451.13
442.50	1472.20
442.68	1490.92
442.87	1331.76
443.05	1373.89
443.24	1432.41
443.43	1420.71
443.61	1387.94
443.80	1432.41
443.98	1446.45
444.17	1345.81
444.35	1423.05
444.54	1479.22
444.73	1343.47
444.91	1423.05
445.10	1287.29
445.28	1287.29
445.47	1306.02
445.65	1280.27
445.84	1401.98
446.02	1303.68
446.21	1387.94
446.39	1341.13
446.58	1460.49
446.77	1430.07
446.95	1413.68
447.14	1542.41
447.32	1451.13
447.51	1423.05
447.69	1364.53
447.88	1406.66
448.06	1451.13
448.25	1521.35
448.43	1511.99
448.62	1397.30
448.80	1357.51
448.99	1472.20
449.17	1383.26
449.36	1439.43
449.54	1451.13
449.73	1526.03
449.91	1465.18
450.10	1437.09
450.28	1647.74
450.46	1507.30
450.65	1451.13
450.83	1542.41
451.02	1418.36
451.20	1502.62
451.39	1479.22
451.57	1511.99
451.76	1448.79
451.94	1530.71
452.13	1409.00
452.31	1306.02
452.49	1252.19
452.68	1401.98
452.86	1453.47
453.05	1568.16
453.23	1432.41
453.42	1500.28
453.60	1523.69
453.78	1483.90
453.97	1488.58
454.15	1411.34
454.34	1404.32
454.52	1458.15
454.70	1446.45
454.89	1486.24
455.07	1432.41
455.26	1481.56
455.44	1584.54
455.62	1549.43
455.81	1500.28
455.99	1584.54
456.17	1502.62
456.36	1500.28
456.54	1575.18
456.73	1603.27
456.91	1465.18
457.09	1643.06
457.28	1575.18
457.46	1565.82
457.64	1526.03
457.83	1465.18
458.01	1352.83
458.19	1519.01
458.38	1427.73
458.56	1579.86
458.74	1570.50
458.93	1575.18
459.11	1593.90
459.29	1462.83
459.48	1497.94
459.66	1514.33
459.84	1483.90
460.03	1671.14
460.21	1493.26
460.39	1629.01
460.57	1565.82
460.76	1647.74
460.94	1584.54
461.12	1516.67
461.31	1600.93
461.49	1570.50
461.67	1589.22
461.85	1519.01
462.04	1490.92
462.22	1666.46
462.40	1533.05
462.59	1621.99
462.77	1544.75
462.95	1614.97
463.13	1607.95
463.32	1521.35
463.50	1549.43
463.68	1502.62
463.86	1474.54
464.05	1570.50
464.23	1472.20
464.41	1554.12
464.59	1453.47
464.78	1577.52
464.96	1542.41
465.14	1554.12
465.32	1647.74
465.50	1556.46
465.69	1624.33
465.87	1472.20
466.05	1579.86
466.23	1507.30
466.41	1591.56
466.60	1420.71
466.78	1497.94
466.96	1561.14
467.14	1568.16
467.32	1451.13
467.51	1549.43
467.69	1490.92
467.87	1558.80
468.05	1514.33
468.23	1540.07
468.41	1507.30
468.60	1511.99
468.78	1575.18
468.96	1540.07
469.14	1568.16
469.32	1537.73
469.50	1533.05
469.69	1563.48
469.87	1528.37
470.05	1460.49
470.23	1390.28
470.41	1551.78
470.59	1610.29
470.77	1600.93
470.95	1563.48
471.14	1589.22
471.32	1645.40
471.50	1678.16
471.68	1654.76
471.86	1736.68
472.04	1689.87
472.22	1671.14
472.40	1535.39
472.58	1519.01
472.77	1528.37
472.95	1540.07
473.13	1640.72
473.31	1652.42
473.49	1572.84
473.67	1549.43
473.85	1626.67
474.03	1671.14
474.21	1657.10
474.39	1717.95
474.57	1710.93
474.75	1717.95
474.93	1584.54
475.12	1598.59
475.30	1659.44
475.48	1689.87
475.66	1710.93
475.84	1659.44
476.02	1621.99
476.20	1556.46
476.38	1643.06
476.56	1638.38
476.74	1797.53
476.92	1748.38
477.10	1750.72
477.28	1778.81
477.46	1734.34
477.64	1830.30
477.82	1823.28
478.00	1753.06
478.18	1764.76
478.36	1755.40
478.54	1776.47
478.72	1891.15
478.90	1792.85
479.08	1865.41
479.26	1942.64
479.44	1905.20
479.62	1860.73
479.80	1900.52
479.98	1921.58
480.16	1832.64
480.34	2012.86
480.52	1909.88
480.70	1940.30
480.88	1881.79
481.06	1987.11
481.24	2012.86
481.41	2026.90
481.59	1907.54
481.77	2008.18
481.95	1947.33
482.13	1968.39
482.31	1949.67
482.49	2052.65
482.67	1973.07
482.85	2005.84
483.03	2073.71
483.21	2097.12
483.39	2012.86
483.57	1959.03
483.74	2031.58
483.92	2132.23
484.10	1998.82
484.28	2101.80
484.46	2129.89
484.64	2155.63
484.82	2092.44
485.00	2043.29
485.18	1947.33
485.35	1877.11
485.53	1671.14
485.71	1657.10
485.89	1727.32
486.07	1823.28
486.25	2064.35
486.43	2026.90
486.61	2094.78
486.78	2090.10
486.96	2057.33
487.14	2101.80
487.32	2209.47
487.50	2141.59
487.68	2289.04
487.85	2232.87
488.03	2160.31
488.21	2148.61
488.39	2092.44
488.57	2228.19
488.75	2174.36
488.92	2583.95
489.10	2387.35
489.28	2394.37
489.46	2445.86
489.64	2466.92
489.81	2534.80
489.99	2410.75
490.17	2544.16
490.35	2649.49
490.53	2434.16
490.70	2413.09
490.88	2434.16
491.06	2462.24
491.24	2319.47
491.41	2422.45
491.59	2303.09
491.77	2099.46
491.95	2328.83
492.13	2457.56
492.30	2464.58
492.48	2539.48
492.66	2574.59
492.84	2518.42
493.01	2576.93
493.19	2380.32
493.37	2532.46
493.54	2509.05
493.72	2445.86
493.90	2595.65
494.08	2605.02
494.25	2651.83
494.43	2715.02
494.61	2644.81
494.79	2757.15
494.96	2597.99
495.14	2597.99
495.32	2525.44
495.49	2663.53
495.67	2614.38
495.85	2761.83
496.02	2789.92
496.20	2726.72
496.38	2708.00
496.55	2663.53
496.73	2726.72
496.91	2857.79
497.09	2832.05
497.26	2724.38
497.44	2836.73
497.62	2581.61
497.79	2546.50
497.97	2637.78
498.14	2757.15
498.32	2722.04
498.50	2771.19
498.67	2775.88
498.85	2857.79
499.03	2818.00
499.20	2881.20
499.38	2829.71
499.56	2757.15
499.73	2719.70
499.91	2633.10
500.08	2597.99
500.26	2628.42
500.44	2736.09
500.61	2801.62
500.79	2740.77
500.97	2644.81
501.14	2553.52
501.32	2602.68
501.49	2642.46
501.67	2600.34
501.84	2731.41
502.02	2789.92
502.20	2729.06
502.37	2677.57
502.55	2780.56
502.72	2820.35
502.90	2780.56
503.07	2778.22
503.25	2726.72
503.43	2576.93
503.60	2647.15
503.78	2499.69
503.95	2558.21
504.13	2672.89
504.30	2785.24
504.48	2829.71
504.65	2768.85
504.83	2724.38
505.01	2785.24
505.18	2881.20
505.36	2818.00
505.53	2874.18
505.71	2993.55
505.88	3016.95
506.06	2785.24
506.23	2818.00
506.41	2827.37
506.58	2712.68
506.76	2778.22
506.93	2722.04
507.11	2745.45
507.28	2778.22
507.46	2827.37
507.63	2609.70
507.81	2583.95
507.98	2712.68
508.16	2841.41
508.33	2890.56
508.50	2939.71
508.68	2979.50
508.85	2944.39
509.03	2942.05
509.20	2953.76
509.38	2761.83
509.55	2832.05
509.73	2792.26
509.90	2888.22
510.08	2874.18
510.25	2869.50
510.42	2885.88
510.60	2860.13
510.77	2986.52
510.95	2960.78
511.12	2918.65
511.30	3047.38
511.47	2930.35
511.64	2986.52
511.82	2956.10
511.99	2843.75
512.17	2836.73
512.34	2696.30
512.51	2810.98
512.69	2906.95
512.86	3049.72
513.04	2951.42
513.21	2895.24
513.38	2759.49
513.56	2794.60
513.73	2752.47
513.90	2789.92
514.08	2843.75
514.25	2806.30
514.43	2897.58
514.60	2813.32
514.77	2944.39
514.95	2818.00
515.12	2785.24
515.29	2874.18
515.47	2946.73
515.64	3023.97
515.81	2839.07
515.99	2757.15
516.16	2544.16
516.33	2485.65
516.51	2375.64
516.68	2324.15
516.85	2392.03
517.03	2509.05
517.20	2696.30
517.37	2923.33
517.54	2942.05
517.72	2738.43
517.89	2422.45
518.06	2333.51
518.24	2672.89
518.41	2675.23
518.58	2836.73
518.75	2724.38
518.93	2808.64
519.10	2719.70
519.27	2656.51
519.45	2745.45
519.62	2892.90
519.79	2897.58
519.96	2881.20
520.14	2801.62
520.31	2782.90
520.48	2717.36
520.65	2813.32
520.83	2988.86
521.00	2970.14
521.17	2977.16
521.34	2724.38
521.52	2862.48
521.69	3007.59
521.86	3080.14
522.03	2899.92
522.20	2757.15
522.38	2698.64
522.55	2785.24
522.72	2815.66
522.89	2832.05
523.07	2782.90
523.24	2757.15
523.41	2951.42
523.58	2937.37
523.75	2988.86
523.92	2918.65
524.10	2883.54
524.27	2967.80
524.44	2874.18
524.61	2888.22
524.78	2878.86
524.96	2913.97
525.13	2860.13
525.30	2923.33
525.47	3126.96
525.64	2949.08
525.81	2883.54
525.98	2665.87
526.16	2480.97
526.33	2480.97
526.50	2579.27
526.67	2499.69
526.84	2551.18
527.01	2621.40
527.18	2700.98
527.36	2920.99
527.53	2839.07
527.70	2911.63
527.87	2764.17
528.04	2780.56
528.21	2860.13
528.38	3014.61
528.55	3028.65
528.72	3133.98
528.89	3000.57
529.07	2906.95
529.24	2792.26
529.41	2778.22
529.58	2799.28
529.75	2942.05
529.92	2871.84
530.09	2967.80
530.26	3000.57
530.43	2895.24
530.60	2841.41
530.77	2972.48
530.94	2951.42
531.11	2876.52
531.28	2876.52
531.46	2820.35
531.63	3002.91
531.80	2792.26
531.97	2792.26
532.14	2740.77
532.31	2612.04
532.48	2555.86
532.65	2733.75
532.82	2792.26
532.99	2759.49
533.16	2820.35
533.33	2766.51
533.50	2810.98
533.67	2785.24
533.84	2764.17
534.01	2832.05
534.18	2768.85
534.35	2848.43
534.52	2881.20
534.69	2787.58
534.86	2782.90
535.03	2942.05
535.20	2946.73
535.37	3087.17
535.54	2974.82
535.71	3012.27
535.88	2878.86
536.05	2633.10
536.22	2850.77
536.38	2773.53
536.55	2717.36
536.72	2682.25
536.89	2602.68
537.06	2850.77
537.23	2895.24
537.40	2904.60
537.57	2834.39
537.74	2801.62
537.91	2796.94
538.08	2890.56
538.25	2909.29
538.42	2899.92
538.59	2874.18
538.75	2708.00
538.92	2731.41
539.09	2883.54
539.26	2752.47
539.43	2773.53
539.60	2708.00
539.77	2661.19
539.94	2672.89
540.11	2670.55
540.28	2710.34
540.44	2668.21
540.61	2743.11
540.78	2799.28
540.95	2794.60
541.12	2848.43
541.29	2925.67
541.46	2839.07
541.62	2935.03
541.79	2911.63
541.96	2806.30
542.13	2906.95
542.30	2846.09
542.47	2754.81
542.63	2675.23
542.80	2729.06
542.97	2822.69
543.14	2785.24
543.31	2775.88
543.48	2799.28
543.64	2972.48
543.81	3007.59
543.98	2839.07
544.15	2839.07
544.32	2738.43
544.48	2815.66
544.65	2874.18
544.82	2892.90
544.99	2892.90
545.16	2883.54
545.32	2871.84
545.49	3176.11
545.66	3248.66
545.83	3009.93
546.00	2841.41
546.16	2869.50
546.33	2825.03
546.50	2883.54
546.67	3002.91
546.83	2846.09
547.00	2759.49
547.17	2530.12
547.34	2614.38
547.50	2703.32
547.67	2686.94
547.84	2670.55
548.00	2902.26
548.17	2768.85
548.34	2670.55
548.51	2818.00
548.67	2733.75
548.84	2799.28
549.01	2792.26
549.18	2665.87
549.34	2677.57
549.51	2792.26
549.68	2789.92
549.84	2633.10
550.01	2724.38
550.18	2827.37
550.34	2855.45
550.51	2705.66
550.68	2782.90
550.84	2640.12
551.01	2588.63
551.18	2558.21
551.34	2689.28
551.51	2778.22
551.68	2761.83
551.84	2775.88
552.01	2722.04
552.18	2761.83
552.34	2551.18
552.51	2438.84
552.68	2661.19
552.84	2689.28
553.01	2677.57
553.18	2743.11
553.34	2609.70
553.51	2729.06
553.67	2700.98
553.84	2738.43
554.01	2700.98
554.17	2724.38
554.34	2782.90
554.51	2757.15
554.67	2782.90
554.84	2766.51
555.00	2588.63
555.17	2583.95
555.33	2654.17
555.50	2509.05
555.67	2509.05
555.83	2541.82
556.00	2574.59
556.16	2726.72
556.33	2541.82
556.50	2633.10
556.66	2647.15
556.83	2504.37
556.99	2597.99
557.16	2626.08
557.32	2544.16
557.49	2534.80
557.65	2623.74
557.82	2518.42
557.98	2562.89
558.15	2497.35
558.32	2385.01
558.48	2422.45
558.65	2473.95
558.81	2457.56
558.98	2581.61
559.14	2473.95
559.31	2473.95
559.47	2495.01
559.64	2511.39
559.80	2553.52
559.97	2483.31
560.13	2569.91
560.30	2593.31
560.46	2532.46
560.63	2621.40
560.79	2492.67
560.96	2504.37
561.12	2401.39
561.29	2445.86
561.45	2352.24
561.61	2504.37
561.78	2562.89
561.94	2520.76
562.11	2504.37
562.27	2431.82
562.44	2506.71
562.60	2513.74
562.77	2495.01
562.93	2548.84
563.10	2511.39
563.26	2382.67
563.42	2499.69
563.59	2415.43
563.75	2342.88
563.92	2387.35
564.08	2387.35
564.24	2441.18
564.41	2513.74
564.57	2523.10
564.74	2462.24
564.90	2443.52
565.07	2462.24
565.23	2356.92
565.39	2169.68
565.56	2382.67
565.72	2380.32
565.88	2284.36
566.05	2406.07
566.21	2441.18
566.38	2377.98
566.54	2377.98
566.70	2377.98
566.87	2368.62
567.03	2392.03
567.19	2342.88
567.36	2420.11
567.52	2282.02
567.68	2305.43
567.85	2307.77
568.01	2223.51
568.17	2209.47
568.34	2214.15
568.50	2120.53
568.66	2129.89
568.83	2303.09
568.99	2242.23
569.15	2289.04
569.32	2284.36
569.48	2204.78
569.64	2157.97
569.81	2214.15
569.97	2139.25
570.13	2155.63
570.30	2101.80
570.46	2087.76
570.62	2059.67
570.78	2050.31
570.95	2225.85
571.11	2303.09
571.27	2263.30
571.43	2225.85
571.60	2256.28
571.76	2338.20
571.92	2267.98
572.09	2249.25
572.25	2249.25
572.41	2134.57
572.57	2141.59
572.74	2221.17
572.90	2251.60
573.06	2193.08
573.22	2223.51
573.38	2057.33
573.55	2249.25
573.71	2244.57
573.87	2134.57
574.03	2148.61
574.20	2054.99
574.36	2176.70
574.52	2167.34
574.68	2115.84
574.84	2127.55
575.01	2090.10
575.17	2085.42
575.33	2008.18
575.49	2193.08
575.65	2057.33
575.82	2099.46
575.98	2043.29
576.14	2073.71
576.30	2195.42
576.46	2200.10
576.62	2162.66
576.79	2118.18
576.95	2176.70
577.11	2050.31
577.27	2062.01
577.43	2078.40
577.59	2202.44
577.75	2129.89
577.92	2092.44
578.08	2120.53
578.24	2045.63
578.40	2176.70
578.56	2237.55
578.72	2186.06
578.88	2057.33
579.04	2104.14
579.21	2209.47
579.37	2200.10
579.53	2181.38
579.69	2209.47
579.85	2230.53
580.01	2214.15
580.17	2017.54
580.33	2160.31
580.49	2218.83
580.65	2190.74
580.82	2200.10
580.98	2052.65
581.14	2090.10
581.30	2282.02
581.46	2202.44
581.62	2239.89
581.78	2256.28
581.94	2296.07
582.10	2176.70
582.26	2174.36
582.42	2146.27
582.58	2237.55
582.74	2150.95
582.90	2181.38
583.06	2190.74
583.22	2214.15
583.38	2181.38
583.54	2258.62
583.70	2216.49
583.86	2188.40
584.02	2207.13
584.18	2111.16
584.34	2115.84
584.50	2120.53
584.66	2183.72
584.82	2125.21
584.98	2120.53
585.14	2050.31
585.30	2043.29
585.46	2094.78
585.62	1970.73
585.78	2148.61
585.94	2172.02
586.10	2064.35
586.26	2022.22
586.42	2284.36
586.58	2132.23
586.74	2136.91
586.90	2090.10
587.06	2104.14
587.22	2001.16
587.38	1937.96
587.54	1940.30
587.70	1998.82
587.86	2113.50
588.02	1790.51
588.18	1753.06
588.34	1781.15
588.49	1554.12
588.65	1682.85
588.81	1652.42
588.97	1680.50
589.13	1736.68
589.29	1692.21
589.45	1680.50
589.61	1795.19
589.77	1837.32
589.93	1907.54
590.08	1909.88
590.24	1874.77
590.40	1870.09
590.56	1870.09
590.72	1809.23
590.88	1820.94
591.04	1933.28
591.20	1795.19
591.35	1785.83
591.51	1842.00
591.67	1813.92
591.83	1858.39
591.99	1788.17
592.15	1877.11
592.31	1968.39
592.46	1844.34
592.62	1907.54
592.78	1907.54
592.94	1778.81
593.10	1879.45
593.26	1977.75
593.41	1846.68
593.57	1778.81
593.73	1675.82
593.89	1739.02
594.05	1837.32
594.20	1668.80
594.36	1799.87
594.52	1722.63
594.68	1888.81
594.84	1839.66
594.99	1956.69
595.15	1877.11
595.31	1940.30
595.47	1916.90
595.62	1888.81
595.78	1984.77
595.94	1895.83
596.10	1806.89
596.25	1797.53
596.41	1935.62
596.57	1813.92
596.73	1792.85
596.88	1753.06
597.04	1799.87
597.20	1785.83
597.36	1916.90
597.51	1914.56
597.67	1851.36
597.83	1846.68
597.99	1921.58
598.14	1881.79
598.30	1820.94
598.46	1832.64
598.61	1874.77
598.77	1823.28
598.93	1736.68
