SpectraSuite Data File
++++++++++++++++++++++++++++++++++++
Date: Mon Sep 30 18:11:38 GMT-05:00 2013
User: stostad
Dark Spectrum Present: No
Reference Spectrum Present: No
Number of Sampled Component Spectra: 1
Spectrometers: USB2+H05261
Integration Time (usec): 100000 (USB2+H05261)
Spectra Averaged: 1 (USB2+H05261)
Boxcar Smoothing: 0 (USB2+H05261)
Correct for Electrical Dark: No (USB2+H05261)
Strobe/Lamp Enabled: No (USB2+H05261)
Correct for Detector Non-linearity: No (USB2+H05261)
Correct for Stray Light: No (USB2+H05261)
Number of Pixels in Processed Spectrum: 2048
>>>>>Begin Processed Spectral Data<<<<<
365.73	131.07
365.92	131.07
366.12	131.07
366.32	32.77
366.52	32.77
366.72	102.98
366.91	16.38
367.11	49.15
367.31	0.00
367.51	39.79
367.70	0.00
367.90	0.00
368.10	0.00
368.30	32.77
368.49	16.38
368.69	0.00
368.89	2.34
369.09	0.00
369.28	65.54
369.48	53.83
369.68	74.90
369.87	46.81
370.07	56.17
370.27	56.17
370.47	145.11
370.66	325.33
370.86	283.20
371.06	334.70
371.25	339.38
371.45	297.25
371.65	395.55
371.84	372.15
372.04	383.85
372.24	362.78
372.44	402.57
372.63	318.31
372.83	458.74
373.03	339.38
373.22	311.29
373.42	390.87
373.62	472.79
373.81	489.17
374.01	297.25
374.21	404.91
374.40	402.57
374.60	489.17
374.79	433.00
374.99	425.98
375.19	444.70
375.38	402.57
375.58	458.74
375.78	423.64
375.97	482.15
376.17	456.40
376.37	470.45
376.56	433.00
376.76	491.51
376.95	395.55
377.15	517.26
377.35	538.32
377.54	477.47
377.74	472.79
377.93	440.02
378.13	479.81
378.33	571.09
378.52	447.04
378.72	477.47
378.91	491.51
379.11	463.43
379.31	440.02
379.50	397.89
379.70	454.06
379.89	484.49
380.09	500.87
380.28	540.66
380.48	456.40
380.68	519.60
380.87	482.15
381.07	444.70
381.26	519.60
381.46	477.47
381.65	545.34
381.85	557.05
382.04	547.69
382.24	559.39
382.43	561.73
382.63	533.64
382.83	510.24
383.02	564.07
383.22	505.56
383.41	531.30
383.61	550.03
383.80	608.54
384.00	503.22
384.19	545.34
384.39	526.62
384.58	601.52
384.78	571.09
384.97	578.11
385.17	589.82
385.36	589.82
385.56	608.54
385.75	655.35
385.95	603.86
386.14	603.86
386.34	603.86
386.53	599.18
386.72	573.43
386.92	699.82
387.11	592.16
387.31	641.31
387.50	617.90
387.70	669.39
387.89	592.16
388.09	667.05
388.28	657.69
388.48	627.26
388.67	692.80
388.86	622.58
389.06	622.58
389.25	692.80
389.45	718.54
389.64	697.48
389.84	702.16
390.03	732.59
390.22	674.07
390.42	732.59
390.61	777.06
390.81	723.23
391.00	697.48
391.19	784.08
391.39	727.91
391.58	793.44
391.78	734.93
391.97	779.40
392.16	711.52
392.36	812.17
392.55	823.87
392.75	807.48
392.94	807.48
393.13	786.42
393.33	788.76
393.52	823.87
393.71	828.55
393.91	856.64
394.10	807.48
394.29	835.57
394.49	758.33
394.68	882.38
394.88	795.78
395.07	866.00
395.26	858.98
395.46	961.96
395.65	959.62
395.84	903.45
396.04	994.73
396.23	931.53
396.42	791.10
396.62	898.77
396.81	919.83
397.00	931.53
397.19	922.17
397.39	954.94
397.58	1086.01
397.77	980.68
397.97	959.62
398.16	1020.47
398.35	945.58
398.55	957.28
398.74	919.83
398.93	1022.81
399.12	990.05
399.32	1032.18
399.51	1018.13
399.70	1025.15
399.90	1013.45
400.09	1123.46
400.28	1078.99
400.47	1142.18
400.67	1053.24
400.86	1226.44
401.05	1071.97
401.24	1160.91
401.44	1121.12
401.63	1170.27
401.82	1111.75
402.01	1228.78
402.21	1160.91
402.40	1247.51
402.59	1233.46
402.78	1170.27
402.97	1256.87
403.17	1191.33
403.36	1273.25
403.55	1210.06
403.74	1224.10
403.93	1329.42
404.13	1289.64
404.32	1301.34
404.51	1362.19
404.70	1390.28
404.89	1266.23
405.09	1427.73
405.28	1296.66
405.47	1380.92
405.66	1446.45
405.85	1387.94
406.05	1385.60
406.24	1439.43
406.43	1523.69
406.62	1465.18
406.81	1490.92
407.00	1430.07
407.20	1448.79
407.39	1376.24
407.58	1528.37
407.77	1509.65
407.96	1490.92
408.15	1596.25
408.34	1509.65
408.54	1497.94
408.73	1678.16
408.92	1607.95
409.11	1584.54
409.30	1689.87
409.49	1617.31
409.68	1661.78
409.87	1661.78
410.07	1633.69
410.26	1741.36
410.45	1680.50
410.64	1699.23
410.83	1624.33
411.02	1837.32
411.21	1837.32
411.40	1802.21
411.59	1900.52
411.78	1776.47
411.98	1844.34
412.17	1877.11
412.36	1776.47
412.55	1881.79
412.74	1916.90
412.93	1987.11
413.12	1853.70
413.31	1935.62
413.50	2045.63
413.69	1956.69
413.88	2169.68
414.07	2043.29
414.26	2043.29
414.45	2097.12
414.64	2132.23
414.83	2188.40
415.02	2150.95
415.22	2251.60
415.41	2237.55
415.60	2270.32
415.79	2223.51
415.98	2352.24
416.17	2209.47
416.36	2211.81
416.55	2352.24
416.74	2387.35
416.93	2300.75
417.12	2410.75
417.31	2406.07
417.50	2277.34
417.69	2548.84
417.88	2429.48
418.07	2509.05
418.26	2487.99
418.45	2525.44
418.64	2619.06
418.83	2668.21
419.02	2487.99
419.21	2654.17
419.39	2675.23
419.58	2462.24
419.77	2534.80
419.96	2605.02
420.15	2658.85
420.34	2612.04
420.53	2597.99
420.72	2738.43
420.91	2649.49
421.10	2672.89
421.29	2719.70
421.48	2597.99
421.67	2815.66
421.86	2724.38
422.05	2778.22
422.24	2736.09
422.43	2726.72
422.61	2703.32
422.80	2944.39
422.99	2785.24
423.18	2843.75
423.37	2995.89
423.56	2958.44
423.75	2803.96
423.94	2750.13
424.13	2600.34
424.32	2750.13
424.50	2832.05
424.69	2771.19
424.88	2846.09
425.07	2857.79
425.26	2935.03
425.45	3026.31
425.64	2993.55
425.83	2937.37
426.01	2904.60
426.20	2970.14
426.39	3089.51
426.58	3012.27
426.77	2913.97
426.96	3052.06
427.15	2991.20
427.33	2888.22
427.52	2967.80
427.71	2977.16
427.90	2932.69
428.09	2925.67
428.28	3030.99
428.46	2928.01
428.65	3094.19
428.84	2972.48
429.03	3066.10
429.22	3038.02
429.40	2918.65
429.59	3000.57
429.78	2970.14
429.97	2841.41
430.16	2904.60
430.34	2906.95
430.53	2963.12
430.72	2946.73
430.91	2960.78
431.10	2895.24
431.28	3126.96
431.47	3066.10
431.66	3138.66
431.85	3089.51
432.03	3225.26
432.22	3222.92
432.41	3169.09
432.60	3272.07
432.79	3080.14
432.97	3335.26
433.16	3316.54
433.35	3187.81
433.54	3400.80
433.72	3281.43
433.91	3466.33
434.10	3471.01
434.28	3482.72
434.47	3454.63
434.66	3541.23
434.85	3557.61
435.03	3576.34
435.22	3810.39
435.41	4215.30
435.59	3770.60
435.78	3707.41
435.97	3754.22
436.16	3707.41
436.34	3712.09
436.53	3667.62
436.72	3763.58
436.90	3747.20
437.09	3824.44
437.28	3735.50
437.46	3866.56
437.65	3810.39
437.84	3983.59
438.02	4035.08
438.21	3985.93
438.40	3946.14
438.58	3988.27
438.77	4159.13
438.96	4095.94
439.14	4124.02
439.33	4098.28
439.52	4081.89
439.70	4173.18
439.89	4276.16
440.08	4124.02
440.26	4428.29
440.45	4271.48
440.63	4339.35
440.82	4362.76
441.01	4393.19
441.19	4416.59
441.38	4526.60
441.57	4566.39
441.75	4402.55
441.94	4631.92
442.12	4652.98
442.31	4809.80
442.50	4779.37
442.68	4655.33
442.87	4748.95
443.05	4770.01
443.24	4842.57
443.43	4720.86
443.61	4891.72
443.80	4858.95
443.98	4631.92
444.17	4856.61
444.35	4823.84
444.54	4936.19
444.73	4807.46
444.91	4847.25
445.10	4933.85
445.28	4933.85
445.47	4830.87
445.65	4741.93
445.84	4816.82
446.02	4762.99
446.21	4800.44
446.39	4779.37
446.58	4936.19
446.77	4999.38
446.95	4889.38
447.14	4954.91
447.32	4973.64
447.51	4924.49
447.69	4933.85
447.88	4922.15
448.06	4994.70
448.25	4919.81
448.43	4929.17
448.62	4910.44
448.80	4947.89
448.99	5165.56
449.17	4966.62
449.36	4861.29
449.54	5062.58
449.73	5179.61
449.91	5006.41
450.10	5132.79
450.28	5088.32
450.46	5130.45
450.65	5123.43
450.83	5191.31
451.02	5097.69
451.20	5233.44
451.39	5184.29
451.57	5109.39
451.76	5198.33
451.94	5167.90
452.13	5364.51
452.31	5273.23
452.49	5203.01
452.68	5355.15
452.86	5247.48
453.05	5181.95
453.23	5500.26
453.42	5226.42
453.60	5378.55
453.78	5502.60
453.97	5411.32
454.15	5371.53
454.34	5399.62
454.52	5413.66
454.70	5439.40
454.89	5338.76
455.07	5556.43
455.26	5516.64
455.44	5572.82
455.62	5666.44
455.81	5537.71
455.99	5533.03
456.17	5659.42
456.36	5603.24
456.54	5757.72
456.73	5776.44
456.91	5942.62
457.09	5832.62
457.28	5792.83
457.46	5790.49
457.64	5809.21
457.83	5951.98
458.01	5771.76
458.19	5818.57
458.38	5930.92
458.56	5900.49
458.74	5797.51
458.93	5825.59
459.11	6043.26
459.29	5921.56
459.48	5909.85
459.66	5874.74
459.84	5987.09
460.03	6139.23
460.21	5954.32
460.39	6054.97
460.57	6146.25
460.76	6061.99
460.94	6256.25
461.12	6176.67
461.31	6160.29
461.49	6246.89
461.67	6090.07
461.85	6258.59
462.04	6396.68
462.22	6516.05
462.40	6377.96
462.59	6403.71
462.77	6413.07
462.95	6511.37
463.13	6333.49
463.32	6441.15
463.50	6483.28
463.68	6452.86
463.86	6595.63
464.05	6401.37
464.23	6324.13
464.41	6406.05
464.59	6328.81
464.78	6696.27
464.96	6539.46
465.14	6544.14
465.32	6490.31
465.50	6476.26
465.69	6534.78
465.87	6633.08
466.05	6654.14
466.23	6719.68
466.41	6686.91
466.60	6775.85
466.78	6696.27
466.96	6712.66
467.14	6731.38
467.32	6834.36
467.51	6906.92
467.69	6675.21
467.87	6942.03
468.05	6883.52
468.23	6829.68
468.41	6766.49
468.60	6792.23
468.78	6853.09
468.96	6595.63
469.14	6888.20
469.32	7101.19
469.50	6771.17
469.69	7140.97
469.87	6920.96
470.05	7143.32
470.23	6876.49
470.41	7045.01
470.59	7133.95
470.77	7047.35
470.95	7054.37
471.14	7166.72
471.32	6930.33
471.50	7183.10
471.68	7208.85
471.86	7098.84
472.04	7133.95
472.22	7241.62
472.40	7316.51
472.58	7304.81
472.77	7431.20
472.95	7283.75
473.13	7679.30
473.31	7360.98
473.49	7269.70
473.67	7356.30
473.85	7389.07
474.03	7637.17
474.21	7431.20
474.39	7728.45
474.57	7873.56
474.75	7772.92
474.93	7941.44
475.12	7768.24
475.30	8016.33
475.48	8065.49
475.66	7969.52
475.84	7974.21
476.02	8046.76
476.20	8241.03
476.38	8212.94
476.56	8339.33
476.74	8252.73
476.92	8353.37
477.10	8458.70
477.28	8580.40
477.46	8638.92
477.64	8685.73
477.82	8751.26
478.00	9053.19
478.18	8973.61
478.36	9062.55
478.54	9233.41
478.72	9142.13
478.90	9371.50
479.08	9252.14
479.26	9373.85
479.44	9568.11
479.62	9568.11
479.80	9633.64
479.98	9500.23
480.16	9907.49
480.34	9661.73
480.52	9951.96
480.70	10139.20
480.88	9825.57
481.06	10258.57
481.24	10169.63
481.41	10443.47
481.59	10483.26
481.77	10621.35
481.95	10480.92
482.13	10691.57
482.31	10747.74
482.49	10897.53
482.67	11117.54
482.85	11435.86
483.03	11492.03
483.21	11276.70
483.39	11531.82
483.57	11452.24
483.74	11620.76
483.92	11763.53
484.10	11871.20
484.28	11910.99
484.46	12131.00
484.64	12315.90
484.82	12290.15
485.00	12472.71
485.18	12784.01
485.35	12779.32
485.53	12734.85
485.71	12769.96
485.89	13254.45
486.07	13076.57
486.25	13252.11
486.43	13132.75
486.61	13327.01
486.78	13254.45
486.96	13696.82
487.14	13701.50
487.32	13809.16
487.50	14005.77
487.68	14178.97
487.85	14298.33
488.03	14583.88
488.21	14354.51
488.39	14640.05
488.57	14967.73
488.75	14867.08
488.92	15194.76
489.10	15241.57
489.28	14941.98
489.46	15133.90
489.64	14904.53
489.81	15667.55
489.99	15735.42
490.17	15634.78
490.35	15871.17
490.53	16035.01
490.70	15976.50
490.88	15768.19
491.06	16383.75
491.24	16411.84
491.41	16533.54
491.59	16400.13
491.77	16451.63
491.95	16257.36
492.13	16744.19
492.30	17142.08
492.48	16933.78
492.66	17046.12
492.84	16975.91
493.01	17228.68
493.19	17156.13
493.37	17355.07
493.54	17448.69
493.72	17664.02
493.90	17303.58
494.08	17685.09
494.25	17757.64
494.43	18045.53
494.61	18090.00
494.79	18092.34
494.96	17994.04
495.14	18242.14
495.32	18647.05
495.49	18515.98
495.67	18373.21
495.85	18281.92
496.02	18693.86
496.20	19056.64
496.38	18923.23
496.55	18654.07
496.73	19180.69
496.91	18883.44
497.09	19255.59
497.26	19213.46
497.44	19243.88
497.62	19243.88
497.79	19662.84
497.97	19597.31
498.14	19733.06
498.32	19529.43
498.50	19711.99
498.67	19637.09
498.85	20032.65
499.03	19960.09
499.20	19716.67
499.38	19901.58
499.56	19711.99
499.73	20152.01
499.91	19999.88
500.08	20259.68
500.26	20065.41
500.44	20255.00
500.61	20409.47
500.79	20266.70
500.97	20306.49
501.14	20685.65
501.32	20779.28
501.49	20152.01
501.67	20886.94
501.84	20823.75
502.02	20517.14
502.20	20603.74
502.37	20762.89
502.55	20669.27
502.72	20702.04
502.90	21036.74
503.07	20917.37
503.25	21137.38
503.43	20805.02
503.60	21025.03
503.78	21001.63
503.95	21401.86
504.13	21338.66
504.30	21245.04
504.48	21399.52
504.65	21291.85
504.83	21214.62
505.01	21598.46
505.18	21191.21
505.36	21029.71
505.53	21158.44
505.71	21462.71
505.88	21261.43
506.06	21252.06
506.23	21621.87
506.41	21280.15
506.58	21020.35
506.76	21291.85
506.93	21514.20
507.11	21411.22
507.28	21509.52
507.46	21518.89
507.63	21692.08
507.81	21701.45
507.98	21071.84
508.16	21380.79
508.33	21455.69
508.50	21624.21
508.68	21610.17
508.85	21259.09
509.03	21053.12
509.20	21329.30
509.38	21582.08
509.55	21429.94
509.73	21214.62
509.90	21184.19
510.08	21296.53
510.25	20978.22
510.42	20898.64
510.60	20931.41
510.77	21242.70
510.95	21195.89
511.12	20601.40
511.30	20833.11
511.47	20940.77
511.64	20755.87
511.82	20545.22
511.99	20657.57
512.17	20737.15
512.34	20638.84
512.51	21003.97
512.69	20669.27
512.86	20758.21
513.04	20713.74
513.21	20938.43
513.38	20645.87
513.56	20713.74
513.73	20999.29
513.90	21270.79
514.08	21027.37
514.25	20938.43
514.43	21083.55
514.60	21172.49
514.77	21233.34
514.95	21565.70
515.12	21874.65
515.29	21493.14
515.47	21715.49
515.64	22087.64
515.81	21673.36
515.99	22120.40
516.16	22532.34
516.33	22038.48
516.51	22689.15
516.68	22551.06
516.85	22644.68
517.03	22883.42
517.20	22817.88
517.37	22925.55
517.54	22813.20
517.72	23040.23
517.89	23040.23
518.06	22998.10
518.24	23384.29
518.41	23480.25
518.58	23529.41
518.75	23569.19
518.93	23346.84
519.10	23555.15
519.27	23346.84
519.45	23585.58
519.62	24063.05
519.79	23964.75
519.96	23941.34
520.14	24191.78
520.31	23775.16
520.48	23843.04
520.65	23672.18
520.83	23807.93
521.00	23854.74
521.17	23992.83
521.34	23845.38
521.52	23765.80
521.69	23473.23
521.86	23531.75
522.03	23438.12
522.20	23388.97
522.38	23468.55
522.55	22892.78
522.72	22628.30
522.89	22518.29
523.07	22815.54
523.24	22197.64
523.41	22403.61
523.58	22162.53
523.75	22190.62
523.92	21954.22
524.10	21954.22
524.27	21769.32
524.44	21689.74
524.61	21783.37
524.78	21546.97
524.96	21617.19
525.13	21769.32
525.30	21673.36
525.47	21621.87
525.64	21539.95
525.81	21804.43
525.98	21673.36
526.16	21408.88
526.33	21238.02
526.50	21886.35
526.67	21521.23
526.84	21525.91
527.01	21577.40
527.18	21687.40
527.36	21429.94
527.53	21443.99
527.70	21668.68
527.87	21397.18
528.04	21404.20
528.21	21518.89
528.38	21500.16
528.55	21518.89
528.72	21626.55
528.89	21678.04
529.07	21191.21
529.24	21605.49
529.41	21694.43
529.58	21549.31
529.75	22057.21
529.92	22031.46
530.09	21846.56
530.26	22097.00
530.43	22141.47
530.60	21893.37
530.77	21916.78
530.94	22263.18
531.11	22373.18
531.28	22555.74
531.46	22373.18
531.63	22679.79
531.80	22508.93
531.97	22878.74
532.14	22965.34
532.31	23199.39
532.48	23213.43
532.65	23625.37
532.82	23646.43
532.99	23728.35
533.16	23648.77
533.33	23852.40
533.50	24404.77
533.67	24484.34
533.84	24800.32
534.01	24882.24
534.18	24938.41
534.35	25493.12
534.52	25589.08
534.69	25975.27
534.86	25867.60
535.03	25909.73
535.20	26302.94
535.37	27164.26
535.54	26904.46
535.71	27505.98
535.88	27517.68
536.05	28020.89
536.22	28126.22
536.38	28116.86
536.55	28367.29
536.72	28147.28
536.89	28500.70
537.06	28826.04
537.23	29137.33
537.40	29404.15
537.57	29443.94
537.74	29273.08
537.91	29895.66
538.08	29795.02
538.25	30167.16
538.42	30529.95
538.59	30888.05
538.75	30368.45
538.92	30991.03
539.09	31009.76
539.26	31007.42
539.43	31510.63
539.60	31693.19
539.77	31800.86
539.94	31957.67
540.11	31992.78
540.28	32774.52
540.44	32924.32
540.61	32769.84
540.78	32662.18
540.95	32526.42
541.12	33078.79
541.29	33273.06
541.46	33291.78
541.62	33500.09
541.79	34141.39
541.96	33280.08
542.13	33776.27
542.30	33921.38
542.47	34169.48
542.63	33764.57
542.80	34513.54
542.97	34649.29
543.14	34799.08
543.31	35241.45
543.48	35021.44
543.64	35138.46
543.81	35587.85
543.98	35173.57
544.15	34909.09
544.32	35243.79
544.48	35438.05
544.65	35594.87
544.82	35985.74
544.99	35723.60
545.16	35618.27
545.32	35494.22
545.49	36498.31
545.66	36577.89
545.83	36451.50
546.00	36978.12
546.16	36418.74
546.33	35945.95
546.50	35831.26
546.67	36556.83
546.83	36442.14
547.00	36477.25
547.17	36346.18
547.34	36507.68
547.50	36278.30
547.67	36786.20
547.84	36699.60
548.00	37141.96
548.17	37132.60
548.34	36706.62
548.51	37376.01
548.67	36896.20
548.84	36910.25
549.01	36519.38
549.18	36795.56
549.34	36659.81
549.51	37291.76
549.68	36950.04
549.84	37205.16
550.01	37422.83
550.18	37659.22
550.34	37163.03
550.51	37275.37
550.68	37289.42
550.84	37067.06
551.01	37415.80
551.18	37263.67
551.34	37221.54
551.51	38050.09
551.68	37156.00
551.84	37612.41
552.01	37577.30
552.18	37614.75
552.34	37542.19
552.51	37865.19
552.68	37523.47
552.84	37874.55
553.01	38286.48
553.18	37890.93
553.34	37638.15
553.51	37610.07
553.67	38010.30
553.84	37883.91
554.01	37921.36
554.17	37949.45
554.34	38113.28
554.51	37972.85
554.67	37963.49
554.84	37902.64
555.00	38122.65
555.17	38143.71
555.33	38162.43
555.50	37516.45
555.67	37759.86
555.83	38174.14
556.00	38583.73
556.16	38651.61
556.33	38408.19
556.50	38522.88
556.66	38497.13
556.83	37951.79
556.99	37996.26
557.16	38223.29
557.32	38433.94
557.49	38361.38
557.65	37642.84
557.82	38316.91
557.98	38600.12
558.15	37951.79
558.32	38478.41
558.48	37827.74
558.65	38251.38
558.81	38583.73
558.98	38455.00
559.14	38394.15
559.31	38277.12
559.47	38735.87
559.64	38562.67
559.80	38132.01
559.97	38550.96
560.13	38045.41
560.30	37841.78
560.46	38218.61
560.63	38099.24
560.79	38478.41
560.96	38459.68
561.12	38408.19
561.29	38211.59
561.45	38256.06
561.61	37907.32
561.78	38234.99
561.94	38127.33
562.11	37975.19
562.27	38190.52
562.44	37687.31
562.60	38178.82
562.77	37975.19
562.93	37701.35
563.10	38122.65
563.26	37652.20
563.42	37867.53
563.59	37640.50
563.75	37666.24
563.92	37383.04
564.08	36676.19
564.24	36692.58
564.41	36797.90
564.57	36938.33
564.74	36680.88
564.90	36421.08
565.07	35903.82
565.23	35861.69
565.39	35676.79
565.56	35611.25
565.72	35295.28
565.88	35117.40
566.05	34546.31
566.21	34347.36
566.38	34092.24
566.54	33537.54
566.70	33773.93
566.87	33062.41
567.03	32261.94
567.19	31723.62
567.36	31494.25
567.52	31061.25
567.68	30349.73
567.85	29764.59
568.01	29221.59
568.17	28343.89
568.34	27468.53
568.50	26995.74
568.66	25642.91
568.83	25259.06
568.99	24472.64
569.15	23403.02
569.32	22918.53
569.48	21724.85
569.64	21411.22
569.81	20058.39
569.97	19396.02
570.13	18974.72
570.30	18010.42
570.46	17390.18
570.62	16882.28
570.78	16217.57
570.95	15669.89
571.11	15466.26
571.27	14831.97
571.43	14188.33
571.60	14445.79
571.76	13715.54
571.92	13509.57
572.09	13455.74
572.25	13177.22
572.41	12805.07
572.57	13029.76
572.74	12917.42
572.90	12987.63
573.06	12966.57
573.22	12849.54
573.38	12828.48
573.55	12961.89
573.71	12826.14
573.87	12692.73
574.03	12919.76
574.20	12791.03
574.36	13069.55
574.52	12739.54
574.68	12856.56
574.84	13102.32
575.01	13064.87
575.17	13177.22
575.33	13254.45
575.49	13055.51
575.65	13273.18
575.82	13521.27
575.98	13261.48
576.14	13167.85
576.30	13509.57
576.46	13441.70
576.62	13631.28
576.79	13483.83
576.95	13495.53
577.11	13647.66
577.27	13610.22
577.43	13781.07
577.59	13540.00
577.75	13752.99
577.92	13996.40
578.08	14052.58
578.24	14188.33
578.40	14209.39
578.56	14448.13
578.72	14174.28
578.88	14483.24
579.04	14560.47
579.21	14321.74
579.37	14508.98
579.53	14710.27
579.69	14373.23
579.85	14696.22
580.01	14319.40
580.17	14361.53
580.33	14178.97
580.49	14031.51
580.65	13940.23
580.82	13879.38
580.98	13277.86
581.14	13139.77
581.30	13165.51
581.46	13013.38
581.62	12751.24
581.78	12638.89
581.94	12297.17
582.10	11910.99
582.26	11536.50
582.42	11232.23
582.58	11147.97
582.74	10813.28
582.90	10623.69
583.06	10548.79
583.22	10193.03
583.38	10003.45
583.54	9872.38
583.70	9771.74
583.86	9373.85
584.02	9245.12
584.18	9219.37
584.34	9036.81
584.50	8943.19
584.66	9034.47
584.82	8889.35
584.98	8636.58
585.14	8987.66
585.30	8835.52
585.46	8819.14
585.62	9015.74
585.78	9191.28
585.94	9074.26
586.10	9287.25
586.26	9352.78
586.42	9338.74
586.58	9652.37
586.74	9895.78
586.90	9989.41
587.06	10052.60
587.22	10244.52
587.38	10256.23
587.54	10401.34
587.70	10427.09
587.86	10719.65
588.02	10743.06
588.18	11180.74
588.34	11328.19
588.49	11365.64
588.65	11630.12
588.81	11997.59
588.97	12203.55
589.13	12372.07
589.29	12416.54
589.45	12755.92
589.61	12685.70
589.77	12711.45
589.93	13132.75
590.08	13233.39
590.24	13298.92
590.40	13671.07
590.56	13731.92
590.72	13760.01
590.88	13816.18
591.04	13977.68
591.20	13975.34
