SpectraSuite Data File
++++++++++++++++++++++++++++++++++++
Date: Mon Sep 30 18:11:41 GMT-05:00 2013
User: stostad
Dark Spectrum Present: No
Reference Spectrum Present: No
Number of Sampled Component Spectra: 1
Spectrometers: USB2+H05261
Integration Time (usec): 100000 (USB2+H05261)
Spectra Averaged: 1 (USB2+H05261)
Boxcar Smoothing: 0 (USB2+H05261)
Correct for Electrical Dark: No (USB2+H05261)
Strobe/Lamp Enabled: No (USB2+H05261)
Correct for Detector Non-linearity: No (USB2+H05261)
Correct for Stray Light: No (USB2+H05261)
Number of Pixels in Processed Spectrum: 2048
>>>>>Begin Processed Spectral Data<<<<<
365.73	140.43
365.92	140.43
366.12	140.43
366.32	102.98
366.52	7.02
366.72	63.19
366.91	65.54
367.11	44.47
367.31	37.45
367.51	0.00
367.70	0.00
367.90	23.41
368.10	0.00
368.30	0.00
368.49	0.00
368.69	42.13
368.89	28.09
369.09	16.38
369.28	16.38
369.48	0.00
369.68	0.00
369.87	28.09
370.07	53.83
370.27	93.62
370.47	124.05
370.66	257.46
370.86	358.10
371.06	346.40
371.25	451.72
371.45	348.74
371.65	447.04
371.84	278.52
372.04	390.87
372.24	372.15
372.44	372.15
372.63	383.85
372.83	503.22
373.03	482.15
373.22	507.90
373.42	454.06
373.62	486.83
373.81	507.90
374.01	491.51
374.21	496.19
374.40	428.32
374.60	454.06
374.79	407.25
374.99	512.58
375.19	512.58
375.38	547.69
375.58	540.66
375.78	472.79
375.97	552.37
376.17	465.77
376.37	538.32
376.56	510.24
376.76	510.24
376.95	486.83
377.15	491.51
377.35	582.79
377.54	594.50
377.74	519.60
377.93	510.24
378.13	498.53
378.33	645.99
378.52	554.71
378.72	538.32
378.91	535.98
379.11	500.87
379.31	587.47
379.50	564.07
379.70	620.24
379.89	540.66
380.09	465.77
380.28	596.84
380.48	613.22
380.68	610.88
380.87	594.50
381.07	585.13
381.26	697.48
381.46	528.96
381.65	636.63
381.85	571.09
382.04	578.11
382.24	624.92
382.43	566.41
382.63	601.52
382.83	624.92
383.02	678.76
383.22	685.78
383.41	634.29
383.61	564.07
383.80	678.76
384.00	641.31
384.19	674.07
384.39	741.95
384.58	627.26
384.78	727.91
384.97	699.82
385.17	688.12
385.36	727.91
385.56	697.48
385.75	643.65
385.95	704.50
386.14	849.61
386.34	734.93
386.53	704.50
386.72	800.46
386.92	758.33
387.11	713.86
387.31	727.91
387.50	725.57
387.70	751.31
387.89	819.19
388.09	746.63
388.28	744.29
388.48	734.93
388.67	781.74
388.86	788.76
389.06	774.72
389.25	814.51
389.45	760.67
389.64	793.44
389.84	875.36
390.03	763.01
390.22	788.76
390.42	814.51
390.61	802.80
390.81	814.51
391.00	800.46
391.19	826.21
391.39	851.96
391.58	861.32
391.78	844.93
391.97	922.17
392.16	877.70
392.36	889.40
392.55	938.55
392.75	1008.77
392.94	926.85
393.13	931.53
393.33	863.66
393.52	952.60
393.71	985.37
393.91	959.62
394.10	947.92
394.29	1008.77
394.49	997.07
394.68	1046.22
394.88	1011.11
395.07	1118.78
395.26	931.53
395.46	896.43
395.65	964.30
395.84	1032.18
396.04	1130.48
396.23	1001.75
396.42	1069.62
396.62	1060.26
396.81	1153.88
397.00	1095.37
397.19	1104.73
397.39	1165.59
397.58	1088.35
397.77	1107.07
397.97	1083.67
398.16	1139.84
398.35	1200.69
398.55	1177.29
398.74	1210.06
398.93	1252.19
399.12	1254.53
399.32	1226.44
399.51	1205.38
399.70	1153.88
399.90	1233.46
400.09	1231.12
400.28	1254.53
400.47	1317.72
400.67	1296.66
400.86	1310.70
401.05	1296.66
401.24	1345.81
401.44	1317.72
401.63	1245.16
401.82	1341.13
402.01	1310.70
402.21	1364.53
402.40	1294.32
402.59	1359.85
402.78	1341.13
402.97	1366.87
403.17	1514.33
403.36	1425.39
403.55	1348.15
403.74	1486.24
403.93	1448.79
404.13	1530.71
404.32	1554.12
404.51	1504.96
404.70	1500.28
404.89	1563.48
405.09	1589.22
405.28	1570.50
405.47	1540.07
405.66	1572.84
405.85	1645.40
406.05	1638.38
406.24	1640.72
406.43	1629.01
406.62	1710.93
406.81	1701.57
407.00	1596.25
407.20	1558.80
407.39	1739.02
407.58	1724.97
407.77	1743.70
407.96	1746.04
408.15	1874.77
408.34	1741.36
408.54	1696.89
408.73	1827.96
408.92	1907.54
409.11	1839.66
409.30	1942.64
409.49	1909.88
409.68	2001.16
409.87	1933.28
410.07	1926.26
410.26	1956.69
410.45	2008.18
410.64	1980.09
410.83	2005.84
411.02	1937.96
411.21	2078.40
411.40	2043.29
411.59	2031.58
411.78	2129.89
411.98	2132.23
412.17	2146.27
412.36	2150.95
412.55	2209.47
412.74	2202.44
412.93	2207.13
413.12	2148.61
413.31	2434.16
413.50	2293.72
413.69	2263.30
413.88	2333.51
414.07	2328.83
414.26	2345.22
414.45	2380.32
414.64	2443.52
414.83	2450.54
415.02	2513.74
415.22	2541.82
415.41	2576.93
415.60	2649.49
415.79	2544.16
415.98	2597.99
416.17	2576.93
416.36	2658.85
416.55	2764.17
416.74	2607.36
416.93	2771.19
417.12	2651.83
417.31	2818.00
417.50	2693.96
417.69	2806.30
417.88	2708.00
418.07	2829.71
418.26	2808.64
418.45	2754.81
418.64	2918.65
418.83	2850.77
419.02	2988.86
419.21	3014.61
419.39	2993.55
419.58	3000.57
419.77	2981.84
419.96	3019.29
420.15	2958.44
420.34	2981.84
420.53	3033.33
420.72	3152.70
420.91	3148.02
421.10	3084.83
421.29	3325.90
421.48	3159.72
421.67	3236.96
421.86	3215.90
422.05	3220.58
422.24	3131.64
422.43	3386.76
422.61	3243.98
422.80	3255.69
422.99	3194.83
423.18	3372.71
423.37	3276.75
423.56	3304.84
423.75	3290.79
423.94	3218.24
424.13	3052.06
424.32	3141.00
424.50	3358.67
424.69	3426.54
424.88	3442.93
425.07	3283.77
425.26	3276.75
425.45	3211.22
425.64	3335.26
425.83	3253.34
426.01	3400.80
426.20	3447.61
426.39	3335.26
426.58	3410.16
426.77	3332.92
426.96	3515.48
427.15	3424.20
427.33	3339.94
427.52	3356.33
427.71	3349.31
427.90	3421.86
428.09	3503.78
428.28	3478.04
428.46	3456.97
428.65	3496.76
428.84	3492.08
429.03	3517.83
429.22	3391.44
429.40	3534.21
429.59	3379.73
429.78	3208.87
429.97	3234.62
430.16	3290.79
430.34	3382.07
430.53	3574.00
430.72	3426.54
430.91	3318.88
431.10	3379.73
431.28	3571.66
431.47	3508.46
431.66	3611.45
431.85	3681.66
432.03	3674.64
432.22	3695.71
432.41	3761.24
432.60	3707.41
432.79	3669.96
432.97	3911.04
433.16	3871.25
433.35	3791.67
433.54	3735.50
433.72	3737.84
433.91	3831.46
434.10	3934.44
434.28	3927.42
434.47	4215.30
434.66	4011.68
434.85	4145.09
435.03	4187.22
435.22	4404.89
435.41	4629.58
435.59	4437.66
435.78	4189.56
435.97	4229.35
436.16	4227.01
436.34	4255.09
436.53	4222.33
436.72	4381.48
436.90	4430.63
437.09	4322.97
437.28	4339.35
437.46	4421.27
437.65	4517.23
437.84	4418.93
438.02	4425.95
438.21	4561.70
438.40	4484.47
438.58	4545.32
438.77	4535.96
438.96	4622.56
439.14	4774.69
439.33	4702.14
439.52	4856.61
439.70	4814.48
439.89	4849.59
440.08	4795.76
440.26	4905.76
440.45	4863.63
440.63	5018.11
440.82	4947.89
441.01	5048.54
441.19	5043.85
441.38	5195.99
441.57	5020.45
441.75	5247.48
441.94	5338.76
442.12	5280.25
442.31	5434.72
442.50	5327.06
442.68	5219.39
442.87	5371.53
443.05	5350.46
443.24	5465.15
443.43	5488.56
443.61	5558.77
443.80	5636.01
443.98	5514.30
444.17	5177.26
444.35	5673.46
444.54	5703.89
444.73	5724.95
444.91	5612.60
445.10	5605.58
445.28	5537.71
445.47	5516.64
445.65	5568.13
445.84	5554.09
446.02	5823.25
446.21	5643.03
446.39	5668.78
446.58	5493.24
446.77	5593.88
446.95	5570.48
447.14	5554.09
447.32	5895.81
447.51	5549.41
447.69	5582.18
447.88	5549.41
448.06	5671.12
448.25	5549.41
448.43	5488.56
448.62	5586.86
448.80	5823.25
448.99	5776.44
449.17	5755.38
449.36	5778.78
449.54	5722.61
449.73	5973.05
449.91	5959.00
450.10	5963.68
450.28	6029.22
450.46	5949.64
450.65	6071.35
450.83	6033.90
451.02	5832.62
451.20	6059.65
451.39	6061.99
451.57	6120.50
451.76	6134.54
451.94	6087.73
452.13	6230.51
452.31	6286.68
452.49	5954.32
452.68	6080.71
452.86	6033.90
453.05	6195.40
453.23	6071.35
453.42	6094.76
453.60	6242.21
453.78	6267.95
453.97	6153.27
454.15	6277.32
454.34	6157.95
454.52	6176.67
454.70	6345.19
454.89	6408.39
455.07	6506.69
455.26	6359.24
455.44	6347.53
455.62	6361.58
455.81	6459.88
455.99	6532.44
456.17	6530.09
456.36	6619.04
456.54	6586.27
456.73	6715.00
456.91	6707.98
457.09	6649.46
457.28	6794.58
457.46	6738.40
457.64	6773.51
457.83	6583.93
458.01	6525.41
458.19	6899.90
458.38	6780.53
458.56	6871.81
458.74	6600.31
458.93	6604.99
459.11	6869.47
459.29	6700.95
459.48	6897.56
459.66	6740.74
459.84	7166.72
460.03	6974.80
460.21	6923.30
460.39	6977.14
460.57	7066.08
460.76	7037.99
460.94	7077.78
461.12	7155.02
461.31	7173.74
461.49	7199.49
461.67	7157.36
461.85	7433.54
462.04	7220.55
462.22	7356.30
462.40	7265.02
462.59	7295.45
462.77	7346.94
462.95	7447.58
463.13	7386.73
463.32	7557.59
463.50	7412.48
463.68	7517.80
463.86	7545.89
464.05	7384.39
464.23	7414.82
464.41	7466.31
464.59	7447.58
464.78	7716.75
464.96	7599.72
465.14	7688.66
465.32	7573.97
465.50	7676.96
465.69	7700.36
465.87	7543.55
466.05	7801.01
466.23	7733.13
466.41	7667.60
466.60	7918.03
466.78	7630.15
466.96	7805.69
467.14	7742.49
467.32	7822.07
467.51	7808.03
467.69	7709.72
467.87	7819.73
468.05	7824.41
468.23	7728.45
468.41	7901.65
468.60	7911.01
468.78	8006.97
468.96	8112.30
469.14	8002.29
469.32	8032.72
469.50	7866.54
469.69	8105.28
469.87	7920.37
470.05	8208.26
470.23	8194.22
470.41	8070.17
470.59	8297.20
470.77	8198.90
470.95	8163.79
471.14	8224.64
471.32	8081.87
471.50	8470.40
471.68	8351.03
471.86	8318.26
472.04	8271.45
472.22	8575.72
472.40	8444.65
472.58	8615.51
472.77	8451.67
472.95	8542.96
473.13	8898.72
473.31	8617.85
473.49	8549.98
473.67	8688.07
473.85	8664.66
474.03	8720.84
474.21	8798.07
474.39	8917.44
474.57	8982.98
474.75	9025.11
474.93	9170.22
475.12	9139.79
475.30	9043.83
475.48	9242.78
475.66	9385.55
475.84	9224.05
476.02	9238.09
476.20	9338.74
476.38	9488.53
476.56	9881.74
476.74	9841.95
476.92	9741.31
477.10	9703.86
477.28	9909.83
477.46	9874.72
477.64	9944.94
477.82	10115.80
478.00	10504.32
478.18	10399.00
478.36	10312.40
478.54	10382.62
478.72	10476.24
478.90	10595.61
479.08	10782.85
479.26	10808.59
479.44	10839.02
479.62	11075.42
479.80	10963.07
479.98	11297.77
480.16	11541.18
480.34	11449.90
480.52	11536.50
480.70	11384.37
480.88	11557.57
481.06	11864.18
481.24	11686.29
481.41	12142.70
481.59	12278.45
481.77	12339.30
481.95	12292.49
482.13	12315.90
482.31	12748.90
482.49	12769.96
482.67	12929.12
482.85	12905.71
483.03	13067.21
483.21	13142.11
483.39	13472.12
483.57	13324.67
483.74	13413.61
483.92	13867.67
484.10	13799.80
484.28	14129.81
484.46	14171.94
484.64	14331.10
484.82	14443.45
485.00	14539.41
485.18	14853.04
485.35	14874.10
485.53	14757.08
485.71	14864.74
485.89	15297.74
486.07	15297.74
486.25	15314.13
486.43	15559.88
486.61	15604.35
486.78	15793.94
486.96	15744.78
487.14	16212.89
487.32	16285.45
487.50	16222.25
487.68	16404.81
487.85	16566.31
488.03	16805.05
488.21	16795.68
488.39	17114.00
488.57	17057.82
488.75	17198.26
488.92	17642.96
489.10	17589.13
489.28	17434.65
489.46	17301.24
489.64	17706.15
489.81	18097.02
489.99	18153.20
490.17	18230.43
490.35	18314.69
490.53	18532.36
490.70	18876.42
490.88	18457.46
491.06	19138.56
491.24	18925.57
491.41	19168.99
491.59	19094.09
491.77	19183.03
491.95	19101.11
492.13	19250.91
492.30	19358.57
492.48	19962.43
492.66	19976.47
492.84	19967.11
493.01	20255.00
493.19	20189.46
493.37	20128.61
493.54	20219.89
493.72	20425.86
493.90	20386.07
494.08	20802.68
494.25	20886.94
494.43	21036.74
494.61	20884.60
494.79	20844.81
494.96	21200.57
495.14	21238.02
495.32	21624.21
495.49	21163.12
495.67	21584.42
495.85	21142.06
496.02	21638.25
496.20	21979.97
496.38	21860.60
496.55	21809.11
496.73	22204.66
496.91	22073.59
497.09	22267.86
497.26	22331.05
497.44	22443.40
497.62	22478.50
497.79	22705.54
497.97	22530.00
498.14	22593.19
498.32	22897.46
498.50	22972.36
498.67	22939.59
498.85	23480.25
499.03	23421.74
499.20	23461.53
499.38	23520.04
499.56	23021.51
499.73	23293.01
499.91	23419.40
500.08	23477.91
500.26	23545.79
500.44	23672.18
500.61	23740.05
500.79	23665.16
500.97	23449.83
501.14	23700.26
501.32	23999.85
501.49	23892.19
501.67	24173.05
501.84	24210.50
502.02	24173.05
502.20	24074.75
502.37	24273.70
502.55	24128.58
502.72	24435.19
502.90	24177.73
503.07	24107.52
503.25	24554.56
503.43	24084.11
503.60	24587.33
503.78	24416.47
503.95	24552.22
504.13	24716.06
504.30	24638.82
504.48	24645.84
504.65	24739.46
504.83	24900.96
505.01	24727.76
505.18	24629.46
505.36	24830.74
505.53	24922.02
505.71	25088.20
505.88	25025.01
506.06	24732.44
506.23	24966.49
506.41	24915.00
506.58	25008.62
506.76	25055.43
506.93	24957.13
507.11	25083.52
507.28	25010.96
507.46	24807.34
507.63	24877.55
507.81	25156.08
507.98	24812.02
508.16	24854.15
508.33	25352.68
508.50	25006.28
508.68	25390.13
508.85	25207.57
509.03	24589.67
509.20	24652.86
509.38	24882.24
509.55	25097.56
509.73	24702.01
509.90	24573.28
510.08	24680.95
510.25	24917.34
510.42	24460.94
510.60	24201.14
510.77	23992.83
510.95	24879.89
511.12	24332.21
511.30	24067.73
511.47	24250.29
511.64	24191.78
511.82	23901.55
511.99	23854.74
512.17	24053.69
512.34	24032.62
512.51	24229.23
512.69	24400.08
512.86	23873.46
513.04	24254.97
513.21	24215.18
513.38	23913.25
513.56	24257.31
513.73	24018.58
513.90	24367.32
514.08	24900.96
514.25	24800.32
514.43	24893.94
514.60	24552.22
514.77	24751.17
514.95	25050.75
515.12	25202.89
515.29	25324.60
515.47	25970.58
515.64	25790.36
515.81	25490.77
515.99	25949.52
516.16	25741.21
516.33	25825.47
516.51	26153.15
516.68	26132.08
516.85	26277.19
517.03	26415.29
517.20	26614.23
517.37	26768.71
517.54	26857.65
517.72	26532.31
517.89	26740.62
518.06	27014.46
518.24	27047.23
518.41	27311.71
518.58	27405.33
518.75	26845.94
518.93	27197.02
519.10	27545.76
519.27	27463.85
519.45	27550.45
519.62	28016.21
519.79	27604.28
519.96	27800.88
520.14	28084.09
520.31	27459.16
520.48	27480.23
520.65	27545.76
520.83	27733.01
521.00	27695.56
521.17	27742.37
521.34	27934.29
521.52	27592.58
521.69	27559.81
521.86	27002.76
522.03	27281.28
522.20	26984.04
522.38	26728.92
522.55	26513.59
522.72	26405.92
522.89	26221.02
523.07	26033.78
523.24	25610.14
523.41	25778.66
523.58	25383.11
523.75	25715.47
523.92	25310.55
524.10	25558.65
524.27	25092.88
524.44	25006.28
524.61	25324.60
524.78	25062.46
524.96	25039.05
525.13	24786.27
525.30	25223.95
525.47	25331.62
525.64	25111.61
525.81	25259.06
525.98	24795.64
526.16	24915.00
526.33	24931.39
526.50	25209.91
526.67	24879.89
526.84	25088.20
527.01	24671.59
527.18	25331.62
527.36	25022.67
527.53	24842.45
527.70	25111.61
527.87	25055.43
528.04	24954.79
528.21	25106.93
528.38	24814.36
528.55	24858.83
528.72	24706.70
528.89	25043.73
529.07	24891.60
529.24	24730.10
529.41	25055.43
529.58	25046.07
529.75	25120.97
529.92	25085.86
530.09	25458.01
530.26	25380.77
530.43	25425.24
530.60	25628.87
530.77	25909.73
530.94	26118.04
531.11	25823.13
531.28	26082.93
531.46	26520.61
531.63	26068.89
531.80	26438.69
531.97	26370.82
532.14	26916.16
532.31	26600.19
532.48	27164.26
532.65	27541.08
532.82	27349.16
532.99	27491.93
533.16	27669.81
533.33	27957.70
533.50	28013.87
533.67	28559.22
533.84	28591.98
534.01	29151.37
534.18	29228.61
534.35	29530.54
534.52	29614.80
534.69	30052.48
534.86	30546.33
535.03	30752.30
535.20	30876.35
535.37	31185.30
535.54	31466.16
535.71	31442.76
535.88	31915.54
536.05	32130.87
536.22	32371.95
536.38	32418.76
536.55	32858.78
536.72	33001.55
536.89	33362.00
537.06	33638.18
537.23	34052.45
537.40	34054.79
537.57	34382.47
537.74	34429.28
537.91	34983.99
538.08	34951.22
538.25	34848.24
538.42	35407.62
538.59	35985.74
538.75	35772.75
538.92	36114.47
539.09	36304.05
539.26	36252.56
539.43	36046.59
539.60	36493.63
539.77	36650.45
539.94	36952.38
540.11	37427.51
540.28	37930.72
540.44	37666.24
540.61	38249.03
540.78	38085.20
540.95	37680.28
541.12	38562.67
541.29	38492.45
541.46	38902.04
541.62	38813.10
541.79	39335.04
541.96	39140.78
542.13	39512.92
542.30	39461.43
542.47	39793.79
542.63	39718.89
542.80	40233.81
542.97	40198.70
543.14	40477.22
543.31	40360.20
543.48	40538.08
543.64	41017.89
543.81	41017.89
543.98	41228.54
544.15	41050.66
544.32	41078.74
544.48	41390.03
544.65	41165.34
544.82	41350.24
544.99	40622.34
545.16	41404.08
545.32	41734.09
545.49	42359.02
545.66	42602.43
545.83	42162.41
546.00	42494.77
546.16	42143.69
546.33	41935.38
546.50	42052.41
546.67	42344.97
546.83	41937.72
547.00	42045.38
547.17	42293.48
547.34	41876.86
547.50	41783.24
547.67	42724.14
547.84	42747.54
548.00	42576.69
548.17	43182.88
548.34	42925.42
548.51	42801.38
548.67	43049.47
548.84	42873.93
549.01	43051.81
549.18	42593.07
549.34	43019.05
549.51	42576.69
549.68	43489.49
549.84	43138.41
550.01	43274.16
550.18	43124.37
550.34	43468.43
550.51	43096.28
550.68	43533.96
550.84	42670.31
551.01	43384.17
551.18	43248.42
551.34	43505.88
551.51	43742.27
551.68	43880.36
551.84	43592.48
552.01	43732.91
552.18	43620.56
552.34	43510.56
552.51	43508.22
552.68	43318.64
552.84	44114.42
553.01	44041.86
553.18	44088.67
553.34	44163.57
553.51	43728.23
553.67	43976.33
553.84	44058.24
554.01	43753.97
554.17	44013.77
554.34	44142.50
554.51	44346.13
554.67	44102.71
554.84	44067.61
555.00	44280.60
555.17	44095.69
555.33	43943.56
555.50	44020.80
555.67	44474.86
555.83	44650.40
556.00	44044.20
556.16	44851.69
556.33	44112.08
556.50	44348.47
556.66	44664.44
556.83	44170.59
556.99	44435.07
557.16	44552.10
557.32	44435.07
557.49	44322.72
557.65	44395.28
557.82	44823.60
557.98	44341.45
558.15	44561.46
558.32	44584.86
558.48	44404.64
558.65	44191.65
558.81	44645.72
558.98	44423.37
559.14	44652.74
559.31	44566.14
559.47	44671.46
559.64	44643.38
559.80	44477.20
559.97	44580.18
560.13	43861.64
560.30	44383.58
560.46	44023.14
560.63	44465.50
560.79	44493.58
560.96	44903.18
561.12	44582.52
561.29	44531.03
561.45	44376.56
561.61	44301.66
561.78	44091.01
561.94	44224.42
562.11	44252.51
562.27	44048.88
562.44	44018.46
562.60	44254.85
562.77	44268.89
562.93	43384.17
563.10	43955.26
563.26	43489.49
563.42	43999.73
563.59	43597.16
563.75	43253.10
563.92	43440.34
564.08	43398.21
564.24	43180.54
564.41	43079.90
564.57	42621.16
564.74	42852.87
564.90	42682.01
565.07	42574.34
565.23	41916.65
565.39	41844.10
565.56	41060.02
565.72	41251.94
565.88	40701.92
566.05	40608.29
566.21	40245.51
566.38	39978.69
566.54	39613.57
566.70	39147.80
566.87	38476.07
567.03	38033.71
567.19	37486.02
567.36	36989.83
567.52	35906.16
567.68	35906.16
567.85	35047.18
568.01	34050.11
568.17	32891.55
568.34	32418.76
568.50	31281.26
568.66	30426.96
568.83	29195.84
568.99	28701.99
569.15	27391.29
569.32	26693.81
569.48	25649.93
569.64	24847.13
569.81	23838.36
569.97	22937.25
570.13	21855.92
570.30	20931.41
570.46	19981.15
570.62	19517.73
570.78	18904.51
570.95	17996.38
571.11	17860.63
571.27	17099.95
571.43	16533.54
571.60	16341.62
571.76	16025.65
571.92	15826.70
572.09	15438.17
572.25	15227.53
572.41	15101.14
572.57	15087.09
572.74	14822.61
572.90	14792.19
573.06	14644.73
573.22	14949.00
573.38	14937.30
573.55	14626.01
573.71	14841.34
573.87	14850.70
574.03	14700.90
574.20	14733.67
574.36	14909.21
574.52	15176.03
574.68	14974.75
574.84	14965.39
575.01	15314.13
575.17	15087.09
575.33	15293.06
575.49	15094.11
575.65	14932.62
575.82	15178.37
575.98	15119.86
576.14	15227.53
576.30	15445.20
576.46	15374.98
576.62	15414.77
576.79	15714.36
576.95	15704.99
577.11	15580.95
577.27	15555.20
577.43	15529.45
577.59	15562.22
577.75	15770.53
577.92	15995.22
578.08	16212.89
578.24	16112.25
578.40	16245.66
578.56	16521.84
578.72	16578.01
578.88	16901.01
579.04	16446.94
579.21	16453.97
579.37	16666.95
579.53	16776.96
579.69	16458.65
579.85	16526.52
580.01	16681.00
580.17	16519.50
580.33	16304.17
580.49	16451.63
580.65	16074.80
580.82	15887.56
580.98	15714.36
581.14	15410.09
581.30	15309.44
581.46	14930.28
581.62	14600.26
581.78	14417.70
581.94	13994.06
582.10	13413.61
582.26	13240.41
582.42	13046.15
582.58	12725.49
582.74	12418.88
582.90	11922.69
583.06	11859.49
583.22	11522.46
583.38	11169.04
583.54	11136.27
583.70	11033.29
583.86	10757.10
584.02	10682.20
584.18	10448.15
584.34	10312.40
584.50	10373.25
584.66	10015.15
584.82	9998.77
584.98	9865.36
585.14	9973.02
585.30	10143.88
585.46	10263.25
585.62	10265.59
585.78	10249.21
585.94	10277.29
586.10	10473.90
586.26	10597.95
586.42	10932.64
586.58	10860.09
586.74	10995.84
586.90	11288.40
587.06	11470.97
587.22	11522.46
587.38	11850.13
587.54	12016.31
587.70	12020.99
587.86	12348.67
588.02	12404.84
588.18	12690.38
588.34	12713.79
588.49	12915.08
588.65	13556.38
588.81	13341.05
588.97	13858.31
589.13	13958.96
589.29	14347.48
589.45	14438.76
589.61	14633.03
589.77	14904.53
589.93	14775.80
590.08	15169.01
590.24	15269.66
590.40	15538.82
590.56	15625.42
