SpectraSuite Data File
++++++++++++++++++++++++++++++++++++
Date: Mon Sep 30 18:11:44 GMT-05:00 2013
User: stostad
Dark Spectrum Present: No
Reference Spectrum Present: No
Number of Sampled Component Spectra: 1
Spectrometers: USB2+H05261
Integration Time (usec): 100000 (USB2+H05261)
Spectra Averaged: 1 (USB2+H05261)
Boxcar Smoothing: 0 (USB2+H05261)
Correct for Electrical Dark: No (USB2+H05261)
Strobe/Lamp Enabled: No (USB2+H05261)
Correct for Detector Non-linearity: No (USB2+H05261)
Correct for Stray Light: No (USB2+H05261)
Number of Pixels in Processed Spectrum: 2048
>>>>>Begin Processed Spectral Data<<<<<
365.73	163.84
365.92	163.84
366.12	163.84
366.32	60.85
366.52	70.22
366.72	25.75
366.91	21.06
367.11	4.68
367.31	35.11
367.51	30.43
367.70	42.13
367.90	37.45
368.10	39.79
368.30	0.00
368.49	35.11
368.69	58.51
368.89	0.00
369.09	11.70
369.28	46.81
369.48	46.81
369.68	84.26
369.87	70.22
370.07	0.00
370.27	77.24
370.47	131.07
370.66	313.63
370.86	416.62
371.06	435.34
371.25	430.66
371.45	325.33
371.65	425.98
371.84	376.83
372.04	437.68
372.24	442.36
372.44	418.96
372.63	491.51
372.83	477.47
373.03	433.00
373.22	521.94
373.42	395.55
373.62	454.06
373.81	498.53
374.01	596.84
374.21	484.49
374.40	575.77
374.60	531.30
374.79	571.09
374.99	552.37
375.19	568.75
375.38	484.49
375.58	559.39
375.78	547.69
375.97	545.34
376.17	566.41
376.37	545.34
376.56	589.82
376.76	613.22
376.95	533.64
377.15	667.05
377.35	599.18
377.54	580.45
377.74	568.75
377.93	636.63
378.13	638.97
378.33	624.92
378.52	543.00
378.72	650.67
378.91	608.54
379.11	561.73
379.31	669.39
379.50	634.29
379.70	608.54
379.89	582.79
380.09	653.01
380.28	589.82
380.48	585.13
380.68	676.41
380.87	557.05
381.07	716.20
381.26	641.31
381.46	723.23
381.65	653.01
381.85	662.37
382.04	748.97
382.24	706.84
382.43	741.95
382.63	653.01
382.83	704.50
383.02	725.57
383.22	737.27
383.41	730.25
383.61	760.67
383.80	697.48
384.00	709.18
384.19	702.16
384.39	746.63
384.58	781.74
384.78	753.65
384.97	830.89
385.17	772.38
385.36	791.10
385.56	727.91
385.75	720.88
385.95	788.76
386.14	826.21
386.34	732.59
386.53	819.19
386.72	744.29
386.92	755.99
387.11	767.70
387.31	870.68
387.50	814.51
387.70	774.72
387.89	835.57
388.09	840.25
388.28	959.62
388.48	826.21
388.67	828.55
388.86	844.93
389.06	882.38
389.25	933.87
389.45	898.77
389.64	889.40
389.84	950.26
390.03	809.83
390.22	884.72
390.42	940.90
390.61	898.77
390.81	912.81
391.00	966.64
391.19	994.73
391.39	959.62
391.58	931.53
391.78	905.79
391.97	1027.50
392.16	1025.15
392.36	1090.69
392.55	940.90
392.75	1111.75
392.94	1071.97
393.13	1081.33
393.33	1011.11
393.52	1034.52
393.71	1046.22
393.91	1046.22
394.10	1093.03
394.29	1090.69
394.49	1071.97
394.68	1029.84
394.88	1081.33
395.07	1142.18
395.26	1149.20
395.46	1224.10
395.65	1207.72
395.84	1207.72
396.04	1217.08
396.23	1266.23
396.42	1233.46
396.62	1207.72
396.81	1238.14
397.00	1188.99
397.19	1249.85
397.39	1210.06
397.58	1310.70
397.77	1238.14
397.97	1315.38
398.16	1203.04
398.35	1434.75
398.55	1338.79
398.74	1336.45
398.93	1371.55
399.12	1343.47
399.32	1317.72
399.51	1373.89
399.70	1352.83
399.90	1383.26
400.09	1336.45
400.28	1455.81
400.47	1233.46
400.67	1409.00
400.86	1533.05
401.05	1460.49
401.24	1500.28
401.44	1455.81
401.63	1570.50
401.82	1519.01
402.01	1465.18
402.21	1486.24
402.40	1519.01
402.59	1551.78
402.78	1488.58
402.97	1554.12
403.17	1605.61
403.36	1603.27
403.55	1657.10
403.74	1612.63
403.93	1666.46
404.13	1643.06
404.32	1739.02
404.51	1659.44
404.70	1624.33
404.89	1666.46
405.09	1872.43
405.28	1757.74
405.47	1842.00
405.66	1891.15
405.85	1923.92
406.05	1708.59
406.24	1816.26
406.43	1825.62
406.62	1884.13
406.81	1977.75
407.00	1863.07
407.20	1774.13
407.39	2019.88
407.58	1968.39
407.77	2045.63
407.96	2036.27
408.15	1991.80
408.34	2047.97
408.54	2052.65
408.73	2001.16
408.92	2057.33
409.11	2179.04
409.30	1982.43
409.49	2085.42
409.68	2099.46
409.87	2136.91
410.07	2186.06
410.26	2176.70
410.45	2225.85
410.64	2272.66
410.83	2176.70
411.02	2209.47
411.21	2228.19
411.40	2188.40
411.59	2347.56
411.78	2300.75
411.98	2389.69
412.17	2223.51
412.36	2298.41
412.55	2457.56
412.74	2487.99
412.93	2464.58
413.12	2422.45
413.31	2581.61
413.50	2640.12
413.69	2588.63
413.88	2647.15
414.07	2626.08
414.26	2651.83
414.45	2710.34
414.64	2670.55
414.83	2848.43
415.02	2743.11
415.22	2822.69
415.41	3002.91
415.60	2764.17
415.79	2888.22
415.98	2888.22
416.17	3045.04
416.36	3059.08
416.55	2850.77
416.74	3054.40
416.93	3033.33
417.12	3059.08
417.31	3122.27
417.50	2913.97
417.69	3204.19
417.88	3176.11
418.07	3082.49
418.26	3201.85
418.45	3176.11
418.64	3321.22
418.83	3265.05
419.02	3255.69
419.21	3349.31
419.39	3290.79
419.58	3272.07
419.77	3349.31
419.96	3407.82
420.15	3433.57
420.34	3386.76
420.53	3325.90
420.72	3583.36
420.91	3412.50
421.10	3496.76
421.29	3585.70
421.48	3365.69
421.67	3515.48
421.86	3454.63
422.05	3456.97
422.24	3637.19
422.43	3485.06
422.61	3644.21
422.80	3538.89
422.99	3496.76
423.18	3655.92
423.37	3599.74
423.56	3634.85
423.75	3723.79
423.94	3765.92
424.13	3466.33
424.32	3581.02
424.50	3754.22
424.69	3789.33
424.88	3740.18
425.07	3688.68
425.26	3576.34
425.45	3641.87
425.64	3756.56
425.83	3620.81
426.01	3644.21
426.20	3737.84
426.39	3812.73
426.58	3623.15
426.77	3646.55
426.96	3733.15
427.15	4021.04
427.33	3810.39
427.52	3889.97
427.71	3899.33
427.90	3885.29
428.09	3812.73
428.28	3927.42
428.46	3976.57
428.65	3889.97
428.84	3925.08
429.03	3939.12
429.22	3779.97
429.40	3847.84
429.59	3850.18
429.78	3850.18
429.97	3679.32
430.16	3667.62
430.34	3791.67
430.53	3684.00
430.72	3810.39
430.91	3775.28
431.10	3950.82
431.28	3978.91
431.47	3918.06
431.66	3934.44
431.85	3948.48
432.03	3939.12
432.22	4262.12
432.41	4241.05
432.60	4161.47
432.79	4154.45
432.97	4086.58
433.16	4299.56
433.35	4311.27
433.54	4341.69
433.72	4287.86
433.91	4318.29
434.10	4435.32
434.28	4351.06
434.47	4383.82
434.66	4306.59
434.85	4547.66
435.03	4711.50
435.22	4723.20
435.41	4954.91
435.59	4915.12
435.78	4837.89
435.97	4718.52
436.16	4737.24
436.34	4664.69
436.53	4809.80
436.72	4837.89
436.90	4741.93
437.09	4720.86
437.28	4788.74
437.46	4837.89
437.65	5001.72
437.84	5107.05
438.02	4980.66
438.21	5039.17
438.40	4999.38
438.58	5116.41
438.77	5132.79
438.96	5095.35
439.14	5256.84
439.33	5369.19
439.52	5315.36
439.70	5441.75
439.89	5383.23
440.08	5397.28
440.26	5547.07
440.45	5600.90
440.63	5600.90
440.82	5659.42
441.01	5682.82
441.19	5724.95
441.38	5942.62
441.57	5863.04
441.75	5905.17
441.94	5846.66
442.12	6026.88
442.31	5959.00
442.50	6071.35
442.68	5982.41
442.87	6106.46
443.05	5996.45
443.24	6043.26
443.43	6054.97
443.61	6029.22
443.80	6338.17
443.98	5879.43
444.17	5937.94
444.35	6064.33
444.54	6225.82
444.73	6377.96
444.91	6251.57
445.10	6094.76
445.28	6183.70
445.47	6181.35
445.65	6045.60
445.84	6141.57
446.02	6085.39
446.21	6267.95
446.39	6244.55
446.58	6289.02
446.77	6359.24
446.95	6183.70
447.14	6221.14
447.32	6473.92
447.51	6455.20
447.69	6157.95
447.88	6340.51
448.06	6293.70
448.25	6492.65
448.43	6476.26
448.62	6296.04
448.80	6546.48
448.99	6370.94
449.17	6399.02
449.36	6279.66
449.54	6541.80
449.73	6548.82
449.91	6640.10
450.10	6579.25
450.28	6642.44
450.46	6516.05
450.65	6668.19
450.83	6619.04
451.02	6703.29
451.20	6705.63
451.39	6710.32
451.57	6715.00
451.76	6698.61
451.94	6707.98
452.13	6792.23
452.31	6736.06
452.49	6792.23
452.68	6717.34
452.86	6911.60
453.05	7040.33
453.23	6977.14
453.42	6848.41
453.60	6972.46
453.78	7021.61
453.97	6836.70
454.15	6927.99
454.34	6913.94
454.52	7007.56
454.70	7094.16
454.89	6951.39
455.07	6991.18
455.26	7187.79
455.44	7190.13
455.62	7063.74
455.81	7262.68
455.99	7204.17
456.17	7192.47
456.36	7297.79
456.54	7332.90
456.73	7400.77
456.91	7522.48
457.09	7468.65
457.28	7524.82
457.46	7398.43
457.64	7503.76
457.83	7548.23
458.01	7562.27
458.19	7442.90
458.38	7449.93
458.56	7779.94
458.74	7749.51
458.93	7510.78
459.11	7705.04
459.29	7672.28
459.48	7639.51
459.66	7627.81
459.84	7709.72
460.03	7995.27
460.21	7740.15
460.39	7829.09
460.57	7786.96
460.76	7892.29
460.94	7953.14
461.12	7850.16
461.31	8028.04
461.49	8039.74
461.67	7995.27
461.85	8163.79
462.04	8058.46
462.22	8180.17
462.40	8238.69
462.59	8294.86
462.77	8203.58
462.95	8203.58
463.13	8184.85
463.32	8430.61
463.50	8372.10
463.68	8468.06
463.86	8498.49
464.05	8465.72
464.23	8372.10
464.41	8402.52
464.59	8215.28
464.78	8355.71
464.96	8411.89
465.14	8425.93
465.32	8540.61
465.50	8769.99
465.69	8627.21
465.87	8650.62
466.05	8606.15
466.23	8601.47
466.41	8641.26
466.60	8816.80
466.78	8737.22
466.96	8699.77
467.14	8472.74
467.32	8655.30
467.51	8938.51
467.69	8587.43
467.87	8706.79
468.05	8688.07
468.23	8861.27
468.41	8723.18
468.60	8837.86
468.78	8919.78
468.96	8879.99
469.14	8891.70
469.32	8987.66
469.50	8966.59
469.69	9085.96
469.87	9060.21
470.05	9254.48
470.23	9069.58
470.41	8879.99
470.59	9266.18
470.77	9095.32
470.95	9207.67
471.14	9123.41
471.32	9186.60
471.50	9366.82
471.68	9102.34
471.86	9479.17
472.04	9320.01
472.22	9533.00
472.40	9121.07
472.58	9458.10
472.77	9481.51
472.95	9472.15
473.13	9811.53
473.31	9427.68
473.49	9664.07
473.67	9525.98
473.85	9565.77
474.03	9947.28
474.21	9851.31
474.39	9944.94
474.57	9996.43
474.75	10125.16
474.93	10267.93
475.12	10228.14
475.30	10548.79
475.48	10506.66
475.66	10471.56
475.84	10391.98
476.02	10647.10
476.20	10490.28
476.38	10558.16
476.56	10899.87
476.74	11131.59
476.92	10892.85
477.10	10757.10
477.28	11166.70
477.46	10960.73
477.64	11337.56
477.82	11384.37
478.00	11676.93
478.18	11534.16
478.36	11749.49
478.54	11648.85
478.72	11812.68
478.90	12023.33
479.08	12056.10
479.26	12327.60
479.44	12229.30
479.62	12594.42
479.80	12556.97
479.98	12659.96
480.16	12755.92
480.34	12758.26
480.52	13011.04
480.70	13055.51
480.88	13146.79
481.06	13235.73
481.24	13476.80
481.41	13472.12
481.59	13650.00
481.77	13944.91
481.95	13717.88
482.13	14104.07
482.31	14059.60
482.49	14281.95
482.67	14466.85
482.85	14560.47
483.03	14813.25
483.21	14974.75
483.39	15517.75
483.57	15281.36
483.74	15358.60
483.92	15669.89
484.10	15255.61
484.28	15840.75
484.46	15630.10
484.64	16163.74
484.82	16025.65
485.00	16177.78
485.18	16788.66
485.35	16709.08
485.53	16863.56
485.71	16662.27
485.89	17268.47
486.07	17137.40
486.25	17252.09
486.43	17708.49
486.61	17696.79
486.78	17867.65
486.96	17776.37
487.14	17820.84
487.32	18335.76
487.50	18317.03
487.68	18590.88
487.85	18373.21
488.03	18986.43
488.21	19187.71
488.39	19009.83
488.57	19140.90
488.75	19419.42
488.92	19831.36
489.10	19901.58
489.28	19578.58
489.46	19995.20
489.64	20098.18
489.81	20311.17
489.99	20458.62
490.17	21041.42
490.35	20994.61
490.53	20917.37
490.70	21109.29
490.88	21048.44
491.06	21336.32
491.24	21509.52
491.41	21664.00
491.59	21563.36
491.77	21642.93
491.95	21825.50
492.13	22094.66
492.30	22071.25
492.48	22438.72
492.66	22370.84
492.84	22558.08
493.01	22239.77
493.19	22625.96
493.37	22916.19
493.54	22775.75
493.72	23166.62
493.90	23260.24
494.08	23321.10
494.25	23761.12
494.43	23580.90
494.61	23536.43
494.79	23438.12
494.96	23709.63
495.14	23807.93
495.32	24065.39
495.49	24247.95
495.67	24400.08
495.85	24556.90
496.02	24439.87
496.20	24355.61
496.38	24486.68
496.55	24840.11
496.73	25401.83
496.91	25158.42
497.09	25338.64
497.26	25420.56
497.44	25149.06
497.62	25235.66
497.79	25511.84
497.97	25654.61
498.14	25652.27
498.32	25427.58
498.50	25722.49
498.67	25710.78
498.85	25825.47
499.03	26611.89
499.20	26033.78
499.38	26331.03
499.56	26424.65
499.73	25909.73
499.91	26441.03
500.08	26689.13
500.26	26295.92
500.44	26719.56
500.61	26871.69
500.79	26909.14
500.97	26972.33
501.14	26951.27
501.32	26771.05
501.49	27145.53
501.67	27297.67
501.84	27281.28
502.02	27349.16
502.20	27325.75
502.37	27185.32
502.55	27344.48
502.72	27358.52
502.90	27522.36
503.07	27335.12
503.25	27662.79
503.43	27417.04
503.60	27639.39
503.78	27662.79
503.95	27391.29
504.13	27461.51
504.30	27737.69
504.48	27737.69
504.65	28058.34
504.83	28264.31
505.01	28374.31
505.18	28023.23
505.36	28266.65
505.53	28095.79
505.71	28460.91
505.88	28283.03
506.06	27901.53
506.23	28374.31
506.41	27864.08
506.58	28264.31
506.76	28252.61
506.93	28240.90
507.11	28114.52
507.28	28584.96
507.46	28290.06
507.63	28011.53
507.81	28423.47
507.98	27810.25
508.16	28442.19
508.33	28044.30
508.50	28402.40
508.68	28217.50
508.85	28496.02
509.03	27978.76
509.20	27946.00
509.38	27960.04
509.55	28212.82
509.73	28215.16
509.90	27835.99
510.08	27819.61
510.25	27587.89
510.42	27372.57
510.60	27482.57
510.77	27704.92
510.95	27501.29
511.12	27608.96
511.30	27442.78
511.47	27218.09
511.64	26920.84
511.82	27562.15
511.99	27072.98
512.17	27182.98
512.34	27084.68
512.51	27452.14
512.69	27510.66
512.86	27367.88
513.04	27601.94
513.21	27316.39
513.38	27304.69
513.56	27555.13
513.73	27126.81
513.90	27931.95
514.08	28020.89
514.25	28348.57
514.43	27871.10
514.60	27812.59
514.77	27747.05
514.95	28552.20
515.12	28470.28
515.29	28465.60
515.47	28952.43
515.64	29041.37
515.81	29081.16
515.99	28980.51
516.16	29362.02
516.33	29443.94
516.51	29783.32
516.68	29738.85
516.85	29872.26
517.03	30188.23
517.20	29982.26
517.37	29975.24
517.54	30160.14
517.72	30513.56
517.89	30225.68
518.06	30651.66
518.24	30242.06
518.41	30829.54
518.58	30827.20
518.75	30845.92
518.93	30838.90
519.10	31314.03
519.27	31101.04
519.45	31035.50
519.62	31405.31
519.79	31246.15
519.96	31662.77
520.14	31545.74
520.31	31152.53
520.48	31285.94
520.65	31325.73
520.83	31386.58
521.00	31517.65
521.17	31477.86
521.34	31344.45
521.52	31276.58
521.69	30534.63
521.86	30941.88
522.03	30377.81
522.20	30551.01
522.38	30436.33
522.55	30260.79
522.72	30052.48
522.89	29853.53
523.07	29914.39
523.24	29081.16
523.41	29240.31
523.58	28697.31
523.75	29036.69
523.92	28727.74
524.10	28835.40
524.27	28575.60
524.44	28580.28
524.61	28240.90
524.78	28407.08
524.96	28500.70
525.13	28350.91
525.30	28428.15
525.47	28751.14
525.64	28720.71
525.81	28655.18
525.98	28519.43
526.16	28374.31
526.33	28254.95
526.50	28570.92
526.67	28276.01
526.84	28362.61
527.01	28233.88
527.18	28409.42
527.36	28711.35
527.53	28191.75
527.70	28212.82
527.87	28182.39
528.04	28250.27
528.21	28503.04
528.38	28322.82
528.55	28147.28
528.72	28025.57
528.89	28268.99
529.07	28079.41
529.24	28266.65
529.41	28650.50
529.58	28421.13
529.75	28559.22
529.92	28987.53
530.09	28779.23
530.26	29041.37
530.43	29125.63
530.60	28856.46
530.77	29582.03
530.94	29439.26
531.11	29350.32
531.28	29514.16
531.46	29982.26
531.63	29788.00
531.80	29743.53
531.97	30462.07
532.14	30281.85
532.31	30981.67
532.48	30850.60
532.65	31075.29
532.82	31070.61
532.99	31665.11
533.16	31241.47
533.33	31861.71
533.50	32095.77
533.67	31887.46
533.84	31969.38
534.01	32608.34
534.18	33172.41
534.35	34085.22
534.52	33916.70
534.69	34195.23
534.86	34529.92
535.03	34405.88
535.20	35058.88
535.37	35215.70
535.54	35950.63
535.71	35842.96
535.88	36259.58
536.05	36514.70
536.22	36786.20
536.38	36961.74
536.55	36872.80
536.72	37258.99
536.89	37511.77
537.06	37586.66
537.23	38539.26
537.40	38417.55
537.57	38628.20
537.74	38607.14
537.91	39203.97
538.08	39428.66
538.25	39292.91
538.42	40027.84
538.59	40423.39
538.75	40332.11
538.92	40549.78
539.09	40886.82
539.26	41010.87
539.43	40854.05
539.60	41352.58
539.77	41411.10
539.94	41902.61
540.11	42260.71
540.28	42667.97
540.44	43091.60
540.61	42656.26
540.78	43072.88
540.95	43225.01
541.12	43140.75
541.29	43529.28
541.46	43526.94
541.62	43861.64
541.79	44205.70
541.96	44343.79
542.13	44271.23
542.30	44715.93
542.47	44919.56
542.63	44596.57
542.80	44577.84
542.97	45284.68
543.14	45390.01
543.31	45745.77
543.48	45546.82
543.64	46258.35
543.81	45841.73
543.98	46256.01
544.15	46419.84
544.32	45979.82
544.48	46576.66
544.65	46014.93
544.82	46227.92
544.99	46340.27
545.16	46862.21
545.32	46689.01
545.49	47276.48
545.66	47379.46
545.83	47049.45
546.00	47012.00
546.16	47157.11
546.33	47171.16
546.50	47065.83
546.67	47828.85
546.83	47208.61
547.00	47470.75
547.17	46941.78
547.34	47395.85
547.50	47650.97
547.67	47723.52
547.84	47838.21
548.00	47863.96
548.17	48247.80
548.34	48268.87
548.51	48116.73
548.67	48051.20
548.84	47922.47
549.01	47587.77
549.18	47906.08
549.34	48144.82
549.51	48292.27
549.68	48212.70
549.84	48519.31
550.01	48755.70
550.18	48739.32
550.34	48521.65
550.51	48076.94
550.68	48303.98
550.84	48378.87
551.01	48498.24
551.18	48371.85
551.34	48832.94
551.51	49001.46
551.68	48823.58
551.84	48706.55
552.01	48725.27
552.18	48823.58
552.34	48692.50
552.51	48954.64
552.68	48685.48
552.84	48999.12
553.01	49104.44
553.18	49277.64
553.34	49125.50
553.51	48540.37
553.67	48610.59
553.84	49366.58
554.01	49184.02
554.17	49153.59
554.34	49102.10
554.51	49507.01
554.67	49521.05
554.84	49312.75
555.00	49205.08
555.17	48996.77
555.33	49198.06
555.50	49050.61
555.67	49034.22
555.83	49177.00
556.00	49734.04
556.16	49911.92
556.33	49511.69
556.50	49682.55
556.66	49565.52
556.83	49357.22
556.99	49507.01
557.16	49453.18
557.32	49708.30
557.49	49797.24
557.65	49572.55
557.82	49801.92
557.98	49787.88
558.15	49996.18
558.32	49748.09
558.48	49191.04
558.65	49492.97
558.81	49485.95
558.98	49333.81
559.14	49591.27
559.31	49712.98
559.47	50059.38
559.64	50052.36
559.80	50038.31
559.97	49457.86
560.13	49420.41
560.30	49462.54
560.46	49588.93
560.63	49584.25
560.79	49853.41
560.96	50024.27
561.12	49392.33
561.29	49794.90
561.45	49509.35
561.61	49144.23
561.78	49324.45
561.94	49397.01
562.11	49439.14
562.27	49057.63
562.44	49263.60
562.60	49116.14
562.77	49160.61
562.93	48940.60
563.10	49214.44
563.26	48971.03
563.42	49179.34
563.59	49045.93
563.75	48271.21
563.92	48671.44
564.08	48392.92
564.24	48299.30
564.41	48149.50
564.57	48098.01
564.74	47391.17
564.90	47826.51
565.07	47559.69
565.23	47122.01
565.39	46799.01
565.56	46497.08
565.72	46351.97
565.88	46649.22
566.05	45940.04
566.21	45689.60
566.38	45137.23
566.54	44828.28
566.70	44219.74
566.87	43805.47
567.03	42480.72
567.19	42518.17
567.36	41504.72
567.52	41141.94
567.68	40442.12
567.85	39400.58
568.01	38967.58
568.17	37546.87
568.34	36964.08
568.50	35325.71
568.66	34719.51
568.83	33813.72
568.99	32556.85
569.15	31290.62
569.32	30335.68
569.48	29312.87
569.64	28783.91
569.81	27070.64
569.97	25844.20
570.13	25202.89
570.30	23653.45
570.46	22981.72
570.62	22132.11
570.78	21359.73
570.95	20758.21
571.11	20383.73
571.27	19377.30
571.43	19108.13
571.60	18780.46
571.76	17958.93
571.92	17900.42
572.09	17551.68
572.25	17397.20
572.41	16968.88
572.57	17006.33
572.74	16999.31
572.90	16989.95
573.06	16875.26
573.22	16652.91
573.38	16819.09
573.55	16812.07
573.71	17153.79
573.87	16809.73
574.03	17036.76
574.20	17128.04
574.36	17106.98
574.52	17109.32
574.68	17298.90
574.84	17238.05
575.01	17219.32
575.17	17577.42
575.33	17355.07
575.49	17334.01
575.65	17270.81
575.82	17109.32
575.98	17561.04
576.14	17563.38
576.30	17820.84
576.46	17642.96
576.62	17750.62
576.79	17783.39
576.95	17722.54
577.11	17972.97
577.27	17846.58
577.43	17926.16
577.59	18253.84
577.75	18019.78
577.92	18328.74
578.08	18387.25
578.24	18644.71
578.40	18476.19
578.56	18721.95
578.72	18796.84
578.88	18822.59
579.04	18731.31
579.21	18998.13
579.37	18878.76
579.53	19023.87
579.69	19061.32
579.85	19058.98
580.01	18988.77
580.17	18878.76
580.33	18618.96
580.49	18906.85
580.65	18459.81
580.82	18160.22
580.98	17813.82
581.14	17694.45
581.30	17448.69
581.46	17083.57
581.62	17020.38
581.78	16556.95
581.94	16238.64
582.10	15587.97
582.26	15215.82
582.42	14806.23
582.58	14317.06
582.74	13994.06
582.90	13703.84
583.06	13572.77
583.22	13172.54
583.38	13121.04
583.54	12868.27
583.70	12475.06
583.86	12341.64
584.02	11974.18
584.18	12016.31
584.34	11705.02
584.50	11805.66
584.66	11569.27
584.82	11335.21
584.98	11419.47
585.14	11414.79
585.30	11630.12
585.46	11552.88
585.62	11602.04
585.78	11747.15
585.94	11662.89
586.10	11868.86
586.26	11833.75
586.42	12276.11
586.58	12594.42
586.74	12444.63
586.90	12830.82
587.06	12910.40
587.22	13301.26
587.38	13397.23
587.54	13652.34
587.70	13973.00
587.86	14087.68
588.02	13949.59
588.18	14366.21
588.34	14932.62
588.49	15180.71
588.65	15393.70
588.81	15815.00
588.97	16027.99
589.13	16065.44
589.29	16432.90
589.45	16318.22
589.61	16552.27
589.77	17048.46
589.93	16996.97
590.08	17310.60
590.24	17612.53
