SpectraSuite Data File
++++++++++++++++++++++++++++++++++++
Date: Mon Sep 30 18:11:52 GMT-05:00 2013
User: stostad
Dark Spectrum Present: No
Reference Spectrum Present: No
Number of Sampled Component Spectra: 1
Spectrometers: USB2+H05261
Integration Time (usec): 100000 (USB2+H05261)
Spectra Averaged: 1 (USB2+H05261)
Boxcar Smoothing: 0 (USB2+H05261)
Correct for Electrical Dark: No (USB2+H05261)
Strobe/Lamp Enabled: No (USB2+H05261)
Correct for Detector Non-linearity: No (USB2+H05261)
Correct for Stray Light: No (USB2+H05261)
Number of Pixels in Processed Spectrum: 2048
>>>>>Begin Processed Spectral Data<<<<<
365.73	194.26
365.92	194.26
366.12	194.26
366.32	79.58
366.52	84.26
366.72	28.09
366.91	0.00
367.11	18.72
367.31	25.75
367.51	72.56
367.70	102.98
367.90	25.75
368.10	0.00
368.30	0.00
368.49	79.58
368.69	30.43
368.89	28.09
369.09	0.00
369.28	77.24
369.48	0.00
369.68	0.00
369.87	58.51
370.07	42.13
370.27	133.41
370.47	39.79
370.66	154.48
370.86	145.11
371.06	189.58
371.25	283.20
371.45	180.22
371.65	227.03
371.84	203.63
372.04	161.50
372.24	234.05
372.44	159.16
372.63	180.22
372.83	208.31
373.03	224.69
373.22	227.03
373.42	201.29
373.62	187.24
373.81	271.50
374.01	330.02
374.21	299.59
374.40	196.60
374.60	262.14
374.79	229.37
374.99	229.37
375.19	217.67
375.38	227.03
375.58	217.67
375.78	334.70
375.97	285.55
376.17	334.70
376.37	231.71
376.56	297.25
376.76	217.67
376.95	170.86
377.15	337.04
377.35	276.18
377.54	231.71
377.74	264.48
377.93	245.76
378.13	292.57
378.33	341.72
378.52	156.82
378.72	304.27
378.91	236.39
379.11	156.82
379.31	177.88
379.50	234.05
379.70	320.65
379.89	208.31
380.09	259.80
380.28	234.05
380.48	217.67
380.68	170.86
380.87	198.95
381.07	196.60
381.26	311.29
381.46	210.65
381.65	266.82
381.85	241.08
382.04	264.48
382.24	276.18
382.43	269.16
382.63	257.46
382.83	250.44
383.02	257.46
383.22	196.60
383.41	248.10
383.61	198.95
383.80	231.71
384.00	210.65
384.19	287.89
384.39	248.10
384.58	280.86
384.78	231.71
384.97	259.80
385.17	313.63
385.36	215.33
385.56	250.44
385.75	278.52
385.95	322.99
386.14	334.70
386.34	222.35
386.53	285.55
386.72	252.78
386.92	271.50
387.11	269.16
387.31	358.10
387.50	227.03
387.70	163.84
387.89	276.18
388.09	271.50
388.28	210.65
388.48	224.69
388.67	280.86
388.86	220.01
389.06	322.99
389.25	315.97
389.45	287.89
389.64	259.80
389.84	264.48
390.03	301.93
390.22	292.57
390.42	334.70
390.61	283.20
390.81	250.44
391.00	292.57
391.19	372.15
391.39	339.38
391.58	365.12
391.78	248.10
391.97	257.46
392.16	257.46
392.36	250.44
392.55	266.82
392.75	248.10
392.94	266.82
393.13	245.76
393.33	227.03
393.52	177.88
393.71	271.50
393.91	299.59
394.10	313.63
394.29	264.48
394.49	280.86
394.68	351.08
394.88	337.04
395.07	287.89
395.26	379.17
395.46	290.23
395.65	264.48
395.84	266.82
396.04	255.12
396.23	227.03
396.42	236.39
396.62	198.95
396.81	250.44
397.00	280.86
397.19	318.31
397.39	283.20
397.58	388.53
397.77	365.12
397.97	299.59
398.16	402.57
398.35	318.31
398.55	266.82
398.74	348.74
398.93	395.55
399.12	367.46
399.32	393.21
399.51	341.72
399.70	358.10
399.90	372.15
400.09	327.68
400.28	369.80
400.47	355.76
400.67	397.89
400.86	414.27
401.05	381.51
401.24	430.66
401.44	477.47
401.63	409.59
401.82	414.27
402.01	411.93
402.21	332.36
402.40	381.51
402.59	367.46
402.78	360.44
402.97	351.08
403.17	482.15
403.36	449.38
403.55	320.65
403.74	423.64
403.93	381.51
404.13	362.78
404.32	330.02
404.51	383.85
404.70	468.11
404.89	362.78
405.09	376.83
405.28	397.89
405.47	360.44
405.66	416.62
405.85	395.55
406.05	416.62
406.24	395.55
406.43	414.27
406.62	327.68
406.81	411.93
407.00	409.59
407.20	344.06
407.39	425.98
407.58	393.21
407.77	463.43
407.96	472.79
408.15	461.09
408.34	421.30
408.54	416.62
408.73	397.89
408.92	409.59
409.11	421.30
409.30	449.38
409.49	444.70
409.68	337.04
409.87	341.72
410.07	353.42
410.26	400.23
410.45	409.59
410.64	433.00
410.83	463.43
411.02	397.89
411.21	411.93
411.40	496.19
411.59	428.32
411.78	475.13
411.98	423.64
412.17	411.93
412.36	463.43
412.55	470.45
412.74	479.81
412.93	440.02
413.12	407.25
413.31	479.81
413.50	437.68
413.69	500.87
413.88	496.19
414.07	414.27
414.26	468.11
414.45	428.32
414.64	470.45
414.83	564.07
415.02	458.74
415.22	496.19
415.41	489.17
415.60	444.70
415.79	435.34
415.98	533.64
416.17	407.25
416.36	503.22
416.55	519.60
416.74	449.38
416.93	449.38
417.12	430.66
417.31	461.09
417.50	458.74
417.69	503.22
417.88	500.87
418.07	507.90
418.26	423.64
418.45	491.51
418.64	638.97
418.83	543.00
419.02	491.51
419.21	510.24
419.39	444.70
419.58	437.68
419.77	477.47
419.96	503.22
420.15	557.05
420.34	500.87
420.53	512.58
420.72	538.32
420.91	514.92
421.10	393.21
421.29	493.85
421.48	554.71
421.67	475.13
421.86	519.60
422.05	503.22
422.24	454.06
422.43	491.51
422.61	489.17
422.80	491.51
422.99	512.58
423.18	468.11
423.37	510.24
423.56	524.28
423.75	496.19
423.94	484.49
424.13	454.06
424.32	470.45
424.50	496.19
424.69	493.85
424.88	531.30
425.07	362.78
425.26	435.34
425.45	437.68
425.64	461.09
425.83	465.77
426.01	528.96
426.20	535.98
426.39	428.32
426.58	447.04
426.77	425.98
426.96	425.98
427.15	545.34
427.33	451.72
427.52	479.81
427.71	440.02
427.90	486.83
428.09	430.66
428.28	517.26
428.46	393.21
428.65	400.23
428.84	472.79
429.03	503.22
429.22	430.66
429.40	397.89
429.59	437.68
429.78	489.17
429.97	463.43
430.16	369.80
430.34	395.55
430.53	409.59
430.72	433.00
430.91	526.62
431.10	510.24
431.28	564.07
431.47	489.17
431.66	507.90
431.85	428.32
432.03	437.68
432.22	615.56
432.41	465.77
432.60	512.58
432.79	519.60
432.97	571.09
433.16	575.77
433.35	456.40
433.54	444.70
433.72	440.02
433.91	543.00
434.10	566.41
434.28	554.71
434.47	479.81
434.66	505.56
434.85	545.34
435.03	601.52
435.22	725.57
435.41	730.25
435.59	631.94
435.78	587.47
435.97	557.05
436.16	596.84
436.34	451.72
436.53	514.92
436.72	571.09
436.90	540.66
437.09	489.17
437.28	540.66
437.46	552.37
437.65	589.82
437.84	428.32
438.02	470.45
438.21	566.41
438.40	475.13
438.58	533.64
438.77	543.00
438.96	535.98
439.14	594.50
439.33	606.20
439.52	599.18
439.70	545.34
439.89	564.07
440.08	507.90
440.26	538.32
440.45	573.43
440.63	587.47
440.82	561.73
441.01	461.09
441.19	589.82
441.38	535.98
441.57	650.67
441.75	599.18
441.94	650.67
442.12	608.54
442.31	568.75
442.50	564.07
442.68	578.11
442.87	578.11
443.05	557.05
443.24	575.77
443.43	615.56
443.61	627.26
443.80	585.13
443.98	653.01
444.17	545.34
444.35	624.92
444.54	638.97
444.73	561.73
444.91	653.01
445.10	624.92
445.28	575.77
445.47	561.73
445.65	592.16
445.84	559.39
446.02	561.73
446.21	636.63
446.39	608.54
446.58	655.35
446.77	496.19
446.95	613.22
447.14	608.54
447.32	622.58
447.51	681.10
447.69	610.88
447.88	655.35
448.06	599.18
448.25	617.90
448.43	496.19
448.62	566.41
448.80	587.47
448.99	519.60
449.17	692.80
449.36	627.26
449.54	566.41
449.73	641.31
449.91	697.48
450.10	660.03
450.28	688.12
450.46	706.84
450.65	592.16
450.83	622.58
451.02	634.29
451.20	631.94
451.39	671.73
451.57	638.97
451.76	629.60
451.94	599.18
452.13	645.99
452.31	610.88
452.49	517.26
452.68	606.20
452.86	627.26
453.05	573.43
453.23	582.79
453.42	664.71
453.60	711.52
453.78	580.45
453.97	697.48
454.15	643.65
454.34	606.20
454.52	601.52
454.70	699.82
454.89	547.69
455.07	676.41
455.26	608.54
455.44	645.99
455.62	645.99
455.81	681.10
455.99	667.05
456.17	606.20
456.36	585.13
456.54	603.86
456.73	566.41
456.91	674.07
457.09	779.40
457.28	648.33
457.46	613.22
457.64	734.93
457.83	650.67
458.01	617.90
458.19	709.18
458.38	655.35
458.56	751.31
458.74	622.58
458.93	631.94
459.11	720.88
459.29	627.26
459.48	594.50
459.66	645.99
459.84	622.58
460.03	737.27
460.21	692.80
460.39	702.16
460.57	767.70
460.76	723.23
460.94	636.63
461.12	692.80
461.31	669.39
461.49	692.80
461.67	720.88
461.85	566.41
462.04	688.12
462.22	826.21
462.40	741.95
462.59	716.20
462.77	610.88
462.95	662.37
463.13	650.67
463.32	720.88
463.50	683.44
463.68	690.46
463.86	681.10
464.05	627.26
464.23	741.95
464.41	603.86
464.59	662.37
464.78	657.69
464.96	660.03
465.14	718.54
465.32	608.54
465.50	688.12
465.69	744.29
465.87	690.46
466.05	709.18
466.23	678.76
466.41	608.54
466.60	716.20
466.78	690.46
466.96	685.78
467.14	730.25
467.32	655.35
467.51	617.90
467.69	669.39
467.87	674.07
468.05	685.78
468.23	772.38
468.41	674.07
468.60	676.41
468.78	688.12
468.96	657.69
469.14	692.80
469.32	713.86
469.50	629.60
469.69	683.44
469.87	634.29
470.05	692.80
470.23	690.46
470.41	622.58
470.59	699.82
470.77	695.14
470.95	709.18
471.14	706.84
471.32	690.46
471.50	711.52
471.68	758.33
471.86	739.61
472.04	650.67
472.22	713.86
472.40	641.31
472.58	634.29
472.77	657.69
472.95	690.46
473.13	739.61
473.31	753.65
473.49	660.03
473.67	683.44
473.85	718.54
474.03	671.73
474.21	720.88
474.39	727.91
474.57	725.57
474.75	751.31
474.93	763.01
475.12	634.29
475.30	744.29
475.48	828.55
475.66	741.95
475.84	704.50
476.02	702.16
476.20	709.18
476.38	744.29
476.56	816.85
476.74	763.01
476.92	706.84
477.10	751.31
477.28	774.72
477.46	770.04
477.64	755.99
477.82	744.29
478.00	760.67
478.18	784.08
478.36	784.08
478.54	791.10
478.72	819.19
478.90	770.04
479.08	737.27
479.26	781.74
479.44	786.42
479.62	849.61
479.80	784.08
479.98	807.48
480.16	840.25
480.34	828.55
480.52	807.48
480.70	763.01
480.88	690.46
481.06	805.14
481.24	774.72
481.41	805.14
481.59	842.59
481.77	702.16
481.95	854.30
482.13	866.00
482.31	889.40
482.49	884.72
482.67	866.00
482.85	812.17
483.03	919.83
483.21	849.61
483.39	894.08
483.57	866.00
483.74	819.19
483.92	866.00
484.10	854.30
484.28	908.13
484.46	959.62
484.64	908.13
484.82	870.68
485.00	863.66
485.18	840.25
485.35	807.48
485.53	765.36
485.71	671.73
485.89	706.84
486.07	877.70
486.25	910.47
486.43	805.14
486.61	821.53
486.78	868.34
486.96	880.04
487.14	912.81
487.32	891.74
487.50	912.81
487.68	919.83
487.85	954.94
488.03	1053.24
488.21	954.94
488.39	877.70
488.57	882.38
488.75	887.06
488.92	1233.46
489.10	1027.50
489.28	1121.12
489.46	990.05
489.64	961.96
489.81	994.73
489.99	1046.22
490.17	973.66
490.35	1090.69
490.53	1093.03
490.70	889.40
490.88	1001.75
491.06	1008.77
491.24	938.55
491.41	961.96
491.59	905.79
491.77	1050.90
491.95	1025.15
492.13	1020.47
492.30	1090.69
492.48	1130.48
492.66	1041.54
492.84	1046.22
493.01	997.07
493.19	973.66
493.37	1107.07
493.54	1034.52
493.72	1022.81
493.90	1008.77
494.08	1025.15
494.25	1074.31
494.43	1083.67
494.61	1149.20
494.79	1097.71
494.96	1060.26
495.14	1123.46
495.32	959.62
495.49	1083.67
495.67	1097.71
495.85	1046.22
496.02	1205.38
496.20	1125.80
496.38	1107.07
496.55	1043.88
496.73	1102.39
496.91	1093.03
497.09	1095.37
497.26	1160.91
497.44	1160.91
497.62	1093.03
497.79	1029.84
497.97	1015.79
498.14	1191.33
498.32	1093.03
498.50	1060.26
498.67	1130.48
498.85	1050.90
499.03	1207.72
499.20	1111.75
499.38	1086.01
499.56	1142.18
499.73	1041.54
499.91	1109.41
500.08	1123.46
500.26	1006.43
500.44	1013.45
500.61	1118.78
500.79	1034.52
500.97	1086.01
501.14	1057.92
501.32	1036.86
501.49	1071.97
501.67	1090.69
501.84	1144.52
502.02	1020.47
502.20	1186.65
502.37	1149.20
502.55	1078.99
502.72	1172.61
502.90	1170.27
503.07	1151.54
503.25	1041.54
503.43	1062.60
503.60	1006.43
503.78	1036.86
503.95	1104.73
504.13	994.73
504.30	1116.44
504.48	1121.12
504.65	1114.10
504.83	1102.39
505.01	1093.03
505.18	1160.91
505.36	1231.12
505.53	1301.34
505.71	1224.10
505.88	1149.20
506.06	1191.33
506.23	1149.20
506.41	1067.28
506.58	1235.80
506.76	1179.63
506.93	1041.54
507.11	1055.58
507.28	971.32
507.46	1240.48
507.63	1100.05
507.81	1130.48
507.98	1167.93
508.16	1165.59
508.33	1156.22
508.50	1100.05
508.68	1200.69
508.85	1219.42
509.03	1203.04
509.20	1130.48
509.38	1200.69
509.55	1179.63
509.73	1130.48
509.90	1245.16
510.08	1160.91
510.25	1078.99
510.42	1146.86
510.60	1170.27
510.77	1160.91
510.95	1231.12
511.12	1151.54
511.30	1245.16
511.47	1221.76
511.64	1263.89
511.82	1086.01
511.99	1088.35
512.17	1172.61
512.34	1153.88
512.51	1146.86
512.69	1203.04
512.86	1153.88
513.04	1214.74
513.21	1184.31
513.38	1160.91
513.56	1153.88
513.73	1111.75
513.90	1217.08
514.08	1219.42
514.25	1135.16
514.43	1146.86
514.60	1188.99
514.77	1090.69
514.95	1191.33
515.12	1179.63
515.29	1235.80
515.47	1137.50
515.64	1181.97
515.81	1212.40
515.99	1266.23
516.16	1191.33
516.33	1097.71
516.51	1032.18
516.68	1039.20
516.85	929.19
517.03	1118.78
517.20	1118.78
517.37	1188.99
517.54	1205.38
517.72	1177.29
517.89	1001.75
518.06	1039.20
518.24	1172.61
518.41	1259.21
518.58	1188.99
518.75	1135.16
518.93	1132.82
519.10	1170.27
519.27	1135.16
519.45	1139.84
519.62	1308.36
519.79	1191.33
519.96	1153.88
520.14	1095.37
520.31	1158.57
520.48	1132.82
520.65	1160.91
520.83	1186.65
521.00	1268.57
521.17	1130.48
521.34	1163.25
521.52	1224.10
521.69	1191.33
521.86	1205.38
522.03	1247.51
522.20	1224.10
522.38	1041.54
522.55	1214.74
522.72	1174.95
522.89	1252.19
523.07	1277.93
523.24	1219.42
523.41	1160.91
523.58	1170.27
523.75	1277.93
523.92	1160.91
524.10	1228.78
524.27	1226.44
524.44	1252.19
524.61	1191.33
524.78	1226.44
524.96	1177.29
525.13	1242.82
525.30	1233.46
525.47	1261.55
525.64	1214.74
525.81	1146.86
525.98	1123.46
526.16	1046.22
526.33	1020.47
526.50	1102.39
526.67	1034.52
526.84	1013.45
527.01	1090.69
527.18	1135.16
527.36	1111.75
527.53	1165.59
527.70	1144.52
527.87	1060.26
528.04	1256.87
528.21	1214.74
528.38	1139.84
528.55	1240.48
528.72	1196.01
528.89	1261.55
529.07	1172.61
529.24	1296.66
529.41	1160.91
529.58	1153.88
529.75	1174.95
529.92	1259.21
530.09	1219.42
530.26	1273.25
530.43	1184.31
530.60	1249.85
530.77	1296.66
530.94	1322.40
531.11	1324.74
531.28	1228.78
531.46	1306.02
531.63	1247.51
531.80	1266.23
531.97	1224.10
532.14	1118.78
532.31	1071.97
532.48	1057.92
532.65	1174.95
532.82	1191.33
532.99	1238.14
533.16	1210.06
533.33	1228.78
533.50	1193.67
533.67	1125.80
533.84	1238.14
534.01	1245.16
534.18	1151.54
534.35	1114.10
534.52	1200.69
534.69	1259.21
534.86	1259.21
535.03	1207.72
535.20	1207.72
535.37	1327.08
535.54	1231.12
535.71	1196.01
535.88	1165.59
536.05	1226.44
536.22	1282.61
536.38	1228.78
536.55	1088.35
536.72	1252.19
536.89	1137.50
537.06	1231.12
537.23	1233.46
537.40	1235.80
537.57	1240.48
537.74	1203.04
537.91	1165.59
538.08	1226.44
538.25	1245.16
538.42	1158.57
538.59	1228.78
538.75	1301.34
538.92	1107.07
539.09	1181.97
539.26	1181.97
539.43	1160.91
539.60	1235.80
539.77	1282.61
539.94	1247.51
540.11	1163.25
540.28	1228.78
540.44	1221.76
540.61	1242.82
540.78	1249.85
540.95	1291.98
541.12	1394.96
541.29	1268.57
541.46	1404.32
541.62	1376.24
541.79	1242.82
541.96	1294.32
542.13	1315.38
542.30	1249.85
542.47	1245.16
542.63	1306.02
542.80	1359.85
542.97	1289.64
543.14	1256.87
543.31	1352.83
543.48	1303.68
543.64	1291.98
543.81	1359.85
543.98	1315.38
544.15	1282.61
544.32	1207.72
544.48	1336.45
544.65	1277.93
544.82	1366.87
544.99	1284.95
545.16	1287.29
545.32	1404.32
545.49	1565.82
545.66	1617.31
545.83	1511.99
546.00	1362.19
546.16	1331.76
546.33	1280.27
546.50	1263.89
546.67	1289.64
546.83	1296.66
547.00	1217.08
547.17	1224.10
547.34	1172.61
547.50	1186.65
547.67	1142.18
547.84	1214.74
548.00	1214.74
548.17	1135.16
548.34	1334.11
548.51	1352.83
548.67	1214.74
548.84	1193.67
549.01	1153.88
549.18	1228.78
549.34	1188.99
549.51	1214.74
549.68	1165.59
549.84	1151.54
550.01	1249.85
550.18	1270.91
550.34	1313.04
550.51	1132.82
550.68	1282.61
550.84	1130.48
551.01	1254.53
551.18	1144.52
551.34	1114.10
551.51	1224.10
551.68	1221.76
551.84	1294.32
552.01	1193.67
552.18	1109.41
552.34	1196.01
552.51	1069.62
552.68	1177.29
552.84	1167.93
553.01	1198.35
553.18	1203.04
553.34	1193.67
553.51	1086.01
553.67	1156.22
553.84	1226.44
554.01	1240.48
554.17	1174.95
554.34	1132.82
554.51	1116.44
554.67	1261.55
554.84	1205.38
555.00	1219.42
555.17	1142.18
555.33	1188.99
555.50	1109.41
555.67	1046.22
555.83	1057.92
556.00	1116.44
556.16	1228.78
556.33	1006.43
556.50	1142.18
556.66	1083.67
556.83	1186.65
556.99	1067.28
557.16	1144.52
557.32	1139.84
557.49	1121.12
557.65	1107.07
557.82	1107.07
557.98	1071.97
558.15	1093.03
558.32	1130.48
558.48	1114.10
558.65	1118.78
558.81	1151.54
558.98	1074.31
559.14	1083.67
559.31	1196.01
559.47	1191.33
559.64	1060.26
559.80	1160.91
559.97	1095.37
560.13	1123.46
560.30	1104.73
560.46	1139.84
560.63	1123.46
560.79	1153.88
560.96	1107.07
561.12	1123.46
561.29	1116.44
561.45	1102.39
561.61	1090.69
561.78	1123.46
561.94	1149.20
562.11	1069.62
562.27	1069.62
562.44	1153.88
562.60	1062.60
562.77	1123.46
562.93	1149.20
563.10	1125.80
563.26	1100.05
563.42	1013.45
563.59	1069.62
563.75	1048.56
563.92	1121.12
564.08	1142.18
564.24	1146.86
564.41	1104.73
564.57	1064.94
564.74	1083.67
564.90	1151.54
565.07	1097.71
565.23	1109.41
565.39	1046.22
565.56	1039.20
565.72	994.73
565.88	1064.94
566.05	1025.15
566.21	1071.97
566.38	1041.54
566.54	910.47
566.70	1015.79
566.87	976.00
567.03	1029.84
567.19	1078.99
567.36	1055.58
567.52	1057.92
567.68	1093.03
567.85	994.73
568.01	978.34
568.17	924.51
568.34	997.07
568.50	940.90
568.66	917.49
568.83	1114.10
568.99	943.24
569.15	954.94
569.32	978.34
569.48	987.71
569.64	887.06
569.81	950.26
569.97	983.02
570.13	1001.75
570.30	978.34
570.46	870.68
570.62	952.60
570.78	987.71
570.95	929.19
571.11	1060.26
571.27	1046.22
571.43	992.39
571.60	1008.77
571.76	950.26
571.92	992.39
572.09	1062.60
572.25	912.81
572.41	891.74
572.57	966.64
572.74	1048.56
572.90	1027.50
573.06	1011.11
573.22	1025.15
573.38	940.90
573.55	1041.54
573.71	1025.15
573.87	957.28
574.03	875.36
574.20	1043.88
574.36	978.34
574.52	1001.75
574.68	915.15
574.84	964.30
575.01	870.68
575.17	931.53
575.33	952.60
575.49	933.87
575.65	1006.43
575.82	1041.54
575.98	978.34
576.14	1006.43
576.30	1053.24
576.46	1104.73
576.62	1053.24
576.79	1001.75
576.95	990.05
577.11	880.04
577.27	1006.43
577.43	945.58
577.59	1006.43
577.75	929.19
577.92	933.87
578.08	877.70
578.24	990.05
578.40	994.73
578.56	1069.62
578.72	1111.75
578.88	1025.15
579.04	910.47
579.21	950.26
579.37	931.53
579.53	1060.26
579.69	1020.47
579.85	978.34
580.01	957.28
580.17	952.60
580.33	936.21
580.49	908.13
580.65	1008.77
580.82	919.83
580.98	957.28
581.14	954.94
581.30	1071.97
581.46	1013.45
581.62	990.05
581.78	964.30
581.94	1048.56
582.10	1022.81
582.26	1041.54
582.42	990.05
582.58	1001.75
582.74	1064.94
582.90	954.94
583.06	1053.24
583.22	959.62
583.38	959.62
583.54	1004.09
583.70	985.37
583.86	1029.84
584.02	1032.18
584.18	1027.50
584.34	990.05
584.50	999.41
584.66	940.90
584.82	922.17
584.98	1008.77
585.14	961.96
585.30	1008.77
585.46	936.21
585.62	891.74
585.78	887.06
585.94	1013.45
586.10	936.21
586.26	959.62
586.42	1013.45
586.58	1041.54
586.74	1055.58
586.90	980.68
587.06	968.98
587.22	938.55
587.38	957.28
587.54	901.11
587.70	943.24
587.86	842.59
588.02	809.83
588.18	938.55
588.34	863.66
588.49	711.52
588.65	767.70
588.81	748.97
588.97	760.67
589.13	777.06
589.29	758.33
589.45	795.78
589.61	732.59
589.77	929.19
589.93	751.31
590.08	821.53
590.24	830.89
590.40	894.08
590.56	947.92
590.72	802.80
590.88	781.74
591.04	861.32
591.20	765.36
591.35	819.19
591.51	816.85
591.67	896.43
591.83	898.77
591.99	940.90
592.15	908.13
592.31	854.30
592.46	915.15
592.62	887.06
592.78	912.81
592.94	898.77
593.10	891.74
593.26	866.00
593.41	870.68
593.57	840.25
593.73	795.78
593.89	779.40
594.05	805.14
594.20	828.55
594.36	830.89
594.52	830.89
594.68	821.53
594.84	873.02
594.99	884.72
595.15	854.30
595.31	840.25
595.47	936.21
595.62	903.45
595.78	823.87
595.94	884.72
596.10	908.13
596.25	884.72
596.41	746.63
596.57	819.19
596.73	814.51
596.88	791.10
597.04	851.96
597.20	807.48
597.36	777.06
597.51	884.72
597.67	828.55
597.83	903.45
597.99	854.30
598.14	924.51
598.30	896.43
598.46	812.17
598.61	875.36
598.77	875.36
598.93	912.81
599.09	889.40
599.24	915.15
599.40	884.72
599.56	896.43
599.71	931.53
599.87	873.02
600.03	830.89
600.18	847.27
600.34	837.91
600.50	875.36
600.65	840.25
600.81	884.72
600.97	781.74
601.12	898.77
601.28	887.06
601.44	858.98
601.59	809.83
601.75	791.10
601.91	908.13
602.06	903.45
602.22	978.34
602.37	882.38
602.53	959.62
602.69	791.10
602.84	819.19
603.00	894.08
603.16	966.64
603.31	919.83
603.47	947.92
603.62	795.78
603.78	882.38
603.94	851.96
604.09	840.25
604.25	856.64
604.40	896.43
604.56	854.30
604.71	798.12
604.87	812.17
605.03	891.74
