SpectraSuite Data File
++++++++++++++++++++++++++++++++++++
Date: Mon Sep 30 18:11:39 GMT-05:00 2013
User: stostad
Dark Spectrum Present: No
Reference Spectrum Present: No
Number of Sampled Component Spectra: 1
Spectrometers: USB2+H05261
Integration Time (usec): 100000 (USB2+H05261)
Spectra Averaged: 1 (USB2+H05261)
Boxcar Smoothing: 0 (USB2+H05261)
Correct for Electrical Dark: No (USB2+H05261)
Strobe/Lamp Enabled: No (USB2+H05261)
Correct for Detector Non-linearity: No (USB2+H05261)
Correct for Stray Light: No (USB2+H05261)
Number of Pixels in Processed Spectrum: 2048
>>>>>Begin Processed Spectral Data<<<<<
365.73	114.69
365.92	114.69
366.12	114.69
366.32	44.47
366.52	91.28
366.72	0.00
366.91	67.88
367.11	65.54
367.31	14.04
367.51	0.00
367.70	58.51
367.90	7.02
368.10	0.00
368.30	46.81
368.49	39.79
368.69	65.54
368.89	0.00
369.09	44.47
369.28	44.47
369.48	0.00
369.68	93.62
369.87	65.54
370.07	53.83
370.27	63.19
370.47	133.41
370.66	264.48
370.86	266.82
371.06	297.25
371.25	372.15
371.45	276.18
371.65	367.46
371.84	330.02
372.04	337.04
372.24	358.10
372.44	414.27
372.63	395.55
372.83	465.77
373.03	454.06
373.22	428.32
373.42	388.53
373.62	346.40
373.81	353.42
374.01	447.04
374.21	465.77
374.40	407.25
374.60	353.42
374.79	463.43
374.99	444.70
375.19	505.56
375.38	425.98
375.58	465.77
375.78	505.56
375.97	454.06
376.17	489.17
376.37	447.04
376.56	517.26
376.76	507.90
376.95	425.98
377.15	514.92
377.35	479.81
377.54	489.17
377.74	484.49
377.93	472.79
378.13	533.64
378.33	535.98
378.52	465.77
378.72	442.36
378.91	521.94
379.11	468.11
379.31	528.96
379.50	465.77
379.70	566.41
379.89	528.96
380.09	535.98
380.28	458.74
380.48	496.19
380.68	433.00
380.87	433.00
381.07	585.13
381.26	531.30
381.46	617.90
381.65	470.45
381.85	580.45
382.04	594.50
382.24	559.39
382.43	533.64
382.63	554.71
382.83	601.52
383.02	585.13
383.22	636.63
383.41	571.09
383.61	613.22
383.80	629.60
384.00	601.52
384.19	617.90
384.39	606.20
384.58	636.63
384.78	582.79
384.97	543.00
385.17	578.11
385.36	660.03
385.56	641.31
385.75	634.29
385.95	660.03
386.14	582.79
386.34	601.52
386.53	648.33
386.72	681.10
386.92	660.03
387.11	641.31
387.31	634.29
387.50	692.80
387.70	589.82
387.89	648.33
388.09	660.03
388.28	643.65
388.48	716.20
388.67	688.12
388.86	732.59
389.06	650.67
389.25	678.76
389.45	681.10
389.64	702.16
389.84	748.97
390.03	741.95
390.22	650.67
390.42	711.52
390.61	786.42
390.81	751.31
391.00	868.34
391.19	795.78
391.39	730.25
391.58	807.48
391.78	753.65
391.97	837.91
392.16	713.86
392.36	798.12
392.55	816.85
392.75	823.87
392.94	774.72
393.13	777.06
393.33	809.83
393.52	826.21
393.71	903.45
393.91	884.72
394.10	816.85
394.29	910.47
394.49	840.25
394.68	915.15
394.88	807.48
395.07	880.04
395.26	887.06
395.46	957.28
395.65	940.90
395.84	924.51
396.04	1011.11
396.23	971.32
396.42	968.98
396.62	947.92
396.81	1048.56
397.00	940.90
397.19	968.98
397.39	943.24
397.58	954.94
397.77	973.66
397.97	1086.01
398.16	1008.77
398.35	1116.44
398.55	971.32
398.74	959.62
398.93	1128.14
399.12	1083.67
399.32	1088.35
399.51	1018.13
399.70	1069.62
399.90	1224.10
400.09	1076.65
400.28	1121.12
400.47	1149.20
400.67	1146.86
400.86	1174.95
401.05	1097.71
401.24	1198.35
401.44	1172.61
401.63	1144.52
401.82	1172.61
402.01	1142.18
402.21	1198.35
402.40	1174.95
402.59	1240.48
402.78	1263.89
402.97	1217.08
403.17	1245.16
403.36	1254.53
403.55	1242.82
403.74	1214.74
403.93	1313.04
404.13	1352.83
404.32	1284.95
404.51	1341.13
404.70	1334.11
404.89	1383.26
405.09	1409.00
405.28	1416.02
405.47	1383.26
405.66	1355.17
405.85	1465.18
406.05	1455.81
406.24	1385.60
406.43	1474.54
406.62	1460.49
406.81	1481.56
407.00	1416.02
407.20	1451.13
407.39	1476.88
407.58	1495.60
407.77	1617.31
407.96	1530.71
408.15	1603.27
408.34	1533.05
408.54	1535.39
408.73	1584.54
408.92	1600.93
409.11	1715.61
409.30	1659.44
409.49	1732.00
409.68	1746.04
409.87	1673.48
410.07	1703.91
410.26	1710.93
410.45	1783.49
410.64	1837.32
410.83	1764.76
411.02	1877.11
411.21	1856.04
411.40	1853.70
411.59	1937.96
411.78	1785.83
411.98	1872.43
412.17	1984.77
412.36	1926.26
412.55	2090.10
412.74	2008.18
412.93	2146.27
413.12	1916.90
413.31	2104.14
413.50	1998.82
413.69	2235.21
413.88	2179.04
414.07	2087.76
414.26	2139.25
414.45	2282.02
414.64	2118.18
414.83	2256.28
415.02	2356.92
415.22	2244.57
415.41	2361.60
415.60	2275.00
415.79	2286.70
415.98	2466.92
416.17	2389.69
416.36	2356.92
416.55	2410.75
416.74	2443.52
416.93	2324.15
417.12	2359.26
417.31	2462.24
417.50	2558.21
417.69	2560.55
417.88	2541.82
418.07	2537.14
418.26	2558.21
418.45	2633.10
418.64	2799.28
418.83	2605.02
419.02	2729.06
419.21	2644.81
419.39	2656.51
419.58	2621.40
419.77	2574.59
419.96	2820.35
420.15	2843.75
420.34	2792.26
420.53	2843.75
420.72	2853.11
420.91	2745.45
421.10	2768.85
421.29	2836.73
421.48	2796.94
421.67	2829.71
421.86	2820.35
422.05	2822.69
422.24	2691.62
422.43	2939.71
422.61	2909.29
422.80	2951.42
422.99	3023.97
423.18	2935.03
423.37	2953.76
423.56	2942.05
423.75	2939.71
423.94	2878.86
424.13	2806.30
424.32	2789.92
424.50	3084.83
424.69	3033.33
424.88	3002.91
425.07	3047.38
425.26	3005.25
425.45	2977.16
425.64	2946.73
425.83	2935.03
426.01	3054.40
426.20	3084.83
426.39	3075.46
426.58	3045.04
426.77	3019.29
426.96	3052.06
427.15	3066.10
427.33	3251.00
427.52	3096.53
427.71	3082.49
427.90	3005.25
428.09	2925.67
428.28	3124.62
428.46	3138.66
428.65	3138.66
428.84	3166.74
429.03	3227.60
429.22	2984.18
429.40	3049.72
429.59	3045.04
429.78	2946.73
429.97	2841.41
430.16	3068.44
430.34	3148.02
430.53	3108.23
430.72	3178.45
430.91	3229.94
431.10	3061.42
431.28	3180.79
431.47	3173.77
431.66	3262.71
431.85	3311.86
432.03	3218.24
432.22	3356.33
432.41	3370.37
432.60	3323.56
432.79	3417.18
432.97	3377.39
433.16	3290.79
433.35	3426.54
433.54	3353.99
433.72	3473.36
433.91	3344.63
434.10	3531.87
434.28	3529.53
434.47	3515.48
434.66	3564.64
434.85	3698.05
435.03	3815.07
435.22	3866.56
435.41	4147.43
435.59	4004.66
435.78	3819.75
435.97	3906.35
436.16	3864.22
436.34	3822.09
436.53	3765.92
436.72	3887.63
436.90	3873.59
437.09	3946.14
437.28	3894.65
437.46	3920.40
437.65	3955.51
437.84	4011.68
438.02	3929.76
438.21	4142.75
438.40	3908.69
438.58	3990.61
438.77	4208.28
438.96	4311.27
439.14	4435.32
439.33	4278.50
439.52	4259.78
439.70	4203.60
439.89	4386.16
440.08	4313.61
440.26	4397.87
440.45	4477.44
440.63	4435.32
440.82	4615.54
441.01	4493.83
441.19	4582.77
441.38	4730.22
441.57	4624.90
441.75	4669.37
441.94	4812.14
442.12	4725.54
442.31	4873.00
442.50	4919.81
442.68	4767.67
442.87	4945.55
443.05	4952.57
443.24	5149.18
443.43	4873.00
443.61	4844.91
443.80	4889.38
443.98	4873.00
444.17	4725.54
444.35	4896.40
444.54	4990.02
444.73	5006.41
444.91	4954.91
445.10	4940.87
445.28	5095.35
445.47	5001.72
445.65	4896.40
445.84	4922.15
446.02	4898.74
446.21	4922.15
446.39	5102.37
446.58	5203.01
446.77	5050.88
446.95	5022.79
447.14	4898.74
447.32	5153.86
447.51	4947.89
447.69	5032.15
447.88	5008.75
448.06	5130.45
448.25	4954.91
448.43	5142.16
448.62	5177.26
448.80	5226.42
448.99	5249.82
449.17	5203.01
449.36	5172.58
449.54	5294.29
449.73	5249.82
449.91	5376.21
450.10	5406.64
450.28	5366.85
450.46	5327.06
450.65	5472.17
450.83	5327.06
451.02	5308.34
451.20	5446.43
451.39	5226.42
451.57	5322.38
451.76	5320.04
451.94	5432.38
452.13	5348.12
452.31	5334.08
452.49	5472.17
452.68	5713.25
452.86	5511.96
453.05	5584.52
453.23	5533.03
453.42	5533.03
453.60	5420.68
453.78	5650.05
453.97	5570.48
454.15	5537.71
454.34	5533.03
454.52	5755.38
454.70	5605.58
454.89	5577.50
455.07	5661.76
455.26	5771.76
455.44	5666.44
455.62	5755.38
455.81	5603.24
455.99	5799.85
456.17	5713.25
456.36	5638.35
456.54	5907.51
456.73	6017.52
456.91	5928.58
457.09	5879.43
457.28	6129.86
457.46	5973.05
457.64	6064.33
457.83	6045.60
458.01	6076.03
458.19	6090.07
458.38	6015.18
458.56	6190.72
458.74	6155.61
458.93	6146.25
459.11	6160.29
459.29	6003.47
459.48	6155.61
459.66	6207.10
459.84	6211.78
460.03	6258.59
460.21	6303.06
460.39	6141.57
460.57	6167.31
460.76	6179.01
460.94	6457.54
461.12	6413.07
461.31	6516.05
461.49	6431.79
461.67	6415.41
461.85	6546.48
462.04	6483.28
462.22	6518.39
462.40	6656.48
462.59	6691.59
462.77	6633.08
462.95	6665.85
463.13	6583.93
463.32	6436.47
463.50	6551.16
463.68	6642.44
463.86	6644.78
464.05	6576.91
464.23	6595.63
464.41	6785.21
464.59	6499.67
464.78	6752.45
464.96	6806.28
465.14	6876.49
465.32	6869.47
465.50	6864.79
465.69	6794.58
465.87	6766.49
466.05	7087.14
466.23	6834.36
466.41	7096.50
466.60	7030.97
466.78	6853.09
466.96	6909.26
467.14	6787.55
467.32	7084.80
467.51	7061.40
467.69	6855.43
467.87	6778.19
468.05	6869.47
468.23	7070.76
468.41	7012.24
468.60	7063.74
468.78	7145.66
468.96	7052.03
469.14	7124.59
469.32	7258.00
469.50	6862.45
469.69	7236.94
469.87	7157.36
470.05	7318.86
470.23	7281.41
470.41	7293.11
470.59	7227.57
470.77	7372.69
470.95	7192.47
471.14	7424.18
471.32	7353.96
471.50	7503.76
471.68	7510.78
471.86	7529.50
472.04	7325.88
472.22	7669.94
472.40	7344.60
472.58	7552.91
472.77	7562.27
472.95	7590.36
473.13	7721.43
473.31	7517.80
473.49	7625.47
473.67	7707.38
473.85	7716.75
474.03	7882.92
474.21	7896.97
474.39	7948.46
474.57	8006.97
474.75	8152.09
474.93	8287.84
475.12	8170.81
475.30	8320.60
475.48	8280.82
475.66	8245.71
475.84	8432.95
476.02	8468.06
476.20	8287.84
476.38	8465.72
476.56	8636.58
476.74	8557.00
476.92	8674.03
477.10	8709.13
477.28	8624.87
477.46	8889.35
477.64	8982.98
477.82	9235.75
478.00	9219.37
478.18	9221.71
478.36	9205.33
478.54	9380.87
478.72	9394.91
478.90	9509.60
479.08	9664.07
479.26	9748.33
479.44	9778.76
479.62	10015.15
479.80	9987.07
479.98	9825.57
480.16	10249.21
480.34	10232.82
480.52	10340.49
480.70	10567.52
480.88	10384.96
481.06	10541.77
481.24	10424.75
481.41	10808.59
481.59	10960.73
481.77	10839.02
481.95	10778.17
482.13	11257.98
482.31	11094.14
482.49	11173.72
482.67	11363.30
482.85	11538.84
483.03	11955.46
483.21	11730.76
483.39	11964.82
483.57	11988.22
483.74	12269.09
483.92	12425.90
484.10	12217.60
484.28	12386.12
484.46	12713.79
484.64	12989.97
484.82	12706.77
485.00	12865.92
485.18	13114.02
485.35	13179.56
485.53	13242.75
485.71	13130.41
485.89	13490.85
486.07	13315.31
486.25	13736.60
486.43	13855.97
486.61	13907.46
486.78	14174.28
486.96	14108.75
487.14	14298.33
487.32	14349.82
487.50	14551.11
487.68	14778.14
487.85	14670.48
488.03	14913.89
488.21	14998.15
488.39	15047.30
488.57	15286.04
488.75	15187.74
488.92	15646.48
489.10	15494.35
489.28	15618.39
489.46	15719.04
489.64	15796.28
489.81	16341.62
489.99	16093.52
490.17	16238.64
490.35	16559.29
490.53	16198.85
490.70	16484.39
490.88	16561.63
491.06	17029.74
491.24	16910.37
491.41	17231.02
491.59	17231.02
491.77	16952.50
491.95	16875.26
492.13	17247.41
492.30	17394.86
492.48	17507.21
492.66	17649.98
492.84	17422.95
493.01	17837.22
493.19	17909.78
493.37	18097.02
493.54	18253.84
493.72	18150.85
493.90	18249.16
494.08	18324.05
494.25	18508.96
494.43	18387.25
494.61	18618.96
494.79	18794.50
494.96	18775.78
495.14	19047.28
495.32	19089.41
495.49	18735.99
495.67	19028.56
495.85	19243.88
496.02	19161.97
496.20	19723.69
496.38	19477.94
496.55	19693.27
496.73	19896.89
496.91	19903.92
497.09	19880.51
497.26	20016.26
497.44	19934.34
497.62	19936.68
497.79	20442.24
497.97	20301.81
498.14	20264.36
498.32	20161.37
498.50	20170.74
498.67	20624.80
498.85	20582.67
499.03	20695.02
499.20	20372.02
499.38	20814.38
499.56	20868.22
499.73	20847.15
499.91	20900.98
500.08	21064.82
500.26	21039.08
500.44	21139.72
500.61	20959.50
500.79	21310.58
500.97	20996.95
501.14	21113.97
501.32	21308.24
501.49	21537.61
501.67	21500.16
501.84	21528.25
502.02	21525.91
502.20	21441.65
502.37	21923.80
502.55	21486.12
502.72	21420.58
502.90	21820.81
503.07	21390.16
503.25	21820.81
503.43	21710.81
503.60	21757.62
503.78	22047.85
503.95	21771.66
504.13	21680.38
504.30	22157.85
504.48	21811.45
504.65	22185.94
504.83	21884.01
505.01	21928.48
505.18	21774.00
505.36	21834.86
505.53	22087.64
505.71	22190.62
505.88	22157.85
506.06	21982.31
506.23	22153.17
506.41	22155.51
506.58	22221.05
506.76	21937.84
506.93	22445.74
507.11	22352.12
507.28	22146.15
507.46	21916.78
507.63	22202.32
507.81	22408.29
507.98	22108.70
508.16	22202.32
508.33	22073.59
508.50	22427.01
508.68	22319.35
508.85	22368.50
509.03	22253.81
509.20	22043.17
509.38	22384.88
509.55	22340.41
509.73	22066.57
509.90	21951.88
510.08	21788.05
510.25	21671.02
510.42	21799.75
510.60	21661.66
510.77	21769.32
510.95	21682.72
511.12	21427.60
511.30	21462.71
511.47	21490.80
511.64	21439.31
511.82	21542.29
511.99	21624.21
512.17	21422.92
512.34	21352.71
512.51	21598.46
512.69	21769.32
512.86	21745.92
513.04	21699.11
513.21	21642.93
513.38	21462.71
513.56	21713.15
513.73	21256.75
513.90	21766.98
514.08	22087.64
514.25	22022.10
514.43	22113.38
514.60	22082.95
514.77	22317.01
514.95	22384.88
515.12	22356.80
515.29	22483.19
515.47	22787.46
515.64	23040.23
515.81	22995.76
515.99	22993.42
516.16	22925.55
516.33	22923.21
516.51	23468.55
516.68	23587.92
516.85	23421.74
517.03	23393.65
517.20	23964.75
517.37	23910.91
517.54	23510.68
517.72	23817.29
517.89	23833.68
518.06	24130.92
518.24	24563.92
518.41	24322.85
518.58	24093.47
518.75	24407.11
518.93	24266.67
519.10	24503.07
519.27	24582.65
519.45	24559.24
519.62	24659.88
519.79	24886.92
519.96	24957.13
520.14	24706.70
520.31	24276.04
520.48	24383.70
520.65	24837.76
520.83	24762.87
521.00	24931.39
521.17	24664.57
521.34	24343.91
521.52	24620.10
521.69	23983.47
521.86	24353.27
522.03	24102.84
522.20	23623.03
522.38	23721.33
522.55	23508.34
522.72	23559.83
522.89	23484.94
523.07	23262.58
523.24	23117.47
523.41	22850.65
523.58	22881.08
523.75	23023.85
523.92	22876.40
524.10	22686.81
524.27	22862.35
524.44	22497.23
524.61	22408.29
524.78	22288.92
524.96	22452.76
525.13	22485.53
525.30	22031.46
525.47	22597.87
525.64	22073.59
525.81	22726.60
525.98	22335.73
526.16	22141.47
526.33	22335.73
526.50	22555.74
526.67	22518.29
526.84	22272.54
527.01	22541.70
527.18	22160.19
527.36	22469.14
527.53	22347.44
527.70	22389.56
527.87	22251.47
528.04	22101.68
528.21	21998.70
528.38	22352.12
528.55	22302.96
528.72	22448.08
528.89	22333.39
529.07	21996.35
529.24	22101.68
529.41	22822.56
529.58	22857.67
529.75	22590.85
529.92	22780.43
530.09	22970.02
530.26	22658.73
530.43	23101.09
530.60	22670.43
530.77	22761.71
530.94	22995.76
531.11	23197.05
531.28	23555.15
531.46	23468.55
531.63	23690.90
531.80	23700.26
531.97	23857.08
532.14	23901.55
532.31	23763.46
532.48	24011.56
532.65	24474.98
532.82	24362.64
532.99	24592.01
533.16	24933.73
533.33	24933.73
533.50	25282.47
533.67	25647.59
533.84	25408.86
534.01	25715.47
534.18	25891.01
534.35	26553.38
534.52	26565.08
534.69	26885.73
534.86	27239.15
535.03	27101.06
535.20	27253.20
535.37	27831.31
535.54	27768.12
535.71	28020.89
535.88	28617.73
536.05	28549.85
536.22	28694.97
536.38	28919.66
536.55	29252.02
536.72	29127.97
536.89	29635.86
537.06	29666.29
537.23	29982.26
537.40	30441.01
537.57	30085.25
537.74	30490.16
537.91	30787.41
538.08	30998.06
538.25	31215.72
538.42	31651.06
538.59	31688.51
538.75	31718.94
538.92	31929.59
539.09	32320.46
539.26	32697.28
539.43	32650.47
539.60	32524.08
539.77	32767.50
539.94	33118.58
540.11	33312.84
540.28	33364.34
540.44	33584.35
540.61	33853.51
540.78	33724.78
540.95	34302.89
541.12	34220.97
541.29	33895.64
541.46	34354.38
541.62	35187.61
541.79	35449.75
541.96	34871.64
542.13	35049.52
542.30	35262.51
542.47	35508.27
542.63	35136.12
542.80	35716.58
542.97	36133.19
543.14	36392.99
543.31	36400.01
543.48	35913.18
543.64	36318.09
543.81	35978.72
543.98	36341.50
544.15	36603.64
544.32	36463.21
544.48	36617.68
544.65	36538.10
544.82	36683.22
544.99	36971.10
545.16	37015.57
545.32	36987.49
545.49	38024.34
545.66	37900.29
545.83	37673.26
546.00	37947.11
546.16	37546.87
546.33	37490.70
546.50	37212.18
546.67	37654.54
546.83	37535.17
547.00	37942.42
547.17	37455.59
547.34	37619.43
547.50	37926.04
547.67	38426.92
547.84	37794.97
548.00	38143.71
548.17	38520.54
548.34	38555.64
548.51	38256.06
548.67	38274.78
548.84	37972.85
549.01	38326.27
549.18	38188.18
549.34	38335.63
549.51	38565.01
549.68	38553.30
549.84	38555.64
550.01	38059.45
550.18	38595.43
550.34	38529.90
550.51	38440.96
550.68	38663.31
550.84	38199.88
551.01	39227.38
551.18	38576.71
551.34	38682.03
551.51	39054.18
551.68	38782.68
551.84	39159.50
552.01	38969.92
552.18	38714.80
552.34	38574.37
552.51	38607.14
552.68	38834.17
552.84	38995.67
553.01	39473.13
553.18	39269.51
553.34	39304.62
553.51	38885.66
553.67	39384.19
553.84	39372.49
554.01	39152.48
554.17	39061.20
554.34	39358.45
554.51	39800.81
554.67	39445.05
554.84	39438.03
555.00	39477.82
555.17	39220.36
555.33	39639.31
555.50	39044.82
555.67	39445.05
555.83	39641.65
556.00	39906.13
556.16	39878.05
556.33	39475.48
556.50	39662.72
556.66	39988.05
556.83	39414.62
556.99	39786.77
557.16	39859.32
557.32	39503.56
557.49	39966.99
557.65	39318.66
557.82	39707.19
557.98	39805.49
558.15	39468.45
558.32	39377.17
558.48	39634.63
558.65	39770.38
558.81	39629.95
558.98	39716.55
559.14	39824.22
559.31	39679.10
559.47	39646.33
559.64	39838.26
559.80	39639.31
559.97	39529.31
560.13	39370.15
560.30	39632.29
560.46	39864.00
560.63	39255.46
560.79	39856.98
560.96	39477.82
561.12	39798.47
561.29	39824.22
561.45	39227.38
561.61	39260.15
561.78	39573.78
561.94	39215.68
562.11	38955.88
562.27	39667.40
562.44	39304.62
562.60	39498.88
562.77	39454.41
562.93	39250.78
563.10	39658.04
563.26	39306.96
563.42	39381.85
563.59	38728.84
563.75	38960.56
563.92	38691.40
564.08	38567.35
564.24	38618.84
564.41	38770.97
564.57	38106.26
564.74	38143.71
564.90	37560.92
565.07	37294.10
565.23	37322.18
565.39	37013.23
565.56	36907.91
565.72	36488.95
565.88	36053.61
566.05	35716.58
566.21	35454.44
566.38	35732.96
566.54	34944.20
566.70	34967.60
566.87	34340.34
567.03	33909.68
567.19	33694.35
567.36	32818.99
567.52	32217.47
567.68	31728.30
567.85	31070.61
568.01	29977.58
568.17	29331.59
568.34	28926.68
568.50	27695.56
568.66	27075.32
568.83	26452.73
568.99	25312.89
569.15	24631.80
569.32	23791.55
569.48	22684.47
569.64	22136.79
569.81	21261.43
569.97	20575.65
570.13	19410.06
570.30	18750.03
570.46	18265.54
570.62	17406.56
570.78	17146.76
570.95	16152.04
571.11	15875.85
571.27	15117.52
571.43	14780.48
571.60	14836.66
571.76	14335.78
571.92	14143.86
572.09	14061.94
572.25	13783.41
572.41	13610.22
572.57	13429.99
572.74	13324.67
572.90	13366.80
573.06	13561.06
573.22	13305.95
573.38	13516.59
573.55	13444.04
573.71	13359.78
573.87	13554.04
574.03	13385.52
574.20	13537.66
574.36	13652.34
574.52	13575.11
574.68	13511.91
574.84	13862.99
575.01	13731.92
575.17	13645.32
575.33	13678.09
575.49	13502.55
575.65	13689.79
575.82	13855.97
575.98	13696.82
576.14	14019.81
576.30	14057.26
576.46	13839.59
576.62	14115.77
576.79	14380.25
576.95	14064.28
577.11	14008.11
577.27	14155.56
577.43	13984.70
577.59	14071.30
577.75	14600.26
577.92	14464.51
578.08	14644.73
578.24	14644.73
578.40	14792.19
578.56	15421.79
578.72	14934.96
578.88	15236.89
579.04	15054.33
579.21	15016.88
579.37	14970.07
579.53	15129.22
579.69	14895.17
579.85	15353.91
580.01	14970.07
580.17	14946.66
580.33	14754.74
580.49	14630.69
580.65	14602.60
580.82	14340.46
580.98	14249.18
581.14	13958.96
581.30	13645.32
581.46	13502.55
581.62	13331.69
581.78	12884.65
581.94	12746.56
582.10	12475.06
582.26	12217.60
582.42	11819.71
582.58	11583.31
582.74	11241.59
582.90	10721.99
583.06	10796.89
583.22	10436.45
583.38	10314.74
583.54	10176.65
583.70	9900.47
583.86	9863.02
584.02	9621.94
584.18	9582.15
584.34	9448.74
584.50	9305.97
584.66	9401.93
584.82	9191.28
584.98	9261.50
585.14	9247.46
585.30	9479.17
585.46	9490.87
585.62	9476.83
585.78	9380.87
585.94	9502.58
586.10	9556.41
586.26	9865.36
586.42	9757.69
586.58	10001.11
586.74	9984.73
586.90	10274.95
587.06	10310.06
587.22	10824.98
587.38	10682.20
587.54	10869.45
587.70	11115.20
587.86	11262.66
588.02	11431.18
588.18	11564.59
588.34	11693.32
588.49	11889.92
588.65	12009.29
588.81	12346.33
588.97	12699.75
589.13	12505.48
589.29	12884.65
589.45	13289.56
589.61	13027.42
589.77	13439.36
589.93	13549.36
590.08	13762.35
590.24	13729.58
590.40	14118.11
590.56	14197.69
590.72	14239.82
590.88	14588.56
591.04	14623.67
