SpectraSuite Data File
++++++++++++++++++++++++++++++++++++
Date: Mon Sep 30 18:11:52 GMT-05:00 2013
User: stostad
Dark Spectrum Present: No
Reference Spectrum Present: No
Number of Sampled Component Spectra: 1
Spectrometers: USB2+H05261
Integration Time (usec): 100000 (USB2+H05261)
Spectra Averaged: 1 (USB2+H05261)
Boxcar Smoothing: 0 (USB2+H05261)
Correct for Electrical Dark: No (USB2+H05261)
Strobe/Lamp Enabled: No (USB2+H05261)
Correct for Detector Non-linearity: No (USB2+H05261)
Correct for Stray Light: No (USB2+H05261)
Number of Pixels in Processed Spectrum: 2048
>>>>>Begin Processed Spectral Data<<<<<
365.73	77.24
365.92	77.24
366.12	77.24
366.32	4.68
366.52	11.70
366.72	21.06
366.91	93.62
367.11	7.02
367.31	14.04
367.51	0.00
367.70	0.00
367.90	0.00
368.10	18.72
368.30	91.28
368.49	0.00
368.69	65.54
368.89	49.15
369.09	53.83
369.28	0.00
369.48	72.56
369.68	67.88
369.87	35.11
370.07	91.28
370.27	161.50
370.47	98.30
370.66	105.32
370.86	173.20
371.06	257.46
371.25	257.46
371.45	177.88
371.65	208.31
371.84	196.60
372.04	285.55
372.24	257.46
372.44	292.57
372.63	276.18
372.83	264.48
373.03	212.99
373.22	191.92
373.42	252.78
373.62	264.48
373.81	372.15
374.01	339.38
374.21	360.44
374.40	299.59
374.60	271.50
374.79	271.50
374.99	348.74
375.19	353.42
375.38	276.18
375.58	327.68
375.78	318.31
375.97	276.18
376.17	285.55
376.37	355.76
376.56	294.91
376.76	346.40
376.95	346.40
377.15	325.33
377.35	311.29
377.54	369.80
377.74	334.70
377.93	367.46
378.13	287.89
378.33	337.04
378.52	348.74
378.72	416.62
378.91	315.97
379.11	395.55
379.31	278.52
379.50	259.80
379.70	304.27
379.89	327.68
380.09	400.23
380.28	395.55
380.48	360.44
380.68	381.51
380.87	243.42
381.07	304.27
381.26	334.70
381.46	250.44
381.65	308.95
381.85	255.12
382.04	201.29
382.24	278.52
382.43	287.89
382.63	322.99
382.83	294.91
383.02	306.61
383.22	320.65
383.41	184.90
383.61	332.36
383.80	376.83
384.00	360.44
384.19	276.18
384.39	421.30
384.58	372.15
384.78	327.68
384.97	346.40
385.17	332.36
385.36	278.52
385.56	339.38
385.75	299.59
385.95	332.36
386.14	285.55
386.34	428.32
386.53	330.02
386.72	292.57
386.92	381.51
387.11	341.72
387.31	313.63
387.50	320.65
387.70	344.06
387.89	383.85
388.09	346.40
388.28	294.91
388.48	423.64
388.67	402.57
388.86	369.80
389.06	397.89
389.25	430.66
389.45	395.55
389.64	383.85
389.84	482.15
390.03	411.93
390.22	444.70
390.42	383.85
390.61	407.25
390.81	334.70
391.00	496.19
391.19	404.91
391.39	505.56
391.58	421.30
391.78	423.64
391.97	346.40
392.16	327.68
392.36	313.63
392.55	402.57
392.75	322.99
392.94	299.59
393.13	290.23
393.33	306.61
393.52	332.36
393.71	360.44
393.91	449.38
394.10	369.80
394.29	339.38
394.49	393.21
394.68	390.87
394.88	484.49
395.07	458.74
395.26	400.23
395.46	416.62
395.65	440.02
395.84	367.46
396.04	388.53
396.23	367.46
396.42	318.31
396.62	318.31
396.81	362.78
397.00	416.62
397.19	444.70
397.39	402.57
397.58	547.69
397.77	463.43
397.97	557.05
398.16	470.45
398.35	526.62
398.55	573.43
398.74	454.06
398.93	505.56
399.12	585.13
399.32	571.09
399.51	470.45
399.70	622.58
399.90	550.03
400.09	533.64
400.28	559.39
400.47	554.71
400.67	552.37
400.86	526.62
401.05	500.87
401.24	554.71
401.44	615.56
401.63	571.09
401.82	624.92
402.01	585.13
402.21	613.22
402.40	608.54
402.59	653.01
402.78	545.34
402.97	615.56
403.17	645.99
403.36	585.13
403.55	613.22
403.74	585.13
403.93	624.92
404.13	512.58
404.32	533.64
404.51	566.41
404.70	634.29
404.89	575.77
405.09	678.76
405.28	662.37
405.47	634.29
405.66	631.94
405.85	669.39
406.05	620.24
406.24	585.13
406.43	603.86
406.62	599.18
406.81	617.90
407.00	608.54
407.20	657.69
407.39	608.54
407.58	627.26
407.77	664.71
407.96	596.84
408.15	617.90
408.34	676.41
408.54	660.03
408.73	702.16
408.92	685.78
409.11	624.92
409.30	638.97
409.49	645.99
409.68	571.09
409.87	603.86
410.07	564.07
410.26	648.33
410.45	601.52
410.64	662.37
410.83	671.73
411.02	638.97
411.21	772.38
411.40	746.63
411.59	683.44
411.78	692.80
411.98	617.90
412.17	653.01
412.36	634.29
412.55	676.41
412.74	697.48
412.93	645.99
413.12	725.57
413.31	791.10
413.50	734.93
413.69	713.86
413.88	711.52
414.07	767.70
414.26	683.44
414.45	706.84
414.64	767.70
414.83	765.36
415.02	751.31
415.22	692.80
415.41	795.78
415.60	664.71
415.79	814.51
415.98	793.44
416.17	727.91
416.36	767.70
416.55	648.33
416.74	732.59
416.93	667.05
417.12	798.12
417.31	676.41
417.50	713.86
417.69	791.10
417.88	718.54
418.07	758.33
418.26	709.18
418.45	690.46
418.64	807.48
418.83	798.12
419.02	798.12
419.21	739.61
419.39	739.61
419.58	692.80
419.77	755.99
419.96	737.27
420.15	882.38
420.34	746.63
420.53	774.72
420.72	884.72
420.91	898.77
421.10	814.51
421.29	744.29
421.48	784.08
421.67	791.10
421.86	727.91
422.05	763.01
422.24	596.84
422.43	702.16
422.61	802.80
422.80	821.53
422.99	765.36
423.18	683.44
423.37	692.80
423.56	732.59
423.75	800.46
423.94	725.57
424.13	720.88
424.32	739.61
424.50	748.97
424.69	713.86
424.88	737.27
425.07	674.07
425.26	753.65
425.45	744.29
425.64	725.57
425.83	727.91
426.01	758.33
426.20	814.51
426.39	765.36
426.58	681.10
426.77	674.07
426.96	636.63
427.15	695.14
427.33	800.46
427.52	730.25
427.71	709.18
427.90	802.80
428.09	697.48
428.28	744.29
428.46	669.39
428.65	709.18
428.84	763.01
429.03	781.74
429.22	692.80
429.40	566.41
429.59	592.16
429.78	592.16
429.97	615.56
430.16	596.84
430.34	554.71
430.53	550.03
430.72	608.54
430.91	720.88
431.10	695.14
431.28	821.53
431.47	870.68
431.66	823.87
431.85	725.57
432.03	664.71
432.22	793.44
432.41	777.06
432.60	809.83
432.79	767.70
432.97	875.36
433.16	807.48
433.35	713.86
433.54	695.14
433.72	741.95
433.91	746.63
434.10	819.19
434.28	763.01
434.47	873.02
434.66	819.19
434.85	779.40
435.03	840.25
435.22	898.77
435.41	1025.15
435.59	968.98
435.78	861.32
435.97	849.61
436.16	910.47
436.34	830.89
436.53	863.66
436.72	873.02
436.90	755.99
437.09	833.23
437.28	844.93
437.46	833.23
437.65	781.74
437.84	830.89
438.02	732.59
438.21	697.48
438.40	706.84
438.58	812.17
438.77	847.27
438.96	877.70
439.14	873.02
439.33	922.17
439.52	844.93
439.70	877.70
439.89	777.06
440.08	755.99
440.26	887.06
440.45	950.26
440.63	1006.43
440.82	957.28
441.01	938.55
441.19	837.91
441.38	954.94
441.57	933.87
441.75	1015.79
441.94	1022.81
442.12	933.87
442.31	936.21
442.50	950.26
442.68	933.87
442.87	1006.43
443.05	994.73
443.24	922.17
443.43	940.90
443.61	1069.62
443.80	971.32
443.98	936.21
444.17	910.47
444.35	976.00
444.54	964.30
444.73	985.37
444.91	938.55
445.10	922.17
445.28	882.38
445.47	884.72
445.65	924.51
445.84	905.79
446.02	947.92
446.21	931.53
446.39	922.17
446.58	964.30
446.77	889.40
446.95	964.30
447.14	968.98
447.32	1062.60
447.51	908.13
447.69	994.73
447.88	978.34
448.06	971.32
448.25	1083.67
448.43	940.90
448.62	931.53
448.80	987.71
448.99	1011.11
449.17	992.39
449.36	1013.45
449.54	950.26
449.73	1006.43
449.91	978.34
450.10	1036.86
450.28	1107.07
450.46	1109.41
450.65	1139.84
450.83	1116.44
451.02	1015.79
451.20	1076.65
451.39	1067.28
451.57	990.05
451.76	1020.47
451.94	999.41
452.13	964.30
452.31	992.39
452.49	896.43
452.68	929.19
452.86	945.58
453.05	952.60
453.23	1050.90
453.42	929.19
453.60	1008.77
453.78	1057.92
453.97	1013.45
454.15	1001.75
454.34	997.07
454.52	926.85
454.70	1011.11
454.89	1020.47
455.07	947.92
455.26	931.53
455.44	1053.24
455.62	1090.69
455.81	1015.79
455.99	997.07
456.17	1053.24
456.36	992.39
456.54	1076.65
456.73	1008.77
456.91	1083.67
457.09	1132.82
457.28	1057.92
457.46	1013.45
457.64	983.02
457.83	1020.47
458.01	1067.28
458.19	1039.20
458.38	1036.86
458.56	1128.14
458.74	1123.46
458.93	1011.11
459.11	980.68
459.29	1013.45
459.48	1020.47
459.66	1060.26
459.84	1078.99
460.03	1074.31
460.21	954.94
460.39	999.41
460.57	1109.41
460.76	1121.12
460.94	1137.50
461.12	1114.10
461.31	1107.07
461.49	1015.79
461.67	1064.94
461.85	1111.75
462.04	1116.44
462.22	1280.27
462.40	1203.04
462.59	1095.37
462.77	1041.54
462.95	1104.73
463.13	1048.56
463.32	1022.81
463.50	1025.15
463.68	1130.48
463.86	1025.15
464.05	1006.43
464.23	997.07
464.41	1100.05
464.59	1067.28
464.78	1071.97
464.96	1104.73
465.14	945.58
465.32	1078.99
465.50	1064.94
465.69	1100.05
465.87	1025.15
466.05	987.71
466.23	908.13
466.41	1022.81
466.60	980.68
466.78	1107.07
466.96	1076.65
467.14	1121.12
467.32	1111.75
467.51	1006.43
467.69	1086.01
467.87	997.07
468.05	1139.84
468.23	1107.07
468.41	1074.31
468.60	994.73
468.78	1100.05
468.96	1043.88
469.14	1006.43
469.32	959.62
469.50	1022.81
469.69	1022.81
469.87	1071.97
470.05	1081.33
470.23	1039.20
470.41	985.37
470.59	1039.20
470.77	1060.26
470.95	1086.01
471.14	1139.84
471.32	1069.62
471.50	1205.38
471.68	1193.67
471.86	1151.54
472.04	1132.82
472.22	1104.73
472.40	1022.81
472.58	1078.99
472.77	1074.31
472.95	1100.05
473.13	1177.29
473.31	1151.54
473.49	1095.37
473.67	1196.01
473.85	1252.19
474.03	1245.16
474.21	1200.69
474.39	1088.35
474.57	1153.88
474.75	1193.67
474.93	1069.62
475.12	1118.78
475.30	1125.80
475.48	1132.82
475.66	1114.10
475.84	1151.54
476.02	1116.44
476.20	1104.73
476.38	1088.35
476.56	1186.65
476.74	1235.80
476.92	1165.59
477.10	1149.20
477.28	1200.69
477.46	1179.63
477.64	1306.02
477.82	1217.08
478.00	1228.78
478.18	1181.97
478.36	1303.68
478.54	1116.44
478.72	1196.01
478.90	1291.98
479.08	1240.48
479.26	1291.98
479.44	1277.93
479.62	1303.68
479.80	1266.23
479.98	1217.08
480.16	1320.06
480.34	1289.64
480.52	1282.61
480.70	1362.19
480.88	1275.59
481.06	1310.70
481.24	1291.98
481.41	1299.00
481.59	1320.06
481.77	1392.62
481.95	1343.47
482.13	1261.55
482.31	1336.45
482.49	1284.95
482.67	1359.85
482.85	1355.17
483.03	1336.45
483.21	1390.28
483.39	1320.06
483.57	1348.15
483.74	1413.68
483.92	1427.73
484.10	1364.53
484.28	1409.00
484.46	1493.26
484.64	1497.94
484.82	1296.66
485.00	1355.17
485.18	1301.34
485.35	1336.45
485.53	1188.99
485.71	1165.59
485.89	1188.99
486.07	1350.49
486.25	1376.24
486.43	1411.34
486.61	1387.94
486.78	1500.28
486.96	1373.89
487.14	1547.09
487.32	1511.99
487.50	1537.73
487.68	1472.20
487.85	1570.50
488.03	1432.41
488.21	1528.37
488.39	1481.56
488.57	1507.30
488.75	1378.58
488.92	1834.98
489.10	1657.10
489.28	1764.76
489.46	1624.33
489.64	1638.38
489.81	1624.33
489.99	1739.02
490.17	1673.48
490.35	1673.48
490.53	1685.19
490.70	1626.67
490.88	1680.50
491.06	1537.73
491.24	1701.57
491.41	1593.90
491.59	1533.05
491.77	1526.03
491.95	1621.99
492.13	1570.50
492.30	1703.91
492.48	1661.78
492.66	1713.27
492.84	1743.70
493.01	1732.00
493.19	1605.61
493.37	1687.53
493.54	1689.87
493.72	1743.70
493.90	1877.11
494.08	1746.04
494.25	1851.36
494.43	1811.57
494.61	1898.17
494.79	1820.94
494.96	1795.19
495.14	1727.32
495.32	1708.59
495.49	1668.80
495.67	1830.30
495.85	1776.47
496.02	1806.89
496.20	1785.83
496.38	1851.36
496.55	1776.47
496.73	1839.66
496.91	1832.64
497.09	1867.75
497.26	1830.30
497.44	1795.19
497.62	1926.26
497.79	1685.19
497.97	1809.23
498.14	1827.96
498.32	1870.09
498.50	1804.55
498.67	1858.39
498.85	1837.32
499.03	1877.11
499.20	1827.96
499.38	1858.39
499.56	1753.06
499.73	1823.28
499.91	1954.35
500.08	1820.94
500.26	1682.85
500.44	1776.47
500.61	1834.98
500.79	1767.10
500.97	1870.09
501.14	1804.55
501.32	1820.94
501.49	1930.94
501.67	1781.15
501.84	1750.72
502.02	1734.34
502.20	1767.10
502.37	1842.00
502.55	1886.47
502.72	1860.73
502.90	1832.64
503.07	1863.07
503.25	1739.02
503.43	1757.74
503.60	1724.97
503.78	1753.06
503.95	1799.87
504.13	1839.66
504.30	1930.94
504.48	1788.17
504.65	1884.13
504.83	1834.98
505.01	1877.11
505.18	1984.77
505.36	2001.16
505.53	1989.46
505.71	1998.82
505.88	2085.42
506.06	1851.36
506.23	1877.11
506.41	1851.36
506.58	1816.26
506.76	1886.47
506.93	1991.80
507.11	1935.62
507.28	1949.67
507.46	1762.42
507.63	1762.42
507.81	1778.81
507.98	1783.49
508.16	1919.24
508.33	1898.17
508.50	2005.84
508.68	1907.54
508.85	1926.26
509.03	2015.20
509.20	1982.43
509.38	1846.68
509.55	1858.39
509.73	1977.75
509.90	2010.52
510.08	1916.90
510.25	1914.56
510.42	1923.92
510.60	1912.22
510.77	1877.11
510.95	2045.63
511.12	2015.20
511.30	2043.29
511.47	2012.86
511.64	1982.43
511.82	2078.40
511.99	2076.06
512.17	1949.67
512.34	1802.21
512.51	1916.90
512.69	1884.13
512.86	1865.41
513.04	1849.02
513.21	1907.54
513.38	1912.22
513.56	1806.89
513.73	1860.73
513.90	1959.03
514.08	1966.05
514.25	1940.30
514.43	1942.64
514.60	1870.09
514.77	1849.02
514.95	1874.77
515.12	1916.90
515.29	1914.56
515.47	2026.90
515.64	2078.40
515.81	1912.22
515.99	1818.60
516.16	1797.53
516.33	1673.48
516.51	1439.43
516.68	1603.27
516.85	1645.40
517.03	1687.53
517.20	1895.83
517.37	1886.47
517.54	1991.80
517.72	1802.21
517.89	1675.82
518.06	1526.03
518.24	1818.60
518.41	1799.87
518.58	1858.39
518.75	1856.04
518.93	1753.06
519.10	1811.57
519.27	1916.90
519.45	1863.07
519.62	1935.62
519.79	2036.27
519.96	1954.35
520.14	1935.62
520.31	1912.22
520.48	1851.36
520.65	1905.20
520.83	2022.22
521.00	1998.82
521.17	1891.15
521.34	1933.28
521.52	1893.49
521.69	1947.33
521.86	2012.86
522.03	1989.46
522.20	1886.47
522.38	1818.60
522.55	1879.45
522.72	1837.32
522.89	1968.39
523.07	1996.48
523.24	1966.05
523.41	1881.79
523.58	2038.61
523.75	2050.31
523.92	1956.69
524.10	1973.07
524.27	2136.91
524.44	2090.10
524.61	1881.79
524.78	1949.67
524.96	1956.69
525.13	2022.22
525.30	2008.18
525.47	1937.96
525.64	1966.05
525.81	1952.01
525.98	1774.13
526.16	1774.13
526.33	1783.49
526.50	1732.00
526.67	1596.25
526.84	1739.02
527.01	1792.85
527.18	1851.36
527.36	1926.26
527.53	1963.71
527.70	1937.96
527.87	1933.28
528.04	1928.60
528.21	1900.52
528.38	2062.01
528.55	2078.40
528.72	2097.12
528.89	2017.54
529.07	2040.95
529.24	1914.56
529.41	1785.83
529.58	1879.45
529.75	1947.33
529.92	1940.30
530.09	1942.64
530.26	2047.97
530.43	2010.52
530.60	1961.37
530.77	1914.56
530.94	1937.96
531.11	2094.78
531.28	2024.56
531.46	1942.64
531.63	1858.39
531.80	1858.39
531.97	1947.33
532.14	1769.44
532.31	1832.64
532.48	1767.10
532.65	1806.89
532.82	1865.41
532.99	1933.28
533.16	1970.73
533.33	1966.05
533.50	1937.96
533.67	1919.24
533.84	1827.96
534.01	1893.49
534.18	1954.35
534.35	1895.83
534.52	1914.56
534.69	2057.33
534.86	1998.82
535.03	1970.73
535.20	1954.35
535.37	2012.86
535.54	1942.64
535.71	2001.16
535.88	1998.82
536.05	1952.01
536.22	1874.77
536.38	1895.83
536.55	1778.81
536.72	1827.96
536.89	1867.75
537.06	1994.14
537.23	1886.47
537.40	1942.64
537.57	2029.24
537.74	1907.54
537.91	1975.41
538.08	1942.64
538.25	1968.39
538.42	1912.22
538.59	1966.05
538.75	1989.46
538.92	1982.43
539.09	1961.37
539.26	1916.90
539.43	1823.28
539.60	1940.30
539.77	2010.52
539.94	1963.71
540.11	1933.28
540.28	1937.96
540.44	1905.20
540.61	1898.17
540.78	1909.88
540.95	2036.27
541.12	1970.73
541.29	1902.86
541.46	2132.23
541.62	2062.01
541.79	1919.24
541.96	1933.28
542.13	1961.37
542.30	2106.48
542.47	1935.62
542.63	1963.71
542.80	1954.35
542.97	1973.07
543.14	1998.82
543.31	2076.06
543.48	2076.06
543.64	2078.40
543.81	2057.33
543.98	2059.67
544.15	1989.46
544.32	2024.56
544.48	2003.50
544.65	1940.30
544.82	1989.46
544.99	2033.93
545.16	1982.43
545.32	2101.80
545.49	2331.17
545.66	2282.02
545.83	2235.21
546.00	2087.76
546.16	2019.88
546.33	1984.77
546.50	1947.33
546.67	2026.90
546.83	1884.13
547.00	1930.94
547.17	2052.65
547.34	1778.81
547.50	1802.21
547.67	1884.13
547.84	1874.77
548.00	2029.24
548.17	1949.67
548.34	1891.15
548.51	1996.48
548.67	1921.58
548.84	1933.28
549.01	1947.33
549.18	1926.26
549.34	1916.90
549.51	1804.55
549.68	1825.62
549.84	1858.39
550.01	1921.58
550.18	1937.96
550.34	2003.50
550.51	1891.15
550.68	1907.54
550.84	1816.26
551.01	1933.28
551.18	1921.58
551.34	1842.00
551.51	1898.17
551.68	1900.52
551.84	1804.55
552.01	1722.63
552.18	1825.62
552.34	1823.28
552.51	1799.87
552.68	1877.11
552.84	1886.47
553.01	1813.92
553.18	1748.38
553.34	1853.70
553.51	1813.92
553.67	1830.30
553.84	1853.70
554.01	1839.66
554.17	1788.17
554.34	1837.32
554.51	1846.68
554.67	1909.88
554.84	1846.68
555.00	1886.47
555.17	1795.19
555.33	1884.13
555.50	1825.62
555.67	1797.53
555.83	1846.68
556.00	1785.83
556.16	1895.83
556.33	1797.53
556.50	1715.61
556.66	1743.70
556.83	1708.59
556.99	1732.00
557.16	1764.76
557.32	1757.74
557.49	1739.02
557.65	1813.92
557.82	1664.12
557.98	1732.00
558.15	1837.32
558.32	1626.67
558.48	1706.25
558.65	1633.69
558.81	1743.70
558.98	1692.21
559.14	1872.43
559.31	1825.62
559.47	1708.59
559.64	1724.97
559.80	1575.18
559.97	1748.38
560.13	1713.27
560.30	1717.95
560.46	1806.89
560.63	1792.85
560.79	1769.44
560.96	1736.68
561.12	1820.94
561.29	1605.61
561.45	1631.35
561.61	1710.93
561.78	1722.63
561.94	1614.97
562.11	1687.53
562.27	1776.47
562.44	1657.10
562.60	1701.57
562.77	1739.02
562.93	1729.66
563.10	1626.67
563.26	1680.50
563.42	1715.61
563.59	1631.35
563.75	1661.78
563.92	1558.80
564.08	1790.51
564.24	1748.38
564.41	1685.19
564.57	1668.80
564.74	1605.61
564.90	1668.80
565.07	1570.50
565.23	1675.82
565.39	1661.78
565.56	1626.67
565.72	1699.23
565.88	1675.82
566.05	1654.76
566.21	1591.56
566.38	1673.48
566.54	1692.21
566.70	1654.76
566.87	1652.42
567.03	1659.44
567.19	1537.73
567.36	1708.59
567.52	1591.56
567.68	1664.12
567.85	1598.59
568.01	1570.50
568.17	1540.07
568.34	1523.69
568.50	1394.96
568.66	1542.41
568.83	1610.29
568.99	1603.27
569.15	1621.99
569.32	1549.43
569.48	1570.50
569.64	1563.48
569.81	1596.25
569.97	1472.20
570.13	1537.73
570.30	1519.01
570.46	1401.98
570.62	1423.05
570.78	1500.28
570.95	1519.01
571.11	1490.92
571.27	1575.18
571.43	1600.93
571.60	1577.52
571.76	1551.78
571.92	1519.01
572.09	1556.46
572.25	1511.99
572.41	1479.22
572.57	1533.05
572.74	1619.65
572.90	1561.14
573.06	1486.24
573.22	1500.28
573.38	1549.43
573.55	1540.07
573.71	1523.69
573.87	1556.46
574.03	1441.77
574.20	1556.46
574.36	1500.28
574.52	1514.33
574.68	1495.60
574.84	1392.62
575.01	1425.39
575.17	1488.58
575.33	1348.15
575.49	1465.18
575.65	1432.41
575.82	1469.86
575.98	1544.75
576.14	1465.18
576.30	1483.90
576.46	1551.78
576.62	1654.76
576.79	1537.73
576.95	1507.30
577.11	1493.26
577.27	1446.45
577.43	1446.45
577.59	1460.49
577.75	1547.09
577.92	1373.89
578.08	1401.98
578.24	1371.55
578.40	1570.50
578.56	1577.52
578.72	1549.43
578.88	1521.35
579.04	1439.43
579.21	1486.24
579.37	1542.41
579.53	1420.71
579.69	1460.49
579.85	1526.03
580.01	1565.82
580.17	1500.28
580.33	1458.15
580.49	1526.03
580.65	1526.03
580.82	1523.69
580.98	1537.73
581.14	1511.99
581.30	1523.69
581.46	1448.79
581.62	1600.93
581.78	1437.09
581.94	1563.48
582.10	1556.46
582.26	1570.50
582.42	1530.71
582.58	1476.88
582.74	1467.52
582.90	1575.18
583.06	1631.35
583.22	1483.90
583.38	1486.24
583.54	1619.65
583.70	1554.12
583.86	1530.71
584.02	1507.30
584.18	1486.24
584.34	1437.09
584.50	1544.75
584.66	1486.24
584.82	1479.22
584.98	1390.28
585.14	1439.43
585.30	1446.45
585.46	1509.65
585.62	1432.41
585.78	1533.05
585.94	1516.67
586.10	1493.26
586.26	1516.67
586.42	1542.41
586.58	1460.49
586.74	1481.56
586.90	1446.45
587.06	1444.11
587.22	1404.32
587.38	1385.60
587.54	1401.98
587.70	1441.77
587.86	1385.60
588.02	1313.04
588.18	1341.13
588.34	1280.27
588.49	1163.25
588.65	1100.05
588.81	1144.52
588.97	1135.16
589.13	1125.80
589.29	1111.75
589.45	1191.33
589.61	1284.95
589.77	1287.29
589.93	1247.51
590.08	1366.87
590.24	1310.70
590.40	1299.00
590.56	1345.81
590.72	1296.66
590.88	1188.99
591.04	1310.70
591.20	1221.76
591.35	1289.64
591.51	1235.80
591.67	1252.19
591.83	1282.61
591.99	1273.25
592.15	1306.02
592.31	1306.02
592.46	1352.83
592.62	1327.08
592.78	1317.72
592.94	1317.72
593.10	1341.13
593.26	1259.21
593.41	1383.26
593.57	1296.66
593.73	1277.93
593.89	1240.48
594.05	1188.99
594.20	1275.59
594.36	1306.02
594.52	1191.33
594.68	1165.59
594.84	1296.66
594.99	1270.91
595.15	1235.80
595.31	1291.98
595.47	1406.66
595.62	1205.38
595.78	1303.68
595.94	1420.71
596.10	1303.68
596.25	1158.57
596.41	1364.53
596.57	1280.27
596.73	1394.96
596.88	1224.10
597.04	1184.31
597.20	1357.51
597.36	1359.85
597.51	1320.06
597.67	1299.00
597.83	1324.74
597.99	1313.04
598.14	1291.98
598.30	1369.21
598.46	1322.40
598.61	1317.72
598.77	1362.19
598.93	1289.64
599.09	1263.89
599.24	1247.51
599.40	1376.24
599.56	1338.79
599.71	1345.81
599.87	1275.59
600.03	1334.11
600.18	1289.64
600.34	1359.85
600.50	1303.68
600.65	1306.02
600.81	1320.06
