SpectraSuite Data File
++++++++++++++++++++++++++++++++++++
Date: Mon Sep 30 18:11:51 GMT-05:00 2013
User: stostad
Dark Spectrum Present: No
Reference Spectrum Present: No
Number of Sampled Component Spectra: 1
Spectrometers: USB2+H05261
Integration Time (usec): 100000 (USB2+H05261)
Spectra Averaged: 1 (USB2+H05261)
Boxcar Smoothing: 0 (USB2+H05261)
Correct for Electrical Dark: No (USB2+H05261)
Strobe/Lamp Enabled: No (USB2+H05261)
Correct for Detector Non-linearity: No (USB2+H05261)
Correct for Stray Light: No (USB2+H05261)
Number of Pixels in Processed Spectrum: 2048
>>>>>Begin Processed Spectral Data<<<<<
365.73	175.54
365.92	175.54
366.12	175.54
366.32	11.70
366.52	37.45
366.72	67.88
366.91	0.00
367.11	0.00
367.31	0.00
367.51	21.06
367.70	14.04
367.90	0.00
368.10	65.54
368.30	0.00
368.49	0.00
368.69	81.92
368.89	11.70
369.09	16.38
369.28	84.26
369.48	0.00
369.68	35.11
369.87	18.72
370.07	44.47
370.27	60.85
370.47	49.15
370.66	227.03
370.86	243.42
371.06	372.15
371.25	386.19
371.45	262.14
371.65	273.84
371.84	297.25
372.04	351.08
372.24	372.15
372.44	327.68
372.63	299.59
372.83	353.42
373.03	315.97
373.22	332.36
373.42	290.23
373.62	337.04
373.81	348.74
374.01	376.83
374.21	353.42
374.40	365.12
374.60	369.80
374.79	367.46
374.99	355.76
375.19	341.72
375.38	447.04
375.58	367.46
375.78	418.96
375.97	433.00
376.17	407.25
376.37	383.85
376.56	407.25
376.76	386.19
376.95	454.06
377.15	510.24
377.35	559.39
377.54	465.77
377.74	500.87
377.93	472.79
378.13	472.79
378.33	409.59
378.52	381.51
378.72	442.36
378.91	454.06
379.11	355.76
379.31	362.78
379.50	402.57
379.70	418.96
379.89	416.62
380.09	425.98
380.28	379.17
380.48	496.19
380.68	421.30
380.87	386.19
381.07	395.55
381.26	454.06
381.46	353.42
381.65	428.32
381.85	365.12
382.04	381.51
382.24	320.65
382.43	297.25
382.63	332.36
382.83	355.76
383.02	351.08
383.22	435.34
383.41	325.33
383.61	351.08
383.80	423.64
384.00	465.77
384.19	428.32
384.39	468.11
384.58	468.11
384.78	397.89
384.97	409.59
385.17	400.23
385.36	421.30
385.56	440.02
385.75	308.95
385.95	397.89
386.14	472.79
386.34	519.60
386.53	411.93
386.72	388.53
386.92	484.49
387.11	477.47
387.31	482.15
387.50	397.89
387.70	395.55
387.89	421.30
388.09	428.32
388.28	461.09
388.48	414.27
388.67	491.51
388.86	503.22
389.06	533.64
389.25	496.19
389.45	437.68
389.64	404.91
389.84	533.64
390.03	566.41
390.22	571.09
390.42	524.28
390.61	503.22
390.81	585.13
391.00	510.24
391.19	573.43
391.39	561.73
391.58	528.96
391.78	552.37
391.97	484.49
392.16	475.13
392.36	510.24
392.55	428.32
392.75	395.55
392.94	276.18
393.13	383.85
393.33	332.36
393.52	397.89
393.71	510.24
393.91	547.69
394.10	491.51
394.29	550.03
394.49	608.54
394.68	550.03
394.88	713.86
395.07	655.35
395.26	594.50
395.46	533.64
395.65	538.32
395.84	507.90
396.04	552.37
396.23	397.89
396.42	372.15
396.62	369.80
396.81	472.79
397.00	493.85
397.19	580.45
397.39	603.86
397.58	704.50
397.77	660.03
397.97	650.67
398.16	660.03
398.35	699.82
398.55	770.04
398.74	730.25
398.93	741.95
399.12	678.76
399.32	746.63
399.51	683.44
399.70	807.48
399.90	816.85
400.09	737.27
400.28	788.76
400.47	812.17
400.67	847.27
400.86	798.12
401.05	894.08
401.24	844.93
401.44	814.51
401.63	777.06
401.82	805.14
402.01	833.23
402.21	856.64
402.40	816.85
402.59	882.38
402.78	786.42
402.97	802.80
403.17	807.48
403.36	847.27
403.55	835.57
403.74	880.04
403.93	765.36
404.13	798.12
404.32	793.44
404.51	856.64
404.70	959.62
404.89	826.21
405.09	894.08
405.28	784.08
405.47	777.06
405.66	812.17
405.85	856.64
406.05	830.89
406.24	830.89
406.43	842.59
406.62	858.98
406.81	800.46
407.00	781.74
407.20	830.89
407.39	863.66
407.58	809.83
407.77	800.46
407.96	894.08
408.15	887.06
408.34	814.51
408.54	929.19
408.73	851.96
408.92	903.45
409.11	849.61
409.30	905.79
409.49	868.34
409.68	755.99
409.87	706.84
410.07	830.89
410.26	851.96
410.45	957.28
410.64	898.77
410.83	971.32
411.02	870.68
411.21	987.71
411.40	940.90
411.59	936.21
411.78	915.15
411.98	957.28
412.17	954.94
412.36	896.43
412.55	947.92
412.74	915.15
412.93	917.49
413.12	957.28
413.31	1093.03
413.50	943.24
413.69	887.06
413.88	950.26
414.07	903.45
414.26	959.62
414.45	976.00
414.64	954.94
414.83	1118.78
415.02	1015.79
415.22	1048.56
415.41	1100.05
415.60	997.07
415.79	1076.65
415.98	1167.93
416.17	1071.97
416.36	992.39
416.55	1013.45
416.74	1067.28
416.93	978.34
417.12	1015.79
417.31	1149.20
417.50	1025.15
417.69	1095.37
417.88	1069.62
418.07	1006.43
418.26	999.41
418.45	1022.81
418.64	1057.92
418.83	1160.91
419.02	1083.67
419.21	1144.52
419.39	1053.24
419.58	947.92
419.77	1046.22
419.96	1020.47
420.15	1111.75
420.34	1090.69
420.53	1118.78
420.72	1149.20
420.91	1160.91
421.10	1146.86
421.29	1146.86
421.48	1036.86
421.67	1083.67
421.86	1102.39
422.05	980.68
422.24	987.71
422.43	1018.13
422.61	1029.84
422.80	1081.33
422.99	1116.44
423.18	994.73
423.37	1020.47
423.56	971.32
423.75	1029.84
423.94	1104.73
424.13	950.26
424.32	945.58
424.50	1111.75
424.69	1041.54
424.88	1118.78
425.07	1036.86
425.26	1090.69
425.45	1011.11
425.64	945.58
425.83	1060.26
426.01	1097.71
426.20	1029.84
426.39	1069.62
426.58	1034.52
426.77	873.02
426.96	898.77
427.15	896.43
427.33	1090.69
427.52	1034.52
427.71	978.34
427.90	1046.22
428.09	1018.13
428.28	990.05
428.46	943.24
428.65	966.64
428.84	1032.18
429.03	1027.50
429.22	868.34
429.40	884.72
429.59	741.95
429.78	725.57
429.97	767.70
430.16	695.14
430.34	702.16
430.53	746.63
430.72	926.85
430.91	961.96
431.10	1102.39
431.28	1132.82
431.47	1214.74
431.66	1188.99
431.85	994.73
432.03	957.28
432.22	1032.18
432.41	1057.92
432.60	1193.67
432.79	1151.54
432.97	1125.80
433.16	1076.65
433.35	973.66
433.54	884.72
433.72	964.30
433.91	1043.88
434.10	1057.92
434.28	1078.99
434.47	1181.97
434.66	1095.37
434.85	1086.01
435.03	1132.82
435.22	1191.33
435.41	1289.64
435.59	1336.45
435.78	1303.68
435.97	1240.48
436.16	1214.74
436.34	1245.16
436.53	1245.16
436.72	1172.61
436.90	992.39
437.09	1158.57
437.28	1132.82
437.46	1139.84
437.65	1163.25
437.84	1060.26
438.02	1006.43
438.21	1025.15
438.40	1081.33
438.58	1067.28
438.77	1210.06
438.96	1090.69
439.14	1165.59
439.33	1231.12
439.52	1219.42
439.70	1193.67
439.89	1172.61
440.08	1163.25
440.26	1142.18
440.45	1221.76
440.63	1341.13
440.82	1247.51
441.01	1343.47
441.19	1228.78
441.38	1273.25
441.57	1350.49
441.75	1413.68
441.94	1399.64
442.12	1343.47
442.31	1331.76
442.50	1322.40
442.68	1411.34
442.87	1364.53
443.05	1336.45
443.24	1383.26
443.43	1364.53
443.61	1399.64
443.80	1373.89
443.98	1287.29
444.17	1310.70
444.35	1385.60
444.54	1427.73
444.73	1474.54
444.91	1226.44
445.10	1212.40
445.28	1205.38
445.47	1306.02
445.65	1193.67
445.84	1263.89
446.02	1334.11
446.21	1387.94
446.39	1224.10
446.58	1378.58
446.77	1366.87
446.95	1444.11
447.14	1453.47
447.32	1404.32
447.51	1418.36
447.69	1350.49
447.88	1301.34
448.06	1401.98
448.25	1359.85
448.43	1394.96
448.62	1327.08
448.80	1352.83
448.99	1439.43
449.17	1504.96
449.36	1345.81
449.54	1465.18
449.73	1549.43
449.91	1439.43
450.10	1511.99
450.28	1502.62
450.46	1570.50
450.65	1483.90
450.83	1483.90
451.02	1401.98
451.20	1390.28
451.39	1486.24
451.57	1383.26
451.76	1556.46
451.94	1420.71
452.13	1380.92
452.31	1411.34
452.49	1235.80
452.68	1310.70
452.86	1387.94
453.05	1343.47
453.23	1420.71
453.42	1453.47
453.60	1378.58
453.78	1465.18
453.97	1413.68
454.15	1409.00
454.34	1315.38
454.52	1364.53
454.70	1432.41
454.89	1488.58
455.07	1406.66
455.26	1462.83
455.44	1526.03
455.62	1460.49
455.81	1444.11
455.99	1483.90
456.17	1420.71
456.36	1476.88
456.54	1488.58
456.73	1483.90
456.91	1549.43
457.09	1542.41
457.28	1554.12
457.46	1490.92
457.64	1444.11
457.83	1423.05
458.01	1427.73
458.19	1409.00
458.38	1413.68
458.56	1460.49
458.74	1425.39
458.93	1397.30
459.11	1432.41
459.29	1420.71
459.48	1420.71
459.66	1507.30
459.84	1425.39
460.03	1652.42
460.21	1563.48
460.39	1476.88
460.57	1572.84
460.76	1460.49
460.94	1509.65
461.12	1570.50
461.31	1544.75
461.49	1476.88
461.67	1600.93
461.85	1612.63
462.04	1511.99
462.22	1748.38
462.40	1607.95
462.59	1568.16
462.77	1481.56
462.95	1535.39
463.13	1507.30
463.32	1439.43
463.50	1614.97
463.68	1507.30
463.86	1558.80
464.05	1411.34
464.23	1460.49
464.41	1446.45
464.59	1448.79
464.78	1507.30
464.96	1390.28
465.14	1448.79
465.32	1603.27
465.50	1617.31
465.69	1561.14
465.87	1441.77
466.05	1453.47
466.23	1378.58
466.41	1460.49
466.60	1497.94
466.78	1476.88
466.96	1519.01
467.14	1516.67
467.32	1614.97
467.51	1458.15
467.69	1455.81
467.87	1530.71
468.05	1547.09
468.23	1558.80
468.41	1526.03
468.60	1549.43
468.78	1439.43
468.96	1497.94
469.14	1584.54
469.32	1577.52
469.50	1488.58
469.69	1509.65
469.87	1448.79
470.05	1540.07
470.23	1453.47
470.41	1420.71
470.59	1451.13
470.77	1570.50
470.95	1490.92
471.14	1507.30
471.32	1544.75
471.50	1645.40
471.68	1678.16
471.86	1675.82
472.04	1633.69
472.22	1629.01
472.40	1493.26
472.58	1483.90
472.77	1439.43
472.95	1469.86
473.13	1675.82
473.31	1540.07
473.49	1584.54
473.67	1563.48
473.85	1626.67
474.03	1521.35
474.21	1570.50
474.39	1671.14
474.57	1640.72
474.75	1682.85
474.93	1631.35
475.12	1561.14
475.30	1647.74
475.48	1614.97
475.66	1746.04
475.84	1572.84
476.02	1638.38
476.20	1593.90
476.38	1565.82
476.56	1668.80
476.74	1631.35
476.92	1544.75
477.10	1729.66
477.28	1757.74
477.46	1666.46
477.64	1774.13
477.82	1675.82
478.00	1750.72
478.18	1771.79
478.36	1708.59
478.54	1797.53
478.72	1820.94
478.90	1860.73
479.08	1816.26
479.26	1811.57
479.44	1785.83
479.62	1783.49
479.80	1750.72
479.98	1762.42
480.16	1849.02
480.34	1792.85
480.52	1891.15
480.70	1884.13
480.88	1846.68
481.06	1891.15
481.24	1760.08
481.41	1919.24
481.59	1977.75
481.77	1863.07
481.95	1952.01
482.13	2022.22
482.31	1989.46
482.49	1968.39
482.67	2040.95
482.85	2033.93
483.03	1961.37
483.21	2076.06
483.39	2108.82
483.57	1966.05
483.74	1994.14
483.92	2024.56
484.10	1987.11
484.28	1980.09
484.46	2111.16
484.64	2036.27
484.82	1930.94
485.00	1832.64
485.18	1928.60
485.35	1825.62
485.53	1764.76
485.71	1598.59
485.89	1558.80
486.07	1760.08
486.25	1991.80
486.43	1989.46
486.61	1947.33
486.78	1895.83
486.96	2031.58
487.14	2045.63
487.32	2085.42
487.50	2122.87
487.68	2176.70
487.85	2188.40
488.03	2162.66
488.21	2211.81
488.39	2019.88
488.57	2045.63
488.75	2139.25
488.92	2420.11
489.10	2394.37
489.28	2532.46
489.46	2275.00
489.64	2359.26
489.81	2326.49
489.99	2267.98
490.17	2335.85
490.35	2473.95
490.53	2335.85
490.70	2251.60
490.88	2282.02
491.06	2518.42
491.24	2434.16
491.41	2279.68
491.59	2181.38
491.77	2066.69
491.95	2223.51
492.13	2363.94
492.30	2359.26
492.48	2363.94
492.66	2506.71
492.84	2450.54
493.01	2452.88
493.19	2438.84
493.37	2490.33
493.54	2394.37
493.72	2413.09
493.90	2607.36
494.08	2541.82
494.25	2745.45
494.43	2656.51
494.61	2647.15
494.79	2630.76
494.96	2579.27
495.14	2630.76
495.32	2490.33
495.49	2455.22
495.67	2555.86
495.85	2654.17
496.02	2574.59
496.20	2710.34
496.38	2724.38
496.55	2602.68
496.73	2672.89
496.91	2651.83
497.09	2759.49
497.26	2740.77
497.44	2546.50
497.62	2616.72
497.79	2562.89
497.97	2492.67
498.14	2473.95
498.32	2602.68
498.50	2684.59
498.67	2693.96
498.85	2628.42
499.03	2635.44
499.20	2803.96
499.38	2803.96
499.56	2703.32
499.73	2661.19
499.91	2483.31
500.08	2574.59
500.26	2551.18
500.44	2525.44
500.61	2537.14
500.79	2525.44
500.97	2523.10
501.14	2633.10
501.32	2506.71
501.49	2597.99
501.67	2509.05
501.84	2698.64
502.02	2630.76
502.20	2595.65
502.37	2663.53
502.55	2654.17
502.72	2705.66
502.90	2689.28
503.07	2614.38
503.25	2626.08
503.43	2455.22
503.60	2403.73
503.78	2464.58
503.95	2583.95
504.13	2569.91
504.30	2794.60
504.48	2703.32
504.65	2686.94
504.83	2708.00
505.01	2771.19
505.18	2747.79
505.36	2761.83
505.53	2766.51
505.71	2850.77
505.88	2864.82
506.06	2743.11
506.23	2715.02
506.41	2715.02
506.58	2677.57
506.76	2729.06
506.93	2679.91
507.11	2698.64
507.28	2684.59
507.46	2560.55
507.63	2548.84
507.81	2590.97
507.98	2633.10
508.16	2747.79
508.33	2752.47
508.50	2909.29
508.68	2818.00
508.85	2902.26
509.03	2862.48
509.20	2796.94
509.38	2726.72
509.55	2630.76
509.73	2717.36
509.90	2754.81
510.08	2712.68
510.25	2841.41
510.42	2717.36
510.60	2675.23
510.77	2815.66
510.95	2967.80
511.12	2995.89
511.30	2911.63
511.47	3030.99
511.64	2871.84
511.82	2867.16
511.99	2949.08
512.17	2677.57
512.34	2637.78
512.51	2710.34
512.69	2722.04
512.86	2822.69
513.04	2909.29
513.21	2757.15
513.38	2605.02
513.56	2651.83
513.73	2619.06
513.90	2626.08
514.08	2708.00
514.25	2818.00
514.43	2792.26
514.60	2815.66
514.77	2747.79
514.95	2717.36
515.12	2731.41
515.29	2717.36
515.47	2920.99
515.64	2789.92
515.81	2775.88
515.99	2794.60
516.16	2640.12
516.33	2413.09
516.51	2303.09
516.68	2382.67
516.85	2286.70
517.03	2406.07
517.20	2551.18
517.37	2785.24
517.54	2862.48
517.72	2691.62
517.89	2279.68
518.06	2246.91
518.24	2438.84
518.41	2661.19
518.58	2651.83
518.75	2565.23
518.93	2654.17
519.10	2565.23
519.27	2628.42
519.45	2677.57
519.62	2839.07
519.79	3002.91
519.96	2792.26
520.14	2686.94
520.31	2626.08
520.48	2595.65
520.65	2726.72
520.83	2820.35
521.00	2715.02
521.17	2829.71
521.34	2656.51
521.52	2754.81
521.69	2881.20
521.86	2860.13
522.03	2796.94
522.20	2719.70
522.38	2679.91
522.55	2619.06
522.72	2794.60
522.89	2752.47
523.07	2703.32
523.24	2841.41
523.41	2902.26
523.58	2794.60
523.75	2913.97
523.92	2780.56
524.10	2930.35
524.27	2913.97
524.44	2724.38
524.61	2803.96
524.78	2719.70
524.96	2841.41
525.13	2712.68
525.30	2949.08
525.47	2935.03
525.64	2736.09
525.81	2775.88
525.98	2565.23
526.16	2469.27
526.33	2441.18
526.50	2452.88
526.67	2518.42
526.84	2516.08
527.01	2668.21
527.18	2733.75
527.36	2717.36
527.53	2705.66
527.70	2841.41
527.87	2684.59
528.04	2700.98
528.21	2736.09
528.38	2869.50
528.55	2960.78
528.72	2897.58
528.89	2864.82
529.07	2848.43
529.24	2712.68
529.41	2724.38
529.58	2722.04
529.75	2726.72
529.92	2953.76
530.09	2928.01
530.26	2909.29
530.43	2890.56
530.60	2869.50
530.77	2932.69
530.94	2825.03
531.11	2930.35
531.28	2719.70
531.46	2789.92
531.63	2857.79
531.80	2820.35
531.97	2693.96
532.14	2647.15
532.31	2574.59
532.48	2509.05
532.65	2597.99
532.82	2581.61
532.99	2789.92
533.16	2803.96
533.33	2810.98
533.50	2771.19
533.67	2693.96
533.84	2553.52
534.01	2700.98
534.18	2832.05
534.35	2600.34
534.52	2642.46
534.69	2930.35
534.86	2813.32
535.03	2778.22
535.20	2825.03
535.37	2782.90
535.54	2871.84
535.71	3007.59
535.88	2881.20
536.05	2689.28
536.22	2750.13
536.38	2757.15
536.55	2700.98
536.72	2630.76
536.89	2520.76
537.06	2787.58
537.23	2860.13
537.40	2862.48
537.57	2813.32
537.74	2820.35
537.91	2782.90
538.08	2729.06
538.25	2813.32
538.42	2794.60
538.59	2827.37
538.75	2792.26
538.92	2789.92
539.09	2733.75
539.26	2750.13
539.43	2682.25
539.60	2562.89
539.77	2628.42
539.94	2677.57
540.11	2572.25
540.28	2621.40
540.44	2663.53
540.61	2700.98
540.78	2597.99
540.95	2848.43
541.12	2806.30
541.29	2796.94
541.46	2862.48
541.62	2764.17
541.79	2794.60
541.96	2733.75
542.13	2679.91
542.30	2708.00
542.47	2764.17
542.63	2579.27
542.80	2640.12
542.97	2766.51
543.14	2663.53
543.31	2834.39
543.48	2864.82
543.64	2736.09
543.81	2855.45
543.98	2822.69
544.15	2738.43
544.32	2684.59
544.48	2682.25
544.65	2818.00
544.82	2878.86
544.99	2820.35
545.16	2785.24
545.32	2857.79
545.49	3166.74
545.66	3194.83
545.83	2930.35
546.00	2757.15
546.16	2761.83
546.33	2712.68
546.50	2754.81
546.67	2792.26
546.83	2815.66
547.00	2726.72
547.17	2593.31
547.34	2593.31
547.50	2628.42
547.67	2738.43
547.84	2586.29
548.00	2597.99
548.17	2773.53
548.34	2745.45
548.51	2806.30
548.67	2712.68
548.84	2656.51
549.01	2597.99
549.18	2700.98
549.34	2708.00
549.51	2733.75
549.68	2644.81
549.84	2633.10
550.01	2525.44
550.18	2576.93
550.34	2663.53
550.51	2696.30
550.68	2525.44
550.84	2614.38
551.01	2553.52
551.18	2534.80
551.34	2569.91
551.51	2700.98
551.68	2560.55
551.84	2647.15
552.01	2761.83
552.18	2672.89
552.34	2567.57
552.51	2579.27
552.68	2621.40
552.84	2565.23
553.01	2541.82
553.18	2534.80
553.34	2593.31
553.51	2644.81
553.67	2626.08
553.84	2590.97
554.01	2623.74
554.17	2487.99
554.34	2710.34
554.51	2583.95
554.67	2672.89
554.84	2654.17
555.00	2483.31
555.17	2647.15
555.33	2600.34
555.50	2506.71
555.67	2590.97
555.83	2633.10
556.00	2558.21
556.16	2583.95
556.33	2579.27
556.50	2502.03
556.66	2511.39
556.83	2462.24
556.99	2518.42
557.16	2497.35
557.32	2518.42
557.49	2513.74
557.65	2555.86
557.82	2497.35
557.98	2420.11
558.15	2415.43
558.32	2420.11
558.48	2361.60
558.65	2342.88
558.81	2431.82
558.98	2532.46
559.14	2469.27
559.31	2382.67
559.47	2282.02
559.64	2469.27
559.80	2363.94
559.97	2326.49
560.13	2443.52
560.30	2368.62
560.46	2597.99
560.63	2553.52
560.79	2593.31
560.96	2396.71
561.12	2466.92
561.29	2361.60
561.45	2492.67
561.61	2586.29
561.78	2389.69
561.94	2417.77
562.11	2221.17
562.27	2335.85
562.44	2366.28
562.60	2422.45
562.77	2443.52
562.93	2483.31
563.10	2417.77
563.26	2368.62
563.42	2424.80
563.59	2312.45
563.75	2284.36
563.92	2452.88
564.08	2387.35
564.24	2534.80
564.41	2406.07
564.57	2352.24
564.74	2345.22
564.90	2265.64
565.07	2146.27
565.23	2265.64
565.39	2157.97
565.56	2275.00
565.72	2256.28
565.88	2307.77
566.05	2272.66
566.21	2300.75
566.38	2314.79
566.54	2289.04
566.70	2509.05
566.87	2314.79
567.03	2331.17
567.19	2373.30
567.36	2253.94
567.52	2312.45
567.68	2286.70
567.85	2188.40
568.01	2036.27
568.17	2160.31
568.34	2200.10
568.50	2237.55
568.66	2139.25
568.83	2270.32
568.99	2169.68
569.15	2270.32
569.32	2207.13
569.48	2235.21
569.64	2253.94
569.81	2204.78
569.97	2172.02
570.13	2162.66
570.30	2136.91
570.46	2033.93
570.62	1940.30
570.78	2069.03
570.95	2111.16
571.11	2249.25
571.27	2111.16
571.43	2176.70
571.60	2172.02
571.76	2160.31
571.92	2228.19
572.09	2239.89
572.25	2160.31
572.41	2099.46
572.57	2092.44
572.74	2115.84
572.90	2160.31
573.06	2253.94
573.22	2099.46
573.38	2239.89
573.55	2090.10
573.71	2204.78
573.87	2090.10
574.03	2062.01
574.20	2054.99
574.36	2064.35
574.52	2031.58
574.68	2118.18
574.84	2108.82
575.01	1947.33
575.17	2080.74
575.33	2008.18
575.49	2120.53
575.65	2111.16
575.82	1898.17
575.98	1984.77
576.14	2097.12
576.30	2162.66
576.46	2165.00
576.62	2214.15
576.79	2118.18
576.95	2076.06
577.11	2122.87
577.27	2076.06
577.43	2080.74
577.59	2033.93
577.75	1998.82
577.92	1966.05
578.08	1891.15
578.24	2087.76
578.40	2059.67
578.56	2172.02
578.72	2054.99
578.88	2069.03
579.04	2078.40
579.21	2141.59
579.37	2033.93
579.53	2052.65
579.69	2176.70
579.85	2085.42
580.01	2052.65
580.17	2066.69
580.33	2092.44
580.49	2073.71
580.65	2087.76
580.82	2143.93
580.98	2008.18
581.14	2050.31
581.30	2188.40
581.46	2083.08
581.62	2174.36
581.78	2176.70
581.94	2101.80
582.10	2115.84
582.26	2101.80
582.42	2193.08
582.58	2085.42
582.74	2141.59
582.90	2024.56
583.06	2165.00
583.22	2092.44
583.38	2153.29
583.54	2134.57
583.70	2125.21
583.86	2129.89
584.02	2209.47
584.18	2162.66
584.34	2165.00
584.50	1996.48
584.66	2040.95
584.82	1991.80
584.98	2085.42
585.14	1947.33
585.30	2045.63
585.46	2106.48
585.62	1959.03
585.78	2008.18
585.94	2092.44
586.10	2092.44
586.26	2179.04
586.42	2108.82
586.58	2083.08
586.74	2064.35
586.90	2136.91
587.06	1996.48
587.22	1952.01
587.38	2064.35
587.54	1923.92
587.70	1940.30
587.86	1717.95
588.02	1795.19
588.18	1806.89
588.34	1767.10
588.49	1680.50
588.65	1629.01
588.81	1666.46
588.97	1657.10
589.13	1640.72
589.29	1657.10
589.45	1682.85
589.61	1774.13
589.77	1809.23
589.93	1818.60
590.08	1940.30
590.24	1762.42
590.40	1799.87
590.56	1825.62
590.72	1755.40
590.88	1710.93
591.04	1734.34
591.20	1694.55
591.35	1898.17
591.51	1820.94
591.67	1818.60
591.83	1771.79
591.99	1760.08
592.15	1870.09
592.31	1802.21
592.46	1851.36
592.62	1963.71
592.78	1757.74
592.94	1792.85
593.10	1849.02
593.26	1909.88
593.41	1977.75
593.57	1741.36
593.73	1579.86
593.89	1795.19
594.05	1739.02
594.20	1633.69
594.36	1689.87
594.52	1710.93
594.68	1727.32
594.84	1760.08
594.99	1865.41
595.15	1888.81
595.31	1734.34
595.47	1760.08
595.62	1774.13
595.78	1942.64
595.94	1851.36
596.10	1762.42
596.25	1811.57
596.41	1729.66
596.57	1750.72
596.73	1732.00
596.88	1865.41
597.04	1797.53
597.20	1799.87
597.36	1739.02
597.51	1757.74
597.67	1790.51
597.83	1764.76
597.99	1856.04
598.14	1944.99
598.30	1839.66
598.46	1746.04
598.61	1844.34
598.77	1851.36
598.93	1764.76
599.09	1804.55
