SpectraSuite Data File
++++++++++++++++++++++++++++++++++++
Date: Mon Sep 30 18:11:52 GMT-05:00 2013
User: stostad
Dark Spectrum Present: No
Reference Spectrum Present: No
Number of Sampled Component Spectra: 1
Spectrometers: USB2+H05261
Integration Time (usec): 100000 (USB2+H05261)
Spectra Averaged: 1 (USB2+H05261)
Boxcar Smoothing: 0 (USB2+H05261)
Correct for Electrical Dark: No (USB2+H05261)
Strobe/Lamp Enabled: No (USB2+H05261)
Correct for Detector Non-linearity: No (USB2+H05261)
Correct for Stray Light: No (USB2+H05261)
Number of Pixels in Processed Spectrum: 2048
>>>>>Begin Processed Spectral Data<<<<<
365.73	112.35
365.92	112.35
366.12	112.35
366.32	23.41
366.52	67.88
366.72	0.00
366.91	39.79
367.11	30.43
367.31	7.02
367.51	9.36
367.70	9.36
367.90	0.00
368.10	11.70
368.30	0.00
368.49	0.00
368.69	7.02
368.89	35.11
369.09	21.06
369.28	18.72
369.48	0.00
369.68	35.11
369.87	77.24
370.07	126.39
370.27	84.26
370.47	79.58
370.66	163.84
370.86	205.97
371.06	227.03
371.25	215.33
371.45	124.05
371.65	196.60
371.84	231.71
372.04	114.69
372.24	252.78
372.44	292.57
372.63	248.10
372.83	212.99
373.03	229.37
373.22	236.39
373.42	208.31
373.62	198.95
373.81	259.80
374.01	243.42
374.21	301.93
374.40	231.71
374.60	283.20
374.79	231.71
374.99	224.69
375.19	287.89
375.38	318.31
375.58	229.37
375.78	327.68
375.97	243.42
376.17	243.42
376.37	283.20
376.56	222.35
376.76	201.29
376.95	259.80
377.15	222.35
377.35	299.59
377.54	297.25
377.74	297.25
377.93	285.55
378.13	304.27
378.33	271.50
378.52	308.95
378.72	299.59
378.91	231.71
379.11	234.05
379.31	262.14
379.50	241.08
379.70	341.72
379.89	264.48
380.09	301.93
380.28	229.37
380.48	236.39
380.68	255.12
380.87	245.76
381.07	280.86
381.26	248.10
381.46	262.14
381.65	248.10
381.85	264.48
382.04	236.39
382.24	259.80
382.43	196.60
382.63	229.37
382.83	166.18
383.02	170.86
383.22	250.44
383.41	128.73
383.61	238.73
383.80	306.61
384.00	191.92
384.19	201.29
384.39	241.08
384.58	259.80
384.78	266.82
384.97	248.10
385.17	238.73
385.36	229.37
385.56	290.23
385.75	229.37
385.95	227.03
386.14	273.84
386.34	306.61
386.53	313.63
386.72	236.39
386.92	248.10
387.11	285.55
387.31	266.82
387.50	220.01
387.70	287.89
387.89	220.01
388.09	205.97
388.28	234.05
388.48	257.46
388.67	304.27
388.86	332.36
389.06	341.72
389.25	283.20
389.45	299.59
389.64	313.63
389.84	379.17
390.03	283.20
390.22	322.99
390.42	299.59
390.61	241.08
390.81	306.61
391.00	325.33
391.19	442.36
391.39	250.44
391.58	308.95
391.78	262.14
391.97	266.82
392.16	184.90
392.36	245.76
392.55	252.78
392.75	269.16
392.94	159.16
393.13	241.08
393.33	203.63
393.52	234.05
393.71	301.93
393.91	369.80
394.10	304.27
394.29	315.97
394.49	259.80
394.68	322.99
394.88	379.17
395.07	330.02
395.26	304.27
395.46	351.08
395.65	311.29
395.84	273.84
396.04	304.27
396.23	257.46
396.42	248.10
396.62	294.91
396.81	227.03
397.00	327.68
397.19	372.15
397.39	404.91
397.58	451.72
397.77	313.63
397.97	339.38
398.16	428.32
398.35	369.80
398.55	353.42
398.74	397.89
398.93	414.27
399.12	355.76
399.32	395.55
399.51	318.31
399.70	379.17
399.90	416.62
400.09	341.72
400.28	442.36
400.47	367.46
400.67	465.77
400.86	461.09
401.05	416.62
401.24	353.42
401.44	472.79
401.63	386.19
401.82	468.11
402.01	418.96
402.21	351.08
402.40	358.10
402.59	409.59
402.78	379.17
402.97	430.66
403.17	444.70
403.36	411.93
403.55	454.06
403.74	425.98
403.93	430.66
404.13	454.06
404.32	397.89
404.51	461.09
404.70	524.28
404.89	444.70
405.09	458.74
405.28	411.93
405.47	393.21
405.66	383.85
405.85	386.19
406.05	430.66
406.24	451.72
406.43	367.46
406.62	451.72
406.81	379.17
407.00	411.93
407.20	381.51
407.39	407.25
407.58	383.85
407.77	451.72
407.96	489.17
408.15	472.79
408.34	533.64
408.54	435.34
408.73	421.30
408.92	440.02
409.11	435.34
409.30	425.98
409.49	369.80
409.68	402.57
409.87	386.19
410.07	442.36
410.26	395.55
410.45	468.11
410.64	397.89
410.83	475.13
411.02	451.72
411.21	557.05
411.40	517.26
411.59	484.49
411.78	425.98
411.98	414.27
412.17	423.64
412.36	444.70
412.55	451.72
412.74	472.79
412.93	411.93
413.12	442.36
413.31	484.49
413.50	552.37
413.69	503.22
413.88	531.30
414.07	472.79
414.26	454.06
414.45	489.17
414.64	503.22
414.83	505.56
415.02	475.13
415.22	491.51
415.41	500.87
415.60	512.58
415.79	477.47
415.98	550.03
416.17	564.07
416.36	524.28
416.55	521.94
416.74	533.64
416.93	491.51
417.12	437.68
417.31	479.81
417.50	482.15
417.69	578.11
417.88	538.32
418.07	433.00
418.26	440.02
418.45	482.15
418.64	463.43
418.83	489.17
419.02	519.60
419.21	505.56
419.39	510.24
419.58	505.56
419.77	491.51
419.96	512.58
420.15	566.41
420.34	557.05
420.53	655.35
420.72	568.75
420.91	531.30
421.10	559.39
421.29	524.28
421.48	528.96
421.67	526.62
421.86	484.49
422.05	468.11
422.24	470.45
422.43	505.56
422.61	528.96
422.80	550.03
422.99	514.92
423.18	512.58
423.37	568.75
423.56	500.87
423.75	545.34
423.94	449.38
424.13	547.69
424.32	489.17
424.50	472.79
424.69	538.32
424.88	533.64
425.07	538.32
425.26	526.62
425.45	475.13
425.64	505.56
425.83	568.75
426.01	587.47
426.20	540.66
426.39	500.87
426.58	451.72
426.77	444.70
426.96	496.19
427.15	510.24
427.33	552.37
427.52	496.19
427.71	519.60
427.90	524.28
428.09	461.09
428.28	463.43
428.46	503.22
428.65	559.39
428.84	503.22
429.03	624.92
429.22	421.30
429.40	442.36
429.59	407.25
429.78	491.51
429.97	353.42
430.16	411.93
430.34	437.68
430.53	425.98
430.72	411.93
430.91	470.45
431.10	479.81
431.28	559.39
431.47	582.79
431.66	613.22
431.85	430.66
432.03	519.60
432.22	528.96
432.41	498.53
432.60	613.22
432.79	531.30
432.97	589.82
433.16	517.26
433.35	538.32
433.54	484.49
433.72	442.36
433.91	531.30
434.10	557.05
434.28	524.28
434.47	547.69
434.66	543.00
434.85	557.05
435.03	566.41
435.22	727.91
435.41	770.04
435.59	678.76
435.78	545.34
435.97	645.99
436.16	547.69
436.34	613.22
436.53	596.84
436.72	580.45
436.90	550.03
437.09	540.66
437.28	526.62
437.46	594.50
437.65	550.03
437.84	484.49
438.02	491.51
438.21	550.03
438.40	573.43
438.58	568.75
438.77	526.62
438.96	660.03
439.14	608.54
439.33	648.33
439.52	622.58
439.70	484.49
439.89	575.77
440.08	554.71
440.26	638.97
440.45	709.18
440.63	603.86
440.82	629.60
441.01	622.58
441.19	662.37
441.38	667.05
441.57	613.22
441.75	613.22
441.94	669.39
442.12	603.86
442.31	667.05
442.50	608.54
442.68	634.29
442.87	564.07
443.05	648.33
443.24	674.07
443.43	713.86
443.61	690.46
443.80	676.41
443.98	678.76
444.17	620.24
444.35	674.07
444.54	645.99
444.73	695.14
444.91	636.63
445.10	615.56
445.28	645.99
445.47	629.60
445.65	552.37
445.84	578.11
446.02	674.07
446.21	594.50
446.39	662.37
446.58	702.16
446.77	688.12
446.95	634.29
447.14	688.12
447.32	720.88
447.51	709.18
447.69	713.86
447.88	674.07
448.06	620.24
448.25	622.58
448.43	620.24
448.62	730.25
448.80	617.90
448.99	631.94
449.17	664.71
449.36	697.48
449.54	650.67
449.73	704.50
449.91	669.39
450.10	683.44
450.28	643.65
450.46	786.42
450.65	713.86
450.83	671.73
451.02	627.26
451.20	671.73
451.39	746.63
451.57	720.88
451.76	709.18
451.94	690.46
452.13	645.99
452.31	727.91
452.49	608.54
452.68	622.58
452.86	524.28
453.05	627.26
453.23	653.01
453.42	739.61
453.60	645.99
453.78	664.71
453.97	702.16
454.15	692.80
454.34	610.88
454.52	683.44
454.70	678.76
454.89	662.37
455.07	678.76
455.26	748.97
455.44	739.61
455.62	704.50
455.81	650.67
455.99	716.20
456.17	697.48
456.36	711.52
456.54	688.12
456.73	774.72
456.91	730.25
457.09	753.65
457.28	730.25
457.46	704.50
457.64	723.23
457.83	718.54
458.01	655.35
458.19	702.16
458.38	692.80
458.56	664.71
458.74	711.52
458.93	725.57
459.11	751.31
459.29	627.26
459.48	692.80
459.66	753.65
459.84	676.41
460.03	809.83
460.21	737.27
460.39	774.72
460.57	772.38
460.76	816.85
460.94	720.88
461.12	791.10
461.31	688.12
461.49	697.48
461.67	739.61
461.85	669.39
462.04	770.04
462.22	894.08
462.40	755.99
462.59	772.38
462.77	716.20
462.95	784.08
463.13	725.57
463.32	674.07
463.50	685.78
463.68	723.23
463.86	695.14
464.05	683.44
464.23	758.33
464.41	739.61
464.59	697.48
464.78	737.27
464.96	681.10
465.14	748.97
465.32	781.74
465.50	770.04
465.69	695.14
465.87	739.61
466.05	758.33
466.23	713.86
466.41	725.57
466.60	706.84
466.78	662.37
466.96	774.72
467.14	671.73
467.32	674.07
467.51	718.54
467.69	737.27
467.87	746.63
468.05	786.42
468.23	692.80
468.41	753.65
468.60	777.06
468.78	741.95
468.96	709.18
469.14	781.74
469.32	741.95
469.50	641.31
469.69	748.97
469.87	692.80
470.05	709.18
470.23	631.94
470.41	699.82
470.59	716.20
470.77	737.27
470.95	716.20
471.14	786.42
471.32	734.93
471.50	725.57
471.68	725.57
471.86	795.78
472.04	767.70
472.22	837.91
472.40	695.14
472.58	723.23
472.77	690.46
472.95	727.91
473.13	748.97
473.31	758.33
473.49	683.44
473.67	706.84
473.85	770.04
474.03	795.78
474.21	802.80
474.39	805.14
474.57	763.01
474.75	802.80
474.93	711.52
475.12	744.29
475.30	755.99
475.48	809.83
475.66	763.01
475.84	760.67
476.02	800.46
476.20	821.53
476.38	772.38
476.56	903.45
476.74	805.14
476.92	741.95
477.10	844.93
477.28	837.91
477.46	755.99
477.64	896.43
477.82	828.55
478.00	898.77
478.18	793.44
478.36	720.88
478.54	847.27
478.72	821.53
478.90	793.44
479.08	826.21
479.26	847.27
479.44	936.21
479.62	835.57
479.80	805.14
479.98	877.70
480.16	933.87
480.34	795.78
480.52	863.66
480.70	891.74
480.88	901.11
481.06	847.27
481.24	863.66
481.41	870.68
481.59	936.21
481.77	947.92
481.95	868.34
482.13	889.40
482.31	849.61
482.49	924.51
482.67	973.66
482.85	976.00
483.03	926.85
483.21	912.81
483.39	985.37
483.57	1013.45
483.74	938.55
483.92	997.07
484.10	931.53
484.28	1025.15
484.46	985.37
484.64	983.02
484.82	877.70
485.00	901.11
485.18	880.04
485.35	793.44
485.53	781.74
485.71	807.48
485.89	777.06
486.07	931.53
486.25	929.19
486.43	1011.11
486.61	894.08
486.78	1034.52
486.96	882.38
487.14	1004.09
487.32	910.47
487.50	980.68
487.68	1062.60
487.85	1067.28
488.03	945.58
488.21	1015.79
488.39	1020.47
488.57	971.32
488.75	978.34
488.92	1320.06
489.10	1034.52
489.28	1093.03
489.46	1114.10
489.64	1015.79
489.81	1090.69
489.99	1104.73
490.17	1088.35
490.35	1116.44
490.53	1001.75
490.70	1177.29
490.88	1184.31
491.06	1071.97
491.24	1146.86
491.41	992.39
491.59	1062.60
491.77	943.24
491.95	1001.75
492.13	1013.45
492.30	1149.20
492.48	1130.48
492.66	1217.08
492.84	1076.65
493.01	1165.59
493.19	1088.35
493.37	1046.22
493.54	1149.20
493.72	1240.48
493.90	1219.42
494.08	1118.78
494.25	1184.31
494.43	1177.29
494.61	1210.06
494.79	1132.82
494.96	1153.88
495.14	1193.67
495.32	1146.86
495.49	1041.54
495.67	1109.41
495.85	1284.95
496.02	1214.74
496.20	1277.93
496.38	1217.08
496.55	1212.40
496.73	1226.44
496.91	1322.40
497.09	1167.93
497.26	1282.61
497.44	1137.50
497.62	1231.12
497.79	1191.33
497.97	1132.82
498.14	1191.33
498.32	1210.06
498.50	1151.54
498.67	1179.63
498.85	1160.91
499.03	1217.08
499.20	1235.80
499.38	1228.78
499.56	1203.04
499.73	1268.57
499.91	1188.99
500.08	1193.67
500.26	1259.21
500.44	1226.44
500.61	1205.38
500.79	1170.27
500.97	1156.22
501.14	1221.76
501.32	1093.03
501.49	1186.65
501.67	1170.27
501.84	1273.25
502.02	1214.74
502.20	1266.23
502.37	1270.91
502.55	1181.97
502.72	1196.01
502.90	1343.47
503.07	1235.80
503.25	1093.03
503.43	1121.12
503.60	1093.03
503.78	1132.82
503.95	1067.28
504.13	1322.40
504.30	1219.42
504.48	1174.95
504.65	1284.95
504.83	1160.91
505.01	1219.42
505.18	1242.82
505.36	1217.08
505.53	1329.42
505.71	1348.15
505.88	1341.13
506.06	1282.61
506.23	1256.87
506.41	1252.19
506.58	1296.66
506.76	1181.97
506.93	1210.06
507.11	1301.34
507.28	1254.53
507.46	1210.06
507.63	1217.08
507.81	1203.04
507.98	1301.34
508.16	1179.63
508.33	1322.40
508.50	1306.02
508.68	1301.34
508.85	1348.15
509.03	1336.45
509.20	1357.51
509.38	1219.42
509.55	1224.10
509.73	1259.21
509.90	1359.85
510.08	1259.21
510.25	1294.32
510.42	1366.87
510.60	1191.33
510.77	1242.82
510.95	1322.40
511.12	1308.36
511.30	1392.62
511.47	1359.85
511.64	1373.89
511.82	1413.68
511.99	1259.21
512.17	1343.47
512.34	1249.85
512.51	1270.91
512.69	1207.72
512.86	1247.51
513.04	1331.76
513.21	1284.95
513.38	1219.42
513.56	1287.29
513.73	1224.10
513.90	1280.27
514.08	1256.87
514.25	1418.36
514.43	1219.42
514.60	1205.38
514.77	1200.69
514.95	1327.08
515.12	1320.06
515.29	1320.06
515.47	1383.26
515.64	1355.17
515.81	1310.70
515.99	1226.44
516.16	1228.78
516.33	1088.35
516.51	1050.90
516.68	1088.35
516.85	1043.88
517.03	1167.93
517.20	1261.55
517.37	1291.98
517.54	1334.11
517.72	1144.52
517.89	1095.37
518.06	1029.84
518.24	1179.63
518.41	1338.79
518.58	1252.19
518.75	1207.72
518.93	1221.76
519.10	1280.27
519.27	1200.69
519.45	1273.25
519.62	1322.40
519.79	1313.04
519.96	1172.61
520.14	1156.22
520.31	1282.61
520.48	1132.82
520.65	1273.25
520.83	1324.74
521.00	1350.49
521.17	1306.02
521.34	1249.85
521.52	1294.32
521.69	1329.42
521.86	1336.45
522.03	1231.12
522.20	1270.91
522.38	1228.78
522.55	1193.67
522.72	1226.44
522.89	1259.21
523.07	1317.72
523.24	1296.66
523.41	1289.64
523.58	1327.08
523.75	1441.77
523.92	1280.27
524.10	1334.11
524.27	1341.13
524.44	1273.25
524.61	1261.55
524.78	1362.19
524.96	1359.85
525.13	1320.06
525.30	1336.45
525.47	1343.47
525.64	1366.87
525.81	1212.40
525.98	1270.91
526.16	1184.31
526.33	1100.05
526.50	1144.52
526.67	1144.52
526.84	1191.33
527.01	1247.51
527.18	1193.67
527.36	1273.25
527.53	1371.55
527.70	1371.55
527.87	1247.51
528.04	1334.11
528.21	1289.64
528.38	1334.11
528.55	1476.88
528.72	1308.36
528.89	1355.17
529.07	1254.53
529.24	1301.34
529.41	1334.11
529.58	1249.85
529.75	1277.93
529.92	1383.26
530.09	1284.95
530.26	1404.32
530.43	1385.60
530.60	1411.34
530.77	1322.40
530.94	1317.72
531.11	1308.36
531.28	1289.64
531.46	1334.11
531.63	1369.21
531.80	1373.89
531.97	1308.36
532.14	1238.14
532.31	1193.67
532.48	1238.14
532.65	1224.10
532.82	1226.44
532.99	1343.47
533.16	1203.04
533.33	1329.42
533.50	1245.16
533.67	1310.70
533.84	1322.40
534.01	1364.53
534.18	1273.25
534.35	1301.34
534.52	1299.00
534.69	1451.13
534.86	1371.55
535.03	1284.95
535.20	1432.41
535.37	1448.79
535.54	1439.43
535.71	1322.40
535.88	1453.47
536.05	1308.36
536.22	1242.82
536.38	1275.59
536.55	1277.93
536.72	1287.29
536.89	1179.63
537.06	1287.29
537.23	1308.36
537.40	1327.08
537.57	1299.00
537.74	1320.06
537.91	1385.60
538.08	1352.83
538.25	1299.00
538.42	1392.62
538.59	1322.40
538.75	1366.87
538.92	1413.68
539.09	1380.92
539.26	1282.61
539.43	1453.47
539.60	1355.17
539.77	1383.26
539.94	1254.53
540.11	1268.57
540.28	1357.51
540.44	1287.29
540.61	1404.32
540.78	1371.55
540.95	1341.13
541.12	1493.26
541.29	1490.92
541.46	1526.03
541.62	1355.17
541.79	1455.81
541.96	1378.58
542.13	1416.02
542.30	1458.15
542.47	1385.60
542.63	1294.32
542.80	1369.21
542.97	1404.32
543.14	1336.45
543.31	1481.56
543.48	1423.05
543.64	1540.07
543.81	1425.39
543.98	1401.98
544.15	1444.11
544.32	1397.30
544.48	1401.98
544.65	1385.60
544.82	1439.43
544.99	1364.53
545.16	1376.24
545.32	1437.09
545.49	1701.57
545.66	1727.32
545.83	1579.86
546.00	1455.81
546.16	1317.72
546.33	1364.53
546.50	1331.76
546.67	1469.86
546.83	1299.00
547.00	1273.25
547.17	1331.76
547.34	1240.48
547.50	1320.06
547.67	1378.58
547.84	1369.21
548.00	1252.19
548.17	1338.79
548.34	1313.04
548.51	1378.58
548.67	1385.60
548.84	1359.85
549.01	1245.16
549.18	1338.79
549.34	1378.58
549.51	1277.93
549.68	1348.15
549.84	1324.74
550.01	1284.95
550.18	1399.64
550.34	1416.02
550.51	1299.00
550.68	1334.11
550.84	1341.13
551.01	1226.44
551.18	1226.44
551.34	1289.64
551.51	1324.74
551.68	1320.06
551.84	1259.21
552.01	1327.08
552.18	1273.25
552.34	1151.54
552.51	1280.27
552.68	1252.19
552.84	1219.42
553.01	1277.93
553.18	1245.16
553.34	1327.08
553.51	1163.25
553.67	1364.53
553.84	1362.19
554.01	1313.04
554.17	1214.74
554.34	1245.16
554.51	1338.79
554.67	1268.57
554.84	1294.32
555.00	1376.24
555.17	1329.42
555.33	1245.16
555.50	1275.59
555.67	1345.81
555.83	1160.91
556.00	1179.63
556.16	1406.66
556.33	1214.74
556.50	1149.20
556.66	1144.52
556.83	1151.54
556.99	1249.85
557.16	1299.00
557.32	1313.04
557.49	1203.04
557.65	1313.04
557.82	1401.98
557.98	1139.84
558.15	1207.72
558.32	1088.35
558.48	1071.97
558.65	1186.65
558.81	1071.97
558.98	1151.54
559.14	1170.27
559.31	1235.80
559.47	1165.59
559.64	1205.38
559.80	1219.42
559.97	1186.65
560.13	1165.59
560.30	1196.01
560.46	1181.97
560.63	1238.14
560.79	1214.74
560.96	1301.34
561.12	1146.86
561.29	1165.59
561.45	1114.10
561.61	1249.85
561.78	1163.25
561.94	1104.73
562.11	1160.91
562.27	1167.93
562.44	1128.14
562.60	1210.06
562.77	1151.54
562.93	1287.29
563.10	1228.78
563.26	1153.88
563.42	1221.76
563.59	1144.52
563.75	1184.31
563.92	1181.97
564.08	1184.31
564.24	1200.69
564.41	1214.74
564.57	1245.16
564.74	1116.44
564.90	1252.19
565.07	1137.50
565.23	1104.73
565.39	1160.91
565.56	1116.44
565.72	1109.41
565.88	1125.80
566.05	1086.01
566.21	1142.18
566.38	1139.84
566.54	1111.75
566.70	1107.07
566.87	1186.65
567.03	1137.50
567.19	1177.29
567.36	1130.48
567.52	1142.18
567.68	1184.31
567.85	1116.44
568.01	1130.48
568.17	1107.07
568.34	1100.05
568.50	1081.33
568.66	985.37
568.83	1219.42
568.99	1149.20
569.15	1196.01
569.32	1095.37
569.48	997.07
569.64	1083.67
569.81	954.94
569.97	1078.99
570.13	1111.75
570.30	1109.41
570.46	1071.97
570.62	1039.20
570.78	994.73
570.95	1064.94
571.11	1118.78
571.27	1163.25
571.43	976.00
571.60	1053.24
571.76	1020.47
571.92	1067.28
572.09	1130.48
572.25	1020.47
572.41	1013.45
572.57	1088.35
572.74	1093.03
572.90	1022.81
573.06	1008.77
573.22	1032.18
573.38	1123.46
573.55	1027.50
573.71	1109.41
573.87	1146.86
574.03	997.07
574.20	1057.92
574.36	1062.60
574.52	1060.26
574.68	1025.15
574.84	999.41
575.01	1011.11
575.17	1076.65
575.33	1053.24
575.49	1064.94
575.65	1109.41
575.82	1020.47
575.98	994.73
576.14	1118.78
576.30	1135.16
576.46	1053.24
576.62	1039.20
576.79	1057.92
576.95	1102.39
577.11	950.26
577.27	985.37
577.43	994.73
577.59	1074.31
577.75	945.58
577.92	910.47
578.08	1086.01
578.24	943.24
578.40	1006.43
578.56	1107.07
578.72	1090.69
578.88	1149.20
579.04	1036.86
579.21	1095.37
579.37	1036.86
579.53	1041.54
579.69	1071.97
579.85	1036.86
580.01	1022.81
580.17	1050.90
580.33	1039.20
580.49	1043.88
580.65	1025.15
580.82	966.64
580.98	971.32
581.14	997.07
581.30	1132.82
581.46	1050.90
581.62	1142.18
581.78	1027.50
581.94	1050.90
582.10	1109.41
582.26	1102.39
582.42	1116.44
582.58	1039.20
582.74	947.92
582.90	1081.33
583.06	1142.18
583.22	1048.56
583.38	1032.18
583.54	1064.94
583.70	1158.57
583.86	1118.78
584.02	1114.10
584.18	1104.73
584.34	1011.11
584.50	1022.81
584.66	1069.62
584.82	997.07
584.98	1064.94
585.14	1046.22
585.30	1050.90
585.46	1032.18
585.62	1032.18
585.78	961.96
585.94	1034.52
586.10	1102.39
586.26	1118.78
586.42	1074.31
586.58	1055.58
586.74	1064.94
586.90	1172.61
587.06	1069.62
587.22	971.32
587.38	964.30
587.54	1027.50
587.70	999.41
587.86	976.00
588.02	947.92
588.18	1008.77
588.34	851.96
588.49	809.83
588.65	854.30
588.81	795.78
588.97	912.81
589.13	723.23
589.29	807.48
589.45	798.12
589.61	884.72
589.77	997.07
589.93	919.83
590.08	929.19
590.24	933.87
590.40	971.32
590.56	837.91
590.72	873.02
590.88	957.28
591.04	917.49
591.20	873.02
591.35	952.60
591.51	959.62
591.67	1001.75
591.83	873.02
591.99	971.32
592.15	1043.88
592.31	1032.18
592.46	905.79
592.62	1018.13
592.78	851.96
592.94	933.87
593.10	908.13
593.26	985.37
593.41	987.71
593.57	919.83
593.73	844.93
593.89	884.72
594.05	875.36
594.20	894.08
594.36	910.47
594.52	842.59
594.68	976.00
594.84	978.34
594.99	971.32
595.15	964.30
595.31	980.68
595.47	905.79
595.62	917.49
595.78	1022.81
595.94	1018.13
596.10	915.15
596.25	908.13
596.41	919.83
596.57	908.13
596.73	992.39
596.88	1008.77
597.04	917.49
597.20	786.42
597.36	898.77
597.51	952.60
597.67	926.85
597.83	901.11
597.99	992.39
598.14	903.45
598.30	933.87
598.46	863.66
598.61	933.87
598.77	861.32
598.93	903.45
599.09	917.49
599.24	915.15
599.40	933.87
599.56	912.81
599.71	875.36
599.87	887.06
600.03	910.47
600.18	961.96
600.34	985.37
600.50	924.51
600.65	936.21
600.81	957.28
600.97	940.90
601.12	887.06
601.28	936.21
601.44	931.53
601.59	919.83
601.75	992.39
601.91	961.96
602.06	945.58
602.22	978.34
602.37	997.07
602.53	1036.86
602.69	910.47
602.84	940.90
603.00	926.85
603.16	959.62
603.31	896.43
603.47	952.60
603.62	980.68
603.78	964.30
603.94	891.74
604.09	898.77
