SpectraSuite Data File
++++++++++++++++++++++++++++++++++++
Date: Mon Sep 30 18:11:53 GMT-05:00 2013
User: stostad
Dark Spectrum Present: No
Reference Spectrum Present: No
Number of Sampled Component Spectra: 1
Spectrometers: USB2+H05261
Integration Time (usec): 100000 (USB2+H05261)
Spectra Averaged: 1 (USB2+H05261)
Boxcar Smoothing: 0 (USB2+H05261)
Correct for Electrical Dark: No (USB2+H05261)
Strobe/Lamp Enabled: No (USB2+H05261)
Correct for Detector Non-linearity: No (USB2+H05261)
Correct for Stray Light: No (USB2+H05261)
Number of Pixels in Processed Spectrum: 2048
>>>>>Begin Processed Spectral Data<<<<<
365.73	128.73
365.92	128.73
366.12	128.73
366.32	65.54
366.52	46.81
366.72	0.00
366.91	37.45
367.11	53.83
367.31	32.77
367.51	0.00
367.70	30.43
367.90	39.79
368.10	0.00
368.30	39.79
368.49	37.45
368.69	0.00
368.89	0.00
369.09	4.68
369.28	0.00
369.48	2.34
369.68	86.60
369.87	58.51
370.07	95.96
370.27	39.79
370.47	140.43
370.66	187.24
370.86	292.57
371.06	315.97
371.25	304.27
371.45	299.59
371.65	264.48
371.84	170.86
372.04	252.78
372.24	297.25
372.44	271.50
372.63	330.02
372.83	348.74
373.03	318.31
373.22	280.86
373.42	308.95
373.62	332.36
373.81	372.15
374.01	304.27
374.21	285.55
374.40	224.69
374.60	400.23
374.79	330.02
374.99	365.12
375.19	428.32
375.38	416.62
375.58	362.78
375.78	433.00
375.97	386.19
376.17	418.96
376.37	283.20
376.56	360.44
376.76	367.46
376.95	390.87
377.15	447.04
377.35	465.77
377.54	383.85
377.74	425.98
377.93	423.64
378.13	454.06
378.33	379.17
378.52	400.23
378.72	407.25
378.91	411.93
379.11	360.44
379.31	372.15
379.50	334.70
379.70	550.03
379.89	475.13
380.09	337.04
380.28	430.66
380.48	409.59
380.68	374.49
380.87	416.62
381.07	367.46
381.26	341.72
381.46	257.46
381.65	337.04
381.85	297.25
382.04	330.02
382.24	383.85
382.43	322.99
382.63	308.95
382.83	266.82
383.02	383.85
383.22	301.93
383.41	311.29
383.61	400.23
383.80	397.89
384.00	493.85
384.19	362.78
384.39	409.59
384.58	397.89
384.78	348.74
384.97	397.89
385.17	442.36
385.36	355.76
385.56	418.96
385.75	386.19
385.95	421.30
386.14	407.25
386.34	397.89
386.53	411.93
386.72	344.06
386.92	486.83
387.11	433.00
387.31	395.55
387.50	435.34
387.70	386.19
387.89	411.93
388.09	379.17
388.28	409.59
388.48	390.87
388.67	428.32
388.86	533.64
389.06	449.38
389.25	449.38
389.45	491.51
389.64	430.66
389.84	510.24
390.03	528.96
390.22	444.70
390.42	512.58
390.61	517.26
390.81	463.43
391.00	585.13
391.19	505.56
391.39	564.07
391.58	484.49
391.78	435.34
391.97	423.64
392.16	381.51
392.36	409.59
392.55	393.21
392.75	369.80
392.94	322.99
393.13	283.20
393.33	271.50
393.52	402.57
393.71	461.09
393.91	461.09
394.10	442.36
394.29	449.38
394.49	528.96
394.68	547.69
394.88	533.64
395.07	543.00
395.26	629.60
395.46	535.98
395.65	554.71
395.84	444.70
396.04	461.09
396.23	365.12
396.42	341.72
396.62	344.06
396.81	435.34
397.00	547.69
397.19	564.07
397.39	634.29
397.58	547.69
397.77	641.31
397.97	695.14
398.16	685.78
398.35	674.07
398.55	641.31
398.74	706.84
398.93	695.14
399.12	723.23
399.32	678.76
399.51	734.93
399.70	718.54
399.90	699.82
400.09	798.12
400.28	709.18
400.47	688.12
400.67	828.55
400.86	758.33
401.05	730.25
401.24	753.65
401.44	760.67
401.63	760.67
401.82	800.46
402.01	744.29
402.21	739.61
402.40	699.82
402.59	763.01
402.78	730.25
402.97	758.33
403.17	688.12
403.36	781.74
403.55	683.44
403.74	730.25
403.93	798.12
404.13	786.42
404.32	767.70
404.51	849.61
404.70	781.74
404.89	802.80
405.09	732.59
405.28	758.33
405.47	713.86
405.66	695.14
405.85	779.40
406.05	791.10
406.24	791.10
406.43	849.61
406.62	788.76
406.81	898.77
407.00	854.30
407.20	772.38
407.39	765.36
407.58	737.27
407.77	819.19
407.96	851.96
408.15	821.53
408.34	791.10
408.54	889.40
408.73	880.04
408.92	828.55
409.11	699.82
409.30	758.33
409.49	744.29
409.68	653.01
409.87	723.23
410.07	823.87
410.26	807.48
410.45	833.23
410.64	777.06
410.83	866.00
411.02	837.91
411.21	903.45
411.40	924.51
411.59	868.34
411.78	887.06
411.98	894.08
412.17	882.38
412.36	947.92
412.55	844.93
412.74	842.59
412.93	851.96
413.12	854.30
413.31	940.90
413.50	990.05
413.69	971.32
413.88	863.66
414.07	945.58
414.26	884.72
414.45	933.87
414.64	898.77
414.83	873.02
415.02	933.87
415.22	901.11
415.41	919.83
415.60	1034.52
415.79	943.24
415.98	999.41
416.17	959.62
416.36	985.37
416.55	959.62
416.74	908.13
416.93	997.07
417.12	943.24
417.31	954.94
417.50	929.19
417.69	1020.47
417.88	926.85
418.07	868.34
418.26	950.26
418.45	943.24
418.64	1001.75
418.83	1043.88
419.02	978.34
419.21	1020.47
419.39	961.96
419.58	884.72
419.77	856.64
419.96	966.64
420.15	1053.24
420.34	976.00
420.53	992.39
420.72	1011.11
420.91	1008.77
421.10	1067.28
421.29	1013.45
421.48	1036.86
421.67	1060.26
421.86	1015.79
422.05	840.25
422.24	884.72
422.43	863.66
422.61	1039.20
422.80	1062.60
422.99	940.90
423.18	1039.20
423.37	999.41
423.56	1025.15
423.75	990.05
423.94	1001.75
424.13	856.64
424.32	863.66
424.50	882.38
424.69	908.13
424.88	952.60
425.07	912.81
425.26	901.11
425.45	980.68
425.64	912.81
425.83	1011.11
426.01	1006.43
426.20	1029.84
426.39	898.77
426.58	840.25
426.77	814.51
426.96	999.41
427.15	945.58
427.33	926.85
427.52	992.39
427.71	971.32
427.90	891.74
428.09	889.40
428.28	805.14
428.46	908.13
428.65	952.60
428.84	999.41
429.03	954.94
429.22	802.80
429.40	690.46
429.59	676.41
429.78	697.48
429.97	730.25
430.16	760.67
430.34	748.97
430.53	692.80
430.72	767.70
430.91	814.51
431.10	877.70
431.28	1060.26
431.47	1095.37
431.66	1071.97
431.85	908.13
432.03	947.92
432.22	964.30
432.41	992.39
432.60	1114.10
432.79	1057.92
432.97	1067.28
433.16	1025.15
433.35	887.06
433.54	835.57
433.72	887.06
433.91	905.79
434.10	1041.54
434.28	1160.91
434.47	1062.60
434.66	1074.31
434.85	1018.13
435.03	1081.33
435.22	1163.25
435.41	1266.23
435.59	1228.78
435.78	1231.12
435.97	1160.91
436.16	1179.63
436.34	1078.99
436.53	1086.01
436.72	1088.35
436.90	1048.56
437.09	1055.58
437.28	1046.22
437.46	1025.15
437.65	1074.31
437.84	999.41
438.02	910.47
438.21	917.49
438.40	1086.01
438.58	1013.45
438.77	1191.33
438.96	1029.84
439.14	1111.75
439.33	1172.61
439.52	1071.97
439.70	1053.24
439.89	1125.80
440.08	1095.37
440.26	1093.03
440.45	1149.20
440.63	1226.44
440.82	1266.23
441.01	1231.12
441.19	1146.86
441.38	1177.29
441.57	1207.72
441.75	1200.69
441.94	1270.91
442.12	1235.80
442.31	1282.61
442.50	1231.12
442.68	1303.68
442.87	1242.82
443.05	1224.10
443.24	1200.69
443.43	1306.02
443.61	1301.34
443.80	1280.27
443.98	1224.10
444.17	1214.74
444.35	1385.60
444.54	1373.89
444.73	1284.95
444.91	1198.35
445.10	1137.50
445.28	1128.14
445.47	1116.44
445.65	1146.86
445.84	1291.98
446.02	1205.38
446.21	1336.45
446.39	1198.35
446.58	1203.04
446.77	1252.19
446.95	1252.19
447.14	1313.04
447.32	1451.13
447.51	1270.91
447.69	1186.65
447.88	1287.29
448.06	1205.38
448.25	1383.26
448.43	1245.16
448.62	1240.48
448.80	1291.98
448.99	1188.99
449.17	1270.91
449.36	1303.68
449.54	1369.21
449.73	1338.79
449.91	1387.94
450.10	1327.08
450.28	1390.28
450.46	1411.34
450.65	1406.66
450.83	1334.11
451.02	1315.38
451.20	1350.49
451.39	1336.45
451.57	1228.78
451.76	1320.06
451.94	1291.98
452.13	1294.32
452.31	1217.08
452.49	1191.33
452.68	1238.14
452.86	1226.44
453.05	1277.93
453.23	1207.72
453.42	1308.36
453.60	1282.61
453.78	1322.40
453.97	1303.68
454.15	1310.70
454.34	1254.53
454.52	1210.06
454.70	1268.57
454.89	1233.46
455.07	1338.79
455.26	1383.26
455.44	1359.85
455.62	1362.19
455.81	1287.29
455.99	1320.06
456.17	1343.47
456.36	1233.46
456.54	1327.08
456.73	1320.06
456.91	1385.60
457.09	1301.34
457.28	1409.00
457.46	1280.27
457.64	1324.74
457.83	1334.11
458.01	1282.61
458.19	1331.76
458.38	1329.42
458.56	1493.26
458.74	1345.81
458.93	1369.21
459.11	1437.09
459.29	1432.41
459.48	1371.55
459.66	1423.05
459.84	1331.76
460.03	1439.43
460.21	1439.43
460.39	1373.89
460.57	1502.62
460.76	1409.00
460.94	1439.43
461.12	1406.66
461.31	1406.66
461.49	1411.34
461.67	1448.79
461.85	1458.15
462.04	1441.77
462.22	1600.93
462.40	1448.79
462.59	1479.22
462.77	1394.96
462.95	1451.13
463.13	1315.38
463.32	1376.24
463.50	1352.83
463.68	1362.19
463.86	1474.54
464.05	1355.17
464.23	1343.47
464.41	1359.85
464.59	1341.13
464.78	1401.98
464.96	1448.79
465.14	1334.11
465.32	1334.11
465.50	1418.36
465.69	1404.32
465.87	1401.98
466.05	1416.02
466.23	1214.74
466.41	1341.13
466.60	1294.32
466.78	1394.96
466.96	1392.62
467.14	1355.17
467.32	1434.75
467.51	1411.34
467.69	1383.26
467.87	1462.83
468.05	1399.64
468.23	1437.09
468.41	1387.94
468.60	1467.52
468.78	1446.45
468.96	1507.30
469.14	1481.56
469.32	1359.85
469.50	1301.34
469.69	1284.95
469.87	1343.47
470.05	1390.28
470.23	1364.53
470.41	1294.32
470.59	1343.47
470.77	1390.28
470.95	1385.60
471.14	1385.60
471.32	1394.96
471.50	1547.09
471.68	1458.15
471.86	1589.22
472.04	1600.93
472.22	1535.39
472.40	1460.49
472.58	1343.47
472.77	1336.45
472.95	1437.09
473.13	1614.97
473.31	1495.60
473.49	1472.20
473.67	1446.45
473.85	1465.18
474.03	1537.73
474.21	1533.05
474.39	1556.46
474.57	1542.41
474.75	1462.83
474.93	1521.35
475.12	1437.09
475.30	1476.88
475.48	1444.11
475.66	1577.52
475.84	1565.82
476.02	1481.56
476.20	1507.30
476.38	1570.50
476.56	1621.99
476.74	1600.93
476.92	1575.18
477.10	1577.52
477.28	1605.61
477.46	1584.54
477.64	1617.31
477.82	1596.25
478.00	1661.78
478.18	1493.26
478.36	1570.50
478.54	1577.52
478.72	1600.93
478.90	1584.54
479.08	1654.76
479.26	1727.32
479.44	1671.14
479.62	1703.91
479.80	1671.14
479.98	1671.14
480.16	1703.91
480.34	1671.14
480.52	1570.50
480.70	1678.16
480.88	1720.29
481.06	1778.81
481.24	1673.48
481.41	1769.44
481.59	1799.87
481.77	1802.21
481.95	1795.19
482.13	1715.61
482.31	1806.89
482.49	1837.32
482.67	1830.30
482.85	1872.43
483.03	1806.89
483.21	1914.56
483.39	1844.34
483.57	1844.34
483.74	1884.13
483.92	1870.09
484.10	1919.24
484.28	1813.92
484.46	2026.90
484.64	1877.11
484.82	1816.26
485.00	1832.64
485.18	1856.04
485.35	1720.29
485.53	1563.48
485.71	1460.49
485.89	1577.52
486.07	1685.19
486.25	1905.20
486.43	1809.23
486.61	1921.58
486.78	1837.32
486.96	1872.43
487.14	1954.35
487.32	1998.82
487.50	1989.46
487.68	2059.67
487.85	2015.20
488.03	2017.54
488.21	2054.99
488.39	1982.43
488.57	1884.13
488.75	2008.18
488.92	2242.23
489.10	2242.23
489.28	2324.15
489.46	2101.80
489.64	2132.23
489.81	2181.38
489.99	2188.40
490.17	2249.25
490.35	2235.21
490.53	2181.38
490.70	2167.34
490.88	2183.72
491.06	2174.36
491.24	2235.21
491.41	2211.81
491.59	1928.60
491.77	2040.95
491.95	2066.69
492.13	2200.10
492.30	2291.38
492.48	2279.68
492.66	2291.38
492.84	2349.90
493.01	2169.68
493.19	2179.04
493.37	2176.70
493.54	2162.66
493.72	2310.11
493.90	2286.70
494.08	2305.43
494.25	2275.00
494.43	2462.24
494.61	2438.84
494.79	2438.84
494.96	2373.30
495.14	2382.67
495.32	2417.77
495.49	2373.30
495.67	2333.51
495.85	2408.41
496.02	2497.35
496.20	2483.31
496.38	2349.90
496.55	2452.88
496.73	2448.20
496.91	2438.84
497.09	2504.37
497.26	2492.67
497.44	2434.16
497.62	2331.17
497.79	2373.30
497.97	2200.10
498.14	2373.30
498.32	2434.16
498.50	2471.61
498.67	2499.69
498.85	2602.68
499.03	2574.59
499.20	2518.42
499.38	2548.84
499.56	2480.97
499.73	2504.37
499.91	2314.79
500.08	2485.65
500.26	2333.51
500.44	2349.90
500.61	2431.82
500.79	2352.24
500.97	2413.09
501.14	2464.58
501.32	2450.54
501.49	2289.04
501.67	2370.96
501.84	2401.39
502.02	2459.90
502.20	2457.56
502.37	2389.69
502.55	2445.86
502.72	2555.86
502.90	2502.03
503.07	2387.35
503.25	2354.58
503.43	2338.20
503.60	2197.76
503.78	2300.75
503.95	2368.62
504.13	2502.03
504.30	2527.78
504.48	2485.65
504.65	2487.99
504.83	2506.71
505.01	2373.30
505.18	2558.21
505.36	2548.84
505.53	2724.38
505.71	2576.93
505.88	2567.57
506.06	2626.08
506.23	2464.58
506.41	2509.05
506.58	2546.50
506.76	2513.74
506.93	2562.89
507.11	2581.61
507.28	2518.42
507.46	2448.20
507.63	2450.54
507.81	2293.72
507.98	2347.56
508.16	2471.61
508.33	2562.89
508.50	2513.74
508.68	2637.78
508.85	2743.11
509.03	2581.61
509.20	2607.36
509.38	2509.05
509.55	2476.29
509.73	2490.33
509.90	2581.61
510.08	2616.72
510.25	2633.10
510.42	2590.97
510.60	2663.53
510.77	2504.37
510.95	2712.68
511.12	2586.29
511.30	2565.23
511.47	2703.32
511.64	2761.83
511.82	2626.08
511.99	2420.11
512.17	2537.14
512.34	2464.58
512.51	2480.97
512.69	2600.34
512.86	2562.89
513.04	2663.53
513.21	2560.55
513.38	2476.29
513.56	2455.22
513.73	2502.03
513.90	2483.31
514.08	2401.39
514.25	2668.21
514.43	2544.16
514.60	2438.84
514.77	2464.58
514.95	2473.95
515.12	2595.65
515.29	2583.95
515.47	2537.14
515.64	2665.87
515.81	2600.34
515.99	2480.97
516.16	2457.56
516.33	2122.87
516.51	2118.18
516.68	2057.33
516.85	2026.90
517.03	2225.85
517.20	2434.16
517.37	2546.50
517.54	2621.40
517.72	2478.63
517.89	2073.71
518.06	2118.18
518.24	2256.28
518.41	2462.24
518.58	2574.59
518.75	2539.48
518.93	2420.11
519.10	2511.39
519.27	2375.64
519.45	2539.48
519.62	2595.65
519.79	2614.38
519.96	2511.39
520.14	2436.50
520.31	2466.92
520.48	2443.52
520.65	2567.57
520.83	2672.89
521.00	2698.64
521.17	2534.80
521.34	2548.84
521.52	2546.50
521.69	2722.04
521.86	2686.94
522.03	2546.50
522.20	2523.10
522.38	2499.69
522.55	2413.09
522.72	2485.65
522.89	2434.16
523.07	2581.61
523.24	2647.15
523.41	2668.21
523.58	2787.58
523.75	2698.64
523.92	2663.53
524.10	2626.08
524.27	2670.55
524.44	2768.85
524.61	2635.44
524.78	2651.83
524.96	2609.70
525.13	2626.08
525.30	2607.36
525.47	2754.81
525.64	2738.43
525.81	2555.86
525.98	2335.85
526.16	2310.11
526.33	2263.30
526.50	2190.74
526.67	2263.30
526.84	2317.13
527.01	2356.92
527.18	2403.73
527.36	2581.61
527.53	2656.51
527.70	2560.55
527.87	2602.68
528.04	2518.42
528.21	2569.91
528.38	2658.85
528.55	2717.36
528.72	2757.15
528.89	2658.85
529.07	2497.35
529.24	2558.21
529.41	2499.69
529.58	2492.67
529.75	2602.68
529.92	2642.46
530.09	2684.59
530.26	2668.21
530.43	2661.19
530.60	2616.72
530.77	2722.04
530.94	2722.04
531.11	2626.08
531.28	2616.72
531.46	2572.25
531.63	2700.98
531.80	2466.92
531.97	2445.86
532.14	2349.90
532.31	2401.39
532.48	2396.71
532.65	2520.76
532.82	2527.78
532.99	2560.55
533.16	2738.43
533.33	2663.53
533.50	2553.52
533.67	2450.54
533.84	2593.31
534.01	2597.99
534.18	2562.89
534.35	2640.12
534.52	2532.46
534.69	2513.74
534.86	2555.86
535.03	2537.14
535.20	2717.36
535.37	2785.24
535.54	2708.00
535.71	2516.08
535.88	2518.42
536.05	2504.37
536.22	2511.39
536.38	2410.75
536.55	2380.32
536.72	2434.16
536.89	2434.16
537.06	2537.14
537.23	2600.34
537.40	2567.57
537.57	2621.40
537.74	2490.33
537.91	2511.39
538.08	2555.86
538.25	2525.44
538.42	2478.63
538.59	2546.50
538.75	2483.31
538.92	2438.84
539.09	2523.10
539.26	2551.18
539.43	2476.29
539.60	2567.57
539.77	2417.77
539.94	2476.29
540.11	2382.67
540.28	2420.11
540.44	2370.96
540.61	2478.63
540.78	2487.99
540.95	2490.33
541.12	2574.59
541.29	2480.97
541.46	2551.18
541.62	2651.83
541.79	2586.29
541.96	2534.80
542.13	2539.48
542.30	2539.48
542.47	2551.18
542.63	2560.55
542.80	2609.70
542.97	2588.63
543.14	2579.27
543.31	2546.50
543.48	2597.99
543.64	2607.36
543.81	2572.25
543.98	2658.85
544.15	2691.62
544.32	2448.20
544.48	2450.54
544.65	2607.36
544.82	2574.59
544.99	2644.81
545.16	2464.58
545.32	2651.83
545.49	2895.24
545.66	3000.57
545.83	2764.17
546.00	2600.34
546.16	2520.76
546.33	2523.10
546.50	2616.72
546.67	2644.81
546.83	2532.46
547.00	2392.03
547.17	2349.90
547.34	2331.17
547.50	2408.41
547.67	2551.18
547.84	2499.69
548.00	2567.57
548.17	2476.29
548.34	2490.33
548.51	2567.57
548.67	2429.48
548.84	2480.97
549.01	2492.67
549.18	2452.88
549.34	2558.21
549.51	2392.03
549.68	2410.75
549.84	2431.82
550.01	2518.42
550.18	2438.84
550.34	2595.65
550.51	2567.57
550.68	2518.42
550.84	2307.77
551.01	2483.31
551.18	2518.42
551.34	2497.35
551.51	2530.12
551.68	2469.27
551.84	2476.29
552.01	2523.10
552.18	2326.49
552.34	2385.01
552.51	2270.32
552.68	2338.20
552.84	2326.49
553.01	2382.67
553.18	2392.03
553.34	2401.39
553.51	2457.56
553.67	2310.11
553.84	2424.80
554.01	2396.71
554.17	2420.11
554.34	2382.67
554.51	2457.56
554.67	2457.56
554.84	2452.88
555.00	2476.29
555.17	2361.60
555.33	2518.42
555.50	2361.60
555.67	2401.39
555.83	2359.26
556.00	2275.00
556.16	2401.39
556.33	2340.54
556.50	2298.41
556.66	2296.07
556.83	2403.73
556.99	2263.30
557.16	2340.54
557.32	2291.38
557.49	2385.01
557.65	2267.98
557.82	2324.15
557.98	2310.11
558.15	2235.21
558.32	2174.36
558.48	2143.93
558.65	2162.66
558.81	2174.36
558.98	2232.87
559.14	2249.25
559.31	2242.23
559.47	2162.66
559.64	2141.59
559.80	2167.34
559.97	2228.19
560.13	2207.13
560.30	2345.22
560.46	2303.09
560.63	2284.36
560.79	2251.60
560.96	2230.53
561.12	2183.72
561.29	2085.42
561.45	2190.74
561.61	2286.70
561.78	2347.56
561.94	2242.23
562.11	2218.83
562.27	2237.55
562.44	2078.40
562.60	2244.57
562.77	2272.66
562.93	2312.45
563.10	2230.53
563.26	2143.93
563.42	2279.68
563.59	2209.47
563.75	2174.36
563.92	2228.19
564.08	2179.04
564.24	2228.19
564.41	2165.00
564.57	2211.81
564.74	2193.08
564.90	2120.53
565.07	2193.08
565.23	2076.06
565.39	2085.42
565.56	2024.56
565.72	2073.71
565.88	2167.34
566.05	2157.97
566.21	2120.53
566.38	2174.36
566.54	2157.97
566.70	2181.38
566.87	2108.82
567.03	2101.80
567.19	2146.27
567.36	2232.87
567.52	2080.74
567.68	2162.66
567.85	2069.03
568.01	1998.82
568.17	1996.48
568.34	1944.99
568.50	1954.35
568.66	2054.99
568.83	2132.23
568.99	1954.35
569.15	2062.01
569.32	2005.84
569.48	1996.48
569.64	2064.35
569.81	1977.75
569.97	1989.46
570.13	2064.35
570.30	1959.03
570.46	2031.58
570.62	1806.89
570.78	1912.22
570.95	1907.54
571.11	2181.38
571.27	1884.13
571.43	2104.14
571.60	1956.69
571.76	1987.11
571.92	2036.27
572.09	2026.90
572.25	1893.49
572.41	2073.71
572.57	1846.68
572.74	2001.16
572.90	2031.58
573.06	1895.83
573.22	2026.90
573.38	2069.03
573.55	2087.76
573.71	2087.76
573.87	2033.93
574.03	1996.48
574.20	1956.69
574.36	2012.86
574.52	2003.50
574.68	1722.63
574.84	2017.54
575.01	1842.00
575.17	1907.54
575.33	1851.36
575.49	1961.37
575.65	1933.28
575.82	1895.83
575.98	1977.75
576.14	1914.56
576.30	2005.84
576.46	2050.31
576.62	1963.71
576.79	2005.84
576.95	1961.37
577.11	1865.41
577.27	1900.52
577.43	1895.83
577.59	1853.70
577.75	1937.96
577.92	1947.33
578.08	1916.90
578.24	1933.28
578.40	1923.92
578.56	2064.35
578.72	1980.09
578.88	1884.13
579.04	1872.43
579.21	1963.71
579.37	1881.79
579.53	1984.77
579.69	1912.22
579.85	1919.24
580.01	1980.09
580.17	1963.71
580.33	1902.86
580.49	1984.77
580.65	1947.33
580.82	2113.50
580.98	1902.86
581.14	1867.75
581.30	1982.43
581.46	1968.39
581.62	2003.50
581.78	2071.37
581.94	2047.97
582.10	1994.14
582.26	2010.52
582.42	1884.13
582.58	1973.07
582.74	1940.30
582.90	1994.14
583.06	2127.55
583.22	2033.93
583.38	1893.49
583.54	1933.28
583.70	2043.29
583.86	1966.05
584.02	1926.26
584.18	1991.80
584.34	1898.17
584.50	1895.83
584.66	1832.64
584.82	1799.87
584.98	1907.54
585.14	1853.70
585.30	1973.07
585.46	1863.07
585.62	1839.66
585.78	1820.94
585.94	1830.30
586.10	1877.11
586.26	1944.99
586.42	1994.14
586.58	1989.46
586.74	1905.20
586.90	1858.39
587.06	1914.56
587.22	1940.30
587.38	1886.47
587.54	1916.90
587.70	1820.94
587.86	1678.16
588.02	1816.26
588.18	1629.01
588.34	1671.14
588.49	1401.98
588.65	1526.03
588.81	1488.58
588.97	1572.84
589.13	1495.60
589.29	1544.75
589.45	1537.73
589.61	1654.76
589.77	1687.53
589.93	1673.48
590.08	1696.89
590.24	1652.42
590.40	1696.89
590.56	1717.95
590.72	1750.72
590.88	1633.69
591.04	1586.88
591.20	1598.59
591.35	1710.93
591.51	1668.80
591.67	1605.61
591.83	1657.10
591.99	1617.31
592.15	1727.32
592.31	1703.91
592.46	1666.46
592.62	1699.23
592.78	1640.72
592.94	1771.79
593.10	1640.72
593.26	1797.53
593.41	1706.25
593.57	1659.44
593.73	1640.72
593.89	1668.80
594.05	1570.50
594.20	1650.08
594.36	1610.29
594.52	1619.65
594.68	1619.65
594.84	1666.46
594.99	1701.57
595.15	1671.14
595.31	1614.97
595.47	1582.20
595.62	1661.78
595.78	1753.06
595.94	1844.34
596.10	1727.32
596.25	1624.33
596.41	1631.35
596.57	1687.53
596.73	1619.65
596.88	1706.25
597.04	1575.18
597.20	1624.33
597.36	1610.29
597.51	1746.04
597.67	1694.55
597.83	1671.14
597.99	1626.67
598.14	1666.46
598.30	1645.40
598.46	1621.99
598.61	1680.50
598.77	1710.93
598.93	1685.19
599.09	1739.02
599.24	1654.76
599.40	1795.19
599.56	1603.27
