SpectraSuite Data File
++++++++++++++++++++++++++++++++++++
Date: Mon Sep 30 18:11:51 GMT-05:00 2013
User: stostad
Dark Spectrum Present: No
Reference Spectrum Present: No
Number of Sampled Component Spectra: 1
Spectrometers: USB2+H05261
Integration Time (usec): 100000 (USB2+H05261)
Spectra Averaged: 1 (USB2+H05261)
Boxcar Smoothing: 0 (USB2+H05261)
Correct for Electrical Dark: No (USB2+H05261)
Strobe/Lamp Enabled: No (USB2+H05261)
Correct for Detector Non-linearity: No (USB2+H05261)
Correct for Stray Light: No (USB2+H05261)
Number of Pixels in Processed Spectrum: 2048
>>>>>Begin Processed Spectral Data<<<<<
365.73	126.39
365.92	126.39
366.12	126.39
366.32	100.64
366.52	42.13
366.72	67.88
366.91	7.02
367.11	11.70
367.31	37.45
367.51	58.51
367.70	7.02
367.90	21.06
368.10	0.00
368.30	16.38
368.49	0.00
368.69	74.90
368.89	28.09
369.09	42.13
369.28	0.00
369.48	42.13
369.68	46.81
369.87	63.19
370.07	14.04
370.27	58.51
370.47	63.19
370.66	259.80
370.86	313.63
371.06	334.70
371.25	285.55
371.45	238.73
371.65	231.71
371.84	294.91
372.04	320.65
372.24	280.86
372.44	327.68
372.63	374.49
372.83	355.76
373.03	372.15
373.22	330.02
373.42	273.84
373.62	376.83
373.81	376.83
374.01	430.66
374.21	325.33
374.40	327.68
374.60	360.44
374.79	393.21
374.99	374.49
375.19	423.64
375.38	421.30
375.58	355.76
375.78	468.11
375.97	409.59
376.17	360.44
376.37	465.77
376.56	435.34
376.76	341.72
376.95	454.06
377.15	397.89
377.35	477.47
377.54	472.79
377.74	411.93
377.93	418.96
378.13	442.36
378.33	477.47
378.52	437.68
378.72	468.11
378.91	435.34
379.11	311.29
379.31	383.85
379.50	414.27
379.70	435.34
379.89	472.79
380.09	425.98
380.28	404.91
380.48	475.13
380.68	507.90
380.87	390.87
381.07	346.40
381.26	386.19
381.46	315.97
381.65	353.42
381.85	395.55
382.04	365.12
382.24	337.04
382.43	287.89
382.63	355.76
382.83	325.33
383.02	320.65
383.22	259.80
383.41	393.21
383.61	346.40
383.80	418.96
384.00	440.02
384.19	484.49
384.39	418.96
384.58	430.66
384.78	454.06
384.97	440.02
385.17	407.25
385.36	409.59
385.56	376.83
385.75	362.78
385.95	456.40
386.14	447.04
386.34	358.10
386.53	402.57
386.72	411.93
386.92	458.74
387.11	416.62
387.31	540.66
387.50	442.36
387.70	369.80
387.89	407.25
388.09	386.19
388.28	428.32
388.48	372.15
388.67	425.98
388.86	557.05
389.06	552.37
389.25	489.17
389.45	477.47
389.64	524.28
389.84	526.62
390.03	517.26
390.22	505.56
390.42	571.09
390.61	510.24
390.81	704.50
391.00	552.37
391.19	613.22
391.39	514.92
391.58	550.03
391.78	531.30
391.97	521.94
392.16	458.74
392.36	470.45
392.55	379.17
392.75	297.25
392.94	346.40
393.13	437.68
393.33	334.70
393.52	414.27
393.71	535.98
393.91	552.37
394.10	479.81
394.29	552.37
394.49	552.37
394.68	500.87
394.88	566.41
395.07	650.67
395.26	599.18
395.46	531.30
395.65	543.00
395.84	489.17
396.04	496.19
396.23	535.98
396.42	332.36
396.62	383.85
396.81	451.72
397.00	463.43
397.19	514.92
397.39	564.07
397.58	587.47
397.77	608.54
397.97	683.44
398.16	774.72
398.35	737.27
398.55	837.91
398.74	779.40
398.93	816.85
399.12	809.83
399.32	772.38
399.51	741.95
399.70	835.57
399.90	821.53
400.09	779.40
400.28	767.70
400.47	770.04
400.67	858.98
400.86	873.02
401.05	849.61
401.24	863.66
401.44	765.36
401.63	854.30
401.82	896.43
402.01	823.87
402.21	786.42
402.40	922.17
402.59	784.08
402.78	788.76
402.97	777.06
403.17	755.99
403.36	943.24
403.55	793.44
403.74	828.55
403.93	858.98
404.13	802.80
404.32	786.42
404.51	891.74
404.70	823.87
404.89	830.89
405.09	968.98
405.28	744.29
405.47	800.46
405.66	746.63
405.85	875.36
406.05	809.83
406.24	851.96
406.43	866.00
406.62	835.57
406.81	844.93
407.00	866.00
407.20	826.21
407.39	812.17
407.58	858.98
407.77	931.53
407.96	887.06
408.15	917.49
408.34	903.45
408.54	936.21
408.73	929.19
408.92	866.00
409.11	877.70
409.30	868.34
409.49	802.80
409.68	826.21
409.87	739.61
410.07	751.31
410.26	858.98
410.45	889.40
410.64	929.19
410.83	961.96
411.02	997.07
411.21	919.83
411.40	966.64
411.59	961.96
411.78	1011.11
411.98	936.21
412.17	1020.47
412.36	1043.88
412.55	978.34
412.74	954.94
412.93	905.79
413.12	959.62
413.31	1090.69
413.50	1041.54
413.69	1039.20
413.88	1015.79
414.07	950.26
414.26	1060.26
414.45	1071.97
414.64	924.51
414.83	1036.86
415.02	1055.58
415.22	940.90
415.41	1057.92
415.60	1032.18
415.79	1046.22
415.98	1153.88
416.17	1172.61
416.36	1053.24
416.55	994.73
416.74	1053.24
416.93	961.96
417.12	980.68
417.31	1004.09
417.50	1090.69
417.69	1146.86
417.88	973.66
418.07	1057.92
418.26	1034.52
418.45	950.26
418.64	1086.01
418.83	1130.48
419.02	1018.13
419.21	1013.45
419.39	1008.77
419.58	1001.75
419.77	1053.24
419.96	1132.82
420.15	1086.01
420.34	1090.69
420.53	1132.82
420.72	1116.44
420.91	1163.25
421.10	1135.16
421.29	1083.67
421.48	1100.05
421.67	1165.59
421.86	1036.86
422.05	1006.43
422.24	887.06
422.43	1004.09
422.61	1153.88
422.80	1144.52
422.99	1032.18
423.18	1083.67
423.37	1029.84
423.56	1053.24
423.75	1111.75
423.94	1053.24
424.13	1013.45
424.32	1001.75
424.50	1011.11
424.69	1102.39
424.88	1118.78
425.07	990.05
425.26	992.39
425.45	1086.01
425.64	952.60
425.83	945.58
426.01	1186.65
426.20	1121.12
426.39	1055.58
426.58	959.62
426.77	877.70
426.96	926.85
427.15	1046.22
427.33	1001.75
427.52	999.41
427.71	1025.15
427.90	1032.18
428.09	1004.09
428.28	957.28
428.46	987.71
428.65	952.60
428.84	1018.13
429.03	1008.77
429.22	961.96
429.40	830.89
429.59	835.57
429.78	889.40
429.97	793.44
430.16	748.97
430.34	774.72
430.53	760.67
430.72	786.42
430.91	947.92
431.10	1025.15
431.28	1100.05
431.47	1252.19
431.66	1210.06
431.85	945.58
432.03	1041.54
432.22	952.60
432.41	1109.41
432.60	1188.99
432.79	1181.97
432.97	1179.63
433.16	1078.99
433.35	1013.45
433.54	875.36
433.72	940.90
433.91	1004.09
434.10	1055.58
434.28	1093.03
434.47	1198.35
434.66	1109.41
434.85	1041.54
435.03	1125.80
435.22	1341.13
435.41	1460.49
435.59	1341.13
435.78	1219.42
435.97	1235.80
436.16	1338.79
436.34	1210.06
436.53	1137.50
436.72	1233.46
436.90	1151.54
437.09	1238.14
437.28	1067.28
437.46	1156.22
437.65	1083.67
437.84	1032.18
438.02	922.17
438.21	990.05
438.40	1050.90
438.58	1160.91
438.77	1254.53
438.96	1308.36
439.14	1191.33
439.33	1268.57
439.52	1273.25
439.70	1172.61
439.89	1226.44
440.08	1184.31
440.26	1156.22
440.45	1181.97
440.63	1373.89
440.82	1423.05
441.01	1413.68
441.19	1245.16
441.38	1364.53
441.57	1378.58
441.75	1430.07
441.94	1488.58
442.12	1383.26
442.31	1430.07
442.50	1394.96
442.68	1268.57
442.87	1301.34
443.05	1291.98
443.24	1380.92
443.43	1413.68
443.61	1343.47
443.80	1427.73
443.98	1352.83
444.17	1376.24
444.35	1465.18
444.54	1462.83
444.73	1432.41
444.91	1380.92
445.10	1324.74
445.28	1252.19
445.47	1324.74
445.65	1317.72
445.84	1411.34
446.02	1488.58
446.21	1420.71
446.39	1404.32
446.58	1380.92
446.77	1507.30
446.95	1378.58
447.14	1387.94
447.32	1572.84
447.51	1476.88
447.69	1198.35
447.88	1338.79
448.06	1345.81
448.25	1404.32
448.43	1336.45
448.62	1458.15
448.80	1376.24
448.99	1366.87
449.17	1362.19
449.36	1366.87
449.54	1441.77
449.73	1455.81
449.91	1460.49
450.10	1390.28
450.28	1500.28
450.46	1575.18
450.65	1476.88
450.83	1511.99
451.02	1511.99
451.20	1472.20
451.39	1476.88
451.57	1612.63
451.76	1366.87
451.94	1313.04
452.13	1371.55
452.31	1409.00
452.49	1282.61
452.68	1275.59
452.86	1362.19
453.05	1390.28
453.23	1338.79
453.42	1481.56
453.60	1425.39
453.78	1511.99
453.97	1397.30
454.15	1479.22
454.34	1350.49
454.52	1411.34
454.70	1497.94
454.89	1432.41
455.07	1387.94
455.26	1462.83
455.44	1579.86
455.62	1521.35
455.81	1476.88
455.99	1416.02
456.17	1563.48
456.36	1565.82
456.54	1460.49
456.73	1432.41
456.91	1551.78
457.09	1624.33
457.28	1549.43
457.46	1495.60
457.64	1472.20
457.83	1352.83
458.01	1338.79
458.19	1572.84
458.38	1568.16
458.56	1465.18
458.74	1439.43
458.93	1535.39
459.11	1547.09
459.29	1469.86
459.48	1565.82
459.66	1516.67
459.84	1521.35
460.03	1558.80
460.21	1500.28
460.39	1465.18
460.57	1528.37
460.76	1547.09
460.94	1511.99
461.12	1565.82
461.31	1586.88
461.49	1572.84
461.67	1467.52
461.85	1629.01
462.04	1526.03
462.22	1687.53
462.40	1624.33
462.59	1493.26
462.77	1668.80
462.95	1568.16
463.13	1535.39
463.32	1610.29
463.50	1516.67
463.68	1488.58
463.86	1504.96
464.05	1497.94
464.23	1533.05
464.41	1416.02
464.59	1516.67
464.78	1612.63
464.96	1570.50
465.14	1521.35
465.32	1577.52
465.50	1521.35
465.69	1603.27
465.87	1434.75
466.05	1446.45
466.23	1392.62
466.41	1406.66
466.60	1488.58
466.78	1453.47
466.96	1584.54
467.14	1591.56
467.32	1514.33
467.51	1526.03
467.69	1469.86
467.87	1577.52
468.05	1540.07
468.23	1570.50
468.41	1563.48
468.60	1488.58
468.78	1500.28
468.96	1507.30
469.14	1495.60
469.32	1460.49
469.50	1481.56
469.69	1458.15
469.87	1350.49
470.05	1397.30
470.23	1540.07
470.41	1427.73
470.59	1504.96
470.77	1533.05
470.95	1514.33
471.14	1596.25
471.32	1500.28
471.50	1806.89
471.68	1610.29
471.86	1703.91
472.04	1647.74
472.22	1671.14
472.40	1547.09
472.58	1474.54
472.77	1577.52
472.95	1530.71
473.13	1678.16
473.31	1598.59
473.49	1582.20
473.67	1596.25
473.85	1591.56
474.03	1638.38
474.21	1675.82
474.39	1675.82
474.57	1727.32
474.75	1685.19
474.93	1666.46
475.12	1624.33
475.30	1640.72
475.48	1750.72
475.66	1673.48
475.84	1577.52
476.02	1600.93
476.20	1624.33
476.38	1568.16
476.56	1743.70
476.74	1760.08
476.92	1645.40
477.10	1689.87
477.28	1790.51
477.46	1832.64
477.64	1804.55
477.82	1802.21
478.00	1802.21
478.18	1872.43
478.36	1619.65
478.54	1746.04
478.72	1774.13
478.90	1849.02
479.08	1834.98
479.26	1853.70
479.44	1895.83
479.62	1767.10
479.80	1877.11
479.98	1867.75
480.16	1928.60
480.34	1968.39
480.52	1849.02
480.70	1844.34
480.88	1886.47
481.06	1977.75
481.24	1930.94
481.41	1956.69
481.59	1973.07
481.77	1984.77
481.95	2005.84
482.13	2026.90
482.31	2008.18
482.49	2038.61
482.67	1914.56
482.85	2038.61
483.03	1987.11
483.21	2045.63
483.39	2003.50
483.57	1949.67
483.74	2010.52
483.92	2012.86
484.10	2010.52
484.28	2010.52
484.46	2106.48
484.64	2106.48
484.82	2001.16
485.00	1966.05
485.18	1989.46
485.35	1860.73
485.53	1647.74
485.71	1654.76
485.89	1769.44
486.07	1792.85
486.25	1952.01
486.43	2071.37
486.61	2040.95
486.78	2012.86
486.96	1912.22
487.14	2097.12
487.32	2122.87
487.50	2193.08
487.68	2251.60
487.85	2176.70
488.03	2216.49
488.21	2286.70
488.39	2113.50
488.57	2087.76
488.75	2148.61
488.92	2462.24
489.10	2380.32
489.28	2464.58
489.46	2424.80
489.64	2436.50
489.81	2359.26
489.99	2347.56
490.17	2347.56
490.35	2457.56
490.53	2373.30
490.70	2303.09
490.88	2373.30
491.06	2462.24
491.24	2485.65
491.41	2356.92
491.59	2188.40
491.77	2172.02
491.95	2448.20
492.13	2396.71
492.30	2492.67
492.48	2567.57
492.66	2558.21
492.84	2572.25
493.01	2380.32
493.19	2300.75
493.37	2539.48
493.54	2516.08
493.72	2548.84
493.90	2626.08
494.08	2534.80
494.25	2586.29
494.43	2696.30
494.61	2609.70
494.79	2750.13
494.96	2689.28
495.14	2642.46
495.32	2511.39
495.49	2565.23
495.67	2616.72
495.85	2733.75
496.02	2572.25
496.20	2731.41
496.38	2780.56
496.55	2663.53
496.73	2705.66
496.91	2736.09
497.09	2752.47
497.26	2773.53
497.44	2719.70
497.62	2612.04
497.79	2483.31
497.97	2443.52
498.14	2609.70
498.32	2537.14
498.50	2726.72
498.67	2752.47
498.85	2752.47
499.03	2794.60
499.20	2750.13
499.38	2628.42
499.56	2619.06
499.73	2642.46
499.91	2544.16
500.08	2724.38
500.26	2616.72
500.44	2649.49
500.61	2693.96
500.79	2712.68
500.97	2612.04
501.14	2731.41
501.32	2530.12
501.49	2586.29
501.67	2502.03
501.84	2630.76
502.02	2663.53
502.20	2691.62
502.37	2602.68
502.55	2722.04
502.72	2771.19
502.90	2780.56
503.07	2637.78
503.25	2670.55
503.43	2459.90
503.60	2420.11
503.78	2537.14
503.95	2616.72
504.13	2700.98
504.30	2747.79
504.48	2780.56
504.65	2733.75
504.83	2752.47
505.01	2977.16
505.18	2834.39
505.36	2904.60
505.53	2853.11
505.71	3009.93
505.88	2883.54
506.06	2724.38
506.23	2747.79
506.41	2806.30
506.58	2827.37
506.76	2750.13
506.93	2796.94
507.11	2729.06
507.28	2668.21
507.46	2757.15
507.63	2651.83
507.81	2581.61
507.98	2698.64
508.16	2745.45
508.33	2841.41
508.50	2979.50
508.68	2942.05
508.85	2876.52
509.03	2956.10
509.20	2850.77
509.38	2822.69
509.55	2621.40
509.73	2775.88
509.90	2895.24
510.08	2876.52
510.25	2972.48
510.42	2768.85
510.60	2771.19
510.77	2810.98
510.95	2890.56
511.12	3033.33
511.30	2965.46
511.47	2991.20
511.64	3045.04
511.82	2869.50
511.99	2801.62
512.17	2750.13
512.34	2724.38
512.51	2726.72
512.69	2869.50
512.86	2867.16
513.04	2815.66
513.21	2834.39
513.38	2822.69
513.56	2761.83
513.73	2740.77
513.90	2691.62
514.08	2789.92
514.25	2708.00
514.43	2904.60
514.60	2892.90
514.77	2761.83
514.95	2775.88
515.12	2738.43
515.29	2874.18
515.47	2771.19
515.64	2911.63
515.81	2864.82
515.99	2712.68
516.16	2569.91
516.33	2324.15
516.51	2289.04
516.68	2326.49
516.85	2354.58
517.03	2462.24
517.20	2679.91
517.37	2864.82
517.54	2885.88
517.72	2822.69
517.89	2457.56
518.06	2118.18
518.24	2410.75
518.41	2700.98
518.58	2839.07
518.75	2614.38
518.93	2560.55
519.10	2729.06
519.27	2792.26
519.45	2860.13
519.62	2801.62
519.79	2913.97
519.96	2874.18
520.14	2731.41
520.31	2658.85
520.48	2668.21
520.65	2818.00
520.83	2825.03
521.00	2967.80
521.17	2775.88
521.34	2719.70
521.52	2986.52
521.69	2906.95
521.86	3098.87
522.03	2925.67
522.20	2766.51
522.38	2729.06
522.55	2640.12
522.72	2738.43
522.89	2794.60
523.07	2715.02
523.24	2715.02
523.41	2909.29
523.58	2979.50
523.75	2939.71
523.92	2832.05
524.10	2888.22
524.27	2949.08
524.44	2918.65
524.61	2864.82
524.78	2794.60
524.96	2794.60
525.13	2885.88
525.30	2986.52
525.47	2953.76
525.64	2974.82
525.81	2740.77
525.98	2710.34
526.16	2532.46
526.33	2401.39
526.50	2406.07
526.67	2513.74
526.84	2572.25
527.01	2579.27
527.18	2698.64
527.36	2869.50
527.53	2883.54
527.70	2764.17
527.87	2743.11
528.04	2745.45
528.21	2939.71
528.38	2988.86
528.55	3084.83
528.72	3059.08
528.89	3101.21
529.07	2883.54
529.24	2897.58
529.41	2670.55
529.58	2761.83
529.75	2806.30
529.92	2825.03
530.09	2946.73
530.26	2855.45
530.43	2925.67
530.60	2923.33
530.77	2871.84
530.94	3007.59
531.11	3101.21
531.28	2841.41
531.46	2883.54
531.63	2918.65
531.80	2752.47
531.97	2822.69
532.14	2719.70
532.31	2555.86
532.48	2530.12
532.65	2576.93
532.82	2789.92
532.99	2864.82
533.16	2874.18
533.33	2869.50
533.50	2850.77
533.67	2651.83
533.84	2736.09
534.01	2675.23
534.18	2820.35
534.35	2827.37
534.52	2649.49
534.69	2785.24
534.86	2991.20
535.03	2939.71
535.20	2930.35
535.37	3005.25
535.54	2874.18
535.71	2906.95
535.88	2773.53
536.05	2775.88
536.22	2663.53
536.38	2696.30
536.55	2649.49
536.72	2560.55
536.89	2658.85
537.06	2839.07
537.23	2787.58
537.40	2825.03
537.57	2853.11
537.74	2867.16
537.91	2848.43
538.08	2782.90
538.25	2815.66
538.42	2871.84
538.59	2775.88
538.75	2640.12
538.92	2672.89
539.09	2759.49
539.26	2761.83
539.43	2780.56
539.60	2637.78
539.77	2752.47
539.94	2717.36
540.11	2724.38
540.28	2743.11
540.44	2682.25
540.61	2689.28
540.78	2684.59
540.95	2806.30
541.12	2834.39
541.29	2904.60
541.46	2911.63
541.62	2871.84
541.79	2729.06
541.96	2818.00
542.13	2806.30
542.30	2792.26
542.47	2832.05
542.63	2752.47
542.80	2775.88
542.97	2815.66
543.14	2612.04
543.31	2846.09
543.48	2841.41
543.64	2871.84
543.81	2956.10
543.98	2897.58
544.15	2752.47
544.32	2775.88
544.48	2733.75
544.65	2836.73
544.82	2895.24
544.99	2822.69
545.16	2761.83
545.32	2928.01
545.49	3045.04
545.66	3260.37
545.83	2939.71
546.00	2857.79
546.16	2862.48
546.33	2906.95
546.50	2726.72
546.67	3005.25
546.83	2715.02
547.00	2796.94
547.17	2743.11
547.34	2602.68
547.50	2614.38
547.67	2621.40
547.84	2668.21
548.00	2813.32
548.17	2731.41
548.34	2782.90
548.51	2715.02
548.67	2836.73
548.84	2766.51
549.01	2801.62
549.18	2612.04
549.34	2630.76
549.51	2733.75
549.68	2750.13
549.84	2794.60
550.01	2665.87
550.18	2839.07
550.34	2773.53
550.51	2684.59
550.68	2712.68
550.84	2607.36
551.01	2588.63
551.18	2644.81
551.34	2684.59
551.51	2773.53
551.68	2815.66
551.84	2818.00
552.01	2551.18
552.18	2562.89
552.34	2497.35
552.51	2579.27
552.68	2619.06
552.84	2698.64
553.01	2918.65
553.18	2579.27
553.34	2642.46
553.51	2691.62
553.67	2686.94
553.84	2668.21
554.01	2628.42
554.17	2752.47
554.34	2670.55
554.51	2621.40
554.67	2670.55
554.84	2724.38
555.00	2593.31
555.17	2679.91
555.33	2668.21
555.50	2649.49
555.67	2647.15
555.83	2574.59
556.00	2586.29
556.16	2647.15
556.33	2649.49
556.50	2616.72
556.66	2527.78
556.83	2560.55
556.99	2345.22
557.16	2539.48
557.32	2555.86
557.49	2567.57
557.65	2668.21
557.82	2609.70
557.98	2429.48
558.15	2396.71
558.32	2363.94
558.48	2396.71
558.65	2375.64
558.81	2375.64
558.98	2520.76
559.14	2457.56
559.31	2413.09
559.47	2473.95
559.64	2363.94
559.80	2377.98
559.97	2464.58
560.13	2513.74
560.30	2609.70
560.46	2616.72
560.63	2523.10
560.79	2537.14
560.96	2375.64
561.12	2415.43
561.29	2375.64
561.45	2434.16
561.61	2532.46
561.78	2509.05
561.94	2375.64
562.11	2385.01
562.27	2385.01
562.44	2469.27
562.60	2487.99
562.77	2469.27
562.93	2607.36
563.10	2569.91
563.26	2438.84
563.42	2340.54
563.59	2403.73
563.75	2293.72
563.92	2422.45
564.08	2359.26
564.24	2363.94
564.41	2422.45
564.57	2457.56
564.74	2218.83
564.90	2368.62
565.07	2499.69
565.23	2303.09
565.39	2342.88
565.56	2408.41
565.72	2342.88
565.88	2349.90
566.05	2263.30
566.21	2347.56
566.38	2340.54
566.54	2326.49
566.70	2380.32
566.87	2394.37
567.03	2321.81
567.19	2317.13
567.36	2361.60
567.52	2296.07
567.68	2230.53
567.85	2307.77
568.01	2263.30
568.17	2155.63
568.34	2239.89
568.50	2225.85
568.66	2162.66
568.83	2305.43
568.99	2167.34
569.15	2202.44
569.32	2193.08
569.48	2183.72
569.64	2228.19
569.81	2260.96
569.97	2157.97
570.13	2204.78
570.30	2160.31
570.46	1998.82
570.62	2150.95
570.78	2120.53
570.95	2097.12
571.11	2165.00
571.27	2230.53
571.43	2218.83
571.60	2211.81
571.76	2179.04
571.92	2263.30
572.09	2136.91
572.25	2228.19
572.41	2249.25
572.57	2190.74
572.74	2214.15
572.90	2155.63
573.06	2183.72
573.22	2118.18
573.38	2132.23
573.55	2183.72
573.71	2260.96
573.87	2235.21
574.03	2122.87
574.20	2136.91
574.36	2141.59
574.52	2167.34
574.68	2113.50
574.84	2155.63
575.01	2005.84
575.17	2062.01
575.33	2120.53
575.49	2064.35
575.65	2193.08
575.82	1984.77
575.98	2125.21
576.14	2202.44
576.30	2267.98
576.46	2249.25
576.62	2111.16
576.79	2087.76
576.95	2190.74
577.11	2136.91
577.27	2111.16
577.43	2054.99
577.59	2118.18
577.75	2050.31
577.92	2064.35
578.08	2090.10
578.24	2047.97
578.40	2066.69
578.56	2225.85
578.72	2174.36
578.88	2193.08
579.04	2120.53
579.21	2057.33
579.37	2181.38
579.53	2127.55
579.69	2080.74
579.85	2120.53
580.01	2157.97
580.17	2122.87
580.33	2153.29
580.49	1994.14
580.65	2134.57
580.82	2211.81
580.98	2125.21
581.14	2148.61
581.30	2127.55
581.46	1984.77
581.62	2174.36
581.78	2328.83
581.94	2127.55
582.10	2246.91
582.26	2221.17
582.42	2141.59
582.58	2197.76
582.74	2221.17
582.90	2174.36
583.06	2202.44
583.22	2207.13
583.38	2125.21
583.54	2221.17
583.70	2232.87
583.86	2270.32
584.02	2169.68
584.18	2181.38
584.34	2176.70
584.50	2052.65
584.66	2043.29
584.82	2104.14
584.98	2143.93
585.14	2073.71
585.30	1984.77
585.46	2052.65
585.62	2038.61
585.78	2054.99
585.94	2047.97
586.10	2052.65
586.26	2101.80
586.42	2080.74
586.58	2155.63
586.74	2146.27
586.90	2221.17
587.06	2087.76
587.22	2022.22
587.38	1996.48
587.54	1921.58
587.70	1970.73
587.86	1881.79
588.02	1820.94
588.18	1877.11
588.34	1729.66
588.49	1668.80
588.65	1640.72
588.81	1657.10
588.97	1629.01
589.13	1645.40
589.29	1631.35
589.45	1694.55
589.61	1739.02
589.77	1799.87
589.93	1895.83
590.08	1842.00
590.24	1884.13
590.40	1820.94
590.56	1839.66
590.72	1762.42
590.88	1802.21
591.04	1797.53
591.20	1846.68
591.35	1853.70
591.51	1881.79
591.67	1858.39
591.83	1755.40
591.99	1949.67
592.15	2010.52
592.31	2015.20
592.46	1856.04
592.62	1956.69
592.78	1877.11
592.94	1886.47
593.10	1923.92
593.26	1937.96
593.41	1881.79
593.57	1844.34
593.73	1724.97
593.89	1781.15
594.05	1720.29
594.20	1755.40
594.36	1781.15
594.52	1746.04
594.68	1844.34
594.84	1846.68
594.99	1884.13
595.15	1741.36
595.31	1863.07
595.47	1834.98
595.62	1830.30
595.78	1937.96
595.94	1980.09
596.10	1797.53
596.25	1790.51
596.41	1888.81
596.57	1916.90
596.73	1872.43
596.88	1825.62
597.04	1895.83
597.20	1717.95
597.36	1734.34
597.51	1818.60
597.67	1776.47
597.83	1708.59
597.99	1785.83
598.14	1853.70
598.30	1823.28
598.46	1818.60
598.61	1872.43
598.77	1867.75
598.93	1851.36
