SpectraSuite Data File
++++++++++++++++++++++++++++++++++++
Date: Mon Sep 30 18:11:52 GMT-05:00 2013
User: stostad
Dark Spectrum Present: No
Reference Spectrum Present: No
Number of Sampled Component Spectra: 1
Spectrometers: USB2+H05261
Integration Time (usec): 100000 (USB2+H05261)
Spectra Averaged: 1 (USB2+H05261)
Boxcar Smoothing: 0 (USB2+H05261)
Correct for Electrical Dark: No (USB2+H05261)
Strobe/Lamp Enabled: No (USB2+H05261)
Correct for Detector Non-linearity: No (USB2+H05261)
Correct for Stray Light: No (USB2+H05261)
Number of Pixels in Processed Spectrum: 2048
>>>>>Begin Processed Spectral Data<<<<<
365.73	149.79
365.92	149.79
366.12	149.79
366.32	77.24
366.52	0.00
366.72	53.83
366.91	70.22
367.11	72.56
367.31	53.83
367.51	58.51
367.70	0.00
367.90	53.83
368.10	11.70
368.30	77.24
368.49	0.00
368.69	39.79
368.89	7.02
369.09	46.81
369.28	32.77
369.48	30.43
369.68	49.15
369.87	32.77
370.07	65.54
370.27	124.05
370.47	149.79
370.66	212.99
370.86	173.20
371.06	372.15
371.25	318.31
371.45	292.57
371.65	299.59
371.84	301.93
372.04	337.04
372.24	308.95
372.44	318.31
372.63	264.48
372.83	334.70
373.03	280.86
373.22	201.29
373.42	341.72
373.62	285.55
373.81	294.91
374.01	365.12
374.21	304.27
374.40	294.91
374.60	320.65
374.79	351.08
374.99	437.68
375.19	395.55
375.38	374.49
375.58	358.10
375.78	376.83
375.97	351.08
376.17	451.72
376.37	367.46
376.56	393.21
376.76	383.85
376.95	346.40
377.15	430.66
377.35	372.15
377.54	430.66
377.74	390.87
377.93	402.57
378.13	397.89
378.33	463.43
378.52	337.04
378.72	369.80
378.91	353.42
379.11	287.89
379.31	390.87
379.50	442.36
379.70	421.30
379.89	353.42
380.09	430.66
380.28	379.17
380.48	395.55
380.68	404.91
380.87	402.57
381.07	308.95
381.26	369.80
381.46	381.51
381.65	372.15
381.85	292.57
382.04	292.57
382.24	292.57
382.43	369.80
382.63	278.52
382.83	346.40
383.02	360.44
383.22	404.91
383.41	297.25
383.61	411.93
383.80	308.95
384.00	353.42
384.19	425.98
384.39	383.85
384.58	456.40
384.78	402.57
384.97	400.23
385.17	463.43
385.36	475.13
385.56	411.93
385.75	402.57
385.95	500.87
386.14	407.25
386.34	430.66
386.53	451.72
386.72	404.91
386.92	421.30
387.11	433.00
387.31	425.98
387.50	372.15
387.70	383.85
387.89	414.27
388.09	397.89
388.28	454.06
388.48	416.62
388.67	390.87
388.86	550.03
389.06	400.23
389.25	458.74
389.45	435.34
389.64	491.51
389.84	543.00
390.03	468.11
390.22	414.27
390.42	482.15
390.61	557.05
390.81	505.56
391.00	573.43
391.19	561.73
391.39	482.15
391.58	472.79
391.78	475.13
391.97	531.30
392.16	465.77
392.36	404.91
392.55	325.33
392.75	365.12
392.94	344.06
393.13	353.42
393.33	339.38
393.52	482.15
393.71	454.06
393.91	500.87
394.10	458.74
394.29	447.04
394.49	533.64
394.68	571.09
394.88	585.13
395.07	554.71
395.26	566.41
395.46	552.37
395.65	503.22
395.84	421.30
396.04	463.43
396.23	449.38
396.42	330.02
396.62	369.80
396.81	491.51
397.00	507.90
397.19	608.54
397.39	594.50
397.58	678.76
397.77	667.05
397.97	582.79
398.16	634.29
398.35	655.35
398.55	650.67
398.74	758.33
398.93	741.95
399.12	622.58
399.32	692.80
399.51	713.86
399.70	706.84
399.90	751.31
400.09	774.72
400.28	688.12
400.47	725.57
400.67	788.76
400.86	786.42
401.05	702.16
401.24	744.29
401.44	702.16
401.63	713.86
401.82	784.08
402.01	837.91
402.21	844.93
402.40	772.38
402.59	755.99
402.78	725.57
402.97	741.95
403.17	751.31
403.36	786.42
403.55	809.83
403.74	840.25
403.93	800.46
404.13	786.42
404.32	683.44
404.51	791.10
404.70	854.30
404.89	791.10
405.09	833.23
405.28	833.23
405.47	805.14
405.66	777.06
405.85	798.12
406.05	755.99
406.24	678.76
406.43	903.45
406.62	812.17
406.81	765.36
407.00	709.18
407.20	746.63
407.39	725.57
407.58	800.46
407.77	814.51
407.96	767.70
408.15	912.81
408.34	833.23
408.54	856.64
408.73	868.34
408.92	805.14
409.11	821.53
409.30	823.87
409.49	816.85
409.68	711.52
409.87	648.33
410.07	816.85
410.26	760.67
410.45	826.21
410.64	821.53
410.83	861.32
411.02	947.92
411.21	950.26
411.40	866.00
411.59	866.00
411.78	896.43
411.98	781.74
412.17	863.66
412.36	847.27
412.55	929.19
412.74	931.53
412.93	877.70
413.12	882.38
413.31	997.07
413.50	1011.11
413.69	891.74
413.88	889.40
414.07	933.87
414.26	894.08
414.45	933.87
414.64	990.05
414.83	908.13
415.02	894.08
415.22	922.17
415.41	1048.56
415.60	936.21
415.79	931.53
415.98	976.00
416.17	896.43
416.36	905.79
416.55	966.64
416.74	961.96
416.93	945.58
417.12	915.15
417.31	929.19
417.50	866.00
417.69	1041.54
417.88	882.38
418.07	992.39
418.26	1027.50
418.45	922.17
418.64	978.34
418.83	931.53
419.02	994.73
419.21	908.13
419.39	919.83
419.58	945.58
419.77	931.53
419.96	1011.11
420.15	973.66
420.34	947.92
420.53	992.39
420.72	1078.99
420.91	1008.77
421.10	1020.47
421.29	1022.81
421.48	1100.05
421.67	992.39
421.86	1011.11
422.05	1050.90
422.24	819.19
422.43	929.19
422.61	1027.50
422.80	1088.35
422.99	961.96
423.18	952.60
423.37	926.85
423.56	938.55
423.75	983.02
423.94	940.90
424.13	1006.43
424.32	987.71
424.50	945.58
424.69	980.68
424.88	903.45
425.07	915.15
425.26	1015.79
425.45	936.21
425.64	966.64
425.83	985.37
426.01	1093.03
426.20	957.28
426.39	992.39
426.58	919.83
426.77	837.91
426.96	877.70
427.15	894.08
427.33	915.15
427.52	1062.60
427.71	959.62
427.90	954.94
428.09	912.81
428.28	912.81
428.46	847.27
428.65	891.74
428.84	968.98
429.03	997.07
429.22	868.34
429.40	858.98
429.59	671.73
429.78	788.76
429.97	732.59
430.16	688.12
430.34	725.57
430.53	704.50
430.72	772.38
430.91	833.23
431.10	1015.79
431.28	1095.37
431.47	1076.65
431.66	1132.82
431.85	884.72
432.03	940.90
432.22	901.11
432.41	938.55
432.60	1076.65
432.79	1071.97
432.97	1123.46
433.16	1074.31
433.35	968.98
433.54	861.32
433.72	922.17
433.91	950.26
434.10	924.51
434.28	1057.92
434.47	891.74
434.66	1015.79
434.85	1060.26
435.03	1184.31
435.22	1254.53
435.41	1224.10
435.59	1165.59
435.78	1174.95
435.97	1137.50
436.16	1172.61
436.34	1123.46
436.53	1137.50
436.72	1142.18
436.90	1078.99
437.09	1039.20
437.28	1036.86
437.46	1086.01
437.65	1104.73
437.84	936.21
438.02	912.81
438.21	1018.13
438.40	985.37
438.58	1046.22
438.77	1118.78
438.96	1055.58
439.14	1160.91
439.33	1177.29
439.52	1128.14
439.70	1109.41
439.89	1116.44
440.08	1125.80
440.26	1088.35
440.45	1219.42
440.63	1139.84
440.82	1158.57
441.01	1219.42
441.19	1078.99
441.38	1310.70
441.57	1291.98
441.75	1261.55
441.94	1390.28
442.12	1270.91
442.31	1261.55
442.50	1320.06
442.68	1235.80
442.87	1259.21
443.05	1193.67
443.24	1203.04
443.43	1303.68
443.61	1327.08
443.80	1270.91
443.98	1214.74
444.17	1184.31
444.35	1376.24
444.54	1240.48
444.73	1296.66
444.91	1217.08
445.10	1172.61
445.28	1093.03
445.47	1111.75
445.65	1188.99
445.84	1247.51
446.02	1294.32
446.21	1184.31
446.39	1160.91
446.58	1207.72
446.77	1270.91
446.95	1294.32
447.14	1352.83
447.32	1277.93
447.51	1308.36
447.69	1205.38
447.88	1235.80
448.06	1240.48
448.25	1205.38
448.43	1252.19
448.62	1235.80
448.80	1221.76
448.99	1273.25
449.17	1242.82
449.36	1336.45
449.54	1413.68
449.73	1235.80
449.91	1369.21
450.10	1348.15
450.28	1387.94
450.46	1397.30
450.65	1430.07
450.83	1416.02
451.02	1282.61
451.20	1394.96
451.39	1343.47
451.57	1380.92
451.76	1369.21
451.94	1306.02
452.13	1266.23
452.31	1270.91
452.49	1193.67
452.68	1245.16
452.86	1224.10
453.05	1320.06
453.23	1331.76
453.42	1352.83
453.60	1345.81
453.78	1315.38
453.97	1273.25
454.15	1315.38
454.34	1203.04
454.52	1348.15
454.70	1256.87
454.89	1306.02
455.07	1348.15
455.26	1441.77
455.44	1282.61
455.62	1359.85
455.81	1352.83
455.99	1373.89
456.17	1303.68
456.36	1352.83
456.54	1434.75
456.73	1378.58
456.91	1455.81
457.09	1446.45
457.28	1467.52
457.46	1423.05
457.64	1394.96
457.83	1380.92
458.01	1259.21
458.19	1479.22
458.38	1385.60
458.56	1308.36
458.74	1397.30
458.93	1315.38
459.11	1366.87
459.29	1252.19
459.48	1315.38
459.66	1327.08
459.84	1380.92
460.03	1572.84
460.21	1390.28
460.39	1446.45
460.57	1533.05
460.76	1432.41
460.94	1416.02
461.12	1385.60
461.31	1451.13
461.49	1397.30
461.67	1282.61
461.85	1451.13
462.04	1404.32
462.22	1589.22
462.40	1371.55
462.59	1446.45
462.77	1533.05
462.95	1439.43
463.13	1352.83
463.32	1378.58
463.50	1406.66
463.68	1378.58
463.86	1416.02
464.05	1331.76
464.23	1371.55
464.41	1308.36
464.59	1336.45
464.78	1432.41
464.96	1345.81
465.14	1371.55
465.32	1430.07
465.50	1514.33
465.69	1472.20
465.87	1338.79
466.05	1404.32
466.23	1238.14
466.41	1289.64
466.60	1420.71
466.78	1289.64
466.96	1423.05
467.14	1472.20
467.32	1462.83
467.51	1411.34
467.69	1432.41
467.87	1446.45
468.05	1430.07
468.23	1413.68
468.41	1373.89
468.60	1348.15
468.78	1380.92
468.96	1401.98
469.14	1507.30
469.32	1401.98
469.50	1341.13
469.69	1327.08
469.87	1336.45
470.05	1362.19
470.23	1308.36
470.41	1331.76
470.59	1275.59
470.77	1448.79
470.95	1387.94
471.14	1437.09
471.32	1423.05
471.50	1397.30
471.68	1483.90
471.86	1530.71
472.04	1500.28
472.22	1551.78
472.40	1338.79
472.58	1336.45
472.77	1486.24
472.95	1519.01
473.13	1540.07
473.31	1458.15
473.49	1401.98
473.67	1493.26
473.85	1458.15
474.03	1502.62
474.21	1570.50
474.39	1612.63
474.57	1610.29
474.75	1472.20
474.93	1523.69
475.12	1399.64
475.30	1430.07
475.48	1509.65
475.66	1493.26
475.84	1474.54
476.02	1427.73
476.20	1434.75
476.38	1425.39
476.56	1530.71
476.74	1579.86
476.92	1556.46
477.10	1516.67
477.28	1629.01
477.46	1619.65
477.64	1610.29
477.82	1624.33
478.00	1605.61
478.18	1577.52
478.36	1561.14
478.54	1565.82
478.72	1561.14
478.90	1643.06
479.08	1661.78
479.26	1710.93
479.44	1685.19
479.62	1526.03
479.80	1652.42
479.98	1710.93
480.16	1717.95
480.34	1769.44
480.52	1633.69
480.70	1685.19
480.88	1666.46
481.06	1724.97
481.24	1724.97
481.41	1771.79
481.59	1748.38
481.77	1701.57
481.95	1703.91
482.13	1849.02
482.31	1816.26
482.49	1825.62
482.67	1895.83
482.85	1830.30
483.03	1785.83
483.21	1919.24
483.39	1783.49
483.57	1771.79
483.74	1827.96
483.92	1872.43
484.10	1799.87
484.28	1860.73
484.46	1905.20
484.64	1900.52
484.82	1825.62
485.00	1771.79
485.18	1806.89
485.35	1755.40
485.53	1530.71
485.71	1535.39
485.89	1488.58
486.07	1755.40
486.25	1839.66
486.43	1879.45
486.61	1937.96
486.78	1797.53
486.96	1797.53
487.14	1914.56
487.32	1898.17
487.50	1968.39
487.68	1970.73
487.85	2031.58
488.03	1982.43
488.21	1987.11
488.39	1867.75
488.57	1872.43
488.75	1944.99
488.92	2298.41
489.10	2066.69
489.28	2127.55
489.46	2139.25
489.64	2115.84
489.81	2115.84
489.99	2190.74
490.17	2101.80
490.35	2270.32
490.53	2172.02
490.70	2125.21
490.88	2132.23
491.06	2193.08
491.24	2172.02
491.41	2160.31
491.59	1980.09
491.77	2101.80
491.95	2129.89
492.13	2221.17
492.30	2230.53
492.48	2305.43
492.66	2289.04
492.84	2279.68
493.01	2153.29
493.19	2153.29
493.37	2279.68
493.54	2188.40
493.72	2300.75
493.90	2354.58
494.08	2375.64
494.25	2352.24
494.43	2464.58
494.61	2352.24
494.79	2483.31
494.96	2429.48
495.14	2312.45
495.32	2317.13
495.49	2359.26
495.67	2363.94
495.85	2642.46
496.02	2495.01
496.20	2506.71
496.38	2511.39
496.55	2389.69
496.73	2413.09
496.91	2527.78
497.09	2565.23
497.26	2499.69
497.44	2462.24
497.62	2328.83
497.79	2373.30
497.97	2328.83
498.14	2352.24
498.32	2455.22
498.50	2424.80
498.67	2401.39
498.85	2366.28
499.03	2473.95
499.20	2532.46
499.38	2504.37
499.56	2396.71
499.73	2406.07
499.91	2459.90
500.08	2464.58
500.26	2359.26
500.44	2424.80
500.61	2377.98
500.79	2293.72
500.97	2356.92
501.14	2328.83
501.32	2282.02
501.49	2366.28
501.67	2312.45
501.84	2389.69
502.02	2319.47
502.20	2410.75
502.37	2485.65
502.55	2413.09
502.72	2410.75
502.90	2558.21
503.07	2389.69
503.25	2363.94
503.43	2277.34
503.60	2368.62
503.78	2246.91
503.95	2347.56
504.13	2438.84
504.30	2499.69
504.48	2490.33
504.65	2541.82
504.83	2527.78
505.01	2502.03
505.18	2471.61
505.36	2614.38
505.53	2569.91
505.71	2593.31
505.88	2565.23
506.06	2431.82
506.23	2546.50
506.41	2406.07
506.58	2581.61
506.76	2499.69
506.93	2523.10
507.11	2569.91
507.28	2520.76
507.46	2480.97
507.63	2429.48
507.81	2296.07
507.98	2452.88
508.16	2487.99
508.33	2640.12
508.50	2553.52
508.68	2590.97
508.85	2684.59
509.03	2616.72
509.20	2621.40
509.38	2469.27
509.55	2532.46
509.73	2644.81
509.90	2581.61
510.08	2567.57
510.25	2537.14
510.42	2581.61
510.60	2497.35
510.77	2527.78
510.95	2565.23
511.12	2640.12
511.30	2562.89
511.47	2691.62
511.64	2602.68
511.82	2670.55
511.99	2506.71
512.17	2466.92
512.34	2555.86
512.51	2607.36
512.69	2537.14
512.86	2649.49
513.04	2483.31
513.21	2565.23
513.38	2567.57
513.56	2420.11
513.73	2504.37
513.90	2445.86
514.08	2590.97
514.25	2600.34
514.43	2569.91
514.60	2476.29
514.77	2436.50
514.95	2499.69
515.12	2523.10
515.29	2635.44
515.47	2640.12
515.64	2630.76
515.81	2546.50
515.99	2509.05
516.16	2431.82
516.33	2101.80
516.51	2062.01
516.68	2076.06
516.85	2092.44
517.03	2129.89
517.20	2249.25
517.37	2576.93
517.54	2612.04
517.72	2417.77
517.89	2172.02
518.06	2207.13
518.24	2289.04
518.41	2408.41
518.58	2340.54
518.75	2427.14
518.93	2363.94
519.10	2492.67
519.27	2527.78
519.45	2518.42
519.62	2541.82
519.79	2539.48
519.96	2513.74
520.14	2562.89
520.31	2502.03
520.48	2366.28
520.65	2544.16
520.83	2672.89
521.00	2644.81
521.17	2623.74
521.34	2518.42
521.52	2520.76
521.69	2630.76
521.86	2633.10
522.03	2551.18
522.20	2539.48
522.38	2356.92
522.55	2504.37
522.72	2455.22
522.89	2466.92
523.07	2459.90
523.24	2520.76
523.41	2597.99
523.58	2579.27
523.75	2668.21
523.92	2600.34
524.10	2661.19
524.27	2562.89
524.44	2682.25
524.61	2635.44
524.78	2502.03
524.96	2677.57
525.13	2663.53
525.30	2576.93
525.47	2656.51
525.64	2581.61
525.81	2490.33
525.98	2373.30
526.16	2347.56
526.33	2338.20
526.50	2354.58
526.67	2310.11
526.84	2333.51
527.01	2370.96
527.18	2471.61
527.36	2574.59
527.53	2499.69
527.70	2590.97
527.87	2382.67
528.04	2600.34
528.21	2490.33
528.38	2621.40
528.55	2597.99
528.72	2759.49
528.89	2567.57
529.07	2640.12
529.24	2640.12
529.41	2518.42
529.58	2511.39
529.75	2569.91
529.92	2654.17
530.09	2644.81
530.26	2691.62
530.43	2644.81
530.60	2696.30
530.77	2605.02
530.94	2633.10
531.11	2609.70
531.28	2555.86
531.46	2555.86
531.63	2562.89
531.80	2581.61
531.97	2541.82
532.14	2265.64
532.31	2331.17
532.48	2314.79
532.65	2424.80
532.82	2417.77
532.99	2532.46
533.16	2415.43
533.33	2551.18
533.50	2558.21
533.67	2427.14
533.84	2368.62
534.01	2551.18
534.18	2509.05
534.35	2628.42
534.52	2530.12
534.69	2670.55
534.86	2558.21
535.03	2569.91
535.20	2661.19
535.37	2607.36
535.54	2630.76
535.71	2621.40
535.88	2616.72
536.05	2581.61
536.22	2511.39
536.38	2471.61
536.55	2487.99
536.72	2450.54
536.89	2464.58
537.06	2537.14
537.23	2595.65
537.40	2635.44
537.57	2511.39
537.74	2504.37
537.91	2448.20
538.08	2590.97
538.25	2558.21
538.42	2565.23
538.59	2595.65
538.75	2480.97
538.92	2572.25
539.09	2544.16
539.26	2361.60
539.43	2401.39
539.60	2497.35
539.77	2434.16
539.94	2464.58
540.11	2487.99
540.28	2363.94
540.44	2422.45
540.61	2368.62
540.78	2434.16
540.95	2523.10
541.12	2612.04
541.29	2623.74
541.46	2675.23
541.62	2626.08
541.79	2626.08
541.96	2502.03
542.13	2511.39
542.30	2635.44
542.47	2565.23
542.63	2637.78
542.80	2469.27
542.97	2490.33
543.14	2518.42
543.31	2511.39
543.48	2558.21
543.64	2626.08
543.81	2705.66
543.98	2621.40
544.15	2537.14
544.32	2455.22
544.48	2530.12
544.65	2583.95
544.82	2537.14
544.99	2518.42
545.16	2511.39
545.32	2637.78
545.49	2904.60
545.66	2972.48
545.83	2764.17
546.00	2597.99
546.16	2476.29
546.33	2476.29
546.50	2562.89
546.67	2560.55
546.83	2607.36
547.00	2361.60
547.17	2368.62
547.34	2284.36
547.50	2476.29
547.67	2476.29
547.84	2459.90
548.00	2424.80
548.17	2544.16
548.34	2436.50
548.51	2644.81
548.67	2562.89
548.84	2612.04
549.01	2579.27
549.18	2455.22
549.34	2518.42
549.51	2480.97
549.68	2443.52
549.84	2443.52
550.01	2413.09
550.18	2354.58
550.34	2511.39
550.51	2434.16
550.68	2387.35
550.84	2375.64
551.01	2361.60
551.18	2506.71
551.34	2583.95
551.51	2429.48
551.68	2459.90
551.84	2389.69
552.01	2335.85
552.18	2415.43
552.34	2326.49
552.51	2363.94
552.68	2356.92
552.84	2368.62
553.01	2394.37
553.18	2373.30
553.34	2497.35
553.51	2445.86
553.67	2525.44
553.84	2380.32
554.01	2429.48
554.17	2366.28
554.34	2377.98
554.51	2394.37
554.67	2476.29
554.84	2495.01
555.00	2502.03
555.17	2345.22
555.33	2413.09
555.50	2366.28
555.67	2445.86
555.83	2279.68
556.00	2363.94
556.16	2473.95
556.33	2317.13
556.50	2291.38
556.66	2253.94
556.83	2349.90
556.99	2209.47
557.16	2298.41
557.32	2305.43
557.49	2275.00
557.65	2354.58
557.82	2305.43
557.98	2312.45
558.15	2223.51
558.32	2115.84
558.48	2204.78
558.65	2146.27
558.81	2111.16
558.98	2214.15
559.14	2293.72
559.31	2256.28
559.47	2368.62
559.64	2160.31
559.80	2211.81
559.97	2183.72
560.13	2242.23
560.30	2289.04
560.46	2282.02
560.63	2289.04
560.79	2321.81
560.96	2258.62
561.12	2246.91
561.29	2200.10
561.45	2111.16
561.61	2286.70
561.78	2242.23
561.94	2179.04
562.11	2256.28
562.27	2146.27
562.44	2136.91
562.60	2157.97
562.77	2368.62
562.93	2345.22
563.10	2359.26
563.26	2209.47
563.42	2153.29
563.59	2113.50
563.75	2111.16
563.92	2122.87
564.08	2129.89
564.24	2188.40
564.41	2190.74
564.57	2167.34
564.74	2179.04
564.90	2197.76
565.07	2139.25
565.23	2090.10
565.39	1970.73
565.56	2085.42
565.72	2059.67
565.88	2129.89
566.05	2188.40
566.21	2076.06
566.38	2165.00
566.54	2073.71
566.70	2146.27
566.87	2148.61
567.03	2139.25
567.19	2083.08
567.36	2176.70
567.52	2143.93
567.68	2069.03
567.85	2003.50
568.01	2005.84
568.17	2066.69
568.34	1961.37
568.50	1998.82
568.66	2031.58
568.83	2022.22
568.99	2019.88
569.15	2153.29
569.32	1956.69
569.48	1947.33
569.64	1909.88
569.81	1968.39
569.97	2022.22
570.13	1916.90
570.30	1914.56
570.46	1898.17
570.62	1912.22
570.78	1959.03
570.95	1937.96
571.11	2036.27
571.27	1989.46
571.43	1928.60
571.60	2146.27
571.76	1937.96
571.92	2005.84
572.09	1884.13
572.25	1944.99
572.41	1984.77
572.57	2015.20
572.74	1998.82
572.90	2015.20
573.06	1956.69
573.22	1935.62
573.38	1949.67
573.55	2026.90
573.71	2076.06
573.87	1921.58
574.03	1853.70
574.20	1959.03
574.36	1954.35
574.52	1914.56
574.68	1860.73
574.84	1851.36
575.01	1909.88
575.17	1952.01
575.33	1902.86
575.49	1930.94
575.65	2015.20
575.82	1952.01
575.98	1921.58
576.14	1921.58
576.30	1991.80
576.46	1961.37
576.62	1956.69
576.79	1968.39
576.95	1851.36
577.11	1893.49
577.27	1898.17
577.43	1994.14
577.59	1907.54
577.75	1834.98
577.92	1849.02
578.08	1858.39
578.24	1907.54
578.40	1952.01
578.56	2022.22
578.72	1921.58
578.88	1949.67
579.04	2005.84
579.21	1827.96
579.37	1914.56
579.53	1933.28
579.69	2008.18
579.85	1799.87
580.01	1961.37
580.17	1905.20
580.33	1928.60
580.49	1926.26
580.65	1966.05
580.82	1912.22
580.98	1853.70
581.14	1849.02
581.30	2038.61
581.46	1937.96
581.62	1996.48
581.78	2094.78
581.94	1998.82
582.10	1907.54
582.26	2026.90
582.42	1994.14
582.58	1937.96
582.74	2010.52
582.90	1944.99
583.06	1858.39
583.22	2005.84
583.38	1923.92
583.54	1994.14
583.70	1998.82
583.86	1937.96
584.02	2008.18
584.18	1961.37
584.34	1928.60
584.50	1926.26
584.66	1907.54
584.82	1823.28
584.98	1919.24
585.14	1884.13
585.30	1802.21
585.46	1834.98
585.62	1792.85
585.78	1884.13
585.94	1919.24
586.10	1884.13
586.26	1982.43
586.42	1865.41
586.58	1914.56
586.74	1921.58
586.90	1935.62
587.06	1930.94
587.22	1837.32
587.38	1870.09
587.54	1867.75
587.70	1755.40
587.86	1668.80
588.02	1652.42
588.18	1626.67
588.34	1675.82
588.49	1413.68
588.65	1437.09
588.81	1427.73
588.97	1544.75
589.13	1500.28
589.29	1502.62
589.45	1621.99
589.61	1591.56
589.77	1689.87
589.93	1650.08
590.08	1753.06
590.24	1710.93
590.40	1706.25
590.56	1685.19
590.72	1757.74
590.88	1654.76
591.04	1624.33
591.20	1626.67
591.35	1607.95
591.51	1643.06
591.67	1722.63
591.83	1685.19
591.99	1537.73
592.15	1743.70
592.31	1785.83
592.46	1685.19
592.62	1724.97
592.78	1713.27
592.94	1640.72
593.10	1689.87
593.26	1680.50
593.41	1640.72
593.57	1621.99
593.73	1535.39
593.89	1537.73
594.05	1619.65
594.20	1526.03
594.36	1720.29
594.52	1547.09
594.68	1643.06
594.84	1629.01
594.99	1781.15
595.15	1673.48
595.31	1661.78
595.47	1678.16
595.62	1659.44
595.78	1722.63
595.94	1715.61
596.10	1689.87
596.25	1584.54
596.41	1743.70
596.57	1675.82
596.73	1678.16
596.88	1584.54
597.04	1659.44
597.20	1575.18
597.36	1568.16
597.51	1596.25
597.67	1680.50
597.83	1654.76
597.99	1732.00
598.14	1614.97
598.30	1755.40
598.46	1640.72
598.61	1692.21
598.77	1659.44
598.93	1673.48
599.09	1720.29
599.24	1636.03
599.40	1626.67
599.56	1764.76
