SpectraSuite Data File
++++++++++++++++++++++++++++++++++++
Date: Mon Sep 30 18:11:51 GMT-05:00 2013
User: stostad
Dark Spectrum Present: No
Reference Spectrum Present: No
Number of Sampled Component Spectra: 1
Spectrometers: USB2+H05261
Integration Time (usec): 100000 (USB2+H05261)
Spectra Averaged: 1 (USB2+H05261)
Boxcar Smoothing: 0 (USB2+H05261)
Correct for Electrical Dark: No (USB2+H05261)
Strobe/Lamp Enabled: No (USB2+H05261)
Correct for Detector Non-linearity: No (USB2+H05261)
Correct for Stray Light: No (USB2+H05261)
Number of Pixels in Processed Spectrum: 2048
>>>>>Begin Processed Spectral Data<<<<<
365.73	86.60
365.92	86.60
366.12	86.60
366.32	28.09
366.52	58.51
366.72	60.85
366.91	0.00
367.11	121.71
367.31	21.06
367.51	79.58
367.70	11.70
367.90	32.77
368.10	44.47
368.30	0.00
368.49	0.00
368.69	102.98
368.89	0.00
369.09	0.00
369.28	28.09
369.48	0.00
369.68	21.06
369.87	74.90
370.07	7.02
370.27	91.28
370.47	161.50
370.66	255.12
370.86	306.61
371.06	294.91
371.25	411.93
371.45	196.60
371.65	353.42
371.84	330.02
372.04	365.12
372.24	252.78
372.44	409.59
372.63	351.08
372.83	409.59
373.03	327.68
373.22	348.74
373.42	299.59
373.62	325.33
373.81	400.23
374.01	440.02
374.21	304.27
374.40	341.72
374.60	421.30
374.79	440.02
374.99	409.59
375.19	390.87
375.38	407.25
375.58	435.34
375.78	425.98
375.97	451.72
376.17	414.27
376.37	404.91
376.56	447.04
376.76	440.02
376.95	409.59
377.15	482.15
377.35	510.24
377.54	578.11
377.74	505.56
377.93	517.26
378.13	524.28
378.33	479.81
378.52	376.83
378.72	451.72
378.91	425.98
379.11	425.98
379.31	449.38
379.50	414.27
379.70	491.51
379.89	484.49
380.09	463.43
380.28	503.22
380.48	491.51
380.68	456.40
380.87	414.27
381.07	414.27
381.26	423.64
381.46	369.80
381.65	444.70
381.85	374.49
382.04	437.68
382.24	393.21
382.43	362.78
382.63	313.63
382.83	351.08
383.02	451.72
383.22	397.89
383.41	381.51
383.61	362.78
383.80	465.77
384.00	402.57
384.19	491.51
384.39	465.77
384.58	482.15
384.78	472.79
384.97	510.24
385.17	472.79
385.36	456.40
385.56	447.04
385.75	416.62
385.95	550.03
386.14	512.58
386.34	440.02
386.53	465.77
386.72	482.15
386.92	571.09
387.11	521.94
387.31	559.39
387.50	465.77
387.70	493.85
387.89	470.45
388.09	517.26
388.28	461.09
388.48	496.19
388.67	543.00
388.86	589.82
389.06	503.22
389.25	538.32
389.45	603.86
389.64	550.03
389.84	535.98
390.03	547.69
390.22	540.66
390.42	561.73
390.61	589.82
390.81	620.24
391.00	638.97
391.19	603.86
391.39	648.33
391.58	566.41
391.78	585.13
391.97	573.43
392.16	517.26
392.36	599.18
392.55	507.90
392.75	407.25
392.94	379.17
393.13	374.49
393.33	444.70
393.52	430.66
393.71	500.87
393.91	610.88
394.10	550.03
394.29	587.47
394.49	603.86
394.68	643.65
394.88	716.20
395.07	685.78
395.26	662.37
395.46	627.26
395.65	601.52
395.84	496.19
396.04	475.13
396.23	456.40
396.42	386.19
396.62	454.06
396.81	486.83
397.00	545.34
397.19	624.92
397.39	653.01
397.58	739.61
397.77	678.76
397.97	753.65
398.16	837.91
398.35	772.38
398.55	772.38
398.74	847.27
398.93	894.08
399.12	826.21
399.32	828.55
399.51	901.11
399.70	866.00
399.90	896.43
400.09	830.89
400.28	903.45
400.47	924.51
400.67	915.15
400.86	866.00
401.05	905.79
401.24	943.24
401.44	903.45
401.63	919.83
401.82	971.32
402.01	1025.15
402.21	919.83
402.40	968.98
402.59	952.60
402.78	931.53
402.97	880.04
403.17	971.32
403.36	964.30
403.55	938.55
403.74	891.74
403.93	866.00
404.13	828.55
404.32	858.98
404.51	929.19
404.70	908.13
404.89	959.62
405.09	987.71
405.28	880.04
405.47	994.73
405.66	884.72
405.85	908.13
406.05	816.85
406.24	840.25
406.43	950.26
406.62	856.64
406.81	976.00
407.00	863.66
407.20	922.17
407.39	884.72
407.58	978.34
407.77	947.92
407.96	1034.52
408.15	940.90
408.34	950.26
408.54	1128.14
408.73	1062.60
408.92	964.30
409.11	1015.79
409.30	917.49
409.49	954.94
409.68	884.72
409.87	875.36
410.07	1022.81
410.26	1006.43
410.45	966.64
410.64	1015.79
410.83	1107.07
411.02	1125.80
411.21	1114.10
411.40	1015.79
411.59	1210.06
411.78	1104.73
411.98	1027.50
412.17	999.41
412.36	1050.90
412.55	1053.24
412.74	1015.79
412.93	1081.33
413.12	1121.12
413.31	1123.46
413.50	1181.97
413.69	1114.10
413.88	1139.84
414.07	1057.92
414.26	1228.78
414.45	1081.33
414.64	1172.61
414.83	1111.75
415.02	1107.07
415.22	1121.12
415.41	1160.91
415.60	1172.61
415.79	1266.23
415.98	1268.57
416.17	1247.51
416.36	1135.16
416.55	1177.29
416.74	1128.14
416.93	1097.71
417.12	1132.82
417.31	1139.84
417.50	1146.86
417.69	1184.31
417.88	1104.73
418.07	1198.35
418.26	1149.20
418.45	1139.84
418.64	1240.48
418.83	1149.20
419.02	1132.82
419.21	1184.31
419.39	1116.44
419.58	1114.10
419.77	1018.13
419.96	1123.46
420.15	1287.29
420.34	1261.55
420.53	1252.19
420.72	1242.82
420.91	1294.32
421.10	1275.59
421.29	1135.16
421.48	1170.27
421.67	1291.98
421.86	1109.41
422.05	1078.99
422.24	1057.92
422.43	1160.91
422.61	1228.78
422.80	1240.48
422.99	1261.55
423.18	1111.75
423.37	1165.59
423.56	1146.86
423.75	1217.08
423.94	1210.06
424.13	1121.12
424.32	1090.69
424.50	1142.18
424.69	1135.16
424.88	1149.20
425.07	1198.35
425.26	1177.29
425.45	1144.52
425.64	1018.13
425.83	1137.50
426.01	1247.51
426.20	1277.93
426.39	1210.06
426.58	1130.48
426.77	1018.13
426.96	971.32
427.15	1158.57
427.33	1191.33
427.52	1210.06
427.71	1149.20
427.90	1095.37
428.09	1067.28
428.28	1121.12
428.46	1109.41
428.65	999.41
428.84	1158.57
429.03	1074.31
429.22	1053.24
429.40	1043.88
429.59	903.45
429.78	912.81
429.97	835.57
430.16	835.57
430.34	919.83
430.53	901.11
430.72	880.04
430.91	1013.45
431.10	1233.46
431.28	1320.06
431.47	1350.49
431.66	1315.38
431.85	1029.84
432.03	1158.57
432.22	1184.31
432.41	1231.12
432.60	1336.45
432.79	1184.31
432.97	1359.85
433.16	1345.81
433.35	1191.33
433.54	1057.92
433.72	978.34
433.91	1184.31
434.10	1219.42
434.28	1210.06
434.47	1275.59
434.66	1343.47
434.85	1343.47
435.03	1376.24
435.22	1458.15
435.41	1526.03
435.59	1383.26
435.78	1378.58
435.97	1390.28
436.16	1350.49
436.34	1310.70
436.53	1301.34
436.72	1364.53
436.90	1214.74
437.09	1308.36
437.28	1338.79
437.46	1289.64
437.65	1284.95
437.84	1198.35
438.02	1090.69
438.21	1170.27
438.40	1224.10
438.58	1345.81
438.77	1348.15
438.96	1385.60
439.14	1371.55
439.33	1390.28
439.52	1338.79
439.70	1287.29
439.89	1327.08
440.08	1299.00
440.26	1263.89
440.45	1387.94
440.63	1411.34
440.82	1493.26
441.01	1446.45
441.19	1439.43
441.38	1392.62
441.57	1495.60
441.75	1481.56
441.94	1526.03
442.12	1486.24
442.31	1544.75
442.50	1554.12
442.68	1533.05
442.87	1509.65
443.05	1526.03
443.24	1502.62
443.43	1657.10
443.61	1528.37
443.80	1600.93
443.98	1500.28
444.17	1511.99
444.35	1523.69
444.54	1591.56
444.73	1476.88
444.91	1476.88
445.10	1362.19
445.28	1329.42
445.47	1441.77
445.65	1502.62
445.84	1465.18
446.02	1570.50
446.21	1535.39
446.39	1425.39
446.58	1591.56
446.77	1589.22
446.95	1455.81
447.14	1645.40
447.32	1640.72
447.51	1528.37
447.69	1570.50
447.88	1472.20
448.06	1617.31
448.25	1558.80
448.43	1558.80
448.62	1521.35
448.80	1579.86
448.99	1607.95
449.17	1563.48
449.36	1603.27
449.54	1647.74
449.73	1633.69
449.91	1631.35
450.10	1645.40
450.28	1769.44
450.46	1671.14
450.65	1727.32
450.83	1659.44
451.02	1526.03
451.20	1530.71
451.39	1647.74
451.57	1657.10
451.76	1605.61
451.94	1631.35
452.13	1558.80
452.31	1593.90
452.49	1523.69
452.68	1514.33
452.86	1535.39
453.05	1645.40
453.23	1621.99
453.42	1542.41
453.60	1680.50
453.78	1551.78
453.97	1631.35
454.15	1614.97
454.34	1526.03
454.52	1624.33
454.70	1629.01
454.89	1603.27
455.07	1629.01
455.26	1675.82
455.44	1732.00
455.62	1748.38
455.81	1631.35
455.99	1638.38
456.17	1549.43
456.36	1708.59
456.54	1694.55
456.73	1771.79
456.91	1689.87
457.09	1654.76
457.28	1762.42
457.46	1570.50
457.64	1582.20
457.83	1689.87
458.01	1614.97
458.19	1598.59
458.38	1678.16
458.56	1703.91
458.74	1624.33
458.93	1675.82
459.11	1717.95
459.29	1565.82
459.48	1659.44
459.66	1724.97
459.84	1727.32
460.03	1783.49
460.21	1771.79
460.39	1724.97
460.57	1771.79
460.76	1673.48
460.94	1692.21
461.12	1715.61
461.31	1732.00
461.49	1743.70
461.67	1736.68
461.85	1778.81
462.04	1717.95
462.22	1975.41
462.40	1645.40
462.59	1781.15
462.77	1720.29
462.95	1720.29
463.13	1741.36
463.32	1696.89
463.50	1593.90
463.68	1699.23
463.86	1806.89
464.05	1708.59
464.23	1661.78
464.41	1671.14
464.59	1671.14
464.78	1764.76
464.96	1706.25
465.14	1661.78
465.32	1678.16
465.50	1898.17
465.69	1827.96
465.87	1771.79
466.05	1626.67
466.23	1659.44
466.41	1659.44
466.60	1687.53
466.78	1603.27
466.96	1645.40
467.14	1734.34
467.32	1673.48
467.51	1720.29
467.69	1687.53
467.87	1783.49
468.05	1671.14
468.23	1614.97
468.41	1729.66
468.60	1666.46
468.78	1771.79
468.96	1668.80
469.14	1629.01
469.32	1781.15
469.50	1561.14
469.69	1692.21
469.87	1551.78
470.05	1657.10
470.23	1659.44
470.41	1671.14
470.59	1694.55
470.77	1708.59
470.95	1626.67
471.14	1750.72
471.32	1839.66
471.50	1783.49
471.68	1816.26
471.86	1813.92
472.04	1788.17
472.22	1816.26
472.40	1757.74
472.58	1631.35
472.77	1715.61
472.95	1724.97
473.13	1792.85
473.31	1832.64
473.49	1832.64
473.67	1799.87
473.85	1905.20
474.03	1961.37
474.21	1867.75
474.39	1942.64
474.57	1870.09
474.75	1837.32
474.93	1830.30
475.12	1795.19
475.30	1710.93
475.48	1778.81
475.66	1888.81
475.84	1762.42
476.02	1806.89
476.20	1687.53
476.38	1811.57
476.56	2024.56
476.74	1921.58
476.92	1954.35
477.10	1956.69
477.28	1952.01
477.46	2057.33
477.64	2029.24
477.82	1928.60
478.00	1930.94
478.18	1923.92
478.36	1998.82
478.54	1933.28
478.72	2043.29
478.90	2064.35
479.08	2078.40
479.26	2045.63
479.44	2024.56
479.62	1928.60
479.80	2143.93
479.98	2129.89
480.16	2047.97
480.34	2225.85
480.52	2008.18
480.70	2153.29
480.88	2118.18
481.06	2181.38
481.24	2174.36
481.41	2125.21
481.59	2242.23
481.77	2188.40
481.95	2172.02
482.13	2225.85
482.31	2153.29
482.49	2244.57
482.67	2207.13
482.85	2204.78
483.03	2354.58
483.21	2277.34
483.39	2260.96
483.57	2204.78
483.74	2200.10
483.92	2223.51
484.10	2279.68
484.28	2466.92
484.46	2352.24
484.64	2359.26
484.82	2263.30
485.00	2251.60
485.18	2143.93
485.35	2132.23
485.53	1830.30
485.71	1736.68
485.89	1774.13
486.07	2118.18
486.25	2310.11
486.43	2401.39
486.61	2179.04
486.78	2279.68
486.96	2204.78
487.14	2434.16
487.32	2403.73
487.50	2352.24
487.68	2523.10
487.85	2586.29
488.03	2370.96
488.21	2450.54
488.39	2422.45
488.57	2361.60
488.75	2300.75
488.92	2789.92
489.10	2597.99
489.28	2761.83
489.46	2761.83
489.64	2729.06
489.81	2621.40
489.99	2661.19
490.17	2689.28
490.35	2729.06
490.53	2677.57
490.70	2693.96
490.88	2722.04
491.06	2677.57
491.24	2764.17
491.41	2534.80
491.59	2579.27
491.77	2576.93
491.95	2443.52
492.13	2614.38
492.30	2719.70
492.48	2724.38
492.66	2904.60
492.84	2843.75
493.01	2799.28
493.19	2729.06
493.37	2771.19
493.54	2736.09
493.72	2808.64
493.90	2764.17
494.08	2913.97
494.25	3052.06
494.43	2829.71
494.61	2998.23
494.79	3028.65
494.96	2932.69
495.14	2881.20
495.32	2785.24
495.49	2825.03
495.67	3009.93
495.85	2984.18
496.02	3049.72
496.20	2946.73
496.38	3026.31
496.55	2953.76
496.73	2970.14
496.91	3091.85
497.09	3061.42
497.26	3087.17
497.44	3082.49
497.62	2895.24
497.79	2918.65
497.97	2766.51
498.14	2897.58
498.32	2951.42
498.50	3014.61
498.67	3169.09
498.85	3021.63
499.03	3122.27
499.20	3105.89
499.38	3089.51
499.56	3059.08
499.73	2923.33
499.91	2850.77
500.08	2885.88
500.26	2895.24
500.44	2995.89
500.61	2963.12
500.79	2820.35
500.97	2841.41
501.14	2832.05
501.32	2930.35
501.49	2942.05
501.67	2970.14
501.84	2995.89
502.02	2993.55
502.20	2986.52
502.37	3019.29
502.55	2979.50
502.72	3098.87
502.90	3190.15
503.07	2956.10
503.25	3049.72
503.43	2808.64
503.60	2761.83
503.78	2794.60
503.95	2829.71
504.13	2953.76
504.30	3087.17
504.48	3211.22
504.65	3042.70
504.83	3091.85
505.01	3166.74
505.18	3171.43
505.36	3000.57
505.53	3297.81
505.71	3150.36
505.88	3096.53
506.06	3129.30
506.23	3110.57
506.41	2986.52
506.58	3028.65
506.76	2981.84
506.93	3070.78
507.11	3045.04
507.28	3122.27
507.46	3073.12
507.63	2930.35
507.81	3014.61
507.98	2888.22
508.16	3201.85
508.33	3098.87
508.50	3206.53
508.68	3183.13
508.85	3096.53
509.03	3204.19
509.20	3171.43
509.38	2986.52
509.55	3141.00
509.73	3038.02
509.90	3187.81
510.08	3197.17
510.25	3059.08
510.42	3047.38
510.60	3089.51
510.77	3274.41
510.95	3337.60
511.12	3171.43
511.30	3412.50
511.47	3368.03
511.64	3314.20
511.82	3173.77
511.99	3103.55
512.17	3054.40
512.34	3112.91
512.51	3136.32
512.69	3110.57
512.86	3169.09
513.04	3297.81
513.21	3124.62
513.38	3169.09
513.56	2902.26
513.73	3110.57
513.90	3056.74
514.08	3126.96
514.25	2970.14
514.43	3218.24
514.60	2977.16
514.77	3236.96
514.95	3023.97
515.12	3000.57
515.29	3173.77
515.47	3375.05
515.64	3339.94
515.81	3159.72
515.99	3035.67
516.16	3023.97
516.33	2686.94
516.51	2471.61
516.68	2520.76
516.85	2583.95
517.03	2698.64
517.20	2918.65
517.37	3059.08
517.54	3243.98
517.72	2930.35
517.89	2654.17
518.06	2600.34
518.24	2796.94
518.41	2923.33
518.58	3150.36
518.75	2939.71
518.93	3035.67
519.10	3038.02
519.27	3119.93
519.45	3232.28
519.62	3215.90
519.79	3304.84
519.96	3087.17
520.14	3148.02
520.31	2986.52
520.48	3033.33
520.65	3080.14
520.83	3260.37
521.00	3356.33
521.17	3206.53
521.34	2995.89
521.52	3283.77
521.69	3279.09
521.86	3365.69
522.03	3286.11
522.20	3082.49
522.38	2963.12
522.55	2965.46
522.72	2963.12
522.89	3075.46
523.07	3115.25
523.24	3169.09
523.41	3307.18
523.58	3304.84
523.75	3260.37
523.92	3288.45
524.10	3323.56
524.27	3323.56
524.44	3241.64
524.61	3286.11
524.78	3124.62
524.96	3208.87
525.13	3075.46
525.30	3253.34
525.47	3279.09
525.64	3239.30
525.81	3101.21
525.98	2946.73
526.16	2729.06
526.33	2555.86
526.50	2754.81
526.67	2612.04
526.84	2810.98
527.01	2899.92
527.18	3026.31
527.36	3169.09
527.53	3162.06
527.70	3274.41
527.87	3138.66
528.04	3075.46
528.21	3194.83
528.38	3307.18
528.55	3213.56
528.72	3267.39
528.89	3426.54
529.07	3136.32
529.24	3082.49
529.41	3133.98
529.58	2963.12
529.75	3110.57
529.92	3150.36
530.09	3171.43
530.26	3274.41
530.43	3227.60
530.60	3262.71
530.77	3379.73
530.94	3353.99
531.11	3098.87
531.28	3248.66
531.46	3145.68
531.63	3136.32
531.80	3133.98
531.97	3152.70
532.14	3045.04
532.31	2864.82
532.48	2822.69
532.65	2967.80
532.82	3000.57
532.99	3056.74
533.16	3281.43
533.33	3098.87
533.50	3199.51
533.67	3068.44
533.84	3087.17
534.01	3061.42
534.18	3255.69
534.35	3162.06
534.52	3087.17
534.69	3152.70
534.86	3213.56
535.03	3213.56
535.20	3215.90
535.37	3300.16
535.54	3358.67
535.71	3384.41
535.88	3405.48
536.05	3190.15
536.22	3133.98
536.38	3042.70
536.55	3000.57
536.72	2935.03
536.89	3012.27
537.06	3042.70
537.23	3218.24
537.40	3258.03
537.57	3101.21
537.74	3133.98
537.91	3115.25
538.08	3077.80
538.25	3143.34
538.42	3159.72
538.59	3089.51
538.75	2960.78
538.92	3150.36
539.09	3068.44
539.26	3047.38
539.43	3194.83
539.60	2981.84
539.77	3000.57
539.94	2977.16
540.11	3038.02
540.28	2953.76
540.44	3009.93
540.61	2981.84
540.78	3103.55
540.95	3077.80
541.12	3143.34
541.29	3213.56
541.46	3183.13
541.62	3150.36
541.79	3126.96
541.96	3094.19
542.13	2991.20
542.30	3108.23
542.47	3164.40
542.63	3103.55
542.80	3045.04
542.97	3023.97
543.14	3148.02
543.31	3192.49
543.48	3056.74
543.64	3213.56
543.81	3180.79
543.98	3220.58
544.15	3162.06
544.32	3077.80
544.48	2963.12
544.65	3227.60
544.82	3157.38
544.99	3098.87
545.16	3157.38
545.32	3311.86
545.49	3351.65
545.66	3440.59
545.83	3283.77
546.00	3164.40
546.16	3035.67
546.33	3131.64
546.50	3049.72
546.67	3218.24
546.83	3129.30
547.00	2977.16
547.17	3012.27
547.34	2902.26
547.50	2888.22
547.67	2881.20
547.84	2949.08
548.00	2960.78
548.17	3016.95
548.34	3016.95
548.51	3126.96
548.67	3038.02
548.84	2946.73
549.01	2944.39
549.18	2963.12
549.34	3042.70
549.51	3047.38
549.68	3077.80
549.84	3014.61
550.01	3012.27
550.18	2965.46
550.34	2958.44
550.51	3068.44
550.68	3033.33
550.84	2895.24
551.01	2991.20
551.18	2939.71
551.34	2869.50
551.51	3061.42
551.68	3038.02
551.84	2995.89
552.01	2953.76
552.18	2895.24
552.34	2839.07
552.51	2944.39
552.68	2970.14
552.84	2946.73
553.01	2766.51
553.18	2871.84
553.34	2902.26
553.51	2993.55
553.67	3103.55
553.84	2967.80
554.01	2909.29
554.17	2925.67
554.34	3002.91
554.51	3061.42
554.67	2977.16
554.84	2913.97
555.00	3000.57
555.17	2972.48
555.33	2958.44
555.50	2935.03
555.67	2899.92
555.83	2960.78
556.00	2855.45
556.16	2998.23
556.33	2794.60
556.50	2750.13
556.66	2822.69
556.83	2778.22
556.99	2764.17
557.16	2808.64
557.32	2815.66
557.49	2904.60
557.65	2951.42
557.82	2832.05
557.98	2766.51
558.15	2736.09
558.32	2649.49
558.48	2623.74
558.65	2715.02
558.81	2691.62
558.98	2572.25
559.14	2719.70
559.31	2726.72
559.47	2827.37
559.64	2731.41
559.80	2759.49
559.97	2684.59
560.13	2771.19
560.30	2768.85
560.46	2881.20
560.63	2808.64
560.79	2785.24
560.96	2794.60
561.12	2551.18
561.29	2623.74
561.45	2764.17
561.61	2747.79
561.78	2726.72
561.94	2626.08
562.11	2520.76
562.27	2633.10
562.44	2722.04
562.60	2810.98
562.77	2785.24
562.93	2771.19
563.10	2848.43
563.26	2661.19
563.42	2745.45
563.59	2558.21
563.75	2612.04
563.92	2651.83
564.08	2703.32
564.24	2656.51
564.41	2705.66
564.57	2696.30
564.74	2548.84
564.90	2736.09
565.07	2614.38
565.23	2621.40
565.39	2455.22
565.56	2422.45
565.72	2586.29
565.88	2586.29
566.05	2600.34
566.21	2679.91
566.38	2665.87
566.54	2726.72
566.70	2516.08
566.87	2553.52
567.03	2583.95
567.19	2672.89
567.36	2661.19
567.52	2579.27
567.68	2492.67
567.85	2445.86
568.01	2469.27
568.17	2373.30
568.34	2562.89
568.50	2455.22
568.66	2422.45
568.83	2544.16
568.99	2525.44
569.15	2534.80
569.32	2497.35
569.48	2392.03
569.64	2495.01
569.81	2361.60
569.97	2413.09
570.13	2480.97
570.30	2354.58
570.46	2253.94
570.62	2209.47
570.78	2200.10
570.95	2424.80
571.11	2506.71
571.27	2469.27
571.43	2415.43
571.60	2431.82
571.76	2424.80
571.92	2389.69
572.09	2427.14
572.25	2392.03
572.41	2487.99
572.57	2422.45
572.74	2408.41
572.90	2466.92
573.06	2361.60
573.22	2523.10
573.38	2457.56
573.55	2356.92
573.71	2417.77
573.87	2464.58
574.03	2352.24
574.20	2310.11
574.36	2375.64
574.52	2340.54
574.68	2300.75
574.84	2338.20
575.01	2331.17
575.17	2319.47
575.33	2434.16
575.49	2279.68
575.65	2399.05
575.82	2244.57
575.98	2314.79
576.14	2340.54
576.30	2438.84
576.46	2406.07
576.62	2410.75
576.79	2291.38
576.95	2265.64
577.11	2321.81
577.27	2342.88
577.43	2256.28
577.59	2235.21
577.75	2251.60
577.92	2249.25
578.08	2326.49
578.24	2363.94
578.40	2424.80
578.56	2438.84
578.72	2284.36
578.88	2267.98
579.04	2317.13
579.21	2373.30
579.37	2223.51
579.53	2410.75
579.69	2251.60
579.85	2394.37
580.01	2312.45
580.17	2452.88
580.33	2347.56
580.49	2392.03
580.65	2363.94
580.82	2347.56
580.98	2293.72
581.14	2403.73
581.30	2277.34
581.46	2373.30
581.62	2394.37
581.78	2513.74
581.94	2427.14
582.10	2399.05
582.26	2406.07
582.42	2434.16
582.58	2462.24
582.74	2394.37
582.90	2377.98
583.06	2396.71
583.22	2303.09
583.38	2394.37
583.54	2260.96
583.70	2427.14
583.86	2375.64
584.02	2375.64
584.18	2375.64
584.34	2333.51
584.50	2495.01
584.66	2377.98
584.82	2275.00
584.98	2286.70
585.14	2296.07
585.30	2424.80
585.46	2253.94
585.62	2211.81
585.78	2286.70
585.94	2356.92
586.10	2286.70
586.26	2347.56
586.42	2347.56
586.58	2305.43
586.74	2235.21
586.90	2267.98
587.06	2267.98
587.22	2265.64
587.38	2286.70
587.54	2129.89
587.70	2239.89
587.86	2113.50
588.02	2052.65
588.18	2012.86
588.34	2036.27
588.49	1795.19
588.65	1781.15
588.81	1764.76
588.97	1891.15
589.13	1844.34
589.29	1839.66
589.45	1944.99
589.61	1956.69
589.77	2026.90
589.93	1984.77
590.08	2024.56
590.24	2008.18
590.40	2141.59
590.56	2003.50
590.72	2008.18
590.88	2076.06
591.04	2092.44
591.20	1961.37
591.35	2062.01
591.51	2134.57
591.67	1942.64
591.83	2001.16
591.99	2069.03
592.15	2045.63
592.31	2136.91
592.46	2076.06
592.62	2012.86
592.78	2080.74
592.94	2101.80
593.10	2167.34
593.26	2069.03
593.41	2113.50
593.57	1984.77
593.73	1956.69
593.89	1884.13
594.05	1926.26
594.20	1863.07
594.36	1865.41
594.52	1916.90
594.68	2019.88
594.84	2017.54
594.99	2104.14
595.15	2022.22
595.31	1973.07
595.47	2097.12
595.62	2036.27
595.78	2125.21
595.94	2127.55
596.10	1994.14
596.25	1991.80
596.41	2092.44
596.57	2085.42
596.73	2003.50
596.88	2043.29
597.04	1954.35
597.20	2033.93
597.36	1984.77
597.51	1975.41
597.67	1872.43
597.83	2059.67
597.99	1994.14
598.14	2010.52
598.30	2092.44
598.46	2057.33
