SpectraSuite Data File
++++++++++++++++++++++++++++++++++++
Date: Mon Sep 30 18:11:52 GMT-05:00 2013
User: stostad
Dark Spectrum Present: No
Reference Spectrum Present: No
Number of Sampled Component Spectra: 1
Spectrometers: USB2+H05261
Integration Time (usec): 100000 (USB2+H05261)
Spectra Averaged: 1 (USB2+H05261)
Boxcar Smoothing: 0 (USB2+H05261)
Correct for Electrical Dark: No (USB2+H05261)
Strobe/Lamp Enabled: No (USB2+H05261)
Correct for Detector Non-linearity: No (USB2+H05261)
Correct for Stray Light: No (USB2+H05261)
Number of Pixels in Processed Spectrum: 2048
>>>>>Begin Processed Spectral Data<<<<<
365.73	126.39
365.92	126.39
366.12	126.39
366.32	18.72
366.52	46.81
366.72	70.22
366.91	28.09
367.11	11.70
367.31	0.00
367.51	65.54
367.70	21.06
367.90	70.22
368.10	18.72
368.30	23.41
368.49	0.00
368.69	25.75
368.89	0.00
369.09	0.00
369.28	9.36
369.48	65.54
369.68	23.41
369.87	72.56
370.07	142.77
370.27	67.88
370.47	175.54
370.66	287.89
370.86	315.97
371.06	332.36
371.25	348.74
371.45	334.70
371.65	330.02
371.84	313.63
372.04	318.31
372.24	299.59
372.44	367.46
372.63	395.55
372.83	369.80
373.03	243.42
373.22	299.59
373.42	341.72
373.62	369.80
373.81	386.19
374.01	358.10
374.21	318.31
374.40	372.15
374.60	409.59
374.79	304.27
374.99	416.62
375.19	456.40
375.38	451.72
375.58	418.96
375.78	376.83
375.97	390.87
376.17	437.68
376.37	428.32
376.56	395.55
376.76	374.49
376.95	395.55
377.15	512.58
377.35	519.60
377.54	528.96
377.74	479.81
377.93	379.17
378.13	454.06
378.33	519.60
378.52	435.34
378.72	498.53
378.91	451.72
379.11	475.13
379.31	341.72
379.50	416.62
379.70	428.32
379.89	428.32
380.09	470.45
380.28	416.62
380.48	458.74
380.68	447.04
380.87	449.38
381.07	425.98
381.26	433.00
381.46	397.89
381.65	374.49
381.85	362.78
382.04	320.65
382.24	358.10
382.43	433.00
382.63	376.83
382.83	276.18
383.02	332.36
383.22	395.55
383.41	400.23
383.61	311.29
383.80	430.66
384.00	477.47
384.19	484.49
384.39	444.70
384.58	524.28
384.78	440.02
384.97	500.87
385.17	493.85
385.36	437.68
385.56	407.25
385.75	402.57
385.95	465.77
386.14	512.58
386.34	430.66
386.53	463.43
386.72	428.32
386.92	489.17
387.11	484.49
387.31	505.56
387.50	463.43
387.70	451.72
387.89	475.13
388.09	386.19
388.28	533.64
388.48	454.06
388.67	587.47
388.86	482.15
389.06	620.24
389.25	414.27
389.45	645.99
389.64	552.37
389.84	559.39
390.03	573.43
390.22	528.96
390.42	608.54
390.61	564.07
390.81	582.79
391.00	631.94
391.19	573.43
391.39	575.77
391.58	547.69
391.78	552.37
391.97	550.03
392.16	482.15
392.36	423.64
392.55	367.46
392.75	348.74
392.94	348.74
393.13	308.95
393.33	311.29
393.52	458.74
393.71	568.75
393.91	564.07
394.10	470.45
394.29	589.82
394.49	564.07
394.68	674.07
394.88	624.92
395.07	617.90
395.26	629.60
395.46	664.71
395.65	571.09
395.84	627.26
396.04	575.77
396.23	454.06
396.42	374.49
396.62	402.57
396.81	461.09
397.00	622.58
397.19	706.84
397.39	638.97
397.58	744.29
397.77	770.04
397.97	760.67
398.16	664.71
398.35	732.59
398.55	779.40
398.74	770.04
398.93	814.51
399.12	826.21
399.32	823.87
399.51	887.06
399.70	753.65
399.90	861.32
400.09	807.48
400.28	896.43
400.47	887.06
400.67	844.93
400.86	889.40
401.05	971.32
401.24	830.89
401.44	919.83
401.63	898.77
401.82	894.08
402.01	952.60
402.21	919.83
402.40	905.79
402.59	851.96
402.78	835.57
402.97	875.36
403.17	751.31
403.36	917.49
403.55	926.85
403.74	929.19
403.93	924.51
404.13	891.74
404.32	812.17
404.51	896.43
404.70	880.04
404.89	915.15
405.09	973.66
405.28	919.83
405.47	800.46
405.66	908.13
405.85	854.30
406.05	847.27
406.24	908.13
406.43	912.81
406.62	990.05
406.81	933.87
407.00	896.43
407.20	821.53
407.39	805.14
407.58	915.15
407.77	903.45
407.96	990.05
408.15	990.05
408.34	1025.15
408.54	1069.62
408.73	945.58
408.92	959.62
409.11	894.08
409.30	891.74
409.49	873.02
409.68	800.46
409.87	816.85
410.07	866.00
410.26	919.83
410.45	980.68
410.64	1060.26
410.83	1039.20
411.02	1022.81
411.21	1203.04
411.40	1102.39
411.59	1067.28
411.78	954.94
411.98	1069.62
412.17	980.68
412.36	1006.43
412.55	1020.47
412.74	978.34
412.93	1102.39
413.12	1008.77
413.31	1039.20
413.50	1036.86
413.69	1071.97
413.88	1036.86
414.07	1128.14
414.26	1013.45
414.45	1041.54
414.64	1060.26
414.83	1022.81
415.02	1102.39
415.22	1062.60
415.41	1086.01
415.60	1097.71
415.79	1114.10
415.98	1139.84
416.17	1102.39
416.36	1053.24
416.55	1109.41
416.74	1067.28
416.93	1097.71
417.12	1102.39
417.31	1074.31
417.50	1067.28
417.69	1067.28
417.88	1130.48
418.07	1188.99
418.26	1142.18
418.45	1008.77
418.64	1186.65
418.83	1121.12
419.02	1170.27
419.21	1123.46
419.39	1107.07
419.58	1053.24
419.77	1067.28
419.96	1210.06
420.15	1214.74
420.34	1137.50
420.53	1170.27
420.72	1179.63
420.91	1181.97
421.10	1207.72
421.29	1125.80
421.48	1174.95
421.67	1256.87
421.86	1160.91
422.05	1039.20
422.24	983.02
422.43	1177.29
422.61	1214.74
422.80	1165.59
422.99	1097.71
423.18	1053.24
423.37	1097.71
423.56	1107.07
423.75	1203.04
423.94	1093.03
424.13	1144.52
424.32	1076.65
424.50	1172.61
424.69	1102.39
424.88	1146.86
425.07	1107.07
425.26	1053.24
425.45	1114.10
425.64	1097.71
425.83	1095.37
426.01	1179.63
426.20	1181.97
426.39	1170.27
426.58	1008.77
426.77	954.94
426.96	1013.45
427.15	1060.26
427.33	1102.39
427.52	1118.78
427.71	1090.69
427.90	1144.52
428.09	1121.12
428.28	1025.15
428.46	1022.81
428.65	1081.33
428.84	1135.16
429.03	1048.56
429.22	945.58
429.40	891.74
429.59	748.97
429.78	898.77
429.97	861.32
430.16	807.48
430.34	800.46
430.53	919.83
430.72	901.11
430.91	1029.84
431.10	1053.24
431.28	1196.01
431.47	1273.25
431.66	1163.25
431.85	1181.97
432.03	1093.03
432.22	1111.75
432.41	1186.65
432.60	1303.68
432.79	1252.19
432.97	1277.93
433.16	1196.01
433.35	1109.41
433.54	1020.47
433.72	1018.13
433.91	1146.86
434.10	1299.00
434.28	1174.95
434.47	1336.45
434.66	1254.53
434.85	1198.35
435.03	1252.19
435.22	1294.32
435.41	1549.43
435.59	1362.19
435.78	1270.91
435.97	1364.53
436.16	1371.55
436.34	1275.59
436.53	1249.85
436.72	1289.64
436.90	1196.01
437.09	1174.95
437.28	1210.06
437.46	1196.01
437.65	1296.66
437.84	1102.39
438.02	1067.28
438.21	1167.93
438.40	1256.87
438.58	1177.29
438.77	1287.29
438.96	1282.61
439.14	1364.53
439.33	1334.11
439.52	1383.26
439.70	1317.72
439.89	1324.74
440.08	1334.11
440.26	1254.53
440.45	1394.96
440.63	1437.09
440.82	1448.79
441.01	1427.73
441.19	1369.21
441.38	1465.18
441.57	1458.15
441.75	1479.22
441.94	1551.78
442.12	1432.41
442.31	1416.02
442.50	1514.33
442.68	1474.54
442.87	1406.66
443.05	1451.13
443.24	1446.45
443.43	1591.56
443.61	1439.43
443.80	1465.18
443.98	1420.71
444.17	1434.75
444.35	1556.46
444.54	1495.60
444.73	1507.30
444.91	1441.77
445.10	1366.87
445.28	1362.19
445.47	1362.19
445.65	1380.92
445.84	1409.00
446.02	1378.58
446.21	1406.66
446.39	1444.11
446.58	1540.07
446.77	1432.41
446.95	1586.88
447.14	1554.12
447.32	1593.90
447.51	1474.54
447.69	1448.79
447.88	1387.94
448.06	1476.88
448.25	1479.22
448.43	1551.78
448.62	1495.60
448.80	1467.52
448.99	1537.73
449.17	1458.15
449.36	1472.20
449.54	1547.09
449.73	1535.39
449.91	1551.78
450.10	1636.03
450.28	1736.68
450.46	1671.14
450.65	1533.05
450.83	1659.44
451.02	1551.78
451.20	1565.82
451.39	1493.26
451.57	1561.14
451.76	1629.01
451.94	1444.11
452.13	1437.09
452.31	1369.21
452.49	1465.18
452.68	1413.68
452.86	1488.58
453.05	1455.81
453.23	1526.03
453.42	1472.20
453.60	1479.22
453.78	1542.41
453.97	1528.37
454.15	1565.82
454.34	1479.22
454.52	1523.69
454.70	1495.60
454.89	1507.30
455.07	1577.52
455.26	1640.72
455.44	1636.03
455.62	1549.43
455.81	1586.88
455.99	1549.43
456.17	1689.87
456.36	1626.67
456.54	1645.40
456.73	1612.63
456.91	1736.68
457.09	1619.65
457.28	1680.50
457.46	1629.01
457.64	1643.06
457.83	1568.16
458.01	1486.24
458.19	1582.20
458.38	1544.75
458.56	1638.38
458.74	1554.12
458.93	1626.67
459.11	1631.35
459.29	1554.12
459.48	1643.06
459.66	1631.35
459.84	1692.21
460.03	1675.82
460.21	1593.90
460.39	1561.14
460.57	1706.25
460.76	1666.46
460.94	1661.78
461.12	1743.70
461.31	1767.10
461.49	1638.38
461.67	1617.31
461.85	1717.95
462.04	1638.38
462.22	1739.02
462.40	1675.82
462.59	1664.12
462.77	1680.50
462.95	1675.82
463.13	1727.32
463.32	1647.74
463.50	1664.12
463.68	1720.29
463.86	1617.31
464.05	1657.10
464.23	1748.38
464.41	1664.12
464.59	1610.29
464.78	1589.22
464.96	1598.59
465.14	1643.06
465.32	1659.44
465.50	1703.91
465.69	1713.27
465.87	1643.06
466.05	1638.38
466.23	1556.46
466.41	1444.11
466.60	1612.63
466.78	1652.42
466.96	1666.46
467.14	1600.93
467.32	1603.27
467.51	1666.46
467.69	1486.24
467.87	1607.95
468.05	1640.72
468.23	1734.34
468.41	1614.97
468.60	1629.01
468.78	1589.22
468.96	1614.97
469.14	1715.61
469.32	1621.99
469.50	1631.35
469.69	1521.35
469.87	1547.09
470.05	1617.31
470.23	1563.48
470.41	1549.43
470.59	1535.39
470.77	1596.25
470.95	1652.42
471.14	1696.89
471.32	1614.97
471.50	1715.61
471.68	1858.39
471.86	1636.03
472.04	1863.07
472.22	1832.64
472.40	1699.23
472.58	1671.14
472.77	1584.54
472.95	1614.97
473.13	1769.44
473.31	1736.68
473.49	1652.42
473.67	1710.93
473.85	1694.55
474.03	1846.68
474.21	1771.79
474.39	1743.70
474.57	1799.87
474.75	1818.60
474.93	1645.40
475.12	1746.04
475.30	1638.38
475.48	1717.95
475.66	1842.00
475.84	1636.03
476.02	1703.91
476.20	1650.08
476.38	1713.27
476.56	1865.41
476.74	1813.92
476.92	1797.53
477.10	1785.83
477.28	1898.17
477.46	1898.17
477.64	2092.44
477.82	1902.86
478.00	1827.96
478.18	1877.11
478.36	1764.76
478.54	1865.41
478.72	1895.83
478.90	1973.07
479.08	1952.01
479.26	2069.03
479.44	1811.57
479.62	1912.22
479.80	1870.09
479.98	1970.73
480.16	1952.01
480.34	1961.37
480.52	1975.41
480.70	2057.33
480.88	2043.29
481.06	2045.63
481.24	2069.03
481.41	2129.89
481.59	2113.50
481.77	2143.93
481.95	1989.46
482.13	2190.74
482.31	2040.95
482.49	2111.16
482.67	2092.44
482.85	2099.46
483.03	2143.93
483.21	2239.89
483.39	2141.59
483.57	2155.63
483.74	2083.08
483.92	2165.00
484.10	2162.66
484.28	2230.53
484.46	2136.91
484.64	2200.10
484.82	2242.23
485.00	2136.91
485.18	2069.03
485.35	1994.14
485.53	1893.49
485.71	1708.59
485.89	1748.38
486.07	1865.41
486.25	2167.34
486.43	2146.27
486.61	2221.17
486.78	2176.70
486.96	2153.29
487.14	2188.40
487.32	2256.28
487.50	2260.96
487.68	2445.86
487.85	2427.14
488.03	2485.65
488.21	2335.85
488.39	2244.57
488.57	2291.38
488.75	2209.47
488.92	2708.00
489.10	2558.21
489.28	2705.66
489.46	2607.36
489.64	2586.29
489.81	2600.34
489.99	2576.93
490.17	2518.42
490.35	2677.57
490.53	2525.44
490.70	2429.48
490.88	2518.42
491.06	2605.02
491.24	2523.10
491.41	2523.10
491.59	2420.11
491.77	2279.68
491.95	2506.71
492.13	2513.74
492.30	2696.30
492.48	2710.34
492.66	2672.89
492.84	2693.96
493.01	2743.11
493.19	2621.40
493.37	2569.91
493.54	2525.44
493.72	2637.78
493.90	2663.53
494.08	2761.83
494.25	2813.32
494.43	2888.22
494.61	2869.50
494.79	2771.19
494.96	2878.86
495.14	2733.75
495.32	2656.51
495.49	2803.96
495.67	2808.64
495.85	2909.29
496.02	2916.31
496.20	2932.69
496.38	2752.47
496.55	2857.79
496.73	2984.18
496.91	2925.67
497.09	3059.08
497.26	2960.78
497.44	2801.62
497.62	2864.82
497.79	2616.72
497.97	2583.95
498.14	2792.26
498.32	2906.95
498.50	3000.57
498.67	2832.05
498.85	2974.82
499.03	2932.69
499.20	2878.86
499.38	2988.86
499.56	2871.84
499.73	2864.82
499.91	2850.77
500.08	2785.24
500.26	2677.57
500.44	2782.90
500.61	2876.52
500.79	2752.47
500.97	2764.17
501.14	2867.16
501.32	2738.43
501.49	2808.64
501.67	2822.69
501.84	2825.03
502.02	2829.71
502.20	2808.64
502.37	2930.35
502.55	2895.24
502.72	2937.37
502.90	2942.05
503.07	2801.62
503.25	2780.56
503.43	2703.32
503.60	2682.25
503.78	2668.21
503.95	2689.28
504.13	2946.73
504.30	2850.77
504.48	2888.22
504.65	2796.94
504.83	2899.92
505.01	2956.10
505.18	3023.97
505.36	2949.08
505.53	3009.93
505.71	3094.19
505.88	3084.83
506.06	2932.69
506.23	2846.09
506.41	2923.33
506.58	2963.12
506.76	3007.59
506.93	2937.37
507.11	2906.95
507.28	2935.03
507.46	2848.43
507.63	2899.92
507.81	2839.07
507.98	2946.73
508.16	2939.71
508.33	2986.52
508.50	3061.42
508.68	3033.33
508.85	3091.85
509.03	3063.76
509.20	3098.87
509.38	2953.76
509.55	2920.99
509.73	2944.39
509.90	3049.72
510.08	3059.08
510.25	3002.91
510.42	2935.03
510.60	2878.86
510.77	2911.63
510.95	3070.78
511.12	3073.12
511.30	3211.22
511.47	3108.23
511.64	3131.64
511.82	3077.80
511.99	2860.13
512.17	3002.91
512.34	3019.29
512.51	2871.84
512.69	2991.20
512.86	3077.80
513.04	3117.59
513.21	2951.42
513.38	2899.92
513.56	2904.60
513.73	2843.75
513.90	2862.48
514.08	2925.67
514.25	3023.97
514.43	3005.25
514.60	2904.60
514.77	3007.59
514.95	2970.14
515.12	3007.59
515.29	3040.36
515.47	3047.38
515.64	3124.62
515.81	3035.67
515.99	2942.05
516.16	2796.94
516.33	2623.74
516.51	2513.74
516.68	2438.84
516.85	2576.93
517.03	2551.18
517.20	2766.51
517.37	3166.74
517.54	3096.53
517.72	2740.77
517.89	2546.50
518.06	2476.29
518.24	2686.94
518.41	2855.45
518.58	2902.26
518.75	2878.86
518.93	2949.08
519.10	2935.03
519.27	3061.42
519.45	3059.08
519.62	3070.78
519.79	3173.77
519.96	3033.33
520.14	2918.65
520.31	2888.22
520.48	2986.52
520.65	3016.95
520.83	3208.87
521.00	3012.27
521.17	3030.99
521.34	3002.91
521.52	3002.91
521.69	3222.92
521.86	3117.59
522.03	3077.80
522.20	2820.35
522.38	2897.58
522.55	2700.98
522.72	3035.67
522.89	3002.91
523.07	2991.20
523.24	3007.59
523.41	3056.74
523.58	3061.42
523.75	3133.98
523.92	3208.87
524.10	3066.10
524.27	3066.10
524.44	3070.78
524.61	3124.62
524.78	3047.38
524.96	3077.80
525.13	3014.61
525.30	2986.52
525.47	3229.94
525.64	3110.57
525.81	2904.60
525.98	2836.73
526.16	2626.08
526.33	2619.06
526.50	2553.52
526.67	2637.78
526.84	2754.81
527.01	2764.17
527.18	2787.58
527.36	2913.97
527.53	2892.90
527.70	3061.42
527.87	2846.09
528.04	2888.22
528.21	2911.63
528.38	3096.53
528.55	3204.19
528.72	3164.40
528.89	3164.40
529.07	3073.12
529.24	2974.82
529.41	3073.12
529.58	2855.45
529.75	2923.33
529.92	3045.04
530.09	3028.65
530.26	3061.42
530.43	3016.95
530.60	3176.11
530.77	3054.40
530.94	3124.62
531.11	3056.74
531.28	3082.49
531.46	2991.20
531.63	3068.44
531.80	3026.31
531.97	2906.95
532.14	2857.79
532.31	2778.22
532.48	2780.56
532.65	2815.66
532.82	2841.41
532.99	2970.14
533.16	3145.68
533.33	2998.23
533.50	2902.26
533.67	2956.10
533.84	2874.18
534.01	2862.48
534.18	2918.65
534.35	2913.97
534.52	2979.50
534.69	3122.27
534.86	3068.44
535.03	3129.30
535.20	3124.62
535.37	3068.44
535.54	3197.17
535.71	3089.51
535.88	3075.46
536.05	3105.89
536.22	2878.86
536.38	2874.18
536.55	2913.97
536.72	2806.30
536.89	2787.58
537.06	3012.27
537.23	3068.44
537.40	2977.16
537.57	3002.91
537.74	3019.29
537.91	2991.20
538.08	2899.92
538.25	3082.49
538.42	3033.33
538.59	3094.19
538.75	2995.89
538.92	2972.48
539.09	2906.95
539.26	2829.71
539.43	2909.29
539.60	2848.43
539.77	3000.57
539.94	2911.63
540.11	2937.37
540.28	2899.92
540.44	2944.39
540.61	2869.50
540.78	2902.26
540.95	2963.12
541.12	2977.16
541.29	2944.39
541.46	3171.43
541.62	2913.97
541.79	2925.67
541.96	2913.97
542.13	2967.80
542.30	3136.32
542.47	3091.85
542.63	3056.74
542.80	2984.18
542.97	2935.03
543.14	2841.41
543.31	2899.92
543.48	2991.20
543.64	3178.45
543.81	3087.17
543.98	3049.72
544.15	3007.59
544.32	2829.71
544.48	2822.69
544.65	2986.52
544.82	2885.88
544.99	2953.76
545.16	2946.73
545.32	3070.78
545.49	3293.13
545.66	3475.70
545.83	3173.77
546.00	2986.52
546.16	3012.27
546.33	2881.20
546.50	2850.77
546.67	3089.51
546.83	2890.56
547.00	2883.54
547.17	2796.94
547.34	2635.44
547.50	2796.94
547.67	2892.90
547.84	2768.85
548.00	2942.05
548.17	2942.05
548.34	2834.39
548.51	3002.91
548.67	2925.67
548.84	2930.35
549.01	3016.95
549.18	2820.35
549.34	2951.42
549.51	2843.75
549.68	2771.19
549.84	2874.18
550.01	2822.69
550.18	2998.23
550.34	2906.95
550.51	2892.90
550.68	2906.95
550.84	2780.56
551.01	2834.39
551.18	2822.69
551.34	2738.43
551.51	2862.48
551.68	2902.26
551.84	2878.86
552.01	2883.54
552.18	2778.22
552.34	2715.02
552.51	2710.34
552.68	2773.53
552.84	2874.18
553.01	2820.35
553.18	2827.37
553.34	2822.69
553.51	2829.71
553.67	2813.32
553.84	2801.62
554.01	2846.09
554.17	2810.98
554.34	2846.09
554.51	2942.05
554.67	2796.94
554.84	2890.56
555.00	2771.19
555.17	2729.06
555.33	2768.85
555.50	2857.79
555.67	2855.45
555.83	2719.70
556.00	2710.34
556.16	2986.52
556.33	2792.26
556.50	2537.14
556.66	2642.46
556.83	2649.49
556.99	2555.86
557.16	2665.87
557.32	2609.70
557.49	2647.15
557.65	2801.62
557.82	2665.87
557.98	2562.89
558.15	2518.42
558.32	2567.57
558.48	2490.33
558.65	2520.76
558.81	2628.42
558.98	2574.59
559.14	2649.49
559.31	2644.81
559.47	2562.89
559.64	2518.42
559.80	2705.66
559.97	2523.10
560.13	2705.66
560.30	2745.45
560.46	2640.12
560.63	2782.90
560.79	2743.11
560.96	2761.83
561.12	2537.14
561.29	2551.18
561.45	2555.86
561.61	2560.55
561.78	2719.70
561.94	2675.23
562.11	2544.16
562.27	2504.37
562.44	2562.89
562.60	2686.94
562.77	2581.61
562.93	2616.72
563.10	2698.64
563.26	2551.18
563.42	2525.44
563.59	2593.31
563.75	2490.33
563.92	2452.88
564.08	2562.89
564.24	2647.15
564.41	2600.34
564.57	2649.49
564.74	2504.37
564.90	2450.54
565.07	2530.12
565.23	2457.56
565.39	2382.67
565.56	2289.04
565.72	2415.43
565.88	2326.49
566.05	2478.63
566.21	2499.69
566.38	2480.97
566.54	2523.10
566.70	2459.90
566.87	2495.01
567.03	2441.18
567.19	2408.41
567.36	2548.84
567.52	2502.03
567.68	2459.90
567.85	2359.26
568.01	2317.13
568.17	2406.07
568.34	2321.81
568.50	2321.81
568.66	2335.85
568.83	2424.80
568.99	2275.00
569.15	2476.29
569.32	2347.56
569.48	2303.09
569.64	2326.49
569.81	2377.98
569.97	2270.32
570.13	2235.21
570.30	2230.53
570.46	2235.21
570.62	2228.19
570.78	2202.44
570.95	2195.42
571.11	2279.68
571.27	2387.35
571.43	2363.94
571.60	2307.77
571.76	2352.24
571.92	2225.85
572.09	2469.27
572.25	2427.14
572.41	2258.62
572.57	2310.11
572.74	2282.02
572.90	2406.07
573.06	2251.60
573.22	2406.07
573.38	2368.62
573.55	2317.13
573.71	2263.30
573.87	2270.32
574.03	2190.74
574.20	2176.70
574.36	2296.07
574.52	2305.43
574.68	2328.83
574.84	2174.36
575.01	2197.76
575.17	2265.64
575.33	2242.23
575.49	2300.75
575.65	2277.34
575.82	2249.25
575.98	2258.62
576.14	2183.72
576.30	2253.94
576.46	2197.76
576.62	2349.90
576.79	2317.13
576.95	2232.87
577.11	2235.21
577.27	2148.61
577.43	2134.57
577.59	2193.08
577.75	2155.63
577.92	2104.14
578.08	2108.82
578.24	2284.36
578.40	2286.70
578.56	2361.60
578.72	2246.91
578.88	2260.96
579.04	2232.87
579.21	2223.51
579.37	2230.53
579.53	2267.98
579.69	2324.15
579.85	2284.36
580.01	2286.70
580.17	2225.85
580.33	2242.23
580.49	2300.75
580.65	2223.51
580.82	2272.66
580.98	2188.40
581.14	2143.93
581.30	2324.15
581.46	2282.02
581.62	2347.56
581.78	2314.79
581.94	2342.88
582.10	2359.26
582.26	2317.13
582.42	2263.30
582.58	2216.49
582.74	2279.68
582.90	2260.96
583.06	2298.41
583.22	2335.85
583.38	2289.04
583.54	2298.41
583.70	2359.26
583.86	2338.20
584.02	2183.72
584.18	2307.77
584.34	2225.85
584.50	2186.06
584.66	2188.40
584.82	2120.53
584.98	2186.06
585.14	2146.27
585.30	2172.02
585.46	2167.34
585.62	2080.74
585.78	2289.04
585.94	2251.60
586.10	2244.57
586.26	2113.50
586.42	2256.28
586.58	2284.36
586.74	2251.60
586.90	2214.15
587.06	2235.21
587.22	2200.10
587.38	2132.23
587.54	2008.18
587.70	2097.12
587.86	2050.31
588.02	2064.35
588.18	1907.54
588.34	1877.11
588.49	1689.87
588.65	1668.80
588.81	1666.46
588.97	1743.70
589.13	1701.57
589.29	1760.08
589.45	1886.47
589.61	1804.55
589.77	1921.58
589.93	1914.56
590.08	1898.17
590.24	2010.52
590.40	1909.88
590.56	2017.54
590.72	1930.94
590.88	1888.81
591.04	1980.09
591.20	1907.54
591.35	1881.79
591.51	1888.81
591.67	1863.07
591.83	1799.87
591.99	1921.58
592.15	2010.52
592.31	1961.37
592.46	1963.71
592.62	1959.03
592.78	1980.09
592.94	1952.01
593.10	2029.24
593.26	2064.35
593.41	1963.71
593.57	1891.15
593.73	1867.75
593.89	1774.13
594.05	1785.83
594.20	1830.30
594.36	1827.96
594.52	2001.16
594.68	1830.30
594.84	1937.96
594.99	2019.88
595.15	2040.95
595.31	1872.43
595.47	1940.30
595.62	1919.24
595.78	1944.99
595.94	2122.87
596.10	2031.58
596.25	1888.81
596.41	1919.24
596.57	1961.37
596.73	1919.24
596.88	1832.64
597.04	1900.52
597.20	1839.66
597.36	1877.11
597.51	1956.69
597.67	1905.20
597.83	1926.26
597.99	1989.46
598.14	2010.52
598.30	2040.95
598.46	1888.81
598.61	2033.93
