SpectraSuite Data File
++++++++++++++++++++++++++++++++++++
Date: Mon Sep 30 18:11:51 GMT-05:00 2013
User: stostad
Dark Spectrum Present: No
Reference Spectrum Present: No
Number of Sampled Component Spectra: 1
Spectrometers: USB2+H05261
Integration Time (usec): 100000 (USB2+H05261)
Spectra Averaged: 1 (USB2+H05261)
Boxcar Smoothing: 0 (USB2+H05261)
Correct for Electrical Dark: No (USB2+H05261)
Strobe/Lamp Enabled: No (USB2+H05261)
Correct for Detector Non-linearity: No (USB2+H05261)
Correct for Stray Light: No (USB2+H05261)
Number of Pixels in Processed Spectrum: 2048
>>>>>Begin Processed Spectral Data<<<<<
365.73	189.58
365.92	189.58
366.12	189.58
366.32	9.36
366.52	49.15
366.72	0.00
366.91	18.72
367.11	0.00
367.31	35.11
367.51	21.06
367.70	74.90
367.90	9.36
368.10	30.43
368.30	56.17
368.49	0.00
368.69	0.00
368.89	0.00
369.09	81.92
369.28	79.58
369.48	0.00
369.68	21.06
369.87	72.56
370.07	0.00
370.27	70.22
370.47	105.32
370.66	194.26
370.86	362.78
371.06	358.10
371.25	353.42
371.45	287.89
371.65	248.10
371.84	287.89
372.04	311.29
372.24	341.72
372.44	330.02
372.63	355.76
372.83	337.04
373.03	386.19
373.22	308.95
373.42	397.89
373.62	304.27
373.81	369.80
374.01	339.38
374.21	285.55
374.40	369.80
374.60	416.62
374.79	400.23
374.99	470.45
375.19	428.32
375.38	440.02
375.58	437.68
375.78	390.87
375.97	456.40
376.17	479.81
376.37	376.83
376.56	327.68
376.76	430.66
376.95	470.45
377.15	444.70
377.35	477.47
377.54	517.26
377.74	498.53
377.93	505.56
378.13	540.66
378.33	475.13
378.52	416.62
378.72	458.74
378.91	475.13
379.11	440.02
379.31	379.17
379.50	470.45
379.70	442.36
379.89	500.87
380.09	454.06
380.28	510.24
380.48	496.19
380.68	428.32
380.87	496.19
381.07	447.04
381.26	442.36
381.46	390.87
381.65	395.55
381.85	402.57
382.04	383.85
382.24	425.98
382.43	299.59
382.63	383.85
382.83	388.53
383.02	430.66
383.22	386.19
383.41	362.78
383.61	348.74
383.80	461.09
384.00	395.55
384.19	425.98
384.39	477.47
384.58	486.83
384.78	456.40
384.97	477.47
385.17	440.02
385.36	390.87
385.56	456.40
385.75	418.96
385.95	477.47
386.14	519.60
386.34	531.30
386.53	433.00
386.72	395.55
386.92	465.77
387.11	463.43
387.31	463.43
387.50	507.90
387.70	393.21
387.89	472.79
388.09	465.77
388.28	514.92
388.48	425.98
388.67	503.22
388.86	491.51
389.06	545.34
389.25	557.05
389.45	568.75
389.64	505.56
389.84	519.60
390.03	491.51
390.22	566.41
390.42	514.92
390.61	561.73
390.81	589.82
391.00	601.52
391.19	716.20
391.39	620.24
391.58	599.18
391.78	463.43
391.97	540.66
392.16	442.36
392.36	442.36
392.55	477.47
392.75	353.42
392.94	383.85
393.13	404.91
393.33	447.04
393.52	449.38
393.71	463.43
393.91	547.69
394.10	615.56
394.29	594.50
394.49	622.58
394.68	617.90
394.88	695.14
395.07	671.73
395.26	608.54
395.46	589.82
395.65	571.09
395.84	575.77
396.04	514.92
396.23	421.30
396.42	407.25
396.62	381.51
396.81	538.32
397.00	498.53
397.19	599.18
397.39	648.33
397.58	779.40
397.77	690.46
397.97	718.54
398.16	746.63
398.35	819.19
398.55	772.38
398.74	730.25
398.93	802.80
399.12	781.74
399.32	781.74
399.51	823.87
399.70	807.48
399.90	744.29
400.09	746.63
400.28	798.12
400.47	943.24
400.67	940.90
400.86	844.93
401.05	894.08
401.24	901.11
401.44	877.70
401.63	931.53
401.82	887.06
402.01	828.55
402.21	891.74
402.40	992.39
402.59	830.89
402.78	837.91
402.97	835.57
403.17	863.66
403.36	936.21
403.55	910.47
403.74	910.47
403.93	889.40
404.13	873.02
404.32	816.85
404.51	863.66
404.70	1018.13
404.89	910.47
405.09	959.62
405.28	830.89
405.47	880.04
405.66	938.55
405.85	830.89
406.05	774.72
406.24	866.00
406.43	889.40
406.62	961.96
406.81	1034.52
407.00	983.02
407.20	950.26
407.39	816.85
407.58	901.11
407.77	1020.47
407.96	1006.43
408.15	971.32
408.34	980.68
408.54	1050.90
408.73	947.92
408.92	929.19
409.11	997.07
409.30	983.02
409.49	877.70
409.68	856.64
409.87	823.87
410.07	917.49
410.26	961.96
410.45	966.64
410.64	1046.22
410.83	912.81
411.02	1032.18
411.21	971.32
411.40	1088.35
411.59	1071.97
411.78	1022.81
411.98	1076.65
412.17	929.19
412.36	1008.77
412.55	1074.31
412.74	999.41
412.93	1041.54
413.12	978.34
413.31	1170.27
413.50	1076.65
413.69	1104.73
413.88	1093.03
414.07	999.41
414.26	1046.22
414.45	1114.10
414.64	1130.48
414.83	1041.54
415.02	1025.15
415.22	1102.39
415.41	1128.14
415.60	1156.22
415.79	1179.63
415.98	1228.78
416.17	1191.33
416.36	1088.35
416.55	1156.22
416.74	1167.93
416.93	1071.97
417.12	1097.71
417.31	1137.50
417.50	1114.10
417.69	1198.35
417.88	1088.35
418.07	1041.54
418.26	1060.26
418.45	1088.35
418.64	1217.08
418.83	1254.53
419.02	1167.93
419.21	1188.99
419.39	1160.91
419.58	1060.26
419.77	1022.81
419.96	1151.54
420.15	1167.93
420.34	1121.12
420.53	1235.80
420.72	1263.89
420.91	1198.35
421.10	1217.08
421.29	1256.87
421.48	1132.82
421.67	1350.49
421.86	1118.78
422.05	1060.26
422.24	985.37
422.43	1053.24
422.61	1188.99
422.80	1132.82
422.99	1212.40
423.18	1170.27
423.37	1111.75
423.56	1163.25
423.75	1214.74
423.94	1081.33
424.13	1172.61
424.32	1139.84
424.50	1006.43
424.69	1160.91
424.88	1191.33
425.07	1039.20
425.26	1076.65
425.45	1083.67
425.64	1144.52
425.83	1064.94
426.01	1191.33
426.20	1203.04
426.39	1069.62
426.58	1025.15
426.77	1090.69
426.96	1102.39
427.15	1095.37
427.33	1097.71
427.52	1111.75
427.71	1142.18
427.90	1067.28
428.09	1090.69
428.28	1083.67
428.46	1018.13
428.65	1093.03
428.84	1039.20
429.03	1135.16
429.22	985.37
429.40	880.04
429.59	863.66
429.78	795.78
429.97	828.55
430.16	795.78
430.34	770.04
430.53	772.38
430.72	884.72
430.91	1029.84
431.10	1118.78
431.28	1228.78
431.47	1261.55
431.66	1254.53
431.85	1139.84
432.03	1015.79
432.22	1083.67
432.41	1114.10
432.60	1322.40
432.79	1193.67
432.97	1313.04
433.16	1043.88
433.35	1196.01
433.54	1036.86
433.72	947.92
433.91	1055.58
434.10	1158.57
434.28	1210.06
434.47	1273.25
434.66	1238.14
434.85	1158.57
435.03	1263.89
435.22	1329.42
435.41	1420.71
435.59	1378.58
435.78	1329.42
435.97	1397.30
436.16	1390.28
436.34	1282.61
436.53	1263.89
436.72	1313.04
436.90	1205.38
437.09	1308.36
437.28	1252.19
437.46	1306.02
437.65	1240.48
437.84	1088.35
438.02	1111.75
438.21	1135.16
438.40	1179.63
438.58	1289.64
438.77	1299.00
438.96	1369.21
439.14	1352.83
439.33	1299.00
439.52	1294.32
439.70	1313.04
439.89	1219.42
440.08	1240.48
440.26	1228.78
440.45	1409.00
440.63	1481.56
440.82	1439.43
441.01	1418.36
441.19	1383.26
441.38	1385.60
441.57	1451.13
441.75	1469.86
441.94	1486.24
442.12	1460.49
442.31	1439.43
442.50	1453.47
442.68	1420.71
442.87	1500.28
443.05	1460.49
443.24	1511.99
443.43	1458.15
443.61	1565.82
443.80	1563.48
443.98	1472.20
444.17	1549.43
444.35	1577.52
444.54	1430.07
444.73	1500.28
444.91	1451.13
445.10	1392.62
445.28	1359.85
445.47	1327.08
445.65	1380.92
445.84	1411.34
446.02	1462.83
446.21	1439.43
446.39	1455.81
446.58	1474.54
446.77	1661.78
446.95	1579.86
447.14	1544.75
447.32	1610.29
447.51	1504.96
447.69	1401.98
447.88	1497.94
448.06	1507.30
448.25	1605.61
448.43	1511.99
448.62	1502.62
448.80	1385.60
448.99	1486.24
449.17	1528.37
449.36	1453.47
449.54	1568.16
449.73	1488.58
449.91	1589.22
450.10	1610.29
450.28	1727.32
450.46	1722.63
450.65	1659.44
450.83	1617.31
451.02	1507.30
451.20	1540.07
451.39	1643.06
451.57	1504.96
451.76	1535.39
451.94	1502.62
452.13	1554.12
452.31	1437.09
452.49	1516.67
452.68	1502.62
452.86	1455.81
453.05	1476.88
453.23	1533.05
453.42	1537.73
453.60	1551.78
453.78	1554.12
453.97	1544.75
454.15	1549.43
454.34	1418.36
454.52	1530.71
454.70	1605.61
454.89	1577.52
455.07	1516.67
455.26	1561.14
455.44	1584.54
455.62	1533.05
455.81	1556.46
455.99	1530.71
456.17	1565.82
456.36	1673.48
456.54	1671.14
456.73	1659.44
456.91	1668.80
457.09	1729.66
457.28	1671.14
457.46	1668.80
457.64	1589.22
457.83	1495.60
458.01	1596.25
458.19	1710.93
458.38	1554.12
458.56	1596.25
458.74	1509.65
458.93	1521.35
459.11	1579.86
459.29	1612.63
459.48	1652.42
459.66	1652.42
459.84	1502.62
460.03	1589.22
460.21	1591.56
460.39	1621.99
460.57	1778.81
460.76	1657.10
460.94	1682.85
461.12	1614.97
461.31	1701.57
461.49	1607.95
461.67	1657.10
461.85	1764.76
462.04	1668.80
462.22	1797.53
462.40	1671.14
462.59	1706.25
462.77	1614.97
462.95	1673.48
463.13	1687.53
463.32	1643.06
463.50	1643.06
463.68	1640.72
463.86	1692.21
464.05	1661.78
464.23	1551.78
464.41	1652.42
464.59	1619.65
464.78	1736.68
464.96	1612.63
465.14	1636.03
465.32	1668.80
465.50	1755.40
465.69	1629.01
465.87	1591.56
466.05	1586.88
466.23	1544.75
466.41	1544.75
466.60	1540.07
466.78	1640.72
466.96	1748.38
467.14	1629.01
467.32	1778.81
467.51	1689.87
467.69	1554.12
467.87	1633.69
468.05	1706.25
468.23	1645.40
468.41	1636.03
468.60	1612.63
468.78	1612.63
468.96	1589.22
469.14	1631.35
469.32	1636.03
469.50	1556.46
469.69	1540.07
469.87	1568.16
470.05	1563.48
470.23	1554.12
470.41	1612.63
470.59	1591.56
470.77	1593.90
470.95	1682.85
471.14	1713.27
471.32	1603.27
471.50	1753.06
471.68	1816.26
471.86	1706.25
472.04	1661.78
472.22	1720.29
472.40	1657.10
472.58	1685.19
472.77	1685.19
472.95	1778.81
473.13	1867.75
473.31	1715.61
473.49	1753.06
473.67	1668.80
473.85	1750.72
474.03	1696.89
474.21	1785.83
474.39	1860.73
474.57	1860.73
474.75	1820.94
474.93	1694.55
475.12	1699.23
475.30	1746.04
475.48	1884.13
475.66	1778.81
475.84	1781.15
476.02	1830.30
476.20	1781.15
476.38	1724.97
476.56	1837.32
476.74	1790.51
476.92	1856.04
477.10	1813.92
477.28	1900.52
477.46	1858.39
477.64	1900.52
477.82	1863.07
478.00	1968.39
478.18	1842.00
478.36	1832.64
478.54	1923.92
478.72	1867.75
478.90	1928.60
479.08	2029.24
479.26	1907.54
479.44	2003.50
479.62	2076.06
479.80	1961.37
479.98	1998.82
480.16	1977.75
480.34	1982.43
480.52	1923.92
480.70	2179.04
480.88	2003.50
481.06	1998.82
481.24	2052.65
481.41	2120.53
481.59	2143.93
481.77	2038.61
481.95	2099.46
482.13	2115.84
482.31	2050.31
482.49	2059.67
482.67	2235.21
482.85	2155.63
483.03	2186.06
483.21	2169.68
483.39	2127.55
483.57	2169.68
483.74	2132.23
483.92	2148.61
484.10	2125.21
484.28	2155.63
484.46	2186.06
484.64	2242.23
484.82	2183.72
485.00	2139.25
485.18	2134.57
485.35	2036.27
485.53	1802.21
485.71	1774.13
485.89	1713.27
486.07	1851.36
486.25	2083.08
486.43	2200.10
486.61	2305.43
486.78	2129.89
486.96	2083.08
487.14	2284.36
487.32	2258.62
487.50	2380.32
487.68	2265.64
487.85	2363.94
488.03	2373.30
488.21	2415.43
488.39	2354.58
488.57	2207.13
488.75	2296.07
488.92	2689.28
489.10	2551.18
489.28	2764.17
489.46	2670.55
489.64	2546.50
489.81	2623.74
489.99	2623.74
490.17	2654.17
490.35	2747.79
490.53	2492.67
490.70	2487.99
490.88	2530.12
491.06	2677.57
491.24	2640.12
491.41	2506.71
491.59	2326.49
491.77	2319.47
491.95	2544.16
492.13	2548.84
492.30	2668.21
492.48	2691.62
492.66	2766.51
492.84	2612.04
493.01	2703.32
493.19	2696.30
493.37	2581.61
493.54	2656.51
493.72	2799.28
493.90	2738.43
494.08	2832.05
494.25	2806.30
494.43	2761.83
494.61	2829.71
494.79	2881.20
494.96	2883.54
495.14	2888.22
495.32	2698.64
495.49	2654.17
495.67	2794.60
495.85	2878.86
496.02	2951.42
496.20	2930.35
496.38	2970.14
496.55	2808.64
496.73	2846.09
496.91	3038.02
497.09	3005.25
497.26	2909.29
497.44	2853.11
497.62	2932.69
497.79	2906.95
497.97	2708.00
498.14	2675.23
498.32	2939.71
498.50	2890.56
498.67	2970.14
498.85	2836.73
499.03	3089.51
499.20	2890.56
499.38	2892.90
499.56	2881.20
499.73	2860.13
499.91	2848.43
500.08	2733.75
500.26	2684.59
500.44	2846.09
500.61	2895.24
500.79	2883.54
500.97	2768.85
501.14	2906.95
501.32	2651.83
501.49	2827.37
501.67	2705.66
501.84	2850.77
502.02	2881.20
502.20	2986.52
502.37	2913.97
502.55	2892.90
502.72	2932.69
502.90	2988.86
503.07	2895.24
503.25	2775.88
503.43	2754.81
503.60	2689.28
503.78	2612.04
503.95	2724.38
504.13	2979.50
504.30	2906.95
504.48	2963.12
504.65	2965.46
504.83	2836.73
505.01	2876.52
505.18	2967.80
505.36	3066.10
505.53	3105.89
505.71	3108.23
505.88	3073.12
506.06	2974.82
506.23	3035.67
506.41	2986.52
506.58	2965.46
506.76	3002.91
506.93	2909.29
507.11	2916.31
507.28	2869.50
507.46	2923.33
507.63	2829.71
507.81	2710.34
507.98	2867.16
508.16	3028.65
508.33	3014.61
508.50	2963.12
508.68	3059.08
508.85	3148.02
509.03	3054.40
509.20	3019.29
509.38	3038.02
509.55	2930.35
509.73	3063.76
509.90	3082.49
510.08	3126.96
510.25	3021.63
510.42	2974.82
510.60	2972.48
510.77	3038.02
510.95	3042.70
511.12	3082.49
511.30	3208.87
511.47	3194.83
511.64	3229.94
511.82	3077.80
511.99	3035.67
512.17	3045.04
512.34	2942.05
512.51	3014.61
512.69	3098.87
512.86	3033.33
513.04	3068.44
513.21	2972.48
513.38	2979.50
513.56	2939.71
513.73	2876.52
513.90	2789.92
514.08	2925.67
514.25	3061.42
514.43	2977.16
514.60	3030.99
514.77	2986.52
514.95	3000.57
515.12	2972.48
515.29	3066.10
515.47	3232.28
515.64	3162.06
515.81	2949.08
515.99	2944.39
516.16	2738.43
516.33	2656.51
516.51	2534.80
516.68	2588.63
516.85	2513.74
517.03	2607.36
517.20	2810.98
517.37	2918.65
517.54	2979.50
517.72	2899.92
517.89	2703.32
518.06	2490.33
518.24	2675.23
518.41	2832.05
518.58	2986.52
518.75	2878.86
518.93	2920.99
519.10	2888.22
519.27	2930.35
519.45	2925.67
519.62	3056.74
519.79	3258.03
519.96	3045.04
520.14	2920.99
520.31	2869.50
520.48	3105.89
520.65	3035.67
520.83	3030.99
521.00	3059.08
521.17	2984.18
521.34	3009.93
521.52	3054.40
521.69	3108.23
521.86	3122.27
522.03	3122.27
522.20	3005.25
522.38	2850.77
522.55	2885.88
522.72	3019.29
522.89	3052.06
523.07	2970.14
523.24	3056.74
523.41	3089.51
523.58	3190.15
523.75	3122.27
523.92	3136.32
524.10	3103.55
524.27	3023.97
524.44	3091.85
524.61	3075.46
524.78	3007.59
524.96	3042.70
525.13	3122.27
525.30	3148.02
525.47	3131.64
525.64	3173.77
525.81	2993.55
525.98	2782.90
526.16	2675.23
526.33	2710.34
526.50	2789.92
526.67	2642.46
526.84	2813.32
527.01	2806.30
527.18	2984.18
527.36	3014.61
527.53	3070.78
527.70	3033.33
527.87	3056.74
528.04	2986.52
528.21	3215.90
528.38	3126.96
528.55	3098.87
528.72	3211.22
528.89	3234.62
529.07	3023.97
529.24	3045.04
529.41	2850.77
529.58	2986.52
529.75	2920.99
529.92	3101.21
530.09	3096.53
530.26	3126.96
530.43	3052.06
530.60	3173.77
530.77	3241.64
530.94	3246.32
531.11	3066.10
531.28	3159.72
531.46	3075.46
531.63	3042.70
531.80	2892.90
531.97	2946.73
532.14	2843.75
532.31	2719.70
532.48	2825.03
532.65	2850.77
532.82	2869.50
532.99	2979.50
533.16	3066.10
533.33	3136.32
533.50	2993.55
533.67	2813.32
533.84	3042.70
534.01	2972.48
534.18	2937.37
534.35	3047.38
534.52	3023.97
534.69	3089.51
534.86	3145.68
535.03	3096.53
535.20	3108.23
535.37	3197.17
535.54	3222.92
535.71	3056.74
535.88	3075.46
536.05	3000.57
536.22	2920.99
536.38	2977.16
536.55	2771.19
536.72	2853.11
536.89	2930.35
537.06	2998.23
537.23	3166.74
537.40	3059.08
537.57	3075.46
537.74	2991.20
537.91	2956.10
538.08	2939.71
538.25	3098.87
538.42	3066.10
538.59	3110.57
538.75	2998.23
538.92	2895.24
539.09	3007.59
539.26	2956.10
539.43	2920.99
539.60	2869.50
539.77	2920.99
539.94	2953.76
540.11	2827.37
540.28	2930.35
540.44	2902.26
540.61	2780.56
540.78	3002.91
540.95	3061.42
541.12	3049.72
541.29	3073.12
541.46	3136.32
541.62	3094.19
541.79	3126.96
541.96	2906.95
542.13	3002.91
542.30	2935.03
542.47	3002.91
542.63	2956.10
542.80	2935.03
542.97	3023.97
543.14	2881.20
543.31	2916.31
543.48	3148.02
543.64	3091.85
543.81	3094.19
543.98	3049.72
544.15	2892.90
544.32	2920.99
544.48	3061.42
544.65	3038.02
544.82	3122.27
544.99	3119.93
545.16	3068.44
545.32	3028.65
545.49	3410.16
545.66	3307.18
545.83	3131.64
546.00	2988.86
546.16	2855.45
546.33	3005.25
546.50	2984.18
546.67	2935.03
546.83	3061.42
547.00	2874.18
547.17	2738.43
547.34	2822.69
547.50	2825.03
547.67	2916.31
547.84	2881.20
548.00	2958.44
548.17	3045.04
548.34	2932.69
548.51	2913.97
548.67	2937.37
548.84	2920.99
549.01	2958.44
549.18	2979.50
549.34	2935.03
549.51	2935.03
549.68	2979.50
549.84	2876.52
550.01	2775.88
550.18	2928.01
550.34	2843.75
550.51	2855.45
550.68	2862.48
550.84	2904.60
551.01	2796.94
551.18	2710.34
551.34	2904.60
551.51	2911.63
551.68	2876.52
551.84	2946.73
552.01	2855.45
552.18	2806.30
552.34	2801.62
552.51	2860.13
552.68	2874.18
552.84	2848.43
553.01	2855.45
553.18	2848.43
553.34	2815.66
553.51	2719.70
553.67	2803.96
553.84	2939.71
554.01	2862.48
554.17	2792.26
554.34	2750.13
554.51	2963.12
554.67	2960.78
554.84	2839.07
555.00	2836.73
555.17	2878.86
555.33	2773.53
555.50	2705.66
555.67	2867.16
555.83	2923.33
556.00	2649.49
556.16	2876.52
556.33	2731.41
556.50	2679.91
556.66	2670.55
556.83	2759.49
556.99	2661.19
557.16	2649.49
557.32	2731.41
557.49	2834.39
557.65	2757.15
557.82	2686.94
557.98	2757.15
558.15	2565.23
558.32	2516.08
558.48	2705.66
558.65	2576.93
558.81	2579.27
558.98	2548.84
559.14	2665.87
559.31	2750.13
559.47	2595.65
559.64	2686.94
559.80	2609.70
559.97	2567.57
560.13	2684.59
560.30	2661.19
560.46	2637.78
560.63	2649.49
560.79	2778.22
560.96	2700.98
561.12	2658.85
561.29	2504.37
561.45	2630.76
561.61	2623.74
561.78	2813.32
561.94	2548.84
562.11	2534.80
562.27	2495.01
562.44	2642.46
562.60	2677.57
562.77	2588.63
562.93	2640.12
563.10	2682.25
563.26	2621.40
563.42	2626.08
563.59	2569.91
563.75	2644.81
563.92	2590.97
564.08	2497.35
564.24	2576.93
564.41	2642.46
564.57	2621.40
564.74	2502.03
564.90	2492.67
565.07	2476.29
565.23	2466.92
565.39	2326.49
565.56	2558.21
565.72	2349.90
565.88	2539.48
566.05	2539.48
566.21	2436.50
566.38	2480.97
566.54	2326.49
566.70	2532.46
566.87	2562.89
567.03	2525.44
567.19	2502.03
567.36	2347.56
567.52	2417.77
567.68	2509.05
567.85	2546.50
568.01	2450.54
568.17	2354.58
568.34	2464.58
568.50	2403.73
568.66	2324.15
568.83	2427.14
568.99	2469.27
569.15	2399.05
569.32	2370.96
569.48	2279.68
569.64	2310.11
569.81	2413.09
569.97	2256.28
570.13	2284.36
570.30	2310.11
570.46	2176.70
570.62	2228.19
570.78	2286.70
570.95	2267.98
571.11	2331.17
571.27	2340.54
571.43	2293.72
571.60	2401.39
571.76	2436.50
571.92	2335.85
572.09	2476.29
572.25	2300.75
572.41	2272.66
572.57	2434.16
572.74	2347.56
572.90	2338.20
573.06	2340.54
573.22	2310.11
573.38	2314.79
573.55	2286.70
573.71	2373.30
573.87	2275.00
574.03	2211.81
574.20	2249.25
574.36	2253.94
574.52	2228.19
574.68	2256.28
574.84	2223.51
575.01	2218.83
575.17	2256.28
575.33	2202.44
575.49	2260.96
575.65	2296.07
575.82	2232.87
575.98	2253.94
576.14	2328.83
576.30	2389.69
576.46	2422.45
576.62	2399.05
576.79	2277.34
576.95	2347.56
577.11	2134.57
577.27	2179.04
577.43	2216.49
577.59	2181.38
577.75	2218.83
577.92	2115.84
578.08	2099.46
578.24	2256.28
578.40	2410.75
578.56	2415.43
578.72	2293.72
578.88	2345.22
579.04	2380.32
579.21	2223.51
579.37	2349.90
579.53	2422.45
579.69	2303.09
579.85	2377.98
580.01	2218.83
580.17	2235.21
580.33	2275.00
580.49	2279.68
580.65	2246.91
580.82	2331.17
580.98	2286.70
581.14	2305.43
581.30	2258.62
581.46	2314.79
581.62	2289.04
581.78	2408.41
581.94	2396.71
582.10	2270.32
582.26	2345.22
582.42	2267.98
582.58	2312.45
582.74	2307.77
582.90	2303.09
583.06	2392.03
583.22	2312.45
583.38	2328.83
583.54	2235.21
583.70	2382.67
583.86	2413.09
584.02	2216.49
584.18	2317.13
584.34	2272.66
584.50	2207.13
584.66	2296.07
584.82	2272.66
584.98	2235.21
585.14	2186.06
585.30	2237.55
585.46	2190.74
585.62	2242.23
585.78	2113.50
585.94	2251.60
586.10	2207.13
586.26	2216.49
586.42	2246.91
586.58	2160.31
586.74	2209.47
586.90	2267.98
587.06	2108.82
587.22	2129.89
587.38	2106.48
587.54	2197.76
587.70	1998.82
587.86	2024.56
588.02	1935.62
588.18	1886.47
588.34	1792.85
588.49	1715.61
588.65	1844.34
588.81	1879.45
588.97	1600.93
589.13	1722.63
589.29	1640.72
589.45	1755.40
589.61	1923.92
589.77	1968.39
589.93	2008.18
590.08	2057.33
590.24	2059.67
590.40	1944.99
590.56	2038.61
590.72	1956.69
590.88	1900.52
591.04	1942.64
591.20	1912.22
591.35	1975.41
591.51	1970.73
591.67	1980.09
591.83	1935.62
591.99	1916.90
592.15	2087.76
592.31	1858.39
592.46	2073.71
592.62	1940.30
592.78	1973.07
592.94	1968.39
593.10	2008.18
593.26	1930.94
593.41	1980.09
593.57	1905.20
593.73	1846.68
593.89	1856.04
594.05	1830.30
594.20	1771.79
594.36	1961.37
594.52	1968.39
594.68	2022.22
594.84	2059.67
594.99	1963.71
595.15	1980.09
595.31	1865.41
595.47	2012.86
595.62	1893.49
595.78	2029.24
595.94	2143.93
596.10	1987.11
596.25	1912.22
596.41	1916.90
596.57	1966.05
596.73	1856.04
596.88	1872.43
597.04	1863.07
597.20	1858.39
597.36	1935.62
597.51	1954.35
597.67	2047.97
597.83	1963.71
597.99	1991.80
598.14	2005.84
598.30	2005.84
598.46	1891.15
598.61	2033.93
