SpectraSuite Data File
++++++++++++++++++++++++++++++++++++
Date: Mon Sep 30 18:11:42 GMT-05:00 2013
User: stostad
Dark Spectrum Present: No
Reference Spectrum Present: No
Number of Sampled Component Spectra: 1
Spectrometers: USB2+H05261
Integration Time (usec): 100000 (USB2+H05261)
Spectra Averaged: 1 (USB2+H05261)
Boxcar Smoothing: 0 (USB2+H05261)
Correct for Electrical Dark: No (USB2+H05261)
Strobe/Lamp Enabled: No (USB2+H05261)
Correct for Detector Non-linearity: No (USB2+H05261)
Correct for Stray Light: No (USB2+H05261)
Number of Pixels in Processed Spectrum: 2048
>>>>>Begin Processed Spectral Data<<<<<
365.73	163.84
365.92	163.84
366.12	163.84
366.32	79.58
366.52	16.38
366.72	44.47
366.91	39.79
367.11	0.00
367.31	0.00
367.51	0.00
367.70	37.45
367.90	49.15
368.10	18.72
368.30	44.47
368.49	0.00
368.69	23.41
368.89	0.00
369.09	23.41
369.28	18.72
369.48	77.24
369.68	58.51
369.87	119.37
370.07	53.83
370.27	51.49
370.47	149.79
370.66	348.74
370.86	341.72
371.06	402.57
371.25	423.64
371.45	367.46
371.65	465.77
371.84	397.89
372.04	334.70
372.24	325.33
372.44	386.19
372.63	390.87
372.83	461.09
373.03	430.66
373.22	430.66
373.42	388.53
373.62	409.59
373.81	454.06
374.01	559.39
374.21	421.30
374.40	484.49
374.60	517.26
374.79	470.45
374.99	475.13
375.19	500.87
375.38	606.20
375.58	517.26
375.78	566.41
375.97	550.03
376.17	512.58
376.37	596.84
376.56	468.11
376.76	538.32
376.95	550.03
377.15	545.34
377.35	552.37
377.54	498.53
377.74	528.96
377.93	578.11
378.13	568.75
378.33	566.41
378.52	622.58
378.72	575.77
378.91	573.43
379.11	561.73
379.31	559.39
379.50	547.69
379.70	538.32
379.89	472.79
380.09	578.11
380.28	582.79
380.48	608.54
380.68	580.45
380.87	571.09
381.07	634.29
381.26	678.76
381.46	599.18
381.65	610.88
381.85	650.67
382.04	568.75
382.24	748.97
382.43	627.26
382.63	575.77
382.83	634.29
383.02	575.77
383.22	751.31
383.41	617.90
383.61	580.45
383.80	706.84
384.00	671.73
384.19	610.88
384.39	716.20
384.58	702.16
384.78	711.52
384.97	638.97
385.17	739.61
385.36	620.24
385.56	711.52
385.75	746.63
385.95	685.78
386.14	709.18
386.34	699.82
386.53	706.84
386.72	704.50
386.92	795.78
387.11	730.25
387.31	788.76
387.50	767.70
387.70	753.65
387.89	737.27
388.09	779.40
388.28	697.48
388.48	851.96
388.67	760.67
388.86	770.04
389.06	851.96
389.25	744.29
389.45	807.48
389.64	809.83
389.84	849.61
390.03	880.04
390.22	812.17
390.42	821.53
390.61	915.15
390.81	814.51
391.00	837.91
391.19	835.57
391.39	917.49
391.58	943.24
391.78	952.60
391.97	968.98
392.16	922.17
392.36	1001.75
392.55	936.21
392.75	964.30
392.94	1011.11
393.13	964.30
393.33	917.49
393.52	931.53
393.71	1090.69
393.91	1013.45
394.10	924.51
394.29	1032.18
394.49	1043.88
394.68	999.41
394.88	1083.67
395.07	1116.44
395.26	987.71
395.46	1114.10
395.65	1090.69
395.84	1107.07
396.04	1088.35
396.23	1057.92
396.42	1081.33
396.62	1151.54
396.81	1158.57
397.00	1090.69
397.19	1048.56
397.39	1184.31
397.58	1186.65
397.77	1095.37
397.97	1153.88
398.16	1100.05
398.35	1233.46
398.55	1203.04
398.74	1188.99
398.93	1238.14
399.12	1217.08
399.32	1200.69
399.51	1282.61
399.70	1268.57
399.90	1315.38
400.09	1291.98
400.28	1373.89
400.47	1416.02
400.67	1334.11
400.86	1226.44
401.05	1228.78
401.24	1371.55
401.44	1273.25
401.63	1376.24
401.82	1338.79
402.01	1334.11
402.21	1444.11
402.40	1474.54
402.59	1486.24
402.78	1453.47
402.97	1416.02
403.17	1474.54
403.36	1430.07
403.55	1465.18
403.74	1526.03
403.93	1565.82
404.13	1544.75
404.32	1607.95
404.51	1593.90
404.70	1701.57
404.89	1565.82
405.09	1661.78
405.28	1579.86
405.47	1589.22
405.66	1696.89
405.85	1631.35
406.05	1739.02
406.24	1692.21
406.43	1645.40
406.62	1717.95
406.81	1706.25
407.00	1692.21
407.20	1732.00
407.39	1750.72
407.58	1916.90
407.77	1863.07
407.96	1870.09
408.15	1867.75
408.34	1856.04
408.54	1834.98
408.73	1935.62
408.92	1914.56
409.11	1888.81
409.30	1940.30
409.49	1884.13
409.68	1870.09
409.87	1884.13
410.07	2033.93
410.26	2134.57
410.45	2094.78
410.64	2073.71
410.83	2071.37
411.02	2083.08
411.21	2214.15
411.40	2059.67
411.59	2228.19
411.78	2054.99
411.98	2148.61
412.17	2141.59
412.36	2256.28
412.55	2399.05
412.74	2221.17
412.93	2408.41
413.12	2291.38
413.31	2490.33
413.50	2345.22
413.69	2396.71
413.88	2466.92
414.07	2420.11
414.26	2530.12
414.45	2499.69
414.64	2431.82
414.83	2499.69
415.02	2715.02
415.22	2590.97
415.41	2586.29
415.60	2642.46
415.79	2614.38
415.98	2574.59
416.17	2691.62
416.36	2724.38
416.55	2705.66
416.74	2778.22
416.93	2757.15
417.12	2789.92
417.31	3007.59
417.50	2930.35
417.69	2963.12
417.88	2918.65
418.07	2801.62
418.26	2920.99
418.45	2967.80
418.64	3021.63
418.83	2998.23
419.02	3073.12
419.21	3150.36
419.39	3080.14
419.58	2991.20
419.77	3016.95
419.96	3096.53
420.15	3082.49
420.34	3133.98
420.53	3290.79
420.72	3185.47
420.91	3267.39
421.10	3368.03
421.29	3267.39
421.48	3328.24
421.67	3332.92
421.86	3169.09
422.05	3169.09
422.24	3300.16
422.43	3307.18
422.61	3314.20
422.80	3302.50
422.99	3417.18
423.18	3321.22
423.37	3428.88
423.56	3377.39
423.75	3391.44
423.94	3361.01
424.13	3204.19
424.32	3391.44
424.50	3576.34
424.69	3300.16
424.88	3407.82
425.07	3445.27
425.26	3478.04
425.45	3478.04
425.64	3421.86
425.83	3407.82
426.01	3442.93
426.20	3506.12
426.39	3559.95
426.58	3405.48
426.77	3435.91
426.96	3538.89
427.15	3538.89
427.33	3559.95
427.52	3522.51
427.71	3578.68
427.90	3389.10
428.09	3646.55
428.28	3576.34
428.46	3454.63
428.65	3735.50
428.84	3648.90
429.03	3536.55
429.22	3351.65
429.40	3524.85
429.59	3606.77
429.78	3461.65
429.97	3428.88
430.16	3473.36
430.34	3447.61
430.53	3651.24
430.72	3515.48
430.91	3506.12
431.10	3456.97
431.28	3667.62
431.47	3616.13
431.66	3688.68
431.85	3564.64
432.03	3885.29
432.22	3831.46
432.41	3880.61
432.60	3789.33
432.79	3810.39
432.97	3925.08
433.16	3946.14
433.35	3992.95
433.54	4023.38
433.72	4210.62
433.91	3918.06
434.10	3969.55
434.28	3955.51
434.47	4166.15
434.66	4070.19
434.85	4175.52
435.03	4404.89
435.22	4411.91
435.41	4664.69
435.59	4615.54
435.78	4297.22
435.97	4273.82
436.16	4395.53
436.34	4381.48
436.53	4477.44
436.72	4528.94
436.90	4505.53
437.09	4622.56
437.28	4507.87
437.46	4542.98
437.65	4533.62
437.84	4723.20
438.02	4692.77
438.21	4629.58
438.40	4596.81
438.58	4837.89
438.77	4812.14
438.96	4704.48
439.14	4915.12
439.33	4762.99
439.52	4926.83
439.70	4915.12
439.89	4964.28
440.08	5114.07
440.26	5121.09
440.45	4992.36
440.63	5057.90
440.82	5242.80
441.01	5156.20
441.19	5313.02
441.38	5263.86
441.57	5327.06
441.75	5364.51
441.94	5451.11
442.12	5586.86
442.31	5556.43
442.50	5497.92
442.68	5453.45
442.87	5530.69
443.05	5556.43
443.24	5647.71
443.43	5703.89
443.61	5839.64
443.80	5907.51
443.98	5582.18
444.17	5350.46
444.35	5600.90
444.54	5764.74
444.73	5909.85
444.91	5582.18
445.10	5771.76
445.28	5813.89
445.47	5692.18
445.65	5818.57
445.84	5727.29
446.02	5963.68
446.21	5743.67
446.39	5783.46
446.58	5877.09
446.77	5823.25
446.95	5757.72
447.14	5849.00
447.32	5909.85
447.51	5935.60
447.69	5970.71
447.88	5884.11
448.06	5738.99
448.25	5813.89
448.43	5907.51
448.62	5813.89
448.80	5813.89
448.99	5902.83
449.17	6050.28
449.36	5963.68
449.54	6190.72
449.73	5996.45
449.91	6122.84
450.10	6136.88
450.28	6274.98
450.46	6237.53
450.65	6328.81
450.83	6181.35
451.02	6263.27
451.20	6092.41
451.39	6228.17
451.57	6188.38
451.76	6239.87
451.94	6150.93
452.13	6321.79
452.31	6270.30
452.49	6122.84
452.68	6352.21
452.86	6466.90
453.05	6502.01
453.23	6387.32
453.42	6511.37
453.60	6356.90
453.78	6499.67
453.97	6359.24
454.15	6424.77
454.34	6408.39
454.52	6719.68
454.70	6516.05
454.89	6670.53
455.07	6509.03
455.26	6586.27
455.44	6583.93
455.62	6658.82
455.81	6647.12
455.99	6513.71
456.17	6581.59
456.36	6656.48
456.54	6909.26
456.73	6993.52
456.91	6869.47
457.09	6925.65
457.28	7005.22
457.46	6960.75
457.64	6874.15
457.83	6883.52
458.01	7115.23
458.19	7080.12
458.38	6988.84
458.56	7077.78
458.74	6953.73
458.93	6963.09
459.11	6913.94
459.29	6918.62
459.48	7344.60
459.66	7148.00
459.84	7190.13
460.03	7211.19
460.21	7461.63
460.39	7274.38
460.57	7269.70
460.76	7302.47
460.94	7578.65
461.12	7253.32
461.31	7297.79
461.49	7487.37
461.67	7363.33
461.85	7662.91
462.04	7398.43
462.22	7478.01
462.40	7744.83
462.59	7527.16
462.77	7658.23
462.95	7747.17
463.13	7562.27
463.32	7552.91
463.50	7609.08
463.68	7915.69
463.86	7948.46
464.05	7681.64
464.23	7779.94
464.41	7597.38
464.59	7751.85
464.78	8013.99
464.96	7833.77
465.14	7789.30
465.32	8060.80
465.50	7957.82
465.69	7911.01
465.87	7786.96
466.05	7981.23
466.23	8002.29
466.41	8107.62
466.60	7946.12
466.78	7939.10
466.96	8018.68
467.14	7967.18
467.32	8205.92
467.51	8133.36
467.69	7887.61
467.87	8156.77
468.05	8002.29
468.23	8018.68
468.41	8147.40
468.60	8248.05
468.78	8100.59
468.96	8301.88
469.14	8393.16
469.32	8442.31
469.50	8046.76
469.69	8379.12
469.87	8414.23
470.05	8358.05
470.23	8442.31
470.41	8418.91
470.59	8695.09
470.77	8245.71
470.95	8688.07
471.14	8624.87
471.32	8578.06
471.50	8667.00
471.68	8594.45
471.86	8723.18
472.04	8578.06
472.22	8903.40
472.40	8676.37
472.58	8793.39
472.77	8802.75
472.95	8910.42
473.13	8910.42
473.31	8769.99
473.49	8933.82
473.67	8954.89
473.85	8690.41
474.03	9142.13
474.21	9055.53
474.39	9284.91
474.57	9291.93
474.75	9399.59
474.93	9675.77
475.12	9549.39
475.30	9500.23
475.48	9565.77
475.66	9673.43
475.84	9568.11
476.02	9832.59
476.20	9736.63
476.38	10076.01
476.56	10111.11
476.74	10036.22
476.92	10068.98
477.10	10122.82
477.28	10284.31
477.46	10097.07
477.64	10225.80
477.82	10525.39
478.00	10700.93
478.18	10729.02
478.36	10909.24
478.54	10675.18
478.72	11070.73
478.90	11281.38
479.08	11105.84
479.26	11267.34
479.44	11496.71
479.62	11501.39
479.80	11623.10
479.98	11690.98
480.16	12067.80
480.34	11885.24
480.52	12084.19
480.70	12030.35
480.88	11880.56
481.06	12049.08
481.24	12166.10
481.41	12559.31
481.59	12821.45
481.77	12615.49
481.95	12760.60
482.13	12837.84
482.31	12844.86
482.49	13249.77
482.67	13254.45
482.85	13532.98
483.03	13701.50
483.21	13706.18
483.39	14001.08
483.57	13848.95
483.74	14132.15
483.92	14326.42
484.10	14258.54
484.28	14480.89
484.46	14817.93
484.64	14993.47
484.82	14782.82
485.00	15084.75
485.18	15590.31
485.35	15466.26
485.53	15564.56
485.71	15576.27
485.89	15859.47
486.07	15737.76
486.25	16051.39
486.43	15831.38
486.61	16334.60
486.78	16280.77
486.96	16507.80
487.14	16493.76
487.32	16716.11
487.50	17095.27
487.68	17011.01
487.85	17081.23
488.03	17401.88
488.21	17600.83
488.39	17638.28
488.57	17706.15
488.75	17846.58
488.92	18202.35
489.10	18335.76
489.28	18029.15
489.46	18342.78
489.64	18504.28
489.81	18817.91
489.99	18707.90
490.17	19168.99
490.35	18993.45
490.53	19286.01
490.70	19293.04
490.88	19300.06
491.06	19772.85
491.24	19524.75
491.41	19723.69
491.59	19845.40
491.77	19789.23
491.95	20130.95
492.13	20088.82
492.30	20453.94
492.48	20339.26
492.66	20769.91
492.84	20638.84
493.01	21046.10
493.19	20680.97
493.37	21298.88
493.54	20982.90
493.72	21549.31
493.90	21336.32
494.08	21366.75
494.25	21933.16
494.43	21640.59
494.61	21879.33
494.79	22038.48
494.96	21741.24
495.14	21884.01
495.32	22312.33
495.49	22324.03
495.67	22293.60
495.85	22609.58
496.02	22768.73
496.20	22932.57
496.38	22689.15
496.55	22937.25
496.73	23667.50
496.91	23192.37
497.09	22958.31
497.26	23335.14
497.44	23236.84
497.62	23641.75
497.79	23613.66
497.97	23786.86
498.14	23882.83
498.32	23789.20
498.50	23800.91
498.67	23747.08
498.85	23978.79
499.03	24105.18
499.20	23983.47
499.38	24070.07
499.56	24285.40
499.73	24381.36
499.91	24346.25
500.08	24533.50
500.26	24210.50
500.44	24601.37
500.61	24819.04
500.79	24786.27
500.97	24507.75
501.14	24816.70
501.32	24755.85
501.49	25109.27
501.67	24936.07
501.84	25139.69
502.02	24919.68
502.20	24907.98
502.37	25263.74
502.55	25020.33
502.72	25048.41
502.90	25317.57
503.07	25443.96
503.25	25635.89
503.43	25401.83
503.60	25465.03
503.78	25296.51
503.95	25418.22
504.13	25556.31
504.30	25607.80
504.48	25738.87
504.65	25610.14
504.83	25678.02
505.01	25809.09
505.18	25741.21
505.36	26010.37
505.53	25666.31
505.71	25993.99
505.88	25876.96
506.06	25467.37
506.23	25820.79
506.41	25804.41
506.58	25827.81
506.76	26094.63
506.93	26174.21
507.11	26251.45
507.28	26281.88
507.46	25898.03
507.63	26026.76
507.81	26242.09
507.98	25525.88
508.16	26003.35
508.33	26106.34
508.50	26214.00
508.68	25783.34
508.85	25652.27
509.03	26085.27
509.20	25914.41
509.38	25750.57
509.55	25855.90
509.73	26073.57
509.90	25771.64
510.08	25720.15
510.25	25343.32
510.42	25488.43
510.60	25535.24
510.77	25558.65
510.95	25663.97
511.12	25298.85
511.30	25221.61
511.47	25301.19
511.64	25010.96
511.82	25383.11
511.99	24716.06
512.17	25036.71
512.34	25181.82
512.51	25467.37
512.69	25333.96
512.86	24840.11
513.04	25324.60
513.21	25106.93
513.38	25235.66
513.56	25355.02
513.73	25041.39
513.90	25666.31
514.08	25685.04
514.25	25483.75
514.43	25710.78
514.60	25640.57
514.77	25582.06
514.95	25633.55
515.12	26085.27
515.29	26202.30
515.47	26328.69
515.64	26848.29
515.81	26810.84
515.99	27035.53
516.16	27030.85
516.33	27030.85
516.51	27292.99
516.68	27503.64
516.85	27538.74
517.03	27620.66
517.20	27733.01
517.37	27761.09
517.54	27871.10
517.72	27768.12
517.89	28046.64
518.06	28081.75
518.24	28240.90
518.41	28407.08
518.58	28519.43
518.75	28589.64
518.93	28720.71
519.10	28636.45
519.27	28858.81
519.45	28804.97
519.62	29036.69
519.79	29090.52
519.96	29001.58
520.14	29090.52
520.31	28884.55
520.48	29095.20
520.65	28966.47
520.83	28936.04
521.00	29490.75
521.17	28961.79
521.34	28713.69
521.52	28828.38
521.69	28430.49
521.86	28755.82
522.03	28166.01
522.20	28318.14
522.38	27957.70
522.55	27835.99
522.72	27536.40
522.89	27292.99
523.07	27513.00
523.24	27124.47
523.41	26724.24
523.58	26895.10
523.75	26735.94
523.92	26569.76
524.10	26740.62
524.27	26366.13
524.44	26286.56
524.61	26354.43
524.78	26078.25
524.96	26347.41
525.13	26274.85
525.30	26410.60
525.47	26558.06
525.64	26008.03
525.81	26384.86
525.98	26272.51
526.16	26094.63
526.33	26064.21
526.50	26803.82
526.67	26052.50
526.84	26469.12
527.01	26136.76
527.18	25909.73
527.36	26232.72
527.53	25898.03
527.70	26511.25
527.87	26118.04
528.04	25972.92
528.21	26291.24
528.38	25914.41
528.55	26167.19
528.72	26043.14
528.89	26256.13
529.07	25298.85
529.24	25979.95
529.41	26415.29
529.58	26438.69
529.75	26206.98
529.92	26658.70
530.09	26597.85
530.26	26499.55
530.43	26583.80
530.60	26593.17
530.77	26499.55
530.94	26878.71
531.11	27014.46
531.28	27072.98
531.46	27494.27
531.63	27599.60
531.80	27798.54
531.97	27803.22
532.14	27772.80
532.31	27901.53
532.48	28217.50
532.65	28531.13
532.82	28416.44
532.99	28624.75
533.16	28638.80
533.33	28931.36
533.50	30085.25
533.67	29954.18
533.84	29862.90
534.01	30195.25
534.18	30621.23
534.35	30946.56
534.52	31185.30
534.69	31735.32
534.86	31765.75
535.03	31957.67
535.20	32074.70
535.37	32730.05
535.54	32823.67
535.71	33120.92
535.88	33078.79
536.05	33675.63
536.22	33762.23
536.38	33799.68
536.55	34125.01
536.72	34274.80
536.89	34452.69
537.06	34082.88
537.23	35421.67
537.40	35534.01
537.57	35709.55
537.74	35969.35
537.91	36233.83
538.08	36458.52
538.25	36102.76
538.42	36713.64
538.59	37350.27
538.75	37008.55
538.92	37460.27
539.09	37404.10
539.26	37385.38
539.43	38305.21
539.60	37518.79
539.77	38267.76
539.94	38813.10
540.11	39140.78
540.28	38955.88
540.44	39215.68
540.61	39482.50
540.78	39494.20
540.95	39758.68
541.12	39859.32
541.29	40046.57
541.46	39889.75
541.62	40273.60
541.79	40884.48
541.96	40360.20
542.13	40847.03
542.30	41226.20
542.47	41322.16
542.63	41390.03
542.80	41294.07
542.97	41876.86
543.14	42363.70
543.31	42043.04
543.48	42059.43
543.64	42752.23
543.81	42731.16
543.98	42672.65
544.15	42373.06
544.32	42525.19
544.48	43000.32
544.65	42705.41
544.82	42820.10
544.99	42979.26
545.16	43180.54
545.32	43194.59
545.49	44055.90
545.66	44107.40
545.83	43728.23
546.00	43990.37
546.16	44023.14
546.33	43328.00
546.50	43981.01
546.67	44320.38
546.83	43662.69
547.00	43711.84
547.17	43634.61
547.34	44088.67
547.50	43889.73
547.67	44500.61
547.84	44217.40
548.00	44582.52
548.17	44938.29
548.34	44657.42
548.51	44746.36
548.67	44615.29
548.84	44533.37
549.01	44472.52
549.18	44615.29
549.34	44641.04
549.51	45010.84
549.68	45411.07
549.84	45088.08
550.01	45139.57
550.18	45144.25
550.34	44715.93
550.51	44854.03
550.68	44999.14
550.84	44727.64
551.01	45551.51
551.18	45382.99
551.34	45251.92
551.51	45521.08
551.68	45544.48
551.84	45610.02
552.01	45392.35
552.18	45179.36
552.34	44900.84
552.51	45270.64
552.68	45329.16
552.84	45223.83
553.01	45558.53
553.18	45507.04
553.34	45467.25
553.51	45661.51
553.67	45460.23
553.84	45813.65
554.01	45624.06
554.17	45738.75
554.34	46120.26
554.51	45848.75
554.67	46234.94
554.84	46021.95
555.00	45631.08
555.17	45343.20
555.33	45979.82
555.50	46014.93
555.67	45642.79
555.83	46000.89
556.00	46157.70
556.16	46382.40
556.33	45956.42
556.50	46469.00
556.66	46363.67
556.83	45738.75
556.99	46005.57
557.16	46071.10
557.32	46623.47
557.49	46192.81
557.65	46155.36
557.82	46270.05
557.98	46277.07
558.15	46043.02
558.32	46347.29
558.48	46087.49
558.65	46333.24
558.81	46616.45
558.98	45965.78
559.14	46073.45
559.31	46534.53
559.47	46265.37
559.64	46656.24
559.80	46656.24
559.97	46288.77
560.13	46124.94
560.30	46078.13
560.46	46258.35
560.63	46248.99
560.79	45841.73
560.96	46333.24
561.12	46316.86
561.29	46555.60
561.45	46024.29
561.61	46089.83
561.78	45790.24
561.94	45869.82
562.11	45663.85
562.27	45830.03
562.44	45366.60
562.60	45989.19
562.77	45993.87
562.93	45441.50
563.10	46213.88
563.26	45514.06
563.42	45511.72
563.59	45275.32
563.75	45443.84
563.92	44952.33
564.08	45249.58
564.24	45029.57
564.41	44854.03
564.57	44547.42
564.74	44428.05
564.90	44406.98
565.07	43964.62
565.23	43753.97
565.39	43255.44
565.56	43533.96
565.72	42529.87
565.88	42684.35
566.05	42272.42
566.21	41961.12
566.38	41741.11
566.54	41191.09
566.70	40680.85
566.87	40727.66
567.03	39849.96
567.19	39536.33
567.36	38354.36
567.52	37926.04
567.68	37090.47
567.85	36540.44
568.01	35461.46
568.17	34761.64
568.34	34082.88
568.50	33095.18
568.66	31770.43
568.83	31168.91
568.99	30071.20
569.15	28945.41
569.32	27899.19
569.48	26628.27
569.64	25729.51
569.81	24762.87
569.97	23861.76
570.13	23030.87
570.30	21886.35
570.46	21474.42
570.62	20372.02
570.78	19910.94
570.95	19246.23
571.11	18735.99
571.27	18293.63
571.43	17551.68
571.60	17144.42
571.76	16931.44
571.92	16458.65
572.09	16248.00
572.25	16056.08
572.41	15850.11
572.57	15662.86
572.74	15669.89
572.90	15374.98
573.06	15473.28
573.22	15580.95
573.38	15768.19
573.55	15620.74
573.71	15494.35
573.87	15332.85
574.03	15459.24
574.20	15730.74
574.36	15566.90
574.52	15885.22
574.68	15997.56
574.84	15789.25
575.01	16283.11
575.17	15838.41
575.33	16088.84
575.49	16259.70
575.65	15915.64
575.82	16142.67
575.98	15948.41
576.14	16280.77
576.30	16332.26
576.46	16512.48
576.62	16259.70
576.79	16400.13
576.95	16156.72
577.11	16837.81
577.27	16676.32
577.43	16446.94
577.59	16795.68
577.75	17020.38
577.92	16884.62
578.08	16872.92
578.24	17331.67
578.40	17205.28
578.56	17481.46
578.72	17252.09
578.88	17425.29
579.04	17598.49
579.21	17357.41
579.37	17303.58
579.53	17671.04
579.69	17542.32
579.85	17593.81
580.01	17666.36
580.17	17591.47
580.33	17298.90
580.49	17408.90
580.65	16821.43
580.82	16774.62
580.98	16411.84
581.14	16231.62
581.30	16226.93
581.46	15592.65
581.62	15374.98
581.78	14906.87
581.94	14803.89
582.10	14377.91
582.26	14031.51
582.42	13870.01
582.58	13259.13
582.74	13128.06
582.90	12615.49
583.06	12435.27
583.22	11999.93
583.38	11967.16
583.54	11702.68
583.70	11503.73
583.86	11115.20
584.02	11225.21
584.18	10923.28
584.34	10740.72
584.50	10836.68
584.66	10761.78
584.82	10452.83
584.98	10602.63
585.14	10626.03
585.30	10658.80
585.46	10799.23
585.62	10574.54
585.78	10775.83
585.94	10911.58
586.10	11281.38
586.26	11042.65
586.42	11257.98
586.58	11693.32
586.74	11810.34
586.90	12002.27
587.06	11978.86
587.22	12154.40
587.38	12542.93
587.54	12491.44
587.70	12996.99
587.86	12943.16
588.02	13170.19
588.18	13390.20
588.34	13657.03
588.49	13848.95
588.65	14281.95
588.81	14387.27
588.97	14782.82
589.13	15005.17
589.29	15023.90
589.45	15143.27
589.61	15630.10
589.77	15800.96
589.93	15803.30
590.08	15906.28
590.24	16322.90
590.40	16269.06
