SpectraSuite Data File
++++++++++++++++++++++++++++++++++++
Date: Mon Sep 30 18:11:50 GMT-05:00 2013
User: stostad
Dark Spectrum Present: No
Reference Spectrum Present: No
Number of Sampled Component Spectra: 1
Spectrometers: USB2+H05261
Integration Time (usec): 100000 (USB2+H05261)
Spectra Averaged: 1 (USB2+H05261)
Boxcar Smoothing: 0 (USB2+H05261)
Correct for Electrical Dark: No (USB2+H05261)
Strobe/Lamp Enabled: No (USB2+H05261)
Correct for Detector Non-linearity: No (USB2+H05261)
Correct for Stray Light: No (USB2+H05261)
Number of Pixels in Processed Spectrum: 2048
>>>>>Begin Processed Spectral Data<<<<<
365.73	79.58
365.92	79.58
366.12	79.58
366.32	44.47
366.52	0.00
366.72	74.90
366.91	53.83
367.11	18.72
367.31	21.06
367.51	37.45
367.70	42.13
367.90	0.00
368.10	0.00
368.30	4.68
368.49	28.09
368.69	0.00
368.89	0.00
369.09	65.54
369.28	102.98
369.48	100.64
369.68	58.51
369.87	7.02
370.07	86.60
370.27	110.01
370.47	86.60
370.66	259.80
370.86	278.52
371.06	257.46
371.25	280.86
371.45	264.48
371.65	351.08
371.84	187.24
372.04	287.89
372.24	250.44
372.44	313.63
372.63	372.15
372.83	339.38
373.03	266.82
373.22	330.02
373.42	346.40
373.62	358.10
373.81	280.86
374.01	292.57
374.21	294.91
374.40	346.40
374.60	320.65
374.79	395.55
374.99	341.72
375.19	456.40
375.38	381.51
375.58	423.64
375.78	409.59
375.97	418.96
376.17	456.40
376.37	374.49
376.56	337.04
376.76	458.74
376.95	447.04
377.15	484.49
377.35	421.30
377.54	433.00
377.74	400.23
377.93	454.06
378.13	470.45
378.33	491.51
378.52	423.64
378.72	358.10
378.91	421.30
379.11	423.64
379.31	278.52
379.50	367.46
379.70	395.55
379.89	500.87
380.09	440.02
380.28	381.51
380.48	369.80
380.68	461.09
380.87	402.57
381.07	416.62
381.26	444.70
381.46	341.72
381.65	376.83
381.85	325.33
382.04	337.04
382.24	334.70
382.43	339.38
382.63	332.36
382.83	346.40
383.02	383.85
383.22	358.10
383.41	337.04
383.61	355.76
383.80	365.12
384.00	440.02
384.19	402.57
384.39	402.57
384.58	313.63
384.78	440.02
384.97	444.70
385.17	447.04
385.36	409.59
385.56	397.89
385.75	327.68
385.95	402.57
386.14	430.66
386.34	367.46
386.53	346.40
386.72	313.63
386.92	409.59
387.11	510.24
387.31	435.34
387.50	386.19
387.70	482.15
387.89	491.51
388.09	367.46
388.28	409.59
388.48	318.31
388.67	479.81
388.86	472.79
389.06	400.23
389.25	535.98
389.45	512.58
389.64	510.24
389.84	475.13
390.03	498.53
390.22	444.70
390.42	500.87
390.61	496.19
390.81	545.34
391.00	620.24
391.19	568.75
391.39	514.92
391.58	442.36
391.78	533.64
391.97	496.19
392.16	437.68
392.36	430.66
392.55	372.15
392.75	348.74
392.94	365.12
393.13	304.27
393.33	372.15
393.52	414.27
393.71	538.32
393.91	500.87
394.10	404.91
394.29	477.47
394.49	561.73
394.68	629.60
394.88	547.69
395.07	540.66
395.26	561.73
395.46	531.30
395.65	606.20
395.84	463.43
396.04	458.74
396.23	416.62
396.42	346.40
396.62	418.96
396.81	367.46
397.00	521.94
397.19	550.03
397.39	521.94
397.58	753.65
397.77	585.13
397.97	592.16
398.16	695.14
398.35	720.88
398.55	688.12
398.74	725.57
398.93	770.04
399.12	681.10
399.32	704.50
399.51	667.05
399.70	791.10
399.90	802.80
400.09	753.65
400.28	800.46
400.47	741.95
400.67	861.32
400.86	753.65
401.05	851.96
401.24	821.53
401.44	847.27
401.63	875.36
401.82	821.53
402.01	840.25
402.21	763.01
402.40	819.19
402.59	704.50
402.78	718.54
402.97	781.74
403.17	734.93
403.36	903.45
403.55	774.72
403.74	868.34
403.93	805.14
404.13	704.50
404.32	774.72
404.51	861.32
404.70	830.89
404.89	758.33
405.09	851.96
405.28	791.10
405.47	788.76
405.66	786.42
405.85	741.95
406.05	812.17
406.24	767.70
406.43	830.89
406.62	858.98
406.81	847.27
407.00	786.42
407.20	755.99
407.39	763.01
407.58	847.27
407.77	877.70
407.96	901.11
408.15	910.47
408.34	877.70
408.54	933.87
408.73	887.06
408.92	870.68
409.11	880.04
409.30	805.14
409.49	716.20
409.68	795.78
409.87	763.01
410.07	823.87
410.26	842.59
410.45	858.98
410.64	929.19
410.83	894.08
411.02	952.60
411.21	973.66
411.40	901.11
411.59	887.06
411.78	938.55
411.98	940.90
412.17	919.83
412.36	887.06
412.55	908.13
412.74	971.32
412.93	901.11
413.12	901.11
413.31	1102.39
413.50	929.19
413.69	1081.33
413.88	919.83
414.07	877.70
414.26	976.00
414.45	1018.13
414.64	959.62
414.83	952.60
415.02	997.07
415.22	1036.86
415.41	1022.81
415.60	924.51
415.79	933.87
415.98	1029.84
416.17	954.94
416.36	1032.18
416.55	945.58
416.74	980.68
416.93	1032.18
417.12	940.90
417.31	1055.58
417.50	1055.58
417.69	947.92
417.88	1015.79
418.07	976.00
418.26	1004.09
418.45	945.58
418.64	1093.03
418.83	1015.79
419.02	980.68
419.21	1090.69
419.39	1008.77
419.58	947.92
419.77	959.62
419.96	1039.20
420.15	1125.80
420.34	1114.10
420.53	1109.41
420.72	1114.10
420.91	1078.99
421.10	1043.88
421.29	1050.90
421.48	990.05
421.67	1132.82
421.86	1013.45
422.05	1013.45
422.24	868.34
422.43	924.51
422.61	997.07
422.80	1060.26
422.99	1123.46
423.18	929.19
423.37	1081.33
423.56	1053.24
423.75	1022.81
423.94	1057.92
424.13	1050.90
424.32	971.32
424.50	1046.22
424.69	954.94
424.88	1053.24
425.07	1069.62
425.26	994.73
425.45	997.07
425.64	936.21
425.83	1029.84
426.01	1011.11
426.20	980.68
426.39	980.68
426.58	931.53
426.77	854.30
426.96	1013.45
427.15	952.60
427.33	990.05
427.52	1013.45
427.71	1018.13
427.90	1001.75
428.09	980.68
428.28	959.62
428.46	830.89
428.65	980.68
428.84	926.85
429.03	978.34
429.22	959.62
429.40	847.27
429.59	847.27
429.78	709.18
429.97	786.42
430.16	758.33
430.34	748.97
430.53	676.41
430.72	877.70
430.91	851.96
431.10	1032.18
431.28	1125.80
431.47	1135.16
431.66	1118.78
431.85	990.05
432.03	959.62
432.22	943.24
432.41	1020.47
432.60	1153.88
432.79	1139.84
432.97	1268.57
433.16	1139.84
433.35	978.34
433.54	812.17
433.72	919.83
433.91	1062.60
434.10	1015.79
434.28	1090.69
434.47	1111.75
434.66	1135.16
434.85	973.66
435.03	1083.67
435.22	1217.08
435.41	1378.58
435.59	1334.11
435.78	1247.51
435.97	1259.21
436.16	1207.72
436.34	1167.93
436.53	1137.50
436.72	1165.59
436.90	1100.05
437.09	1114.10
437.28	1174.95
437.46	1266.23
437.65	1071.97
437.84	1062.60
438.02	983.02
438.21	1069.62
438.40	1050.90
438.58	1123.46
438.77	1153.88
438.96	1200.69
439.14	1132.82
439.33	1179.63
439.52	1153.88
439.70	1123.46
439.89	1177.29
440.08	1149.20
440.26	1163.25
440.45	1233.46
440.63	1282.61
440.82	1268.57
441.01	1226.44
441.19	1174.95
441.38	1174.95
441.57	1376.24
441.75	1352.83
441.94	1373.89
442.12	1242.82
442.31	1294.32
442.50	1338.79
442.68	1350.49
442.87	1245.16
443.05	1238.14
443.24	1380.92
443.43	1423.05
443.61	1359.85
443.80	1254.53
443.98	1247.51
444.17	1219.42
444.35	1420.71
444.54	1373.89
444.73	1366.87
444.91	1221.76
445.10	1210.06
445.28	1156.22
445.47	1188.99
445.65	1210.06
445.84	1254.53
446.02	1352.83
446.21	1249.85
446.39	1207.72
446.58	1259.21
446.77	1242.82
446.95	1345.81
447.14	1397.30
447.32	1352.83
447.51	1385.60
447.69	1282.61
447.88	1364.53
448.06	1338.79
448.25	1394.96
448.43	1378.58
448.62	1280.27
448.80	1198.35
448.99	1315.38
449.17	1348.15
449.36	1390.28
449.54	1401.98
449.73	1409.00
449.91	1486.24
450.10	1460.49
450.28	1516.67
450.46	1500.28
450.65	1483.90
450.83	1427.73
451.02	1437.09
451.20	1392.62
451.39	1380.92
451.57	1350.49
451.76	1423.05
451.94	1343.47
452.13	1240.48
452.31	1430.07
452.49	1331.76
452.68	1404.32
452.86	1310.70
453.05	1261.55
453.23	1277.93
453.42	1345.81
453.60	1336.45
453.78	1430.07
453.97	1397.30
454.15	1327.08
454.34	1338.79
454.52	1315.38
454.70	1387.94
454.89	1434.75
455.07	1378.58
455.26	1476.88
455.44	1364.53
455.62	1334.11
455.81	1366.87
455.99	1397.30
456.17	1404.32
456.36	1467.52
456.54	1530.71
456.73	1441.77
456.91	1416.02
457.09	1572.84
457.28	1607.95
457.46	1343.47
457.64	1371.55
457.83	1343.47
458.01	1418.36
458.19	1448.79
458.38	1495.60
458.56	1497.94
458.74	1430.07
458.93	1425.39
459.11	1406.66
459.29	1299.00
459.48	1425.39
459.66	1404.32
459.84	1544.75
460.03	1497.94
460.21	1453.47
460.39	1526.03
460.57	1437.09
460.76	1495.60
460.94	1493.26
461.12	1469.86
461.31	1483.90
461.49	1460.49
461.67	1444.11
461.85	1490.92
462.04	1472.20
462.22	1636.03
462.40	1465.18
462.59	1444.11
462.77	1444.11
462.95	1476.88
463.13	1413.68
463.32	1448.79
463.50	1500.28
463.68	1516.67
463.86	1434.75
464.05	1476.88
464.23	1373.89
464.41	1413.68
464.59	1441.77
464.78	1462.83
464.96	1350.49
465.14	1432.41
465.32	1528.37
465.50	1577.52
465.69	1479.22
465.87	1434.75
466.05	1500.28
466.23	1394.96
466.41	1392.62
466.60	1504.96
466.78	1362.19
466.96	1476.88
467.14	1528.37
467.32	1437.09
467.51	1390.28
467.69	1451.13
467.87	1460.49
468.05	1474.54
468.23	1497.94
468.41	1507.30
468.60	1418.36
468.78	1411.34
468.96	1549.43
469.14	1554.12
469.32	1451.13
469.50	1394.96
469.69	1406.66
469.87	1413.68
470.05	1362.19
470.23	1460.49
470.41	1451.13
470.59	1465.18
470.77	1469.86
470.95	1565.82
471.14	1535.39
471.32	1540.07
471.50	1593.90
471.68	1572.84
471.86	1535.39
472.04	1589.22
472.22	1483.90
472.40	1427.73
472.58	1521.35
472.77	1500.28
472.95	1476.88
473.13	1631.35
473.31	1579.86
473.49	1462.83
473.67	1378.58
473.85	1612.63
474.03	1519.01
474.21	1551.78
474.39	1682.85
474.57	1582.20
474.75	1563.48
474.93	1603.27
475.12	1455.81
475.30	1570.50
475.48	1432.41
475.66	1577.52
475.84	1521.35
476.02	1533.05
476.20	1523.69
476.38	1488.58
476.56	1631.35
476.74	1558.80
476.92	1614.97
477.10	1689.87
477.28	1713.27
477.46	1708.59
477.64	1638.38
477.82	1717.95
478.00	1661.78
478.18	1692.21
478.36	1629.01
478.54	1582.20
478.72	1619.65
478.90	1860.73
479.08	1720.29
479.26	1802.21
479.44	1694.55
479.62	1703.91
479.80	1865.41
479.98	1816.26
480.16	1940.30
480.34	1818.60
480.52	1739.02
480.70	1884.13
480.88	1813.92
481.06	1867.75
481.24	1809.23
481.41	1877.11
481.59	2019.88
481.77	1968.39
481.95	1851.36
482.13	1952.01
482.31	1916.90
482.49	1933.28
482.67	1849.02
482.85	1898.17
483.03	1930.94
483.21	1947.33
483.39	1966.05
483.57	1968.39
483.74	1830.30
483.92	1825.62
484.10	1895.83
484.28	2001.16
484.46	2015.20
484.64	2031.58
484.82	2017.54
485.00	1905.20
485.18	1912.22
485.35	1818.60
485.53	1659.44
485.71	1605.61
485.89	1572.84
486.07	1818.60
486.25	2043.29
486.43	1980.09
486.61	1977.75
486.78	2001.16
486.96	1923.92
487.14	2005.84
487.32	2033.93
487.50	2059.67
487.68	2104.14
487.85	2122.87
488.03	2092.44
488.21	2127.55
488.39	2054.99
488.57	2111.16
488.75	2101.80
488.92	2434.16
489.10	2169.68
489.28	2392.03
489.46	2349.90
489.64	2188.40
489.81	2289.04
489.99	2356.92
490.17	2340.54
490.35	2396.71
490.53	2284.36
490.70	2162.66
490.88	2377.98
491.06	2356.92
491.24	2296.07
491.41	2277.34
491.59	2221.17
491.77	2157.97
491.95	2221.17
492.13	2312.45
492.30	2382.67
492.48	2513.74
492.66	2462.24
492.84	2368.62
493.01	2431.82
493.19	2312.45
493.37	2263.30
493.54	2298.41
493.72	2272.66
493.90	2394.37
494.08	2560.55
494.25	2422.45
494.43	2523.10
494.61	2616.72
494.79	2583.95
494.96	2642.46
495.14	2492.67
495.32	2417.77
495.49	2457.56
495.67	2513.74
495.85	2569.91
496.02	2633.10
496.20	2576.93
496.38	2583.95
496.55	2544.16
496.73	2651.83
496.91	2700.98
497.09	2626.08
497.26	2609.70
497.44	2576.93
497.62	2562.89
497.79	2527.78
497.97	2368.62
498.14	2424.80
498.32	2574.59
498.50	2628.42
498.67	2623.74
498.85	2569.91
499.03	2623.74
499.20	2602.68
499.38	2668.21
499.56	2649.49
499.73	2597.99
499.91	2480.97
500.08	2495.01
500.26	2490.33
500.44	2546.50
500.61	2626.08
500.79	2469.27
500.97	2342.88
501.14	2427.14
501.32	2457.56
501.49	2506.71
501.67	2506.71
501.84	2530.12
502.02	2509.05
502.20	2534.80
502.37	2525.44
502.55	2480.97
502.72	2590.97
502.90	2677.57
503.07	2677.57
503.25	2455.22
503.43	2361.60
503.60	2410.75
503.78	2469.27
503.95	2466.92
504.13	2654.17
504.30	2642.46
504.48	2661.19
504.65	2551.18
504.83	2541.82
505.01	2644.81
505.18	2658.85
505.36	2642.46
505.53	2626.08
505.71	2860.13
505.88	2792.26
506.06	2562.89
506.23	2736.09
506.41	2654.17
506.58	2665.87
506.76	2686.94
506.93	2588.63
507.11	2553.52
507.28	2633.10
507.46	2663.53
507.63	2565.23
507.81	2457.56
507.98	2654.17
508.16	2579.27
508.33	2607.36
508.50	2740.77
508.68	2832.05
508.85	2810.98
509.03	2871.84
509.20	2710.34
509.38	2609.70
509.55	2729.06
509.73	2661.19
509.90	2829.71
510.08	2612.04
510.25	2780.56
510.42	2796.94
510.60	2642.46
510.77	2738.43
510.95	2764.17
511.12	2754.81
511.30	2906.95
511.47	2780.56
511.64	2822.69
511.82	2766.51
511.99	2621.40
512.17	2670.55
512.34	2581.61
512.51	2499.69
512.69	2717.36
512.86	2841.41
513.04	2829.71
513.21	2689.28
513.38	2576.93
513.56	2651.83
513.73	2621.40
513.90	2623.74
514.08	2609.70
514.25	2682.25
514.43	2644.81
514.60	2731.41
514.77	2642.46
514.95	2693.96
515.12	2663.53
515.29	2640.12
515.47	2822.69
515.64	2810.98
515.81	2682.25
515.99	2705.66
516.16	2450.54
516.33	2200.10
516.51	2263.30
516.68	2272.66
516.85	2275.00
517.03	2356.92
517.20	2581.61
517.37	2593.31
517.54	2593.31
517.72	2651.83
517.89	2413.09
518.06	2174.36
518.24	2445.86
518.41	2583.95
518.58	2630.76
518.75	2619.06
518.93	2551.18
519.10	2640.12
519.27	2593.31
519.45	2642.46
519.62	2705.66
519.79	2883.54
519.96	2644.81
520.14	2562.89
520.31	2597.99
520.48	2600.34
520.65	2658.85
520.83	2775.88
521.00	2698.64
521.17	2726.72
521.34	2715.02
521.52	2810.98
521.69	2764.17
521.86	2796.94
522.03	2665.87
522.20	2724.38
522.38	2525.44
522.55	2642.46
522.72	2642.46
522.89	2541.82
523.07	2764.17
523.24	2703.32
523.41	2803.96
523.58	2771.19
523.75	2829.71
523.92	2832.05
524.10	2810.98
524.27	2836.73
524.44	2656.51
524.61	2696.30
524.78	2764.17
524.96	2722.04
525.13	2717.36
525.30	2836.73
525.47	2881.20
525.64	2836.73
525.81	2586.29
525.98	2602.68
526.16	2385.01
526.33	2359.26
526.50	2422.45
526.67	2263.30
526.84	2502.03
527.01	2654.17
527.18	2579.27
527.36	2736.09
527.53	2731.41
527.70	2822.69
527.87	2579.27
528.04	2670.55
528.21	2743.11
528.38	2773.53
528.55	2874.18
528.72	2916.31
528.89	2885.88
529.07	2818.00
529.24	2759.49
529.41	2752.47
529.58	2619.06
529.75	2614.38
529.92	2747.79
530.09	2754.81
530.26	2775.88
530.43	2822.69
530.60	2801.62
530.77	2792.26
530.94	2745.45
531.11	2909.29
531.28	2738.43
531.46	2764.17
531.63	2759.49
531.80	2656.51
531.97	2693.96
532.14	2668.21
532.31	2452.88
532.48	2525.44
532.65	2581.61
532.82	2562.89
532.99	2726.72
533.16	2808.64
533.33	2827.37
533.50	2719.70
533.67	2637.78
533.84	2581.61
534.01	2609.70
534.18	2750.13
534.35	2780.56
534.52	2719.70
534.69	2759.49
534.86	2736.09
535.03	2705.66
535.20	2708.00
535.37	2981.84
535.54	2761.83
535.71	2754.81
535.88	2693.96
536.05	2626.08
536.22	2675.23
536.38	2590.97
536.55	2588.63
536.72	2499.69
536.89	2597.99
537.06	2726.72
537.23	2815.66
537.40	2722.04
537.57	2665.87
537.74	2708.00
537.91	2876.52
538.08	2612.04
538.25	2717.36
538.42	2799.28
538.59	2675.23
538.75	2794.60
538.92	2747.79
539.09	2612.04
539.26	2642.46
539.43	2558.21
539.60	2729.06
539.77	2633.10
539.94	2558.21
540.11	2504.37
540.28	2553.52
540.44	2562.89
540.61	2511.39
540.78	2628.42
540.95	2637.78
541.12	2703.32
541.29	2696.30
541.46	2813.32
541.62	2712.68
541.79	2764.17
541.96	2560.55
542.13	2668.21
542.30	2740.77
542.47	2679.91
542.63	2640.12
542.80	2656.51
542.97	2745.45
543.14	2602.68
543.31	2705.66
543.48	2911.63
543.64	2874.18
543.81	2750.13
543.98	2752.47
544.15	2675.23
544.32	2663.53
544.48	2724.38
544.65	2710.34
544.82	2708.00
544.99	2729.06
545.16	2703.32
545.32	2778.22
545.49	2913.97
545.66	3169.09
545.83	2923.33
546.00	2778.22
546.16	2665.87
546.33	2719.70
546.50	2691.62
546.67	2722.04
546.83	2640.12
547.00	2565.23
547.17	2633.10
547.34	2553.52
547.50	2534.80
547.67	2623.74
547.84	2593.31
548.00	2595.65
548.17	2602.68
548.34	2583.95
548.51	2661.19
548.67	2726.72
548.84	2534.80
549.01	2670.55
549.18	2595.65
549.34	2597.99
549.51	2607.36
549.68	2466.92
549.84	2583.95
550.01	2492.67
550.18	2656.51
550.34	2565.23
550.51	2537.14
550.68	2562.89
550.84	2506.71
551.01	2555.86
551.18	2616.72
551.34	2490.33
551.51	2558.21
551.68	2520.76
551.84	2607.36
552.01	2539.48
552.18	2473.95
552.34	2394.37
552.51	2399.05
552.68	2520.76
552.84	2483.31
553.01	2560.55
553.18	2523.10
553.34	2539.48
553.51	2602.68
553.67	2656.51
553.84	2553.52
554.01	2520.76
554.17	2525.44
554.34	2541.82
554.51	2612.04
554.67	2574.59
554.84	2689.28
555.00	2473.95
555.17	2649.49
555.33	2600.34
555.50	2476.29
555.67	2434.16
555.83	2310.11
556.00	2406.07
556.16	2513.74
556.33	2370.96
556.50	2478.63
556.66	2377.98
556.83	2319.47
556.99	2368.62
557.16	2487.99
557.32	2532.46
557.49	2401.39
557.65	2455.22
557.82	2392.03
557.98	2370.96
558.15	2340.54
558.32	2359.26
558.48	2272.66
558.65	2312.45
558.81	2359.26
558.98	2420.11
559.14	2359.26
559.31	2457.56
559.47	2417.77
559.64	2342.88
559.80	2338.20
559.97	2314.79
560.13	2452.88
560.30	2448.20
560.46	2590.97
560.63	2466.92
560.79	2396.71
560.96	2314.79
561.12	2263.30
561.29	2284.36
561.45	2321.81
561.61	2338.20
561.78	2406.07
561.94	2436.50
562.11	2258.62
562.27	2242.23
562.44	2253.94
562.60	2237.55
562.77	2464.58
562.93	2457.56
563.10	2326.49
563.26	2232.87
563.42	2396.71
563.59	2286.70
563.75	2272.66
563.92	2270.32
564.08	2317.13
564.24	2303.09
564.41	2303.09
564.57	2284.36
564.74	2368.62
564.90	2155.63
565.07	2298.41
565.23	2197.76
565.39	2202.44
565.56	2148.61
565.72	2186.06
565.88	2242.23
566.05	2235.21
566.21	2286.70
566.38	2279.68
566.54	2211.81
566.70	2256.28
566.87	2202.44
567.03	2211.81
567.19	2230.53
567.36	2293.72
567.52	2176.70
567.68	2272.66
567.85	2188.40
568.01	2139.25
568.17	2113.50
568.34	2043.29
568.50	2214.15
568.66	2064.35
568.83	2244.57
568.99	2087.76
569.15	2305.43
569.32	2134.57
569.48	2118.18
569.64	2019.88
569.81	2127.55
569.97	2125.21
570.13	2195.42
570.30	2087.76
570.46	2064.35
570.62	1984.77
570.78	1947.33
570.95	2057.33
571.11	2146.27
571.27	2080.74
571.43	2036.27
571.60	2078.40
571.76	2176.70
571.92	2099.46
572.09	2059.67
572.25	2249.25
572.41	2146.27
572.57	2115.84
572.74	2073.71
572.90	2120.53
573.06	2085.42
573.22	2141.59
573.38	2202.44
573.55	2146.27
573.71	2024.56
573.87	2179.04
574.03	2148.61
574.20	2162.66
574.36	1996.48
574.52	2047.97
574.68	2054.99
574.84	1968.39
575.01	1912.22
575.17	2104.14
575.33	1966.05
575.49	1975.41
575.65	2031.58
575.82	1998.82
575.98	2045.63
576.14	2085.42
576.30	2136.91
576.46	2160.31
576.62	2108.82
576.79	2111.16
576.95	2050.31
577.11	1982.43
577.27	1961.37
577.43	2029.24
577.59	2083.08
577.75	2003.50
577.92	1886.47
578.08	1975.41
578.24	1865.41
578.40	2122.87
578.56	2106.48
578.72	2066.69
578.88	2113.50
579.04	2047.97
579.21	1973.07
579.37	2078.40
579.53	1987.11
579.69	2101.80
579.85	1987.11
580.01	2012.86
580.17	1954.35
580.33	1987.11
580.49	2050.31
580.65	2054.99
580.82	1989.46
580.98	2029.24
581.14	2122.87
581.30	2120.53
581.46	2052.65
581.62	2040.95
581.78	2122.87
581.94	2183.72
582.10	2172.02
582.26	2052.65
582.42	2083.08
582.58	2111.16
582.74	2043.29
582.90	2073.71
583.06	2076.06
583.22	2087.76
583.38	2012.86
583.54	2057.33
583.70	2223.51
583.86	2148.61
584.02	2176.70
584.18	2115.84
584.34	2001.16
584.50	2069.03
584.66	2066.69
584.82	2024.56
584.98	1947.33
585.14	1966.05
585.30	2076.06
585.46	1905.20
585.62	2033.93
585.78	1926.26
585.94	1980.09
586.10	2040.95
586.26	2024.56
586.42	2054.99
586.58	2069.03
586.74	1907.54
586.90	1949.67
587.06	1989.46
587.22	1996.48
587.38	2008.18
587.54	1816.26
587.70	1860.73
587.86	1881.79
588.02	1797.53
588.18	1783.49
588.34	1689.87
588.49	1603.27
588.65	1598.59
588.81	1589.22
588.97	1507.30
589.13	1589.22
589.29	1678.16
589.45	1671.14
589.61	1657.10
589.77	1659.44
589.93	1703.91
590.08	1842.00
590.24	1806.89
590.40	1776.47
590.56	1820.94
590.72	1771.79
590.88	1734.34
591.04	1743.70
591.20	1867.75
591.35	1781.15
591.51	1846.68
591.67	1692.21
591.83	1778.81
591.99	1846.68
592.15	1832.64
592.31	1813.92
592.46	1811.57
592.62	1853.70
592.78	1776.47
592.94	1732.00
593.10	1774.13
593.26	1905.20
593.41	1769.44
593.57	1741.36
593.73	1680.50
593.89	1650.08
594.05	1626.67
594.20	1617.31
594.36	1755.40
594.52	1689.87
594.68	1696.89
594.84	1675.82
594.99	1774.13
595.15	1851.36
595.31	1795.19
595.47	1797.53
595.62	1830.30
595.78	1767.10
595.94	1849.02
596.10	1792.85
596.25	1757.74
596.41	1713.27
596.57	1722.63
596.73	1900.52
596.88	1734.34
597.04	1769.44
597.20	1682.85
597.36	1741.36
597.51	1753.06
597.67	1755.40
597.83	1713.27
597.99	1741.36
598.14	1778.81
598.30	1710.93
598.46	1774.13
598.61	1813.92
598.77	1739.02
598.93	1844.34
599.09	1863.07
599.24	1799.87
