SpectraSuite Data File
++++++++++++++++++++++++++++++++++++
Date: Mon Sep 30 18:11:51 GMT-05:00 2013
User: stostad
Dark Spectrum Present: No
Reference Spectrum Present: No
Number of Sampled Component Spectra: 1
Spectrometers: USB2+H05261
Integration Time (usec): 100000 (USB2+H05261)
Spectra Averaged: 1 (USB2+H05261)
Boxcar Smoothing: 0 (USB2+H05261)
Correct for Electrical Dark: No (USB2+H05261)
Strobe/Lamp Enabled: No (USB2+H05261)
Correct for Detector Non-linearity: No (USB2+H05261)
Correct for Stray Light: No (USB2+H05261)
Number of Pixels in Processed Spectrum: 2048
>>>>>Begin Processed Spectral Data<<<<<
365.73	187.24
365.92	187.24
366.12	187.24
366.32	0.00
366.52	9.36
366.72	72.56
366.91	4.68
367.11	25.75
367.31	9.36
367.51	0.00
367.70	0.00
367.90	14.04
368.10	0.00
368.30	0.00
368.49	32.77
368.69	0.00
368.89	16.38
369.09	37.45
369.28	39.79
369.48	79.58
369.68	18.72
369.87	30.43
370.07	84.26
370.27	25.75
370.47	114.69
370.66	243.42
370.86	351.08
371.06	330.02
371.25	369.80
371.45	365.12
371.65	220.01
371.84	308.95
372.04	280.86
372.24	360.44
372.44	287.89
372.63	332.36
372.83	372.15
373.03	306.61
373.22	304.27
373.42	304.27
373.62	421.30
373.81	299.59
374.01	313.63
374.21	318.31
374.40	365.12
374.60	449.38
374.79	397.89
374.99	362.78
375.19	414.27
375.38	339.38
375.58	367.46
375.78	416.62
375.97	517.26
376.17	444.70
376.37	435.34
376.56	376.83
376.76	299.59
376.95	428.32
377.15	510.24
377.35	510.24
377.54	493.85
377.74	510.24
377.93	498.53
378.13	482.15
378.33	447.04
378.52	440.02
378.72	449.38
378.91	451.72
379.11	369.80
379.31	404.91
379.50	430.66
379.70	416.62
379.89	493.85
380.09	395.55
380.28	397.89
380.48	451.72
380.68	482.15
380.87	320.65
381.07	355.76
381.26	386.19
381.46	304.27
381.65	411.93
381.85	418.96
382.04	313.63
382.24	386.19
382.43	311.29
382.63	397.89
382.83	327.68
383.02	351.08
383.22	416.62
383.41	383.85
383.61	365.12
383.80	456.40
384.00	428.32
384.19	428.32
384.39	479.81
384.58	454.06
384.78	433.00
384.97	430.66
385.17	400.23
385.36	367.46
385.56	400.23
385.75	524.28
385.95	430.66
386.14	491.51
386.34	440.02
386.53	477.47
386.72	407.25
386.92	442.36
387.11	414.27
387.31	442.36
387.50	514.92
387.70	505.56
387.89	414.27
388.09	447.04
388.28	433.00
388.48	421.30
388.67	482.15
388.86	557.05
389.06	589.82
389.25	580.45
389.45	580.45
389.64	528.96
389.84	552.37
390.03	484.49
390.22	510.24
390.42	580.45
390.61	514.92
390.81	561.73
391.00	599.18
391.19	622.58
391.39	645.99
391.58	622.58
391.78	594.50
391.97	440.02
392.16	484.49
392.36	451.72
392.55	421.30
392.75	444.70
392.94	358.10
393.13	383.85
393.33	395.55
393.52	447.04
393.71	470.45
393.91	547.69
394.10	589.82
394.29	561.73
394.49	627.26
394.68	573.43
394.88	601.52
395.07	671.73
395.26	575.77
395.46	587.47
395.65	538.32
395.84	528.96
396.04	540.66
396.23	362.78
396.42	367.46
396.62	456.40
396.81	496.19
397.00	533.64
397.19	599.18
397.39	653.01
397.58	732.59
397.77	723.23
397.97	751.31
398.16	704.50
398.35	844.93
398.55	737.27
398.74	826.21
398.93	840.25
399.12	777.06
399.32	732.59
399.51	791.10
399.70	952.60
399.90	814.51
400.09	779.40
400.28	781.74
400.47	854.30
400.67	830.89
400.86	800.46
401.05	819.19
401.24	847.27
401.44	894.08
401.63	887.06
401.82	873.02
402.01	898.77
402.21	877.70
402.40	875.36
402.59	760.67
402.78	791.10
402.97	861.32
403.17	863.66
403.36	908.13
403.55	887.06
403.74	924.51
403.93	840.25
404.13	844.93
404.32	908.13
404.51	936.21
404.70	922.17
404.89	861.32
405.09	903.45
405.28	889.40
405.47	842.59
405.66	835.57
405.85	828.55
406.05	786.42
406.24	835.57
406.43	877.70
406.62	854.30
406.81	957.28
407.00	898.77
407.20	875.36
407.39	833.23
407.58	842.59
407.77	940.90
407.96	1011.11
408.15	950.26
408.34	931.53
408.54	999.41
408.73	950.26
408.92	887.06
409.11	929.19
409.30	849.61
409.49	819.19
409.68	802.80
409.87	758.33
410.07	875.36
410.26	912.81
410.45	971.32
410.64	842.59
410.83	1039.20
411.02	1053.24
411.21	1036.86
411.40	1041.54
411.59	980.68
411.78	1036.86
411.98	1123.46
412.17	994.73
412.36	1020.47
412.55	990.05
412.74	1041.54
412.93	983.02
413.12	940.90
413.31	978.34
413.50	1083.67
413.69	1043.88
413.88	1053.24
414.07	992.39
414.26	1027.50
414.45	1039.20
414.64	1043.88
414.83	957.28
415.02	1086.01
415.22	1071.97
415.41	1107.07
415.60	1041.54
415.79	1139.84
415.98	1181.97
416.17	1083.67
416.36	1090.69
416.55	1071.97
416.74	1090.69
416.93	1001.75
417.12	1107.07
417.31	1062.60
417.50	1036.86
417.69	1212.40
417.88	1062.60
418.07	1036.86
418.26	1074.31
418.45	1109.41
418.64	1083.67
418.83	1153.88
419.02	1144.52
419.21	1036.86
419.39	1081.33
419.58	1069.62
419.77	999.41
419.96	1170.27
420.15	1181.97
420.34	1153.88
420.53	1268.57
420.72	1198.35
420.91	1233.46
421.10	1083.67
421.29	1043.88
421.48	1160.91
421.67	1203.04
421.86	1128.14
422.05	1128.14
422.24	999.41
422.43	1011.11
422.61	1214.74
422.80	1125.80
422.99	1203.04
423.18	1097.71
423.37	1064.94
423.56	1097.71
423.75	1177.29
423.94	1069.62
424.13	1132.82
424.32	1036.86
424.50	1116.44
424.69	1071.97
424.88	1039.20
425.07	1104.73
425.26	1086.01
425.45	1027.50
425.64	994.73
425.83	1083.67
426.01	1270.91
426.20	1100.05
426.39	997.07
426.58	1006.43
426.77	915.15
426.96	945.58
427.15	952.60
427.33	1050.90
427.52	1067.28
427.71	1018.13
427.90	1064.94
428.09	1041.54
428.28	1034.52
428.46	922.17
428.65	1067.28
428.84	1001.75
429.03	971.32
429.22	968.98
429.40	826.21
429.59	889.40
429.78	908.13
429.97	751.31
430.16	744.29
430.34	828.55
430.53	830.89
430.72	919.83
430.91	1022.81
431.10	1018.13
431.28	1235.80
431.47	1338.79
431.66	1224.10
431.85	1088.35
432.03	1004.09
432.22	1118.78
432.41	1139.84
432.60	1158.57
432.79	1172.61
432.97	1235.80
433.16	1245.16
433.35	1165.59
433.54	957.28
433.72	917.49
433.91	1142.18
434.10	1135.16
434.28	1135.16
434.47	1235.80
434.66	1240.48
434.85	1163.25
435.03	1245.16
435.22	1362.19
435.41	1441.77
435.59	1277.93
435.78	1320.06
435.97	1306.02
436.16	1259.21
436.34	1256.87
436.53	1188.99
436.72	1153.88
436.90	1233.46
437.09	1219.42
437.28	1315.38
437.46	1242.82
437.65	1224.10
437.84	1078.99
438.02	1071.97
438.21	1100.05
438.40	1137.50
438.58	1249.85
438.77	1203.04
438.96	1205.38
439.14	1303.68
439.33	1179.63
439.52	1242.82
439.70	1238.14
439.89	1306.02
440.08	1233.46
440.26	1233.46
440.45	1317.72
440.63	1296.66
440.82	1446.45
441.01	1308.36
441.19	1196.01
441.38	1376.24
441.57	1420.71
441.75	1357.51
441.94	1533.05
442.12	1439.43
442.31	1352.83
442.50	1409.00
442.68	1413.68
442.87	1401.98
443.05	1392.62
443.24	1327.08
443.43	1432.41
443.61	1455.81
443.80	1380.92
443.98	1411.34
444.17	1420.71
444.35	1404.32
444.54	1465.18
444.73	1549.43
444.91	1465.18
445.10	1366.87
445.28	1266.23
445.47	1392.62
445.65	1420.71
445.84	1378.58
446.02	1451.13
446.21	1383.26
446.39	1472.20
446.58	1495.60
446.77	1376.24
446.95	1516.67
447.14	1600.93
447.32	1558.80
447.51	1556.46
447.69	1390.28
447.88	1371.55
448.06	1416.02
448.25	1586.88
448.43	1479.22
448.62	1455.81
448.80	1418.36
448.99	1420.71
449.17	1540.07
449.36	1483.90
449.54	1540.07
449.73	1533.05
449.91	1643.06
450.10	1504.96
450.28	1610.29
450.46	1703.91
450.65	1678.16
450.83	1638.38
451.02	1605.61
451.20	1462.83
451.39	1495.60
451.57	1467.52
451.76	1561.14
451.94	1523.69
452.13	1441.77
452.31	1387.94
452.49	1357.51
452.68	1493.26
452.86	1439.43
453.05	1481.56
453.23	1458.15
453.42	1516.67
453.60	1488.58
453.78	1469.86
453.97	1504.96
454.15	1462.83
454.34	1481.56
454.52	1399.64
454.70	1497.94
454.89	1519.01
455.07	1434.75
455.26	1507.30
455.44	1570.50
455.62	1636.03
455.81	1558.80
455.99	1551.78
456.17	1579.86
456.36	1497.94
456.54	1561.14
456.73	1495.60
456.91	1687.53
457.09	1579.86
457.28	1755.40
457.46	1605.61
457.64	1629.01
457.83	1394.96
458.01	1397.30
458.19	1530.71
458.38	1551.78
458.56	1617.31
458.74	1586.88
458.93	1591.56
459.11	1554.12
459.29	1441.77
459.48	1554.12
459.66	1565.82
459.84	1570.50
460.03	1575.18
460.21	1621.99
460.39	1526.03
460.57	1659.44
460.76	1631.35
460.94	1570.50
461.12	1668.80
461.31	1600.93
461.49	1675.82
461.67	1591.56
461.85	1659.44
462.04	1631.35
462.22	1708.59
462.40	1741.36
462.59	1689.87
462.77	1598.59
462.95	1621.99
463.13	1556.46
463.32	1607.95
463.50	1572.84
463.68	1533.05
463.86	1724.97
464.05	1666.46
464.23	1654.76
464.41	1474.54
464.59	1547.09
464.78	1570.50
464.96	1659.44
465.14	1633.69
465.32	1563.48
465.50	1666.46
465.69	1666.46
465.87	1519.01
466.05	1563.48
466.23	1362.19
466.41	1565.82
466.60	1589.22
466.78	1493.26
466.96	1657.10
467.14	1579.86
467.32	1689.87
467.51	1535.39
467.69	1561.14
467.87	1516.67
468.05	1621.99
468.23	1671.14
468.41	1526.03
468.60	1533.05
468.78	1596.25
468.96	1647.74
469.14	1659.44
469.32	1575.18
469.50	1472.20
469.69	1509.65
469.87	1563.48
470.05	1556.46
470.23	1638.38
470.41	1605.61
470.59	1591.56
470.77	1591.56
470.95	1643.06
471.14	1586.88
471.32	1577.52
471.50	1652.42
471.68	1755.40
471.86	1755.40
472.04	1748.38
472.22	1708.59
472.40	1666.46
472.58	1572.84
472.77	1668.80
472.95	1621.99
473.13	1755.40
473.31	1577.52
473.49	1605.61
473.67	1640.72
473.85	1806.89
474.03	1769.44
474.21	1713.27
474.39	1729.66
474.57	1818.60
474.75	1685.19
474.93	1678.16
475.12	1650.08
475.30	1678.16
475.48	1732.00
475.66	1743.70
475.84	1671.14
476.02	1659.44
476.20	1638.38
476.38	1755.40
476.56	1860.73
476.74	1804.55
476.92	1724.97
477.10	1790.51
477.28	1853.70
477.46	1788.17
477.64	1867.75
477.82	1741.36
478.00	1879.45
478.18	1755.40
478.36	1832.64
478.54	1746.04
478.72	1919.24
478.90	1933.28
479.08	1858.39
479.26	1849.02
479.44	1933.28
479.62	1863.07
479.80	1895.83
479.98	1860.73
480.16	1963.71
480.34	1959.03
480.52	1968.39
480.70	1858.39
480.88	1944.99
481.06	2097.12
481.24	1900.52
481.41	1984.77
481.59	2078.40
481.77	2085.42
481.95	2038.61
482.13	1930.94
482.31	2244.57
482.49	2087.76
482.67	2080.74
482.85	2097.12
483.03	2214.15
483.21	2033.93
483.39	2085.42
483.57	2139.25
483.74	2129.89
483.92	2085.42
484.10	2115.84
484.28	2148.61
484.46	2209.47
484.64	2150.95
484.82	2155.63
485.00	2148.61
485.18	2019.88
485.35	1909.88
485.53	1652.42
485.71	1785.83
485.89	1746.04
486.07	1933.28
486.25	2099.46
486.43	2162.66
486.61	2101.80
486.78	2057.33
486.96	2118.18
487.14	2134.57
487.32	2228.19
487.50	2317.13
487.68	2319.47
487.85	2319.47
488.03	2141.59
488.21	2401.39
488.39	2181.38
488.57	2204.78
488.75	2223.51
488.92	2572.25
489.10	2506.71
489.28	2525.44
489.46	2518.42
489.64	2450.54
489.81	2478.63
489.99	2495.01
490.17	2593.31
490.35	2555.86
490.53	2331.17
490.70	2478.63
490.88	2464.58
491.06	2532.46
491.24	2574.59
491.41	2469.27
491.59	2317.13
491.77	2296.07
491.95	2392.03
492.13	2443.52
492.30	2495.01
492.48	2661.19
492.66	2705.66
492.84	2654.17
493.01	2567.57
493.19	2544.16
493.37	2579.27
493.54	2518.42
493.72	2640.12
493.90	2675.23
494.08	2679.91
494.25	2857.79
494.43	2853.11
494.61	2672.89
494.79	2818.00
494.96	2740.77
495.14	2644.81
495.32	2602.68
495.49	2637.78
495.67	2703.32
495.85	2787.58
496.02	2736.09
496.20	2754.81
496.38	2843.75
496.55	2818.00
496.73	2897.58
496.91	2780.56
497.09	2862.48
497.26	2820.35
497.44	2827.37
497.62	2757.15
497.79	2726.72
497.97	2679.91
498.14	2789.92
498.32	2848.43
498.50	2848.43
498.67	2810.98
498.85	2839.07
499.03	2724.38
499.20	2862.48
499.38	2881.20
499.56	2932.69
499.73	2796.94
499.91	2768.85
500.08	2818.00
500.26	2691.62
500.44	2705.66
500.61	2860.13
500.79	2708.00
500.97	2724.38
501.14	2637.78
501.32	2752.47
501.49	2808.64
501.67	2785.24
501.84	2794.60
502.02	2745.45
502.20	2832.05
502.37	2843.75
502.55	2780.56
502.72	2752.47
502.90	2939.71
503.07	2822.69
503.25	2761.83
503.43	2640.12
503.60	2614.38
503.78	2581.61
503.95	2703.32
504.13	2939.71
504.30	2916.31
504.48	2860.13
504.65	2895.24
504.83	2782.90
505.01	2935.03
505.18	2850.77
505.36	2995.89
505.53	3019.29
505.71	3042.70
505.88	3021.63
506.06	2815.66
506.23	2836.73
506.41	2745.45
506.58	2979.50
506.76	2815.66
506.93	2930.35
507.11	2832.05
507.28	2860.13
507.46	2834.39
507.63	2715.02
507.81	2583.95
507.98	2740.77
508.16	2906.95
508.33	3000.57
508.50	2958.44
508.68	3070.78
508.85	3129.30
509.03	3119.93
509.20	2944.39
509.38	2928.01
509.55	2951.42
509.73	2960.78
509.90	3119.93
510.08	2939.71
510.25	2958.44
510.42	2904.60
510.60	2911.63
510.77	3077.80
510.95	3091.85
511.12	2937.37
511.30	3028.65
511.47	3136.32
511.64	3176.11
511.82	2918.65
511.99	2878.86
512.17	2815.66
512.34	2864.82
512.51	2956.10
512.69	2928.01
512.86	2918.65
513.04	2935.03
513.21	3063.76
513.38	2932.69
513.56	2874.18
513.73	2822.69
513.90	2775.88
514.08	2892.90
514.25	3063.76
514.43	2923.33
514.60	2923.33
514.77	2988.86
514.95	2843.75
515.12	3049.72
515.29	3040.36
515.47	2951.42
515.64	3054.40
515.81	2846.09
515.99	2864.82
516.16	2679.91
516.33	2523.10
516.51	2443.52
516.68	2469.27
516.85	2417.77
517.03	2476.29
517.20	2731.41
517.37	2974.82
517.54	2939.71
517.72	2801.62
517.89	2586.29
518.06	2403.73
518.24	2567.57
518.41	2911.63
518.58	2743.11
518.75	2846.09
518.93	2808.64
519.10	2883.54
519.27	2839.07
519.45	2885.88
519.62	3021.63
519.79	3038.02
519.96	2869.50
520.14	2906.95
520.31	2878.86
520.48	2796.94
520.65	2871.84
520.83	2963.12
521.00	3096.53
521.17	3112.91
521.34	2932.69
521.52	3087.17
521.69	3042.70
521.86	3063.76
522.03	3000.57
522.20	2871.84
522.38	2860.13
522.55	2930.35
522.72	2932.69
522.89	2932.69
523.07	3040.36
523.24	3012.27
523.41	3082.49
523.58	2986.52
523.75	3119.93
523.92	3192.49
524.10	3091.85
524.27	3021.63
524.44	3073.12
524.61	3026.31
524.78	2925.67
524.96	3033.33
525.13	2958.44
525.30	3112.91
525.47	3131.64
525.64	3038.02
525.81	2951.42
525.98	2794.60
526.16	2616.72
526.33	2511.39
526.50	2630.76
526.67	2466.92
526.84	2693.96
527.01	2869.50
527.18	2956.10
527.36	2979.50
527.53	2885.88
527.70	3028.65
527.87	2832.05
528.04	2920.99
528.21	2890.56
528.38	3052.06
528.55	3176.11
528.72	3150.36
528.89	3073.12
529.07	2935.03
529.24	2827.37
529.41	2885.88
529.58	2834.39
529.75	2951.42
529.92	3035.67
530.09	3087.17
530.26	2911.63
530.43	3005.25
530.60	2988.86
530.77	3192.49
530.94	3094.19
531.11	3089.51
531.28	3002.91
531.46	2953.76
531.63	2937.37
531.80	2939.71
531.97	2860.13
532.14	2768.85
532.31	2738.43
532.48	2656.51
532.65	2710.34
532.82	2932.69
532.99	2995.89
533.16	3000.57
533.33	2911.63
533.50	2991.20
533.67	2888.22
533.84	2761.83
534.01	2984.18
534.18	2801.62
534.35	2899.92
534.52	3045.04
534.69	2967.80
534.86	3049.72
535.03	2803.96
535.20	3035.67
535.37	3201.85
535.54	3094.19
535.71	3096.53
535.88	2932.69
536.05	2949.08
536.22	2808.64
536.38	2836.73
536.55	2717.36
536.72	2703.32
536.89	2881.20
537.06	2892.90
537.23	3035.67
537.40	3075.46
537.57	2984.18
537.74	2778.22
537.91	2862.48
538.08	3042.70
538.25	2906.95
538.42	2916.31
538.59	2918.65
538.75	3019.29
538.92	2888.22
539.09	2902.26
539.26	2949.08
539.43	2785.24
539.60	2836.73
539.77	2839.07
539.94	2892.90
540.11	2813.32
540.28	2862.48
540.44	2899.92
540.61	2836.73
540.78	2808.64
540.95	2892.90
541.12	3026.31
541.29	2902.26
541.46	3045.04
541.62	3035.67
541.79	2939.71
541.96	2799.28
542.13	2909.29
542.30	2995.89
542.47	2942.05
542.63	2935.03
542.80	2974.82
542.97	2883.54
543.14	2785.24
543.31	2820.35
543.48	2979.50
543.64	3187.81
543.81	3098.87
543.98	2981.84
544.15	2944.39
544.32	3019.29
544.48	3028.65
544.65	2848.43
544.82	3007.59
544.99	2899.92
545.16	2918.65
545.32	3035.67
545.49	3213.56
545.66	3316.54
545.83	3070.78
546.00	2993.55
546.16	2850.77
546.33	2839.07
546.50	2850.77
546.67	3012.27
546.83	2979.50
547.00	2759.49
547.17	2710.34
547.34	2754.81
547.50	2803.96
547.67	2902.26
547.84	2937.37
548.00	2904.60
548.17	2867.16
548.34	2834.39
548.51	2902.26
548.67	2920.99
548.84	2834.39
549.01	2785.24
549.18	2899.92
549.34	2778.22
549.51	3007.59
549.68	2881.20
549.84	2698.64
550.01	2902.26
550.18	2825.03
550.34	2855.45
550.51	2733.75
550.68	2806.30
550.84	2747.79
551.01	2712.68
551.18	2792.26
551.34	2843.75
551.51	2785.24
551.68	2820.35
551.84	2796.94
552.01	2775.88
552.18	2635.44
552.34	2619.06
552.51	2750.13
552.68	2729.06
552.84	2796.94
553.01	2782.90
553.18	2820.35
553.34	2773.53
553.51	2630.76
553.67	2759.49
553.84	2708.00
554.01	2621.40
554.17	2757.15
554.34	2743.11
554.51	2820.35
554.67	2869.50
554.84	2839.07
555.00	2731.41
555.17	2792.26
555.33	2670.55
555.50	2654.17
555.67	2726.72
555.83	2759.49
556.00	2665.87
556.16	2885.88
556.33	2651.83
556.50	2640.12
556.66	2637.78
556.83	2677.57
556.99	2703.32
557.16	2644.81
557.32	2729.06
557.49	2555.86
557.65	2640.12
557.82	2651.83
557.98	2675.23
558.15	2609.70
558.32	2502.03
558.48	2502.03
558.65	2434.16
558.81	2565.23
558.98	2590.97
559.14	2553.52
559.31	2600.34
559.47	2548.84
559.64	2448.20
559.80	2359.26
559.97	2590.97
560.13	2516.08
560.30	2708.00
560.46	2782.90
560.63	2801.62
560.79	2782.90
560.96	2551.18
561.12	2513.74
561.29	2363.94
561.45	2499.69
561.61	2616.72
561.78	2532.46
561.94	2509.05
562.11	2476.29
562.27	2504.37
562.44	2513.74
562.60	2553.52
562.77	2665.87
562.93	2733.75
563.10	2586.29
563.26	2518.42
563.42	2560.55
563.59	2478.63
563.75	2548.84
563.92	2497.35
564.08	2518.42
564.24	2408.41
564.41	2523.10
564.57	2523.10
564.74	2523.10
564.90	2499.69
565.07	2448.20
565.23	2431.82
565.39	2246.91
565.56	2296.07
565.72	2342.88
565.88	2286.70
566.05	2387.35
566.21	2394.37
566.38	2457.56
566.54	2466.92
566.70	2516.08
566.87	2499.69
567.03	2490.33
567.19	2534.80
567.36	2452.88
567.52	2434.16
567.68	2359.26
567.85	2317.13
568.01	2270.32
568.17	2286.70
568.34	2251.60
568.50	2345.22
568.66	2340.54
568.83	2291.38
568.99	2321.81
569.15	2335.85
569.32	2314.79
569.48	2289.04
569.64	2385.01
569.81	2265.64
569.97	2307.77
570.13	2267.98
570.30	2275.00
570.46	2204.78
570.62	1952.01
570.78	2174.36
570.95	2193.08
571.11	2354.58
571.27	2244.57
571.43	2186.06
571.60	2237.55
571.76	2298.41
571.92	2321.81
572.09	2251.60
572.25	2375.64
572.41	2342.88
572.57	2335.85
572.74	2352.24
572.90	2347.56
573.06	2228.19
573.22	2242.23
573.38	2230.53
573.55	2256.28
573.71	2174.36
573.87	2043.29
574.03	2122.87
574.20	2143.93
574.36	2228.19
574.52	2253.94
574.68	2216.49
574.84	2153.29
575.01	2148.61
575.17	2162.66
575.33	2223.51
575.49	2197.76
575.65	2326.49
575.82	2153.29
575.98	2239.89
576.14	2289.04
576.30	2272.66
576.46	2317.13
576.62	2296.07
576.79	2221.17
576.95	2193.08
577.11	2172.02
577.27	2176.70
577.43	2260.96
577.59	2190.74
577.75	2083.08
577.92	2019.88
578.08	2073.71
578.24	2193.08
578.40	2146.27
578.56	2349.90
578.72	2335.85
578.88	2317.13
579.04	2275.00
579.21	2188.40
579.37	2284.36
579.53	2324.15
579.69	2209.47
579.85	2237.55
580.01	2335.85
580.17	2153.29
580.33	2155.63
580.49	2181.38
580.65	2200.10
580.82	2216.49
580.98	2235.21
581.14	2176.70
581.30	2429.48
581.46	2190.74
581.62	2345.22
581.78	2293.72
581.94	2305.43
582.10	2303.09
582.26	2195.42
582.42	2377.98
582.58	2300.75
582.74	2214.15
582.90	2218.83
583.06	2209.47
583.22	2319.47
583.38	2258.62
583.54	2244.57
583.70	2394.37
583.86	2263.30
584.02	2272.66
584.18	2298.41
584.34	2190.74
584.50	2134.57
584.66	2244.57
584.82	2146.27
584.98	2200.10
585.14	2282.02
585.30	2106.48
585.46	2127.55
585.62	2207.13
585.78	2169.68
585.94	2228.19
586.10	2129.89
586.26	2108.82
586.42	2193.08
586.58	2204.78
586.74	2263.30
586.90	2197.76
587.06	2122.87
587.22	2136.91
587.38	2052.65
587.54	1966.05
587.70	2078.40
587.86	2047.97
588.02	1937.96
588.18	1863.07
588.34	1792.85
588.49	1699.23
588.65	1598.59
588.81	1734.34
588.97	1643.06
589.13	1715.61
589.29	1734.34
589.45	1797.53
589.61	1694.55
589.77	1902.86
589.93	1872.43
590.08	1933.28
590.24	1926.26
590.40	1975.41
590.56	1980.09
590.72	1942.64
590.88	1898.17
591.04	1842.00
591.20	1776.47
591.35	1884.13
591.51	1919.24
591.67	1909.88
591.83	1860.73
591.99	2015.20
592.15	1879.45
592.31	1952.01
592.46	1956.69
592.62	1902.86
592.78	2010.52
592.94	1942.64
593.10	1954.35
593.26	1975.41
593.41	1900.52
593.57	1891.15
593.73	1856.04
593.89	1769.44
594.05	1753.06
594.20	1778.81
594.36	1769.44
594.52	1774.13
594.68	1930.94
594.84	2029.24
594.99	1893.49
595.15	1912.22
595.31	1989.46
595.47	1863.07
595.62	2031.58
595.78	1970.73
595.94	2040.95
596.10	1949.67
596.25	1998.82
596.41	1844.34
596.57	1842.00
596.73	2003.50
596.88	1952.01
597.04	1898.17
597.20	1842.00
597.36	1781.15
597.51	1935.62
597.67	1930.94
597.83	1870.09
597.99	1944.99
598.14	1853.70
598.30	1905.20
598.46	1907.54
598.61	1919.24
598.77	1863.07
