SpectraSuite Data File
++++++++++++++++++++++++++++++++++++
Date: Mon Sep 30 18:11:51 GMT-05:00 2013
User: stostad
Dark Spectrum Present: No
Reference Spectrum Present: No
Number of Sampled Component Spectra: 1
Spectrometers: USB2+H05261
Integration Time (usec): 100000 (USB2+H05261)
Spectra Averaged: 1 (USB2+H05261)
Boxcar Smoothing: 0 (USB2+H05261)
Correct for Electrical Dark: No (USB2+H05261)
Strobe/Lamp Enabled: No (USB2+H05261)
Correct for Detector Non-linearity: No (USB2+H05261)
Correct for Stray Light: No (USB2+H05261)
Number of Pixels in Processed Spectrum: 2048
>>>>>Begin Processed Spectral Data<<<<<
365.73	91.28
365.92	91.28
366.12	91.28
366.32	49.15
366.52	30.43
366.72	32.77
366.91	14.04
367.11	0.00
367.31	0.00
367.51	37.45
367.70	0.00
367.90	0.00
368.10	0.00
368.30	0.00
368.49	23.41
368.69	42.13
368.89	35.11
369.09	0.00
369.28	7.02
369.48	0.00
369.68	11.70
369.87	114.69
370.07	98.30
370.27	110.01
370.47	84.26
370.66	248.10
370.86	330.02
371.06	330.02
371.25	348.74
371.45	283.20
371.65	407.25
371.84	250.44
372.04	351.08
372.24	351.08
372.44	271.50
372.63	374.49
372.83	337.04
373.03	327.68
373.22	315.97
373.42	362.78
373.62	440.02
373.81	374.49
374.01	414.27
374.21	397.89
374.40	327.68
374.60	390.87
374.79	395.55
374.99	362.78
375.19	493.85
375.38	423.64
375.58	484.49
375.78	379.17
375.97	386.19
376.17	414.27
376.37	411.93
376.56	475.13
376.76	379.17
376.95	435.34
377.15	545.34
377.35	535.98
377.54	440.02
377.74	498.53
377.93	479.81
378.13	533.64
378.33	440.02
378.52	503.22
378.72	407.25
378.91	423.64
379.11	428.32
379.31	423.64
379.50	400.23
379.70	454.06
379.89	444.70
380.09	465.77
380.28	454.06
380.48	444.70
380.68	475.13
380.87	444.70
381.07	374.49
381.26	479.81
381.46	381.51
381.65	393.21
381.85	447.04
382.04	386.19
382.24	400.23
382.43	229.37
382.63	299.59
382.83	290.23
383.02	325.33
383.22	355.76
383.41	294.91
383.61	297.25
383.80	397.89
384.00	367.46
384.19	400.23
384.39	479.81
384.58	390.87
384.78	388.53
384.97	451.72
385.17	528.96
385.36	472.79
385.56	414.27
385.75	435.34
385.95	463.43
386.14	463.43
386.34	404.91
386.53	458.74
386.72	418.96
386.92	484.49
387.11	477.47
387.31	447.04
387.50	414.27
387.70	433.00
387.89	425.98
388.09	416.62
388.28	519.60
388.48	479.81
388.67	493.85
388.86	528.96
389.06	566.41
389.25	601.52
389.45	589.82
389.64	421.30
389.84	587.47
390.03	531.30
390.22	627.26
390.42	606.20
390.61	648.33
390.81	620.24
391.00	622.58
391.19	557.05
391.39	671.73
391.58	587.47
391.78	571.09
391.97	627.26
392.16	535.98
392.36	484.49
392.55	414.27
392.75	351.08
392.94	397.89
393.13	416.62
393.33	369.80
393.52	498.53
393.71	566.41
393.91	521.94
394.10	505.56
394.29	578.11
394.49	617.90
394.68	596.84
394.88	685.78
395.07	650.67
395.26	664.71
395.46	557.05
395.65	554.71
395.84	543.00
396.04	524.28
396.23	416.62
396.42	397.89
396.62	351.08
396.81	496.19
397.00	512.58
397.19	566.41
397.39	720.88
397.58	746.63
397.77	695.14
397.97	730.25
398.16	781.74
398.35	788.76
398.55	720.88
398.74	760.67
398.93	901.11
399.12	777.06
399.32	809.83
399.51	812.17
399.70	863.66
399.90	896.43
400.09	763.01
400.28	903.45
400.47	814.51
400.67	931.53
400.86	910.47
401.05	882.38
401.24	919.83
401.44	943.24
401.63	933.87
401.82	968.98
402.01	854.30
402.21	903.45
402.40	884.72
402.59	898.77
402.78	849.61
402.97	873.02
403.17	851.96
403.36	943.24
403.55	924.51
403.74	933.87
403.93	866.00
404.13	861.32
404.32	826.21
404.51	861.32
404.70	940.90
404.89	788.76
405.09	931.53
405.28	873.02
405.47	882.38
405.66	915.15
405.85	933.87
406.05	821.53
406.24	866.00
406.43	898.77
406.62	891.74
406.81	964.30
407.00	826.21
407.20	842.59
407.39	828.55
407.58	973.66
407.77	980.68
407.96	999.41
408.15	1064.94
408.34	1081.33
408.54	945.58
408.73	1015.79
408.92	908.13
409.11	983.02
409.30	919.83
409.49	877.70
409.68	763.01
409.87	842.59
410.07	903.45
410.26	908.13
410.45	952.60
410.64	1032.18
410.83	1069.62
411.02	964.30
411.21	1050.90
411.40	1013.45
411.59	1006.43
411.78	994.73
411.98	1067.28
412.17	1203.04
412.36	1001.75
412.55	997.07
412.74	1064.94
412.93	1004.09
413.12	943.24
413.31	1186.65
413.50	1125.80
413.69	983.02
413.88	1046.22
414.07	1093.03
414.26	1123.46
414.45	1104.73
414.64	1025.15
414.83	1146.86
415.02	1053.24
415.22	1039.20
415.41	1123.46
415.60	1191.33
415.79	1071.97
415.98	1191.33
416.17	1074.31
416.36	1064.94
416.55	1121.12
416.74	1062.60
416.93	1144.52
417.12	1083.67
417.31	1088.35
417.50	1083.67
417.69	1144.52
417.88	1125.80
418.07	1086.01
418.26	1048.56
418.45	1139.84
418.64	1277.93
418.83	1210.06
419.02	1144.52
419.21	1149.20
419.39	1076.65
419.58	1160.91
419.77	1034.52
419.96	1184.31
420.15	1137.50
420.34	1224.10
420.53	1294.32
420.72	1196.01
420.91	1277.93
421.10	1158.57
421.29	1184.31
421.48	1207.72
421.67	1231.12
421.86	1153.88
422.05	1027.50
422.24	1029.84
422.43	1041.54
422.61	1149.20
422.80	1167.93
422.99	1128.14
423.18	1149.20
423.37	1170.27
423.56	1207.72
423.75	1191.33
423.94	1160.91
424.13	1139.84
424.32	1057.92
424.50	1186.65
424.69	1156.22
424.88	1170.27
425.07	1184.31
425.26	1132.82
425.45	1062.60
425.64	1050.90
425.83	1062.60
426.01	1109.41
426.20	1139.84
426.39	1198.35
426.58	1020.47
426.77	978.34
426.96	1041.54
427.15	1062.60
427.33	1025.15
427.52	1200.69
427.71	1118.78
427.90	1130.48
428.09	1036.86
428.28	1088.35
428.46	1036.86
428.65	1029.84
428.84	1027.50
429.03	1036.86
429.22	997.07
429.40	926.85
429.59	880.04
429.78	880.04
429.97	816.85
430.16	777.06
430.34	770.04
430.53	814.51
430.72	919.83
430.91	1013.45
431.10	1146.86
431.28	1196.01
431.47	1235.80
431.66	1259.21
431.85	1142.18
432.03	1057.92
432.22	1149.20
432.41	1196.01
432.60	1259.21
432.79	1331.76
432.97	1217.08
433.16	1179.63
433.35	1151.54
433.54	1039.20
433.72	1071.97
433.91	1137.50
434.10	1184.31
434.28	1256.87
434.47	1221.76
434.66	1184.31
434.85	1149.20
435.03	1343.47
435.22	1380.92
435.41	1444.11
435.59	1458.15
435.78	1289.64
435.97	1387.94
436.16	1359.85
436.34	1259.21
436.53	1329.42
436.72	1341.13
436.90	1238.14
437.09	1289.64
437.28	1217.08
437.46	1296.66
437.65	1219.42
437.84	1125.80
438.02	1041.54
438.21	1196.01
438.40	1107.07
438.58	1203.04
438.77	1224.10
438.96	1242.82
439.14	1273.25
439.33	1416.02
439.52	1371.55
439.70	1341.13
439.89	1238.14
440.08	1338.79
440.26	1359.85
440.45	1299.00
440.63	1458.15
440.82	1519.01
441.01	1355.17
441.19	1348.15
441.38	1371.55
441.57	1404.32
441.75	1502.62
441.94	1462.83
442.12	1554.12
442.31	1533.05
442.50	1530.71
442.68	1521.35
442.87	1359.85
443.05	1507.30
443.24	1469.86
443.43	1535.39
443.61	1561.14
443.80	1621.99
443.98	1490.92
444.17	1507.30
444.35	1514.33
444.54	1614.97
444.73	1446.45
444.91	1479.22
445.10	1392.62
445.28	1352.83
445.47	1423.05
445.65	1313.04
445.84	1359.85
446.02	1493.26
446.21	1439.43
446.39	1476.88
446.58	1551.78
446.77	1526.03
446.95	1610.29
447.14	1600.93
447.32	1474.54
447.51	1603.27
447.69	1425.39
447.88	1451.13
448.06	1554.12
448.25	1551.78
448.43	1575.18
448.62	1476.88
448.80	1490.92
448.99	1530.71
449.17	1511.99
449.36	1460.49
449.54	1664.12
449.73	1760.08
449.91	1696.89
450.10	1497.94
450.28	1694.55
450.46	1666.46
450.65	1675.82
450.83	1668.80
451.02	1652.42
451.20	1694.55
451.39	1666.46
451.57	1504.96
451.76	1593.90
451.94	1568.16
452.13	1551.78
452.31	1448.79
452.49	1427.73
452.68	1383.26
452.86	1364.53
453.05	1526.03
453.23	1462.83
453.42	1579.86
453.60	1610.29
453.78	1533.05
453.97	1516.67
454.15	1430.07
454.34	1490.92
454.52	1483.90
454.70	1577.52
454.89	1626.67
455.07	1500.28
455.26	1614.97
455.44	1453.47
455.62	1584.54
455.81	1647.74
455.99	1579.86
456.17	1554.12
456.36	1582.20
456.54	1675.82
456.73	1645.40
456.91	1764.76
457.09	1732.00
457.28	1753.06
457.46	1619.65
457.64	1617.31
457.83	1600.93
458.01	1519.01
458.19	1624.33
458.38	1600.93
458.56	1717.95
458.74	1605.61
458.93	1619.65
459.11	1558.80
459.29	1614.97
459.48	1579.86
459.66	1589.22
459.84	1584.54
460.03	1699.23
460.21	1682.85
460.39	1561.14
460.57	1664.12
460.76	1694.55
460.94	1696.89
461.12	1692.21
461.31	1834.98
461.49	1593.90
461.67	1624.33
461.85	1680.50
462.04	1717.95
462.22	1720.29
462.40	1722.63
462.59	1678.16
462.77	1654.76
462.95	1692.21
463.13	1645.40
463.32	1696.89
463.50	1706.25
463.68	1767.10
463.86	1626.67
464.05	1664.12
464.23	1563.48
464.41	1600.93
464.59	1629.01
464.78	1673.48
464.96	1558.80
465.14	1591.56
465.32	1638.38
465.50	1708.59
465.69	1724.97
465.87	1582.20
466.05	1603.27
466.23	1547.09
466.41	1586.88
466.60	1586.88
466.78	1682.85
466.96	1600.93
467.14	1589.22
467.32	1666.46
467.51	1570.50
467.69	1617.31
467.87	1689.87
468.05	1521.35
468.23	1661.78
468.41	1603.27
468.60	1591.56
468.78	1610.29
468.96	1657.10
469.14	1671.14
469.32	1689.87
469.50	1418.36
469.69	1596.25
469.87	1586.88
470.05	1542.41
470.23	1603.27
470.41	1640.72
470.59	1612.63
470.77	1612.63
470.95	1565.82
471.14	1729.66
471.32	1699.23
471.50	1678.16
471.68	1877.11
471.86	1682.85
472.04	1820.94
472.22	1715.61
472.40	1636.03
472.58	1724.97
472.77	1659.44
472.95	1699.23
473.13	1809.23
473.31	1668.80
473.49	1799.87
473.67	1671.14
473.85	1743.70
474.03	1781.15
474.21	1809.23
474.39	1750.72
474.57	1818.60
474.75	1785.83
474.93	1732.00
475.12	1806.89
475.30	1760.08
475.48	1757.74
475.66	1760.08
475.84	1727.32
476.02	1671.14
476.20	1694.55
476.38	1720.29
476.56	1891.15
476.74	1830.30
476.92	1818.60
477.10	1827.96
477.28	1923.92
477.46	1879.45
477.64	1928.60
477.82	1961.37
478.00	1921.58
478.18	1846.68
478.36	1825.62
478.54	1813.92
478.72	2005.84
478.90	1982.43
479.08	1947.33
479.26	2015.20
479.44	1987.11
479.62	1996.48
479.80	1900.52
479.98	2017.54
480.16	2111.16
480.34	2045.63
480.52	2022.22
480.70	2045.63
480.88	2054.99
481.06	2076.06
481.24	1996.48
481.41	2022.22
481.59	2087.76
481.77	2132.23
481.95	2078.40
482.13	2099.46
482.31	2066.69
482.49	2092.44
482.67	2195.42
482.85	2141.59
483.03	2162.66
483.21	2169.68
483.39	2209.47
483.57	2150.95
483.74	2167.34
483.92	2303.09
484.10	2230.53
484.28	2209.47
484.46	2270.32
484.64	2232.87
484.82	2172.02
485.00	2120.53
485.18	2148.61
485.35	2017.54
485.53	1872.43
485.71	1746.04
485.89	1837.32
486.07	1987.11
486.25	2237.55
486.43	2256.28
486.61	2094.78
486.78	2246.91
486.96	2165.00
487.14	2209.47
487.32	2270.32
487.50	2387.35
487.68	2382.67
487.85	2476.29
488.03	2410.75
488.21	2363.94
488.39	2207.13
488.57	2200.10
488.75	2284.36
488.92	2682.25
489.10	2656.51
489.28	2544.16
489.46	2633.10
489.64	2595.65
489.81	2651.83
489.99	2600.34
490.17	2619.06
490.35	2684.59
490.53	2445.86
490.70	2525.44
490.88	2534.80
491.06	2555.86
491.24	2562.89
491.41	2438.84
491.59	2438.84
491.77	2363.94
491.95	2485.65
492.13	2609.70
492.30	2635.44
492.48	2630.76
492.66	2843.75
492.84	2691.62
493.01	2640.12
493.19	2595.65
493.37	2602.68
493.54	2642.46
493.72	2654.17
493.90	2799.28
494.08	2897.58
494.25	2803.96
494.43	2855.45
494.61	2825.03
494.79	2829.71
494.96	2813.32
495.14	2867.16
495.32	2693.96
495.49	2672.89
495.67	2855.45
495.85	2909.29
496.02	2899.92
496.20	2925.67
496.38	3000.57
496.55	2806.30
496.73	2928.01
496.91	2988.86
497.09	2953.76
497.26	2906.95
497.44	2958.44
497.62	2818.00
497.79	2710.34
497.97	2621.40
498.14	2827.37
498.32	2925.67
498.50	2988.86
498.67	3014.61
498.85	2965.46
499.03	3084.83
499.20	2993.55
499.38	2988.86
499.56	2956.10
499.73	2829.71
499.91	2698.64
500.08	2808.64
500.26	2832.05
500.44	2855.45
500.61	2895.24
500.79	2810.98
500.97	2832.05
501.14	2782.90
501.32	2771.19
501.49	2778.22
501.67	2724.38
501.84	2911.63
502.02	2904.60
502.20	2967.80
502.37	2808.64
502.55	2822.69
502.72	2862.48
502.90	3005.25
503.07	2829.71
503.25	2834.39
503.43	2773.53
503.60	2541.82
503.78	2696.30
503.95	2897.58
504.13	2902.26
504.30	2944.39
504.48	2909.29
504.65	2928.01
504.83	3007.59
505.01	3054.40
505.18	3063.76
505.36	2986.52
505.53	3070.78
505.71	3052.06
505.88	3080.14
506.06	3005.25
506.23	2984.18
506.41	3000.57
506.58	2986.52
506.76	2981.84
506.93	2988.86
507.11	3101.21
507.28	2977.16
507.46	2972.48
507.63	2906.95
507.81	2918.65
507.98	2944.39
508.16	3028.65
508.33	3012.27
508.50	3164.40
508.68	3115.25
508.85	3215.90
509.03	3098.87
509.20	3112.91
509.38	3012.27
509.55	2944.39
509.73	3028.65
509.90	3096.53
510.08	3000.57
510.25	3171.43
510.42	3033.33
510.60	2935.03
510.77	3042.70
510.95	3040.36
511.12	3098.87
511.30	3108.23
511.47	3262.71
511.64	3176.11
511.82	3068.44
511.99	3007.59
512.17	2993.55
512.34	2958.44
512.51	3063.76
512.69	2958.44
512.86	3180.79
513.04	2918.65
513.21	3056.74
513.38	2991.20
513.56	2881.20
513.73	3016.95
513.90	3016.95
514.08	3084.83
514.25	2984.18
514.43	2977.16
514.60	3091.85
514.77	2876.52
514.95	3007.59
515.12	3033.33
515.29	3094.19
515.47	3148.02
515.64	3108.23
515.81	2991.20
515.99	2958.44
516.16	2815.66
516.33	2583.95
516.51	2518.42
516.68	2445.86
516.85	2469.27
517.03	2553.52
517.20	2913.97
517.37	3054.40
517.54	3082.49
517.72	2970.14
517.89	2647.15
518.06	2551.18
518.24	2693.96
518.41	2843.75
518.58	2965.46
518.75	2881.20
518.93	2984.18
519.10	2946.73
519.27	2930.35
519.45	2918.65
519.62	3180.79
519.79	3049.72
519.96	2993.55
520.14	2953.76
520.31	2930.35
520.48	3023.97
520.65	3007.59
520.83	3190.15
521.00	3178.45
521.17	3012.27
521.34	3117.59
521.52	2977.16
521.69	3091.85
521.86	3082.49
522.03	3108.23
522.20	3047.38
522.38	2813.32
522.55	2953.76
522.72	3002.91
522.89	2911.63
523.07	2970.14
523.24	3075.46
523.41	3056.74
523.58	3138.66
523.75	3157.38
523.92	3243.98
524.10	3201.85
524.27	3059.08
524.44	3176.11
524.61	3110.57
524.78	2958.44
524.96	3054.40
525.13	3068.44
525.30	3126.96
525.47	3180.79
525.64	3187.81
525.81	3030.99
525.98	2733.75
526.16	2693.96
526.33	2693.96
526.50	2672.89
526.67	2747.79
526.84	2803.96
527.01	2806.30
527.18	2972.48
527.36	3000.57
527.53	3122.27
527.70	3091.85
527.87	3080.14
528.04	2939.71
528.21	3030.99
528.38	3199.51
528.55	3316.54
528.72	3229.94
528.89	3246.32
529.07	3117.59
529.24	2892.90
529.41	2925.67
529.58	2937.37
529.75	2909.29
529.92	3066.10
530.09	3082.49
530.26	3234.62
530.43	3047.38
530.60	3103.55
530.77	3108.23
530.94	3143.34
531.11	3077.80
531.28	3176.11
531.46	3112.91
531.63	3101.21
531.80	3061.42
531.97	2970.14
532.14	2911.63
532.31	2827.37
532.48	2759.49
532.65	2871.84
532.82	2895.24
532.99	3122.27
533.16	3042.70
533.33	3162.06
533.50	2895.24
533.67	2928.01
533.84	2899.92
534.01	3098.87
534.18	3096.53
534.35	3049.72
534.52	3084.83
534.69	3145.68
534.86	3220.58
535.03	3091.85
535.20	3162.06
535.37	3180.79
535.54	3176.11
535.71	2977.16
535.88	3112.91
536.05	2960.78
536.22	3054.40
536.38	2895.24
536.55	3009.93
536.72	2766.51
536.89	2920.99
537.06	3070.78
537.23	3021.63
537.40	3112.91
537.57	3021.63
537.74	3042.70
537.91	3122.27
538.08	3054.40
538.25	3077.80
538.42	2977.16
538.59	3040.36
538.75	2916.31
538.92	2937.37
539.09	2970.14
539.26	2958.44
539.43	3047.38
539.60	2754.81
539.77	2979.50
539.94	2885.88
540.11	2876.52
540.28	2902.26
540.44	2928.01
540.61	2944.39
540.78	2899.92
540.95	2911.63
541.12	2951.42
541.29	3023.97
541.46	3141.00
541.62	3049.72
541.79	3033.33
541.96	3047.38
542.13	3098.87
542.30	2974.82
542.47	3040.36
542.63	2792.26
542.80	2932.69
542.97	2906.95
543.14	3016.95
543.31	2949.08
543.48	3049.72
543.64	3234.62
543.81	3150.36
543.98	3112.91
544.15	2909.29
544.32	2958.44
544.48	3077.80
544.65	3047.38
544.82	3082.49
544.99	3166.74
545.16	3019.29
545.32	3169.09
545.49	3330.58
545.66	3459.31
545.83	3218.24
546.00	3045.04
546.16	2963.12
546.33	2953.76
546.50	3026.31
546.67	2986.52
546.83	3009.93
547.00	2881.20
547.17	2818.00
547.34	2822.69
547.50	2789.92
547.67	2864.82
547.84	2848.43
548.00	3045.04
548.17	2993.55
548.34	2960.78
548.51	2897.58
548.67	2942.05
548.84	2981.84
549.01	2932.69
549.18	2923.33
549.34	2953.76
549.51	2951.42
549.68	2946.73
549.84	2895.24
550.01	2867.16
550.18	2834.39
550.34	2949.08
550.51	2883.54
550.68	2909.29
550.84	2738.43
551.01	2862.48
551.18	2878.86
551.34	2925.67
551.51	2977.16
551.68	2995.89
551.84	3000.57
552.01	3023.97
552.18	2832.05
552.34	2670.55
552.51	2834.39
552.68	2846.09
552.84	2925.67
553.01	2832.05
553.18	2951.42
553.34	2782.90
553.51	2864.82
553.67	2881.20
553.84	2862.48
554.01	2855.45
554.17	2869.50
554.34	3005.25
554.51	2963.12
554.67	2888.22
554.84	2775.88
555.00	2827.37
555.17	2818.00
555.33	2890.56
555.50	2780.56
555.67	2806.30
555.83	2729.06
556.00	2834.39
556.16	2972.48
556.33	2761.83
556.50	2637.78
556.66	2607.36
556.83	2665.87
556.99	2684.59
557.16	2689.28
557.32	2717.36
557.49	2782.90
557.65	2869.50
557.82	2745.45
557.98	2722.04
558.15	2623.74
558.32	2583.95
558.48	2469.27
558.65	2560.55
558.81	2670.55
558.98	2527.78
559.14	2605.02
559.31	2661.19
559.47	2700.98
559.64	2698.64
559.80	2558.21
559.97	2473.95
560.13	2654.17
560.30	2729.06
560.46	2682.25
560.63	2609.70
560.79	2698.64
560.96	2661.19
561.12	2590.97
561.29	2546.50
561.45	2490.33
561.61	2700.98
561.78	2757.15
561.94	2562.89
562.11	2551.18
562.27	2640.12
562.44	2630.76
562.60	2654.17
562.77	2691.62
562.93	2661.19
563.10	2675.23
563.26	2614.38
563.42	2600.34
563.59	2605.02
563.75	2506.71
563.92	2647.15
564.08	2731.41
564.24	2686.94
564.41	2738.43
564.57	2562.89
564.74	2565.23
564.90	2469.27
565.07	2457.56
565.23	2581.61
565.39	2572.25
565.56	2443.52
565.72	2420.11
565.88	2436.50
566.05	2586.29
566.21	2555.86
566.38	2502.03
566.54	2602.68
566.70	2555.86
566.87	2504.37
567.03	2459.90
567.19	2443.52
567.36	2480.97
567.52	2478.63
567.68	2642.46
567.85	2485.65
568.01	2363.94
568.17	2368.62
568.34	2356.92
568.50	2326.49
568.66	2359.26
568.83	2476.29
568.99	2368.62
569.15	2464.58
569.32	2555.86
569.48	2434.16
569.64	2324.15
569.81	2305.43
569.97	2356.92
570.13	2396.71
570.30	2399.05
570.46	2298.41
570.62	2195.42
570.78	2235.21
570.95	2289.04
571.11	2420.11
571.27	2389.69
571.43	2333.51
571.60	2342.88
571.76	2401.39
571.92	2354.58
572.09	2389.69
572.25	2359.26
572.41	2340.54
572.57	2354.58
572.74	2462.24
572.90	2443.52
573.06	2413.09
573.22	2417.77
573.38	2377.98
573.55	2345.22
573.71	2321.81
573.87	2466.92
574.03	2165.00
574.20	2207.13
574.36	2286.70
574.52	2310.11
574.68	2223.51
574.84	2284.36
575.01	2167.34
575.17	2235.21
575.33	2293.72
575.49	2141.59
575.65	2244.57
575.82	2197.76
575.98	2188.40
576.14	2204.78
576.30	2338.20
576.46	2298.41
576.62	2331.17
576.79	2356.92
576.95	2237.55
577.11	2263.30
577.27	2293.72
577.43	2363.94
577.59	2282.02
577.75	2209.47
577.92	2125.21
578.08	2113.50
578.24	2249.25
578.40	2155.63
578.56	2277.34
578.72	2251.60
578.88	2352.24
579.04	2228.19
579.21	2326.49
579.37	2195.42
579.53	2293.72
579.69	2244.57
579.85	2256.28
580.01	2307.77
580.17	2317.13
580.33	2298.41
580.49	2340.54
580.65	2270.32
580.82	2270.32
580.98	2303.09
581.14	2298.41
581.30	2249.25
581.46	2303.09
581.62	2326.49
581.78	2410.75
581.94	2284.36
582.10	2300.75
582.26	2263.30
582.42	2338.20
582.58	2314.79
582.74	2441.18
582.90	2190.74
583.06	2298.41
583.22	2260.96
583.38	2370.96
583.54	2387.35
583.70	2504.37
583.86	2326.49
584.02	2345.22
584.18	2368.62
584.34	2307.77
584.50	2235.21
584.66	2239.89
584.82	2225.85
584.98	2157.97
585.14	2062.01
585.30	2092.44
585.46	2127.55
585.62	2141.59
585.78	2286.70
585.94	2165.00
586.10	2214.15
586.26	2253.94
586.42	2221.17
586.58	2314.79
586.74	2232.87
586.90	2223.51
587.06	2160.31
587.22	2265.64
587.38	2256.28
587.54	2085.42
587.70	2125.21
587.86	2052.65
588.02	2005.84
588.18	2031.58
588.34	1865.41
588.49	1767.10
588.65	1732.00
588.81	1802.21
588.97	1701.57
589.13	1710.93
589.29	1865.41
589.45	1874.77
589.61	1916.90
589.77	1907.54
589.93	1916.90
590.08	1893.49
590.24	1984.77
590.40	2043.29
590.56	1895.83
590.72	1989.46
590.88	1998.82
591.04	2059.67
591.20	2031.58
591.35	2054.99
591.51	2059.67
591.67	1975.41
591.83	1928.60
591.99	2024.56
592.15	2080.74
592.31	2087.76
592.46	1996.48
592.62	1977.75
592.78	2076.06
592.94	2057.33
593.10	2036.27
593.26	2104.14
593.41	2069.03
593.57	1867.75
593.73	1914.56
593.89	1956.69
594.05	1832.64
594.20	1879.45
594.36	1844.34
594.52	1844.34
594.68	1870.09
594.84	2003.50
594.99	1919.24
595.15	1853.70
595.31	1968.39
595.47	2076.06
595.62	2045.63
595.78	2057.33
595.94	2062.01
596.10	2017.54
596.25	1867.75
596.41	1989.46
596.57	1888.81
596.73	1820.94
596.88	1982.43
597.04	1877.11
597.20	1870.09
597.36	1926.26
597.51	1977.75
597.67	1975.41
597.83	1996.48
597.99	1914.56
598.14	1900.52
598.30	1874.77
598.46	1996.48
598.61	2052.65
