SpectraSuite Data File
++++++++++++++++++++++++++++++++++++
Date: Fri Oct 04 11:47:19 GMT-05:00 2013
User: price-jones
Dark Spectrum Present: No
Reference Spectrum Present: No
Number of Sampled Component Spectra: 1
Spectrometers: USB2+H05261
Integration Time (usec): 100000 (USB2+H05261)
Spectra Averaged: 1 (USB2+H05261)
Boxcar Smoothing: 0 (USB2+H05261)
Correct for Electrical Dark: No (USB2+H05261)
Strobe/Lamp Enabled: No (USB2+H05261)
Correct for Detector Non-linearity: No (USB2+H05261)
Correct for Stray Light: No (USB2+H05261)
Number of Pixels in Processed Spectrum: 2048
>>>>>Begin Processed Spectral Data<<<<<
365.73	21.06
365.92	21.06
366.12	21.06
366.32	0.00
366.52	0.00
366.72	0.00
366.91	0.00
367.11	0.00
367.31	0.00
367.51	0.00
367.70	0.00
367.90	0.00
368.10	0.00
368.30	0.00
368.49	0.00
368.69	0.00
368.89	0.00
369.09	0.00
369.28	0.00
369.48	0.00
369.68	16.38
369.87	0.00
370.07	0.00
370.27	0.00
370.47	7.02
370.66	0.00
370.86	2.34
371.06	46.81
371.25	56.17
371.45	95.96
371.65	37.45
371.84	72.56
372.04	16.38
372.24	88.94
372.44	51.49
372.63	14.04
372.83	149.79
373.03	102.98
373.22	98.30
373.42	107.66
373.62	86.60
373.81	77.24
374.01	102.98
374.21	79.58
374.40	124.05
374.60	163.84
374.79	88.94
374.99	112.35
375.19	102.98
375.38	100.64
375.58	124.05
375.78	81.92
375.97	154.48
376.17	140.43
376.37	100.64
376.56	95.96
376.76	21.06
376.95	140.43
377.15	119.37
377.35	86.60
377.54	140.43
377.74	42.13
377.93	39.79
378.13	98.30
378.33	100.64
378.52	102.98
378.72	124.05
378.91	81.92
379.11	124.05
379.31	133.41
379.50	23.41
379.70	133.41
379.89	131.07
380.09	74.90
380.28	95.96
380.48	72.56
380.68	121.71
380.87	124.05
381.07	53.83
381.26	128.73
381.46	98.30
381.65	114.69
381.85	56.17
382.04	149.79
382.24	114.69
382.43	149.79
382.63	63.19
382.83	133.41
383.02	98.30
383.22	98.30
383.41	84.26
383.61	117.03
383.80	135.75
384.00	28.09
384.19	37.45
384.39	112.35
384.58	86.60
384.78	128.73
384.97	46.81
385.17	88.94
385.36	126.39
385.56	105.32
385.75	67.88
385.95	21.06
386.14	117.03
386.34	77.24
386.53	35.11
386.72	44.47
386.92	49.15
387.11	173.20
387.31	112.35
387.50	124.05
387.70	72.56
387.89	60.85
388.09	91.28
388.28	23.41
388.48	51.49
388.67	121.71
388.86	93.62
389.06	88.94
389.25	84.26
389.45	110.01
389.64	70.22
389.84	114.69
390.03	149.79
390.22	16.38
390.42	117.03
390.61	98.30
390.81	119.37
391.00	105.32
391.19	65.54
391.39	0.00
391.58	126.39
391.78	112.35
391.97	119.37
392.16	147.45
392.36	107.66
392.55	102.98
392.75	95.96
392.94	138.09
393.13	126.39
393.33	135.75
393.52	100.64
393.71	135.75
393.91	133.41
394.10	107.66
394.29	131.07
394.49	170.86
394.68	152.13
394.88	198.95
395.07	168.52
395.26	135.75
395.46	102.98
395.65	93.62
395.84	39.79
396.04	140.43
396.23	65.54
396.42	98.30
396.62	84.26
396.81	46.81
397.00	140.43
397.19	145.11
397.39	114.69
397.58	131.07
397.77	42.13
397.97	110.01
398.16	147.45
398.35	74.90
398.55	51.49
398.74	25.75
398.93	84.26
399.12	39.79
399.32	91.28
399.51	149.79
399.70	119.37
399.90	84.26
400.09	42.13
400.28	117.03
400.47	65.54
400.67	58.51
400.86	86.60
401.05	133.41
401.24	74.90
401.44	152.13
401.63	63.19
401.82	135.75
402.01	81.92
402.21	72.56
402.40	161.50
402.59	93.62
402.78	154.48
402.97	79.58
403.17	128.73
403.36	30.43
403.55	81.92
403.74	121.71
403.93	88.94
404.13	152.13
404.32	147.45
404.51	95.96
404.70	145.11
404.89	79.58
405.09	124.05
405.28	84.26
405.47	84.26
405.66	91.28
405.85	105.32
406.05	70.22
406.24	79.58
406.43	95.96
406.62	88.94
406.81	110.01
407.00	124.05
407.20	112.35
407.39	119.37
407.58	121.71
407.77	91.28
407.96	147.45
408.15	25.75
408.34	119.37
408.54	177.88
408.73	140.43
408.92	138.09
409.11	142.77
409.30	56.17
409.49	117.03
409.68	133.41
409.87	124.05
410.07	100.64
410.26	88.94
410.45	154.48
410.64	28.09
410.83	98.30
411.02	154.48
411.21	102.98
411.40	100.64
411.59	93.62
411.78	112.35
411.98	119.37
412.17	124.05
412.36	77.24
412.55	102.98
412.74	77.24
412.93	154.48
413.12	124.05
413.31	91.28
413.50	110.01
413.69	112.35
413.88	184.90
414.07	133.41
414.26	182.56
414.45	74.90
414.64	105.32
414.83	88.94
415.02	168.52
415.22	159.16
415.41	121.71
415.60	140.43
415.79	187.24
415.98	124.05
416.17	126.39
416.36	182.56
416.55	133.41
416.74	91.28
416.93	121.71
417.12	79.58
417.31	163.84
417.50	131.07
417.69	149.79
417.88	138.09
418.07	102.98
418.26	156.82
418.45	189.58
418.64	198.95
418.83	205.97
419.02	182.56
419.21	166.18
419.39	227.03
419.58	119.37
419.77	81.92
419.96	135.75
420.15	168.52
420.34	135.75
420.53	142.77
420.72	170.86
420.91	88.94
421.10	98.30
421.29	147.45
421.48	112.35
421.67	56.17
421.86	88.94
422.05	133.41
422.24	110.01
422.43	72.56
422.61	159.16
422.80	60.85
422.99	124.05
423.18	126.39
423.37	149.79
423.56	35.11
423.75	198.95
423.94	145.11
424.13	173.20
424.32	105.32
424.50	140.43
424.69	149.79
424.88	168.52
425.07	133.41
425.26	142.77
425.45	203.63
425.64	215.33
425.83	234.05
426.01	166.18
426.20	184.90
426.39	135.75
426.58	114.69
426.77	95.96
426.96	98.30
427.15	88.94
427.33	152.13
427.52	128.73
427.71	72.56
427.90	126.39
428.09	114.69
428.28	131.07
428.46	117.03
428.65	44.47
428.84	93.62
429.03	121.71
429.22	105.32
429.40	100.64
429.59	91.28
429.78	187.24
429.97	98.30
430.16	42.13
430.34	135.75
430.53	121.71
430.72	53.83
430.91	121.71
431.10	102.98
431.28	147.45
431.47	77.24
431.66	180.22
431.85	107.66
432.03	180.22
432.22	121.71
432.41	138.09
432.60	91.28
432.79	135.75
432.97	220.01
433.16	266.82
433.35	175.54
433.54	100.64
433.72	205.97
433.91	133.41
434.10	114.69
434.28	187.24
434.47	93.62
434.66	102.98
434.85	154.48
435.03	86.60
435.22	180.22
435.41	107.66
435.59	110.01
435.78	131.07
435.97	77.24
436.16	84.26
436.34	72.56
436.53	152.13
436.72	203.63
436.90	161.50
437.09	100.64
437.28	56.17
437.46	110.01
437.65	124.05
437.84	93.62
438.02	156.82
438.21	168.52
438.40	147.45
438.58	168.52
438.77	145.11
438.96	166.18
439.14	105.32
439.33	161.50
439.52	49.15
439.70	88.94
439.89	152.13
440.08	65.54
440.26	121.71
440.45	177.88
440.63	117.03
440.82	149.79
441.01	100.64
441.19	107.66
441.38	91.28
441.57	135.75
441.75	170.86
441.94	161.50
442.12	184.90
442.31	205.97
442.50	189.58
442.68	126.39
442.87	128.73
443.05	128.73
443.24	128.73
443.43	163.84
443.61	140.43
443.80	91.28
443.98	126.39
444.17	100.64
444.35	114.69
444.54	93.62
444.73	117.03
444.91	131.07
445.10	161.50
445.28	173.20
445.47	163.84
445.65	131.07
445.84	140.43
446.02	93.62
446.21	91.28
446.39	173.20
446.58	117.03
446.77	175.54
446.95	114.69
447.14	135.75
447.32	163.84
447.51	168.52
447.69	77.24
447.88	170.86
448.06	135.75
448.25	161.50
448.43	128.73
448.62	95.96
448.80	152.13
448.99	201.29
449.17	88.94
449.36	152.13
449.54	269.16
449.73	248.10
449.91	133.41
450.10	95.96
450.28	91.28
450.46	182.56
450.65	140.43
450.83	138.09
451.02	126.39
451.20	163.84
451.39	131.07
451.57	138.09
451.76	175.54
451.94	126.39
452.13	208.31
452.31	170.86
452.49	173.20
452.68	135.75
452.86	187.24
453.05	205.97
453.23	133.41
453.42	72.56
453.60	198.95
453.78	170.86
453.97	67.88
454.15	112.35
454.34	135.75
454.52	175.54
454.70	156.82
454.89	117.03
455.07	189.58
455.26	215.33
455.44	142.77
455.62	131.07
455.81	182.56
455.99	135.75
456.17	170.86
456.36	161.50
456.54	114.69
456.73	250.44
456.91	205.97
457.09	110.01
457.28	175.54
457.46	88.94
457.64	102.98
457.83	210.65
458.01	133.41
458.19	198.95
458.38	145.11
458.56	128.73
458.74	208.31
458.93	140.43
459.11	121.71
459.29	154.48
459.48	145.11
459.66	168.52
459.84	159.16
460.03	271.50
460.21	138.09
460.39	166.18
460.57	145.11
460.76	191.92
460.94	74.90
461.12	147.45
461.31	147.45
461.49	147.45
461.67	170.86
461.85	133.41
462.04	91.28
462.22	615.56
462.40	117.03
462.59	175.54
462.77	163.84
462.95	112.35
463.13	124.05
463.32	203.63
463.50	154.48
463.68	128.73
463.86	79.58
464.05	119.37
464.23	91.28
464.41	110.01
464.59	131.07
464.78	117.03
464.96	98.30
465.14	105.32
465.32	147.45
465.50	133.41
465.69	198.95
465.87	81.92
466.05	131.07
466.23	86.60
466.41	121.71
466.60	60.85
466.78	170.86
466.96	126.39
467.14	126.39
467.32	156.82
467.51	208.31
467.69	220.01
467.87	231.71
468.05	170.86
468.23	131.07
468.41	177.88
468.60	180.22
468.78	135.75
468.96	138.09
469.14	149.79
469.32	72.56
469.50	105.32
469.69	149.79
469.87	138.09
470.05	205.97
470.23	140.43
470.41	163.84
470.59	133.41
470.77	248.10
470.95	107.66
471.14	147.45
471.32	133.41
471.50	194.26
471.68	168.52
471.86	107.66
472.04	149.79
472.22	149.79
472.40	168.52
472.58	121.71
472.77	231.71
472.95	119.37
473.13	175.54
473.31	100.64
473.49	133.41
473.67	145.11
473.85	163.84
474.03	196.60
474.21	156.82
474.39	203.63
474.57	128.73
474.75	177.88
474.93	175.54
475.12	138.09
475.30	159.16
475.48	196.60
475.66	152.13
475.84	191.92
476.02	124.05
476.20	140.43
476.38	117.03
476.56	231.71
476.74	145.11
476.92	112.35
477.10	168.52
477.28	156.82
477.46	133.41
477.64	117.03
477.82	112.35
478.00	159.16
478.18	121.71
478.36	147.45
478.54	42.13
478.72	177.88
478.90	194.26
479.08	147.45
479.26	114.69
479.44	121.71
479.62	86.60
479.80	149.79
479.98	140.43
480.16	201.29
480.34	173.20
480.52	142.77
480.70	191.92
480.88	196.60
481.06	119.37
481.24	161.50
481.41	222.35
481.59	138.09
481.77	191.92
481.95	128.73
482.13	194.26
482.31	182.56
482.49	180.22
482.67	154.48
482.85	138.09
483.03	135.75
483.21	194.26
483.39	191.92
483.57	133.41
483.74	262.14
483.92	170.86
484.10	93.62
484.28	187.24
484.46	180.22
484.64	194.26
484.82	208.31
485.00	187.24
485.18	154.48
485.35	121.71
485.53	53.83
485.71	161.50
485.89	124.05
486.07	133.41
486.25	173.20
486.43	210.65
486.61	182.56
486.78	180.22
486.96	112.35
487.14	198.95
487.32	180.22
487.50	168.52
487.68	126.39
487.85	161.50
488.03	152.13
488.21	154.48
488.39	208.31
488.57	198.95
488.75	168.52
488.92	383.85
489.10	170.86
489.28	227.03
489.46	145.11
489.64	177.88
489.81	182.56
489.99	182.56
490.17	177.88
490.35	245.76
490.53	184.90
490.70	182.56
490.88	163.84
491.06	114.69
491.24	243.42
491.41	248.10
491.59	229.37
491.77	191.92
491.95	156.82
492.13	145.11
492.30	168.52
492.48	161.50
492.66	124.05
492.84	140.43
493.01	217.67
493.19	159.16
493.37	280.86
493.54	224.69
493.72	70.22
493.90	114.69
494.08	124.05
494.25	180.22
494.43	161.50
494.61	208.31
494.79	140.43
494.96	196.60
495.14	264.48
495.32	107.66
495.49	266.82
495.67	210.65
495.85	175.54
496.02	166.18
496.20	170.86
496.38	180.22
496.55	173.20
496.73	175.54
496.91	175.54
497.09	243.42
497.26	205.97
497.44	177.88
497.62	184.90
497.79	189.58
497.97	154.48
498.14	180.22
498.32	203.63
498.50	189.58
498.67	175.54
498.85	182.56
499.03	156.82
499.20	177.88
499.38	210.65
499.56	241.08
499.73	273.84
499.91	201.29
500.08	168.52
500.26	163.84
500.44	203.63
500.61	168.52
500.79	147.45
500.97	210.65
501.14	203.63
501.32	180.22
501.49	227.03
501.67	102.98
501.84	187.24
502.02	203.63
502.20	208.31
502.37	138.09
502.55	126.39
502.72	205.97
502.90	182.56
503.07	175.54
503.25	182.56
503.43	229.37
503.60	205.97
503.78	222.35
503.95	248.10
504.13	152.13
504.30	168.52
504.48	147.45
504.65	187.24
504.83	173.20
505.01	198.95
505.18	133.41
505.36	147.45
505.53	222.35
505.71	147.45
505.88	229.37
506.06	241.08
506.23	191.92
506.41	243.42
506.58	187.24
506.76	177.88
506.93	273.84
507.11	224.69
507.28	182.56
507.46	163.84
507.63	234.05
507.81	161.50
507.98	245.76
508.16	147.45
508.33	145.11
508.50	133.41
508.68	208.31
508.85	184.90
509.03	191.92
509.20	168.52
509.38	196.60
509.55	184.90
509.73	203.63
509.90	238.73
510.08	159.16
510.25	231.71
510.42	184.90
510.60	201.29
510.77	243.42
510.95	229.37
511.12	203.63
511.30	248.10
511.47	231.71
511.64	212.99
511.82	255.12
511.99	180.22
512.17	212.99
512.34	245.76
512.51	152.13
512.69	217.67
512.86	259.80
513.04	170.86
513.21	201.29
513.38	290.23
513.56	294.91
513.73	131.07
513.90	147.45
514.08	255.12
514.25	280.86
514.43	290.23
514.60	107.66
514.77	248.10
514.95	248.10
515.12	250.44
515.29	208.31
515.47	224.69
515.64	201.29
515.81	299.59
515.99	229.37
516.16	201.29
516.33	203.63
516.51	224.69
516.68	149.79
516.85	142.77
517.03	161.50
517.20	243.42
517.37	201.29
517.54	238.73
517.72	299.59
517.89	173.20
518.06	187.24
518.24	234.05
518.41	212.99
518.58	264.48
518.75	241.08
518.93	215.33
519.10	205.97
519.27	238.73
519.45	227.03
519.62	231.71
519.79	177.88
519.96	201.29
520.14	287.89
520.31	198.95
520.48	196.60
520.65	229.37
520.83	205.97
521.00	212.99
521.17	236.39
521.34	194.26
521.52	110.01
521.69	236.39
521.86	163.84
522.03	243.42
522.20	278.52
522.38	189.58
522.55	203.63
522.72	264.48
522.89	161.50
523.07	238.73
523.24	135.75
523.41	187.24
523.58	170.86
523.75	266.82
523.92	147.45
524.10	259.80
524.27	163.84
524.44	208.31
524.61	236.39
524.78	205.97
524.96	215.33
525.13	299.59
525.30	290.23
525.47	273.84
525.64	222.35
525.81	140.43
525.98	227.03
526.16	184.90
526.33	154.48
526.50	140.43
526.67	196.60
526.84	161.50
527.01	271.50
527.18	201.29
527.36	264.48
527.53	238.73
527.70	238.73
527.87	119.37
528.04	191.92
528.21	182.56
528.38	210.65
528.55	201.29
528.72	252.78
528.89	245.76
529.07	266.82
529.24	234.05
529.41	278.52
529.58	187.24
529.75	170.86
529.92	198.95
530.09	173.20
530.26	248.10
530.43	133.41
530.60	210.65
530.77	311.29
530.94	208.31
531.11	168.52
531.28	182.56
531.46	191.92
531.63	149.79
531.80	140.43
531.97	154.48
532.14	227.03
532.31	187.24
532.48	243.42
532.65	259.80
532.82	269.16
532.99	320.65
533.16	224.69
533.33	259.80
533.50	231.71
533.67	290.23
533.84	369.80
534.01	407.25
534.18	346.40
534.35	355.76
534.52	215.33
534.69	262.14
534.86	224.69
535.03	131.07
535.20	194.26
535.37	259.80
535.54	145.11
535.71	159.16
535.88	280.86
536.05	259.80
536.22	236.39
536.38	110.01
536.55	222.35
536.72	243.42
536.89	311.29
537.06	231.71
537.23	203.63
537.40	182.56
537.57	177.88
537.74	243.42
537.91	142.77
538.08	184.90
538.25	210.65
538.42	222.35
538.59	229.37
538.75	252.78
538.92	208.31
539.09	236.39
539.26	238.73
539.43	358.10
539.60	980.68
539.77	1472.20
539.94	1455.81
540.11	1048.56
540.28	734.93
540.44	543.00
540.61	243.42
540.78	224.69
540.95	128.73
541.12	220.01
541.29	243.42
541.46	210.65
541.62	229.37
541.79	217.67
541.96	227.03
542.13	217.67
542.30	220.01
542.47	177.88
542.63	215.33
542.80	182.56
542.97	203.63
543.14	168.52
543.31	264.48
543.48	189.58
543.64	229.37
543.81	166.18
543.98	215.33
544.15	140.43
544.32	203.63
544.48	222.35
544.65	238.73
544.82	184.90
544.99	189.58
545.16	201.29
545.32	229.37
545.49	259.80
545.66	194.26
545.83	220.01
546.00	173.20
546.16	187.24
546.33	187.24
546.50	229.37
546.67	194.26
546.83	241.08
547.00	156.82
547.17	170.86
547.34	201.29
547.50	252.78
547.67	243.42
547.84	156.82
548.00	177.88
548.17	154.48
548.34	133.41
548.51	184.90
548.67	301.93
548.84	252.78
549.01	201.29
549.18	222.35
549.34	280.86
549.51	231.71
549.68	175.54
549.84	208.31
550.01	212.99
550.18	280.86
550.34	273.84
550.51	243.42
550.68	245.76
550.84	215.33
551.01	313.63
551.18	180.22
551.34	229.37
551.51	227.03
551.68	194.26
551.84	142.77
552.01	234.05
552.18	180.22
552.34	250.44
552.51	196.60
552.68	142.77
552.84	212.99
553.01	180.22
553.18	252.78
553.34	131.07
553.51	210.65
553.67	194.26
553.84	332.36
554.01	198.95
554.17	229.37
554.34	229.37
554.51	173.20
554.67	231.71
554.84	222.35
555.00	245.76
555.17	168.52
555.33	224.69
555.50	269.16
555.67	292.57
555.83	201.29
556.00	159.16
556.16	421.30
556.33	276.18
556.50	128.73
556.66	191.92
556.83	236.39
556.99	126.39
557.16	168.52
557.32	234.05
557.49	215.33
557.65	210.65
557.82	187.24
557.98	168.52
558.15	184.90
558.32	259.80
558.48	156.82
558.65	220.01
558.81	173.20
558.98	215.33
559.14	220.01
559.31	264.48
559.47	273.84
559.64	117.03
559.80	201.29
559.97	241.08
560.13	187.24
560.30	180.22
560.46	159.16
560.63	121.71
560.79	231.71
560.96	173.20
561.12	175.54
561.29	182.56
561.45	243.42
561.61	250.44
561.78	248.10
561.94	156.82
562.11	170.86
562.27	198.95
562.44	163.84
562.60	227.03
562.77	259.80
562.93	262.14
563.10	191.92
563.26	217.67
563.42	248.10
563.59	180.22
563.75	276.18
563.92	208.31
564.08	210.65
564.24	154.48
564.41	255.12
564.57	241.08
564.74	163.84
564.90	212.99
565.07	191.92
565.23	252.78
565.39	273.84
565.56	217.67
565.72	255.12
565.88	231.71
566.05	203.63
566.21	170.86
566.38	234.05
566.54	245.76
566.70	159.16
566.87	227.03
567.03	187.24
567.19	154.48
567.36	212.99
567.52	255.12
567.68	238.73
567.85	224.69
568.01	245.76
568.17	187.24
568.34	208.31
568.50	252.78
568.66	227.03
568.83	255.12
568.99	269.16
569.15	236.39
569.32	154.48
569.48	255.12
569.64	234.05
569.81	264.48
569.97	149.79
570.13	140.43
570.30	191.92
570.46	238.73
570.62	236.39
570.78	173.20
570.95	112.35
571.11	156.82
571.27	220.01
571.43	161.50
571.60	276.18
571.76	173.20
571.92	250.44
572.09	170.86
572.25	229.37
572.41	222.35
572.57	147.45
572.74	278.52
572.90	170.86
573.06	229.37
573.22	161.50
573.38	212.99
573.55	287.89
573.71	201.29
573.87	217.67
574.03	238.73
574.20	217.67
574.36	264.48
574.52	358.10
574.68	334.70
574.84	273.84
575.01	189.58
575.17	287.89
575.33	182.56
575.49	210.65
575.65	259.80
575.82	276.18
575.98	500.87
576.14	624.92
576.30	662.37
576.46	454.06
576.62	428.32
576.79	332.36
576.95	285.55
577.11	269.16
577.27	257.46
577.43	278.52
577.59	276.18
577.75	236.39
577.92	191.92
578.08	212.99
578.24	250.44
578.40	301.93
578.56	255.12
578.72	231.71
578.88	269.16
579.04	285.55
579.21	301.93
579.37	280.86
579.53	241.08
579.69	234.05
579.85	285.55
580.01	318.31
580.17	301.93
580.33	273.84
580.49	348.74
580.65	320.65
580.82	294.91
580.98	301.93
581.14	243.42
581.30	353.42
581.46	428.32
581.62	491.51
581.78	580.45
581.94	643.65
582.10	454.06
582.26	407.25
582.42	332.36
582.58	411.93
582.74	386.19
582.90	388.53
583.06	472.79
583.22	428.32
583.38	402.57
583.54	500.87
583.70	585.13
583.86	538.32
584.02	739.61
584.18	809.83
584.34	1146.86
584.50	2998.23
584.66	22300.62
584.82	55000.25
584.98	65535.00
585.14	63573.63
585.30	49944.69
585.46	30202.27
585.62	18305.33
585.78	8468.06
585.94	3346.97
586.10	1591.56
586.26	1013.45
586.42	784.08
586.58	674.07
586.74	634.29
586.90	596.84
587.06	456.40
587.22	451.72
587.38	440.02
587.54	1060.26
587.70	3513.14
587.86	5722.61
588.02	6747.76
588.18	4692.77
588.34	2939.71
588.49	1881.79
588.65	1181.97
588.81	674.07
588.97	362.78
589.13	269.16
589.29	297.25
589.45	308.95
589.61	308.95
589.77	351.08
589.93	402.57
590.08	461.09
590.24	433.00
590.40	386.19
590.56	456.40
590.72	351.08
590.88	297.25
591.04	313.63
591.20	262.14
591.35	217.67
591.51	294.91
591.67	334.70
591.83	241.08
591.99	299.59
592.15	201.29
592.31	278.52
592.46	245.76
592.62	271.50
592.78	269.16
592.94	276.18
593.10	271.50
593.26	203.63
593.41	236.39
593.57	341.72
593.73	447.04
593.89	2630.76
594.05	7236.94
594.20	11269.68
594.36	10848.38
594.52	7047.35
594.68	4304.25
594.84	2939.71
594.99	1540.07
595.15	720.88
595.31	468.11
595.47	304.27
595.62	304.27
595.78	273.84
595.94	215.33
596.10	308.95
596.25	346.40
596.41	348.74
596.57	212.99
596.73	320.65
596.88	447.04
597.04	1294.32
597.20	2242.23
597.36	2818.00
597.51	2134.57
597.67	1385.60
597.83	1015.79
597.99	718.54
598.14	428.32
598.30	348.74
598.46	297.25
598.61	334.70
598.77	367.46
598.93	294.91
599.09	245.76
599.24	278.52
599.40	325.33
599.56	264.48
599.71	163.84
599.87	142.77
600.03	180.22
600.18	184.90
600.34	198.95
600.50	170.86
600.65	184.90
600.81	166.18
600.97	138.09
601.12	217.67
601.28	248.10
601.44	234.05
601.59	276.18
601.75	259.80
601.91	201.29
602.06	210.65
602.22	332.36
602.37	706.84
602.53	1596.25
602.69	2689.28
602.84	3080.14
603.00	2120.53
603.16	1404.32
603.31	1083.67
603.47	638.97
603.62	390.87
603.78	311.29
603.94	278.52
604.09	182.56
604.25	273.84
604.40	238.73
604.56	208.31
604.71	337.04
604.87	234.05
605.03	273.84
605.18	215.33
605.34	297.25
605.49	236.39
605.65	201.29
605.80	301.93
605.96	255.12
606.12	252.78
606.27	369.80
606.43	234.05
606.58	332.36
606.74	795.78
606.89	3178.45
607.05	6881.18
607.20	9544.70
607.36	8056.12
607.51	5380.89
607.67	3445.27
607.82	2242.23
607.98	1275.59
608.13	692.80
608.29	430.66
608.44	418.96
608.60	374.49
608.75	461.09
608.91	1123.46
609.06	5116.41
609.22	11712.04
609.37	16643.55
609.53	14864.74
609.68	9706.20
609.84	6153.27
609.99	4131.05
610.15	2197.76
610.30	1011.11
610.46	503.22
610.61	386.19
610.76	334.70
610.92	360.44
611.07	220.01
611.23	379.17
611.38	315.97
611.54	383.85
611.69	262.14
