SpectraSuite Data File
++++++++++++++++++++++++++++++++++++
Date: Fri Oct 04 11:48:28 GMT-05:00 2013
User: price-jones
Dark Spectrum Present: No
Reference Spectrum Present: No
Number of Sampled Component Spectra: 1
Spectrometers: USB2+H05261
Integration Time (usec): 100000 (USB2+H05261)
Spectra Averaged: 1 (USB2+H05261)
Boxcar Smoothing: 0 (USB2+H05261)
Correct for Electrical Dark: No (USB2+H05261)
Strobe/Lamp Enabled: No (USB2+H05261)
Correct for Detector Non-linearity: No (USB2+H05261)
Correct for Stray Light: No (USB2+H05261)
Number of Pixels in Processed Spectrum: 2048
>>>>>Begin Processed Spectral Data<<<<<
365.73	72.56
365.92	72.56
366.12	72.56
366.32	0.00
366.52	0.00
366.72	0.00
366.91	0.00
367.11	0.00
367.31	0.00
367.51	0.00
367.70	0.00
367.90	0.00
368.10	0.00
368.30	0.00
368.49	0.00
368.69	0.00
368.89	0.00
369.09	0.00
369.28	14.04
369.48	0.00
369.68	0.00
369.87	0.00
370.07	46.81
370.27	9.36
370.47	161.50
370.66	344.06
370.86	435.34
371.06	470.45
371.25	531.30
371.45	386.19
371.65	477.47
371.84	447.04
372.04	458.74
372.24	479.81
372.44	423.64
372.63	512.58
372.83	535.98
373.03	521.94
373.22	484.49
373.42	533.64
373.62	645.99
373.81	599.18
374.01	587.47
374.21	634.29
374.40	610.88
374.60	585.13
374.79	660.03
374.99	606.20
375.19	641.31
375.38	596.84
375.58	610.88
375.78	695.14
375.97	627.26
376.17	751.31
376.37	662.37
376.56	741.95
376.76	650.67
376.95	741.95
377.15	725.57
377.35	709.18
377.54	674.07
377.74	720.88
377.93	720.88
378.13	758.33
378.33	706.84
378.52	688.12
378.72	732.59
378.91	805.14
379.11	802.80
379.31	692.80
379.50	777.06
379.70	753.65
379.89	748.97
380.09	809.83
380.28	784.08
380.48	823.87
380.68	777.06
380.87	770.04
381.07	812.17
381.26	929.19
381.46	880.04
381.65	830.89
381.85	873.02
382.04	887.06
382.24	894.08
382.43	910.47
382.63	823.87
382.83	720.88
383.02	858.98
383.22	924.51
383.41	870.68
383.61	889.40
383.80	880.04
384.00	985.37
384.19	964.30
384.39	978.34
384.58	971.32
384.78	940.90
384.97	873.02
385.17	1053.24
385.36	1048.56
385.56	990.05
385.75	954.94
385.95	1097.71
386.14	1004.09
386.34	961.96
386.53	1046.22
386.72	936.21
386.92	1006.43
387.11	1128.14
387.31	999.41
387.50	1090.69
387.70	1100.05
387.89	1088.35
388.09	1053.24
388.28	1114.10
388.48	1111.75
388.67	1170.27
388.86	1107.07
389.06	1188.99
389.25	1121.12
389.45	1196.01
389.64	1060.26
389.84	1172.61
390.03	1186.65
390.22	1226.44
390.42	1198.35
390.61	1177.29
390.81	1193.67
391.00	1198.35
391.19	1296.66
391.39	1261.55
391.58	1338.79
391.78	1336.45
391.97	1350.49
392.16	1266.23
392.36	1306.02
392.55	1369.21
392.75	1355.17
392.94	1322.40
393.13	1357.51
393.33	1341.13
393.52	1322.40
393.71	1488.58
393.91	1401.98
394.10	1387.94
394.29	1446.45
394.49	1397.30
394.68	1483.90
394.88	1397.30
395.07	1479.22
395.26	1465.18
395.46	1507.30
395.65	1582.20
395.84	1591.56
396.04	1724.97
396.23	1645.40
396.42	1577.52
396.62	1519.01
396.81	1544.75
397.00	1572.84
397.19	1645.40
397.39	1654.76
397.58	1572.84
397.77	1584.54
397.97	1717.95
398.16	1603.27
398.35	1722.63
398.55	1816.26
398.74	1837.32
398.93	1769.44
399.12	1795.19
399.32	1708.59
399.51	1717.95
399.70	1816.26
399.90	1832.64
400.09	1748.38
400.28	1994.14
400.47	1811.57
400.67	1879.45
400.86	1952.01
401.05	1860.73
401.24	1891.15
401.44	1914.56
401.63	1895.83
401.82	2012.86
402.01	1984.77
402.21	1980.09
402.40	2024.56
402.59	2026.90
402.78	2012.86
402.97	1937.96
403.17	2050.31
403.36	2122.87
403.55	2188.40
403.74	2162.66
403.93	2143.93
404.13	2242.23
404.32	2190.74
404.51	2036.27
404.70	2209.47
404.89	2303.09
405.09	2251.60
405.28	2143.93
405.47	2160.31
405.66	2328.83
405.85	2450.54
406.05	2438.84
406.24	2401.39
406.43	2375.64
406.62	2551.18
406.81	2495.01
407.00	2555.86
407.20	2431.82
407.39	2504.37
407.58	2511.39
407.77	2504.37
407.96	2534.80
408.15	2537.14
408.34	2511.39
408.54	2745.45
408.73	2586.29
408.92	2602.68
409.11	2607.36
409.30	2759.49
409.49	2850.77
409.68	2715.02
409.87	2761.83
410.07	2878.86
410.26	2881.20
410.45	2883.54
410.64	2892.90
410.83	2839.07
411.02	2899.92
411.21	2960.78
411.40	2928.01
411.59	2970.14
411.78	2995.89
411.98	3070.78
412.17	3096.53
412.36	3094.19
412.55	3178.45
412.74	3262.71
412.93	3405.48
413.12	3218.24
413.31	3389.10
413.50	3456.97
413.69	3391.44
413.88	3510.80
414.07	3396.12
414.26	3365.69
414.45	3485.06
414.64	3480.38
414.83	3590.38
415.02	3501.44
415.22	3506.12
415.41	3588.04
415.60	3686.34
415.79	3906.35
415.98	3747.20
416.17	3808.05
416.36	3779.97
416.55	3744.86
416.74	3861.88
416.93	3962.53
417.12	3985.93
417.31	3981.25
417.50	3936.78
417.69	3983.59
417.88	4044.45
418.07	4121.68
418.26	4046.79
418.45	4060.83
418.64	4140.41
418.83	4145.09
419.02	4173.18
419.21	4269.14
419.39	4201.26
419.58	4231.69
419.77	4187.22
419.96	4238.71
420.15	4428.29
420.34	4358.08
420.53	4306.59
420.72	4407.23
420.91	4517.23
421.10	4442.34
421.29	4498.51
421.48	4507.87
421.67	4498.51
421.86	4512.55
422.05	4634.26
422.24	4510.21
422.43	4578.09
422.61	4674.05
422.80	4755.97
422.99	4669.37
423.18	4718.52
423.37	4856.61
423.56	4678.73
423.75	4627.24
423.94	4660.01
424.13	4440.00
424.32	4404.89
424.50	4772.35
424.69	4730.22
424.88	4826.18
425.07	4681.07
425.26	4739.58
425.45	4664.69
425.64	4781.71
425.83	4746.61
426.01	4760.65
426.20	4599.15
426.39	4973.64
426.58	4833.21
426.77	4905.76
426.96	4830.87
427.15	4936.19
427.33	4819.16
427.52	5006.41
427.71	4915.12
427.90	4985.34
428.09	4983.00
428.28	5097.69
428.46	5083.64
428.65	5013.43
428.84	5167.90
429.03	5109.39
429.22	5032.15
429.40	5219.39
429.59	5268.55
429.78	5032.15
429.97	5184.29
430.16	5172.58
430.34	5327.06
430.53	5507.28
430.72	5310.68
430.91	5273.23
431.10	5303.65
431.28	5540.05
431.47	5490.90
431.66	5652.39
431.85	5469.83
432.03	5540.05
432.22	5598.56
432.41	5647.71
432.60	5572.82
432.79	5692.18
432.97	5706.23
433.16	5610.26
433.35	5701.54
433.54	5729.63
433.72	5898.15
433.91	5748.36
434.10	5851.34
434.28	5956.66
434.47	5685.16
434.66	5959.00
434.85	6155.61
435.03	6094.76
435.22	6064.33
435.41	6232.85
435.59	6157.95
435.78	6122.84
435.97	6223.48
436.16	6225.82
436.34	6324.13
436.53	6314.77
436.72	6303.06
436.90	6310.08
437.09	6368.60
437.28	6342.85
437.46	6349.87
437.65	6340.51
437.84	6483.28
438.02	6455.20
438.21	6448.18
438.40	6321.79
438.58	6766.49
438.77	6878.83
438.96	6808.62
439.14	6972.46
439.33	6656.48
439.52	6995.86
439.70	6979.48
439.89	7169.06
440.08	6958.41
440.26	7145.66
440.45	6965.43
440.63	7126.93
440.82	7255.66
441.01	7335.24
441.19	7213.53
441.38	7524.82
441.57	7456.95
441.75	7595.04
441.94	7583.34
442.12	7691.00
442.31	7749.51
442.50	7737.81
442.68	7698.02
442.87	7789.30
443.05	7758.88
443.24	7815.05
443.43	7892.29
443.61	7932.08
443.80	8215.28
443.98	7784.62
444.17	7634.83
444.35	8102.93
444.54	8100.59
444.73	8037.40
444.91	7997.61
445.10	8046.76
445.28	8063.15
445.47	7882.92
445.65	7927.39
445.84	8084.21
446.02	8255.07
446.21	8140.38
446.39	8037.40
446.58	8131.02
446.77	8336.99
446.95	8046.76
447.14	8121.66
447.32	8248.05
447.51	8423.59
447.69	8191.88
447.88	8049.10
448.06	8145.06
448.25	8044.42
448.43	8140.38
448.62	8491.46
448.80	8266.77
448.99	8285.50
449.17	8484.44
449.36	8336.99
449.54	8533.59
449.73	8575.72
449.91	8781.69
450.10	8723.18
450.28	8706.79
450.46	8767.65
450.65	8648.28
450.83	8828.50
451.02	8805.10
451.20	8929.14
451.39	9212.35
451.57	8821.48
451.76	9027.45
451.94	8706.79
452.13	8975.95
452.31	8896.38
452.49	8938.51
452.68	9160.86
452.86	9039.15
453.05	9245.12
453.23	9137.45
453.42	9078.94
453.60	8985.32
453.78	9055.53
453.97	9142.13
454.15	9193.62
454.34	9153.84
454.52	9240.44
454.70	9441.72
454.89	9418.32
455.07	9418.32
455.26	9467.47
455.44	9633.64
455.62	9633.64
455.81	9745.99
455.99	9610.24
456.17	9586.83
456.36	9551.73
456.54	9830.25
456.73	10017.49
456.91	10101.75
457.09	10078.35
457.28	10359.21
457.46	9994.09
457.64	10050.26
457.83	10094.73
458.01	9991.75
458.19	10424.75
458.38	10237.50
458.56	10558.16
458.74	10534.75
458.93	10214.10
459.11	10251.55
459.29	10628.37
459.48	10537.09
459.66	10413.04
459.84	10670.50
460.03	10815.62
460.21	10548.79
460.39	10829.66
460.57	10480.92
460.76	10878.81
460.94	10881.15
461.12	10780.51
461.31	10930.30
461.49	10974.77
461.67	10881.15
461.85	11068.39
462.04	11007.54
462.22	11477.99
462.40	11225.21
462.59	11330.53
462.77	11337.56
462.95	11431.18
463.13	11314.15
463.32	11225.21
463.50	11297.77
463.68	11473.31
463.86	11211.17
464.05	11410.11
464.23	11428.84
464.41	11468.62
464.59	11353.94
464.78	11775.24
464.96	11442.88
465.14	11564.59
465.32	11749.49
465.50	11602.04
465.69	11918.01
465.87	11648.85
466.05	11557.57
466.23	11873.54
466.41	11957.80
466.60	12219.94
466.78	12039.72
466.96	11756.51
467.14	11758.85
467.32	11995.25
467.51	11892.26
467.69	11808.00
467.87	12081.85
468.05	12109.93
468.23	12133.34
468.41	12173.13
468.60	12229.30
468.78	12393.14
468.96	12196.53
469.14	12336.96
469.32	12549.95
469.50	12166.10
469.69	12713.79
469.87	12982.95
470.05	12826.14
470.23	12868.27
470.41	12847.20
470.59	12744.22
470.77	12699.75
470.95	12826.14
471.14	13062.53
471.32	12903.37
471.50	13130.41
471.68	13261.48
471.86	13207.64
472.04	13558.72
472.22	13572.77
472.40	13256.79
472.58	13380.84
472.77	13673.41
472.95	14029.17
473.13	14122.79
473.31	13888.74
473.49	13804.48
473.67	13933.21
473.85	13881.72
474.03	14190.67
474.21	14066.62
474.39	14459.83
474.57	14441.11
474.75	14677.50
474.93	14476.21
475.12	14750.06
475.30	14665.80
475.48	14780.48
475.66	14775.80
475.84	15241.57
476.02	15344.55
476.20	14923.26
476.38	15332.85
476.56	15665.21
476.74	15812.66
476.92	15573.92
477.10	15543.50
477.28	15967.13
477.46	15763.51
477.64	15983.52
477.82	16383.75
478.00	16430.56
478.18	16641.21
478.36	16407.16
478.54	16484.39
478.72	16837.81
478.90	16840.15
479.08	16858.88
479.26	17289.54
479.44	17528.27
479.62	17572.74
479.80	17633.60
479.98	17607.85
480.16	18078.30
480.34	17956.59
480.52	18312.35
480.70	18230.43
480.88	17996.38
481.06	18576.83
481.24	18497.25
481.41	18429.38
481.59	18991.11
481.77	19187.71
481.95	19021.53
482.13	19517.73
482.31	19290.70
482.49	19508.37
482.67	19609.01
482.85	19747.10
483.03	20287.76
483.21	20397.77
483.39	20575.65
483.57	20545.22
483.74	20547.56
483.92	20741.83
484.10	20748.85
484.28	21177.17
484.46	21792.73
484.64	21851.24
484.82	21806.77
485.00	21841.88
485.18	22551.06
485.35	22146.15
485.53	22244.45
485.71	22375.52
485.89	22731.28
486.07	22871.72
486.25	22544.04
486.43	23061.30
486.61	23194.71
486.78	23290.67
486.96	23370.25
487.14	24130.92
487.32	24362.64
487.50	24496.05
487.68	24540.52
487.85	25132.67
488.03	25170.12
488.21	25357.36
488.39	25348.00
488.57	25570.35
488.75	25717.81
488.92	26171.87
489.10	26384.86
489.28	25986.97
489.46	26473.80
489.64	26532.31
489.81	27297.67
489.99	27091.70
490.17	27234.47
490.35	27559.81
490.53	27468.53
490.70	27800.88
490.88	27594.92
491.06	28489.00
491.24	28451.55
491.41	28744.12
491.59	28727.74
491.77	28716.03
491.95	28999.24
492.13	29390.11
492.30	29502.45
492.48	29116.26
492.66	29511.81
492.84	30150.78
493.01	30176.53
493.19	30281.85
493.37	30651.66
493.54	30623.57
493.72	30623.57
493.90	30820.17
494.08	31218.07
494.25	31840.65
494.43	31770.43
494.61	32098.11
494.79	31814.90
494.96	31718.94
495.14	32212.79
495.32	32856.44
495.49	32524.08
495.67	32748.78
495.85	33076.45
496.02	33394.76
496.20	33352.63
496.38	33516.47
496.55	33523.49
496.73	34113.31
496.91	33799.68
497.09	34249.06
497.26	34675.04
497.44	34391.83
497.62	34518.22
497.79	35168.89
497.97	34696.10
498.14	35349.11
498.32	35732.96
498.50	35669.76
498.67	35791.47
498.85	35716.58
499.03	35737.64
499.20	36046.59
499.38	36437.46
499.56	36737.05
499.73	36863.44
499.91	36879.82
500.08	36931.31
500.26	36788.54
500.44	37083.45
500.61	37301.12
500.79	37083.45
500.97	37670.92
501.14	38014.98
501.32	37699.01
501.49	38059.45
501.67	38356.70
501.84	38572.03
502.02	38113.28
502.20	38581.39
502.37	39005.03
502.55	38817.78
502.72	38733.53
502.90	39236.74
503.07	38972.26
503.25	39309.30
503.43	38948.85
503.60	39683.78
503.78	39442.71
503.95	39562.08
504.13	40119.12
504.30	40271.26
504.48	39732.93
504.65	40458.50
504.83	40144.87
505.01	40744.05
505.18	40900.86
505.36	41275.35
505.53	40666.81
505.71	41095.13
505.88	41350.24
506.06	41144.28
506.23	41471.95
506.41	40992.14
506.58	41670.90
506.76	41516.42
506.93	41560.89
507.11	41848.78
507.28	41813.67
507.46	42260.71
507.63	42483.06
507.81	42965.21
507.98	42684.35
508.16	42515.83
508.33	42756.91
508.50	43203.95
508.68	43297.57
508.85	43131.39
509.03	43318.64
509.20	43377.15
509.38	43742.27
509.55	44126.12
509.73	43519.92
509.90	44105.06
510.08	43739.93
510.25	44254.85
510.42	44320.38
510.60	44825.94
510.77	44472.52
510.95	44680.83
511.12	44418.69
511.30	44783.81
511.47	45345.54
511.64	44952.33
511.82	45516.40
511.99	45319.79
512.17	45581.93
512.34	45563.21
512.51	45406.39
512.69	45741.09
512.86	45942.38
513.04	46129.62
513.21	46293.46
513.38	46635.17
513.56	46515.81
513.73	46061.74
513.90	46834.12
514.08	46763.90
514.25	46637.51
514.43	46799.01
514.60	47023.70
514.77	46993.28
514.95	47009.66
515.12	46955.83
515.29	47224.99
515.47	47299.89
515.64	47903.74
515.81	47618.20
515.99	47810.12
516.16	48006.73
516.33	47868.64
516.51	48034.81
516.68	48135.46
516.85	48107.37
517.03	48381.21
517.20	48872.73
517.37	48437.39
517.54	48240.78
517.72	48294.61
517.89	47903.74
518.06	48650.38
518.24	48982.73
518.41	48971.03
518.58	48458.45
518.75	49024.86
518.93	49195.72
519.10	49059.97
519.27	49507.01
519.45	48928.90
519.62	49207.42
519.79	49532.76
519.96	49635.74
520.14	49820.64
520.31	49748.09
520.48	50232.58
520.65	49951.71
520.83	49839.37
521.00	50099.17
521.17	50188.11
521.34	49947.03
521.52	50590.68
521.69	50284.07
521.86	50616.43
522.03	50478.33
522.20	50937.08
522.38	50841.12
522.55	50937.08
522.72	51098.58
522.89	51250.71
523.07	51519.87
523.24	50927.72
523.41	51356.03
523.58	51110.28
523.75	51377.10
523.92	51536.26
524.10	51540.94
524.27	51831.16
524.44	51955.21
524.61	51697.75
524.78	51767.97
524.96	51690.73
525.13	51732.86
525.30	51618.17
525.47	52067.56
525.64	51922.44
525.81	52268.84
525.98	52275.87
526.16	52299.27
526.33	52172.88
526.50	52521.62
526.67	52411.62
526.84	52573.11
527.01	52636.31
527.18	52425.66
527.36	52552.05
527.53	52643.33
527.70	53345.49
527.87	52931.22
528.04	52743.97
528.21	52804.83
528.38	52886.74
528.55	53120.80
528.72	52769.72
528.89	52861.00
529.07	53209.74
529.24	53120.80
529.41	53179.31
529.58	53277.61
529.75	53488.26
529.92	53198.04
530.09	53467.20
530.26	53633.38
530.43	53483.58
530.60	53371.24
530.77	53333.79
530.94	53717.64
531.11	53394.64
531.28	53598.27
531.46	53832.32
531.63	54000.84
531.80	54066.38
531.97	54188.08
532.14	54096.80
532.31	54089.78
532.48	53902.54
532.65	54295.75
532.82	53925.94
532.99	54321.49
533.16	54195.10
533.33	54459.58
533.50	54925.35
533.67	54487.67
533.84	54621.08
534.01	54351.92
534.18	54377.67
534.35	54820.03
534.52	54525.12
534.69	54805.98
534.86	54883.22
535.03	54747.47
535.20	54962.80
535.37	54885.56
535.54	54927.69
535.71	54995.57
535.88	54623.42
536.05	54855.14
536.22	55154.72
536.38	55159.41
536.55	55267.07
536.72	55487.08
536.89	55070.46
537.06	55065.78
537.23	55145.36
537.40	55325.58
537.57	55100.89
537.74	55267.07
537.91	55365.37
538.08	55646.24
538.25	55442.61
538.42	55302.18
538.59	55620.49
538.75	55370.05
538.92	55709.43
539.09	55920.08
539.26	55662.62
539.43	55774.97
539.60	55959.87
539.77	55922.42
539.94	56275.84
540.11	55774.97
540.28	55772.63
540.44	55938.80
540.61	55833.48
540.78	56074.55
540.95	56107.32
541.12	56250.09
541.29	56217.33
541.46	56198.60
541.62	55969.23
541.79	56275.84
541.96	55927.10
542.13	56282.86
542.30	56245.41
542.47	56315.63
542.63	56692.46
542.80	56786.08
542.97	56505.21
543.14	56676.07
543.31	56622.24
543.48	56767.35
543.64	57134.82
543.81	56774.37
543.98	57057.58
544.15	56959.28
544.32	57078.64
544.48	57015.45
544.65	57027.15
544.82	57127.80
544.99	56818.84
545.16	57015.45
545.32	57146.52
545.49	57286.95
545.66	57389.94
545.83	57467.17
546.00	57474.20
546.16	57380.57
546.33	57059.92
546.50	56992.04
546.67	57205.03
546.83	57055.24
547.00	57544.41
547.17	57375.89
547.34	57200.35
547.50	57549.09
547.67	57722.29
547.84	57836.98
548.00	57893.15
548.17	57736.34
548.34	57848.68
548.51	57961.03
548.67	57755.06
548.84	57949.32
549.01	57762.08
549.18	57815.91
549.34	57691.86
549.51	57745.70
549.68	57925.92
549.84	57876.77
550.01	57982.09
550.18	58054.65
550.34	57965.71
550.51	57977.41
550.68	58152.95
550.84	57698.89
551.01	58120.18
551.18	57827.62
551.34	57923.58
551.51	58155.29
551.68	58054.65
551.84	58382.32
552.01	58347.21
552.18	58342.53
552.34	58120.18
552.51	58342.53
552.68	58124.86
552.84	58232.53
553.01	58473.60
553.18	58204.44
553.34	58410.41
553.51	58468.92
553.67	58628.08
553.84	58759.15
554.01	58684.25
554.17	58452.54
554.34	58527.44
554.51	58642.12
554.67	58740.42
554.84	58604.67
555.00	58557.86
555.17	58677.23
555.33	58761.49
555.50	58700.64
555.67	58681.91
555.83	58796.60
556.00	59000.22
556.16	58857.45
556.33	58763.83
556.50	58791.92
556.66	58981.50
556.83	58670.21
556.99	59206.19
557.16	59051.72
557.32	59063.42
557.49	58859.79
557.65	58820.00
557.82	58843.41
557.98	58930.01
558.15	59061.08
558.32	59255.34
558.48	59112.57
558.65	58995.54
558.81	59089.16
558.98	59042.35
559.14	59037.67
559.31	59065.76
559.47	59126.61
559.64	59337.26
559.80	59323.22
559.97	59372.37
560.13	59166.40
560.30	59402.80
560.46	59264.70
560.63	59320.88
560.79	59423.86
560.96	59391.09
561.12	59379.39
561.29	59379.39
561.45	59465.99
561.61	59363.01
561.78	59599.40
561.94	59522.16
562.11	59449.61
562.27	59381.73
562.44	59545.57
562.60	59386.41
562.77	59578.34
562.93	59671.96
563.10	59728.13
563.26	59468.33
563.42	59824.09
563.59	59856.86
563.75	59814.73
563.92	59678.98
564.08	59580.68
564.24	59639.19
564.41	59618.13
564.57	59473.01
564.74	59744.51
564.90	59777.28
565.07	59753.88
565.23	59971.55
565.39	59817.07
565.56	59707.07
565.72	59421.52
565.88	59606.42
566.05	59721.11
566.21	59744.51
566.38	59765.58
566.54	59730.47
566.70	60065.17
566.87	60086.23
567.03	59737.49
567.19	60154.11
567.36	59997.29
567.52	59938.78
567.68	59966.87
567.85	59615.79
568.01	59831.11
568.17	59828.77
568.34	59978.57
568.50	60121.34
568.66	60032.40
568.83	60006.65
568.99	59952.82
569.15	60119.00
569.32	59913.03
569.48	59774.94
569.64	59866.22
569.81	60163.47
569.97	60151.77
570.13	60079.21
570.30	59901.33
570.46	60156.45
570.62	60046.44
570.78	60076.87
570.95	59966.87
571.11	60231.35
571.27	59875.58
571.43	60205.60
571.60	60247.73
571.76	60392.84
571.92	60376.46
572.09	60343.69
572.25	60128.36
572.41	59980.91
572.57	60018.36
572.74	60390.50
572.90	60046.44
573.06	60130.70
573.22	60161.13
573.38	60303.90
573.55	60018.36
573.71	60587.11
573.87	60495.83
574.03	60224.32
574.20	60247.73
574.36	60301.56
574.52	60287.52
574.68	60095.60
574.84	60210.28
575.01	60441.99
575.17	60500.51
575.33	60376.46
575.49	60381.14
575.65	60449.02
575.82	60453.70
575.98	60346.03
576.14	60219.64
576.30	60573.06
576.46	60395.18
576.62	60444.33
576.79	60348.37
576.95	60069.85
577.11	60486.46
577.27	60310.92
577.43	60512.21
577.59	60385.82
577.75	60374.12
577.92	60109.64
578.08	60266.45
578.24	60280.50
578.40	60289.86
578.56	60264.11
578.72	60367.10
578.88	60392.84
579.04	60526.25
579.21	60418.59
579.37	60399.86
579.53	60385.82
579.69	60245.39
579.85	60317.95
580.01	60493.49
580.17	60430.29
580.33	60575.40
580.49	60612.85
580.65	60764.99
580.82	60589.45
580.98	60603.49
581.14	60413.91
581.30	60612.85
581.46	60498.17
581.62	60369.44
581.78	60111.98
581.94	60654.98
582.10	60549.66
582.26	60615.19
582.42	60793.07
582.58	60453.70
582.74	60694.77
582.90	60821.16
583.06	60470.08
583.22	60601.15
583.38	60638.60
583.54	60559.02
583.70	60570.72
583.86	60746.26
584.02	60654.98
584.18	60561.36
584.34	61064.58
584.50	60755.63
584.66	60638.60
584.82	60563.70
584.98	60430.29
585.14	60523.91
585.30	60420.93
585.46	60507.53
585.62	60472.42
585.78	60725.20
585.94	60528.59
586.10	60577.75
586.26	60612.85
586.42	60884.36
586.58	60870.31
586.74	60615.19
586.90	60530.93
587.06	60610.51
587.22	60720.52
587.38	60390.50
587.54	60884.36
587.70	60772.01
587.86	60774.35
588.02	60947.55
588.18	60809.46
588.34	60697.11
588.49	60699.45
588.65	60533.28
588.81	60617.53
588.97	60762.65
589.13	60739.24
