SpectraSuite Data File
++++++++++++++++++++++++++++++++++++
Date: Fri Oct 04 11:47:19 GMT-05:00 2013
User: price-jones
Dark Spectrum Present: No
Reference Spectrum Present: No
Number of Sampled Component Spectra: 1
Spectrometers: USB2+H05261
Integration Time (usec): 100000 (USB2+H05261)
Spectra Averaged: 1 (USB2+H05261)
Boxcar Smoothing: 0 (USB2+H05261)
Correct for Electrical Dark: No (USB2+H05261)
Strobe/Lamp Enabled: No (USB2+H05261)
Correct for Detector Non-linearity: No (USB2+H05261)
Correct for Stray Light: No (USB2+H05261)
Number of Pixels in Processed Spectrum: 2048
>>>>>Begin Processed Spectral Data<<<<<
365.73	49.15
365.92	49.15
366.12	49.15
366.32	0.00
366.52	0.00
366.72	0.00
366.91	0.00
367.11	0.00
367.31	0.00
367.51	0.00
367.70	0.00
367.90	0.00
368.10	0.00
368.30	0.00
368.49	0.00
368.69	0.00
368.89	0.00
369.09	0.00
369.28	0.00
369.48	0.00
369.68	0.00
369.87	0.00
370.07	0.00
370.27	0.00
370.47	0.00
370.66	0.00
370.86	4.68
371.06	91.28
371.25	110.01
371.45	35.11
371.65	58.51
371.84	49.15
372.04	42.13
372.24	58.51
372.44	72.56
372.63	42.13
372.83	100.64
373.03	110.01
373.22	18.72
373.42	88.94
373.62	119.37
373.81	79.58
374.01	114.69
374.21	133.41
374.40	119.37
374.60	128.73
374.79	74.90
374.99	112.35
375.19	110.01
375.38	14.04
375.58	117.03
375.78	135.75
375.97	93.62
376.17	184.90
376.37	74.90
376.56	133.41
376.76	124.05
376.95	60.85
377.15	112.35
377.35	56.17
377.54	25.75
377.74	102.98
377.93	98.30
378.13	23.41
378.33	133.41
378.52	119.37
378.72	100.64
378.91	159.16
379.11	117.03
379.31	93.62
379.50	51.49
379.70	112.35
379.89	121.71
380.09	60.85
380.28	65.54
380.48	142.77
380.68	138.09
380.87	30.43
381.07	93.62
381.26	133.41
381.46	81.92
381.65	121.71
381.85	74.90
382.04	124.05
382.24	100.64
382.43	107.66
382.63	93.62
382.83	63.19
383.02	74.90
383.22	163.84
383.41	175.54
383.61	135.75
383.80	95.96
384.00	95.96
384.19	194.26
384.39	124.05
384.58	56.17
384.78	102.98
384.97	32.77
385.17	95.96
385.36	100.64
385.56	51.49
385.75	147.45
385.95	107.66
386.14	93.62
386.34	112.35
386.53	60.85
386.72	126.39
386.92	114.69
387.11	84.26
387.31	194.26
387.50	117.03
387.70	28.09
387.89	65.54
388.09	53.83
388.28	74.90
388.48	107.66
388.67	147.45
388.86	58.51
389.06	81.92
389.25	74.90
389.45	156.82
389.64	98.30
389.84	112.35
390.03	161.50
390.22	159.16
390.42	49.15
390.61	100.64
390.81	46.81
391.00	95.96
391.19	142.77
391.39	107.66
391.58	149.79
391.78	74.90
391.97	133.41
392.16	42.13
392.36	180.22
392.55	131.07
392.75	65.54
392.94	105.32
393.13	32.77
393.33	98.30
393.52	86.60
393.71	149.79
393.91	16.38
394.10	145.11
394.29	79.58
394.49	91.28
394.68	102.98
394.88	191.92
395.07	142.77
395.26	119.37
395.46	107.66
395.65	107.66
395.84	117.03
396.04	145.11
396.23	114.69
396.42	74.90
396.62	105.32
396.81	154.48
397.00	126.39
397.19	107.66
397.39	119.37
397.58	154.48
397.77	65.54
397.97	74.90
398.16	119.37
398.35	114.69
398.55	98.30
398.74	100.64
398.93	93.62
399.12	117.03
399.32	124.05
399.51	53.83
399.70	110.01
399.90	142.77
400.09	88.94
400.28	86.60
400.47	107.66
400.67	147.45
400.86	63.19
401.05	166.18
401.24	131.07
401.44	161.50
401.63	112.35
401.82	42.13
402.01	86.60
402.21	128.73
402.40	168.52
402.59	110.01
402.78	93.62
402.97	88.94
403.17	119.37
403.36	110.01
403.55	154.48
403.74	159.16
403.93	208.31
404.13	184.90
404.32	152.13
404.51	72.56
404.70	229.37
404.89	107.66
405.09	175.54
405.28	84.26
405.47	74.90
405.66	105.32
405.85	149.79
406.05	67.88
406.24	147.45
406.43	77.24
406.62	124.05
406.81	126.39
407.00	110.01
407.20	145.11
407.39	98.30
407.58	102.98
407.77	95.96
407.96	133.41
408.15	126.39
408.34	100.64
408.54	147.45
408.73	205.97
408.92	114.69
409.11	166.18
409.30	145.11
409.49	114.69
409.68	58.51
409.87	114.69
410.07	39.79
410.26	84.26
410.45	140.43
410.64	102.98
410.83	53.83
411.02	121.71
411.21	102.98
411.40	114.69
411.59	114.69
411.78	102.98
411.98	147.45
412.17	51.49
412.36	107.66
412.55	18.72
412.74	205.97
412.93	161.50
413.12	159.16
413.31	107.66
413.50	154.48
413.69	88.94
413.88	88.94
414.07	117.03
414.26	51.49
414.45	84.26
414.64	126.39
414.83	175.54
415.02	140.43
415.22	131.07
415.41	166.18
415.60	147.45
415.79	196.60
415.98	182.56
416.17	95.96
416.36	119.37
416.55	102.98
416.74	142.77
416.93	173.20
417.12	98.30
417.31	110.01
417.50	156.82
417.69	182.56
417.88	191.92
418.07	177.88
418.26	145.11
418.45	126.39
418.64	201.29
418.83	217.67
419.02	175.54
419.21	205.97
419.39	110.01
419.58	168.52
419.77	163.84
419.96	238.73
420.15	201.29
420.34	140.43
420.53	110.01
420.72	163.84
420.91	154.48
421.10	159.16
421.29	102.98
421.48	138.09
421.67	135.75
421.86	138.09
422.05	60.85
422.24	91.28
422.43	135.75
422.61	39.79
422.80	105.32
422.99	175.54
423.18	110.01
423.37	121.71
423.56	163.84
423.75	110.01
423.94	124.05
424.13	86.60
424.32	56.17
424.50	30.43
424.69	121.71
424.88	95.96
425.07	131.07
425.26	156.82
425.45	229.37
425.64	124.05
425.83	196.60
426.01	234.05
426.20	145.11
426.39	138.09
426.58	110.01
426.77	100.64
426.96	145.11
427.15	117.03
427.33	119.37
427.52	124.05
427.71	149.79
427.90	95.96
428.09	105.32
428.28	147.45
428.46	84.26
428.65	159.16
428.84	159.16
429.03	140.43
429.22	93.62
429.40	126.39
429.59	65.54
429.78	145.11
429.97	105.32
430.16	74.90
430.34	46.81
430.53	91.28
430.72	91.28
430.91	128.73
431.10	112.35
431.28	133.41
431.47	168.52
431.66	133.41
431.85	98.30
432.03	187.24
432.22	114.69
432.41	100.64
432.60	170.86
432.79	208.31
432.97	259.80
433.16	191.92
433.35	236.39
433.54	126.39
433.72	117.03
433.91	152.13
434.10	114.69
434.28	126.39
434.47	154.48
434.66	154.48
434.85	93.62
435.03	177.88
435.22	79.58
435.41	149.79
435.59	208.31
435.78	159.16
435.97	102.98
436.16	166.18
436.34	121.71
436.53	114.69
436.72	135.75
436.90	177.88
437.09	182.56
437.28	119.37
437.46	121.71
437.65	119.37
437.84	60.85
438.02	168.52
438.21	110.01
438.40	112.35
438.58	128.73
438.77	180.22
438.96	156.82
439.14	77.24
439.33	112.35
439.52	152.13
439.70	105.32
439.89	140.43
440.08	110.01
440.26	95.96
440.45	110.01
440.63	98.30
440.82	184.90
441.01	117.03
441.19	133.41
441.38	112.35
441.57	147.45
441.75	196.60
441.94	238.73
442.12	119.37
442.31	126.39
442.50	79.58
442.68	156.82
442.87	79.58
443.05	133.41
443.24	177.88
443.43	102.98
443.61	135.75
443.80	180.22
443.98	107.66
444.17	95.96
444.35	170.86
444.54	119.37
444.73	203.63
444.91	145.11
445.10	91.28
445.28	95.96
445.47	156.82
445.65	147.45
445.84	152.13
446.02	173.20
446.21	58.51
446.39	173.20
446.58	159.16
446.77	159.16
446.95	156.82
447.14	208.31
447.32	163.84
447.51	93.62
447.69	149.79
447.88	86.60
448.06	182.56
448.25	138.09
448.43	135.75
448.62	117.03
448.80	168.52
448.99	222.35
449.17	81.92
449.36	95.96
449.54	100.64
449.73	149.79
449.91	149.79
450.10	84.26
450.28	238.73
450.46	201.29
450.65	163.84
450.83	107.66
451.02	145.11
451.20	140.43
451.39	142.77
451.57	198.95
451.76	133.41
451.94	147.45
452.13	131.07
452.31	117.03
452.49	140.43
452.68	88.94
452.86	170.86
453.05	168.52
453.23	102.98
453.42	81.92
453.60	147.45
453.78	84.26
453.97	170.86
454.15	63.19
454.34	149.79
454.52	161.50
454.70	252.78
454.89	100.64
455.07	102.98
455.26	98.30
455.44	110.01
455.62	189.58
455.81	191.92
455.99	138.09
456.17	156.82
456.36	159.16
456.54	166.18
456.73	131.07
456.91	28.09
457.09	159.16
457.28	145.11
457.46	145.11
457.64	102.98
457.83	154.48
458.01	95.96
458.19	156.82
458.38	77.24
458.56	112.35
458.74	135.75
458.93	114.69
459.11	98.30
459.29	135.75
459.48	112.35
459.66	189.58
459.84	203.63
460.03	252.78
460.21	173.20
460.39	128.73
460.57	168.52
460.76	117.03
460.94	84.26
461.12	156.82
461.31	152.13
461.49	194.26
461.67	65.54
461.85	173.20
462.04	154.48
462.22	582.79
462.40	124.05
462.59	149.79
462.77	114.69
462.95	131.07
463.13	117.03
463.32	163.84
463.50	201.29
463.68	187.24
463.86	60.85
464.05	128.73
464.23	152.13
464.41	152.13
464.59	81.92
464.78	177.88
464.96	93.62
465.14	168.52
465.32	114.69
465.50	135.75
465.69	159.16
465.87	138.09
466.05	133.41
466.23	60.85
466.41	152.13
466.60	117.03
466.78	166.18
466.96	133.41
467.14	161.50
467.32	168.52
467.51	131.07
467.69	175.54
467.87	170.86
468.05	180.22
468.23	264.48
468.41	215.33
468.60	187.24
468.78	135.75
468.96	196.60
469.14	91.28
469.32	56.17
469.50	156.82
469.69	121.71
469.87	189.58
470.05	184.90
470.23	128.73
470.41	128.73
470.59	140.43
470.77	182.56
470.95	177.88
471.14	154.48
471.32	224.69
471.50	203.63
471.68	128.73
471.86	159.16
472.04	163.84
472.22	128.73
472.40	65.54
472.58	98.30
472.77	98.30
472.95	175.54
473.13	180.22
473.31	205.97
473.49	100.64
473.67	110.01
473.85	187.24
474.03	196.60
474.21	131.07
474.39	182.56
474.57	222.35
474.75	161.50
474.93	49.15
475.12	142.77
475.30	117.03
475.48	149.79
475.66	147.45
475.84	184.90
476.02	149.79
476.20	147.45
476.38	112.35
476.56	215.33
476.74	128.73
476.92	154.48
477.10	114.69
477.28	135.75
477.46	145.11
477.64	138.09
477.82	112.35
478.00	156.82
478.18	229.37
478.36	77.24
478.54	149.79
478.72	131.07
478.90	168.52
479.08	168.52
479.26	194.26
479.44	159.16
479.62	156.82
479.80	194.26
479.98	161.50
480.16	102.98
480.34	145.11
480.52	163.84
480.70	243.42
480.88	149.79
481.06	60.85
481.24	105.32
481.41	114.69
481.59	182.56
481.77	194.26
481.95	128.73
482.13	227.03
482.31	262.14
482.49	133.41
482.67	182.56
482.85	159.16
483.03	154.48
483.21	154.48
483.39	152.13
483.57	210.65
483.74	248.10
483.92	159.16
484.10	107.66
484.28	119.37
484.46	220.01
484.64	175.54
484.82	159.16
485.00	159.16
485.18	152.13
485.35	198.95
485.53	126.39
485.71	84.26
485.89	135.75
486.07	163.84
486.25	262.14
486.43	187.24
486.61	168.52
486.78	175.54
486.96	168.52
487.14	140.43
487.32	168.52
487.50	114.69
487.68	93.62
487.85	194.26
488.03	198.95
488.21	117.03
488.39	138.09
488.57	210.65
488.75	201.29
488.92	402.57
489.10	198.95
489.28	170.86
489.46	105.32
489.64	182.56
489.81	152.13
489.99	131.07
490.17	154.48
490.35	175.54
490.53	173.20
490.70	163.84
490.88	182.56
491.06	220.01
491.24	168.52
491.41	170.86
491.59	180.22
491.77	208.31
491.95	168.52
492.13	140.43
492.30	126.39
492.48	152.13
492.66	128.73
492.84	156.82
493.01	175.54
493.19	149.79
493.37	198.95
493.54	236.39
493.72	131.07
493.90	74.90
494.08	175.54
494.25	210.65
494.43	159.16
494.61	198.95
494.79	184.90
494.96	121.71
495.14	189.58
495.32	124.05
495.49	182.56
495.67	170.86
495.85	159.16
496.02	133.41
496.20	107.66
496.38	152.13
496.55	191.92
496.73	142.77
496.91	187.24
497.09	152.13
497.26	131.07
497.44	189.58
497.62	196.60
497.79	163.84
497.97	212.99
498.14	163.84
498.32	159.16
498.50	276.18
498.67	173.20
498.85	126.39
499.03	208.31
499.20	184.90
499.38	159.16
499.56	156.82
499.73	168.52
499.91	189.58
500.08	217.67
500.26	184.90
500.44	152.13
500.61	156.82
500.79	161.50
500.97	184.90
501.14	243.42
501.32	98.30
501.49	217.67
501.67	159.16
501.84	229.37
502.02	140.43
502.20	212.99
502.37	210.65
502.55	227.03
502.72	133.41
502.90	205.97
503.07	140.43
503.25	142.77
503.43	210.65
503.60	236.39
503.78	234.05
503.95	231.71
504.13	154.48
504.30	276.18
504.48	238.73
504.65	203.63
504.83	198.95
505.01	191.92
505.18	126.39
505.36	147.45
505.53	180.22
505.71	161.50
505.88	292.57
506.06	205.97
506.23	227.03
506.41	152.13
506.58	198.95
506.76	145.11
506.93	163.84
507.11	191.92
507.28	245.76
507.46	229.37
507.63	114.69
507.81	205.97
507.98	231.71
508.16	245.76
508.33	180.22
508.50	220.01
508.68	191.92
508.85	166.18
509.03	205.97
509.20	175.54
509.38	234.05
509.55	250.44
509.73	156.82
509.90	147.45
510.08	187.24
510.25	210.65
510.42	124.05
510.60	252.78
510.77	173.20
510.95	201.29
511.12	269.16
511.30	315.97
511.47	231.71
511.64	304.27
511.82	257.46
511.99	184.90
512.17	250.44
512.34	252.78
512.51	236.39
512.69	262.14
512.86	220.01
513.04	168.52
513.21	142.77
513.38	166.18
513.56	105.32
513.73	149.79
513.90	182.56
514.08	142.77
514.25	184.90
514.43	250.44
514.60	163.84
514.77	142.77
514.95	255.12
515.12	262.14
515.29	145.11
515.47	259.80
515.64	255.12
515.81	177.88
515.99	205.97
516.16	231.71
516.33	266.82
516.51	227.03
516.68	161.50
516.85	135.75
517.03	135.75
517.20	231.71
517.37	191.92
517.54	205.97
517.72	168.52
517.89	180.22
518.06	220.01
518.24	238.73
518.41	290.23
518.58	234.05
518.75	194.26
518.93	238.73
519.10	236.39
519.27	212.99
519.45	191.92
519.62	208.31
519.79	95.96
519.96	227.03
520.14	212.99
520.31	196.60
520.48	184.90
520.65	285.55
520.83	187.24
521.00	210.65
521.17	297.25
521.34	250.44
521.52	234.05
521.69	269.16
521.86	215.33
522.03	215.33
522.20	269.16
522.38	222.35
522.55	191.92
522.72	205.97
522.89	231.71
523.07	250.44
523.24	222.35
523.41	175.54
523.58	245.76
523.75	180.22
523.92	241.08
524.10	117.03
524.27	215.33
524.44	220.01
524.61	241.08
524.78	175.54
524.96	252.78
525.13	252.78
525.30	264.48
525.47	257.46
525.64	187.24
525.81	198.95
525.98	194.26
526.16	152.13
526.33	245.76
526.50	142.77
526.67	259.80
526.84	124.05
527.01	142.77
527.18	154.48
527.36	234.05
527.53	194.26
527.70	175.54
527.87	175.54
528.04	283.20
528.21	198.95
528.38	177.88
528.55	210.65
528.72	259.80
528.89	278.52
529.07	220.01
529.24	299.59
529.41	220.01
529.58	250.44
529.75	191.92
529.92	243.42
530.09	220.01
530.26	222.35
530.43	217.67
530.60	285.55
530.77	201.29
530.94	187.24
531.11	140.43
531.28	299.59
531.46	273.84
531.63	201.29
531.80	234.05
531.97	227.03
532.14	159.16
532.31	241.08
532.48	257.46
532.65	234.05
532.82	402.57
532.99	322.99
533.16	353.42
533.33	269.16
533.50	238.73
533.67	266.82
533.84	425.98
534.01	383.85
534.18	348.74
534.35	306.61
534.52	222.35
534.69	238.73
534.86	224.69
535.03	182.56
535.20	229.37
535.37	227.03
535.54	196.60
535.71	126.39
535.88	259.80
536.05	166.18
536.22	161.50
536.38	205.97
536.55	194.26
536.72	180.22
536.89	266.82
537.06	194.26
537.23	212.99
537.40	147.45
537.57	189.58
537.74	142.77
537.91	201.29
538.08	177.88
538.25	180.22
538.42	201.29
538.59	191.92
538.75	163.84
538.92	220.01
539.09	175.54
539.26	255.12
539.43	461.09
539.60	1039.20
539.77	1659.44
539.94	1783.49
540.11	1181.97
540.28	711.52
540.44	463.43
540.61	285.55
540.78	271.50
540.95	280.86
541.12	259.80
541.29	191.92
541.46	315.97
541.62	191.92
541.79	205.97
541.96	189.58
542.13	229.37
542.30	245.76
542.47	276.18
542.63	236.39
542.80	227.03
542.97	173.20
543.14	161.50
543.31	184.90
543.48	234.05
543.64	227.03
543.81	205.97
543.98	217.67
544.15	196.60
544.32	142.77
544.48	245.76
544.65	220.01
544.82	152.13
544.99	194.26
545.16	210.65
545.32	201.29
545.49	243.42
545.66	224.69
545.83	241.08
546.00	142.77
546.16	152.13
546.33	196.60
546.50	229.37
546.67	273.84
546.83	194.26
547.00	196.60
547.17	156.82
547.34	168.52
547.50	252.78
547.67	222.35
547.84	156.82
548.00	220.01
548.17	189.58
548.34	184.90
548.51	198.95
548.67	248.10
548.84	152.13
549.01	117.03
549.18	166.18
549.34	196.60
549.51	224.69
549.68	273.84
549.84	245.76
550.01	126.39
550.18	236.39
550.34	278.52
550.51	252.78
550.68	191.92
550.84	184.90
551.01	145.11
551.18	168.52
551.34	231.71
551.51	203.63
551.68	187.24
551.84	212.99
552.01	191.92
552.18	252.78
552.34	147.45
552.51	217.67
552.68	227.03
552.84	177.88
553.01	252.78
553.18	208.31
553.34	245.76
553.51	241.08
553.67	283.20
553.84	327.68
554.01	170.86
554.17	271.50
554.34	205.97
554.51	252.78
554.67	241.08
554.84	184.90
555.00	201.29
555.17	177.88
555.33	248.10
555.50	180.22
555.67	163.84
555.83	208.31
556.00	217.67
556.16	390.87
556.33	280.86
556.50	243.42
556.66	145.11
556.83	187.24
556.99	201.29
557.16	177.88
557.32	220.01
557.49	248.10
557.65	215.33
557.82	229.37
557.98	131.07
558.15	231.71
558.32	222.35
558.48	241.08
558.65	248.10
558.81	252.78
558.98	177.88
559.14	154.48
559.31	163.84
559.47	196.60
559.64	231.71
559.80	217.67
559.97	168.52
560.13	224.69
560.30	231.71
560.46	205.97
560.63	152.13
560.79	208.31
560.96	182.56
561.12	135.75
561.29	205.97
561.45	203.63
561.61	229.37
561.78	262.14
561.94	208.31
562.11	215.33
562.27	184.90
562.44	180.22
562.60	170.86
562.77	117.03
562.93	262.14
563.10	173.20
563.26	184.90
563.42	203.63
563.59	173.20
563.75	168.52
563.92	180.22
564.08	290.23
564.24	175.54
564.41	205.97
564.57	234.05
564.74	163.84
564.90	201.29
565.07	308.95
565.23	245.76
565.39	269.16
565.56	257.46
565.72	238.73
565.88	189.58
566.05	217.67
566.21	142.77
566.38	189.58
566.54	198.95
566.70	145.11
566.87	201.29
567.03	191.92
567.19	222.35
567.36	231.71
567.52	201.29
567.68	210.65
567.85	250.44
568.01	168.52
568.17	166.18
568.34	234.05
568.50	252.78
568.66	208.31
568.83	278.52
568.99	177.88
569.15	250.44
569.32	175.54
569.48	224.69
569.64	147.45
569.81	210.65
569.97	135.75
570.13	222.35
570.30	180.22
570.46	243.42
570.62	191.92
570.78	159.16
570.95	210.65
571.11	177.88
571.27	283.20
571.43	266.82
571.60	231.71
571.76	259.80
571.92	194.26
572.09	257.46
572.25	245.76
572.41	220.01
572.57	142.77
572.74	210.65
572.90	257.46
573.06	201.29
573.22	205.97
573.38	234.05
573.55	156.82
573.71	217.67
573.87	224.69
574.03	224.69
574.20	182.56
574.36	231.71
574.52	276.18
574.68	351.08
574.84	346.40
575.01	264.48
575.17	229.37
575.33	285.55
575.49	280.86
575.65	252.78
575.82	308.95
575.98	589.82
576.14	692.80
576.30	739.61
576.46	571.09
576.62	372.15
576.79	404.91
576.95	234.05
577.11	217.67
577.27	236.39
577.43	271.50
577.59	269.16
577.75	266.82
577.92	280.86
578.08	229.37
578.24	287.89
578.40	243.42
578.56	283.20
578.72	220.01
578.88	266.82
579.04	238.73
579.21	257.46
579.37	362.78
579.53	313.63
579.69	238.73
579.85	243.42
580.01	304.27
580.17	416.62
580.33	346.40
580.49	339.38
580.65	322.99
580.82	346.40
580.98	320.65
581.14	320.65
581.30	346.40
581.46	388.53
581.62	566.41
581.78	645.99
581.94	648.33
582.10	472.79
582.26	472.79
582.42	360.44
582.58	444.70
582.74	383.85
582.90	407.25
583.06	472.79
583.22	503.22
583.38	409.59
583.54	470.45
583.70	585.13
583.86	709.18
584.02	854.30
584.18	968.98
584.34	1303.68
584.50	3386.76
584.66	24954.79
584.82	58417.43
584.98	65535.00
585.14	65535.00
585.30	56266.48
585.46	34431.62
585.62	21263.77
585.78	9825.57
585.94	3742.52
586.10	1790.51
586.26	1212.40
586.42	884.72
586.58	671.73
586.74	641.31
586.90	702.16
587.06	624.92
587.22	540.66
587.38	482.15
587.54	1214.74
587.70	3702.73
587.86	6431.79
588.02	7698.02
588.18	5170.24
588.34	3288.45
588.49	2136.91
588.65	1270.91
588.81	657.69
588.97	400.23
589.13	320.65
589.29	318.31
589.45	325.33
589.61	315.97
589.77	390.87
589.93	458.74
590.08	521.94
590.24	421.30
590.40	468.11
590.56	430.66
590.72	320.65
590.88	369.80
591.04	287.89
591.20	290.23
591.35	379.17
591.51	332.36
591.67	304.27
591.83	280.86
591.99	327.68
592.15	255.12
592.31	234.05
592.46	241.08
592.62	301.93
592.78	264.48
592.94	278.52
593.10	222.35
593.26	234.05
593.41	299.59
593.57	390.87
593.73	582.79
593.89	3030.99
594.05	8116.98
594.20	12819.11
594.36	12414.20
594.52	7978.89
594.68	4924.49
594.84	3227.60
594.99	1856.04
595.15	854.30
595.31	486.83
595.47	440.02
595.62	276.18
595.78	278.52
595.94	266.82
596.10	407.25
596.25	320.65
596.41	388.53
596.57	306.61
596.73	292.57
596.88	547.69
597.04	1469.86
597.20	2569.91
597.36	3204.19
597.51	2466.92
597.67	1577.52
597.83	1139.84
597.99	821.53
598.14	440.02
598.30	400.23
598.46	423.64
598.61	416.62
598.77	369.80
598.93	369.80
599.09	236.39
599.24	224.69
599.40	287.89
599.56	166.18
599.71	142.77
599.87	266.82
600.03	234.05
600.18	287.89
600.34	189.58
600.50	285.55
600.65	241.08
600.81	159.16
600.97	236.39
601.12	238.73
601.28	248.10
601.44	292.57
601.59	194.26
601.75	229.37
601.91	182.56
602.06	308.95
602.22	327.68
602.37	706.84
602.53	1825.62
602.69	3075.46
602.84	3513.14
603.00	2366.28
603.16	1568.16
603.31	1118.78
603.47	744.29
603.62	393.21
603.78	266.82
603.94	294.91
604.09	280.86
604.25	339.38
604.40	205.97
604.56	184.90
604.71	257.46
604.87	241.08
605.03	280.86
605.18	255.12
605.34	231.71
605.49	238.73
605.65	231.71
605.80	245.76
605.96	241.08
606.12	271.50
606.27	322.99
606.43	346.40
606.58	423.64
606.74	814.51
606.89	3733.15
607.05	7822.07
607.20	11061.37
607.36	9277.88
607.51	6113.48
607.67	3925.08
607.82	2684.59
607.98	1458.15
608.13	821.53
608.29	475.13
608.44	540.66
608.60	449.38
608.75	482.15
608.91	1186.65
609.06	5607.92
609.22	13231.05
609.37	19094.09
609.53	16908.03
609.68	10984.13
609.84	6864.79
609.99	4772.35
610.15	2492.67
610.30	1193.67
610.46	554.71
610.61	416.62
610.76	393.21
610.92	367.46
611.07	276.18
611.23	325.33
611.38	290.23
611.54	222.35
