SpectraSuite Data File
++++++++++++++++++++++++++++++++++++
Date: Fri Oct 04 11:48:23 GMT-05:00 2013
User: price-jones
Dark Spectrum Present: No
Reference Spectrum Present: No
Number of Sampled Component Spectra: 1
Spectrometers: USB2+H05261
Integration Time (usec): 100000 (USB2+H05261)
Spectra Averaged: 1 (USB2+H05261)
Boxcar Smoothing: 0 (USB2+H05261)
Correct for Electrical Dark: No (USB2+H05261)
Strobe/Lamp Enabled: No (USB2+H05261)
Correct for Detector Non-linearity: No (USB2+H05261)
Correct for Stray Light: No (USB2+H05261)
Number of Pixels in Processed Spectrum: 2048
>>>>>Begin Processed Spectral Data<<<<<
365.73	0.00
365.92	0.00
366.12	0.00
366.32	0.00
366.52	0.00
366.72	0.00
366.91	0.00
367.11	0.00
367.31	0.00
367.51	0.00
367.70	0.00
367.90	0.00
368.10	0.00
368.30	0.00
368.49	0.00
368.69	0.00
368.89	0.00
369.09	0.00
369.28	0.00
369.48	0.00
369.68	0.00
369.87	0.00
370.07	0.00
370.27	51.49
370.47	140.43
370.66	409.59
370.86	442.36
371.06	484.49
371.25	535.98
371.45	376.83
371.65	655.35
371.84	512.58
372.04	505.56
372.24	543.00
372.44	524.28
372.63	535.98
372.83	599.18
373.03	491.51
373.22	500.87
373.42	561.73
373.62	575.77
373.81	521.94
374.01	681.10
374.21	568.75
374.40	596.84
374.60	662.37
374.79	627.26
374.99	617.90
375.19	606.20
375.38	631.94
375.58	615.56
375.78	676.41
375.97	648.33
376.17	734.93
376.37	662.37
376.56	681.10
376.76	610.88
376.95	688.12
377.15	704.50
377.35	758.33
377.54	713.86
377.74	746.63
377.93	718.54
378.13	671.73
378.33	734.93
378.52	716.20
378.72	751.31
378.91	795.78
379.11	772.38
379.31	795.78
379.50	781.74
379.70	828.55
379.89	828.55
380.09	716.20
380.28	744.29
380.48	772.38
380.68	800.46
380.87	774.72
381.07	863.66
381.26	863.66
381.46	882.38
381.65	922.17
381.85	917.49
382.04	924.51
382.24	858.98
382.43	870.68
382.63	758.33
382.83	915.15
383.02	917.49
383.22	905.79
383.41	943.24
383.61	896.43
383.80	919.83
384.00	971.32
384.19	870.68
384.39	929.19
384.58	1018.13
384.78	978.34
384.97	945.58
385.17	912.81
385.36	1053.24
385.56	961.96
385.75	912.81
385.95	952.60
386.14	926.85
386.34	1004.09
386.53	1004.09
386.72	1013.45
386.92	1025.15
387.11	1048.56
387.31	1118.78
387.50	1067.28
387.70	1104.73
387.89	1022.81
388.09	1025.15
388.28	1039.20
388.48	1060.26
388.67	1128.14
388.86	1090.69
389.06	1179.63
389.25	1174.95
389.45	1132.82
389.64	1172.61
389.84	1221.76
390.03	1167.93
390.22	1179.63
390.42	1219.42
390.61	1174.95
390.81	1270.91
391.00	1315.38
391.19	1247.51
391.39	1301.34
391.58	1249.85
391.78	1273.25
391.97	1273.25
392.16	1266.23
392.36	1418.36
392.55	1282.61
392.75	1315.38
392.94	1317.72
393.13	1362.19
393.33	1383.26
393.52	1249.85
393.71	1530.71
393.91	1460.49
394.10	1483.90
394.29	1439.43
394.49	1434.75
394.68	1423.05
394.88	1460.49
395.07	1420.71
395.26	1523.69
395.46	1549.43
395.65	1568.16
395.84	1629.01
396.04	1652.42
396.23	1596.25
396.42	1621.99
396.62	1589.22
396.81	1507.30
397.00	1584.54
397.19	1537.73
397.39	1568.16
397.58	1715.61
397.77	1607.95
397.97	1713.27
398.16	1739.02
398.35	1767.10
398.55	1715.61
398.74	1736.68
398.93	1823.28
399.12	1739.02
399.32	1675.82
399.51	1701.57
399.70	1872.43
399.90	1797.53
400.09	1860.73
400.28	1921.58
400.47	1944.99
400.67	1851.36
400.86	1851.36
401.05	1935.62
401.24	1975.41
401.44	1980.09
401.63	2022.22
401.82	1980.09
402.01	1977.75
402.21	1867.75
402.40	2090.10
402.59	2071.37
402.78	2008.18
402.97	2017.54
403.17	2125.21
403.36	2087.76
403.55	2160.31
403.74	2111.16
403.93	2207.13
404.13	2214.15
404.32	2165.00
404.51	2195.42
404.70	2204.78
404.89	2242.23
405.09	2303.09
405.28	2338.20
405.47	2279.68
405.66	2401.39
405.85	2359.26
406.05	2345.22
406.24	2410.75
406.43	2359.26
406.62	2431.82
406.81	2466.92
407.00	2349.90
407.20	2385.01
407.39	2551.18
407.58	2574.59
407.77	2562.89
407.96	2548.84
408.15	2799.28
408.34	2602.68
408.54	2642.46
408.73	2588.63
408.92	2810.98
409.11	2764.17
409.30	2675.23
409.49	2782.90
409.68	2724.38
409.87	2806.30
410.07	2794.60
410.26	2899.92
410.45	2841.41
410.64	2846.09
410.83	2935.03
411.02	2827.37
411.21	2981.84
411.40	2974.82
411.59	3052.06
411.78	3136.32
411.98	3033.33
412.17	3126.96
412.36	3124.62
412.55	3213.56
412.74	3272.07
412.93	3351.65
413.12	3229.94
413.31	3471.01
413.50	3311.86
413.69	3339.94
413.88	3307.18
414.07	3454.63
414.26	3417.18
414.45	3559.95
414.64	3421.86
414.83	3637.19
415.02	3681.66
415.22	3665.28
415.41	3786.99
415.60	3693.37
415.79	3669.96
415.98	3786.99
416.17	3880.61
416.36	3868.91
416.55	3702.73
416.74	3824.44
416.93	3833.80
417.12	3943.80
417.31	4051.47
417.50	4046.79
417.69	4028.06
417.88	4161.47
418.07	4095.94
418.26	4102.96
418.45	4187.22
418.64	4168.49
418.83	4304.25
419.02	4194.24
419.21	4381.48
419.39	4283.18
419.58	4229.35
419.77	4259.78
419.96	4456.38
420.15	4496.17
420.34	4376.80
420.53	4545.32
420.72	4484.47
420.91	4540.64
421.10	4550.00
421.29	4540.64
421.48	4479.79
421.67	4638.94
421.86	4608.51
422.05	4767.67
422.24	4601.49
422.43	4648.30
422.61	4603.83
422.80	4573.41
422.99	4774.69
423.18	4685.75
423.37	4627.24
423.56	4746.61
423.75	4657.67
423.94	4624.90
424.13	4411.91
424.32	4559.36
424.50	4884.70
424.69	4931.51
424.88	4915.12
425.07	4713.84
425.26	4615.54
425.45	4732.56
425.64	4805.12
425.83	4835.55
426.01	4884.70
426.20	4849.59
426.39	4840.23
426.58	4830.87
426.77	4898.74
426.96	5020.45
427.15	4968.96
427.33	4910.44
427.52	5004.07
427.71	5034.49
427.90	5142.16
428.09	4954.91
428.28	5139.82
428.46	5301.31
428.65	5294.29
428.84	5376.21
429.03	5298.97
429.22	5046.20
429.40	5301.31
429.59	5313.02
429.78	5146.84
429.97	5018.11
430.16	5378.55
430.34	5406.64
430.53	5483.88
430.72	5460.47
430.91	5219.39
431.10	5509.62
431.28	5530.69
431.47	5746.02
431.66	5652.39
431.85	5526.00
432.03	5633.67
432.22	5963.68
432.41	5724.95
432.60	5703.89
432.79	5860.70
432.97	5792.83
433.16	5790.49
433.35	5746.02
433.54	6057.31
433.72	5933.26
433.91	5898.15
434.10	5902.83
434.28	6052.63
434.47	6054.97
434.66	6134.54
434.85	6193.06
435.03	6071.35
435.22	6038.58
435.41	6485.62
435.59	6267.95
435.78	6129.86
435.97	6186.04
436.16	6289.02
436.34	6466.90
436.53	6218.80
436.72	6494.99
436.90	6284.34
437.09	6506.69
437.28	6298.38
437.46	6265.61
437.65	6558.18
437.84	6565.20
438.02	6525.41
438.21	6349.87
438.40	6399.02
438.58	6647.12
438.77	6747.76
438.96	6810.96
439.14	6869.47
439.33	6949.05
439.52	6890.54
439.70	6895.22
439.89	7267.36
440.08	7005.22
440.26	7220.55
440.45	7328.22
440.63	7162.04
440.82	7208.85
441.01	7428.86
441.19	7658.23
441.38	7665.25
441.57	7559.93
441.75	7578.65
441.94	7625.47
442.12	7674.62
442.31	7801.01
442.50	7801.01
442.68	7581.00
442.87	7824.41
443.05	7873.56
443.24	7960.16
443.43	7932.08
443.61	7941.44
443.80	8154.43
443.98	7719.09
444.17	7978.89
444.35	8018.68
444.54	8400.18
444.73	8145.06
444.91	7939.10
445.10	8313.58
445.28	8067.83
445.47	8074.85
445.65	8056.12
445.84	8344.01
446.02	8255.07
446.21	8264.43
446.39	8266.77
446.58	8248.05
446.77	8507.85
446.95	8084.21
447.14	8161.45
447.32	8322.94
447.51	8290.18
447.69	8353.37
447.88	8393.16
448.06	8105.28
448.25	8290.18
448.43	8182.51
448.62	8318.26
448.80	8313.58
448.99	8475.08
449.17	8690.41
449.36	8271.45
449.54	8667.00
449.73	8629.56
449.91	8734.88
450.10	8688.07
450.28	8821.48
450.46	8692.75
450.65	8802.75
450.83	8894.04
451.02	8917.44
451.20	8919.78
451.39	8973.61
451.57	8849.57
451.76	8894.04
451.94	9004.04
452.13	9298.95
452.31	9088.30
452.49	9078.94
452.68	9100.00
452.86	8968.93
453.05	9238.09
453.23	9226.39
453.42	8978.30
453.60	9102.34
453.78	9280.22
453.97	9287.25
454.15	9427.68
454.34	9371.50
454.52	9577.47
454.70	9483.85
454.89	9762.37
455.07	9589.17
455.26	9502.58
455.44	9638.33
455.62	9628.96
455.81	9598.54
455.99	9692.16
456.17	9628.96
456.36	9863.02
456.54	10164.95
456.73	10064.30
456.91	10136.86
457.09	9963.66
457.28	10413.04
457.46	10122.82
457.64	10317.08
457.83	10363.89
458.01	10071.33
458.19	10387.30
458.38	10148.56
458.56	10572.20
458.74	10572.20
458.93	10415.38
459.11	10415.38
459.29	10471.56
459.48	10525.39
459.66	10567.52
459.84	10874.13
460.03	10780.51
460.21	10466.88
460.39	10647.10
460.57	10520.71
460.76	10839.02
460.94	10892.85
461.12	10981.79
461.31	10810.93
461.49	10834.34
461.67	10794.55
461.85	11328.19
462.04	10998.18
462.22	11644.17
462.40	11246.27
462.59	11190.10
462.77	11222.87
462.95	11501.39
463.13	11187.76
463.32	11330.53
463.50	11482.67
463.68	11485.01
463.86	11337.56
464.05	11379.68
464.23	11522.46
464.41	11452.24
464.59	11300.11
464.78	11845.45
464.96	11644.17
465.14	11447.56
465.32	11763.53
465.50	11805.66
465.69	12074.82
465.87	11777.58
466.05	11885.24
466.23	11728.42
466.41	12002.27
466.60	12451.65
466.78	11967.16
466.96	11770.55
467.14	11969.50
467.32	11913.33
467.51	12365.05
467.69	11918.01
467.87	12257.39
468.05	12280.79
468.23	12145.04
468.41	12070.14
468.60	12304.20
468.78	12484.42
468.96	12142.70
469.14	12638.89
469.32	12535.91
469.50	12147.38
469.69	12772.30
469.87	12641.23
470.05	12814.43
470.23	12774.64
470.41	12837.84
470.59	12996.99
470.77	12910.40
470.95	13008.70
471.14	13036.78
471.32	12966.57
471.50	13593.83
471.68	13235.73
471.86	13142.11
472.04	13364.46
472.22	13675.75
472.40	13479.15
472.58	13603.19
472.77	13511.91
472.95	13745.97
473.13	14171.94
473.31	13996.40
473.49	13673.41
473.67	13795.12
473.85	14064.28
474.03	14354.51
474.21	14125.13
474.39	14420.04
474.57	14492.60
474.75	14691.54
474.93	14754.74
475.12	14808.57
475.30	14747.72
475.48	14871.76
475.66	14869.42
475.84	14963.04
476.02	15033.26
476.20	15054.33
476.38	15250.93
476.56	15854.79
476.74	15382.00
476.92	15440.51
477.10	15651.16
477.28	15932.03
477.46	15800.96
477.64	16152.04
477.82	16198.85
478.00	16395.45
478.18	16673.98
478.36	16783.98
478.54	16842.50
478.72	16849.52
478.90	16905.69
479.08	17074.21
479.26	17137.40
479.44	17324.65
479.62	17551.68
479.80	17748.28
479.98	17755.30
480.16	17860.63
480.34	18078.30
480.52	18200.01
480.70	18394.27
480.88	18305.33
481.06	18356.82
481.24	18146.17
481.41	18883.44
481.59	19044.94
481.77	19351.55
481.95	19136.22
482.13	19374.95
482.31	19351.55
482.49	19896.89
482.67	19648.80
482.85	20126.27
483.03	20386.07
483.21	20641.18
483.39	20493.73
483.57	20748.85
483.74	20779.28
483.92	20996.95
484.10	20711.40
484.28	21259.09
484.46	21640.59
484.64	22054.87
484.82	21640.59
485.00	21734.21
485.18	22286.58
485.35	23119.81
485.53	22251.47
485.71	22377.86
485.89	23257.90
486.07	23138.54
486.25	23098.75
486.43	23318.76
486.61	23646.43
486.78	23566.85
486.96	23620.69
487.14	24318.17
487.32	24027.94
487.50	24484.34
487.68	24783.93
487.85	25116.29
488.03	25083.52
488.21	25331.62
488.39	25240.34
488.57	25738.87
488.75	25773.98
488.92	26157.83
489.10	26632.96
489.28	26237.41
489.46	26593.17
489.64	26562.74
489.81	27356.18
489.99	27449.80
490.17	27786.84
490.35	27910.89
490.53	27880.46
490.70	28329.84
490.88	27978.76
491.06	28290.06
491.24	28222.18
491.41	29109.24
491.59	28952.43
491.77	28814.34
491.95	29544.58
492.13	29404.15
492.30	29261.38
492.48	29675.65
492.66	29675.65
492.84	29961.20
493.01	30373.13
493.19	30347.39
493.37	30494.84
493.54	30621.23
493.72	31206.36
493.90	31075.29
494.08	31152.53
494.25	31969.38
494.43	31541.06
494.61	32114.49
494.79	32432.80
494.96	31971.72
495.14	32315.78
495.32	32657.49
495.49	32577.92
495.67	32793.25
495.85	33078.79
496.02	33261.35
496.20	33692.01
496.38	33923.72
496.55	33839.47
496.73	34466.73
496.91	34181.18
497.09	34415.24
497.26	34445.66
497.44	34728.87
497.62	34174.16
497.79	35021.44
497.97	34895.05
498.14	35487.20
498.32	36121.49
498.50	35597.21
498.67	36051.27
498.85	36128.51
499.03	36114.47
499.20	36381.29
499.38	36715.98
499.56	37003.87
499.73	36608.32
499.91	36851.73
500.08	37085.79
500.26	36896.20
500.44	37280.05
500.61	37656.88
500.79	37563.26
500.97	37631.13
501.14	38087.54
501.32	38064.13
501.49	37935.40
501.67	38340.32
501.84	38047.75
502.02	38836.51
502.20	38808.42
502.37	38536.92
502.55	38742.89
502.72	39147.80
502.90	39243.76
503.07	39009.71
503.25	39686.12
503.43	39576.12
503.60	39866.34
503.78	39709.53
503.95	39690.80
504.13	39878.05
504.30	40093.38
504.48	39833.58
504.65	40456.16
504.83	40680.85
505.01	40980.44
505.18	40727.66
505.36	41043.63
505.53	41078.74
505.71	41130.23
505.88	41090.44
506.06	41263.64
506.23	41832.39
506.41	41181.73
506.58	41345.56
506.76	41703.67
506.93	42113.26
507.11	41471.95
507.28	42323.91
507.46	42188.16
507.63	42036.02
507.81	42824.78
507.98	42506.47
508.16	42862.23
508.33	42831.80
508.50	43047.13
508.68	43236.72
508.85	43775.04
509.03	42981.60
509.20	43786.74
509.38	43559.71
509.55	43842.92
509.73	43824.19
509.90	44411.67
510.08	44095.69
510.25	43945.90
510.42	44275.91
510.60	44737.00
510.77	44865.73
510.95	45235.53
511.12	44456.14
511.30	44542.74
511.47	45364.26
511.64	45226.17
511.82	45361.92
511.99	45619.38
512.17	46040.68
512.34	45661.51
512.51	46005.57
512.69	46014.93
512.86	45560.87
513.04	46153.02
513.21	46478.36
513.38	46450.27
513.56	46326.22
513.73	46040.68
513.90	46775.61
514.08	46422.19
514.25	46560.28
514.43	46693.69
514.60	47185.20
514.77	47023.70
514.95	47400.53
515.12	46766.24
515.29	47445.00
515.47	47356.06
515.64	47531.60
515.81	47288.18
515.99	47889.70
516.16	48318.02
516.33	47690.76
516.51	48154.18
516.68	48032.47
516.85	47945.87
517.03	48395.26
517.20	48559.09
517.37	48334.40
517.54	48751.02
517.72	48519.31
517.89	48739.32
518.06	48442.07
518.24	48577.82
518.41	48825.92
518.58	48978.05
518.75	48907.83
518.93	49364.24
519.10	49249.55
519.27	49326.79
519.45	49408.71
519.62	49415.73
519.79	49277.64
519.96	49904.90
520.14	49727.02
520.31	49698.94
520.48	49862.77
520.65	49837.03
520.83	50068.74
521.00	50094.49
521.17	50143.64
521.34	50431.52
521.52	50440.89
521.69	50408.12
521.86	50623.45
522.03	50658.56
522.20	50777.92
522.38	50614.08
522.55	50962.82
522.72	50913.67
522.89	50782.60
523.07	51152.41
523.24	50913.67
523.41	51554.98
523.58	50906.65
523.75	51086.87
523.92	51229.65
524.10	51236.67
524.27	51611.15
524.44	51980.96
524.61	51807.76
524.78	51821.80
524.96	51718.82
525.13	51730.52
525.30	52039.47
525.47	52088.62
525.64	52037.13
525.81	52350.76
525.98	52589.50
526.16	52165.86
526.33	52198.63
526.50	52521.62
526.67	52126.07
526.84	52236.08
527.01	52383.53
527.18	52495.88
527.36	52692.48
527.53	52961.64
527.70	52568.43
527.87	52989.73
528.04	52638.65
528.21	53017.82
528.38	52849.30
528.55	52917.17
528.72	52750.99
528.89	53160.59
529.07	53146.54
529.24	53069.31
529.41	53085.69
529.58	53015.47
529.75	53326.77
529.92	53310.38
530.09	53352.51
530.26	53471.88
530.43	53535.07
530.60	53528.05
530.77	53525.71
530.94	53605.29
531.11	53233.14
531.28	53497.62
531.46	53745.72
531.63	53701.25
531.80	54052.33
531.97	53921.26
532.14	54064.03
532.31	53879.13
532.48	54047.65
532.65	54185.74
532.82	53839.34
532.99	54190.42
533.16	54068.72
533.33	54330.86
533.50	54780.24
533.67	54513.42
533.84	54431.50
534.01	54138.93
534.18	54349.58
534.35	54899.61
534.52	54349.58
534.69	54698.32
534.86	54885.56
535.03	54522.78
535.20	54651.51
535.37	54695.98
535.54	54597.68
535.71	54733.43
535.88	54588.31
536.05	55072.81
536.22	55196.85
536.38	55246.00
536.55	55187.49
536.72	55084.51
536.89	54714.70
537.06	54915.99
537.23	55086.85
537.40	55164.09
537.57	55143.02
537.74	55070.46
537.91	55576.02
538.08	55639.22
538.25	55201.53
538.42	55444.95
538.59	55344.31
538.75	55274.09
538.92	55484.74
539.09	55716.45
539.26	55604.11
539.43	55735.18
539.60	56126.05
539.77	55690.71
539.94	55983.27
540.11	55971.57
540.28	55903.70
540.44	55994.98
540.61	55849.86
540.78	56133.07
540.95	56123.71
541.12	55913.06
541.29	56165.84
541.46	56236.05
541.62	55903.70
541.79	55899.01
541.96	55784.33
542.13	56130.73
542.30	56402.23
542.47	56542.66
542.63	56427.98
542.80	56570.75
542.97	56640.96
543.14	56664.37
543.31	56582.45
543.48	56612.88
543.64	56671.39
543.81	56835.23
543.98	56863.32
544.15	56935.87
544.32	56992.04
544.48	57013.11
544.65	56790.76
544.82	57092.69
544.99	56706.50
545.16	56903.10
545.32	57139.50
545.49	57183.97
545.66	57249.50
545.83	57134.82
546.00	57193.33
546.16	57190.99
546.33	56963.96
546.50	56961.62
546.67	57195.67
546.83	57015.45
547.00	57343.12
547.17	57275.25
547.34	57202.69
547.50	57378.23
547.67	57703.57
547.84	57584.20
548.00	57649.74
548.17	57776.12
548.34	57542.07
548.51	57778.46
548.67	57659.10
548.84	57680.16
549.01	57640.37
549.18	57705.91
549.34	57530.37
549.51	57558.45
549.68	57581.86
549.84	57757.40
550.01	57893.15
550.18	57446.11
550.34	58082.73
550.51	58010.18
550.68	57944.64
550.84	57546.75
551.01	57858.04
551.18	57902.51
551.34	57733.99
551.51	57890.81
551.68	58024.22
551.84	58176.36
552.01	58010.18
552.18	58064.01
552.34	58014.86
552.51	58188.06
552.68	58096.78
552.84	58028.90
553.01	58396.37
553.18	58134.23
553.34	58326.15
553.51	58412.75
553.67	58408.07
553.84	58651.48
554.01	58506.37
554.17	58417.43
554.34	58691.27
554.51	58607.01
554.67	58246.57
554.84	58447.86
555.00	58459.56
555.17	58632.76
555.33	58850.43
555.50	58422.11
555.67	58618.72
555.83	58599.99
556.00	58536.80
556.16	58908.94
556.33	58642.12
556.50	58663.19
556.66	58883.20
556.83	58761.49
556.99	58876.18
557.16	59157.04
557.32	59138.32
557.49	59018.95
557.65	58625.74
557.82	58817.66
557.98	58967.46
558.15	58752.13
558.32	59124.27
558.48	58981.50
558.65	59199.17
558.81	58979.16
558.98	58983.84
559.14	59070.44
559.31	58946.39
559.47	59035.33
559.64	59128.95
559.80	59145.34
559.97	59185.13
560.13	59143.00
560.30	59128.95
560.46	59217.89
560.63	59147.68
560.79	58969.80
560.96	59260.02
561.12	59147.68
561.29	59084.48
561.45	59154.70
561.61	59332.58
561.78	59332.58
561.94	59515.14
562.11	59437.90
562.27	59288.11
562.44	59203.85
562.60	59377.05
562.77	59281.09
562.93	59526.84
563.10	59604.08
563.26	59166.40
563.42	59770.26
563.59	59435.56
563.75	59576.00
563.92	59554.93
564.08	59341.94
564.24	59435.56
564.41	59543.23
564.57	59419.18
564.74	59344.28
564.90	59393.43
565.07	59660.26
565.23	59700.04
565.39	59583.02
565.56	59674.30
565.72	59391.09
565.88	59473.01
566.05	59650.89
566.21	59419.18
566.38	59386.41
566.54	59580.68
566.70	59693.02
566.87	59774.94
567.03	59728.13
567.19	59742.17
567.36	59714.09
567.52	59678.98
567.68	59543.23
567.85	59704.73
568.01	59765.58
568.17	59576.00
568.34	59840.48
568.50	59676.64
568.66	59700.04
568.83	59922.40
568.99	59683.66
569.15	59669.62
569.32	59760.90
569.48	59576.00
569.64	59723.45
569.81	59838.14
569.97	59938.78
570.13	59969.21
570.30	59756.22
570.46	60025.38
570.62	59803.03
570.78	59920.05
570.95	59763.24
571.11	59835.80
571.27	59540.89
571.43	59898.99
571.60	60072.19
571.76	59751.54
571.92	60011.34
572.09	59980.91
572.25	59973.89
572.41	59901.33
572.57	60065.17
572.74	60083.89
572.90	59889.63
573.06	59969.21
573.22	59948.14
573.38	60308.58
573.55	60046.44
573.71	60257.09
573.87	59969.21
574.03	60004.31
574.20	59964.52
574.36	59812.39
574.52	59821.75
574.68	60058.15
574.84	60320.29
575.01	60093.25
575.17	60095.60
575.33	60067.51
575.49	59941.12
575.65	60076.87
575.82	60165.81
575.98	60165.81
576.14	60037.08
576.30	60020.70
576.46	59973.89
576.62	59898.99
576.79	60097.94
576.95	60041.76
577.11	60158.79
577.27	60402.21
577.43	60219.64
577.59	60076.87
577.75	60289.86
577.92	60055.81
578.08	60116.66
578.24	59884.95
578.40	60116.66
578.56	60123.68
578.72	60170.49
578.88	60470.08
579.04	60385.82
579.21	60266.45
579.37	60193.90
579.53	60261.77
579.69	59969.21
579.85	60055.81
580.01	60353.05
580.17	60107.30
580.33	60247.73
580.49	60308.58
580.65	60360.08
580.82	60385.82
580.98	60175.17
581.14	60381.14
581.30	60193.90
581.46	60037.08
581.62	59959.84
581.78	60207.94
581.94	60481.78
582.10	60100.28
582.26	60285.18
582.42	60362.42
582.58	60390.50
582.74	60441.99
582.90	60324.97
583.06	60582.43
583.22	60313.26
583.38	60343.69
583.54	60156.45
583.70	60140.07
583.86	60179.85
584.02	60285.18
584.18	60282.84
584.34	60449.02
584.50	60390.50
584.66	60425.61
584.82	60280.50
584.98	60439.65
585.14	60299.22
585.30	60278.16
585.46	60189.22
585.62	60299.22
585.78	60437.31
585.94	60126.02
586.10	60456.04
586.26	60257.09
586.42	60528.59
586.58	60540.30
586.74	60355.39
586.90	60236.03
587.06	60161.13
587.22	60633.92
587.38	60224.32
587.54	60516.89
587.70	60622.22
587.86	60788.39
588.02	60530.93
588.18	60764.99
588.34	60657.32
588.49	60486.46
588.65	60374.12
588.81	60369.44
588.97	60430.29
589.13	60126.02
