SpectraSuite Data File
++++++++++++++++++++++++++++++++++++
Date: Fri Oct 04 11:48:21 GMT-05:00 2013
User: price-jones
Dark Spectrum Present: No
Reference Spectrum Present: No
Number of Sampled Component Spectra: 1
Spectrometers: USB2+H05261
Integration Time (usec): 100000 (USB2+H05261)
Spectra Averaged: 1 (USB2+H05261)
Boxcar Smoothing: 0 (USB2+H05261)
Correct for Electrical Dark: No (USB2+H05261)
Strobe/Lamp Enabled: No (USB2+H05261)
Correct for Detector Non-linearity: No (USB2+H05261)
Correct for Stray Light: No (USB2+H05261)
Number of Pixels in Processed Spectrum: 2048
>>>>>Begin Processed Spectral Data<<<<<
365.73	72.56
365.92	72.56
366.12	72.56
366.32	0.00
366.52	0.00
366.72	0.00
366.91	0.00
367.11	0.00
367.31	0.00
367.51	0.00
367.70	0.00
367.90	0.00
368.10	0.00
368.30	0.00
368.49	0.00
368.69	0.00
368.89	0.00
369.09	0.00
369.28	0.00
369.48	0.00
369.68	0.00
369.87	0.00
370.07	0.00
370.27	0.00
370.47	0.00
370.66	65.54
370.86	147.45
371.06	77.24
371.25	44.47
371.45	88.94
371.65	93.62
371.84	56.17
372.04	60.85
372.24	126.39
372.44	4.68
372.63	140.43
372.83	145.11
373.03	93.62
373.22	98.30
373.42	149.79
373.62	170.86
373.81	124.05
374.01	182.56
374.21	166.18
374.40	149.79
374.60	117.03
374.79	147.45
374.99	105.32
375.19	208.31
375.38	107.66
375.58	126.39
375.78	88.94
375.97	156.82
376.17	189.58
376.37	138.09
376.56	156.82
376.76	194.26
376.95	191.92
377.15	217.67
377.35	152.13
377.54	145.11
377.74	187.24
377.93	152.13
378.13	126.39
378.33	138.09
378.52	173.20
378.72	201.29
378.91	100.64
379.11	133.41
379.31	236.39
379.50	112.35
379.70	131.07
379.89	49.15
380.09	110.01
380.28	102.98
380.48	208.31
380.68	114.69
380.87	53.83
381.07	138.09
381.26	201.29
381.46	154.48
381.65	112.35
381.85	138.09
382.04	126.39
382.24	91.28
382.43	93.62
382.63	18.72
382.83	95.96
383.02	126.39
383.22	110.01
383.41	79.58
383.61	95.96
383.80	149.79
384.00	201.29
384.19	184.90
384.39	173.20
384.58	170.86
384.78	154.48
384.97	180.22
385.17	95.96
385.36	117.03
385.56	203.63
385.75	147.45
385.95	105.32
386.14	196.60
386.34	142.77
386.53	79.58
386.72	154.48
386.92	217.67
387.11	112.35
387.31	149.79
387.50	159.16
387.70	184.90
387.89	126.39
388.09	196.60
388.28	110.01
388.48	173.20
388.67	191.92
388.86	93.62
389.06	180.22
389.25	163.84
389.45	152.13
389.64	140.43
389.84	238.73
390.03	147.45
390.22	203.63
390.42	220.01
390.61	220.01
390.81	147.45
391.00	203.63
391.19	128.73
391.39	119.37
391.58	255.12
391.78	234.05
391.97	173.20
392.16	161.50
392.36	222.35
392.55	229.37
392.75	250.44
392.94	166.18
393.13	273.84
393.33	215.33
393.52	201.29
393.71	320.65
393.91	208.31
394.10	208.31
394.29	224.69
394.49	182.56
394.68	159.16
394.88	287.89
395.07	273.84
395.26	201.29
395.46	166.18
395.65	154.48
395.84	222.35
396.04	255.12
396.23	259.80
396.42	224.69
396.62	257.46
396.81	255.12
397.00	205.97
397.19	252.78
397.39	215.33
397.58	273.84
397.77	297.25
397.97	241.08
398.16	304.27
398.35	330.02
398.55	264.48
398.74	301.93
398.93	327.68
399.12	301.93
399.32	280.86
399.51	236.39
399.70	365.12
399.90	346.40
400.09	304.27
400.28	264.48
400.47	320.65
400.67	348.74
400.86	255.12
401.05	297.25
401.24	358.10
401.44	276.18
401.63	325.33
401.82	430.66
402.01	311.29
402.21	374.49
402.40	386.19
402.59	341.72
402.78	301.93
402.97	358.10
403.17	304.27
403.36	367.46
403.55	402.57
403.74	339.38
403.93	313.63
404.13	440.02
404.32	369.80
404.51	402.57
404.70	435.34
404.89	376.83
405.09	430.66
405.28	423.64
405.47	447.04
405.66	435.34
405.85	475.13
406.05	458.74
406.24	547.69
406.43	451.72
406.62	505.56
406.81	458.74
407.00	486.83
407.20	498.53
407.39	461.09
407.58	535.98
407.77	517.26
407.96	526.62
408.15	561.73
408.34	517.26
408.54	486.83
408.73	573.43
408.92	545.34
409.11	535.98
409.30	587.47
409.49	519.60
409.68	552.37
409.87	580.45
410.07	613.22
410.26	617.90
410.45	676.41
410.64	629.60
410.83	629.60
411.02	723.23
411.21	636.63
411.40	603.86
411.59	753.65
411.78	667.05
411.98	760.67
412.17	660.03
412.36	711.52
412.55	634.29
412.74	730.25
412.93	770.04
413.12	753.65
413.31	880.04
413.50	734.93
413.69	753.65
413.88	777.06
414.07	732.59
414.26	854.30
414.45	837.91
414.64	791.10
414.83	788.76
415.02	814.51
415.22	835.57
415.41	842.59
415.60	816.85
415.79	851.96
415.98	940.90
416.17	940.90
416.36	973.66
416.55	901.11
416.74	938.55
416.93	919.83
417.12	922.17
417.31	940.90
417.50	952.60
417.69	961.96
417.88	947.92
418.07	908.13
418.26	952.60
418.45	912.81
418.64	1011.11
418.83	1015.79
419.02	943.24
419.21	936.21
419.39	1130.48
419.58	1039.20
419.77	957.28
419.96	1083.67
420.15	1064.94
420.34	1081.33
420.53	992.39
420.72	1050.90
420.91	1029.84
421.10	1109.41
421.29	1114.10
421.48	1100.05
421.67	1132.82
421.86	1123.46
422.05	1125.80
422.24	1011.11
422.43	1083.67
422.61	1074.31
422.80	1177.29
422.99	1184.31
423.18	1156.22
423.37	1076.65
423.56	1057.92
423.75	1167.93
423.94	1137.50
424.13	922.17
424.32	1071.97
424.50	1231.12
424.69	1214.74
424.88	1188.99
425.07	1196.01
425.26	1121.12
425.45	1177.29
425.64	1156.22
425.83	1111.75
426.01	1114.10
426.20	1160.91
426.39	1097.71
426.58	1055.58
426.77	1256.87
426.96	1214.74
427.15	1320.06
427.33	1203.04
427.52	1320.06
427.71	1116.44
427.90	1256.87
428.09	1102.39
428.28	1198.35
428.46	1212.40
428.65	1268.57
428.84	1308.36
429.03	1310.70
429.22	1284.95
429.40	1245.16
429.59	1233.46
429.78	1270.91
429.97	1205.38
430.16	1291.98
430.34	1324.74
430.53	1334.11
430.72	1327.08
430.91	1249.85
431.10	1121.12
431.28	1371.55
431.47	1399.64
431.66	1401.98
431.85	1266.23
432.03	1350.49
432.22	1434.75
432.41	1327.08
432.60	1371.55
432.79	1322.40
432.97	1338.79
433.16	1411.34
433.35	1322.40
433.54	1331.76
433.72	1483.90
433.91	1472.20
434.10	1301.34
434.28	1394.96
434.47	1430.07
434.66	1401.98
434.85	1504.96
435.03	1458.15
435.22	1467.52
435.41	1500.28
435.59	1458.15
435.78	1481.56
435.97	1507.30
436.16	1493.26
436.34	1483.90
436.53	1437.09
436.72	1474.54
436.90	1530.71
437.09	1490.92
437.28	1507.30
437.46	1544.75
437.65	1554.12
437.84	1556.46
438.02	1563.48
438.21	1582.20
438.40	1575.18
438.58	1554.12
438.77	1603.27
438.96	1589.22
439.14	1614.97
439.33	1621.99
439.52	1720.29
439.70	1577.52
439.89	1605.61
440.08	1685.19
440.26	1666.46
440.45	1816.26
440.63	1696.89
440.82	1764.76
441.01	1806.89
441.19	1743.70
441.38	1806.89
441.57	1795.19
441.75	1715.61
441.94	1870.09
442.12	1837.32
442.31	1781.15
442.50	1806.89
442.68	1790.51
442.87	1893.49
443.05	1743.70
443.24	1818.60
443.43	1959.03
443.61	1994.14
443.80	1935.62
443.98	1785.83
444.17	1797.53
444.35	1820.94
444.54	1916.90
444.73	1970.73
444.91	1916.90
445.10	1940.30
445.28	1895.83
445.47	1891.15
445.65	1954.35
445.84	1870.09
446.02	1942.64
446.21	1942.64
446.39	1954.35
446.58	1912.22
446.77	1961.37
446.95	1834.98
447.14	1963.71
447.32	1914.56
447.51	1947.33
447.69	2026.90
447.88	1949.67
448.06	1888.81
448.25	1891.15
448.43	1795.19
448.62	1914.56
448.80	2003.50
448.99	2003.50
449.17	1968.39
449.36	1935.62
449.54	2139.25
449.73	2054.99
449.91	2085.42
450.10	1975.41
450.28	2022.22
450.46	2090.10
450.65	2040.95
450.83	2090.10
451.02	2050.31
451.20	2120.53
451.39	2005.84
451.57	2097.12
451.76	2057.33
451.94	2125.21
452.13	2083.08
452.31	2141.59
452.49	2045.63
452.68	2106.48
452.86	2038.61
453.05	2211.81
453.23	2169.68
453.42	1996.48
453.60	2221.17
453.78	2204.78
453.97	2113.50
454.15	2204.78
454.34	2059.67
454.52	2289.04
454.70	2228.19
454.89	2242.23
455.07	2153.29
455.26	2291.38
455.44	2300.75
455.62	2162.66
455.81	2275.00
455.99	2282.02
456.17	2265.64
456.36	2328.83
456.54	2207.13
456.73	2370.96
456.91	2326.49
457.09	2249.25
457.28	2361.60
457.46	2289.04
457.64	2448.20
457.83	2392.03
458.01	2422.45
458.19	2438.84
458.38	2317.13
458.56	2457.56
458.74	2424.80
458.93	2438.84
459.11	2443.52
459.29	2455.22
459.48	2574.59
459.66	2333.51
459.84	2452.88
460.03	2581.61
460.21	2623.74
460.39	2445.86
460.57	2497.35
460.76	2422.45
460.94	2485.65
461.12	2532.46
461.31	2534.80
461.49	2518.42
461.67	2520.76
461.85	2654.17
462.04	2572.25
462.22	3023.97
462.40	2628.42
462.59	2464.58
462.77	2581.61
462.95	2551.18
463.13	2691.62
463.32	2635.44
463.50	2733.75
463.68	2747.79
463.86	2555.86
464.05	2588.63
464.23	2626.08
464.41	2684.59
464.59	2619.06
464.78	2759.49
464.96	2633.10
465.14	2623.74
465.32	2785.24
465.50	2864.82
465.69	2820.35
465.87	2724.38
466.05	2752.47
466.23	2677.57
466.41	2715.02
466.60	2815.66
466.78	2712.68
466.96	2731.41
467.14	2605.02
467.32	2846.09
467.51	2782.90
467.69	2757.15
467.87	2761.83
468.05	2810.98
468.23	2693.96
468.41	2832.05
468.60	2832.05
468.78	2759.49
468.96	2726.72
469.14	2757.15
469.32	2752.47
469.50	2876.52
469.69	2974.82
469.87	2944.39
470.05	2869.50
470.23	2878.86
470.41	2846.09
470.59	2825.03
470.77	2977.16
470.95	2939.71
471.14	3033.33
471.32	2850.77
471.50	3077.80
471.68	2939.71
471.86	3047.38
472.04	3080.14
472.22	3110.57
472.40	3047.38
472.58	3026.31
472.77	3070.78
472.95	3047.38
473.13	3197.17
473.31	3180.79
473.49	3218.24
473.67	3101.21
473.85	3220.58
474.03	3164.40
474.21	3063.76
474.39	3258.03
474.57	3337.60
474.75	3269.73
474.93	3150.36
475.12	3365.69
475.30	3370.37
475.48	3405.48
475.66	3398.46
475.84	3328.24
476.02	3356.33
476.20	3365.69
476.38	3463.99
476.56	3520.17
476.74	3485.06
476.92	3538.89
477.10	3461.65
477.28	3595.06
477.46	3522.51
477.64	3669.96
477.82	3590.38
478.00	3744.86
478.18	3684.00
478.36	3651.24
478.54	3922.74
478.72	3751.88
478.90	3765.92
479.08	3836.14
479.26	3885.29
479.44	3885.29
479.62	3974.23
479.80	3974.23
479.98	3962.53
480.16	4070.19
480.34	3988.27
480.52	4070.19
480.70	4184.88
480.88	4063.17
481.06	4070.19
481.24	4109.98
481.41	4159.13
481.59	4273.82
481.77	4236.37
481.95	4266.80
482.13	4292.54
482.31	4334.67
482.49	4358.08
482.67	4416.59
482.85	4514.89
483.03	4418.93
483.21	4475.10
483.39	4491.49
483.57	4468.08
483.74	4423.61
483.92	4486.81
484.10	4514.89
484.28	4765.33
484.46	4737.24
484.64	4861.29
484.82	4753.63
485.00	4870.65
485.18	5036.83
485.35	4947.89
485.53	4919.81
485.71	4894.06
485.89	5043.85
486.07	4901.08
486.25	4954.91
486.43	5121.09
486.61	5137.48
486.78	5181.95
486.96	5268.55
487.14	5399.62
487.32	5336.42
487.50	5355.15
487.68	5261.52
487.85	5427.70
488.03	5495.58
488.21	5666.44
488.39	5542.39
488.57	5605.58
488.75	5659.42
488.92	5877.09
489.10	5675.80
489.28	5949.64
489.46	5802.19
489.64	5771.76
489.81	6015.18
489.99	5785.80
490.17	5893.47
490.35	6073.69
490.53	5905.17
490.70	6054.97
490.88	6164.97
491.06	6094.76
491.24	6019.86
491.41	6218.80
491.59	6022.20
491.77	6197.74
491.95	6249.23
492.13	6293.70
492.30	6478.60
492.48	6363.92
492.66	6380.30
492.84	6499.67
493.01	6586.27
493.19	6406.05
493.37	6576.91
493.54	6595.63
493.72	6789.89
493.90	6698.61
494.08	6649.46
494.25	6614.35
494.43	6747.76
494.61	6820.32
494.79	6827.34
494.96	6993.52
495.14	6846.07
495.32	6977.14
495.49	7040.33
495.67	7145.66
495.85	7117.57
496.02	7098.84
496.20	7250.98
496.38	7162.04
496.55	7103.53
496.73	7438.22
496.91	7183.10
497.09	7662.91
497.26	7585.68
497.44	7316.51
497.62	7377.37
497.79	7651.21
497.97	7346.94
498.14	7576.31
498.32	7578.65
498.50	7623.12
498.67	7803.35
498.85	7548.23
499.03	7686.32
499.20	7679.30
499.38	7644.19
499.56	7852.50
499.73	7981.23
499.91	8011.65
500.08	8011.65
500.26	7812.71
500.44	8112.30
500.61	7967.18
500.79	8093.57
500.97	7974.21
501.14	8095.91
501.32	8079.53
501.49	8191.88
501.67	8168.47
501.84	8212.94
502.02	8336.99
502.20	8128.68
502.37	8322.94
502.55	8390.82
502.72	8327.63
502.90	8336.99
503.07	8147.40
503.25	8229.32
503.43	8315.92
503.60	8484.44
503.78	8557.00
503.95	8512.53
504.13	8362.73
504.30	8669.34
504.48	8561.68
504.65	8512.53
504.83	8613.17
505.01	8863.61
505.18	8706.79
505.36	8713.81
505.53	8901.06
505.71	8734.88
505.88	8844.88
506.06	8961.91
506.23	9018.08
506.41	9146.81
506.58	8922.12
506.76	8971.27
506.93	8997.02
507.11	8999.36
507.28	9104.68
507.46	9057.87
507.63	9062.55
507.81	9092.98
507.98	9200.65
508.16	9135.11
508.33	9146.81
508.50	9238.09
508.68	9135.11
508.85	9540.02
509.03	9437.04
509.20	9387.89
509.38	9488.53
509.55	9544.70
509.73	9357.46
509.90	9514.28
510.08	9472.15
510.25	9441.72
510.42	9624.28
510.60	9722.59
510.77	9689.82
510.95	9673.43
511.12	9626.62
511.30	9657.05
511.47	9572.79
511.64	9870.04
511.82	9905.15
511.99	9708.54
512.17	9930.89
512.34	9834.93
512.51	9832.59
512.69	9783.44
512.86	9783.44
513.04	9949.62
513.21	10085.37
513.38	9914.51
513.56	10008.13
513.73	9806.84
513.90	10064.30
514.08	9921.53
514.25	10256.23
514.43	10167.29
514.60	10120.48
514.77	10246.87
514.95	10340.49
515.12	10314.74
515.29	9905.15
515.47	10232.82
515.64	10211.76
515.81	10427.09
515.99	10452.83
516.16	10399.00
516.33	10429.43
516.51	10471.56
516.68	10509.01
516.85	10324.10
517.03	10373.25
517.20	10764.12
517.37	10525.39
517.54	10588.58
517.72	10771.15
517.89	10363.89
518.06	10438.79
518.24	10670.50
518.41	10724.33
518.58	10710.29
518.75	10593.26
518.93	10848.38
519.10	10710.29
519.27	11000.52
519.45	10836.68
519.62	10888.17
519.79	10684.55
519.96	10712.63
520.14	10998.18
520.31	10897.53
520.48	11056.69
520.65	10913.92
520.83	11197.12
521.00	11094.14
521.17	11012.22
521.34	11330.53
521.52	11023.92
521.69	11068.39
521.86	11262.66
522.03	11131.59
522.20	11220.53
522.38	11164.36
522.55	11337.56
522.72	11288.40
522.89	11342.24
523.07	11295.43
523.24	11321.17
523.41	11236.91
523.58	11435.86
523.75	11295.43
523.92	11192.44
524.10	11110.52
524.27	11239.25
524.44	11302.45
524.61	11648.85
524.78	11573.95
524.96	11482.67
525.13	11721.40
525.30	11721.40
525.47	11538.84
525.64	11784.60
525.81	11653.53
525.98	11592.67
526.16	11786.94
526.33	11564.59
526.50	11873.54
526.67	11489.69
526.84	11634.80
527.01	11709.70
527.18	11800.98
527.36	11740.13
527.53	11772.89
527.70	11808.00
527.87	11782.26
528.04	11981.20
528.21	11925.03
528.38	11925.03
528.55	11826.73
528.72	12140.36
528.89	11793.96
529.07	12081.85
529.24	11896.94
529.41	12163.76
529.58	12205.89
529.75	12053.76
529.92	11927.37
530.09	12102.91
530.26	12088.87
530.43	12154.40
530.60	12049.08
530.77	12173.13
530.94	12159.08
531.11	12208.23
531.28	12222.28
531.46	12149.72
531.63	12292.49
531.80	12201.21
531.97	12505.48
532.14	12372.07
532.31	12306.54
532.48	12170.79
532.65	12521.87
532.82	12435.27
532.99	12231.64
533.16	12184.83
533.33	12421.22
533.50	12608.47
533.67	12613.15
533.84	12292.49
534.01	12706.77
534.18	12074.82
534.35	12486.76
534.52	12428.24
534.69	12617.83
534.86	12596.76
535.03	12622.51
535.20	12587.40
535.37	12599.10
535.54	12739.54
535.71	12493.78
535.88	12659.96
536.05	12795.71
536.22	12924.44
536.38	12910.40
536.55	12856.56
536.72	12795.71
536.89	12795.71
537.06	12659.96
537.23	12690.38
537.40	12826.14
537.57	12769.96
537.74	12716.13
537.91	13022.74
538.08	12636.55
538.25	12744.22
538.42	12858.90
538.59	12929.12
538.75	12643.57
538.92	12720.81
539.09	12926.78
539.26	12737.20
539.43	12950.18
539.60	13198.28
539.77	13121.04
539.94	13149.13
540.11	12964.23
540.28	13095.30
540.44	12849.54
540.61	13151.47
540.78	13020.40
540.95	13397.23
541.12	13060.19
541.29	12854.22
541.46	13284.88
541.62	13228.71
541.79	13095.30
541.96	13095.30
542.13	12870.61
542.30	13165.51
542.47	13081.25
542.63	12950.18
542.80	13420.63
542.97	13390.20
543.14	13509.57
543.31	13296.58
543.48	13193.60
543.64	13479.15
543.81	13675.75
543.98	13415.95
544.15	13474.46
544.32	13547.02
544.48	13425.31
544.65	13219.35
544.82	13486.17
544.99	13238.07
545.16	13439.36
545.32	13228.71
545.49	13584.47
545.66	13736.60
545.83	13434.68
546.00	13591.49
546.16	13429.99
546.33	13514.25
546.50	13277.86
546.67	13579.79
546.83	13380.84
547.00	13652.34
547.17	13558.72
547.34	13802.14
547.50	13748.31
547.67	13699.16
547.84	13666.39
548.00	13905.12
548.17	13614.90
548.34	13659.37
548.51	13858.31
548.67	13855.97
548.84	13923.85
549.01	14019.81
549.18	13568.09
549.34	13760.01
549.51	13727.24
549.68	13607.87
549.84	13638.30
550.01	13940.23
550.18	13837.25
550.34	13865.33
550.51	13834.91
550.68	13916.83
550.84	13928.53
551.01	13884.06
551.18	13675.75
551.34	13930.87
551.51	14024.49
551.68	13928.53
551.84	13839.59
552.01	13706.18
552.18	14031.51
552.34	13809.16
552.51	14181.31
552.68	14127.47
552.84	13757.67
553.01	13844.27
553.18	14097.05
553.34	14204.71
553.51	13879.38
553.67	14066.62
553.84	14218.75
554.01	13996.40
554.17	14108.75
554.34	13958.96
554.51	14279.61
554.67	13989.38
554.84	14167.26
555.00	14162.58
555.17	14251.52
555.33	14045.55
555.50	13846.61
555.67	14094.71
555.83	14029.17
556.00	14054.92
556.16	14181.31
556.33	13984.70
556.50	14319.40
556.66	14080.66
556.83	14080.66
556.99	14288.97
557.16	14281.95
557.32	14167.26
557.49	14228.12
557.65	14092.37
557.82	14363.87
557.98	14239.82
558.15	14118.11
558.32	14267.91
558.48	14066.62
558.65	14284.29
558.81	14263.22
558.98	14146.20
559.14	14150.88
559.31	14441.11
559.47	14321.74
559.64	14113.43
559.80	14277.27
559.97	14356.85
560.13	14197.69
560.30	14473.87
560.46	14359.19
560.63	14389.61
560.79	14455.15
560.96	14342.80
561.12	14083.00
561.29	14483.24
561.45	14298.33
561.61	14249.18
561.78	14188.33
561.94	14342.80
562.11	14303.01
562.27	14097.05
562.44	14389.61
562.60	14305.35
562.77	14544.09
562.93	14354.51
563.10	14473.87
563.26	14150.88
563.42	14471.53
563.59	14595.58
563.75	14335.78
563.92	14443.45
564.08	14633.03
564.24	14501.96
564.41	14249.18
564.57	14696.22
564.74	14326.42
564.90	14398.98
565.07	14471.53
565.23	14363.87
565.39	14480.89
565.56	14193.01
565.72	14539.41
565.88	14340.46
566.05	14338.12
566.21	14335.78
566.38	14408.34
566.54	14368.55
566.70	14497.28
566.87	14572.18
567.03	14434.08
567.19	14551.11
567.36	14441.11
567.52	14661.12
567.68	14195.35
567.85	14541.75
568.01	14506.64
568.17	14424.72
568.34	14415.36
568.50	14663.46
568.66	14494.94
568.83	14572.18
568.99	14354.51
569.15	14375.57
569.32	14600.26
569.48	14281.95
569.64	14295.99
569.81	14499.62
569.97	14382.59
570.13	14431.74
570.30	14305.35
570.46	14621.33
570.62	14492.60
570.78	14260.88
570.95	14197.69
571.11	14452.81
571.27	14389.61
571.43	14511.32
571.60	14258.54
571.76	14258.54
571.92	14595.58
572.09	14487.92
572.25	14640.05
572.41	14516.00
572.57	14661.12
572.74	14686.86
572.90	14434.08
573.06	14541.75
573.22	14581.54
573.38	14415.36
573.55	14670.48
573.71	14820.27
573.87	14452.81
574.03	14649.41
574.20	14448.13
574.36	14487.92
574.52	14331.10
574.68	14368.55
574.84	14494.94
575.01	14633.03
575.17	14714.95
575.33	14391.95
575.49	14677.50
575.65	14424.72
575.82	14501.96
575.98	14586.22
576.14	14633.03
576.30	14579.20
576.46	14279.61
576.62	14314.72
576.79	14633.03
576.95	14691.54
577.11	14644.73
577.27	14382.59
577.43	14686.86
577.59	14630.69
577.75	14478.55
577.92	14565.15
578.08	14345.14
578.24	14368.55
578.40	14691.54
578.56	14539.41
578.72	14523.02
578.88	14684.52
579.04	14611.96
579.21	14712.61
579.37	14602.60
579.53	14607.28
579.69	14588.56
579.85	14492.60
580.01	14665.80
580.17	14623.67
580.33	14494.94
580.49	14658.78
580.65	14628.35
580.82	14640.05
580.98	14841.34
581.14	14462.17
581.30	14682.18
581.46	14649.41
581.62	14588.56
581.78	14270.25
581.94	14731.33
582.10	14539.41
582.26	14642.39
582.42	14602.60
582.58	14553.45
582.74	14771.12
582.90	14581.54
583.06	14623.67
583.22	14541.75
583.38	14640.05
583.54	14513.66
583.70	14366.21
583.86	14462.17
584.02	14410.68
584.18	14841.34
584.34	14773.46
584.50	14665.80
584.66	14541.75
584.82	14581.54
584.98	14640.05
585.14	14548.77
585.30	14560.47
585.46	14670.48
585.62	14740.69
585.78	14223.44
585.94	14506.64
586.10	14801.55
586.26	14663.46
586.42	14689.20
586.58	14328.76
586.74	14616.65
586.90	14771.12
587.06	14478.55
587.22	14490.26
587.38	14537.07
587.54	14712.61
587.70	14745.38
587.86	14696.22
588.02	14670.48
588.18	14700.90
588.34	14686.86
588.49	14462.17
588.65	14576.86
588.81	14743.03
588.97	14764.10
589.13	14705.59
589.29	14785.16
589.45	14682.18
589.61	14778.14
589.77	14658.78
589.93	14527.71
590.08	14743.03
590.24	14668.14
590.40	14513.66
590.56	14803.89
590.72	14796.87
590.88	14501.96
591.04	14698.56
591.20	14806.23
591.35	14803.89
591.51	14740.69
591.67	14768.78
591.83	14881.13
591.99	14981.77
592.15	14691.54
592.31	14925.60
592.46	14558.13
592.62	14567.49
592.78	14586.22
592.94	14586.22
593.10	14630.69
593.26	14920.92
593.41	14874.10
593.57	14647.07
593.73	14623.67
593.89	14949.00
594.05	15091.77
594.20	14808.57
