SpectraSuite Data File
++++++++++++++++++++++++++++++++++++
Date: Fri Oct 04 11:46:59 GMT-05:00 2013
User: price-jones
Dark Spectrum Present: No
Reference Spectrum Present: No
Number of Sampled Component Spectra: 1
Spectrometers: USB2+H05261
Integration Time (usec): 100000 (USB2+H05261)
Spectra Averaged: 1 (USB2+H05261)
Boxcar Smoothing: 0 (USB2+H05261)
Correct for Electrical Dark: No (USB2+H05261)
Strobe/Lamp Enabled: No (USB2+H05261)
Correct for Detector Non-linearity: No (USB2+H05261)
Correct for Stray Light: No (USB2+H05261)
Number of Pixels in Processed Spectrum: 2048
>>>>>Begin Processed Spectral Data<<<<<
365.73	14.04
365.92	14.04
366.12	14.04
366.32	0.00
366.52	0.00
366.72	0.00
366.91	0.00
367.11	0.00
367.31	0.00
367.51	0.00
367.70	0.00
367.90	0.00
368.10	0.00
368.30	0.00
368.49	0.00
368.69	0.00
368.89	0.00
369.09	0.00
369.28	0.00
369.48	0.00
369.68	0.00
369.87	11.70
370.07	0.00
370.27	18.72
370.47	28.09
370.66	37.45
370.86	63.19
371.06	42.13
371.25	42.13
371.45	42.13
371.65	28.09
371.84	58.51
372.04	21.06
372.24	56.17
372.44	39.79
372.63	159.16
372.83	154.48
373.03	81.92
373.22	152.13
373.42	39.79
373.62	95.96
373.81	128.73
374.01	105.32
374.21	95.96
374.40	105.32
374.60	100.64
374.79	67.88
374.99	72.56
375.19	198.95
375.38	88.94
375.58	74.90
375.78	67.88
375.97	124.05
376.17	140.43
376.37	79.58
376.56	121.71
376.76	107.66
376.95	126.39
377.15	93.62
377.35	138.09
377.54	121.71
377.74	117.03
377.93	135.75
378.13	79.58
378.33	126.39
378.52	124.05
378.72	140.43
378.91	98.30
379.11	56.17
379.31	77.24
379.50	117.03
379.70	81.92
379.89	117.03
380.09	135.75
380.28	95.96
380.48	39.79
380.68	100.64
380.87	98.30
381.07	35.11
381.26	86.60
381.46	110.01
381.65	140.43
381.85	72.56
382.04	107.66
382.24	121.71
382.43	74.90
382.63	72.56
382.83	46.81
383.02	175.54
383.22	168.52
383.41	112.35
383.61	37.45
383.80	133.41
384.00	105.32
384.19	180.22
384.39	128.73
384.58	117.03
384.78	88.94
384.97	121.71
385.17	0.00
385.36	91.28
385.56	107.66
385.75	39.79
385.95	86.60
386.14	105.32
386.34	112.35
386.53	74.90
386.72	84.26
386.92	126.39
387.11	67.88
387.31	79.58
387.50	166.18
387.70	102.98
387.89	51.49
388.09	56.17
388.28	58.51
388.48	93.62
388.67	72.56
388.86	102.98
389.06	42.13
389.25	46.81
389.45	100.64
389.64	30.43
389.84	159.16
390.03	84.26
390.22	30.43
390.42	77.24
390.61	117.03
390.81	84.26
391.00	28.09
391.19	84.26
391.39	37.45
391.58	124.05
391.78	95.96
391.97	110.01
392.16	72.56
392.36	126.39
392.55	77.24
392.75	105.32
392.94	42.13
393.13	126.39
393.33	49.15
393.52	56.17
393.71	170.86
393.91	44.47
394.10	95.96
394.29	138.09
394.49	177.88
394.68	46.81
394.88	88.94
395.07	147.45
395.26	114.69
395.46	86.60
395.65	117.03
395.84	56.17
396.04	201.29
396.23	58.51
396.42	81.92
396.62	121.71
396.81	133.41
397.00	65.54
397.19	53.83
397.39	110.01
397.58	145.11
397.77	91.28
397.97	119.37
398.16	133.41
398.35	114.69
398.55	88.94
398.74	91.28
398.93	98.30
399.12	53.83
399.32	77.24
399.51	126.39
399.70	124.05
399.90	135.75
400.09	86.60
400.28	100.64
400.47	135.75
400.67	166.18
400.86	131.07
401.05	147.45
401.24	119.37
401.44	77.24
401.63	142.77
401.82	149.79
402.01	72.56
402.21	98.30
402.40	105.32
402.59	60.85
402.78	105.32
402.97	152.13
403.17	100.64
403.36	81.92
403.55	58.51
403.74	107.66
403.93	102.98
404.13	138.09
404.32	156.82
404.51	140.43
404.70	51.49
404.89	39.79
405.09	124.05
405.28	142.77
405.47	79.58
405.66	138.09
405.85	105.32
406.05	112.35
406.24	145.11
406.43	166.18
406.62	81.92
406.81	180.22
407.00	184.90
407.20	124.05
407.39	95.96
407.58	30.43
407.77	161.50
407.96	102.98
408.15	126.39
408.34	110.01
408.54	0.00
408.73	119.37
408.92	131.07
409.11	86.60
409.30	102.98
409.49	107.66
409.68	128.73
409.87	159.16
410.07	105.32
410.26	145.11
410.45	79.58
410.64	86.60
410.83	159.16
411.02	102.98
411.21	77.24
411.40	88.94
411.59	161.50
411.78	21.06
411.98	44.47
412.17	161.50
412.36	70.22
412.55	70.22
412.74	65.54
412.93	91.28
413.12	140.43
413.31	147.45
413.50	72.56
413.69	86.60
413.88	114.69
414.07	180.22
414.26	84.26
414.45	117.03
414.64	112.35
414.83	110.01
415.02	121.71
415.22	35.11
415.41	102.98
415.60	35.11
415.79	60.85
415.98	154.48
416.17	105.32
416.36	107.66
416.55	168.52
416.74	91.28
416.93	145.11
417.12	74.90
417.31	161.50
417.50	138.09
417.69	191.92
417.88	175.54
418.07	121.71
418.26	177.88
418.45	91.28
418.64	229.37
418.83	205.97
419.02	168.52
419.21	203.63
419.39	166.18
419.58	121.71
419.77	124.05
419.96	170.86
420.15	100.64
420.34	37.45
420.53	135.75
420.72	170.86
420.91	60.85
421.10	117.03
421.29	110.01
421.48	149.79
421.67	140.43
421.86	42.13
422.05	173.20
422.24	110.01
422.43	156.82
422.61	121.71
422.80	74.90
422.99	93.62
423.18	142.77
423.37	152.13
423.56	100.64
423.75	105.32
423.94	91.28
424.13	114.69
424.32	124.05
424.50	49.15
424.69	140.43
424.88	156.82
425.07	145.11
425.26	110.01
425.45	224.69
425.64	180.22
425.83	147.45
426.01	175.54
426.20	166.18
426.39	140.43
426.58	128.73
426.77	154.48
426.96	112.35
427.15	161.50
427.33	110.01
427.52	124.05
427.71	147.45
427.90	119.37
428.09	53.83
428.28	117.03
428.46	93.62
428.65	65.54
428.84	114.69
429.03	128.73
429.22	140.43
429.40	126.39
429.59	147.45
429.78	117.03
429.97	46.81
430.16	114.69
430.34	74.90
430.53	56.17
430.72	107.66
430.91	53.83
431.10	72.56
431.28	201.29
431.47	102.98
431.66	114.69
431.85	124.05
432.03	117.03
432.22	196.60
432.41	128.73
432.60	166.18
432.79	173.20
432.97	259.80
433.16	238.73
433.35	135.75
433.54	196.60
433.72	175.54
433.91	187.24
434.10	173.20
434.28	121.71
434.47	161.50
434.66	180.22
434.85	173.20
435.03	154.48
435.22	180.22
435.41	95.96
435.59	135.75
435.78	133.41
435.97	98.30
436.16	72.56
436.34	203.63
436.53	117.03
436.72	124.05
436.90	79.58
437.09	128.73
437.28	84.26
437.46	128.73
437.65	105.32
437.84	140.43
438.02	93.62
438.21	112.35
438.40	95.96
438.58	140.43
438.77	51.49
438.96	180.22
439.14	74.90
439.33	107.66
439.52	140.43
439.70	98.30
439.89	138.09
440.08	124.05
440.26	84.26
440.45	205.97
440.63	161.50
440.82	184.90
441.01	161.50
441.19	161.50
441.38	131.07
441.57	191.92
441.75	119.37
441.94	196.60
442.12	145.11
442.31	88.94
442.50	91.28
442.68	131.07
442.87	161.50
443.05	81.92
443.24	128.73
443.43	149.79
443.61	152.13
443.80	142.77
443.98	145.11
444.17	135.75
444.35	149.79
444.54	142.77
444.73	166.18
444.91	159.16
445.10	126.39
445.28	77.24
445.47	131.07
445.65	93.62
445.84	93.62
446.02	119.37
446.21	187.24
446.39	147.45
446.58	177.88
446.77	166.18
446.95	152.13
447.14	163.84
447.32	145.11
447.51	154.48
447.69	81.92
447.88	98.30
448.06	131.07
448.25	154.48
448.43	166.18
448.62	147.45
448.80	156.82
448.99	128.73
449.17	159.16
449.36	112.35
449.54	222.35
449.73	156.82
449.91	194.26
450.10	170.86
450.28	212.99
450.46	215.33
450.65	210.65
450.83	133.41
451.02	145.11
451.20	107.66
451.39	161.50
451.57	131.07
451.76	128.73
451.94	105.32
452.13	159.16
452.31	91.28
452.49	105.32
452.68	18.72
452.86	145.11
453.05	159.16
453.23	112.35
453.42	112.35
453.60	77.24
453.78	121.71
453.97	131.07
454.15	117.03
454.34	156.82
454.52	102.98
454.70	105.32
454.89	98.30
455.07	119.37
455.26	147.45
455.44	110.01
455.62	117.03
455.81	159.16
455.99	135.75
456.17	131.07
456.36	133.41
456.54	147.45
456.73	210.65
456.91	138.09
457.09	154.48
457.28	189.58
457.46	166.18
457.64	128.73
457.83	105.32
458.01	170.86
458.19	154.48
458.38	98.30
458.56	147.45
458.74	117.03
458.93	156.82
459.11	145.11
459.29	51.49
459.48	163.84
459.66	161.50
459.84	110.01
460.03	133.41
460.21	81.92
460.39	112.35
460.57	166.18
460.76	161.50
460.94	152.13
461.12	234.05
461.31	161.50
461.49	184.90
461.67	140.43
461.85	194.26
462.04	152.13
462.22	575.77
462.40	142.77
462.59	117.03
462.77	159.16
462.95	142.77
463.13	175.54
463.32	133.41
463.50	154.48
463.68	154.48
463.86	152.13
464.05	58.51
464.23	124.05
464.41	145.11
464.59	124.05
464.78	131.07
464.96	133.41
465.14	149.79
465.32	142.77
465.50	215.33
465.69	180.22
465.87	74.90
466.05	159.16
466.23	189.58
466.41	51.49
466.60	110.01
466.78	88.94
466.96	133.41
467.14	121.71
467.32	182.56
467.51	147.45
467.69	191.92
467.87	191.92
468.05	128.73
468.23	166.18
468.41	217.67
468.60	168.52
468.78	168.52
468.96	203.63
469.14	177.88
469.32	93.62
469.50	60.85
469.69	140.43
469.87	191.92
470.05	156.82
470.23	210.65
470.41	168.52
470.59	147.45
470.77	88.94
470.95	168.52
471.14	147.45
471.32	131.07
471.50	119.37
471.68	121.71
471.86	124.05
472.04	79.58
472.22	159.16
472.40	93.62
472.58	126.39
472.77	100.64
472.95	114.69
473.13	124.05
473.31	91.28
473.49	149.79
473.67	124.05
473.85	154.48
474.03	184.90
474.21	170.86
474.39	110.01
474.57	212.99
474.75	128.73
474.93	135.75
475.12	128.73
475.30	145.11
475.48	121.71
475.66	60.85
475.84	147.45
476.02	133.41
476.20	133.41
476.38	117.03
476.56	184.90
476.74	189.58
476.92	142.77
477.10	175.54
477.28	170.86
477.46	105.32
477.64	220.01
477.82	138.09
478.00	159.16
478.18	177.88
478.36	149.79
478.54	98.30
478.72	133.41
478.90	114.69
479.08	156.82
479.26	117.03
479.44	117.03
479.62	191.92
479.80	91.28
479.98	147.45
480.16	124.05
480.34	170.86
480.52	53.83
480.70	175.54
480.88	166.18
481.06	117.03
481.24	107.66
481.41	180.22
481.59	156.82
481.77	191.92
481.95	145.11
482.13	210.65
482.31	140.43
482.49	163.84
482.67	187.24
482.85	168.52
483.03	257.46
483.21	140.43
483.39	194.26
483.57	231.71
483.74	189.58
483.92	65.54
484.10	133.41
484.28	173.20
484.46	173.20
484.64	194.26
484.82	140.43
485.00	208.31
485.18	189.58
485.35	126.39
485.53	131.07
485.71	173.20
485.89	79.58
486.07	149.79
486.25	128.73
486.43	170.86
486.61	161.50
486.78	117.03
486.96	180.22
487.14	91.28
487.32	161.50
487.50	201.29
487.68	145.11
487.85	166.18
488.03	212.99
488.21	217.67
488.39	182.56
488.57	231.71
488.75	161.50
488.92	477.47
489.10	147.45
489.28	145.11
489.46	215.33
489.64	142.77
489.81	86.60
489.99	110.01
490.17	163.84
490.35	252.78
490.53	159.16
490.70	114.69
490.88	252.78
491.06	168.52
491.24	133.41
491.41	191.92
491.59	173.20
491.77	170.86
491.95	168.52
492.13	110.01
492.30	175.54
492.48	161.50
492.66	152.13
492.84	107.66
493.01	180.22
493.19	175.54
493.37	212.99
493.54	238.73
493.72	173.20
493.90	184.90
494.08	149.79
494.25	236.39
494.43	229.37
494.61	203.63
494.79	161.50
494.96	208.31
495.14	241.08
495.32	227.03
495.49	131.07
495.67	131.07
495.85	154.48
496.02	210.65
496.20	201.29
496.38	152.13
496.55	210.65
496.73	208.31
496.91	133.41
497.09	175.54
497.26	187.24
497.44	210.65
497.62	229.37
497.79	187.24
497.97	175.54
498.14	142.77
498.32	170.86
498.50	212.99
498.67	189.58
498.85	175.54
499.03	163.84
499.20	166.18
499.38	173.20
499.56	191.92
499.73	248.10
499.91	154.48
500.08	250.44
500.26	182.56
500.44	175.54
500.61	180.22
500.79	135.75
500.97	191.92
501.14	184.90
501.32	152.13
501.49	163.84
501.67	161.50
501.84	102.98
502.02	194.26
502.20	154.48
502.37	210.65
502.55	191.92
502.72	126.39
502.90	175.54
503.07	215.33
503.25	189.58
503.43	236.39
503.60	227.03
503.78	280.86
503.95	220.01
504.13	156.82
504.30	241.08
504.48	220.01
504.65	212.99
504.83	208.31
505.01	184.90
505.18	224.69
505.36	173.20
505.53	91.28
505.71	133.41
505.88	191.92
506.06	217.67
506.23	210.65
506.41	102.98
506.58	234.05
506.76	220.01
506.93	124.05
507.11	194.26
507.28	208.31
507.46	112.35
507.63	168.52
507.81	224.69
507.98	210.65
508.16	149.79
508.33	194.26
508.50	220.01
508.68	231.71
508.85	201.29
509.03	231.71
509.20	88.94
509.38	159.16
509.55	189.58
509.73	201.29
509.90	177.88
510.08	248.10
510.25	236.39
510.42	184.90
510.60	147.45
510.77	173.20
510.95	217.67
511.12	238.73
511.30	212.99
511.47	341.72
511.64	280.86
511.82	241.08
511.99	154.48
512.17	189.58
512.34	173.20
512.51	173.20
512.69	159.16
512.86	220.01
513.04	227.03
513.21	124.05
513.38	191.92
513.56	175.54
513.73	128.73
513.90	217.67
514.08	166.18
514.25	180.22
514.43	156.82
514.60	208.31
514.77	191.92
514.95	180.22
515.12	147.45
515.29	184.90
515.47	217.67
515.64	198.95
515.81	182.56
515.99	231.71
516.16	234.05
516.33	187.24
516.51	121.71
516.68	168.52
516.85	222.35
517.03	138.09
517.20	180.22
517.37	189.58
517.54	191.92
517.72	149.79
517.89	154.48
518.06	175.54
518.24	269.16
518.41	266.82
518.58	175.54
518.75	187.24
518.93	252.78
519.10	168.52
519.27	234.05
519.45	210.65
519.62	248.10
519.79	243.42
519.96	229.37
520.14	215.33
520.31	215.33
520.48	231.71
520.65	259.80
520.83	208.31
521.00	177.88
521.17	238.73
521.34	196.60
521.52	234.05
521.69	269.16
521.86	201.29
522.03	201.29
522.20	248.10
522.38	170.86
522.55	259.80
522.72	135.75
522.89	236.39
523.07	212.99
523.24	201.29
523.41	215.33
523.58	177.88
523.75	163.84
523.92	79.58
524.10	124.05
524.27	156.82
524.44	191.92
524.61	252.78
524.78	182.56
524.96	201.29
525.13	191.92
525.30	138.09
525.47	241.08
525.64	119.37
525.81	212.99
525.98	212.99
526.16	163.84
526.33	159.16
526.50	170.86
526.67	161.50
526.84	194.26
527.01	212.99
527.18	234.05
527.36	259.80
527.53	133.41
527.70	210.65
527.87	182.56
528.04	173.20
528.21	177.88
528.38	220.01
528.55	187.24
528.72	227.03
528.89	212.99
529.07	161.50
529.24	208.31
529.41	184.90
529.58	191.92
529.75	220.01
529.92	140.43
530.09	154.48
530.26	215.33
530.43	191.92
530.60	241.08
530.77	182.56
530.94	201.29
531.11	177.88
531.28	175.54
531.46	180.22
531.63	215.33
531.80	170.86
531.97	243.42
532.14	208.31
532.31	166.18
532.48	299.59
532.65	248.10
532.82	351.08
532.99	292.57
533.16	255.12
533.33	227.03
533.50	212.99
533.67	264.48
533.84	346.40
534.01	367.46
534.18	306.61
534.35	276.18
534.52	297.25
534.69	271.50
534.86	203.63
535.03	205.97
535.20	243.42
535.37	191.92
535.54	175.54
535.71	257.46
535.88	299.59
536.05	191.92
536.22	184.90
536.38	273.84
536.55	149.79
536.72	236.39
536.89	145.11
537.06	177.88
537.23	170.86
537.40	170.86
537.57	241.08
537.74	217.67
537.91	131.07
538.08	234.05
538.25	241.08
538.42	245.76
538.59	208.31
538.75	198.95
538.92	168.52
539.09	182.56
539.26	241.08
539.43	407.25
539.60	931.53
539.77	1497.94
539.94	1556.46
540.11	905.79
540.28	657.69
540.44	433.00
540.61	341.72
540.78	182.56
540.95	236.39
541.12	163.84
541.29	203.63
541.46	259.80
541.62	198.95
541.79	198.95
541.96	175.54
542.13	182.56
542.30	175.54
542.47	210.65
542.63	231.71
542.80	243.42
542.97	290.23
543.14	184.90
543.31	248.10
543.48	154.48
543.64	231.71
543.81	180.22
543.98	161.50
544.15	128.73
544.32	166.18
544.48	133.41
544.65	168.52
544.82	201.29
544.99	131.07
545.16	283.20
545.32	168.52
545.49	217.67
545.66	189.58
545.83	189.58
546.00	187.24
546.16	170.86
546.33	177.88
546.50	191.92
546.67	198.95
546.83	252.78
547.00	166.18
547.17	215.33
547.34	257.46
547.50	152.13
547.67	208.31
547.84	189.58
548.00	238.73
548.17	222.35
548.34	184.90
548.51	201.29
548.67	215.33
548.84	133.41
549.01	154.48
549.18	241.08
549.34	215.33
549.51	236.39
549.68	252.78
549.84	236.39
550.01	194.26
550.18	255.12
550.34	238.73
550.51	184.90
550.68	259.80
550.84	168.52
551.01	196.60
551.18	177.88
551.34	215.33
551.51	217.67
551.68	170.86
551.84	294.91
552.01	201.29
552.18	205.97
552.34	203.63
552.51	126.39
552.68	222.35
552.84	184.90
553.01	201.29
553.18	262.14
553.34	180.22
553.51	173.20
553.67	255.12
553.84	224.69
554.01	224.69
554.17	166.18
554.34	60.85
554.51	241.08
554.67	201.29
554.84	236.39
555.00	252.78
555.17	152.13
555.33	236.39
555.50	259.80
555.67	208.31
555.83	257.46
556.00	280.86
556.16	369.80
556.33	189.58
556.50	173.20
556.66	220.01
556.83	194.26
556.99	184.90
557.16	224.69
557.32	205.97
557.49	257.46
557.65	229.37
557.82	203.63
557.98	156.82
558.15	198.95
558.32	236.39
558.48	180.22
558.65	170.86
558.81	224.69
558.98	154.48
559.14	168.52
559.31	182.56
559.47	194.26
559.64	159.16
559.80	257.46
559.97	170.86
560.13	147.45
560.30	152.13
560.46	224.69
560.63	205.97
560.79	201.29
560.96	215.33
561.12	187.24
561.29	217.67
561.45	191.92
561.61	203.63
561.78	266.82
561.94	264.48
562.11	168.52
562.27	255.12
562.44	154.48
562.60	252.78
562.77	173.20
562.93	205.97
563.10	201.29
563.26	241.08
563.42	248.10
563.59	278.52
563.75	154.48
563.92	173.20
564.08	234.05
564.24	238.73
564.41	304.27
564.57	227.03
564.74	208.31
564.90	245.76
565.07	170.86
565.23	189.58
565.39	177.88
565.56	147.45
565.72	229.37
565.88	227.03
566.05	266.82
566.21	203.63
566.38	248.10
566.54	208.31
566.70	203.63
566.87	152.13
567.03	196.60
567.19	187.24
567.36	243.42
567.52	255.12
567.68	191.92
567.85	138.09
568.01	142.77
568.17	100.64
568.34	191.92
568.50	220.01
568.66	201.29
568.83	330.02
568.99	222.35
569.15	222.35
569.32	156.82
569.48	166.18
569.64	189.58
569.81	175.54
569.97	161.50
570.13	231.71
570.30	194.26
570.46	184.90
570.62	154.48
570.78	224.69
570.95	154.48
571.11	229.37
571.27	227.03
571.43	210.65
571.60	220.01
571.76	205.97
571.92	220.01
572.09	201.29
572.25	128.73
572.41	187.24
572.57	231.71
572.74	252.78
572.90	220.01
573.06	227.03
573.22	203.63
573.38	163.84
573.55	205.97
573.71	276.18
573.87	252.78
574.03	196.60
574.20	248.10
574.36	297.25
574.52	212.99
574.68	250.44
574.84	243.42
575.01	224.69
575.17	269.16
575.33	208.31
575.49	208.31
575.65	234.05
575.82	285.55
575.98	507.90
576.14	669.39
576.30	720.88
576.46	479.81
576.62	465.77
576.79	285.55
576.95	313.63
577.11	229.37
577.27	217.67
577.43	238.73
577.59	283.20
577.75	276.18
577.92	196.60
578.08	255.12
578.24	168.52
578.40	229.37
578.56	273.84
578.72	287.89
578.88	203.63
579.04	241.08
579.21	299.59
579.37	245.76
579.53	234.05
579.69	287.89
579.85	297.25
580.01	327.68
580.17	290.23
580.33	325.33
580.49	315.97
580.65	306.61
580.82	320.65
580.98	266.82
581.14	287.89
581.30	299.59
581.46	374.49
581.62	397.89
581.78	528.96
581.94	660.03
582.10	454.06
582.26	517.26
582.42	433.00
582.58	416.62
582.74	369.80
582.90	358.10
583.06	435.34
583.22	463.43
583.38	454.06
583.54	498.53
583.70	568.75
583.86	697.48
584.02	690.46
584.18	807.48
584.34	1093.03
584.50	2972.48
584.66	22052.53
584.82	54450.22
584.98	65326.69
585.14	62953.39
585.30	48596.54
585.46	29315.21
585.62	17928.50
585.78	8259.75
585.94	3227.60
586.10	1563.48
586.26	971.32
586.42	805.14
586.58	655.35
586.74	622.58
586.90	571.09
587.06	491.51
587.22	486.83
587.38	470.45
587.54	1011.11
587.70	3358.67
587.86	5643.03
588.02	6469.24
588.18	4512.55
588.34	2871.84
588.49	1844.34
588.65	1144.52
588.81	660.03
588.97	379.17
589.13	292.57
589.29	311.29
589.45	318.31
589.61	297.25
589.77	353.42
589.93	428.32
590.08	449.38
590.24	428.32
590.40	465.77
590.56	397.89
590.72	372.15
590.88	238.73
591.04	334.70
591.20	273.84
591.35	311.29
591.51	285.55
591.67	306.61
591.83	290.23
591.99	280.86
592.15	259.80
592.31	262.14
592.46	308.95
592.62	297.25
592.78	276.18
592.94	250.44
593.10	245.76
593.26	330.02
593.41	292.57
593.57	346.40
593.73	571.09
593.89	2574.59
594.05	6916.28
594.20	10967.75
594.36	10590.92
594.52	7063.74
594.68	4194.24
594.84	2829.71
594.99	1579.86
595.15	711.52
595.31	496.19
595.47	344.06
595.62	217.67
595.78	248.10
595.94	285.55
596.10	301.93
596.25	238.73
596.41	376.83
596.57	315.97
596.73	313.63
596.88	498.53
597.04	1362.19
597.20	2204.78
597.36	2792.26
597.51	1912.22
597.67	1369.21
597.83	912.81
597.99	716.20
598.14	390.87
598.30	322.99
598.46	248.10
598.61	294.91
598.77	273.84
598.93	301.93
599.09	290.23
599.24	273.84
599.40	234.05
599.56	297.25
599.71	182.56
599.87	271.50
600.03	170.86
600.18	152.13
600.34	278.52
600.50	250.44
600.65	248.10
600.81	208.31
600.97	269.16
601.12	238.73
601.28	212.99
601.44	191.92
601.59	290.23
601.75	177.88
601.91	189.58
602.06	238.73
602.22	285.55
602.37	627.26
602.53	1647.74
602.69	2649.49
602.84	2836.73
603.00	2097.12
603.16	1397.30
603.31	1032.18
603.47	587.47
603.62	346.40
603.78	351.08
603.94	271.50
604.09	346.40
604.25	280.86
604.40	241.08
604.56	177.88
604.71	250.44
604.87	252.78
605.03	318.31
605.18	215.33
605.34	236.39
605.49	224.69
605.65	243.42
605.80	217.67
605.96	191.92
606.12	372.15
606.27	285.55
606.43	250.44
606.58	322.99
606.74	734.93
606.89	3206.53
607.05	6719.68
607.20	9142.13
607.36	7719.09
607.51	5085.98
607.67	3358.67
607.82	2260.96
607.98	1329.42
608.13	648.33
608.29	442.36
608.44	442.36
608.60	416.62
608.75	449.38
608.91	1102.39
609.06	5100.03
609.22	11639.48
609.37	16126.29
609.53	14040.87
609.68	9415.98
609.84	6015.18
609.99	3871.25
610.15	2106.48
610.30	1006.43
610.46	566.41
610.61	461.09
610.76	308.95
610.92	255.12
611.07	297.25
611.23	351.08
611.38	318.31
611.54	313.63
611.69	229.37
611.84	276.18
