SpectraSuite Data File
++++++++++++++++++++++++++++++++++++
Date: Fri Oct 04 11:47:03 GMT-05:00 2013
User: price-jones
Dark Spectrum Present: No
Reference Spectrum Present: No
Number of Sampled Component Spectra: 1
Spectrometers: USB2+H05261
Integration Time (usec): 100000 (USB2+H05261)
Spectra Averaged: 1 (USB2+H05261)
Boxcar Smoothing: 0 (USB2+H05261)
Correct for Electrical Dark: No (USB2+H05261)
Strobe/Lamp Enabled: No (USB2+H05261)
Correct for Detector Non-linearity: No (USB2+H05261)
Correct for Stray Light: No (USB2+H05261)
Number of Pixels in Processed Spectrum: 2048
>>>>>Begin Processed Spectral Data<<<<<
365.73	46.81
365.92	46.81
366.12	46.81
366.32	0.00
366.52	0.00
366.72	0.00
366.91	0.00
367.11	0.00
367.31	0.00
367.51	0.00
367.70	0.00
367.90	0.00
368.10	0.00
368.30	0.00
368.49	0.00
368.69	0.00
368.89	0.00
369.09	0.00
369.28	0.00
369.48	0.00
369.68	0.00
369.87	0.00
370.07	0.00
370.27	18.72
370.47	0.00
370.66	14.04
370.86	51.49
371.06	102.98
371.25	37.45
371.45	0.00
371.65	84.26
371.84	77.24
372.04	60.85
372.24	79.58
372.44	100.64
372.63	46.81
372.83	140.43
373.03	70.22
373.22	42.13
373.42	98.30
373.62	121.71
373.81	0.00
374.01	93.62
374.21	140.43
374.40	46.81
374.60	114.69
374.79	138.09
374.99	124.05
375.19	128.73
375.38	156.82
375.58	84.26
375.78	25.75
375.97	140.43
376.17	149.79
376.37	72.56
376.56	110.01
376.76	140.43
376.95	138.09
377.15	140.43
377.35	114.69
377.54	65.54
377.74	88.94
377.93	112.35
378.13	107.66
378.33	161.50
378.52	126.39
378.72	110.01
378.91	74.90
379.11	32.77
379.31	149.79
379.50	91.28
379.70	86.60
379.89	135.75
380.09	37.45
380.28	37.45
380.48	105.32
380.68	32.77
380.87	81.92
381.07	77.24
381.26	105.32
381.46	149.79
381.65	37.45
381.85	119.37
382.04	110.01
382.24	191.92
382.43	105.32
382.63	133.41
382.83	112.35
383.02	145.11
383.22	138.09
383.41	121.71
383.61	53.83
383.80	39.79
384.00	30.43
384.19	95.96
384.39	81.92
384.58	74.90
384.78	156.82
384.97	28.09
385.17	81.92
385.36	53.83
385.56	110.01
385.75	21.06
385.95	18.72
386.14	133.41
386.34	119.37
386.53	84.26
386.72	51.49
386.92	110.01
387.11	77.24
387.31	79.58
387.50	35.11
387.70	30.43
387.89	42.13
388.09	51.49
388.28	81.92
388.48	117.03
388.67	138.09
388.86	117.03
389.06	117.03
389.25	208.31
389.45	81.92
389.64	147.45
389.84	72.56
390.03	149.79
390.22	138.09
390.42	84.26
390.61	93.62
390.81	84.26
391.00	110.01
391.19	98.30
391.39	135.75
391.58	138.09
391.78	67.88
391.97	131.07
392.16	81.92
392.36	131.07
392.55	98.30
392.75	93.62
392.94	32.77
393.13	98.30
393.33	100.64
393.52	32.77
393.71	156.82
393.91	128.73
394.10	72.56
394.29	161.50
394.49	117.03
394.68	114.69
394.88	107.66
395.07	107.66
395.26	65.54
395.46	105.32
395.65	42.13
395.84	110.01
396.04	163.84
396.23	98.30
396.42	124.05
396.62	46.81
396.81	102.98
397.00	121.71
397.19	56.17
397.39	79.58
397.58	86.60
397.77	105.32
397.97	79.58
398.16	112.35
398.35	74.90
398.55	105.32
398.74	133.41
398.93	84.26
399.12	86.60
399.32	147.45
399.51	112.35
399.70	142.77
399.90	107.66
400.09	161.50
400.28	135.75
400.47	110.01
400.67	227.03
400.86	152.13
401.05	135.75
401.24	74.90
401.44	98.30
401.63	84.26
401.82	189.58
402.01	98.30
402.21	86.60
402.40	161.50
402.59	140.43
402.78	81.92
402.97	51.49
403.17	168.52
403.36	131.07
403.55	121.71
403.74	65.54
403.93	168.52
404.13	121.71
404.32	114.69
404.51	60.85
404.70	121.71
404.89	93.62
405.09	191.92
405.28	138.09
405.47	84.26
405.66	131.07
405.85	131.07
406.05	42.13
406.24	119.37
406.43	117.03
406.62	124.05
406.81	175.54
407.00	95.96
407.20	135.75
407.39	0.00
407.58	121.71
407.77	74.90
407.96	107.66
408.15	53.83
408.34	121.71
408.54	149.79
408.73	163.84
408.92	37.45
409.11	81.92
409.30	93.62
409.49	60.85
409.68	100.64
409.87	88.94
410.07	42.13
410.26	124.05
410.45	154.48
410.64	86.60
410.83	131.07
411.02	100.64
411.21	138.09
411.40	74.90
411.59	119.37
411.78	166.18
411.98	49.15
412.17	117.03
412.36	72.56
412.55	112.35
412.74	121.71
412.93	131.07
413.12	63.19
413.31	133.41
413.50	126.39
413.69	147.45
413.88	241.08
414.07	142.77
414.26	138.09
414.45	107.66
414.64	152.13
414.83	91.28
415.02	124.05
415.22	100.64
415.41	243.42
415.60	74.90
415.79	70.22
415.98	142.77
416.17	191.92
416.36	98.30
416.55	42.13
416.74	91.28
416.93	154.48
417.12	114.69
417.31	74.90
417.50	25.75
417.69	166.18
417.88	191.92
418.07	147.45
418.26	124.05
418.45	156.82
418.64	170.86
418.83	212.99
419.02	217.67
419.21	159.16
419.39	152.13
419.58	170.86
419.77	168.52
419.96	159.16
420.15	86.60
420.34	86.60
420.53	112.35
420.72	198.95
420.91	77.24
421.10	74.90
421.29	100.64
421.48	124.05
421.67	77.24
421.86	196.60
422.05	95.96
422.24	133.41
422.43	63.19
422.61	166.18
422.80	147.45
422.99	100.64
423.18	70.22
423.37	166.18
423.56	121.71
423.75	91.28
423.94	140.43
424.13	250.44
424.32	133.41
424.50	138.09
424.69	105.32
424.88	159.16
425.07	128.73
425.26	205.97
425.45	269.16
425.64	210.65
425.83	145.11
426.01	114.69
426.20	149.79
426.39	79.58
426.58	119.37
426.77	168.52
426.96	114.69
427.15	140.43
427.33	70.22
427.52	107.66
427.71	65.54
427.90	98.30
428.09	128.73
428.28	117.03
428.46	135.75
428.65	156.82
428.84	133.41
429.03	152.13
429.22	119.37
429.40	63.19
429.59	126.39
429.78	145.11
429.97	93.62
430.16	74.90
430.34	124.05
430.53	91.28
430.72	119.37
430.91	51.49
431.10	126.39
431.28	84.26
431.47	166.18
431.66	177.88
431.85	126.39
432.03	77.24
432.22	147.45
432.41	140.43
432.60	159.16
432.79	168.52
432.97	159.16
433.16	287.89
433.35	203.63
433.54	198.95
433.72	149.79
433.91	168.52
434.10	91.28
434.28	163.84
434.47	124.05
434.66	105.32
434.85	173.20
435.03	161.50
435.22	112.35
435.41	114.69
435.59	180.22
435.78	182.56
435.97	124.05
436.16	124.05
436.34	95.96
436.53	98.30
436.72	98.30
436.90	156.82
437.09	67.88
437.28	100.64
437.46	100.64
437.65	128.73
437.84	107.66
438.02	168.52
438.21	156.82
438.40	117.03
438.58	46.81
438.77	63.19
438.96	86.60
439.14	93.62
439.33	77.24
439.52	135.75
439.70	138.09
439.89	72.56
440.08	70.22
440.26	124.05
440.45	187.24
440.63	119.37
440.82	91.28
441.01	147.45
441.19	170.86
441.38	110.01
441.57	88.94
441.75	98.30
441.94	114.69
442.12	163.84
442.31	105.32
442.50	145.11
442.68	84.26
442.87	93.62
443.05	119.37
443.24	105.32
443.43	95.96
443.61	205.97
443.80	131.07
443.98	131.07
444.17	124.05
444.35	128.73
444.54	131.07
444.73	121.71
444.91	105.32
445.10	25.75
445.28	70.22
445.47	142.77
445.65	114.69
445.84	74.90
446.02	175.54
446.21	180.22
446.39	189.58
446.58	194.26
446.77	93.62
446.95	77.24
447.14	112.35
447.32	124.05
447.51	156.82
447.69	170.86
447.88	112.35
448.06	173.20
448.25	124.05
448.43	81.92
448.62	145.11
448.80	196.60
448.99	124.05
449.17	131.07
449.36	56.17
449.54	189.58
449.73	152.13
449.91	131.07
450.10	110.01
450.28	236.39
450.46	227.03
450.65	133.41
450.83	105.32
451.02	72.56
451.20	187.24
451.39	93.62
451.57	135.75
451.76	161.50
451.94	231.71
452.13	175.54
452.31	182.56
452.49	147.45
452.68	88.94
452.86	67.88
453.05	276.18
453.23	175.54
453.42	88.94
453.60	149.79
453.78	198.95
453.97	149.79
454.15	79.58
454.34	93.62
454.52	81.92
454.70	175.54
454.89	128.73
455.07	152.13
455.26	147.45
455.44	140.43
455.62	133.41
455.81	9.36
455.99	138.09
456.17	81.92
456.36	133.41
456.54	138.09
456.73	91.28
456.91	138.09
457.09	138.09
457.28	142.77
457.46	124.05
457.64	107.66
457.83	70.22
458.01	105.32
458.19	126.39
458.38	112.35
458.56	135.75
458.74	138.09
458.93	198.95
459.11	124.05
459.29	124.05
459.48	145.11
459.66	175.54
459.84	107.66
460.03	252.78
460.21	81.92
460.39	163.84
460.57	70.22
460.76	112.35
460.94	149.79
461.12	149.79
461.31	212.99
461.49	189.58
461.67	95.96
461.85	114.69
462.04	114.69
462.22	648.33
462.40	147.45
462.59	208.31
462.77	135.75
462.95	168.52
463.13	145.11
463.32	145.11
463.50	133.41
463.68	170.86
463.86	212.99
464.05	194.26
464.23	217.67
464.41	191.92
464.59	117.03
464.78	110.01
464.96	135.75
465.14	234.05
465.32	161.50
465.50	119.37
465.69	166.18
465.87	168.52
466.05	124.05
466.23	128.73
466.41	147.45
466.60	117.03
466.78	156.82
466.96	262.14
467.14	119.37
467.32	131.07
467.51	173.20
467.69	107.66
467.87	187.24
468.05	154.48
468.23	198.95
468.41	105.32
468.60	112.35
468.78	177.88
468.96	191.92
469.14	107.66
469.32	95.96
469.50	72.56
469.69	208.31
469.87	154.48
470.05	201.29
470.23	227.03
470.41	86.60
470.59	131.07
470.77	135.75
470.95	163.84
471.14	117.03
471.32	112.35
471.50	142.77
471.68	177.88
471.86	147.45
472.04	114.69
472.22	170.86
472.40	170.86
472.58	135.75
472.77	86.60
472.95	140.43
473.13	166.18
473.31	159.16
473.49	117.03
473.67	152.13
473.85	133.41
474.03	114.69
474.21	166.18
474.39	121.71
474.57	114.69
474.75	138.09
474.93	133.41
475.12	173.20
475.30	149.79
475.48	126.39
475.66	84.26
475.84	189.58
476.02	112.35
476.20	140.43
476.38	187.24
476.56	264.48
476.74	140.43
476.92	95.96
477.10	114.69
477.28	131.07
477.46	128.73
477.64	135.75
477.82	126.39
478.00	121.71
478.18	161.50
478.36	212.99
478.54	110.01
478.72	79.58
478.90	156.82
479.08	191.92
479.26	166.18
479.44	175.54
479.62	149.79
479.80	220.01
479.98	100.64
480.16	126.39
480.34	149.79
480.52	170.86
480.70	152.13
480.88	95.96
481.06	182.56
481.24	168.52
481.41	140.43
481.59	168.52
481.77	198.95
481.95	140.43
482.13	250.44
482.31	194.26
482.49	177.88
482.67	152.13
482.85	121.71
483.03	156.82
483.21	140.43
483.39	187.24
483.57	126.39
483.74	156.82
483.92	163.84
484.10	93.62
484.28	201.29
484.46	243.42
484.64	156.82
484.82	203.63
485.00	175.54
485.18	121.71
485.35	112.35
485.53	102.98
485.71	135.75
485.89	133.41
486.07	152.13
486.25	133.41
486.43	163.84
486.61	119.37
486.78	191.92
486.96	227.03
487.14	145.11
487.32	203.63
487.50	135.75
487.68	198.95
487.85	154.48
488.03	105.32
488.21	191.92
488.39	156.82
488.57	133.41
488.75	117.03
488.92	388.53
489.10	166.18
489.28	220.01
489.46	110.01
489.64	112.35
489.81	191.92
489.99	189.58
490.17	238.73
490.35	212.99
490.53	95.96
490.70	156.82
490.88	201.29
491.06	163.84
491.24	189.58
491.41	198.95
491.59	198.95
491.77	161.50
491.95	133.41
492.13	147.45
492.30	205.97
492.48	194.26
492.66	208.31
492.84	196.60
493.01	243.42
493.19	128.73
493.37	180.22
493.54	173.20
493.72	287.89
493.90	201.29
494.08	180.22
494.25	205.97
494.43	196.60
494.61	131.07
494.79	252.78
494.96	147.45
495.14	191.92
495.32	128.73
495.49	161.50
495.67	159.16
495.85	124.05
496.02	210.65
496.20	196.60
496.38	166.18
496.55	187.24
496.73	182.56
496.91	215.33
497.09	227.03
497.26	278.52
497.44	142.77
497.62	133.41
497.79	128.73
497.97	210.65
498.14	159.16
498.32	180.22
498.50	173.20
498.67	184.90
498.85	182.56
499.03	152.13
499.20	198.95
499.38	236.39
499.56	220.01
499.73	184.90
499.91	222.35
500.08	198.95
500.26	224.69
500.44	212.99
500.61	257.46
500.79	131.07
500.97	170.86
501.14	203.63
501.32	126.39
501.49	215.33
501.67	140.43
501.84	229.37
502.02	215.33
502.20	203.63
502.37	203.63
502.55	177.88
502.72	152.13
502.90	187.24
503.07	177.88
503.25	187.24
503.43	217.67
503.60	271.50
503.78	170.86
503.95	166.18
504.13	147.45
504.30	229.37
504.48	287.89
504.65	259.80
504.83	180.22
505.01	238.73
505.18	257.46
505.36	191.92
505.53	152.13
505.71	198.95
505.88	168.52
506.06	203.63
506.23	173.20
506.41	217.67
506.58	159.16
506.76	205.97
506.93	182.56
507.11	191.92
507.28	175.54
507.46	208.31
507.63	166.18
507.81	212.99
507.98	224.69
508.16	234.05
508.33	170.86
508.50	217.67
508.68	208.31
508.85	229.37
509.03	180.22
509.20	215.33
509.38	138.09
509.55	212.99
509.73	198.95
509.90	231.71
510.08	168.52
510.25	271.50
510.42	198.95
510.60	177.88
510.77	229.37
510.95	163.84
511.12	180.22
511.30	205.97
511.47	243.42
511.64	325.33
511.82	243.42
511.99	163.84
512.17	154.48
512.34	149.79
512.51	180.22
512.69	210.65
512.86	245.76
513.04	161.50
513.21	231.71
513.38	175.54
513.56	177.88
513.73	205.97
513.90	159.16
514.08	191.92
514.25	266.82
514.43	166.18
514.60	210.65
514.77	168.52
514.95	196.60
515.12	168.52
515.29	189.58
515.47	121.71
515.64	194.26
515.81	222.35
515.99	262.14
516.16	191.92
516.33	241.08
516.51	154.48
516.68	140.43
516.85	161.50
517.03	224.69
517.20	182.56
517.37	229.37
517.54	154.48
517.72	205.97
517.89	117.03
518.06	222.35
518.24	203.63
518.41	234.05
518.58	182.56
518.75	229.37
518.93	191.92
519.10	280.86
519.27	194.26
519.45	198.95
519.62	215.33
519.79	212.99
519.96	220.01
520.14	273.84
520.31	222.35
520.48	205.97
520.65	210.65
520.83	156.82
521.00	135.75
521.17	243.42
521.34	227.03
521.52	215.33
521.69	205.97
521.86	224.69
522.03	222.35
522.20	234.05
522.38	203.63
522.55	163.84
522.72	177.88
522.89	201.29
523.07	217.67
523.24	205.97
523.41	152.13
523.58	156.82
523.75	205.97
523.92	191.92
524.10	236.39
524.27	126.39
524.44	156.82
524.61	229.37
524.78	252.78
524.96	208.31
525.13	215.33
525.30	156.82
525.47	191.92
525.64	227.03
525.81	212.99
525.98	238.73
526.16	133.41
526.33	154.48
526.50	166.18
526.67	147.45
526.84	128.73
527.01	159.16
527.18	238.73
527.36	173.20
527.53	266.82
527.70	215.33
527.87	205.97
528.04	262.14
528.21	238.73
528.38	173.20
528.55	255.12
528.72	227.03
528.89	220.01
529.07	203.63
529.24	252.78
529.41	227.03
529.58	173.20
529.75	238.73
529.92	203.63
530.09	208.31
530.26	210.65
530.43	276.18
530.60	187.24
530.77	215.33
530.94	182.56
531.11	208.31
531.28	161.50
531.46	210.65
531.63	227.03
531.80	215.33
531.97	215.33
532.14	266.82
532.31	212.99
532.48	283.20
532.65	318.31
532.82	402.57
532.99	318.31
533.16	283.20
533.33	332.36
533.50	241.08
533.67	325.33
533.84	381.51
534.01	407.25
534.18	330.02
534.35	227.03
534.52	231.71
534.69	287.89
534.86	131.07
535.03	203.63
535.20	194.26
535.37	229.37
535.54	198.95
535.71	189.58
535.88	257.46
536.05	234.05
536.22	320.65
536.38	241.08
536.55	152.13
536.72	243.42
536.89	273.84
537.06	229.37
537.23	187.24
537.40	182.56
537.57	231.71
537.74	236.39
537.91	227.03
538.08	243.42
538.25	264.48
538.42	231.71
538.59	215.33
538.75	196.60
538.92	180.22
539.09	259.80
539.26	194.26
539.43	540.66
539.60	1193.67
539.77	1842.00
539.94	1715.61
540.11	1121.12
540.28	716.20
540.44	472.79
540.61	257.46
540.78	220.01
540.95	250.44
541.12	175.54
541.29	220.01
541.46	217.67
541.62	227.03
541.79	234.05
541.96	203.63
542.13	220.01
542.30	234.05
542.47	201.29
542.63	180.22
542.80	287.89
542.97	304.27
543.14	271.50
543.31	149.79
543.48	182.56
543.64	196.60
543.81	203.63
543.98	210.65
544.15	189.58
544.32	205.97
544.48	259.80
544.65	168.52
544.82	196.60
544.99	227.03
545.16	287.89
545.32	163.84
545.49	208.31
545.66	222.35
545.83	194.26
546.00	292.57
546.16	210.65
546.33	156.82
546.50	184.90
546.67	215.33
546.83	222.35
547.00	194.26
547.17	212.99
547.34	161.50
547.50	149.79
547.67	250.44
547.84	212.99
548.00	215.33
548.17	212.99
548.34	180.22
548.51	299.59
548.67	198.95
548.84	149.79
549.01	241.08
549.18	264.48
549.34	243.42
549.51	234.05
549.68	212.99
549.84	203.63
550.01	182.56
550.18	271.50
550.34	276.18
550.51	117.03
550.68	194.26
550.84	238.73
551.01	257.46
551.18	276.18
551.34	184.90
551.51	187.24
551.68	217.67
551.84	210.65
552.01	234.05
552.18	294.91
552.34	234.05
552.51	168.52
552.68	252.78
552.84	287.89
553.01	208.31
553.18	205.97
553.34	231.71
553.51	152.13
553.67	196.60
553.84	222.35
554.01	227.03
554.17	250.44
554.34	215.33
554.51	105.32
554.67	241.08
554.84	278.52
555.00	271.50
555.17	140.43
555.33	229.37
555.50	224.69
555.67	248.10
555.83	201.29
556.00	327.68
556.16	367.46
556.33	287.89
556.50	194.26
556.66	217.67
556.83	168.52
556.99	259.80
557.16	203.63
557.32	220.01
557.49	142.77
557.65	231.71
557.82	198.95
557.98	196.60
558.15	149.79
558.32	236.39
558.48	220.01
558.65	229.37
558.81	248.10
558.98	198.95
559.14	163.84
559.31	227.03
559.47	145.11
559.64	131.07
559.80	140.43
559.97	201.29
560.13	175.54
560.30	187.24
560.46	248.10
560.63	182.56
560.79	175.54
560.96	210.65
561.12	140.43
561.29	227.03
561.45	166.18
561.61	187.24
561.78	255.12
561.94	166.18
562.11	238.73
562.27	177.88
562.44	194.26
562.60	304.27
562.77	191.92
562.93	285.55
563.10	184.90
563.26	201.29
563.42	198.95
563.59	224.69
563.75	191.92
563.92	215.33
564.08	255.12
564.24	269.16
564.41	191.92
564.57	208.31
564.74	215.33
564.90	201.29
565.07	227.03
565.23	257.46
565.39	304.27
565.56	308.95
565.72	285.55
565.88	224.69
566.05	170.86
566.21	205.97
566.38	203.63
566.54	220.01
566.70	187.24
566.87	126.39
567.03	168.52
567.19	187.24
567.36	255.12
567.52	348.74
567.68	236.39
567.85	243.42
568.01	152.13
568.17	161.50
568.34	175.54
568.50	187.24
568.66	212.99
568.83	241.08
568.99	177.88
569.15	285.55
569.32	175.54
569.48	248.10
569.64	191.92
569.81	217.67
569.97	170.86
570.13	198.95
570.30	248.10
570.46	252.78
570.62	257.46
570.78	269.16
570.95	201.29
571.11	255.12
571.27	252.78
571.43	175.54
571.60	224.69
571.76	280.86
571.92	236.39
572.09	285.55
572.25	290.23
572.41	245.76
572.57	191.92
572.74	220.01
572.90	215.33
573.06	257.46
573.22	257.46
573.38	257.46
573.55	285.55
573.71	168.52
573.87	280.86
574.03	217.67
574.20	241.08
574.36	280.86
574.52	313.63
574.68	339.38
574.84	369.80
575.01	203.63
575.17	243.42
575.33	215.33
575.49	248.10
575.65	212.99
575.82	285.55
575.98	610.88
576.14	765.36
576.30	835.57
576.46	496.19
576.62	447.04
576.79	369.80
576.95	444.70
577.11	276.18
577.27	220.01
577.43	276.18
577.59	245.76
577.75	280.86
577.92	196.60
578.08	290.23
578.24	231.71
578.40	299.59
578.56	301.93
578.72	252.78
578.88	348.74
579.04	224.69
579.21	290.23
579.37	264.48
579.53	276.18
579.69	243.42
579.85	306.61
580.01	271.50
580.17	367.46
580.33	372.15
580.49	390.87
580.65	325.33
580.82	311.29
580.98	278.52
581.14	337.04
581.30	425.98
581.46	517.26
581.62	620.24
581.78	688.12
581.94	634.29
582.10	486.83
582.26	503.22
582.42	531.30
582.58	440.02
582.74	404.91
582.90	447.04
583.06	489.17
583.22	409.59
583.38	451.72
583.54	629.60
583.70	709.18
583.86	758.33
584.02	884.72
584.18	1071.97
584.34	1430.07
584.50	4105.30
584.66	31239.13
584.82	62178.67
584.98	65535.00
585.14	65535.00
585.30	56807.14
585.46	35461.46
585.62	21717.83
585.78	9895.78
585.94	3887.63
586.10	1757.74
586.26	1128.14
586.42	994.73
586.58	753.65
586.74	650.67
586.90	645.99
587.06	638.97
587.22	547.69
587.38	528.96
587.54	1488.58
587.70	4315.95
587.86	6916.28
588.02	7360.98
588.18	5245.14
588.34	3335.26
588.49	2160.31
588.65	1294.32
588.81	690.46
588.97	444.70
589.13	318.31
589.29	362.78
589.45	292.57
589.61	238.73
589.77	418.96
589.93	442.36
590.08	538.32
590.24	360.44
590.40	435.34
590.56	407.25
590.72	390.87
590.88	339.38
591.04	393.21
591.20	322.99
591.35	348.74
591.51	332.36
591.67	238.73
591.83	353.42
591.99	374.49
592.15	299.59
592.31	292.57
592.46	278.52
592.62	362.78
592.78	297.25
592.94	308.95
593.10	327.68
593.26	250.44
593.41	341.72
593.57	337.04
593.73	720.88
593.89	3669.96
594.05	9373.85
594.20	13057.85
594.36	12107.59
594.52	8100.59
594.68	5022.79
594.84	3274.41
594.99	1818.60
595.15	727.91
595.31	531.30
595.47	353.42
595.62	292.57
595.78	353.42
595.94	341.72
596.10	330.02
596.25	322.99
596.41	348.74
596.57	400.23
596.73	327.68
596.88	543.00
597.04	1764.76
597.20	2808.64
597.36	3215.90
597.51	2335.85
597.67	1582.20
597.83	1043.88
597.99	767.70
598.14	493.85
598.30	407.25
598.46	341.72
598.61	351.08
598.77	344.06
598.93	294.91
599.09	400.23
599.24	287.89
599.40	311.29
599.56	259.80
599.71	229.37
599.87	234.05
600.03	161.50
600.18	227.03
600.34	215.33
600.50	175.54
600.65	149.79
600.81	278.52
600.97	236.39
601.12	212.99
601.28	201.29
601.44	196.60
601.59	170.86
601.75	203.63
601.91	276.18
602.06	301.93
602.22	353.42
602.37	840.25
602.53	2101.80
602.69	3183.13
602.84	3272.07
603.00	2403.73
603.16	1607.95
603.31	1100.05
603.47	748.97
603.62	437.68
603.78	318.31
603.94	301.93
604.09	210.65
604.25	227.03
604.40	341.72
604.56	250.44
604.71	234.05
604.87	175.54
605.03	292.57
605.18	210.65
605.34	332.36
605.49	276.18
605.65	276.18
605.80	315.97
605.96	299.59
606.12	344.06
606.27	330.02
606.43	348.74
606.58	395.55
606.74	1036.86
606.89	4493.83
607.05	8627.21
607.20	10820.30
607.36	8990.00
607.51	6071.35
607.67	3955.51
607.82	2640.12
607.98	1364.53
608.13	767.70
608.29	416.62
608.44	449.38
608.60	482.15
608.75	566.41
608.91	1406.66
609.06	6995.86
609.22	14773.46
609.37	19129.20
609.53	16549.93
609.68	10787.53
609.84	6970.12
609.99	4671.71
610.15	2567.57
610.30	1158.57
610.46	580.45
610.61	470.45
610.76	409.59
610.92	341.72
611.07	379.17
611.23	397.89
611.38	276.18
611.54	315.97
611.69	318.31
611.84	301.93
