SpectraSuite Data File
++++++++++++++++++++++++++++++++++++
Date: Fri Oct 04 11:47:00 GMT-05:00 2013
User: price-jones
Dark Spectrum Present: No
Reference Spectrum Present: No
Number of Sampled Component Spectra: 1
Spectrometers: USB2+H05261
Integration Time (usec): 100000 (USB2+H05261)
Spectra Averaged: 1 (USB2+H05261)
Boxcar Smoothing: 0 (USB2+H05261)
Correct for Electrical Dark: No (USB2+H05261)
Strobe/Lamp Enabled: No (USB2+H05261)
Correct for Detector Non-linearity: No (USB2+H05261)
Correct for Stray Light: No (USB2+H05261)
Number of Pixels in Processed Spectrum: 2048
>>>>>Begin Processed Spectral Data<<<<<
365.73	44.47
365.92	44.47
366.12	44.47
366.32	0.00
366.52	0.00
366.72	0.00
366.91	0.00
367.11	0.00
367.31	0.00
367.51	0.00
367.70	0.00
367.90	0.00
368.10	0.00
368.30	0.00
368.49	0.00
368.69	0.00
368.89	0.00
369.09	0.00
369.28	0.00
369.48	0.00
369.68	0.00
369.87	0.00
370.07	0.00
370.27	0.00
370.47	23.41
370.66	79.58
370.86	93.62
371.06	119.37
371.25	159.16
371.45	42.13
371.65	18.72
371.84	7.02
372.04	37.45
372.24	88.94
372.44	79.58
372.63	65.54
372.83	126.39
373.03	51.49
373.22	32.77
373.42	77.24
373.62	60.85
373.81	67.88
374.01	86.60
374.21	156.82
374.40	102.98
374.60	67.88
374.79	67.88
374.99	166.18
375.19	110.01
375.38	88.94
375.58	95.96
375.78	128.73
375.97	128.73
376.17	175.54
376.37	72.56
376.56	119.37
376.76	32.77
376.95	107.66
377.15	79.58
377.35	67.88
377.54	56.17
377.74	147.45
377.93	128.73
378.13	72.56
378.33	154.48
378.52	67.88
378.72	107.66
378.91	88.94
379.11	135.75
379.31	98.30
379.50	67.88
379.70	131.07
379.89	86.60
380.09	107.66
380.28	9.36
380.48	70.22
380.68	72.56
380.87	100.64
381.07	70.22
381.26	182.56
381.46	156.82
381.65	44.47
381.85	86.60
382.04	81.92
382.24	126.39
382.43	98.30
382.63	81.92
382.83	138.09
383.02	133.41
383.22	177.88
383.41	63.19
383.61	51.49
383.80	100.64
384.00	63.19
384.19	112.35
384.39	112.35
384.58	100.64
384.78	128.73
384.97	88.94
385.17	65.54
385.36	86.60
385.56	65.54
385.75	58.51
385.95	100.64
386.14	170.86
386.34	124.05
386.53	91.28
386.72	56.17
386.92	102.98
387.11	105.32
387.31	84.26
387.50	39.79
387.70	49.15
387.89	131.07
388.09	37.45
388.28	65.54
388.48	95.96
388.67	147.45
388.86	88.94
389.06	65.54
389.25	93.62
389.45	112.35
389.64	84.26
389.84	177.88
390.03	187.24
390.22	112.35
390.42	65.54
390.61	58.51
390.81	102.98
391.00	65.54
391.19	114.69
391.39	117.03
391.58	74.90
391.78	0.00
391.97	173.20
392.16	131.07
392.36	81.92
392.55	168.52
392.75	72.56
392.94	102.98
393.13	35.11
393.33	105.32
393.52	131.07
393.71	58.51
393.91	145.11
394.10	84.26
394.29	65.54
394.49	156.82
394.68	163.84
394.88	93.62
395.07	121.71
395.26	11.70
395.46	49.15
395.65	175.54
395.84	117.03
396.04	180.22
396.23	51.49
396.42	86.60
396.62	95.96
396.81	131.07
397.00	140.43
397.19	135.75
397.39	163.84
397.58	93.62
397.77	0.00
397.97	77.24
398.16	138.09
398.35	70.22
398.55	100.64
398.74	135.75
398.93	145.11
399.12	135.75
399.32	121.71
399.51	147.45
399.70	124.05
399.90	147.45
400.09	152.13
400.28	100.64
400.47	65.54
400.67	74.90
400.86	110.01
401.05	121.71
401.24	95.96
401.44	77.24
401.63	138.09
401.82	149.79
402.01	46.81
402.21	65.54
402.40	37.45
402.59	149.79
402.78	110.01
402.97	166.18
403.17	133.41
403.36	98.30
403.55	112.35
403.74	98.30
403.93	119.37
404.13	196.60
404.32	180.22
404.51	117.03
404.70	128.73
404.89	102.98
405.09	149.79
405.28	95.96
405.47	25.75
405.66	98.30
405.85	168.52
406.05	93.62
406.24	81.92
406.43	28.09
406.62	138.09
406.81	138.09
407.00	93.62
407.20	126.39
407.39	112.35
407.58	77.24
407.77	60.85
407.96	84.26
408.15	95.96
408.34	121.71
408.54	154.48
408.73	91.28
408.92	60.85
409.11	86.60
409.30	161.50
409.49	58.51
409.68	86.60
409.87	0.00
410.07	105.32
410.26	65.54
410.45	128.73
410.64	70.22
410.83	112.35
411.02	168.52
411.21	156.82
411.40	93.62
411.59	79.58
411.78	84.26
411.98	72.56
412.17	126.39
412.36	35.11
412.55	124.05
412.74	100.64
412.93	152.13
413.12	86.60
413.31	182.56
413.50	112.35
413.69	79.58
413.88	63.19
414.07	161.50
414.26	65.54
414.45	102.98
414.64	112.35
414.83	60.85
415.02	175.54
415.22	161.50
415.41	112.35
415.60	149.79
415.79	77.24
415.98	124.05
416.17	147.45
416.36	112.35
416.55	81.92
416.74	168.52
416.93	77.24
417.12	112.35
417.31	46.81
417.50	138.09
417.69	170.86
417.88	159.16
418.07	88.94
418.26	105.32
418.45	110.01
418.64	205.97
418.83	198.95
419.02	217.67
419.21	105.32
419.39	128.73
419.58	163.84
419.77	147.45
419.96	264.48
420.15	163.84
420.34	142.77
420.53	112.35
420.72	81.92
420.91	46.81
421.10	154.48
421.29	128.73
421.48	133.41
421.67	168.52
421.86	161.50
422.05	121.71
422.24	65.54
422.43	133.41
422.61	67.88
422.80	147.45
422.99	110.01
423.18	56.17
423.37	107.66
423.56	86.60
423.75	140.43
423.94	147.45
424.13	140.43
424.32	100.64
424.50	42.13
424.69	95.96
424.88	105.32
425.07	135.75
425.26	201.29
425.45	180.22
425.64	255.12
425.83	161.50
426.01	189.58
426.20	182.56
426.39	201.29
426.58	110.01
426.77	140.43
426.96	142.77
427.15	105.32
427.33	102.98
427.52	110.01
427.71	126.39
427.90	152.13
428.09	156.82
428.28	114.69
428.46	145.11
428.65	154.48
428.84	128.73
429.03	110.01
429.22	112.35
429.40	100.64
429.59	126.39
429.78	119.37
429.97	79.58
430.16	173.20
430.34	159.16
430.53	175.54
430.72	133.41
430.91	77.24
431.10	112.35
431.28	135.75
431.47	110.01
431.66	145.11
431.85	60.85
432.03	124.05
432.22	126.39
432.41	114.69
432.60	175.54
432.79	161.50
432.97	264.48
433.16	287.89
433.35	266.82
433.54	180.22
433.72	121.71
433.91	191.92
434.10	161.50
434.28	173.20
434.47	138.09
434.66	142.77
434.85	102.98
435.03	81.92
435.22	77.24
435.41	147.45
435.59	135.75
435.78	131.07
435.97	72.56
436.16	201.29
436.34	119.37
436.53	182.56
436.72	175.54
436.90	107.66
437.09	126.39
437.28	124.05
437.46	91.28
437.65	138.09
437.84	175.54
438.02	147.45
438.21	142.77
438.40	93.62
438.58	166.18
438.77	149.79
438.96	133.41
439.14	46.81
439.33	133.41
439.52	138.09
439.70	149.79
439.89	196.60
440.08	107.66
440.26	39.79
440.45	152.13
440.63	131.07
440.82	175.54
441.01	95.96
441.19	112.35
441.38	161.50
441.57	53.83
441.75	187.24
441.94	166.18
442.12	124.05
442.31	88.94
442.50	140.43
442.68	107.66
442.87	107.66
443.05	114.69
443.24	168.52
443.43	95.96
443.61	112.35
443.80	93.62
443.98	131.07
444.17	114.69
444.35	184.90
444.54	147.45
444.73	175.54
444.91	217.67
445.10	88.94
445.28	119.37
445.47	86.60
445.65	133.41
445.84	81.92
446.02	135.75
446.21	210.65
446.39	114.69
446.58	135.75
446.77	46.81
446.95	184.90
447.14	147.45
447.32	210.65
447.51	88.94
447.69	170.86
447.88	121.71
448.06	95.96
448.25	191.92
448.43	133.41
448.62	135.75
448.80	159.16
448.99	210.65
449.17	49.15
449.36	93.62
449.54	145.11
449.73	166.18
449.91	205.97
450.10	126.39
450.28	159.16
450.46	124.05
450.65	177.88
450.83	189.58
451.02	198.95
451.20	119.37
451.39	142.77
451.57	145.11
451.76	126.39
451.94	119.37
452.13	175.54
452.31	145.11
452.49	163.84
452.68	114.69
452.86	156.82
453.05	140.43
453.23	208.31
453.42	102.98
453.60	152.13
453.78	152.13
453.97	135.75
454.15	114.69
454.34	135.75
454.52	180.22
454.70	173.20
454.89	145.11
455.07	79.58
455.26	173.20
455.44	128.73
455.62	105.32
455.81	119.37
455.99	131.07
456.17	110.01
456.36	177.88
456.54	110.01
456.73	156.82
456.91	117.03
457.09	105.32
457.28	133.41
457.46	100.64
457.64	117.03
457.83	117.03
458.01	145.11
458.19	131.07
458.38	126.39
458.56	105.32
458.74	145.11
458.93	170.86
459.11	131.07
459.29	173.20
459.48	175.54
459.66	65.54
459.84	124.05
460.03	224.69
460.21	119.37
460.39	154.48
460.57	170.86
460.76	138.09
460.94	168.52
461.12	175.54
461.31	208.31
461.49	187.24
461.67	88.94
461.85	203.63
462.04	124.05
462.22	608.54
462.40	194.26
462.59	154.48
462.77	102.98
462.95	124.05
463.13	142.77
463.32	152.13
463.50	147.45
463.68	280.86
463.86	86.60
464.05	173.20
464.23	182.56
464.41	191.92
464.59	133.41
464.78	177.88
464.96	117.03
465.14	159.16
465.32	102.98
465.50	105.32
465.69	177.88
465.87	58.51
466.05	152.13
466.23	166.18
466.41	175.54
466.60	100.64
466.78	173.20
466.96	198.95
467.14	142.77
467.32	196.60
467.51	184.90
467.69	145.11
467.87	156.82
468.05	149.79
468.23	166.18
468.41	102.98
468.60	44.47
468.78	142.77
468.96	168.52
469.14	205.97
469.32	135.75
469.50	135.75
469.69	187.24
469.87	198.95
470.05	154.48
470.23	135.75
470.41	224.69
470.59	142.77
470.77	117.03
470.95	180.22
471.14	159.16
471.32	149.79
471.50	203.63
471.68	161.50
471.86	245.76
472.04	63.19
472.22	110.01
472.40	105.32
472.58	147.45
472.77	112.35
472.95	63.19
473.13	154.48
473.31	124.05
473.49	173.20
473.67	110.01
473.85	152.13
474.03	135.75
474.21	154.48
474.39	175.54
474.57	285.55
474.75	191.92
474.93	93.62
475.12	102.98
475.30	152.13
475.48	154.48
475.66	91.28
475.84	119.37
476.02	154.48
476.20	245.76
476.38	166.18
476.56	198.95
476.74	114.69
476.92	142.77
477.10	142.77
477.28	114.69
477.46	119.37
477.64	142.77
477.82	112.35
478.00	98.30
478.18	133.41
478.36	184.90
478.54	119.37
478.72	142.77
478.90	114.69
479.08	114.69
479.26	159.16
479.44	154.48
479.62	107.66
479.80	128.73
479.98	149.79
480.16	156.82
480.34	163.84
480.52	177.88
480.70	175.54
480.88	79.58
481.06	56.17
481.24	105.32
481.41	177.88
481.59	201.29
481.77	203.63
481.95	198.95
482.13	107.66
482.31	191.92
482.49	147.45
482.67	173.20
482.85	114.69
483.03	170.86
483.21	187.24
483.39	112.35
483.57	198.95
483.74	163.84
483.92	201.29
484.10	154.48
484.28	173.20
484.46	208.31
484.64	107.66
484.82	147.45
485.00	159.16
485.18	128.73
485.35	149.79
485.53	133.41
485.71	177.88
485.89	102.98
486.07	114.69
486.25	217.67
486.43	180.22
486.61	196.60
486.78	156.82
486.96	175.54
487.14	81.92
487.32	222.35
487.50	149.79
487.68	166.18
487.85	163.84
488.03	142.77
488.21	201.29
488.39	145.11
488.57	159.16
488.75	81.92
488.92	503.22
489.10	159.16
489.28	182.56
489.46	166.18
489.64	86.60
489.81	215.33
489.99	175.54
490.17	177.88
490.35	222.35
490.53	177.88
490.70	163.84
490.88	138.09
491.06	262.14
491.24	196.60
491.41	276.18
491.59	67.88
491.77	175.54
491.95	154.48
492.13	175.54
492.30	203.63
492.48	187.24
492.66	184.90
492.84	147.45
493.01	231.71
493.19	154.48
493.37	222.35
493.54	175.54
493.72	212.99
493.90	154.48
494.08	100.64
494.25	184.90
494.43	194.26
494.61	135.75
494.79	100.64
494.96	128.73
495.14	210.65
495.32	154.48
495.49	212.99
495.67	180.22
495.85	194.26
496.02	236.39
496.20	194.26
496.38	180.22
496.55	149.79
496.73	175.54
496.91	220.01
497.09	217.67
497.26	184.90
497.44	196.60
497.62	203.63
497.79	196.60
497.97	177.88
498.14	187.24
498.32	236.39
498.50	187.24
498.67	177.88
498.85	203.63
499.03	215.33
499.20	140.43
499.38	114.69
499.56	210.65
499.73	224.69
499.91	203.63
500.08	177.88
500.26	168.52
500.44	156.82
500.61	210.65
500.79	112.35
500.97	210.65
501.14	187.24
501.32	175.54
501.49	182.56
501.67	184.90
501.84	189.58
502.02	184.90
502.20	231.71
502.37	217.67
502.55	100.64
502.72	187.24
502.90	198.95
503.07	180.22
503.25	243.42
503.43	196.60
503.60	205.97
503.78	222.35
503.95	182.56
504.13	149.79
504.30	189.58
504.48	159.16
504.65	266.82
504.83	203.63
505.01	170.86
505.18	159.16
505.36	105.32
505.53	154.48
505.71	154.48
505.88	149.79
506.06	194.26
506.23	182.56
506.41	154.48
506.58	224.69
506.76	152.13
506.93	241.08
507.11	208.31
507.28	140.43
507.46	217.67
507.63	159.16
507.81	210.65
507.98	201.29
508.16	224.69
508.33	154.48
508.50	264.48
508.68	177.88
508.85	182.56
509.03	231.71
509.20	177.88
509.38	177.88
509.55	224.69
509.73	147.45
509.90	163.84
510.08	142.77
510.25	168.52
510.42	131.07
510.60	222.35
510.77	250.44
510.95	259.80
511.12	264.48
511.30	222.35
511.47	250.44
511.64	252.78
511.82	297.25
511.99	205.97
512.17	220.01
512.34	135.75
512.51	170.86
512.69	180.22
512.86	227.03
513.04	168.52
513.21	184.90
513.38	220.01
513.56	215.33
513.73	177.88
513.90	119.37
514.08	201.29
514.25	205.97
514.43	198.95
514.60	177.88
514.77	189.58
514.95	285.55
515.12	131.07
515.29	273.84
515.47	245.76
515.64	140.43
515.81	170.86
515.99	287.89
516.16	194.26
516.33	243.42
516.51	166.18
516.68	138.09
516.85	124.05
517.03	166.18
517.20	149.79
517.37	222.35
517.54	220.01
517.72	191.92
517.89	220.01
518.06	194.26
518.24	297.25
518.41	259.80
518.58	241.08
518.75	243.42
518.93	212.99
519.10	234.05
519.27	198.95
519.45	196.60
519.62	177.88
519.79	175.54
519.96	229.37
520.14	299.59
520.31	285.55
520.48	159.16
520.65	180.22
520.83	238.73
521.00	231.71
521.17	245.76
521.34	236.39
521.52	220.01
521.69	252.78
521.86	229.37
522.03	196.60
522.20	252.78
522.38	238.73
522.55	161.50
522.72	128.73
522.89	198.95
523.07	231.71
523.24	166.18
523.41	182.56
523.58	196.60
523.75	203.63
523.92	217.67
524.10	229.37
524.27	152.13
524.44	175.54
524.61	138.09
524.78	156.82
524.96	220.01
525.13	180.22
525.30	215.33
525.47	266.82
525.64	212.99
525.81	177.88
525.98	119.37
526.16	187.24
526.33	131.07
526.50	119.37
526.67	194.26
526.84	156.82
527.01	191.92
527.18	266.82
527.36	198.95
527.53	257.46
527.70	191.92
527.87	243.42
528.04	180.22
528.21	180.22
528.38	205.97
528.55	198.95
528.72	231.71
528.89	245.76
529.07	182.56
529.24	278.52
529.41	250.44
529.58	238.73
529.75	245.76
529.92	147.45
530.09	236.39
530.26	257.46
530.43	138.09
530.60	243.42
530.77	215.33
530.94	147.45
531.11	180.22
531.28	124.05
531.46	163.84
531.63	269.16
531.80	180.22
531.97	217.67
532.14	238.73
532.31	194.26
532.48	257.46
532.65	278.52
532.82	346.40
532.99	283.20
533.16	294.91
533.33	250.44
533.50	315.97
533.67	308.95
533.84	451.72
534.01	430.66
534.18	360.44
534.35	278.52
534.52	255.12
534.69	255.12
534.86	187.24
535.03	271.50
535.20	149.79
535.37	241.08
535.54	222.35
535.71	229.37
535.88	243.42
536.05	215.33
536.22	173.20
536.38	145.11
536.55	257.46
536.72	126.39
536.89	175.54
537.06	252.78
537.23	245.76
537.40	236.39
537.57	224.69
537.74	238.73
537.91	252.78
538.08	203.63
538.25	208.31
538.42	250.44
538.59	264.48
538.75	205.97
538.92	212.99
539.09	238.73
539.26	224.69
539.43	400.23
539.60	1006.43
539.77	1743.70
539.94	1778.81
540.11	1179.63
540.28	791.10
540.44	458.74
540.61	273.84
540.78	217.67
540.95	173.20
541.12	222.35
541.29	208.31
541.46	203.63
541.62	252.78
541.79	205.97
541.96	220.01
542.13	175.54
542.30	177.88
542.47	234.05
542.63	212.99
542.80	271.50
542.97	276.18
543.14	271.50
543.31	215.33
543.48	212.99
543.64	264.48
543.81	187.24
543.98	222.35
544.15	154.48
544.32	156.82
544.48	203.63
544.65	255.12
544.82	231.71
544.99	175.54
545.16	203.63
545.32	154.48
545.49	159.16
545.66	170.86
545.83	215.33
546.00	227.03
546.16	145.11
546.33	170.86
546.50	191.92
546.67	266.82
546.83	184.90
547.00	194.26
547.17	231.71
547.34	145.11
547.50	266.82
547.67	229.37
547.84	177.88
548.00	156.82
548.17	156.82
548.34	255.12
548.51	304.27
548.67	269.16
548.84	238.73
549.01	269.16
549.18	161.50
549.34	231.71
549.51	168.52
549.68	191.92
549.84	269.16
550.01	203.63
550.18	299.59
550.34	241.08
550.51	245.76
550.68	224.69
550.84	191.92
551.01	201.29
551.18	182.56
551.34	187.24
551.51	182.56
551.68	224.69
551.84	229.37
552.01	173.20
552.18	191.92
552.34	166.18
552.51	259.80
552.68	182.56
552.84	182.56
553.01	241.08
553.18	180.22
553.34	205.97
553.51	147.45
553.67	173.20
553.84	259.80
554.01	208.31
554.17	166.18
554.34	175.54
554.51	222.35
554.67	224.69
554.84	210.65
555.00	217.67
555.17	170.86
555.33	194.26
555.50	194.26
555.67	222.35
555.83	238.73
556.00	294.91
556.16	355.76
556.33	212.99
556.50	236.39
556.66	262.14
556.83	196.60
556.99	156.82
557.16	224.69
557.32	156.82
557.49	198.95
557.65	187.24
557.82	187.24
557.98	170.86
558.15	234.05
558.32	163.84
558.48	138.09
558.65	198.95
558.81	215.33
558.98	154.48
559.14	119.37
559.31	184.90
559.47	208.31
559.64	229.37
559.80	215.33
559.97	238.73
560.13	126.39
560.30	201.29
560.46	196.60
560.63	140.43
560.79	173.20
560.96	262.14
561.12	266.82
561.29	252.78
561.45	208.31
561.61	182.56
561.78	318.31
561.94	217.67
562.11	173.20
562.27	217.67
562.44	119.37
562.60	262.14
562.77	208.31
562.93	227.03
563.10	266.82
563.26	215.33
563.42	196.60
563.59	175.54
563.75	191.92
563.92	208.31
564.08	208.31
564.24	222.35
564.41	227.03
564.57	227.03
564.74	189.58
564.90	229.37
565.07	229.37
565.23	236.39
565.39	212.99
565.56	292.57
565.72	208.31
565.88	224.69
566.05	208.31
566.21	276.18
566.38	234.05
566.54	224.69
566.70	210.65
566.87	154.48
567.03	180.22
567.19	217.67
567.36	215.33
567.52	145.11
567.68	210.65
567.85	187.24
568.01	156.82
568.17	255.12
568.34	201.29
568.50	278.52
568.66	177.88
568.83	231.71
568.99	196.60
569.15	227.03
569.32	198.95
569.48	175.54
569.64	234.05
569.81	227.03
569.97	194.26
570.13	255.12
570.30	229.37
570.46	255.12
570.62	194.26
570.78	212.99
570.95	187.24
571.11	259.80
571.27	198.95
571.43	126.39
571.60	220.01
571.76	224.69
571.92	255.12
572.09	168.52
572.25	252.78
572.41	203.63
572.57	170.86
572.74	353.42
572.90	224.69
573.06	224.69
573.22	149.79
573.38	220.01
573.55	222.35
573.71	198.95
573.87	273.84
574.03	243.42
574.20	175.54
574.36	322.99
574.52	238.73
574.68	285.55
574.84	301.93
575.01	241.08
575.17	259.80
575.33	227.03
575.49	156.82
575.65	203.63
575.82	262.14
575.98	538.32
576.14	732.59
576.30	760.67
576.46	580.45
576.62	468.11
576.79	313.63
576.95	297.25
577.11	269.16
577.27	238.73
577.43	315.97
577.59	285.55
577.75	269.16
577.92	252.78
578.08	306.61
578.24	236.39
578.40	341.72
578.56	278.52
578.72	339.38
578.88	283.20
579.04	217.67
579.21	283.20
579.37	208.31
579.53	292.57
579.69	271.50
579.85	306.61
580.01	393.21
580.17	313.63
580.33	337.04
580.49	362.78
580.65	344.06
580.82	292.57
580.98	250.44
581.14	243.42
581.30	402.57
581.46	479.81
581.62	622.58
581.78	669.39
581.94	571.09
582.10	451.72
582.26	451.72
582.42	414.27
582.58	425.98
582.74	425.98
582.90	425.98
583.06	454.06
583.22	468.11
583.38	496.19
583.54	507.90
583.70	636.63
583.86	751.31
584.02	826.21
584.18	1011.11
584.34	1280.27
584.50	3496.76
584.66	26675.09
584.82	59641.53
584.98	65535.00
585.14	65535.00
585.30	58681.91
585.46	35374.86
585.62	21699.11
585.78	9888.76
585.94	3784.65
586.10	1825.62
586.26	1156.22
586.42	880.04
586.58	770.04
586.74	678.76
586.90	573.43
587.06	599.18
587.22	620.24
587.38	514.92
587.54	1294.32
587.70	3896.99
587.86	6853.09
588.02	7840.79
588.18	5549.41
588.34	3508.46
588.49	2153.29
588.65	1345.81
588.81	746.63
588.97	411.93
589.13	315.97
589.29	351.08
589.45	332.36
589.61	339.38
589.77	348.74
589.93	503.22
590.08	489.17
590.24	428.32
590.40	458.74
590.56	409.59
590.72	425.98
590.88	332.36
591.04	404.91
591.20	348.74
591.35	337.04
591.51	325.33
591.67	266.82
591.83	255.12
591.99	294.91
592.15	294.91
592.31	294.91
592.46	304.27
592.62	332.36
592.78	308.95
592.94	271.50
593.10	290.23
593.26	257.46
593.41	290.23
593.57	299.59
593.73	564.07
593.89	3117.59
594.05	8287.84
594.20	13418.29
594.36	12760.60
594.52	8353.37
594.68	5057.90
594.84	3440.59
594.99	1879.45
595.15	840.25
595.31	491.51
595.47	365.12
595.62	332.36
595.78	243.42
595.94	180.22
596.10	362.78
596.25	318.31
596.41	430.66
596.57	346.40
596.73	276.18
596.88	627.26
597.04	1528.37
597.20	2649.49
597.36	3288.45
597.51	2392.03
597.67	1568.16
597.83	1062.60
597.99	751.31
598.14	484.49
598.30	383.85
598.46	337.04
598.61	297.25
598.77	320.65
598.93	243.42
599.09	220.01
599.24	273.84
599.40	311.29
599.56	248.10
599.71	271.50
599.87	224.69
600.03	210.65
600.18	210.65
600.34	271.50
600.50	250.44
600.65	222.35
600.81	306.61
600.97	203.63
601.12	234.05
601.28	285.55
601.44	278.52
601.59	224.69
601.75	285.55
601.91	194.26
602.06	285.55
602.22	315.97
602.37	678.76
602.53	1888.81
602.69	3197.17
602.84	3400.80
603.00	2572.25
603.16	1654.76
603.31	1146.86
603.47	788.76
603.62	383.85
603.78	271.50
603.94	245.76
604.09	297.25
604.25	212.99
604.40	259.80
604.56	210.65
604.71	210.65
604.87	259.80
605.03	257.46
605.18	259.80
605.34	290.23
605.49	236.39
605.65	294.91
605.80	231.71
605.96	315.97
606.12	339.38
606.27	355.76
606.43	294.91
606.58	395.55
606.74	940.90
606.89	3906.35
607.05	8208.26
607.20	11248.61
607.36	9128.09
607.51	6274.98
607.67	3885.29
607.82	2619.06
607.98	1500.28
608.13	667.05
608.29	545.34
608.44	526.62
608.60	486.83
608.75	514.92
608.91	1261.55
609.06	5994.11
609.22	13949.59
609.37	19927.32
609.53	17195.92
609.68	11227.55
609.84	7236.94
609.99	4854.27
610.15	2502.03
610.30	1128.14
610.46	653.01
610.61	409.59
610.76	451.72
610.92	353.42
611.07	276.18
611.23	367.46
611.38	304.27
611.54	283.20
611.69	353.42
