SpectraSuite Data File
++++++++++++++++++++++++++++++++++++
Date: Fri Oct 04 11:48:28 GMT-05:00 2013
User: price-jones
Dark Spectrum Present: No
Reference Spectrum Present: No
Number of Sampled Component Spectra: 1
Spectrometers: USB2+H05261
Integration Time (usec): 100000 (USB2+H05261)
Spectra Averaged: 1 (USB2+H05261)
Boxcar Smoothing: 0 (USB2+H05261)
Correct for Electrical Dark: No (USB2+H05261)
Strobe/Lamp Enabled: No (USB2+H05261)
Correct for Detector Non-linearity: No (USB2+H05261)
Correct for Stray Light: No (USB2+H05261)
Number of Pixels in Processed Spectrum: 2048
>>>>>Begin Processed Spectral Data<<<<<
365.73	7.02
365.92	7.02
366.12	7.02
366.32	18.72
366.52	0.00
366.72	0.00
366.91	0.00
367.11	0.00
367.31	0.00
367.51	0.00
367.70	0.00
367.90	0.00
368.10	0.00
368.30	0.00
368.49	0.00
368.69	0.00
368.89	0.00
369.09	0.00
369.28	0.00
369.48	0.00
369.68	0.00
369.87	0.00
370.07	0.00
370.27	56.17
370.47	77.24
370.66	344.06
370.86	306.61
371.06	416.62
371.25	458.74
371.45	418.96
371.65	451.72
371.84	435.34
372.04	397.89
372.24	484.49
372.44	482.15
372.63	486.83
372.83	559.39
373.03	496.19
373.22	461.09
373.42	491.51
373.62	519.60
373.81	482.15
374.01	582.79
374.21	557.05
374.40	472.79
374.60	650.67
374.79	559.39
374.99	503.22
375.19	655.35
375.38	631.94
375.58	533.64
375.78	613.22
375.97	587.47
376.17	706.84
376.37	557.05
376.56	636.63
376.76	617.90
376.95	645.99
377.15	592.16
377.35	650.67
377.54	648.33
377.74	627.26
377.93	624.92
378.13	634.29
378.33	667.05
378.52	657.69
378.72	695.14
378.91	685.78
379.11	585.13
379.31	671.73
379.50	627.26
379.70	650.67
379.89	669.39
380.09	727.91
380.28	784.08
380.48	685.78
380.68	697.48
380.87	723.23
381.07	767.70
381.26	685.78
381.46	760.67
381.65	821.53
381.85	681.10
382.04	737.27
382.24	837.91
382.43	770.04
382.63	791.10
382.83	779.40
383.02	875.36
383.22	910.47
383.41	763.01
383.61	847.27
383.80	812.17
384.00	760.67
384.19	873.02
384.39	821.53
384.58	863.66
384.78	966.64
384.97	814.51
385.17	856.64
385.36	903.45
385.56	894.08
385.75	912.81
385.95	912.81
386.14	835.57
386.34	849.61
386.53	917.49
386.72	891.74
386.92	919.83
387.11	976.00
387.31	896.43
387.50	943.24
387.70	875.36
387.89	959.62
388.09	1004.09
388.28	999.41
388.48	952.60
388.67	1008.77
388.86	1053.24
389.06	1025.15
389.25	1074.31
389.45	1025.15
389.64	976.00
389.84	1004.09
390.03	1153.88
390.22	1039.20
390.42	1081.33
390.61	971.32
390.81	1032.18
391.00	1071.97
391.19	1069.62
391.39	1090.69
391.58	1076.65
391.78	1032.18
391.97	1118.78
392.16	1172.61
392.36	1245.16
392.55	1135.16
392.75	1228.78
392.94	1177.29
393.13	1245.16
393.33	1144.52
393.52	1275.59
393.71	1294.32
393.91	1259.21
394.10	1203.04
394.29	1308.36
394.49	1219.42
394.68	1233.46
394.88	1303.68
395.07	1301.34
395.26	1327.08
395.46	1306.02
395.65	1324.74
395.84	1315.38
396.04	1469.86
396.23	1329.42
396.42	1406.66
396.62	1406.66
396.81	1401.98
397.00	1392.62
397.19	1413.68
397.39	1474.54
397.58	1430.07
397.77	1451.13
397.97	1432.41
398.16	1455.81
398.35	1481.56
398.55	1516.67
398.74	1425.39
398.93	1565.82
399.12	1626.67
399.32	1460.49
399.51	1621.99
399.70	1694.55
399.90	1633.69
400.09	1593.90
400.28	1621.99
400.47	1650.08
400.67	1664.12
400.86	1762.42
401.05	1638.38
401.24	1650.08
401.44	1713.27
401.63	1774.13
401.82	1673.48
402.01	1720.29
402.21	1764.76
402.40	1797.53
402.59	1715.61
402.78	1764.76
402.97	1849.02
403.17	1947.33
403.36	1813.92
403.55	1736.68
403.74	1877.11
403.93	1959.03
404.13	1975.41
404.32	1870.09
404.51	1994.14
404.70	1973.07
404.89	2031.58
405.09	2092.44
405.28	2008.18
405.47	2010.52
405.66	2085.42
405.85	2087.76
406.05	2057.33
406.24	2134.57
406.43	2043.29
406.62	2155.63
406.81	2420.11
407.00	2111.16
407.20	2127.55
407.39	2062.01
407.58	2277.34
407.77	2300.75
407.96	2401.39
408.15	2211.81
408.34	2244.57
408.54	2237.55
408.73	2495.01
408.92	2471.61
409.11	2394.37
409.30	2551.18
409.49	2466.92
409.68	2518.42
409.87	2389.69
410.07	2616.72
410.26	2443.52
410.45	2572.25
410.64	2600.34
410.83	2705.66
411.02	2574.59
411.21	2633.10
411.40	2647.15
411.59	2628.42
411.78	2663.53
411.98	2677.57
412.17	2747.79
412.36	2752.47
412.55	2822.69
412.74	2794.60
412.93	2860.13
413.12	2878.86
413.31	2986.52
413.50	2836.73
413.69	2995.89
413.88	3049.72
414.07	2995.89
414.26	3138.66
414.45	3054.40
414.64	3098.87
414.83	3215.90
415.02	3171.43
415.22	3248.66
415.41	3365.69
415.60	3187.81
415.79	3274.41
415.98	3229.94
416.17	3358.67
416.36	3241.64
416.55	3300.16
416.74	3501.44
416.93	3452.29
417.12	3517.83
417.31	3662.94
417.50	3576.34
417.69	3716.77
417.88	3641.87
418.07	3618.47
418.26	3826.78
418.45	3763.58
418.64	3801.03
418.83	3786.99
419.02	3595.06
419.21	3609.11
419.39	3822.09
419.58	3772.94
419.77	3861.88
419.96	3803.37
420.15	3927.42
420.34	3920.40
420.53	3845.50
420.72	4053.81
420.91	3946.14
421.10	3878.27
421.29	4135.73
421.48	3946.14
421.67	4095.94
421.86	4051.47
422.05	4091.26
422.24	4086.58
422.43	3962.53
422.61	4081.89
422.80	4121.68
422.99	4283.18
423.18	4126.36
423.37	4184.88
423.56	4182.54
423.75	4198.92
423.94	4227.01
424.13	3854.86
424.32	4067.85
424.50	4315.95
424.69	4283.18
424.88	4255.09
425.07	4147.43
425.26	4191.90
425.45	4252.75
425.64	4285.52
425.83	4290.20
426.01	4283.18
426.20	4255.09
426.39	4287.86
426.58	4227.01
426.77	4362.76
426.96	4325.31
427.15	4318.29
427.33	4360.42
427.52	4259.78
427.71	4344.03
427.90	4542.98
428.09	4500.85
428.28	4519.57
428.46	4514.89
428.65	4608.51
428.84	4606.17
429.03	4594.47
429.22	4606.17
429.40	4723.20
429.59	4606.17
429.78	4533.62
429.97	4500.85
430.16	4650.64
430.34	4664.69
430.53	4910.44
430.72	4748.95
430.91	4816.82
431.10	4702.14
431.28	4798.10
431.47	5114.07
431.66	5123.43
431.85	4961.94
432.03	5074.28
432.22	5191.31
432.41	5076.62
432.60	5083.64
432.79	4910.44
432.97	5004.07
433.16	5266.21
433.35	5060.24
433.54	5137.48
433.72	5343.44
433.91	5100.03
434.10	5238.12
434.28	5282.59
434.47	5224.08
434.66	5497.92
434.85	5490.90
435.03	5376.21
435.22	5521.32
435.41	5467.49
435.59	5373.87
435.78	5526.00
435.97	5575.16
436.16	5469.83
436.34	5504.94
436.53	5589.20
436.72	5717.93
436.90	5416.00
437.09	5685.16
437.28	5680.48
437.46	5741.33
437.65	5757.72
437.84	5757.72
438.02	5788.14
438.21	5776.44
438.40	5591.54
438.58	5858.36
438.77	6057.31
438.96	5767.08
439.14	6040.92
439.33	6118.16
439.52	6204.76
439.70	6298.38
439.89	6211.78
440.08	6417.75
440.26	6277.32
440.45	6204.76
440.63	6356.90
440.82	6445.84
441.01	6396.68
441.19	6654.14
441.38	6733.72
441.57	6555.84
441.75	6766.49
441.94	6806.28
442.12	6808.62
442.31	6867.13
442.50	6764.15
442.68	7082.46
442.87	6963.09
443.05	6960.75
443.24	7119.91
443.43	6963.09
443.61	7239.28
443.80	7353.96
443.98	6923.30
444.17	6733.72
444.35	7028.63
444.54	7337.58
444.73	6967.77
444.91	7178.42
445.10	6904.58
445.28	6881.18
445.47	7206.51
445.65	7239.28
445.84	7274.38
446.02	7269.70
446.21	7150.34
446.39	7140.97
446.58	7279.07
446.77	7297.79
446.95	7101.19
447.14	7250.98
447.32	7370.35
447.51	7309.49
447.69	7258.00
447.88	7375.03
448.06	7225.23
448.25	7396.09
448.43	7290.77
448.62	7485.03
448.80	7412.48
448.99	7515.46
449.17	7726.11
449.36	7538.87
449.54	7655.89
449.73	7691.00
449.91	7693.34
450.10	7702.70
450.28	7768.24
450.46	7686.32
450.65	7817.39
450.83	7985.91
451.02	7892.29
451.20	7889.95
451.39	8009.31
451.57	7810.37
451.76	7868.88
451.94	7988.25
452.13	8025.70
452.31	7875.90
452.49	7815.05
452.68	7852.50
452.86	7852.50
453.05	8149.75
453.23	8266.77
453.42	8077.19
453.60	7999.95
453.78	8245.71
453.97	8063.15
454.15	8241.03
454.34	8051.44
454.52	8229.32
454.70	8393.16
454.89	8414.23
455.07	8358.05
455.26	8458.70
455.44	8545.30
455.62	8463.38
455.81	8615.51
455.99	8748.92
456.17	8720.84
456.36	8784.03
456.54	8709.13
456.73	8769.99
456.91	9118.73
457.09	8898.72
457.28	9048.51
457.46	8912.76
457.64	9032.13
457.83	9107.02
458.01	8917.44
458.19	9195.96
458.38	9034.47
458.56	9411.29
458.74	9165.54
458.93	9301.29
459.11	9153.84
459.29	9151.49
459.48	9554.07
459.66	9212.35
459.84	9446.40
460.03	9472.15
460.21	9521.30
460.39	9551.73
460.57	9401.93
460.76	9413.63
460.94	9614.92
461.12	9572.79
461.31	9448.74
461.49	9533.00
461.67	9628.96
461.85	9888.76
462.04	9717.90
462.22	10406.02
462.40	9963.66
462.59	9874.72
462.77	9919.19
462.95	10125.16
463.13	9991.75
463.32	9973.02
463.50	10134.52
463.68	9958.98
463.86	10174.31
464.05	9872.38
464.23	10146.22
464.41	10459.85
464.59	9907.49
464.78	10314.74
464.96	10209.42
465.14	10186.01
465.32	10651.78
465.50	10499.64
465.69	10368.57
465.87	10370.91
466.05	10417.72
466.23	10499.64
466.41	10450.49
466.60	10743.06
466.78	10473.90
466.96	10593.26
467.14	10541.77
467.32	10511.35
467.51	10974.77
467.69	10448.15
467.87	10853.06
468.05	10745.40
468.23	10487.94
468.41	10902.22
468.60	10963.07
468.78	11101.16
468.96	10745.40
469.14	11026.26
469.32	10993.50
469.50	10871.79
469.69	11267.34
469.87	11272.02
470.05	11442.88
470.23	11246.27
470.41	11096.48
470.59	11377.34
470.77	11281.38
470.95	11417.13
471.14	11623.10
471.32	11396.07
471.50	11873.54
471.68	11885.24
471.86	11761.19
472.04	11859.49
472.22	12081.85
472.40	11698.00
472.58	11782.26
472.77	12049.08
472.95	12222.28
473.13	12599.10
473.31	11941.41
473.49	12280.79
473.67	12189.51
473.85	12360.37
474.03	12748.90
474.21	12578.04
474.39	12823.80
474.57	12842.52
474.75	12699.75
474.93	13118.70
475.12	13097.64
475.30	13099.98
475.48	12894.01
475.66	13130.41
475.84	13209.98
476.02	13102.32
476.20	13219.35
476.38	13385.52
476.56	13825.54
476.74	13645.32
476.92	13687.45
477.10	13816.18
477.28	13994.06
477.46	13919.17
477.64	14022.15
477.82	14417.70
478.00	14562.81
478.18	14871.76
478.36	14857.72
478.54	14824.95
478.72	14902.19
478.90	14773.46
479.08	15330.51
479.26	15248.59
479.44	15414.77
479.62	15510.73
479.80	15658.18
479.98	15901.60
480.16	15772.87
480.34	15906.28
480.52	16030.33
480.70	15990.54
480.88	15665.21
481.06	15892.24
481.24	16208.21
481.41	16589.72
481.59	16966.54
481.77	17032.08
481.95	17076.55
482.13	17195.92
482.31	16945.48
482.49	17413.59
482.67	17682.75
482.85	17504.87
483.03	17872.33
483.21	18200.01
483.39	18237.45
483.57	18518.32
483.74	18118.09
483.92	18445.76
484.10	18239.79
484.28	18785.14
484.46	19105.79
484.64	19271.97
484.82	19103.45
485.00	19269.63
485.18	19679.22
485.35	19997.54
485.53	19843.06
485.71	19978.81
485.89	20280.74
486.07	20421.17
486.25	20257.34
486.43	20294.79
486.61	20554.58
486.78	20805.02
486.96	20933.75
487.14	21366.75
487.32	21476.76
487.50	21371.43
487.68	21476.76
487.85	21926.14
488.03	22511.27
488.21	22331.05
488.39	22504.25
488.57	22298.28
488.75	22888.10
488.92	22991.08
489.10	22991.08
489.28	23257.90
489.46	23470.89
489.64	23054.28
489.81	23768.14
489.99	24095.82
490.17	23892.19
490.35	24709.04
490.53	24514.77
490.70	24542.86
490.88	24599.03
491.06	25273.10
491.24	24812.02
491.41	25397.15
491.59	25427.58
491.77	25596.10
491.95	25593.76
492.13	26197.62
492.30	26040.80
492.48	26195.28
492.66	26218.68
492.84	26316.98
493.01	26448.05
493.19	26787.43
493.37	27133.83
493.54	27239.15
493.72	27321.07
493.90	27297.67
494.08	27892.16
494.25	28425.81
494.43	28114.52
494.61	28229.20
494.79	28240.90
494.96	28276.01
495.14	28552.20
495.32	28617.73
495.49	28847.10
495.67	28926.68
495.85	29214.57
496.02	29979.92
496.20	29535.22
496.38	29816.08
496.55	29347.98
496.73	30061.84
496.91	30314.62
497.09	30361.43
497.26	30574.42
497.44	30389.52
497.62	30607.19
497.79	31002.74
497.97	30976.99
498.14	31370.20
498.32	31775.11
498.50	31379.56
498.67	31995.12
498.85	31740.00
499.03	32283.01
499.20	32077.04
499.38	32165.98
499.56	32215.13
499.73	32601.32
499.91	32851.76
500.08	32959.42
500.26	32545.15
500.44	32889.21
500.61	32968.79
500.79	33160.71
500.97	33357.32
501.14	33462.64
501.32	33680.31
501.49	33612.43
501.67	33687.33
501.84	34117.99
502.02	33989.26
502.20	34431.62
502.37	34286.51
502.55	34412.90
502.72	34457.37
502.90	34424.60
503.07	34267.78
503.25	35002.71
503.43	34763.98
503.60	35314.00
503.78	35323.36
503.95	35002.71
504.13	35613.59
504.30	35468.48
504.48	35517.63
504.65	35503.59
504.83	35945.95
505.01	36414.05
505.18	36456.18
505.36	36400.01
505.53	35704.87
505.71	36730.03
505.88	36603.64
506.06	36039.57
506.23	37020.25
506.41	36751.09
506.58	37191.11
506.76	36954.72
506.93	37240.26
507.11	37186.43
507.28	36928.97
507.46	37366.65
507.63	37514.11
507.81	38204.56
507.98	37869.87
508.16	37490.70
508.33	37799.65
508.50	38242.01
508.68	38124.99
508.85	39129.08
509.03	38639.90
509.20	38714.80
509.38	38836.51
509.55	39012.05
509.73	39103.33
509.90	39641.65
510.08	39016.73
510.25	39225.04
510.42	39746.98
510.60	39871.03
510.77	39835.92
510.95	40107.42
511.12	39910.82
511.30	39896.77
511.47	40245.51
511.64	40217.43
511.82	40524.04
511.99	40282.96
512.17	40708.94
512.34	40507.65
512.51	40842.35
512.69	41287.05
512.86	40868.09
513.04	41425.14
513.21	41139.60
513.38	41619.41
513.56	41799.63
513.73	41097.47
513.90	41663.88
514.08	41092.79
514.25	41741.11
514.43	42249.01
514.60	42066.45
514.77	42007.94
514.95	42195.18
515.12	41909.63
515.29	41916.65
515.47	43044.79
515.64	42564.98
515.81	42417.53
515.99	42808.40
516.16	42323.91
516.33	43421.62
516.51	43477.79
516.68	43084.58
516.85	43098.62
517.03	43379.49
517.20	43227.35
517.37	43620.56
517.54	44205.70
517.72	43540.99
517.89	43316.29
518.06	43526.94
518.24	43772.70
518.41	44123.78
518.58	44254.85
518.75	44313.36
518.93	44669.12
519.10	44605.93
519.27	44301.66
519.45	44353.15
519.62	44893.82
519.79	44685.51
519.96	44823.60
520.14	45525.76
520.31	44858.71
520.48	45237.87
520.65	45242.56
520.83	45364.26
521.00	45289.37
521.17	45102.12
521.34	45558.53
521.52	45745.77
521.69	45797.26
521.86	45500.01
522.03	45918.97
522.20	46026.63
522.38	45970.46
522.55	46281.75
522.72	45652.15
522.89	46216.22
523.07	46703.05
523.24	46628.15
523.41	46934.76
523.58	46590.70
523.75	46923.06
523.92	46466.66
524.10	46784.97
524.27	46897.31
524.44	47192.22
524.61	47075.19
524.78	47604.16
524.96	47129.03
525.13	47346.70
525.30	47140.73
525.47	47751.61
525.64	47510.53
525.81	47487.13
525.98	47782.04
526.16	47503.51
526.33	47505.85
526.50	48168.22
526.67	47992.68
526.84	48292.27
527.01	47873.32
527.18	48041.84
527.36	48512.28
527.53	48243.12
527.70	48526.33
527.87	48563.78
528.04	48807.19
528.21	48765.06
528.38	48465.47
528.55	48528.67
528.72	48699.53
528.89	48755.70
529.07	48753.36
529.24	48938.26
529.41	49298.70
529.58	48664.42
529.75	48610.59
529.92	49006.14
530.09	49118.48
530.26	49216.78
530.43	49312.75
530.60	49277.64
530.77	49460.20
530.94	49631.06
531.11	49455.52
531.28	49443.82
531.46	49511.69
531.63	49743.41
531.80	49921.29
531.97	50181.09
532.14	49567.87
532.31	49923.63
532.48	49916.61
532.65	49935.33
532.82	49610.00
532.99	50071.08
533.16	49621.70
533.33	50328.54
533.50	50658.56
533.67	50696.00
533.84	50075.76
534.01	50394.07
534.18	50497.06
534.35	50768.56
534.52	50674.94
534.69	51023.68
534.86	50981.55
535.03	50623.45
535.20	50707.71
535.37	51054.11
535.54	50939.42
535.71	51049.42
535.88	51143.05
536.05	51341.99
536.22	51030.70
536.38	51349.01
536.55	51159.43
536.72	51330.29
536.89	50876.22
537.06	51395.82
537.23	51327.95
537.40	51203.90
537.57	51569.02
537.74	51564.34
537.91	52062.88
538.08	51737.54
538.25	51657.96
538.42	51524.55
538.59	51999.68
538.75	51473.06
538.92	51526.89
539.09	51826.48
539.26	51653.28
539.43	52102.67
539.60	52011.38
539.77	52308.63
539.94	52303.95
540.11	52292.25
540.28	52037.13
540.44	52055.85
540.61	52196.29
540.78	52034.79
540.95	52528.64
541.12	52481.83
541.29	52549.71
541.46	52603.54
541.62	52463.11
541.79	52406.94
541.96	51980.96
542.13	52453.75
542.30	52559.07
542.47	52935.90
542.63	52718.23
542.80	53127.82
542.97	52811.85
543.14	52858.66
543.31	52996.75
543.48	53584.22
543.64	53539.75
543.81	53439.11
543.98	53364.21
544.15	53394.64
544.32	53361.87
544.48	53492.94
544.65	53478.90
544.82	53462.52
544.99	53275.27
545.16	53792.53
545.32	53626.35
545.49	53815.94
545.66	53633.38
545.83	53670.82
546.00	54136.59
546.16	53902.54
546.33	53368.90
546.50	53298.68
546.67	53689.55
546.83	53469.54
547.00	53616.99
547.17	53867.43
547.34	53844.02
547.50	53904.88
547.67	54354.26
547.84	54220.85
548.00	54117.87
548.17	54358.94
548.34	54054.67
548.51	54253.62
548.67	54321.49
548.84	54337.88
549.01	54557.89
549.18	54298.09
549.34	54267.66
549.51	54265.32
549.68	54429.16
549.84	54431.50
550.01	54913.65
550.18	54136.59
550.34	54075.74
550.51	54490.01
550.68	54681.94
550.84	54604.70
551.01	54742.79
551.18	54405.75
551.34	54588.31
551.51	54403.41
551.68	54773.22
551.84	54667.89
552.01	54791.94
552.18	55206.22
552.34	54660.87
552.51	54864.50
552.68	55114.94
552.84	54979.18
553.01	55086.85
553.18	54789.60
553.34	55124.30
553.51	54876.20
553.67	55196.85
553.84	55070.46
554.01	55121.96
554.17	55538.57
554.34	55131.32
554.51	55391.12
554.67	55393.46
554.84	55288.13
555.00	55367.71
555.17	55327.92
555.33	55288.13
555.50	55171.11
555.67	55161.75
555.83	55309.20
556.00	55262.39
556.16	55667.30
556.33	55437.93
556.50	55524.53
556.66	55501.12
556.83	55480.06
556.99	55702.41
557.16	55580.70
557.32	55646.24
557.49	55849.86
557.65	55246.00
557.82	55365.37
557.98	55653.26
558.15	55767.94
558.32	55632.19
558.48	55585.38
558.65	55669.64
558.81	55861.57
558.98	55913.06
559.14	55870.93
559.31	55632.19
559.47	55760.92
559.64	55760.92
559.80	55985.61
559.97	56076.90
560.13	55805.39
560.30	56172.86
560.46	56086.26
560.63	55948.17
560.79	56350.74
560.96	56126.05
561.12	56128.39
561.29	55969.23
561.45	56170.52
561.61	56299.25
561.78	56217.33
561.94	56102.64
562.11	56266.48
562.27	56032.42
562.44	56196.26
562.60	56198.60
562.77	56385.85
562.93	56397.55
563.10	56329.67
563.26	56142.43
563.42	56442.02
563.59	56545.00
563.75	56545.00
563.92	56413.93
564.08	56161.15
564.24	56315.63
564.41	56147.11
564.57	56044.13
564.74	56327.33
564.90	56472.45
565.07	56437.34
565.23	56420.95
565.39	56416.27
565.56	56659.69
565.72	56065.19
565.88	56376.48
566.05	56147.11
566.21	56226.69
566.38	56254.78
566.54	56376.48
566.70	56793.10
566.87	56722.88
567.03	56575.43
567.19	57064.60
567.36	56612.88
567.52	56577.77
567.68	56498.19
567.85	56367.12
568.01	56559.05
568.17	56411.59
568.34	56584.79
568.50	56697.14
568.66	56952.26
568.83	56779.06
568.99	56800.12
569.15	56486.49
569.32	56498.19
569.48	56467.76
569.64	56605.86
569.81	56580.11
569.97	56561.39
570.13	56741.61
570.30	56629.26
570.46	56765.01
570.62	57045.88
570.78	56856.29
570.95	56533.30
571.11	56858.63
571.27	56493.51
571.43	56662.03
571.60	56882.04
571.76	56638.62
571.92	56928.85
572.09	56952.26
572.25	56903.10
572.41	56795.44
572.57	56521.60
572.74	56711.18
572.90	56877.36
573.06	56933.53
573.22	56711.18
573.38	56949.92
573.55	56886.72
573.71	57195.67
573.87	57050.56
574.03	56729.90
574.20	56978.00
574.36	56662.03
574.52	56868.00
574.68	56921.83
574.84	57195.67
575.01	57205.03
575.17	57291.63
575.33	57015.45
575.49	57066.94
575.65	57036.51
575.82	56956.94
575.98	56877.36
576.14	57209.71
576.30	57275.25
576.46	56987.36
576.62	56994.39
576.79	56830.55
576.95	56868.00
577.11	57123.11
577.27	57048.22
577.43	57326.74
577.59	57209.71
577.75	57301.00
577.92	56872.68
578.08	56877.36
578.24	56802.46
578.40	56844.59
578.56	56994.39
578.72	56903.10
578.88	57361.85
579.04	57460.15
579.21	57069.28
579.37	57127.80
579.53	57134.82
579.69	57027.15
579.85	57059.92
580.01	57214.40
580.17	57146.52
580.33	57104.39
580.49	57293.97
580.65	57352.49
580.82	57694.21
580.98	57205.03
581.14	57251.84
581.30	57429.72
581.46	57057.58
581.62	57034.17
581.78	57006.09
581.94	57148.86
582.10	57408.66
582.26	57275.25
582.42	57181.63
582.58	57284.61
582.74	57542.07
582.90	57595.90
583.06	57209.71
583.22	57432.07
583.38	57263.55
583.54	57359.51
583.70	57289.29
583.86	57338.44
584.02	57270.57
584.18	57457.81
584.34	57272.91
584.50	57422.70
584.66	57549.09
584.82	57261.21
584.98	57162.90
585.14	57350.15
585.30	57308.02
585.46	57382.91
585.62	57303.34
585.78	57165.24
585.94	57258.87
586.10	57212.06
586.26	57436.75
586.42	57612.29
586.58	57546.75
586.74	57331.42
586.90	57247.16
587.06	57155.88
587.22	57382.91
587.38	57284.61
587.54	57453.13
587.70	57516.32
587.86	57326.74
588.02	57453.13
588.18	57633.35
588.34	57539.73
588.49	57525.69
588.65	57291.63
588.81	57436.75
588.97	57457.81
589.13	57443.77
589.29	57389.94
589.45	57588.88
589.61	57572.50
