SpectraSuite Data File
++++++++++++++++++++++++++++++++++++
Date: Fri Oct 04 11:47:24 GMT-05:00 2013
User: price-jones
Dark Spectrum Present: No
Reference Spectrum Present: No
Number of Sampled Component Spectra: 1
Spectrometers: USB2+H05261
Integration Time (usec): 100000 (USB2+H05261)
Spectra Averaged: 1 (USB2+H05261)
Boxcar Smoothing: 0 (USB2+H05261)
Correct for Electrical Dark: No (USB2+H05261)
Strobe/Lamp Enabled: No (USB2+H05261)
Correct for Detector Non-linearity: No (USB2+H05261)
Correct for Stray Light: No (USB2+H05261)
Number of Pixels in Processed Spectrum: 2048
>>>>>Begin Processed Spectral Data<<<<<
365.73	28.09
365.92	28.09
366.12	28.09
366.32	0.00
366.52	0.00
366.72	0.00
366.91	0.00
367.11	0.00
367.31	0.00
367.51	0.00
367.70	0.00
367.90	0.00
368.10	0.00
368.30	0.00
368.49	0.00
368.69	0.00
368.89	0.00
369.09	0.00
369.28	0.00
369.48	0.00
369.68	0.00
369.87	0.00
370.07	0.00
370.27	0.00
370.47	14.04
370.66	7.02
370.86	21.06
371.06	56.17
371.25	81.92
371.45	98.30
371.65	107.66
371.84	39.79
372.04	0.00
372.24	56.17
372.44	56.17
372.63	77.24
372.83	110.01
373.03	147.45
373.22	28.09
373.42	51.49
373.62	39.79
373.81	91.28
374.01	133.41
374.21	114.69
374.40	121.71
374.60	156.82
374.79	70.22
374.99	154.48
375.19	168.52
375.38	77.24
375.58	152.13
375.78	67.88
375.97	107.66
376.17	170.86
376.37	67.88
376.56	95.96
376.76	114.69
376.95	86.60
377.15	88.94
377.35	170.86
377.54	154.48
377.74	84.26
377.93	107.66
378.13	79.58
378.33	84.26
378.52	131.07
378.72	133.41
378.91	107.66
379.11	124.05
379.31	126.39
379.50	44.47
379.70	67.88
379.89	110.01
380.09	44.47
380.28	74.90
380.48	77.24
380.68	58.51
380.87	135.75
381.07	51.49
381.26	177.88
381.46	79.58
381.65	124.05
381.85	93.62
382.04	114.69
382.24	95.96
382.43	42.13
382.63	126.39
382.83	98.30
383.02	135.75
383.22	117.03
383.41	88.94
383.61	84.26
383.80	32.77
384.00	46.81
384.19	74.90
384.39	72.56
384.58	147.45
384.78	149.79
384.97	88.94
385.17	102.98
385.36	119.37
385.56	105.32
385.75	100.64
385.95	70.22
386.14	98.30
386.34	72.56
386.53	65.54
386.72	107.66
386.92	102.98
387.11	88.94
387.31	88.94
387.50	119.37
387.70	117.03
387.89	194.26
388.09	100.64
388.28	77.24
388.48	86.60
388.67	187.24
388.86	112.35
389.06	138.09
389.25	128.73
389.45	72.56
389.64	4.68
389.84	102.98
390.03	142.77
390.22	88.94
390.42	166.18
390.61	79.58
390.81	72.56
391.00	112.35
391.19	170.86
391.39	79.58
391.58	110.01
391.78	128.73
391.97	126.39
392.16	147.45
392.36	147.45
392.55	170.86
392.75	107.66
392.94	42.13
393.13	163.84
393.33	140.43
393.52	18.72
393.71	77.24
393.91	175.54
394.10	112.35
394.29	51.49
394.49	14.04
394.68	166.18
394.88	189.58
395.07	114.69
395.26	156.82
395.46	166.18
395.65	117.03
395.84	161.50
396.04	201.29
396.23	60.85
396.42	77.24
396.62	126.39
396.81	84.26
397.00	154.48
397.19	138.09
397.39	126.39
397.58	145.11
397.77	79.58
397.97	124.05
398.16	175.54
398.35	154.48
398.55	152.13
398.74	145.11
398.93	133.41
399.12	145.11
399.32	86.60
399.51	154.48
399.70	196.60
399.90	168.52
400.09	180.22
400.28	161.50
400.47	222.35
400.67	180.22
400.86	128.73
401.05	105.32
401.24	140.43
401.44	159.16
401.63	159.16
401.82	124.05
402.01	81.92
402.21	56.17
402.40	117.03
402.59	126.39
402.78	102.98
402.97	124.05
403.17	201.29
403.36	131.07
403.55	243.42
403.74	145.11
403.93	147.45
404.13	112.35
404.32	93.62
404.51	191.92
404.70	198.95
404.89	173.20
405.09	135.75
405.28	177.88
405.47	98.30
405.66	105.32
405.85	140.43
406.05	117.03
406.24	156.82
406.43	114.69
406.62	149.79
406.81	191.92
407.00	182.56
407.20	152.13
407.39	51.49
407.58	133.41
407.77	39.79
407.96	217.67
408.15	100.64
408.34	84.26
408.54	114.69
408.73	203.63
408.92	163.84
409.11	159.16
409.30	170.86
409.49	93.62
409.68	156.82
409.87	147.45
410.07	135.75
410.26	131.07
410.45	145.11
410.64	112.35
410.83	133.41
411.02	135.75
411.21	156.82
411.40	138.09
411.59	203.63
411.78	231.71
411.98	208.31
412.17	114.69
412.36	74.90
412.55	126.39
412.74	121.71
412.93	196.60
413.12	117.03
413.31	177.88
413.50	194.26
413.69	140.43
413.88	191.92
414.07	191.92
414.26	112.35
414.45	117.03
414.64	142.77
414.83	140.43
415.02	201.29
415.22	227.03
415.41	198.95
415.60	187.24
415.79	149.79
415.98	175.54
416.17	112.35
416.36	198.95
416.55	208.31
416.74	149.79
416.93	182.56
417.12	156.82
417.31	201.29
417.50	112.35
417.69	166.18
417.88	128.73
418.07	168.52
418.26	135.75
418.45	203.63
418.64	182.56
418.83	140.43
419.02	203.63
419.21	217.67
419.39	196.60
419.58	191.92
419.77	220.01
419.96	271.50
420.15	161.50
420.34	102.98
420.53	231.71
420.72	166.18
420.91	177.88
421.10	152.13
421.29	168.52
421.48	135.75
421.67	112.35
421.86	86.60
422.05	227.03
422.24	131.07
422.43	177.88
422.61	205.97
422.80	156.82
422.99	156.82
423.18	138.09
423.37	217.67
423.56	224.69
423.75	245.76
423.94	163.84
424.13	184.90
424.32	170.86
424.50	138.09
424.69	117.03
424.88	227.03
425.07	156.82
425.26	210.65
425.45	224.69
425.64	147.45
425.83	163.84
426.01	210.65
426.20	161.50
426.39	117.03
426.58	212.99
426.77	257.46
426.96	198.95
427.15	170.86
427.33	180.22
427.52	170.86
427.71	170.86
427.90	107.66
428.09	215.33
428.28	180.22
428.46	184.90
428.65	189.58
428.84	175.54
429.03	224.69
429.22	163.84
429.40	156.82
429.59	205.97
429.78	170.86
429.97	159.16
430.16	170.86
430.34	126.39
430.53	140.43
430.72	70.22
430.91	182.56
431.10	117.03
431.28	208.31
431.47	161.50
431.66	184.90
431.85	124.05
432.03	159.16
432.22	259.80
432.41	191.92
432.60	105.32
432.79	131.07
432.97	170.86
433.16	182.56
433.35	154.48
433.54	161.50
433.72	184.90
433.91	182.56
434.10	124.05
434.28	187.24
434.47	147.45
434.66	126.39
434.85	152.13
435.03	201.29
435.22	198.95
435.41	152.13
435.59	114.69
435.78	161.50
435.97	145.11
436.16	194.26
436.34	170.86
436.53	198.95
436.72	243.42
436.90	166.18
437.09	229.37
437.28	166.18
437.46	105.32
437.65	231.71
437.84	231.71
438.02	196.60
438.21	257.46
438.40	133.41
438.58	126.39
438.77	198.95
438.96	227.03
439.14	142.77
439.33	241.08
439.52	220.01
439.70	107.66
439.89	138.09
440.08	194.26
440.26	161.50
440.45	182.56
440.63	220.01
440.82	112.35
441.01	147.45
441.19	184.90
441.38	191.92
441.57	177.88
441.75	252.78
441.94	177.88
442.12	168.52
442.31	175.54
442.50	208.31
442.68	220.01
442.87	189.58
443.05	184.90
443.24	184.90
443.43	180.22
443.61	306.61
443.80	166.18
443.98	128.73
444.17	215.33
444.35	161.50
444.54	100.64
444.73	245.76
444.91	280.86
445.10	145.11
445.28	177.88
445.47	189.58
445.65	194.26
445.84	142.77
446.02	262.14
446.21	248.10
446.39	222.35
446.58	266.82
446.77	91.28
446.95	182.56
447.14	205.97
447.32	262.14
447.51	234.05
447.69	168.52
447.88	243.42
448.06	241.08
448.25	184.90
448.43	255.12
448.62	201.29
448.80	184.90
448.99	131.07
449.17	191.92
449.36	177.88
449.54	142.77
449.73	191.92
449.91	210.65
450.10	191.92
450.28	341.72
450.46	227.03
450.65	198.95
450.83	238.73
451.02	269.16
451.20	222.35
451.39	163.84
451.57	166.18
451.76	210.65
451.94	229.37
452.13	198.95
452.31	154.48
452.49	266.82
452.68	161.50
452.86	217.67
453.05	243.42
453.23	224.69
453.42	215.33
453.60	159.16
453.78	210.65
453.97	306.61
454.15	142.77
454.34	147.45
454.52	212.99
454.70	276.18
454.89	283.20
455.07	241.08
455.26	203.63
455.44	208.31
455.62	212.99
455.81	220.01
455.99	154.48
456.17	248.10
456.36	238.73
456.54	243.42
456.73	140.43
456.91	152.13
457.09	177.88
457.28	259.80
457.46	224.69
457.64	231.71
457.83	177.88
458.01	131.07
458.19	154.48
458.38	238.73
458.56	283.20
458.74	147.45
458.93	205.97
459.11	248.10
459.29	203.63
459.48	234.05
459.66	238.73
459.84	224.69
460.03	337.04
460.21	203.63
460.39	231.71
460.57	241.08
460.76	262.14
460.94	255.12
461.12	255.12
461.31	301.93
461.49	220.01
461.67	276.18
461.85	241.08
462.04	140.43
462.22	662.37
462.40	229.37
462.59	344.06
462.77	180.22
462.95	283.20
463.13	133.41
463.32	215.33
463.50	154.48
463.68	252.78
463.86	252.78
464.05	196.60
464.23	163.84
464.41	269.16
464.59	154.48
464.78	248.10
464.96	224.69
465.14	231.71
465.32	229.37
465.50	208.31
465.69	271.50
465.87	208.31
466.05	170.86
466.23	194.26
466.41	175.54
466.60	250.44
466.78	229.37
466.96	285.55
467.14	182.56
467.32	241.08
467.51	285.55
467.69	262.14
467.87	238.73
468.05	217.67
468.23	234.05
468.41	224.69
468.60	245.76
468.78	243.42
468.96	248.10
469.14	238.73
469.32	208.31
469.50	177.88
469.69	224.69
469.87	241.08
470.05	257.46
470.23	212.99
470.41	236.39
470.59	210.65
470.77	229.37
470.95	222.35
471.14	215.33
471.32	201.29
471.50	245.76
471.68	194.26
471.86	238.73
472.04	198.95
472.22	257.46
472.40	142.77
472.58	222.35
472.77	189.58
472.95	187.24
473.13	294.91
473.31	271.50
473.49	287.89
473.67	161.50
473.85	163.84
474.03	229.37
474.21	210.65
474.39	250.44
474.57	231.71
474.75	227.03
474.93	161.50
475.12	271.50
475.30	215.33
475.48	248.10
475.66	245.76
475.84	241.08
476.02	138.09
476.20	159.16
476.38	198.95
476.56	285.55
476.74	210.65
476.92	210.65
477.10	203.63
477.28	278.52
477.46	231.71
477.64	308.95
477.82	177.88
478.00	224.69
478.18	224.69
478.36	278.52
478.54	287.89
478.72	166.18
478.90	222.35
479.08	194.26
479.26	231.71
479.44	283.20
479.62	180.22
479.80	234.05
479.98	255.12
480.16	264.48
480.34	330.02
480.52	236.39
480.70	311.29
480.88	248.10
481.06	306.61
481.24	322.99
481.41	229.37
481.59	315.97
481.77	252.78
481.95	194.26
482.13	386.19
482.31	243.42
482.49	229.37
482.67	231.71
482.85	241.08
483.03	306.61
483.21	203.63
483.39	252.78
483.57	339.38
483.74	278.52
483.92	212.99
484.10	208.31
484.28	334.70
484.46	285.55
484.64	227.03
484.82	348.74
485.00	301.93
485.18	262.14
485.35	248.10
485.53	234.05
485.71	292.57
485.89	182.56
486.07	170.86
486.25	294.91
486.43	259.80
486.61	236.39
486.78	304.27
486.96	248.10
487.14	201.29
487.32	194.26
487.50	337.04
487.68	346.40
487.85	250.44
488.03	287.89
488.21	304.27
488.39	243.42
488.57	313.63
488.75	264.48
488.92	528.96
489.10	290.23
489.28	372.15
489.46	355.76
489.64	252.78
489.81	301.93
489.99	301.93
490.17	327.68
490.35	325.33
490.53	322.99
490.70	287.89
490.88	315.97
491.06	245.76
491.24	353.42
491.41	365.12
491.59	264.48
491.77	280.86
491.95	315.97
492.13	241.08
492.30	341.72
492.48	332.36
492.66	208.31
492.84	276.18
493.01	313.63
493.19	276.18
493.37	332.36
493.54	234.05
493.72	362.78
493.90	379.17
494.08	320.65
494.25	355.76
494.43	283.20
494.61	325.33
494.79	318.31
494.96	252.78
495.14	311.29
495.32	285.55
495.49	341.72
495.67	339.38
495.85	348.74
496.02	320.65
496.20	353.42
496.38	290.23
496.55	325.33
496.73	355.76
496.91	374.49
497.09	362.78
497.26	409.59
497.44	327.68
497.62	273.84
497.79	294.91
497.97	395.55
498.14	376.83
498.32	383.85
498.50	315.97
498.67	344.06
498.85	353.42
499.03	318.31
499.20	330.02
499.38	386.19
499.56	376.83
499.73	407.25
499.91	372.15
500.08	353.42
500.26	269.16
500.44	299.59
500.61	339.38
500.79	306.61
500.97	315.97
501.14	390.87
501.32	372.15
501.49	330.02
501.67	299.59
501.84	346.40
502.02	276.18
502.20	346.40
502.37	442.36
502.55	397.89
502.72	311.29
502.90	330.02
503.07	374.49
503.25	337.04
503.43	365.12
503.60	306.61
503.78	320.65
503.95	313.63
504.13	318.31
504.30	418.96
504.48	334.70
504.65	390.87
504.83	327.68
505.01	325.33
505.18	201.29
505.36	372.15
505.53	414.27
505.71	341.72
505.88	383.85
506.06	360.44
506.23	416.62
506.41	372.15
506.58	301.93
506.76	346.40
506.93	374.49
507.11	365.12
507.28	325.33
507.46	386.19
507.63	447.04
507.81	348.74
507.98	358.10
508.16	386.19
508.33	332.36
508.50	428.32
508.68	337.04
508.85	351.08
509.03	339.38
509.20	322.99
509.38	395.55
509.55	360.44
509.73	461.09
509.90	390.87
510.08	414.27
510.25	379.17
510.42	351.08
510.60	355.76
510.77	367.46
510.95	397.89
511.12	369.80
511.30	332.36
511.47	320.65
511.64	416.62
511.82	418.96
511.99	379.17
512.17	318.31
512.34	351.08
512.51	353.42
512.69	311.29
512.86	447.04
513.04	353.42
513.21	386.19
513.38	449.38
513.56	360.44
513.73	313.63
513.90	374.49
514.08	418.96
514.25	456.40
514.43	381.51
514.60	339.38
514.77	360.44
514.95	423.64
515.12	397.89
515.29	327.68
515.47	362.78
515.64	330.02
515.81	402.57
515.99	454.06
516.16	451.72
516.33	346.40
516.51	248.10
516.68	276.18
516.85	330.02
517.03	390.87
517.20	433.00
517.37	372.15
517.54	409.59
517.72	353.42
517.89	266.82
518.06	325.33
518.24	444.70
518.41	365.12
518.58	395.55
518.75	416.62
518.93	390.87
519.10	355.76
519.27	390.87
519.45	320.65
519.62	458.74
519.79	425.98
519.96	325.33
520.14	461.09
520.31	416.62
520.48	409.59
520.65	355.76
520.83	369.80
521.00	337.04
521.17	444.70
521.34	276.18
521.52	379.17
521.69	442.36
521.86	416.62
522.03	386.19
522.20	461.09
522.38	327.68
522.55	358.10
522.72	322.99
522.89	346.40
523.07	479.81
523.24	376.83
523.41	395.55
523.58	358.10
523.75	400.23
523.92	360.44
524.10	365.12
524.27	393.21
524.44	372.15
524.61	414.27
524.78	430.66
524.96	451.72
525.13	456.40
525.30	402.57
525.47	367.46
525.64	430.66
525.81	442.36
525.98	355.76
526.16	334.70
526.33	285.55
526.50	341.72
526.67	376.83
526.84	353.42
527.01	418.96
527.18	425.98
527.36	447.04
527.53	428.32
527.70	423.64
527.87	348.74
528.04	397.89
528.21	390.87
528.38	407.25
528.55	423.64
528.72	456.40
528.89	411.93
529.07	376.83
529.24	402.57
529.41	510.24
529.58	447.04
529.75	332.36
529.92	435.34
530.09	411.93
530.26	433.00
530.43	491.51
530.60	454.06
530.77	437.68
530.94	458.74
531.11	456.40
531.28	423.64
531.46	414.27
531.63	430.66
531.80	458.74
531.97	425.98
532.14	465.77
532.31	456.40
532.48	418.96
532.65	301.93
532.82	365.12
532.99	365.12
533.16	416.62
533.33	374.49
533.50	430.66
533.67	461.09
533.84	458.74
534.01	358.10
534.18	449.38
534.35	411.93
534.52	367.46
534.69	437.68
534.86	465.77
535.03	414.27
535.20	376.83
535.37	468.11
535.54	425.98
535.71	358.10
535.88	411.93
536.05	411.93
536.22	456.40
536.38	379.17
536.55	365.12
536.72	381.51
536.89	332.36
537.06	468.11
537.23	358.10
537.40	421.30
537.57	435.34
537.74	447.04
537.91	402.57
538.08	393.21
538.25	383.85
538.42	430.66
538.59	383.85
538.75	381.51
538.92	404.91
539.09	353.42
539.26	315.97
539.43	402.57
539.60	379.17
539.77	404.91
539.94	388.53
540.11	400.23
540.28	421.30
540.44	425.98
540.61	409.59
540.78	369.80
540.95	423.64
541.12	428.32
541.29	381.51
541.46	472.79
541.62	353.42
541.79	407.25
541.96	437.68
542.13	440.02
542.30	374.49
542.47	386.19
542.63	430.66
542.80	379.17
542.97	362.78
543.14	367.46
543.31	358.10
543.48	393.21
543.64	313.63
543.81	386.19
543.98	461.09
544.15	365.12
544.32	332.36
544.48	402.57
544.65	404.91
544.82	428.32
544.99	346.40
545.16	362.78
545.32	425.98
545.49	400.23
545.66	447.04
545.83	301.93
546.00	332.36
546.16	402.57
546.33	367.46
546.50	369.80
546.67	444.70
546.83	440.02
547.00	393.21
547.17	367.46
547.34	383.85
547.50	337.04
547.67	348.74
547.84	365.12
548.00	337.04
548.17	383.85
548.34	318.31
548.51	461.09
548.67	442.36
548.84	463.43
549.01	304.27
549.18	414.27
549.34	374.49
549.51	477.47
549.68	430.66
549.84	353.42
550.01	411.93
550.18	400.23
550.34	482.15
550.51	397.89
550.68	395.55
550.84	362.78
551.01	414.27
551.18	397.89
551.34	383.85
551.51	430.66
551.68	315.97
551.84	437.68
552.01	383.85
552.18	451.72
552.34	418.96
552.51	468.11
552.68	447.04
552.84	414.27
553.01	381.51
553.18	362.78
553.34	454.06
553.51	313.63
553.67	454.06
553.84	519.60
554.01	435.34
554.17	400.23
554.34	397.89
554.51	416.62
554.67	482.15
554.84	437.68
555.00	400.23
555.17	433.00
555.33	451.72
555.50	409.59
555.67	341.72
555.83	294.91
556.00	400.23
556.16	580.45
556.33	409.59
556.50	395.55
556.66	330.02
556.83	351.08
556.99	341.72
557.16	362.78
557.32	374.49
557.49	383.85
557.65	337.04
557.82	386.19
557.98	379.17
558.15	475.13
558.32	423.64
558.48	374.49
558.65	367.46
558.81	334.70
558.98	355.76
559.14	388.53
559.31	365.12
559.47	353.42
559.64	437.68
559.80	376.83
559.97	351.08
560.13	374.49
560.30	360.44
560.46	374.49
560.63	337.04
560.79	449.38
560.96	407.25
561.12	372.15
561.29	369.80
561.45	365.12
561.61	421.30
561.78	468.11
561.94	346.40
562.11	304.27
562.27	400.23
562.44	407.25
562.60	353.42
562.77	395.55
562.93	437.68
563.10	360.44
563.26	475.13
563.42	505.56
563.59	390.87
563.75	365.12
563.92	374.49
564.08	376.83
564.24	430.66
564.41	320.65
564.57	407.25
564.74	362.78
564.90	423.64
565.07	402.57
565.23	433.00
565.39	320.65
565.56	386.19
565.72	402.57
565.88	437.68
566.05	346.40
566.21	346.40
566.38	444.70
566.54	402.57
566.70	358.10
566.87	400.23
567.03	390.87
567.19	367.46
567.36	376.83
567.52	330.02
567.68	388.53
567.85	322.99
568.01	379.17
568.17	355.76
568.34	334.70
568.50	318.31
568.66	339.38
568.83	393.21
568.99	355.76
569.15	430.66
569.32	318.31
569.48	376.83
569.64	353.42
569.81	332.36
569.97	332.36
570.13	341.72
570.30	332.36
570.46	301.93
570.62	322.99
570.78	362.78
570.95	313.63
571.11	423.64
571.27	409.59
571.43	320.65
571.60	348.74
571.76	376.83
571.92	369.80
572.09	311.29
572.25	400.23
572.41	348.74
572.57	397.89
572.74	409.59
572.90	376.83
573.06	433.00
573.22	322.99
573.38	437.68
573.55	369.80
573.71	395.55
573.87	322.99
574.03	339.38
574.20	276.18
574.36	292.57
574.52	332.36
574.68	409.59
574.84	311.29
575.01	299.59
575.17	409.59
575.33	266.82
575.49	374.49
575.65	376.83
575.82	372.15
575.98	367.46
576.14	386.19
576.30	285.55
576.46	379.17
576.62	322.99
576.79	346.40
576.95	418.96
577.11	292.57
577.27	355.76
577.43	428.32
577.59	348.74
577.75	358.10
577.92	360.44
578.08	341.72
578.24	358.10
578.40	369.80
578.56	491.51
578.72	386.19
578.88	383.85
579.04	374.49
579.21	362.78
579.37	346.40
579.53	367.46
579.69	386.19
579.85	313.63
580.01	379.17
580.17	367.46
580.33	402.57
580.49	297.25
580.65	304.27
580.82	360.44
580.98	351.08
581.14	313.63
581.30	418.96
581.46	332.36
581.62	416.62
581.78	379.17
581.94	341.72
582.10	332.36
582.26	402.57
582.42	337.04
582.58	355.76
582.74	367.46
582.90	407.25
583.06	376.83
583.22	320.65
583.38	386.19
583.54	353.42
583.70	397.89
583.86	348.74
584.02	325.33
584.18	416.62
584.34	334.70
584.50	379.17
584.66	320.65
584.82	322.99
584.98	273.84
585.14	428.32
585.30	409.59
585.46	346.40
585.62	383.85
585.78	346.40
585.94	334.70
586.10	271.50
586.26	322.99
586.42	386.19
586.58	376.83
586.74	337.04
586.90	379.17
587.06	367.46
587.22	402.57
587.38	367.46
587.54	351.08
587.70	327.68
587.86	358.10
588.02	322.99
588.18	322.99
588.34	308.95
588.49	318.31
588.65	273.84
588.81	322.99
588.97	294.91
589.13	231.71
589.29	306.61
589.45	330.02
589.61	322.99
589.77	311.29
589.93	283.20
590.08	355.76
590.24	271.50
590.40	294.91
590.56	290.23
590.72	273.84
590.88	294.91
591.04	330.02
591.20	294.91
591.35	257.46
591.51	330.02
591.67	322.99
591.83	273.84
591.99	283.20
592.15	278.52
592.31	341.72
592.46	367.46
592.62	334.70
592.78	330.02
592.94	271.50
593.10	290.23
593.26	283.20
593.41	330.02
593.57	278.52
593.73	381.51
593.89	325.33
594.05	276.18
594.20	283.20
594.36	325.33
594.52	308.95
594.68	259.80
594.84	341.72
594.99	325.33
595.15	346.40
595.31	367.46
595.47	386.19
595.62	381.51
595.78	327.68
595.94	304.27
596.10	320.65
596.25	346.40
596.41	365.12
596.57	299.59
596.73	344.06
596.88	334.70
597.04	299.59
597.20	294.91
597.36	322.99
597.51	393.21
597.67	290.23
597.83	311.29
597.99	320.65
598.14	332.36
598.30	241.08
598.46	351.08
598.61	355.76
598.77	325.33
598.93	273.84
599.09	341.72
599.24	332.36
599.40	386.19
599.56	285.55
599.71	290.23
599.87	308.95
600.03	337.04
600.18	318.31
600.34	304.27
600.50	313.63
600.65	341.72
600.81	386.19
600.97	337.04
601.12	402.57
601.28	379.17
601.44	334.70
601.59	346.40
601.75	360.44
601.91	297.25
602.06	334.70
602.22	390.87
602.37	304.27
602.53	313.63
602.69	334.70
602.84	255.12
603.00	322.99
603.16	367.46
603.31	318.31
603.47	386.19
603.62	397.89
603.78	332.36
603.94	278.52
604.09	372.15
604.25	416.62
604.40	376.83
604.56	337.04
604.71	266.82
604.87	348.74
605.03	259.80
605.18	362.78
605.34	330.02
605.49	304.27
605.65	278.52
605.80	264.48
605.96	421.30
606.12	297.25
606.27	402.57
606.43	337.04
606.58	372.15
606.74	416.62
606.89	259.80
607.05	388.53
607.20	353.42
607.36	325.33
607.51	280.86
607.67	304.27
607.82	376.83
607.98	245.76
608.13	353.42
608.29	280.86
608.44	313.63
608.60	318.31
608.75	280.86
608.91	330.02
609.06	367.46
609.22	362.78
609.37	367.46
609.53	381.51
609.68	353.42
609.84	222.35
609.99	299.59
610.15	388.53
610.30	320.65
610.46	341.72
610.61	330.02
610.76	355.76
610.92	327.68
611.07	315.97
611.23	414.27
611.38	433.00
611.54	299.59
