SpectraSuite Data File
++++++++++++++++++++++++++++++++++++
Date: Fri Oct 04 11:48:32 GMT-05:00 2013
User: price-jones
Dark Spectrum Present: No
Reference Spectrum Present: No
Number of Sampled Component Spectra: 1
Spectrometers: USB2+H05261
Integration Time (usec): 100000 (USB2+H05261)
Spectra Averaged: 1 (USB2+H05261)
Boxcar Smoothing: 0 (USB2+H05261)
Correct for Electrical Dark: No (USB2+H05261)
Strobe/Lamp Enabled: No (USB2+H05261)
Correct for Detector Non-linearity: No (USB2+H05261)
Correct for Stray Light: No (USB2+H05261)
Number of Pixels in Processed Spectrum: 2048
>>>>>Begin Processed Spectral Data<<<<<
365.73	35.11
365.92	35.11
366.12	35.11
366.32	0.00
366.52	0.00
366.72	4.68
366.91	0.00
367.11	0.00
367.31	0.00
367.51	0.00
367.70	0.00
367.90	2.34
368.10	0.00
368.30	0.00
368.49	0.00
368.69	0.00
368.89	0.00
369.09	0.00
369.28	0.00
369.48	0.00
369.68	0.00
369.87	0.00
370.07	7.02
370.27	0.00
370.47	70.22
370.66	381.51
370.86	404.91
371.06	409.59
371.25	564.07
371.45	461.09
371.65	461.09
371.84	430.66
372.04	496.19
372.24	444.70
372.44	402.57
372.63	486.83
372.83	629.60
373.03	571.09
373.22	599.18
373.42	578.11
373.62	561.73
373.81	655.35
374.01	650.67
374.21	695.14
374.40	608.54
374.60	559.39
374.79	622.58
374.99	599.18
375.19	599.18
375.38	669.39
375.58	620.24
375.78	617.90
375.97	753.65
376.17	674.07
376.37	648.33
376.56	655.35
376.76	681.10
376.95	650.67
377.15	713.86
377.35	706.84
377.54	727.91
377.74	645.99
377.93	713.86
378.13	695.14
378.33	664.71
378.52	695.14
378.72	746.63
378.91	706.84
379.11	690.46
379.31	678.76
379.50	683.44
379.70	746.63
379.89	671.73
380.09	746.63
380.28	723.23
380.48	784.08
380.68	734.93
380.87	774.72
381.07	709.18
381.26	821.53
381.46	760.67
381.65	826.21
381.85	767.70
382.04	833.23
382.24	795.78
382.43	812.17
382.63	777.06
382.83	898.77
383.02	952.60
383.22	882.38
383.41	826.21
383.61	814.51
383.80	945.58
384.00	905.79
384.19	903.45
384.39	880.04
384.58	877.70
384.78	919.83
384.97	964.30
385.17	891.74
385.36	919.83
385.56	954.94
385.75	999.41
385.95	854.30
386.14	971.32
386.34	976.00
386.53	997.07
386.72	990.05
386.92	959.62
387.11	1015.79
387.31	959.62
387.50	1055.58
387.70	992.39
387.89	1018.13
388.09	1076.65
388.28	1069.62
388.48	1151.54
388.67	1088.35
388.86	1069.62
389.06	1095.37
389.25	1050.90
389.45	1097.71
389.64	1142.18
389.84	1167.93
390.03	1090.69
390.22	1196.01
390.42	1198.35
390.61	1186.65
390.81	1104.73
391.00	1132.82
391.19	1210.06
391.39	1203.04
391.58	1291.98
391.78	1146.86
391.97	1221.76
392.16	1093.03
392.36	1179.63
392.55	1327.08
392.75	1287.29
392.94	1397.30
393.13	1172.61
393.33	1233.46
393.52	1306.02
393.71	1355.17
393.91	1348.15
394.10	1345.81
394.29	1373.89
394.49	1294.32
394.68	1409.00
394.88	1348.15
395.07	1500.28
395.26	1411.34
395.46	1409.00
395.65	1554.12
395.84	1446.45
396.04	1439.43
396.23	1455.81
396.42	1483.90
396.62	1455.81
396.81	1523.69
397.00	1437.09
397.19	1509.65
397.39	1462.83
397.58	1481.56
397.77	1572.84
397.97	1495.60
398.16	1652.42
398.35	1664.12
398.55	1563.48
398.74	1650.08
398.93	1584.54
399.12	1640.72
399.32	1713.27
399.51	1617.31
399.70	1703.91
399.90	1680.50
400.09	1764.76
400.28	1795.19
400.47	1703.91
400.67	1825.62
400.86	1753.06
401.05	1783.49
401.24	1895.83
401.44	1842.00
401.63	1944.99
401.82	1813.92
402.01	1923.92
402.21	2015.20
402.40	1928.60
402.59	1980.09
402.78	2001.16
402.97	1907.54
403.17	2071.37
403.36	1973.07
403.55	2036.27
403.74	2132.23
403.93	2038.61
404.13	2134.57
404.32	2083.08
404.51	1961.37
404.70	2127.55
404.89	2099.46
405.09	2122.87
405.28	2139.25
405.47	2216.49
405.66	2165.00
405.85	2228.19
406.05	2225.85
406.24	2265.64
406.43	2195.42
406.62	2417.77
406.81	2361.60
407.00	2338.20
407.20	2275.00
407.39	2431.82
407.58	2366.28
407.77	2452.88
407.96	2518.42
408.15	2572.25
408.34	2417.77
408.54	2527.78
408.73	2427.14
408.92	2530.12
409.11	2544.16
409.30	2539.48
409.49	2588.63
409.68	2541.82
409.87	2544.16
410.07	2663.53
410.26	2682.25
410.45	2726.72
410.64	2738.43
410.83	2715.02
411.02	2705.66
411.21	2827.37
411.40	2712.68
411.59	2909.29
411.78	2874.18
411.98	2897.58
412.17	2897.58
412.36	2860.13
412.55	3077.80
412.74	3108.23
412.93	3098.87
413.12	3012.27
413.31	3152.70
413.50	3258.03
413.69	3164.40
413.88	3178.45
414.07	3258.03
414.26	3288.45
414.45	3290.79
414.64	3297.81
414.83	3332.92
415.02	3419.52
415.22	3428.88
415.41	3508.46
415.60	3513.14
415.79	3461.65
415.98	3419.52
416.17	3503.78
416.36	3669.96
416.55	3737.84
416.74	3634.85
416.93	3648.90
417.12	3747.20
417.31	3822.09
417.50	3798.69
417.69	3953.16
417.88	3815.07
418.07	3772.94
418.26	3925.08
418.45	3824.44
418.64	4084.23
418.83	3929.76
419.02	4011.68
419.21	3941.46
419.39	4037.42
419.58	4037.42
419.77	3946.14
419.96	4049.13
420.15	4051.47
420.34	4198.92
420.53	4081.89
420.72	4262.12
420.91	4191.90
421.10	4266.80
421.29	4194.24
421.48	4007.00
421.67	4374.46
421.86	4264.46
422.05	4381.48
422.24	4201.26
422.43	4301.90
422.61	4430.63
422.80	4369.78
422.99	4482.13
423.18	4442.34
423.37	4407.23
423.56	4428.29
423.75	4252.75
423.94	4344.03
424.13	4264.46
424.32	4154.45
424.50	4582.77
424.69	4512.55
424.88	4585.11
425.07	4533.62
425.26	4395.53
425.45	4440.00
425.64	4358.08
425.83	4510.21
426.01	4690.43
426.20	4655.33
426.39	4535.96
426.58	4559.36
426.77	4557.02
426.96	4526.60
427.15	4660.01
427.33	4657.67
427.52	4741.93
427.71	4779.37
427.90	4788.74
428.09	4891.72
428.28	4767.67
428.46	4791.08
428.65	4924.49
428.84	4908.10
429.03	4964.28
429.22	4830.87
429.40	4997.04
429.59	5025.13
429.78	4777.03
429.97	4966.62
430.16	4840.23
430.34	5011.09
430.53	5224.08
430.72	5123.43
430.91	4997.04
431.10	5130.45
431.28	5256.84
431.47	5380.89
431.66	5322.38
431.85	5313.02
432.03	5437.06
432.22	5437.06
432.41	5383.23
432.60	5364.51
432.79	5114.07
432.97	5331.74
433.16	5423.02
433.35	5383.23
433.54	5465.15
433.72	5533.03
433.91	5481.53
434.10	5605.58
434.28	5458.13
434.47	5605.58
434.66	5495.58
434.85	5614.95
435.03	5783.46
435.22	5734.31
435.41	5921.56
435.59	5961.34
435.78	5785.80
435.97	5774.10
436.16	5797.51
436.34	5980.07
436.53	5944.96
436.72	5959.00
436.90	5856.02
437.09	5937.94
437.28	5930.92
437.46	5970.71
437.65	6113.48
437.84	6031.56
438.02	6141.57
438.21	6176.67
438.40	5923.90
438.58	6296.04
438.77	6462.22
438.96	6242.21
439.14	6417.75
439.33	6717.34
439.52	6595.63
439.70	6560.52
439.89	6494.99
440.08	6602.65
440.26	6836.70
440.45	6712.66
440.63	6853.09
440.82	6906.92
441.01	6722.02
441.19	7021.61
441.38	7187.79
441.57	7026.29
441.75	7253.32
441.94	7155.02
442.12	7082.46
442.31	7421.84
442.50	7307.15
442.68	7218.21
442.87	7480.35
443.05	7328.22
443.24	7449.93
443.43	7503.76
443.61	7492.05
443.80	7618.44
443.98	7569.29
444.17	7243.96
444.35	7520.14
444.54	7808.03
444.73	7449.93
444.91	7578.65
445.10	7552.91
445.28	7552.91
445.47	7641.85
445.65	7595.04
445.84	7620.78
446.02	7744.83
446.21	7693.34
446.39	7536.52
446.58	7707.38
446.77	7826.75
446.95	7606.74
447.14	7630.15
447.32	7733.13
447.51	7632.49
447.69	7672.28
447.88	7756.54
448.06	7691.00
448.25	7573.97
448.43	7779.94
448.62	7761.22
448.80	7925.05
448.99	7946.12
449.17	7948.46
449.36	7934.42
449.54	8058.46
449.73	7992.93
449.91	8102.93
450.10	8077.19
450.28	8416.57
450.46	8205.92
450.65	8257.41
450.83	8348.69
451.02	8355.71
451.20	8493.80
451.39	8425.93
451.57	8432.95
451.76	8351.03
451.94	8372.10
452.13	8547.64
452.31	8430.61
452.49	8264.43
452.68	8561.68
452.86	8720.84
453.05	8603.81
453.23	8688.07
453.42	8517.21
453.60	8507.85
453.78	8809.78
453.97	8650.62
454.15	8807.44
454.34	8557.00
454.52	8835.52
454.70	8638.92
454.89	8990.00
455.07	8730.20
455.26	9015.74
455.44	8936.17
455.62	8987.66
455.81	8947.87
455.99	9032.13
456.17	9231.07
456.36	9032.13
456.54	9355.12
456.73	9343.42
456.91	9497.89
457.09	9259.16
457.28	9710.88
457.46	9404.27
457.64	9771.74
457.83	9694.50
458.01	9451.08
458.19	9797.48
458.38	9738.97
458.56	9844.29
458.74	9771.74
458.93	9750.67
459.11	9633.64
459.29	9685.14
459.48	9874.72
459.66	10008.13
459.84	10008.13
460.03	10122.82
460.21	10033.88
460.39	10080.69
460.57	9830.25
460.76	10057.28
460.94	10218.78
461.12	10202.40
461.31	10057.28
461.49	10097.07
461.67	10094.73
461.85	10218.78
462.04	10214.10
462.22	10747.74
462.40	10572.20
462.59	10553.48
462.77	10300.70
462.95	10658.80
463.13	10434.11
463.32	10623.69
463.50	10642.42
463.68	10750.08
463.86	10710.29
464.05	10595.61
464.23	10693.91
464.41	10977.11
464.59	10691.57
464.78	10970.09
464.96	10724.33
465.14	10661.14
465.32	11164.36
465.50	11009.88
465.69	10979.45
465.87	10995.84
466.05	11283.72
466.23	11159.67
466.41	11070.73
466.60	11295.43
466.78	11094.14
466.96	11192.44
467.14	10986.47
467.32	11229.89
467.51	11459.26
467.69	11103.50
467.87	11428.84
468.05	11339.90
468.23	11325.85
468.41	11335.21
468.60	11637.14
468.78	11529.48
468.96	11541.18
469.14	11796.30
469.32	11625.44
469.50	11424.15
469.69	11889.92
469.87	11932.05
470.05	11953.12
470.23	11824.39
470.41	11934.39
470.59	12063.12
470.77	12098.23
470.95	12430.59
471.14	12222.28
471.32	12037.38
471.50	12418.88
471.68	12531.23
471.86	12624.85
472.04	12311.22
472.22	12868.27
472.40	12578.04
472.58	12772.30
472.77	12699.75
472.95	12919.76
473.13	13158.49
473.31	12842.52
473.49	12952.52
473.67	12947.84
473.85	13111.68
474.03	13266.16
474.21	13287.22
474.39	13518.93
474.57	13558.72
474.75	13628.94
474.93	14040.87
475.12	13738.94
475.30	13853.63
475.48	13603.19
475.66	14031.51
475.84	13947.25
476.02	14036.19
476.20	14075.98
476.38	14459.83
476.56	14637.71
476.74	14462.17
476.92	14506.64
477.10	14675.16
477.28	14853.04
477.46	14635.37
477.64	15009.86
477.82	15000.49
478.00	15543.50
478.18	15494.35
478.36	15716.70
478.54	15627.76
478.72	15800.96
478.90	15995.22
479.08	16271.40
479.26	16035.01
479.44	16255.02
479.62	16730.15
479.80	16645.89
479.98	16695.04
480.16	16933.78
480.34	16739.51
480.52	16924.41
480.70	17160.81
480.88	16823.77
481.06	17352.73
481.24	17111.66
481.41	17619.55
481.59	18050.21
481.77	17661.68
481.95	18001.06
482.13	18174.26
482.31	18169.58
482.49	18209.37
482.67	18735.99
482.85	18471.51
483.03	19070.68
483.21	19337.51
483.39	19431.13
483.57	19014.51
483.74	19431.13
483.92	19730.72
484.10	19711.99
484.28	19978.81
484.46	20395.43
484.64	20435.22
484.82	20189.46
485.00	20599.05
485.18	21074.18
485.35	21425.26
485.53	21020.35
485.71	21371.43
485.89	21057.80
486.07	21589.10
486.25	21549.31
486.43	21961.25
486.61	22015.08
486.78	22160.19
486.96	22120.40
487.14	22820.22
487.32	22820.22
487.50	22958.31
487.68	23026.19
487.85	23318.76
488.03	23529.41
488.21	23440.47
488.39	23496.64
488.57	24063.05
488.75	24049.00
488.92	24367.32
489.10	24744.14
489.28	24451.58
489.46	25296.51
489.64	24858.83
489.81	25460.35
489.99	25432.26
490.17	25455.67
490.35	25905.05
490.53	25633.55
490.70	25797.38
490.88	26279.54
491.06	26586.15
491.24	26494.86
491.41	27157.24
491.59	27328.10
491.77	27080.00
491.95	27248.52
492.13	27573.85
492.30	27756.41
492.48	27864.08
492.66	28056.00
492.84	27955.36
493.01	28472.62
493.19	28339.21
493.37	28418.78
493.54	28648.16
493.72	28863.49
493.90	29032.00
494.08	29476.71
494.25	29350.32
494.43	29579.69
494.61	29715.44
494.79	30003.33
494.96	30115.67
495.14	30122.69
495.32	30216.32
495.49	30391.86
495.67	30822.51
495.85	31295.30
496.02	31295.30
496.20	31566.81
496.38	31117.42
496.55	31515.31
496.73	32034.91
496.91	31885.12
497.09	32112.15
497.26	32460.89
497.44	32182.37
497.62	32500.68
497.79	32496.00
497.97	32732.39
498.14	33408.81
498.32	33638.18
498.50	33532.86
498.67	33289.44
498.85	33958.83
499.03	33869.89
499.20	33757.55
499.38	34141.39
499.56	34761.64
499.73	34668.02
499.91	34490.13
500.08	34733.55
500.26	34600.14
500.44	35180.59
500.61	35356.13
500.79	35122.08
500.97	35627.63
501.14	35414.65
501.32	35845.30
501.49	35517.63
501.67	35704.87
501.84	35613.59
502.02	35999.78
502.20	36142.55
502.37	36407.03
502.55	36383.63
502.72	36084.04
502.90	36648.11
503.07	36577.89
503.25	36673.85
503.43	36781.52
503.60	37495.38
503.78	37476.66
503.95	37153.66
504.13	37434.53
504.30	37556.24
504.48	37235.58
504.65	37626.45
504.83	38499.47
505.01	38103.92
505.18	38459.68
505.36	38803.74
505.53	38696.08
505.71	38667.99
505.88	38752.25
506.06	38501.81
506.23	38534.58
506.41	38955.88
506.58	39365.47
506.76	39346.75
506.93	38967.58
507.11	39154.82
507.28	39182.91
507.46	39641.65
507.63	39683.78
507.81	40086.36
507.98	39887.41
508.16	39924.86
508.33	39751.66
508.50	40304.02
508.68	40701.92
508.85	41207.47
509.03	40409.35
509.20	41294.07
509.38	40980.44
509.55	41123.21
509.73	40818.94
509.90	41364.29
510.08	41481.31
510.25	41490.68
510.42	41869.84
510.60	41869.84
510.77	42092.19
510.95	41975.17
511.12	41581.96
511.30	41911.97
511.47	42646.90
511.64	42857.55
511.82	42628.18
511.99	42740.52
512.17	43159.48
512.34	42464.34
512.51	43306.93
512.69	43065.86
512.86	43014.37
513.04	43571.41
513.21	43323.32
513.38	43540.99
513.56	43693.12
513.73	43526.94
513.90	43714.19
514.08	43681.42
514.25	44196.34
514.43	44252.51
514.60	44130.80
514.77	44573.16
514.95	44753.38
515.12	44126.12
515.29	44495.92
515.47	45076.38
515.64	45193.40
515.81	44488.90
515.99	45324.47
516.16	45577.25
516.33	45605.34
516.51	45879.18
516.68	45237.87
516.85	45308.09
517.03	45696.62
517.20	46010.25
517.37	46258.35
517.54	46071.10
517.72	45977.48
517.89	45640.45
518.06	45867.48
518.24	46319.20
518.41	46340.27
518.58	46251.33
518.75	46286.43
518.93	46396.44
519.10	46401.12
519.27	46806.03
519.45	46518.15
519.62	46728.80
519.79	47023.70
519.96	47124.35
520.14	46979.23
520.31	47299.89
520.48	47604.16
520.65	47744.59
520.83	47356.06
521.00	47517.56
521.17	47594.79
521.34	47695.44
521.52	47845.23
521.69	47824.17
521.86	48041.84
522.03	47964.60
522.20	48301.64
522.38	48058.22
522.55	48498.24
522.72	48100.35
522.89	48325.04
523.07	48917.20
523.24	48596.54
523.41	48746.34
523.58	48493.56
523.75	48980.39
523.92	48949.96
524.10	48882.09
524.27	49141.89
524.44	49223.81
524.61	49532.76
524.78	49366.58
524.96	49312.75
525.13	49148.91
525.30	49549.14
525.47	49549.14
525.64	49691.91
525.81	50099.17
525.98	50134.28
526.16	49717.66
526.33	49841.71
526.50	50328.54
526.67	49776.17
526.84	50035.97
527.01	50190.45
527.18	50206.83
527.36	50403.44
527.53	50597.70
527.70	50628.13
527.87	50483.01
528.04	50429.18
528.21	50515.78
528.38	50450.25
528.55	50686.64
528.72	50674.94
528.89	50660.90
529.07	50576.64
529.24	50880.91
529.41	51227.31
529.58	51014.32
529.75	50944.10
529.92	51185.18
530.09	50923.04
530.26	51203.90
530.43	51274.12
530.60	51201.56
530.77	51695.41
530.94	51648.60
531.11	51173.47
531.28	51192.20
531.46	51512.85
531.63	51538.60
531.80	51648.60
531.97	52039.47
532.14	51999.68
532.31	51716.48
532.48	51922.44
532.65	51985.64
532.82	51758.61
532.99	52317.99
533.16	52362.46
533.33	52023.09
533.50	52652.69
533.67	52207.99
533.84	52355.44
534.01	52083.94
534.18	52418.64
534.35	52512.26
534.52	52360.12
534.69	52538.01
534.86	52736.95
535.03	52591.84
535.20	52603.54
535.37	52800.15
535.54	52830.57
535.71	52692.48
535.88	53043.56
536.05	52615.24
536.22	53109.10
536.38	53158.25
536.55	53090.37
536.72	53109.10
536.89	52720.57
537.06	52959.30
537.23	53221.44
537.40	53071.65
537.57	53104.41
537.74	53247.19
537.91	53663.80
538.08	53495.28
538.25	53511.67
538.42	53457.84
538.59	53506.99
538.75	53371.24
538.92	53502.31
539.09	53790.19
539.26	53427.41
539.43	53551.46
539.60	53855.73
539.77	53844.02
539.94	53900.20
540.11	53897.86
540.28	54101.48
540.44	53984.46
540.61	53783.17
540.78	54010.20
540.95	53883.81
541.12	54080.42
541.29	54197.44
541.46	54078.08
541.62	54202.13
541.79	54211.49
541.96	53712.95
542.13	53930.62
542.30	54333.20
542.47	54417.46
542.63	54347.24
542.80	54471.29
542.97	54773.22
543.14	54670.23
543.31	54710.02
543.48	54880.88
543.64	55114.94
543.81	54962.80
543.98	54976.84
544.15	54864.50
544.32	55234.30
544.48	55267.07
544.65	54887.90
544.82	55208.56
544.99	54923.01
545.16	54955.78
545.32	54965.14
545.49	55489.42
545.66	55077.49
545.83	55512.83
546.00	55271.75
546.16	55437.93
546.33	55325.58
546.50	54986.21
546.67	55313.88
546.83	54988.55
547.00	55501.12
547.17	55297.50
547.34	55489.42
547.50	55484.74
547.67	55908.38
547.84	55491.76
548.00	55817.10
548.17	55784.33
548.34	55522.19
548.51	56041.79
548.67	56126.05
548.84	55870.93
549.01	55779.65
549.18	55938.80
549.34	55842.84
549.51	55873.27
549.68	56090.94
549.84	55725.81
550.01	55805.39
550.18	55814.76
550.34	56240.73
550.51	55978.59
550.68	56240.73
550.84	55980.93
551.01	56142.43
551.18	55917.74
551.34	55959.87
551.51	56324.99
551.68	56090.94
551.84	56350.74
552.01	56170.52
552.18	56458.40
552.34	56381.16
552.51	56294.56
552.68	56367.12
552.84	56444.36
553.01	56292.22
553.18	56313.29
553.34	56505.21
553.51	56507.55
553.67	56755.65
553.84	56760.33
554.01	56750.97
554.17	56715.86
554.34	56577.77
554.51	56811.82
554.67	56715.86
554.84	56725.22
555.00	56786.08
555.17	56898.42
555.33	56914.81
555.50	56711.18
555.67	56769.69
555.83	56905.44
556.00	56839.91
556.16	57027.15
556.33	56811.82
556.50	56912.47
556.66	56989.70
556.83	56842.25
556.99	57352.49
557.16	57120.77
557.32	57476.54
557.49	57322.06
557.65	57097.37
557.82	57099.71
557.98	57134.82
558.15	57111.41
558.32	57263.55
558.48	57408.66
558.65	57310.36
558.81	57333.76
558.98	57350.15
559.14	57284.61
559.31	57268.23
559.47	57120.77
559.64	57471.85
559.80	57446.11
559.97	57605.26
560.13	57392.28
560.30	57708.25
560.46	57399.30
560.63	57286.95
560.79	57425.04
560.96	57616.97
561.12	57755.06
561.29	57389.94
561.45	57324.40
561.61	57485.90
561.78	57825.28
561.94	57497.60
562.11	57785.49
562.27	57623.99
562.44	57614.63
562.60	57598.24
562.77	57710.59
562.93	57694.21
563.10	58047.63
563.26	57869.75
563.42	57958.69
563.59	57811.23
563.75	57705.91
563.92	57778.46
564.08	57666.12
564.24	57673.14
564.41	57745.70
564.57	57649.74
564.74	57670.80
564.90	57996.13
565.07	57907.19
565.23	58010.18
565.39	58244.23
565.56	57930.60
565.72	57801.87
565.88	57883.79
566.05	58113.16
566.21	57836.98
566.38	57785.49
566.54	58169.33
566.70	58302.74
566.87	58155.29
567.03	57813.57
567.19	58309.77
567.36	57993.79
567.52	58209.12
567.68	58075.71
567.85	57925.92
568.01	58068.69
568.17	57968.05
568.34	58066.35
568.50	58075.71
568.66	57925.92
568.83	58216.14
568.99	58145.93
569.15	57961.03
569.32	58014.86
569.48	58122.52
569.64	58040.60
569.81	58064.01
569.97	58120.18
570.13	58085.07
570.30	58143.59
570.46	58244.23
570.62	58277.00
570.78	58181.04
570.95	58298.06
571.11	58246.57
571.27	58014.86
571.43	58291.04
571.60	58487.65
571.76	58379.98
571.92	58508.71
572.09	58335.51
572.25	58394.03
572.41	58347.21
572.57	58314.45
572.74	58258.27
572.90	58155.29
573.06	58213.80
573.22	58391.68
573.38	58326.15
573.55	58356.58
573.71	58562.54
573.87	58354.24
574.03	58258.27
574.20	58162.31
574.36	58302.74
574.52	58351.90
574.68	58361.26
574.84	58513.39
575.01	58597.65
575.17	58227.85
575.33	58403.39
575.49	58499.35
575.65	58548.50
575.82	58660.85
575.98	58164.65
576.14	58468.92
576.30	58323.81
576.46	58569.57
576.62	58316.79
576.79	58141.25
576.95	58326.15
577.11	58508.71
577.27	58497.01
577.43	58571.91
577.59	58314.45
577.75	58473.60
577.92	58478.28
578.08	58504.03
578.24	58401.05
578.40	58452.54
578.56	58497.01
578.72	58679.57
578.88	58632.76
579.04	58775.53
579.21	58754.47
579.37	58394.03
579.53	58745.11
579.69	58216.14
579.85	58424.45
580.01	58452.54
580.17	58349.56
580.33	58475.94
580.49	58691.27
580.65	58721.70
580.82	58628.08
580.98	58387.00
581.14	58656.17
581.30	58796.60
581.46	58478.28
581.62	58408.07
581.78	58274.66
581.94	58876.18
582.10	58529.78
582.26	58742.77
582.42	58651.48
582.58	58576.59
582.74	58745.11
582.90	58878.52
583.06	58981.50
583.22	58574.25
583.38	58623.40
583.54	58499.35
583.70	58759.15
583.86	58670.21
584.02	58918.31
584.18	58766.17
584.34	58714.68
584.50	58812.98
584.66	58937.03
584.82	58670.21
584.98	58759.15
585.14	58562.54
585.30	58618.72
585.46	58667.87
585.62	58309.77
585.78	58712.34
585.94	58508.71
586.10	59032.99
586.26	58766.17
586.42	58911.28
586.58	58887.88
586.74	58812.98
586.90	58787.24
587.06	58660.85
587.22	58670.21
587.38	58710.00
587.54	58759.15
587.70	58969.80
587.86	58871.49
588.02	58927.67
588.18	58885.54
588.34	58724.04
588.49	58824.68
588.65	58578.93
588.81	58616.38
588.97	58707.66
589.13	58995.54
589.29	58766.17
