SpectraSuite Data File
++++++++++++++++++++++++++++++++++++
Date: Fri Oct 04 11:46:59 GMT-05:00 2013
User: price-jones
Dark Spectrum Present: No
Reference Spectrum Present: No
Number of Sampled Component Spectra: 1
Spectrometers: USB2+H05261
Integration Time (usec): 100000 (USB2+H05261)
Spectra Averaged: 1 (USB2+H05261)
Boxcar Smoothing: 0 (USB2+H05261)
Correct for Electrical Dark: No (USB2+H05261)
Strobe/Lamp Enabled: No (USB2+H05261)
Correct for Detector Non-linearity: No (USB2+H05261)
Correct for Stray Light: No (USB2+H05261)
Number of Pixels in Processed Spectrum: 2048
>>>>>Begin Processed Spectral Data<<<<<
365.73	53.83
365.92	53.83
366.12	53.83
366.32	0.00
366.52	0.00
366.72	0.00
366.91	0.00
367.11	0.00
367.31	0.00
367.51	0.00
367.70	0.00
367.90	0.00
368.10	0.00
368.30	0.00
368.49	0.00
368.69	0.00
368.89	0.00
369.09	0.00
369.28	0.00
369.48	18.72
369.68	0.00
369.87	35.11
370.07	0.00
370.27	7.02
370.47	0.00
370.66	14.04
370.86	60.85
371.06	53.83
371.25	93.62
371.45	65.54
371.65	105.32
371.84	42.13
372.04	84.26
372.24	11.70
372.44	28.09
372.63	119.37
372.83	145.11
373.03	65.54
373.22	100.64
373.42	65.54
373.62	102.98
373.81	149.79
374.01	0.00
374.21	100.64
374.40	147.45
374.60	154.48
374.79	81.92
374.99	84.26
375.19	46.81
375.38	86.60
375.58	133.41
375.78	93.62
375.97	201.29
376.17	140.43
376.37	51.49
376.56	121.71
376.76	133.41
376.95	49.15
377.15	98.30
377.35	105.32
377.54	119.37
377.74	126.39
377.93	88.94
378.13	95.96
378.33	30.43
378.52	72.56
378.72	128.73
378.91	7.02
379.11	46.81
379.31	124.05
379.50	88.94
379.70	95.96
379.89	102.98
380.09	67.88
380.28	91.28
380.48	95.96
380.68	37.45
380.87	51.49
381.07	84.26
381.26	131.07
381.46	91.28
381.65	74.90
381.85	91.28
382.04	105.32
382.24	119.37
382.43	119.37
382.63	65.54
382.83	110.01
383.02	86.60
383.22	114.69
383.41	88.94
383.61	117.03
383.80	37.45
384.00	72.56
384.19	53.83
384.39	114.69
384.58	110.01
384.78	107.66
384.97	44.47
385.17	81.92
385.36	63.19
385.56	79.58
385.75	86.60
385.95	98.30
386.14	121.71
386.34	124.05
386.53	154.48
386.72	70.22
386.92	131.07
387.11	98.30
387.31	81.92
387.50	93.62
387.70	58.51
387.89	135.75
388.09	121.71
388.28	100.64
388.48	79.58
388.67	121.71
388.86	84.26
389.06	128.73
389.25	65.54
389.45	110.01
389.64	14.04
389.84	86.60
390.03	98.30
390.22	124.05
390.42	102.98
390.61	93.62
390.81	53.83
391.00	72.56
391.19	126.39
391.39	119.37
391.58	138.09
391.78	121.71
391.97	95.96
392.16	60.85
392.36	107.66
392.55	138.09
392.75	131.07
392.94	58.51
393.13	112.35
393.33	112.35
393.52	102.98
393.71	142.77
393.91	79.58
394.10	77.24
394.29	58.51
394.49	156.82
394.68	56.17
394.88	140.43
395.07	124.05
395.26	119.37
395.46	114.69
395.65	159.16
395.84	170.86
396.04	163.84
396.23	70.22
396.42	37.45
396.62	81.92
396.81	91.28
397.00	60.85
397.19	25.75
397.39	187.24
397.58	152.13
397.77	126.39
397.97	149.79
398.16	63.19
398.35	124.05
398.55	0.00
398.74	117.03
398.93	135.75
399.12	79.58
399.32	124.05
399.51	124.05
399.70	110.01
399.90	84.26
400.09	105.32
400.28	102.98
400.47	79.58
400.67	196.60
400.86	74.90
401.05	173.20
401.24	93.62
401.44	145.11
401.63	138.09
401.82	110.01
402.01	114.69
402.21	53.83
402.40	98.30
402.59	152.13
402.78	72.56
402.97	74.90
403.17	65.54
403.36	140.43
403.55	98.30
403.74	126.39
403.93	241.08
404.13	140.43
404.32	135.75
404.51	79.58
404.70	95.96
404.89	72.56
405.09	84.26
405.28	88.94
405.47	0.00
405.66	119.37
405.85	124.05
406.05	145.11
406.24	72.56
406.43	81.92
406.62	67.88
406.81	163.84
407.00	131.07
407.20	131.07
407.39	133.41
407.58	117.03
407.77	126.39
407.96	110.01
408.15	95.96
408.34	100.64
408.54	138.09
408.73	159.16
408.92	114.69
409.11	23.41
409.30	124.05
409.49	39.79
409.68	65.54
409.87	32.77
410.07	72.56
410.26	56.17
410.45	149.79
410.64	88.94
410.83	91.28
411.02	107.66
411.21	131.07
411.40	121.71
411.59	126.39
411.78	60.85
411.98	88.94
412.17	51.49
412.36	126.39
412.55	131.07
412.74	145.11
412.93	98.30
413.12	32.77
413.31	201.29
413.50	30.43
413.69	81.92
413.88	93.62
414.07	126.39
414.26	133.41
414.45	133.41
414.64	81.92
414.83	81.92
415.02	168.52
415.22	105.32
415.41	170.86
415.60	189.58
415.79	102.98
415.98	154.48
416.17	114.69
416.36	140.43
416.55	138.09
416.74	133.41
416.93	135.75
417.12	110.01
417.31	93.62
417.50	114.69
417.69	145.11
417.88	166.18
418.07	138.09
418.26	128.73
418.45	124.05
418.64	145.11
418.83	166.18
419.02	166.18
419.21	65.54
419.39	131.07
419.58	110.01
419.77	145.11
419.96	145.11
420.15	168.52
420.34	53.83
420.53	100.64
420.72	152.13
420.91	180.22
421.10	124.05
421.29	93.62
421.48	102.98
421.67	212.99
421.86	79.58
422.05	121.71
422.24	60.85
422.43	142.77
422.61	91.28
422.80	112.35
422.99	138.09
423.18	77.24
423.37	210.65
423.56	142.77
423.75	93.62
423.94	110.01
424.13	107.66
424.32	107.66
424.50	149.79
424.69	63.19
424.88	128.73
425.07	114.69
425.26	177.88
425.45	184.90
425.64	196.60
425.83	231.71
426.01	189.58
426.20	70.22
426.39	112.35
426.58	79.58
426.77	91.28
426.96	117.03
427.15	217.67
427.33	149.79
427.52	100.64
427.71	72.56
427.90	93.62
428.09	145.11
428.28	112.35
428.46	126.39
428.65	124.05
428.84	124.05
429.03	145.11
429.22	159.16
429.40	110.01
429.59	112.35
429.78	203.63
429.97	74.90
430.16	145.11
430.34	56.17
430.53	114.69
430.72	124.05
430.91	119.37
431.10	37.45
431.28	110.01
431.47	149.79
431.66	149.79
431.85	105.32
432.03	187.24
432.22	170.86
432.41	114.69
432.60	163.84
432.79	234.05
432.97	257.46
433.16	264.48
433.35	210.65
433.54	163.84
433.72	131.07
433.91	177.88
434.10	248.10
434.28	191.92
434.47	180.22
434.66	220.01
434.85	81.92
435.03	170.86
435.22	212.99
435.41	180.22
435.59	131.07
435.78	107.66
435.97	140.43
436.16	210.65
436.34	131.07
436.53	133.41
436.72	133.41
436.90	133.41
437.09	67.88
437.28	154.48
437.46	156.82
437.65	105.32
437.84	93.62
438.02	166.18
438.21	91.28
438.40	63.19
438.58	180.22
438.77	175.54
438.96	93.62
439.14	166.18
439.33	175.54
439.52	46.81
439.70	117.03
439.89	117.03
440.08	159.16
440.26	138.09
440.45	187.24
440.63	140.43
440.82	161.50
441.01	140.43
441.19	100.64
441.38	187.24
441.57	112.35
441.75	135.75
441.94	131.07
442.12	168.52
442.31	56.17
442.50	95.96
442.68	194.26
442.87	152.13
443.05	128.73
443.24	98.30
443.43	182.56
443.61	145.11
443.80	79.58
443.98	140.43
444.17	124.05
444.35	184.90
444.54	173.20
444.73	124.05
444.91	105.32
445.10	180.22
445.28	121.71
445.47	98.30
445.65	119.37
445.84	100.64
446.02	140.43
446.21	194.26
446.39	84.26
446.58	145.11
446.77	131.07
446.95	149.79
447.14	159.16
447.32	91.28
447.51	102.98
447.69	140.43
447.88	163.84
448.06	131.07
448.25	175.54
448.43	152.13
448.62	86.60
448.80	79.58
448.99	184.90
449.17	131.07
449.36	112.35
449.54	112.35
449.73	133.41
449.91	220.01
450.10	121.71
450.28	191.92
450.46	166.18
450.65	168.52
450.83	124.05
451.02	145.11
451.20	128.73
451.39	182.56
451.57	124.05
451.76	175.54
451.94	187.24
452.13	135.75
452.31	138.09
452.49	133.41
452.68	147.45
452.86	177.88
453.05	152.13
453.23	166.18
453.42	149.79
453.60	191.92
453.78	149.79
453.97	147.45
454.15	131.07
454.34	149.79
454.52	149.79
454.70	184.90
454.89	194.26
455.07	138.09
455.26	163.84
455.44	156.82
455.62	142.77
455.81	156.82
455.99	131.07
456.17	170.86
456.36	133.41
456.54	168.52
456.73	173.20
456.91	30.43
457.09	138.09
457.28	156.82
457.46	70.22
457.64	163.84
457.83	124.05
458.01	196.60
458.19	138.09
458.38	98.30
458.56	117.03
458.74	175.54
458.93	212.99
459.11	81.92
459.29	117.03
459.48	88.94
459.66	234.05
459.84	154.48
460.03	177.88
460.21	37.45
460.39	142.77
460.57	210.65
460.76	105.32
460.94	95.96
461.12	184.90
461.31	217.67
461.49	145.11
461.67	142.77
461.85	100.64
462.04	149.79
462.22	603.86
462.40	154.48
462.59	198.95
462.77	124.05
462.95	37.45
463.13	159.16
463.32	245.76
463.50	142.77
463.68	133.41
463.86	156.82
464.05	88.94
464.23	131.07
464.41	128.73
464.59	124.05
464.78	119.37
464.96	100.64
465.14	152.13
465.32	180.22
465.50	114.69
465.69	208.31
465.87	114.69
466.05	138.09
466.23	121.71
466.41	156.82
466.60	131.07
466.78	170.86
466.96	138.09
467.14	147.45
467.32	170.86
467.51	201.29
467.69	147.45
467.87	161.50
468.05	121.71
468.23	231.71
468.41	126.39
468.60	100.64
468.78	152.13
468.96	168.52
469.14	177.88
469.32	102.98
469.50	180.22
469.69	187.24
469.87	161.50
470.05	156.82
470.23	126.39
470.41	46.81
470.59	168.52
470.77	173.20
470.95	140.43
471.14	180.22
471.32	182.56
471.50	163.84
471.68	119.37
471.86	187.24
472.04	126.39
472.22	189.58
472.40	100.64
472.58	196.60
472.77	117.03
472.95	110.01
473.13	173.20
473.31	215.33
473.49	161.50
473.67	149.79
473.85	128.73
474.03	163.84
474.21	131.07
474.39	156.82
474.57	182.56
474.75	152.13
474.93	131.07
475.12	112.35
475.30	126.39
475.48	184.90
475.66	189.58
475.84	194.26
476.02	191.92
476.20	159.16
476.38	124.05
476.56	234.05
476.74	131.07
476.92	159.16
477.10	107.66
477.28	184.90
477.46	168.52
477.64	145.11
477.82	105.32
478.00	74.90
478.18	166.18
478.36	145.11
478.54	163.84
478.72	149.79
478.90	170.86
479.08	215.33
479.26	95.96
479.44	124.05
479.62	128.73
479.80	124.05
479.98	128.73
480.16	105.32
480.34	145.11
480.52	170.86
480.70	128.73
480.88	105.32
481.06	152.13
481.24	147.45
481.41	163.84
481.59	135.75
481.77	81.92
481.95	105.32
482.13	243.42
482.31	196.60
482.49	142.77
482.67	191.92
482.85	203.63
483.03	191.92
483.21	166.18
483.39	128.73
483.57	149.79
483.74	241.08
483.92	175.54
484.10	121.71
484.28	159.16
484.46	156.82
484.64	98.30
484.82	149.79
485.00	196.60
485.18	182.56
485.35	187.24
485.53	166.18
485.71	102.98
485.89	140.43
486.07	138.09
486.25	236.39
486.43	60.85
486.61	145.11
486.78	105.32
486.96	168.52
487.14	147.45
487.32	100.64
487.50	119.37
487.68	180.22
487.85	159.16
488.03	126.39
488.21	191.92
488.39	112.35
488.57	222.35
488.75	191.92
488.92	418.96
489.10	177.88
489.28	163.84
489.46	217.67
489.64	182.56
489.81	180.22
489.99	194.26
490.17	168.52
490.35	161.50
490.53	168.52
490.70	107.66
490.88	227.03
491.06	203.63
491.24	133.41
491.41	131.07
491.59	154.48
491.77	145.11
491.95	159.16
492.13	121.71
492.30	173.20
492.48	182.56
492.66	135.75
492.84	138.09
493.01	168.52
493.19	154.48
493.37	152.13
493.54	196.60
493.72	159.16
493.90	238.73
494.08	180.22
494.25	191.92
494.43	191.92
494.61	257.46
494.79	175.54
494.96	95.96
495.14	205.97
495.32	248.10
495.49	170.86
495.67	135.75
495.85	140.43
496.02	119.37
496.20	215.33
496.38	191.92
496.55	196.60
496.73	180.22
496.91	191.92
497.09	227.03
497.26	91.28
497.44	166.18
497.62	142.77
497.79	159.16
497.97	110.01
498.14	241.08
498.32	184.90
498.50	198.95
498.67	145.11
498.85	163.84
499.03	215.33
499.20	124.05
499.38	234.05
499.56	229.37
499.73	205.97
499.91	191.92
500.08	182.56
500.26	152.13
500.44	124.05
500.61	243.42
500.79	220.01
500.97	163.84
501.14	227.03
501.32	220.01
501.49	245.76
501.67	212.99
501.84	110.01
502.02	142.77
502.20	245.76
502.37	222.35
502.55	227.03
502.72	203.63
502.90	210.65
503.07	189.58
503.25	262.14
503.43	248.10
503.60	227.03
503.78	191.92
503.95	198.95
504.13	175.54
504.30	248.10
504.48	229.37
504.65	222.35
504.83	250.44
505.01	149.79
505.18	229.37
505.36	184.90
505.53	187.24
505.71	168.52
505.88	208.31
506.06	189.58
506.23	191.92
506.41	189.58
506.58	189.58
506.76	234.05
506.93	149.79
507.11	224.69
507.28	149.79
507.46	187.24
507.63	98.30
507.81	187.24
507.98	241.08
508.16	177.88
508.33	241.08
508.50	194.26
508.68	161.50
508.85	208.31
509.03	212.99
509.20	276.18
509.38	224.69
509.55	194.26
509.73	212.99
509.90	147.45
510.08	217.67
510.25	180.22
510.42	231.71
510.60	201.29
510.77	297.25
510.95	180.22
511.12	205.97
511.30	266.82
511.47	191.92
511.64	264.48
511.82	248.10
511.99	182.56
512.17	168.52
512.34	255.12
512.51	131.07
512.69	140.43
512.86	173.20
513.04	205.97
513.21	187.24
513.38	168.52
513.56	159.16
513.73	138.09
513.90	166.18
514.08	152.13
514.25	341.72
514.43	175.54
514.60	180.22
514.77	208.31
514.95	241.08
515.12	208.31
515.29	191.92
515.47	287.89
515.64	245.76
515.81	135.75
515.99	161.50
516.16	210.65
516.33	168.52
516.51	234.05
516.68	63.19
516.85	203.63
517.03	124.05
517.20	152.13
517.37	175.54
517.54	264.48
517.72	156.82
517.89	231.71
518.06	177.88
518.24	238.73
518.41	262.14
518.58	187.24
518.75	224.69
518.93	248.10
519.10	234.05
519.27	166.18
519.45	135.75
519.62	152.13
519.79	222.35
519.96	191.92
520.14	184.90
520.31	220.01
520.48	299.59
520.65	252.78
520.83	203.63
521.00	161.50
521.17	229.37
521.34	248.10
521.52	145.11
521.69	224.69
521.86	163.84
522.03	252.78
522.20	273.84
522.38	255.12
522.55	210.65
522.72	147.45
522.89	170.86
523.07	168.52
523.24	236.39
523.41	147.45
523.58	184.90
523.75	224.69
523.92	133.41
524.10	166.18
524.27	196.60
524.44	203.63
524.61	210.65
524.78	138.09
524.96	236.39
525.13	259.80
525.30	227.03
525.47	245.76
525.64	208.31
525.81	238.73
525.98	152.13
526.16	168.52
526.33	180.22
526.50	152.13
526.67	196.60
526.84	187.24
527.01	196.60
527.18	250.44
527.36	259.80
527.53	86.60
527.70	131.07
527.87	170.86
528.04	184.90
528.21	184.90
528.38	255.12
528.55	187.24
528.72	205.97
528.89	297.25
529.07	198.95
529.24	194.26
529.41	229.37
529.58	161.50
529.75	159.16
529.92	238.73
530.09	210.65
530.26	180.22
530.43	208.31
530.60	280.86
530.77	231.71
530.94	201.29
531.11	252.78
531.28	166.18
531.46	194.26
531.63	255.12
531.80	201.29
531.97	180.22
532.14	262.14
532.31	191.92
532.48	290.23
532.65	322.99
532.82	383.85
532.99	308.95
533.16	262.14
533.33	231.71
533.50	334.70
533.67	273.84
533.84	379.17
534.01	493.85
534.18	318.31
534.35	318.31
534.52	285.55
534.69	287.89
534.86	145.11
535.03	257.46
535.20	220.01
535.37	301.93
535.54	264.48
535.71	234.05
535.88	229.37
536.05	229.37
536.22	227.03
536.38	189.58
536.55	248.10
536.72	299.59
536.89	201.29
537.06	107.66
537.23	229.37
537.40	241.08
537.57	180.22
537.74	215.33
537.91	227.03
538.08	208.31
538.25	264.48
538.42	236.39
538.59	189.58
538.75	224.69
538.92	241.08
539.09	205.97
539.26	234.05
539.43	463.43
539.60	1160.91
539.77	1856.04
539.94	1907.54
540.11	1261.55
540.28	791.10
540.44	531.30
540.61	306.61
540.78	245.76
540.95	124.05
541.12	262.14
541.29	210.65
541.46	297.25
541.62	236.39
541.79	198.95
541.96	203.63
542.13	159.16
542.30	154.48
542.47	262.14
542.63	220.01
542.80	196.60
542.97	259.80
543.14	177.88
543.31	208.31
543.48	224.69
543.64	273.84
543.81	271.50
543.98	220.01
544.15	149.79
544.32	229.37
544.48	245.76
544.65	203.63
544.82	163.84
544.99	184.90
545.16	201.29
545.32	217.67
545.49	224.69
545.66	135.75
545.83	236.39
546.00	180.22
546.16	220.01
546.33	234.05
546.50	191.92
546.67	248.10
546.83	173.20
547.00	250.44
547.17	217.67
547.34	189.58
547.50	315.97
547.67	266.82
547.84	140.43
548.00	187.24
548.17	149.79
548.34	180.22
548.51	241.08
548.67	220.01
548.84	269.16
549.01	142.77
549.18	252.78
549.34	187.24
549.51	173.20
549.68	245.76
549.84	163.84
550.01	191.92
550.18	252.78
550.34	280.86
550.51	198.95
550.68	212.99
550.84	156.82
551.01	117.03
551.18	182.56
551.34	163.84
551.51	156.82
551.68	201.29
551.84	229.37
552.01	198.95
552.18	210.65
552.34	184.90
552.51	159.16
552.68	187.24
552.84	198.95
553.01	262.14
553.18	248.10
553.34	154.48
553.51	205.97
553.67	210.65
553.84	180.22
554.01	210.65
554.17	191.92
554.34	243.42
554.51	184.90
554.67	313.63
554.84	182.56
555.00	191.92
555.17	224.69
555.33	170.86
555.50	278.52
555.67	294.91
555.83	205.97
556.00	189.58
556.16	330.02
556.33	215.33
556.50	182.56
556.66	215.33
556.83	189.58
556.99	243.42
557.16	119.37
557.32	177.88
557.49	201.29
557.65	198.95
557.82	271.50
557.98	238.73
558.15	217.67
558.32	184.90
558.48	205.97
558.65	184.90
558.81	227.03
558.98	238.73
559.14	198.95
559.31	243.42
559.47	250.44
559.64	201.29
559.80	203.63
559.97	140.43
560.13	231.71
560.30	175.54
560.46	259.80
560.63	187.24
560.79	177.88
560.96	138.09
561.12	166.18
561.29	182.56
561.45	152.13
561.61	194.26
561.78	271.50
561.94	201.29
562.11	159.16
562.27	208.31
562.44	180.22
562.60	205.97
562.77	196.60
562.93	285.55
563.10	224.69
563.26	217.67
563.42	182.56
563.59	194.26
563.75	154.48
563.92	227.03
564.08	266.82
564.24	175.54
564.41	304.27
564.57	182.56
564.74	107.66
564.90	147.45
565.07	264.48
565.23	299.59
565.39	280.86
565.56	264.48
565.72	224.69
565.88	227.03
566.05	149.79
566.21	159.16
566.38	201.29
566.54	166.18
566.70	140.43
566.87	224.69
567.03	236.39
567.19	105.32
567.36	154.48
567.52	224.69
567.68	224.69
567.85	220.01
568.01	173.20
568.17	135.75
568.34	224.69
568.50	196.60
568.66	128.73
568.83	262.14
568.99	229.37
569.15	170.86
569.32	208.31
569.48	215.33
569.64	189.58
569.81	212.99
569.97	166.18
570.13	184.90
570.30	250.44
570.46	177.88
570.62	248.10
570.78	234.05
570.95	187.24
571.11	269.16
571.27	241.08
571.43	175.54
571.60	283.20
571.76	215.33
571.92	180.22
572.09	220.01
572.25	245.76
572.41	203.63
572.57	175.54
572.74	280.86
572.90	166.18
573.06	187.24
573.22	175.54
573.38	191.92
573.55	227.03
573.71	234.05
573.87	170.86
574.03	266.82
574.20	163.84
574.36	322.99
574.52	330.02
574.68	294.91
574.84	278.52
575.01	189.58
575.17	269.16
575.33	173.20
575.49	313.63
575.65	236.39
575.82	294.91
575.98	608.54
576.14	767.70
576.30	861.32
576.46	653.01
576.62	447.04
576.79	341.72
576.95	294.91
577.11	255.12
577.27	241.08
577.43	252.78
577.59	241.08
577.75	330.02
577.92	273.84
578.08	238.73
578.24	280.86
578.40	301.93
578.56	351.08
578.72	318.31
578.88	210.65
579.04	306.61
579.21	325.33
579.37	187.24
579.53	217.67
579.69	278.52
579.85	308.95
580.01	353.42
580.17	346.40
580.33	299.59
580.49	341.72
580.65	379.17
580.82	330.02
580.98	299.59
581.14	285.55
581.30	379.17
581.46	573.43
581.62	662.37
581.78	592.16
581.94	631.94
582.10	500.87
582.26	482.15
582.42	418.96
582.58	440.02
582.74	407.25
582.90	414.27
583.06	498.53
583.22	517.26
583.38	505.56
583.54	615.56
583.70	606.20
583.86	793.44
584.02	847.27
584.18	1055.58
584.34	1441.77
584.50	3597.40
584.66	27503.64
584.82	61015.43
584.98	65535.00
585.14	65535.00
585.30	61951.64
585.46	38239.67
585.62	23398.34
585.78	10621.35
585.94	4107.64
586.10	1952.01
586.26	1165.59
586.42	992.39
586.58	816.85
586.74	741.95
586.90	683.44
587.06	634.29
587.22	589.82
587.38	631.94
587.54	1266.23
587.70	4112.32
587.86	7260.34
588.02	8386.14
588.18	5722.61
588.34	3758.90
588.49	2375.64
588.65	1355.17
588.81	655.35
588.97	463.43
589.13	313.63
589.29	311.29
589.45	337.04
589.61	320.65
589.77	358.10
589.93	409.59
590.08	526.62
590.24	484.49
590.40	461.09
590.56	444.70
590.72	353.42
590.88	327.68
591.04	437.68
591.20	344.06
591.35	353.42
591.51	351.08
591.67	306.61
591.83	259.80
591.99	315.97
592.15	301.93
592.31	250.44
592.46	285.55
592.62	285.55
592.78	318.31
592.94	259.80
593.10	259.80
593.26	308.95
593.41	304.27
593.57	388.53
593.73	617.90
593.89	3283.77
594.05	8748.92
594.20	14452.81
594.36	14001.08
594.52	9055.53
594.68	5703.89
594.84	3630.17
594.99	1860.73
595.15	880.04
595.31	528.96
595.47	367.46
595.62	367.46
595.78	266.82
595.94	374.49
596.10	339.38
596.25	322.99
596.41	332.36
596.57	297.25
596.73	273.84
596.88	550.03
597.04	1610.29
597.20	2768.85
597.36	3487.40
597.51	2586.29
597.67	1729.66
597.83	1158.57
597.99	847.27
598.14	465.77
598.30	421.30
598.46	360.44
598.61	287.89
598.77	365.12
598.93	407.25
599.09	311.29
599.24	248.10
599.40	243.42
599.56	205.97
599.71	231.71
599.87	205.97
600.03	205.97
600.18	234.05
600.34	220.01
600.50	170.86
600.65	287.89
600.81	210.65
600.97	201.29
601.12	145.11
601.28	346.40
601.44	269.16
601.59	250.44
601.75	308.95
601.91	156.82
602.06	212.99
602.22	348.74
602.37	758.33
602.53	2038.61
602.69	3309.52
602.84	3611.45
603.00	2672.89
603.16	1689.87
603.31	1245.16
603.47	716.20
603.62	437.68
603.78	280.86
603.94	334.70
604.09	229.37
604.25	259.80
604.40	280.86
604.56	250.44
604.71	217.67
604.87	243.42
605.03	236.39
605.18	259.80
605.34	313.63
605.49	266.82
605.65	280.86
605.80	304.27
605.96	313.63
606.12	330.02
606.27	339.38
606.43	402.57
606.58	421.30
606.74	908.13
606.89	4016.36
607.05	8720.84
607.20	12250.36
607.36	10270.27
607.51	6644.78
607.67	4229.35
607.82	2825.03
607.98	1631.35
608.13	755.99
608.29	505.56
608.44	444.70
608.60	451.72
608.75	507.90
608.91	1259.21
609.06	6157.95
609.22	14876.44
609.37	21483.78
609.53	18789.82
609.68	12390.80
609.84	7749.51
609.99	5151.52
610.15	2661.19
610.30	1303.68
610.46	636.63
610.61	491.51
610.76	379.17
610.92	353.42
611.07	337.04
611.23	388.53
611.38	355.76
611.54	372.15
611.69	283.20
