SpectraSuite Data File
++++++++++++++++++++++++++++++++++++
Date: Fri Oct 04 11:48:30 GMT-05:00 2013
User: price-jones
Dark Spectrum Present: No
Reference Spectrum Present: No
Number of Sampled Component Spectra: 1
Spectrometers: USB2+H05261
Integration Time (usec): 100000 (USB2+H05261)
Spectra Averaged: 1 (USB2+H05261)
Boxcar Smoothing: 0 (USB2+H05261)
Correct for Electrical Dark: No (USB2+H05261)
Strobe/Lamp Enabled: No (USB2+H05261)
Correct for Detector Non-linearity: No (USB2+H05261)
Correct for Stray Light: No (USB2+H05261)
Number of Pixels in Processed Spectrum: 2048
>>>>>Begin Processed Spectral Data<<<<<
365.73	63.19
365.92	63.19
366.12	63.19
366.32	0.00
366.52	0.00
366.72	0.00
366.91	0.00
367.11	0.00
367.31	0.00
367.51	0.00
367.70	0.00
367.90	0.00
368.10	0.00
368.30	0.00
368.49	0.00
368.69	0.00
368.89	0.00
369.09	0.00
369.28	0.00
369.48	0.00
369.68	0.00
369.87	4.68
370.07	0.00
370.27	0.00
370.47	110.01
370.66	383.85
370.86	477.47
371.06	489.17
371.25	484.49
371.45	437.68
371.65	425.98
371.84	416.62
372.04	437.68
372.24	517.26
372.44	540.66
372.63	552.37
372.83	622.58
373.03	580.45
373.22	571.09
373.42	547.69
373.62	671.73
373.81	671.73
374.01	585.13
374.21	613.22
374.40	566.41
374.60	727.91
374.79	645.99
374.99	620.24
375.19	566.41
375.38	711.52
375.58	667.05
375.78	660.03
375.97	709.18
376.17	706.84
376.37	645.99
376.56	690.46
376.76	603.86
376.95	688.12
377.15	688.12
377.35	737.27
377.54	770.04
377.74	730.25
377.93	725.57
378.13	760.67
378.33	805.14
378.52	816.85
378.72	793.44
378.91	664.71
379.11	774.72
379.31	779.40
379.50	737.27
379.70	758.33
379.89	816.85
380.09	781.74
380.28	793.44
380.48	866.00
380.68	711.52
380.87	774.72
381.07	816.85
381.26	891.74
381.46	854.30
381.65	849.61
381.85	837.91
382.04	908.13
382.24	844.93
382.43	877.70
382.63	837.91
382.83	924.51
383.02	901.11
383.22	959.62
383.41	926.85
383.61	968.98
383.80	957.28
384.00	903.45
384.19	1004.09
384.39	1071.97
384.58	1118.78
384.78	976.00
384.97	1050.90
385.17	917.49
385.36	1057.92
385.56	968.98
385.75	1039.20
385.95	992.39
386.14	1032.18
386.34	1013.45
386.53	1139.84
386.72	961.96
386.92	1081.33
387.11	1167.93
387.31	1128.14
387.50	1116.44
387.70	1095.37
387.89	1135.16
388.09	1090.69
388.28	1090.69
388.48	1111.75
388.67	1153.88
388.86	1153.88
389.06	1142.18
389.25	1226.44
389.45	1139.84
389.64	1235.80
389.84	1252.19
390.03	1149.20
390.22	1238.14
390.42	1132.82
390.61	1268.57
390.81	1226.44
391.00	1303.68
391.19	1329.42
391.39	1313.04
391.58	1261.55
391.78	1301.34
391.97	1355.17
392.16	1437.09
392.36	1409.00
392.55	1362.19
392.75	1425.39
392.94	1322.40
393.13	1430.07
393.33	1366.87
393.52	1425.39
393.71	1425.39
393.91	1430.07
394.10	1409.00
394.29	1401.98
394.49	1392.62
394.68	1469.86
394.88	1413.68
395.07	1511.99
395.26	1467.52
395.46	1589.22
395.65	1582.20
395.84	1523.69
396.04	1682.85
396.23	1570.50
396.42	1621.99
396.62	1657.10
396.81	1664.12
397.00	1537.73
397.19	1600.93
397.39	1666.46
397.58	1685.19
397.77	1692.21
397.97	1633.69
398.16	1638.38
398.35	1678.16
398.55	1703.91
398.74	1795.19
398.93	1739.02
399.12	1797.53
399.32	1767.10
399.51	1732.00
399.70	1905.20
399.90	1870.09
400.09	1902.86
400.28	2003.50
400.47	1926.26
400.67	1956.69
400.86	1816.26
401.05	1907.54
401.24	2099.46
401.44	1991.80
401.63	2043.29
401.82	2017.54
402.01	1973.07
402.21	2003.50
402.40	2092.44
402.59	2024.56
402.78	2104.14
402.97	2078.40
403.17	2115.84
403.36	2150.95
403.55	2099.46
403.74	2165.00
403.93	2312.45
404.13	2148.61
404.32	2169.68
404.51	2218.83
404.70	2307.77
404.89	2228.19
405.09	2342.88
405.28	2312.45
405.47	2361.60
405.66	2366.28
405.85	2335.85
406.05	2319.47
406.24	2377.98
406.43	2408.41
406.62	2509.05
406.81	2605.02
407.00	2438.84
407.20	2518.42
407.39	2506.71
407.58	2574.59
407.77	2513.74
407.96	2628.42
408.15	2642.46
408.34	2665.87
408.54	2726.72
408.73	2684.59
408.92	2745.45
409.11	2754.81
409.30	2834.39
409.49	2750.13
409.68	2810.98
409.87	2836.73
410.07	2717.36
410.26	2841.41
410.45	2899.92
410.64	2818.00
410.83	2960.78
411.02	3056.74
411.21	2942.05
411.40	3084.83
411.59	3089.51
411.78	3033.33
411.98	2972.48
412.17	3176.11
412.36	3173.77
412.55	3290.79
412.74	3293.13
412.93	3251.00
413.12	3194.83
413.31	3417.18
413.50	3328.24
413.69	3330.58
413.88	3435.91
414.07	3482.72
414.26	3559.95
414.45	3349.31
414.64	3665.28
414.83	3454.63
415.02	3728.47
415.22	3754.22
415.41	3667.62
415.60	3691.02
415.79	3700.39
415.98	3796.35
416.17	3705.07
416.36	3786.99
416.55	3796.35
416.74	3899.33
416.93	3847.84
417.12	3971.89
417.31	3964.87
417.50	4051.47
417.69	4262.12
417.88	4219.99
418.07	4095.94
418.26	4077.21
418.45	4224.67
418.64	4266.80
418.83	4117.00
419.02	4332.33
419.21	4339.35
419.39	4379.14
419.58	4273.82
419.77	4304.25
419.96	4252.75
420.15	4362.76
420.34	4440.00
420.53	4332.33
420.72	4578.09
420.91	4615.54
421.10	4596.81
421.29	4660.01
421.48	4507.87
421.67	4596.81
421.86	4678.73
422.05	4702.14
422.24	4793.42
422.43	4526.60
422.61	4697.46
422.80	4788.74
422.99	4737.24
423.18	4720.86
423.37	4676.39
423.56	4652.98
423.75	4660.01
423.94	4596.81
424.13	4379.14
424.32	4631.92
424.50	4765.33
424.69	4765.33
424.88	4681.07
425.07	4777.03
425.26	4861.29
425.45	4711.50
425.64	4746.61
425.83	4748.95
426.01	4933.85
426.20	4861.29
426.39	5013.43
426.58	4873.00
426.77	4877.68
426.96	5041.51
427.15	4898.74
427.33	4901.08
427.52	4875.34
427.71	5015.77
427.90	5128.11
428.09	5177.26
428.28	5107.05
428.46	5130.45
428.65	5071.94
428.84	5266.21
429.03	5270.89
429.22	5149.18
429.40	5364.51
429.59	5385.57
429.78	5050.88
429.97	5186.63
430.16	5121.09
430.34	5224.08
430.53	5465.15
430.72	5308.34
430.91	5282.59
431.10	5502.60
431.28	5554.09
431.47	5579.84
431.66	5596.22
431.85	5476.85
432.03	5668.78
432.22	5795.17
432.41	5621.97
432.60	5792.83
432.79	5748.36
432.97	5769.42
433.16	5678.14
433.35	5891.13
433.54	5898.15
433.72	5959.00
433.91	5933.26
434.10	5970.71
434.28	5895.81
434.47	5881.77
434.66	6071.35
434.85	6052.63
435.03	6066.67
435.22	6162.63
435.41	6160.29
435.59	6033.90
435.78	6176.67
435.97	6356.90
436.16	6312.42
436.34	6202.42
436.53	6291.36
436.72	6387.32
436.90	6223.48
437.09	6200.08
437.28	6331.15
437.46	6408.39
437.65	6403.71
437.84	6677.55
438.02	6527.75
438.21	6597.97
438.40	6401.37
438.58	6679.89
438.77	6869.47
438.96	6642.44
439.14	6960.75
439.33	6841.39
439.52	7016.93
439.70	6949.05
439.89	6946.71
440.08	7232.26
440.26	7087.14
440.45	7012.24
440.63	7316.51
440.82	7419.50
441.01	7218.21
441.19	7391.41
441.38	7536.52
441.57	7496.74
441.75	7667.60
441.94	7786.96
442.12	7737.81
442.31	7875.90
442.50	7906.33
442.68	7824.41
442.87	7857.18
443.05	7868.88
443.24	7999.95
443.43	8114.64
443.61	7964.84
443.80	8135.70
443.98	7765.90
444.17	7700.36
444.35	8035.06
444.54	8184.85
444.73	8107.62
444.91	8142.72
445.10	8133.36
445.28	8109.96
445.47	7871.22
445.65	8287.84
445.84	8280.82
446.02	8266.77
446.21	8177.83
446.39	8079.53
446.58	7964.84
446.77	8470.40
446.95	8266.77
447.14	8269.11
447.32	8191.88
447.51	8334.65
447.69	8386.14
447.88	8290.18
448.06	8339.33
448.25	8346.35
448.43	8461.04
448.62	8383.80
448.80	8381.46
448.99	8461.04
449.17	8444.65
449.36	8521.89
449.54	8671.68
449.73	8741.90
449.91	8706.79
450.10	8772.33
450.28	8863.61
450.46	8723.18
450.65	8718.50
450.83	8819.14
451.02	8882.33
451.20	8865.95
451.39	8973.61
451.57	8877.65
451.76	8980.64
451.94	8968.93
452.13	9116.39
452.31	8959.57
452.49	9121.07
452.68	9064.89
452.86	9170.22
453.05	9125.75
453.23	9348.10
453.42	9191.28
453.60	9057.87
453.78	9160.86
453.97	9125.75
454.15	9317.67
454.34	9291.93
454.52	9462.79
454.70	9394.91
454.89	9453.42
455.07	9654.71
455.26	9533.00
455.44	9610.24
455.62	9462.79
455.81	9556.41
455.99	9603.22
456.17	9593.86
456.36	9790.46
456.54	10085.37
456.73	10024.51
456.91	10204.74
457.09	9973.02
457.28	10406.02
457.46	10111.11
457.64	10104.09
457.83	10263.25
458.01	9905.15
458.19	10312.40
458.38	10209.42
458.56	10509.01
458.74	10457.51
458.93	10457.51
459.11	10494.96
459.29	10469.22
459.48	10626.03
459.66	10597.95
459.84	10590.92
460.03	10771.15
460.21	10726.68
460.39	10506.66
460.57	10586.24
460.76	10736.04
460.94	10817.96
461.12	11035.63
461.31	11040.31
461.49	11061.37
461.67	10637.73
461.85	11255.64
462.04	11000.52
462.22	11686.29
462.40	11353.94
462.59	11187.76
462.77	11225.21
462.95	11225.21
463.13	11389.05
463.32	11262.66
463.50	11281.38
463.68	11510.75
463.86	11548.20
464.05	11424.15
464.23	11590.33
464.41	11513.10
464.59	11424.15
464.78	11723.74
464.96	11819.71
465.14	11665.23
465.32	11779.92
465.50	12009.29
465.69	11831.41
465.87	11719.06
466.05	11824.39
466.23	12116.95
466.41	11985.88
466.60	12423.56
466.78	11789.28
466.96	11988.22
467.14	11918.01
467.32	12189.51
467.51	12437.61
467.69	11845.45
467.87	12095.89
468.05	12503.14
468.23	12109.93
468.41	12072.48
468.60	12458.67
468.78	12477.40
468.96	12255.04
469.14	12453.99
469.32	12744.22
469.50	12243.34
469.69	12671.66
469.87	12950.18
470.05	12938.48
470.23	13046.15
470.41	12814.43
470.59	13048.49
470.77	12851.88
470.95	13013.38
471.14	13242.75
471.32	13060.19
471.50	13439.36
471.68	13406.59
471.86	13619.58
472.04	13312.97
472.22	13535.32
472.40	13479.15
472.58	13745.97
472.77	13673.41
472.95	13921.51
473.13	14218.75
473.31	13605.53
473.49	13949.59
473.67	13792.78
473.85	14129.81
474.03	14457.49
474.21	14422.38
474.39	14532.39
474.57	14471.53
474.75	14654.09
474.93	14792.19
475.12	14731.33
475.30	14736.01
475.48	14752.40
475.66	14923.26
475.84	14974.75
476.02	15227.53
476.20	15206.46
476.38	15515.41
476.56	15492.01
476.74	15793.94
476.92	15449.88
477.10	15648.82
477.28	16257.36
477.46	16042.03
477.64	16184.80
477.82	16196.51
478.00	16507.80
478.18	16325.24
478.36	16699.72
478.54	16776.96
478.72	17226.34
478.90	17158.47
479.08	17263.79
479.26	17338.69
479.44	17619.55
479.62	17715.51
479.80	17612.53
479.98	17647.64
480.16	18274.90
480.34	18185.96
480.52	18298.31
480.70	18452.78
480.88	18377.89
481.06	18422.36
481.24	18490.23
481.41	18794.50
481.59	19309.42
481.77	19536.45
481.95	19000.47
482.13	19318.78
482.31	19522.41
482.49	19964.77
482.67	19836.04
482.85	20025.62
483.03	20315.85
483.21	20610.76
483.39	20505.43
483.57	20716.08
483.74	21020.35
483.92	20877.58
484.10	20779.28
484.28	21341.00
484.46	21895.71
484.64	22022.10
484.82	21888.69
485.00	21848.90
485.18	22555.74
485.35	22707.88
485.53	22752.35
485.71	22682.13
485.89	23304.71
486.07	22787.46
486.25	23295.35
486.43	23232.16
486.61	23585.58
486.78	23852.40
486.96	23910.91
487.14	24374.34
487.32	24067.73
487.50	24587.33
487.68	24844.79
487.85	25340.98
488.03	25008.62
488.21	25497.80
488.39	25628.87
488.57	25961.22
488.75	25984.63
488.92	26391.88
489.10	26452.73
489.28	26607.21
489.46	27063.61
489.64	26607.21
489.81	27072.98
489.99	27417.04
490.17	27477.89
490.35	28137.92
490.53	27828.97
490.70	28318.14
490.88	28041.96
491.06	28601.35
491.24	28489.00
491.41	28898.59
491.59	29006.26
491.77	29364.36
491.95	29502.45
492.13	29504.79
492.30	29483.73
492.48	29706.08
492.66	29666.29
492.84	30040.78
493.01	30543.99
493.19	30319.30
493.37	30988.69
493.54	30782.73
493.72	31166.57
493.90	31101.04
494.08	31325.73
494.25	32072.36
494.43	31807.88
494.61	32009.17
494.79	32385.99
494.96	32051.30
495.14	32325.14
495.32	32730.05
495.49	33010.92
495.67	33015.60
495.85	33242.63
496.02	33692.01
496.20	33570.30
496.38	33949.47
496.55	33923.72
496.73	34602.48
496.91	34323.96
497.09	34682.06
497.26	34731.21
497.44	34611.84
497.62	34670.36
497.79	35026.12
497.97	35351.45
498.14	35674.45
498.32	36034.89
498.50	35854.67
498.67	36130.85
498.85	36350.86
499.03	36325.11
499.20	36442.14
499.38	36989.83
499.56	36935.99
499.73	37017.91
499.91	37212.18
500.08	37221.54
500.26	36996.85
500.44	37486.02
500.61	37680.28
500.79	37366.65
500.97	37773.91
501.14	38396.49
501.32	38256.06
501.49	38710.12
501.67	38387.13
501.84	38553.30
502.02	38675.01
502.20	38948.85
502.37	39526.97
502.55	39215.68
502.72	39138.44
502.90	39803.15
503.07	39182.91
503.25	39604.20
503.43	39480.16
503.60	39981.03
503.78	40217.43
503.95	39735.27
504.13	39779.74
504.30	40093.38
504.48	40182.32
504.65	40809.58
504.83	41280.03
505.01	41226.20
505.18	40556.80
505.36	41553.87
505.53	41111.51
505.71	41041.29
505.88	41144.28
506.06	41401.74
506.23	42197.52
506.41	41916.65
506.58	41911.97
506.76	42424.55
506.93	42057.09
507.11	42110.92
507.28	42178.79
507.46	42129.64
507.63	42887.98
507.81	43299.91
507.98	42494.77
508.16	42822.44
508.33	42939.47
508.50	43433.32
508.68	43407.58
508.85	43831.21
509.03	43618.22
509.20	43885.04
509.38	43866.32
509.55	44121.44
509.73	44425.71
509.90	44463.16
510.08	44376.56
510.25	44411.67
510.42	44304.00
510.60	44992.12
510.77	44992.12
510.95	45375.97
511.12	44683.17
511.30	44971.05
511.47	45546.82
511.64	45495.33
511.82	45804.28
511.99	45507.04
512.17	45773.86
512.34	45731.73
512.51	45848.75
512.69	46300.48
512.86	46129.62
513.04	46546.23
513.21	46707.73
513.38	46583.68
513.56	46855.18
513.73	46373.03
513.90	46777.95
514.08	47030.72
514.25	47084.56
514.43	47203.92
514.60	47379.46
514.77	47182.86
514.95	47910.77
515.12	47264.78
515.29	47105.62
515.47	47494.15
515.64	48114.39
515.81	47990.34
515.99	47908.43
516.16	48432.71
516.33	47681.39
516.51	48339.08
516.68	48109.71
516.85	48193.97
517.03	48437.39
517.20	48835.28
517.37	49020.18
517.54	48872.73
517.72	49165.29
517.89	49214.44
518.06	48477.18
518.24	49125.50
518.41	49010.82
518.58	49151.25
518.75	49130.19
518.93	49291.68
519.10	49387.64
519.27	49778.51
519.45	49670.85
519.62	49916.61
519.79	49694.25
519.96	49621.70
520.14	50337.90
520.31	50019.59
520.48	49975.12
520.65	50501.74
520.83	50110.87
521.00	50050.02
521.17	50291.09
521.34	50557.91
521.52	50707.71
521.69	50403.44
521.86	50953.46
522.03	51091.55
522.20	51143.05
522.38	50848.14
522.55	50803.67
522.72	51426.25
522.89	51374.76
523.07	51576.04
523.24	51494.13
523.41	51650.94
523.58	51248.37
523.75	51641.58
523.92	51449.66
524.10	51646.26
524.27	51667.33
524.44	51817.12
524.61	52245.44
524.78	52114.37
524.96	52055.85
525.13	51971.60
525.30	51683.71
525.47	52205.65
525.64	52044.15
525.81	52439.70
525.98	52289.91
526.16	52334.38
526.33	52521.62
526.50	52781.42
526.67	52549.71
526.84	52650.35
527.01	52797.80
527.18	52837.59
527.36	52926.53
527.53	53031.86
527.70	53448.47
527.87	53048.24
528.04	52985.05
528.21	52994.41
528.38	53095.05
528.55	53223.78
528.72	53429.75
528.89	53228.46
529.07	53464.86
529.24	53130.16
529.41	53439.11
529.58	53715.29
529.75	53284.64
529.92	53649.76
530.09	53642.74
530.26	53717.64
530.43	53757.42
530.60	53748.06
530.77	53815.94
530.94	53888.49
531.11	53607.63
531.28	53879.13
531.46	54040.63
531.63	54127.23
531.80	54122.55
531.97	54382.35
532.14	54424.48
532.31	54316.81
532.48	54286.39
532.65	54211.49
532.82	54216.17
532.99	54356.60
533.16	54614.06
533.33	54637.47
533.50	54838.75
533.67	54906.63
533.84	54525.12
534.01	54443.20
534.18	54700.66
534.35	55061.10
534.52	55058.76
534.69	55126.64
534.86	55004.93
535.03	55079.83
535.20	55033.02
535.37	54880.88
535.54	55276.43
535.71	54871.52
535.88	55056.42
536.05	55187.49
536.22	55391.12
536.38	55388.78
536.55	55564.32
536.72	55327.92
536.89	55379.42
537.06	55505.80
537.23	55498.78
537.40	55707.09
537.57	55604.11
537.74	55561.98
537.91	55861.57
538.08	56119.02
538.25	55526.87
538.42	55842.84
538.59	55873.27
538.75	55590.06
538.92	55737.52
539.09	56023.06
539.26	56168.18
539.43	56013.70
539.60	56182.22
539.77	56177.54
539.94	56287.54
540.11	56179.88
540.28	55915.40
540.44	56313.29
540.61	56332.01
540.78	56104.98
540.95	56203.28
541.12	56296.91
541.29	56715.86
541.46	56523.94
541.62	56324.99
541.79	56425.64
541.96	56217.33
542.13	56245.41
542.30	56465.42
542.47	56512.23
542.63	56472.45
542.80	56729.90
542.97	56814.16
543.14	56933.53
543.31	56828.21
543.48	56783.74
543.64	57181.63
543.81	57312.70
543.98	57146.52
544.15	57226.10
544.32	57357.17
544.48	57429.72
544.65	57371.21
544.82	57134.82
544.99	57069.28
545.16	57134.82
545.32	57013.11
545.49	57516.32
545.66	57649.74
545.83	57584.20
546.00	57591.22
546.16	57607.61
546.33	57380.57
546.50	57354.83
546.67	57474.20
546.83	57345.47
547.00	57460.15
547.17	57488.24
547.34	57633.35
547.50	57572.50
547.67	57886.13
547.84	57656.76
548.00	58003.16
548.17	58026.56
548.34	57794.85
548.51	58096.78
548.67	58082.73
548.84	58113.16
549.01	57780.81
549.18	58024.22
549.34	57944.64
549.51	58010.18
549.68	57972.73
549.84	58174.02
550.01	58152.95
550.18	58028.90
550.34	58188.06
550.51	58452.54
550.68	58312.11
550.84	58078.05
551.01	58337.85
551.18	58136.57
551.34	58138.91
551.51	58141.25
551.68	58473.60
551.84	58571.91
552.01	58284.02
552.18	58426.79
552.34	58408.07
552.51	58497.01
552.68	58557.86
552.84	58506.37
553.01	58445.52
553.18	58604.67
553.34	58628.08
553.51	58794.26
553.67	58953.41
553.84	58967.46
554.01	58925.33
554.17	58724.04
554.34	58838.73
554.51	58691.27
554.67	58857.45
554.84	58810.64
555.00	58932.35
555.17	58848.09
555.33	58993.20
555.50	58827.02
555.67	58951.07
555.83	59086.82
556.00	58918.31
556.16	59018.95
556.33	58855.11
556.50	59276.41
556.66	59086.82
556.83	58817.66
556.99	59217.89
557.16	59346.62
557.32	59236.62
557.49	59423.86
557.65	59014.27
557.82	58922.99
557.98	59341.94
558.15	59288.11
558.32	59423.86
558.48	59323.22
558.65	59384.07
558.81	59365.35
558.98	59355.99
559.14	59288.11
559.31	59451.95
559.47	59430.88
559.64	59498.76
559.80	59552.59
559.97	59543.23
560.13	59458.97
560.30	59583.02
560.46	59615.79
560.63	59604.08
560.79	59608.76
560.96	59824.09
561.12	59358.33
561.29	59707.07
561.45	59566.63
561.61	59767.92
561.78	59728.13
561.94	59833.46
562.11	59597.06
562.27	59662.60
562.44	59648.55
562.60	59629.83
562.77	59611.10
562.93	59842.82
563.10	59922.40
563.26	59849.84
563.42	60107.30
563.59	60067.51
563.75	59725.79
563.92	59894.31
564.08	59707.07
564.24	59793.67
564.41	59732.81
564.57	59821.75
564.74	59723.45
564.90	60037.08
565.07	60170.49
565.23	60023.04
565.39	59955.16
565.56	60088.57
565.72	59920.05
565.88	60053.47
566.05	59943.46
566.21	59831.11
566.38	59910.69
566.54	60055.81
566.70	60252.41
566.87	60240.71
567.03	60011.34
567.19	60437.31
567.36	60144.75
567.52	60039.42
567.68	60137.72
567.85	59983.25
568.01	60130.70
568.17	59980.91
568.34	60072.19
568.50	60303.90
568.66	60140.07
568.83	60177.51
568.99	60282.84
569.15	60114.32
569.32	60179.85
569.48	60191.56
569.64	60413.91
569.81	60278.16
569.97	60264.11
570.13	60210.28
570.30	60172.83
570.46	60301.56
570.62	60149.43
570.78	60441.99
570.95	60158.79
571.11	60198.58
571.27	60247.73
571.43	60198.58
571.60	60563.70
571.76	60423.27
571.92	60530.93
572.09	60282.84
572.25	60498.17
572.41	60210.28
572.57	60439.65
572.74	60523.91
572.90	60243.05
573.06	60350.71
573.22	60233.69
573.38	60528.59
573.55	60346.03
573.71	60676.05
573.87	60715.84
574.03	60465.40
574.20	60629.24
574.36	60156.45
574.52	60472.42
574.68	60404.55
574.84	60544.98
575.01	60573.06
575.17	60610.51
575.33	60566.04
575.49	60451.36
575.65	60559.02
575.82	60463.06
575.98	60390.50
576.14	60797.76
576.30	60720.52
576.46	60523.91
576.62	60622.22
576.79	60481.78
576.95	60481.78
577.11	60535.62
577.27	60509.87
577.43	60657.32
577.59	60411.57
577.75	60605.83
577.92	60449.02
578.08	60360.08
578.24	60760.31
578.40	60636.26
578.56	60542.64
578.72	60683.07
578.88	60828.18
579.04	60912.44
579.21	60788.39
579.37	60615.19
579.53	60727.54
579.69	60374.12
579.85	60577.75
580.01	60697.11
580.17	60610.51
580.33	60706.47
580.49	60809.46
580.65	60683.07
580.82	60837.54
580.98	60725.20
581.14	60764.99
581.30	60783.71
581.46	60514.55
581.62	60411.57
581.78	60584.77
581.94	60872.65
582.10	60685.41
582.26	60933.51
582.42	60987.34
582.58	60741.58
582.74	60973.30
582.90	60863.29
583.06	60804.78
583.22	60893.72
583.38	60762.65
583.54	60802.44
583.70	60837.54
583.86	60629.24
584.02	60622.22
584.18	60959.25
584.34	60928.83
584.50	60800.10
584.66	60877.33
584.82	60610.51
584.98	60804.78
585.14	60760.31
585.30	60523.91
585.46	60772.01
585.62	60706.47
585.78	60790.73
585.94	60704.13
586.10	60800.10
586.26	60987.34
586.42	60886.70
586.58	60994.36
586.74	60814.14
586.90	60764.99
587.06	60795.42
587.22	60804.78
587.38	60638.60
587.54	60867.97
587.70	61043.51
587.86	60851.59
588.02	61137.13
588.18	61106.71
588.34	60870.31
588.49	61006.06
588.65	60748.60
588.81	60842.23
588.97	60839.89
589.13	60966.27
