SpectraSuite Data File
++++++++++++++++++++++++++++++++++++
Date: Fri Oct 04 11:46:57 GMT-05:00 2013
User: price-jones
Dark Spectrum Present: No
Reference Spectrum Present: No
Number of Sampled Component Spectra: 1
Spectrometers: USB2+H05261
Integration Time (usec): 100000 (USB2+H05261)
Spectra Averaged: 1 (USB2+H05261)
Boxcar Smoothing: 0 (USB2+H05261)
Correct for Electrical Dark: No (USB2+H05261)
Strobe/Lamp Enabled: No (USB2+H05261)
Correct for Detector Non-linearity: No (USB2+H05261)
Correct for Stray Light: No (USB2+H05261)
Number of Pixels in Processed Spectrum: 2048
>>>>>Begin Processed Spectral Data<<<<<
365.73	28.09
365.92	28.09
366.12	28.09
366.32	0.00
366.52	0.00
366.72	0.00
366.91	0.00
367.11	0.00
367.31	0.00
367.51	0.00
367.70	0.00
367.90	0.00
368.10	0.00
368.30	0.00
368.49	0.00
368.69	0.00
368.89	0.00
369.09	0.00
369.28	0.00
369.48	0.00
369.68	0.00
369.87	11.70
370.07	0.00
370.27	0.00
370.47	0.00
370.66	56.17
370.86	2.34
371.06	56.17
371.25	18.72
371.45	58.51
371.65	88.94
371.84	56.17
372.04	60.85
372.24	102.98
372.44	39.79
372.63	114.69
372.83	138.09
373.03	119.37
373.22	28.09
373.42	140.43
373.62	35.11
373.81	67.88
374.01	23.41
374.21	117.03
374.40	112.35
374.60	145.11
374.79	98.30
374.99	100.64
375.19	140.43
375.38	0.00
375.58	67.88
375.78	159.16
375.97	93.62
376.17	161.50
376.37	86.60
376.56	81.92
376.76	56.17
376.95	95.96
377.15	184.90
377.35	98.30
377.54	124.05
377.74	107.66
377.93	163.84
378.13	79.58
378.33	124.05
378.52	37.45
378.72	100.64
378.91	124.05
379.11	149.79
379.31	88.94
379.50	14.04
379.70	170.86
379.89	67.88
380.09	30.43
380.28	51.49
380.48	84.26
380.68	112.35
380.87	161.50
381.07	60.85
381.26	51.49
381.46	124.05
381.65	74.90
381.85	98.30
382.04	88.94
382.24	147.45
382.43	105.32
382.63	63.19
382.83	79.58
383.02	102.98
383.22	42.13
383.41	114.69
383.61	170.86
383.80	102.98
384.00	126.39
384.19	124.05
384.39	88.94
384.58	121.71
384.78	91.28
384.97	100.64
385.17	67.88
385.36	23.41
385.56	121.71
385.75	102.98
385.95	152.13
386.14	100.64
386.34	88.94
386.53	32.77
386.72	63.19
386.92	126.39
387.11	138.09
387.31	70.22
387.50	110.01
387.70	42.13
387.89	138.09
388.09	39.79
388.28	42.13
388.48	77.24
388.67	128.73
388.86	112.35
389.06	65.54
389.25	124.05
389.45	126.39
389.64	70.22
389.84	72.56
390.03	16.38
390.22	119.37
390.42	126.39
390.61	70.22
390.81	74.90
391.00	35.11
391.19	149.79
391.39	124.05
391.58	81.92
391.78	124.05
391.97	74.90
392.16	58.51
392.36	110.01
392.55	93.62
392.75	81.92
392.94	65.54
393.13	142.77
393.33	11.70
393.52	30.43
393.71	88.94
393.91	51.49
394.10	131.07
394.29	102.98
394.49	152.13
394.68	124.05
394.88	173.20
395.07	102.98
395.26	58.51
395.46	159.16
395.65	114.69
395.84	84.26
396.04	269.16
396.23	0.00
396.42	114.69
396.62	98.30
396.81	72.56
397.00	107.66
397.19	184.90
397.39	105.32
397.58	124.05
397.77	58.51
397.97	51.49
398.16	126.39
398.35	63.19
398.55	81.92
398.74	112.35
398.93	119.37
399.12	46.81
399.32	163.84
399.51	117.03
399.70	161.50
399.90	189.58
400.09	86.60
400.28	56.17
400.47	93.62
400.67	79.58
400.86	88.94
401.05	65.54
401.24	117.03
401.44	121.71
401.63	81.92
401.82	149.79
402.01	110.01
402.21	18.72
402.40	145.11
402.59	51.49
402.78	147.45
402.97	51.49
403.17	88.94
403.36	70.22
403.55	77.24
403.74	74.90
403.93	107.66
404.13	191.92
404.32	63.19
404.51	88.94
404.70	175.54
404.89	117.03
405.09	173.20
405.28	121.71
405.47	67.88
405.66	79.58
405.85	145.11
406.05	28.09
406.24	107.66
406.43	147.45
406.62	163.84
406.81	222.35
407.00	86.60
407.20	98.30
407.39	91.28
407.58	119.37
407.77	170.86
407.96	121.71
408.15	140.43
408.34	126.39
408.54	105.32
408.73	81.92
408.92	37.45
409.11	74.90
409.30	105.32
409.49	124.05
409.68	128.73
409.87	135.75
410.07	91.28
410.26	79.58
410.45	65.54
410.64	121.71
410.83	142.77
411.02	79.58
411.21	145.11
411.40	131.07
411.59	138.09
411.78	121.71
411.98	91.28
412.17	95.96
412.36	63.19
412.55	119.37
412.74	175.54
412.93	180.22
413.12	135.75
413.31	126.39
413.50	105.32
413.69	98.30
413.88	180.22
414.07	128.73
414.26	93.62
414.45	88.94
414.64	88.94
414.83	152.13
415.02	184.90
415.22	152.13
415.41	166.18
415.60	138.09
415.79	91.28
415.98	117.03
416.17	77.24
416.36	131.07
416.55	182.56
416.74	119.37
416.93	149.79
417.12	119.37
417.31	112.35
417.50	88.94
417.69	184.90
417.88	173.20
418.07	138.09
418.26	128.73
418.45	95.96
418.64	264.48
418.83	215.33
419.02	168.52
419.21	222.35
419.39	196.60
419.58	259.80
419.77	184.90
419.96	222.35
420.15	205.97
420.34	119.37
420.53	93.62
420.72	39.79
420.91	154.48
421.10	126.39
421.29	58.51
421.48	119.37
421.67	152.13
421.86	102.98
422.05	145.11
422.24	70.22
422.43	114.69
422.61	72.56
422.80	98.30
422.99	168.52
423.18	100.64
423.37	175.54
423.56	121.71
423.75	140.43
423.94	149.79
424.13	72.56
424.32	51.49
424.50	142.77
424.69	112.35
424.88	177.88
425.07	95.96
425.26	133.41
425.45	271.50
425.64	241.08
425.83	156.82
426.01	168.52
426.20	168.52
426.39	205.97
426.58	142.77
426.77	126.39
426.96	182.56
427.15	128.73
427.33	147.45
427.52	161.50
427.71	91.28
427.90	93.62
428.09	91.28
428.28	84.26
428.46	131.07
428.65	95.96
428.84	166.18
429.03	159.16
429.22	58.51
429.40	81.92
429.59	124.05
429.78	175.54
429.97	67.88
430.16	124.05
430.34	142.77
430.53	138.09
430.72	42.13
430.91	135.75
431.10	100.64
431.28	210.65
431.47	140.43
431.66	107.66
431.85	149.79
432.03	131.07
432.22	177.88
432.41	98.30
432.60	224.69
432.79	138.09
432.97	215.33
433.16	222.35
433.35	224.69
433.54	201.29
433.72	180.22
433.91	142.77
434.10	166.18
434.28	168.52
434.47	205.97
434.66	133.41
434.85	156.82
435.03	138.09
435.22	131.07
435.41	215.33
435.59	114.69
435.78	168.52
435.97	117.03
436.16	154.48
436.34	140.43
436.53	156.82
436.72	81.92
436.90	107.66
437.09	149.79
437.28	177.88
437.46	102.98
437.65	95.96
437.84	110.01
438.02	81.92
438.21	198.95
438.40	124.05
438.58	107.66
438.77	156.82
438.96	138.09
439.14	95.96
439.33	105.32
439.52	147.45
439.70	95.96
439.89	133.41
440.08	163.84
440.26	154.48
440.45	149.79
440.63	163.84
440.82	205.97
441.01	184.90
441.19	128.73
441.38	147.45
441.57	93.62
441.75	180.22
441.94	128.73
442.12	135.75
442.31	107.66
442.50	46.81
442.68	124.05
442.87	135.75
443.05	88.94
443.24	145.11
443.43	170.86
443.61	142.77
443.80	77.24
443.98	91.28
444.17	74.90
444.35	117.03
444.54	131.07
444.73	86.60
444.91	154.48
445.10	173.20
445.28	145.11
445.47	154.48
445.65	189.58
445.84	168.52
446.02	196.60
446.21	112.35
446.39	126.39
446.58	133.41
446.77	81.92
446.95	86.60
447.14	42.13
447.32	105.32
447.51	63.19
447.69	138.09
447.88	114.69
448.06	147.45
448.25	163.84
448.43	79.58
448.62	72.56
448.80	140.43
448.99	196.60
449.17	131.07
449.36	79.58
449.54	212.99
449.73	81.92
449.91	147.45
450.10	98.30
450.28	107.66
450.46	203.63
450.65	220.01
450.83	184.90
451.02	166.18
451.20	79.58
451.39	170.86
451.57	154.48
451.76	217.67
451.94	74.90
452.13	156.82
452.31	112.35
452.49	187.24
452.68	140.43
452.86	86.60
453.05	224.69
453.23	166.18
453.42	180.22
453.60	161.50
453.78	173.20
453.97	88.94
454.15	159.16
454.34	79.58
454.52	156.82
454.70	110.01
454.89	58.51
455.07	222.35
455.26	154.48
455.44	138.09
455.62	147.45
455.81	142.77
455.99	84.26
456.17	128.73
456.36	95.96
456.54	138.09
456.73	163.84
456.91	145.11
457.09	147.45
457.28	147.45
457.46	102.98
457.64	196.60
457.83	142.77
458.01	124.05
458.19	191.92
458.38	142.77
458.56	126.39
458.74	168.52
458.93	191.92
459.11	112.35
459.29	154.48
459.48	161.50
459.66	152.13
459.84	102.98
460.03	269.16
460.21	100.64
460.39	124.05
460.57	250.44
460.76	168.52
460.94	102.98
461.12	201.29
461.31	145.11
461.49	145.11
461.67	173.20
461.85	156.82
462.04	177.88
462.22	543.00
462.40	182.56
462.59	224.69
462.77	74.90
462.95	198.95
463.13	93.62
463.32	177.88
463.50	105.32
463.68	212.99
463.86	159.16
464.05	112.35
464.23	210.65
464.41	88.94
464.59	98.30
464.78	44.47
464.96	163.84
465.14	152.13
465.32	107.66
465.50	191.92
465.69	67.88
465.87	107.66
466.05	140.43
466.23	86.60
466.41	51.49
466.60	102.98
466.78	142.77
466.96	163.84
467.14	121.71
467.32	191.92
467.51	154.48
467.69	182.56
467.87	191.92
468.05	173.20
468.23	205.97
468.41	105.32
468.60	138.09
468.78	140.43
468.96	121.71
469.14	149.79
469.32	166.18
469.50	180.22
469.69	128.73
469.87	182.56
470.05	196.60
470.23	86.60
470.41	198.95
470.59	196.60
470.77	58.51
470.95	196.60
471.14	173.20
471.32	182.56
471.50	149.79
471.68	147.45
471.86	189.58
472.04	163.84
472.22	182.56
472.40	84.26
472.58	72.56
472.77	102.98
472.95	81.92
473.13	182.56
473.31	166.18
473.49	88.94
473.67	121.71
473.85	70.22
474.03	142.77
474.21	159.16
474.39	152.13
474.57	278.52
474.75	250.44
474.93	110.01
475.12	170.86
475.30	231.71
475.48	114.69
475.66	184.90
475.84	161.50
476.02	140.43
476.20	215.33
476.38	84.26
476.56	135.75
476.74	175.54
476.92	131.07
477.10	145.11
477.28	119.37
477.46	168.52
477.64	191.92
477.82	201.29
478.00	138.09
478.18	142.77
478.36	182.56
478.54	84.26
478.72	166.18
478.90	145.11
479.08	147.45
479.26	180.22
479.44	88.94
479.62	72.56
479.80	140.43
479.98	145.11
480.16	170.86
480.34	170.86
480.52	124.05
480.70	205.97
480.88	88.94
481.06	128.73
481.24	170.86
481.41	93.62
481.59	117.03
481.77	72.56
481.95	67.88
482.13	177.88
482.31	220.01
482.49	128.73
482.67	175.54
482.85	161.50
483.03	166.18
483.21	184.90
483.39	191.92
483.57	112.35
483.74	205.97
483.92	119.37
484.10	93.62
484.28	159.16
484.46	215.33
484.64	156.82
484.82	175.54
485.00	189.58
485.18	128.73
485.35	149.79
485.53	74.90
485.71	98.30
485.89	149.79
486.07	149.79
486.25	252.78
486.43	114.69
486.61	119.37
486.78	126.39
486.96	81.92
487.14	168.52
487.32	173.20
487.50	98.30
487.68	191.92
487.85	133.41
488.03	124.05
488.21	138.09
488.39	156.82
488.57	220.01
488.75	236.39
488.92	468.11
489.10	156.82
489.28	145.11
489.46	231.71
489.64	194.26
489.81	182.56
489.99	170.86
490.17	140.43
490.35	248.10
490.53	159.16
490.70	121.71
490.88	191.92
491.06	91.28
491.24	173.20
491.41	187.24
491.59	177.88
491.77	156.82
491.95	110.01
492.13	173.20
492.30	191.92
492.48	170.86
492.66	159.16
492.84	203.63
493.01	163.84
493.19	79.58
493.37	194.26
493.54	142.77
493.72	220.01
493.90	163.84
494.08	149.79
494.25	189.58
494.43	154.48
494.61	142.77
494.79	196.60
494.96	231.71
495.14	180.22
495.32	205.97
495.49	191.92
495.67	168.52
495.85	138.09
496.02	105.32
496.20	177.88
496.38	215.33
496.55	191.92
496.73	222.35
496.91	140.43
497.09	182.56
497.26	220.01
497.44	170.86
497.62	191.92
497.79	194.26
497.97	168.52
498.14	182.56
498.32	145.11
498.50	208.31
498.67	170.86
498.85	142.77
499.03	205.97
499.20	98.30
499.38	229.37
499.56	173.20
499.73	166.18
499.91	198.95
500.08	229.37
500.26	255.12
500.44	182.56
500.61	231.71
500.79	159.16
500.97	159.16
501.14	168.52
501.32	133.41
501.49	227.03
501.67	210.65
501.84	215.33
502.02	201.29
502.20	250.44
502.37	177.88
502.55	168.52
502.72	212.99
502.90	234.05
503.07	191.92
503.25	212.99
503.43	257.46
503.60	222.35
503.78	189.58
503.95	222.35
504.13	152.13
504.30	173.20
504.48	205.97
504.65	248.10
504.83	227.03
505.01	156.82
505.18	187.24
505.36	201.29
505.53	173.20
505.71	198.95
505.88	229.37
506.06	217.67
506.23	126.39
506.41	161.50
506.58	198.95
506.76	187.24
506.93	147.45
507.11	175.54
507.28	175.54
507.46	189.58
507.63	283.20
507.81	184.90
507.98	212.99
508.16	184.90
508.33	196.60
508.50	205.97
508.68	217.67
508.85	173.20
509.03	142.77
509.20	194.26
509.38	166.18
509.55	205.97
509.73	147.45
509.90	238.73
510.08	205.97
510.25	184.90
510.42	208.31
510.60	222.35
510.77	191.92
510.95	142.77
511.12	194.26
511.30	154.48
511.47	217.67
511.64	259.80
511.82	170.86
511.99	252.78
512.17	163.84
512.34	163.84
512.51	149.79
512.69	194.26
512.86	180.22
513.04	135.75
513.21	198.95
513.38	196.60
513.56	266.82
513.73	231.71
513.90	147.45
514.08	201.29
514.25	161.50
514.43	198.95
514.60	128.73
514.77	210.65
514.95	180.22
515.12	205.97
515.29	210.65
515.47	220.01
515.64	222.35
515.81	128.73
515.99	217.67
516.16	224.69
516.33	243.42
516.51	236.39
516.68	166.18
516.85	191.92
517.03	231.71
517.20	229.37
517.37	250.44
517.54	191.92
517.72	166.18
517.89	210.65
518.06	189.58
518.24	142.77
518.41	229.37
518.58	191.92
518.75	245.76
518.93	245.76
519.10	215.33
519.27	170.86
519.45	241.08
519.62	238.73
519.79	191.92
519.96	117.03
520.14	217.67
520.31	259.80
520.48	229.37
520.65	205.97
520.83	231.71
521.00	196.60
521.17	201.29
521.34	187.24
521.52	170.86
521.69	170.86
521.86	222.35
522.03	210.65
522.20	187.24
522.38	187.24
522.55	191.92
522.72	159.16
522.89	222.35
523.07	238.73
523.24	131.07
523.41	152.13
523.58	196.60
523.75	128.73
523.92	147.45
524.10	154.48
524.27	220.01
524.44	168.52
524.61	149.79
524.78	161.50
524.96	149.79
525.13	184.90
525.30	248.10
525.47	182.56
525.64	180.22
525.81	138.09
525.98	241.08
526.16	224.69
526.33	133.41
526.50	119.37
526.67	210.65
526.84	220.01
527.01	93.62
527.18	220.01
527.36	166.18
527.53	201.29
527.70	234.05
527.87	189.58
528.04	231.71
528.21	222.35
528.38	194.26
528.55	255.12
528.72	257.46
528.89	231.71
529.07	210.65
529.24	236.39
529.41	203.63
529.58	163.84
529.75	208.31
529.92	231.71
530.09	252.78
530.26	191.92
530.43	205.97
530.60	110.01
530.77	140.43
530.94	222.35
531.11	163.84
531.28	292.57
531.46	212.99
531.63	238.73
531.80	248.10
531.97	180.22
532.14	184.90
532.31	163.84
532.48	203.63
532.65	215.33
532.82	355.76
532.99	353.42
533.16	238.73
533.33	217.67
533.50	231.71
533.67	294.91
533.84	362.78
534.01	372.15
534.18	337.04
534.35	215.33
534.52	196.60
534.69	257.46
534.86	227.03
535.03	177.88
535.20	177.88
535.37	220.01
535.54	168.52
535.71	187.24
535.88	220.01
536.05	224.69
536.22	159.16
536.38	173.20
536.55	147.45
536.72	203.63
536.89	149.79
537.06	229.37
537.23	227.03
537.40	241.08
537.57	252.78
537.74	245.76
537.91	210.65
538.08	159.16
538.25	138.09
538.42	201.29
538.59	304.27
538.75	215.33
538.92	187.24
539.09	262.14
539.26	175.54
539.43	517.26
539.60	987.71
539.77	1441.77
539.94	1486.24
540.11	997.07
540.28	594.50
540.44	425.98
540.61	205.97
540.78	201.29
540.95	184.90
541.12	287.89
541.29	140.43
541.46	187.24
541.62	191.92
541.79	222.35
541.96	161.50
542.13	180.22
542.30	175.54
542.47	191.92
542.63	212.99
542.80	301.93
542.97	217.67
543.14	234.05
543.31	208.31
543.48	198.95
543.64	241.08
543.81	212.99
543.98	234.05
544.15	231.71
544.32	184.90
544.48	170.86
544.65	161.50
544.82	161.50
544.99	217.67
545.16	215.33
545.32	182.56
545.49	304.27
545.66	227.03
545.83	280.86
546.00	86.60
546.16	147.45
546.33	194.26
546.50	220.01
546.67	245.76
546.83	187.24
547.00	205.97
547.17	133.41
547.34	177.88
547.50	283.20
547.67	252.78
547.84	224.69
548.00	236.39
548.17	238.73
548.34	201.29
548.51	234.05
548.67	203.63
548.84	175.54
549.01	147.45
549.18	257.46
549.34	210.65
549.51	187.24
549.68	262.14
549.84	203.63
550.01	201.29
550.18	276.18
550.34	133.41
550.51	187.24
550.68	269.16
550.84	168.52
551.01	182.56
551.18	170.86
551.34	229.37
551.51	182.56
551.68	154.48
551.84	210.65
552.01	198.95
552.18	201.29
552.34	250.44
552.51	229.37
552.68	224.69
552.84	257.46
553.01	264.48
553.18	152.13
553.34	189.58
553.51	201.29
553.67	259.80
553.84	257.46
554.01	217.67
554.17	194.26
554.34	196.60
554.51	191.92
554.67	159.16
554.84	227.03
555.00	173.20
555.17	154.48
555.33	187.24
555.50	191.92
555.67	156.82
555.83	217.67
556.00	301.93
556.16	418.96
556.33	222.35
556.50	173.20
556.66	159.16
556.83	159.16
556.99	182.56
557.16	241.08
557.32	212.99
557.49	236.39
557.65	217.67
557.82	245.76
557.98	191.92
558.15	133.41
558.32	154.48
558.48	236.39
558.65	259.80
558.81	273.84
558.98	220.01
559.14	191.92
559.31	217.67
559.47	280.86
559.64	124.05
559.80	208.31
559.97	135.75
560.13	187.24
560.30	189.58
560.46	245.76
560.63	222.35
560.79	276.18
560.96	184.90
561.12	194.26
561.29	180.22
561.45	173.20
561.61	135.75
561.78	255.12
561.94	95.96
562.11	159.16
562.27	182.56
562.44	184.90
562.60	198.95
562.77	175.54
562.93	255.12
563.10	248.10
563.26	264.48
563.42	191.92
563.59	243.42
563.75	238.73
563.92	236.39
564.08	271.50
564.24	243.42
564.41	245.76
564.57	182.56
564.74	194.26
564.90	280.86
565.07	245.76
565.23	229.37
565.39	215.33
565.56	346.40
565.72	170.86
565.88	194.26
566.05	187.24
566.21	196.60
566.38	227.03
566.54	201.29
566.70	168.52
566.87	177.88
567.03	128.73
567.19	255.12
567.36	229.37
567.52	152.13
567.68	166.18
567.85	215.33
568.01	163.84
568.17	147.45
568.34	175.54
568.50	177.88
568.66	180.22
568.83	222.35
568.99	170.86
569.15	266.82
569.32	208.31
569.48	184.90
569.64	177.88
569.81	198.95
569.97	138.09
570.13	217.67
570.30	133.41
570.46	215.33
570.62	194.26
570.78	224.69
570.95	131.07
571.11	175.54
571.27	234.05
571.43	243.42
571.60	203.63
571.76	236.39
571.92	156.82
572.09	140.43
572.25	248.10
572.41	217.67
572.57	210.65
572.74	220.01
572.90	255.12
573.06	241.08
573.22	152.13
573.38	262.14
573.55	201.29
573.71	163.84
573.87	210.65
574.03	203.63
574.20	243.42
574.36	276.18
574.52	250.44
574.68	271.50
574.84	297.25
575.01	236.39
575.17	273.84
575.33	212.99
575.49	222.35
575.65	241.08
575.82	372.15
575.98	538.32
576.14	657.69
576.30	615.56
576.46	472.79
576.62	388.53
576.79	379.17
576.95	306.61
577.11	290.23
577.27	243.42
577.43	278.52
577.59	308.95
577.75	332.36
577.92	229.37
578.08	294.91
578.24	294.91
578.40	278.52
578.56	222.35
578.72	283.20
578.88	306.61
579.04	236.39
579.21	294.91
579.37	280.86
579.53	238.73
579.69	292.57
579.85	212.99
580.01	325.33
580.17	322.99
580.33	332.36
580.49	313.63
580.65	351.08
580.82	337.04
580.98	327.68
581.14	264.48
581.30	334.70
581.46	395.55
581.62	503.22
581.78	582.79
581.94	547.69
582.10	486.83
582.26	447.04
582.42	447.04
582.58	313.63
582.74	334.70
582.90	315.97
583.06	472.79
583.22	414.27
583.38	500.87
583.54	503.22
583.70	531.30
583.86	660.03
584.02	671.73
584.18	887.06
584.34	1158.57
584.50	3206.53
584.66	23400.68
584.82	55068.12
584.98	64961.57
585.14	61930.58
585.30	47660.33
585.46	28472.62
585.62	17397.20
585.78	8002.29
585.94	3178.45
586.10	1483.90
586.26	1071.97
586.42	784.08
586.58	566.41
586.74	533.64
586.90	540.66
587.06	540.66
587.22	528.96
587.38	465.77
587.54	1200.69
587.70	3304.84
587.86	5638.35
588.02	6448.18
588.18	4383.82
588.34	2722.04
588.49	1881.79
588.65	1116.44
588.81	697.48
588.97	320.65
589.13	348.74
589.29	355.76
589.45	301.93
589.61	243.42
589.77	383.85
589.93	381.51
590.08	470.45
590.24	400.23
590.40	423.64
590.56	411.93
590.72	360.44
590.88	334.70
591.04	252.78
591.20	365.12
591.35	344.06
591.51	250.44
591.67	264.48
591.83	238.73
591.99	273.84
592.15	311.29
592.31	241.08
592.46	173.20
592.62	292.57
592.78	266.82
592.94	231.71
593.10	262.14
593.26	255.12
593.41	311.29
593.57	390.87
593.73	575.77
593.89	2867.16
594.05	7023.95
594.20	10590.92
594.36	10171.97
594.52	6541.80
594.68	4140.41
594.84	2857.79
594.99	1519.01
595.15	753.65
595.31	444.70
595.47	327.68
595.62	283.20
595.78	311.29
595.94	234.05
596.10	407.25
596.25	365.12
596.41	236.39
596.57	304.27
596.73	278.52
596.88	514.92
597.04	1378.58
597.20	2218.83
597.36	2642.46
597.51	2003.50
597.67	1320.06
597.83	931.53
597.99	676.41
598.14	379.17
598.30	285.55
598.46	299.59
598.61	287.89
598.77	337.04
598.93	280.86
599.09	245.76
599.24	161.50
599.40	227.03
599.56	189.58
599.71	203.63
599.87	245.76
600.03	255.12
600.18	201.29
600.34	205.97
600.50	238.73
600.65	119.37
600.81	231.71
600.97	182.56
601.12	189.58
601.28	220.01
601.44	191.92
601.59	194.26
601.75	220.01
601.91	215.33
602.06	224.69
602.22	318.31
602.37	631.94
602.53	1694.55
602.69	2621.40
602.84	2750.13
603.00	2064.35
603.16	1336.45
603.31	1067.28
603.47	655.35
603.62	318.31
603.78	346.40
603.94	308.95
604.09	299.59
604.25	241.08
604.40	262.14
604.56	238.73
604.71	231.71
604.87	231.71
605.03	156.82
605.18	255.12
605.34	182.56
605.49	227.03
605.65	250.44
605.80	252.78
605.96	322.99
606.12	297.25
606.27	320.65
606.43	248.10
606.58	287.89
606.74	861.32
606.89	3419.52
607.05	6916.28
607.20	8994.68
607.36	7510.78
607.51	5111.73
607.67	3243.98
607.82	2186.06
607.98	1167.93
608.13	589.82
608.29	463.43
608.44	423.64
608.60	346.40
608.75	472.79
608.91	1076.65
609.06	5254.50
609.22	11983.54
609.37	16095.86
609.53	13750.65
609.68	9160.86
609.84	5963.68
609.99	3871.25
610.15	2059.67
610.30	938.55
610.46	517.26
610.61	409.59
610.76	294.91
610.92	304.27
611.07	238.73
611.23	327.68
611.38	273.84
611.54	266.82
611.69	334.70
611.84	334.70
612.00	325.33
