SpectraSuite Data File
++++++++++++++++++++++++++++++++++++
Date: Fri Oct 04 11:48:26 GMT-05:00 2013
User: price-jones
Dark Spectrum Present: No
Reference Spectrum Present: No
Number of Sampled Component Spectra: 1
Spectrometers: USB2+H05261
Integration Time (usec): 100000 (USB2+H05261)
Spectra Averaged: 1 (USB2+H05261)
Boxcar Smoothing: 0 (USB2+H05261)
Correct for Electrical Dark: No (USB2+H05261)
Strobe/Lamp Enabled: No (USB2+H05261)
Correct for Detector Non-linearity: No (USB2+H05261)
Correct for Stray Light: No (USB2+H05261)
Number of Pixels in Processed Spectrum: 2048
>>>>>Begin Processed Spectral Data<<<<<
365.73	74.90
365.92	74.90
366.12	74.90
366.32	0.00
366.52	0.00
366.72	0.00
366.91	0.00
367.11	0.00
367.31	0.00
367.51	0.00
367.70	0.00
367.90	0.00
368.10	0.00
368.30	0.00
368.49	0.00
368.69	0.00
368.89	0.00
369.09	0.00
369.28	0.00
369.48	0.00
369.68	0.00
369.87	4.68
370.07	0.00
370.27	0.00
370.47	133.41
370.66	416.62
370.86	433.00
371.06	475.13
371.25	484.49
371.45	461.09
371.65	507.90
371.84	360.44
372.04	454.06
372.24	447.04
372.44	500.87
372.63	533.64
372.83	538.32
373.03	575.77
373.22	468.11
373.42	550.03
373.62	519.60
373.81	587.47
374.01	571.09
374.21	606.20
374.40	645.99
374.60	573.43
374.79	500.87
374.99	603.86
375.19	535.98
375.38	676.41
375.58	636.63
375.78	650.67
375.97	657.69
376.17	690.46
376.37	624.92
376.56	683.44
376.76	634.29
376.95	599.18
377.15	681.10
377.35	657.69
377.54	697.48
377.74	760.67
377.93	730.25
378.13	671.73
378.33	655.35
378.52	751.31
378.72	690.46
378.91	713.86
379.11	667.05
379.31	706.84
379.50	660.03
379.70	739.61
379.89	809.83
380.09	739.61
380.28	760.67
380.48	784.08
380.68	748.97
380.87	770.04
381.07	763.01
381.26	774.72
381.46	802.80
381.65	798.12
381.85	826.21
382.04	800.46
382.24	826.21
382.43	847.27
382.63	781.74
382.83	821.53
383.02	765.36
383.22	943.24
383.41	856.64
383.61	933.87
383.80	805.14
384.00	767.70
384.19	922.17
384.39	877.70
384.58	964.30
384.78	926.85
384.97	929.19
385.17	959.62
385.36	1018.13
385.56	945.58
385.75	849.61
385.95	809.83
386.14	959.62
386.34	966.64
386.53	901.11
386.72	959.62
386.92	1060.26
387.11	980.68
387.31	973.66
387.50	947.92
387.70	919.83
387.89	980.68
388.09	1050.90
388.28	917.49
388.48	1074.31
388.67	1114.10
388.86	1123.46
389.06	1090.69
389.25	1027.50
389.45	1123.46
389.64	1039.20
389.84	1139.84
390.03	1071.97
390.22	1196.01
390.42	1156.22
390.61	1036.86
390.81	1172.61
391.00	1210.06
391.19	1181.97
391.39	1174.95
391.58	1200.69
391.78	1151.54
391.97	1261.55
392.16	1245.16
392.36	1301.34
392.55	1287.29
392.75	1231.12
392.94	1336.45
393.13	1266.23
393.33	1224.10
393.52	1299.00
393.71	1294.32
393.91	1387.94
394.10	1282.61
394.29	1399.64
394.49	1366.87
394.68	1371.55
394.88	1425.39
395.07	1554.12
395.26	1362.19
395.46	1432.41
395.65	1481.56
395.84	1579.86
396.04	1511.99
396.23	1537.73
396.42	1409.00
396.62	1511.99
396.81	1549.43
397.00	1439.43
397.19	1598.59
397.39	1647.74
397.58	1579.86
397.77	1514.33
397.97	1629.01
398.16	1605.61
398.35	1678.16
398.55	1542.41
398.74	1638.38
398.93	1666.46
399.12	1717.95
399.32	1748.38
399.51	1631.35
399.70	1736.68
399.90	1753.06
400.09	1797.53
400.28	1764.76
400.47	1858.39
400.67	1888.81
400.86	1909.88
401.05	1895.83
401.24	1940.30
401.44	1844.34
401.63	1930.94
401.82	1856.04
402.01	1914.56
402.21	1905.20
402.40	1877.11
402.59	2033.93
402.78	2066.69
402.97	1963.71
403.17	2076.06
403.36	1968.39
403.55	2017.54
403.74	2069.03
403.93	2125.21
404.13	2043.29
404.32	2134.57
404.51	2251.60
404.70	2232.87
404.89	2162.66
405.09	2338.20
405.28	2237.55
405.47	2284.36
405.66	2326.49
405.85	2260.96
406.05	2265.64
406.24	2363.94
406.43	2370.96
406.62	2321.81
406.81	2558.21
407.00	2382.67
407.20	2408.41
407.39	2502.03
407.58	2523.10
407.77	2619.06
407.96	2654.17
408.15	2626.08
408.34	2527.78
408.54	2630.76
408.73	2602.68
408.92	2565.23
409.11	2633.10
409.30	2761.83
409.49	2658.85
409.68	2717.36
409.87	2726.72
410.07	2796.94
410.26	2825.03
410.45	2726.72
410.64	2825.03
410.83	3016.95
411.02	2815.66
411.21	2991.20
411.40	2956.10
411.59	3101.21
411.78	3108.23
411.98	2979.50
412.17	3119.93
412.36	3073.12
412.55	3190.15
412.74	3227.60
412.93	3300.16
413.12	3222.92
413.31	3445.27
413.50	3339.94
413.69	3206.53
413.88	3435.91
414.07	3503.78
414.26	3456.97
414.45	3499.10
414.64	3492.08
414.83	3531.87
415.02	3555.27
415.22	3597.40
415.41	3775.28
415.60	3672.30
415.79	3751.88
415.98	3861.88
416.17	3761.24
416.36	3880.61
416.55	4007.00
416.74	3803.37
416.93	3882.95
417.12	4105.30
417.31	4121.68
417.50	4128.70
417.69	4142.75
417.88	4159.13
418.07	4184.88
418.26	4079.55
418.45	4180.20
418.64	4196.58
418.83	4196.58
419.02	4355.74
419.21	4241.05
419.39	4341.69
419.58	4271.48
419.77	4402.55
419.96	4528.94
420.15	4477.44
420.34	4421.27
420.53	4498.51
420.72	4538.30
420.91	4512.55
421.10	4564.04
421.29	4713.84
421.48	4650.64
421.67	4507.87
421.86	4589.79
422.05	4667.03
422.24	4711.50
422.43	4596.81
422.61	4690.43
422.80	4711.50
422.99	4851.93
423.18	4908.10
423.37	4835.55
423.56	4765.33
423.75	4725.54
423.94	4767.67
424.13	4582.77
424.32	4791.08
424.50	4950.23
424.69	4873.00
424.88	5004.07
425.07	4800.44
425.26	4664.69
425.45	4699.80
425.64	4929.17
425.83	4877.68
426.01	5064.92
426.20	4933.85
426.39	5032.15
426.58	4940.87
426.77	4816.82
426.96	4990.02
427.15	5076.62
427.33	5025.13
427.52	5188.97
427.71	5093.01
427.90	5076.62
428.09	5203.01
428.28	5121.09
428.46	5116.41
428.65	5238.12
428.84	5366.85
429.03	5399.62
429.22	5146.84
429.40	5336.42
429.59	5411.32
429.78	5135.14
429.97	5111.73
430.16	5313.02
430.34	5472.17
430.53	5554.09
430.72	5603.24
430.91	5338.76
431.10	5430.04
431.28	5699.20
431.47	5544.73
431.66	5703.89
431.85	5682.82
432.03	5860.70
432.22	5853.68
432.41	5713.25
432.60	5951.98
432.79	5680.48
432.97	5731.97
433.16	6043.26
433.35	5902.83
433.54	5973.05
433.72	6076.03
433.91	5760.06
434.10	6005.81
434.28	5970.71
434.47	6134.54
434.66	6054.97
434.85	6258.59
435.03	6183.70
435.22	6115.82
435.41	6223.48
435.59	6422.43
435.78	6282.00
435.97	6181.35
436.16	6326.47
436.34	6366.26
436.53	6300.72
436.72	6504.35
436.90	6413.07
437.09	6626.06
437.28	6356.90
437.46	6562.86
437.65	6663.51
437.84	6686.91
438.02	6616.69
438.21	6640.10
438.40	6583.93
438.58	6672.87
438.77	6768.83
438.96	6759.47
439.14	6970.12
439.33	7035.65
439.52	7318.86
439.70	7089.48
439.89	7227.57
440.08	7087.14
440.26	7276.73
440.45	7197.15
440.63	7225.23
440.82	7435.88
441.01	7349.28
441.19	7297.79
441.38	7513.12
441.57	7620.78
441.75	7772.92
441.94	7726.11
442.12	7716.75
442.31	7721.43
442.50	7850.16
442.68	7899.31
442.87	8006.97
443.05	8149.75
443.24	8145.06
443.43	8084.21
443.61	7983.57
443.80	8208.26
443.98	8009.31
444.17	7875.90
444.35	7971.86
444.54	8365.07
444.73	8044.42
444.91	8109.96
445.10	8135.70
445.28	8290.18
445.47	8114.64
445.65	8189.53
445.84	8264.43
446.02	8168.47
446.21	8339.33
446.39	8084.21
446.58	8203.58
446.77	8402.52
446.95	8100.59
447.14	8292.52
447.32	8430.61
447.51	8271.45
447.69	8308.90
447.88	8264.43
448.06	8215.28
448.25	8306.56
448.43	8348.69
448.62	8390.82
448.80	8395.50
448.99	8578.06
449.17	8435.29
449.36	8500.83
449.54	8713.81
449.73	8627.21
449.91	8734.88
450.10	8678.71
450.28	8980.64
450.46	8704.45
450.65	8898.72
450.83	8961.91
451.02	8741.90
451.20	8940.85
451.39	8940.85
451.57	8999.36
451.76	8954.89
451.94	9022.77
452.13	9301.29
452.31	9151.49
452.49	8833.18
452.68	9207.67
452.86	9128.09
453.05	9142.13
453.23	9345.76
453.42	9041.49
453.60	9270.86
453.78	9118.73
453.97	9135.11
454.15	9362.14
454.34	9500.23
454.52	9654.71
454.70	9537.68
454.89	9500.23
455.07	9610.24
455.26	9490.87
455.44	9767.06
455.62	9603.22
455.81	9762.37
455.99	9940.26
456.17	9827.91
456.36	9820.89
456.54	9870.04
456.73	10066.64
456.91	10190.69
457.09	10120.48
457.28	10251.55
457.46	10200.05
457.64	10260.91
457.83	10359.21
458.01	10312.40
458.19	10401.34
458.38	10104.09
458.56	10548.79
458.74	10380.28
458.93	10399.00
459.11	10494.96
459.29	10422.41
459.48	10658.80
459.66	10712.63
459.84	10710.29
460.03	10700.93
460.21	10747.74
460.39	10827.32
460.57	10780.51
460.76	10848.38
460.94	11028.60
461.12	10981.79
461.31	11005.20
461.49	10815.62
461.67	10867.11
461.85	11208.83
462.04	10988.82
462.22	11709.70
462.40	11157.33
462.59	11440.54
462.77	11477.99
462.95	11442.88
463.13	11456.92
463.32	11438.20
463.50	11454.58
463.68	11307.13
463.86	11426.50
464.05	11440.54
464.23	11571.61
464.41	11775.24
464.59	11510.75
464.78	11576.29
464.96	11620.76
465.14	11705.02
465.32	11946.09
465.50	11929.71
465.69	11918.01
465.87	11707.36
466.05	11688.64
466.23	11871.20
466.41	12140.36
466.60	12191.85
466.78	12049.08
466.96	11948.43
467.14	11885.24
467.32	12325.26
467.51	12479.74
467.69	11779.92
467.87	11864.18
468.05	12269.09
468.23	12262.07
468.41	12236.32
468.60	12334.62
468.78	12468.03
468.96	12114.61
469.14	12587.40
469.32	12453.99
469.50	12386.12
469.69	12954.87
469.87	12905.71
470.05	12992.31
470.23	12512.50
470.41	12657.62
470.59	13027.42
470.77	12751.24
470.95	12889.33
471.14	13095.30
471.32	12875.29
471.50	13429.99
471.68	13451.06
471.86	13315.31
472.04	13317.65
472.22	13659.37
472.40	13373.82
472.58	13724.90
472.77	13682.77
472.95	13998.74
473.13	14115.77
473.31	13886.40
473.49	13870.01
473.67	13991.72
473.85	13951.93
474.03	14335.78
474.21	14363.87
474.39	14581.54
474.57	14361.53
474.75	14642.39
474.93	14586.22
475.12	14824.95
475.30	14761.76
475.48	14684.52
475.66	14995.81
475.84	15002.83
476.02	15180.71
476.20	15023.90
476.38	15447.54
476.56	15693.29
476.74	16004.58
476.92	15653.50
477.10	15594.99
477.28	15690.95
477.46	15730.74
477.64	16142.67
477.82	16053.73
478.00	16315.87
478.18	16589.72
478.36	16753.55
478.54	16489.07
478.72	16910.37
478.90	17055.48
479.08	17434.65
479.26	17453.37
479.44	17303.58
479.62	17525.93
479.80	17502.53
479.98	17500.19
480.16	18228.09
480.34	17790.41
480.52	18345.12
480.70	18211.71
480.88	18515.98
481.06	18366.18
481.24	18537.04
481.41	18808.54
481.59	19101.11
481.77	19044.94
481.95	19527.09
482.13	19428.79
482.31	19527.09
482.49	19616.03
482.67	19936.68
482.85	19939.02
483.03	20311.17
483.21	20327.55
483.39	20489.05
483.57	20582.67
483.74	20748.85
483.92	20858.85
484.10	20851.83
484.28	21628.89
484.46	21774.00
484.64	21888.69
484.82	21561.02
485.00	21902.73
485.18	22380.20
485.35	22359.14
485.53	22258.49
485.71	22541.70
485.89	23302.37
486.07	23140.88
486.25	22874.06
486.43	23239.18
486.61	23159.60
486.78	23843.04
486.96	23920.28
487.14	24617.75
487.32	24465.62
487.50	24751.17
487.68	24369.66
487.85	24650.52
488.03	25207.57
488.21	25509.50
488.39	25261.40
488.57	25303.53
488.75	25579.71
488.92	26267.83
489.10	26466.78
489.28	26162.51
489.46	26647.00
489.64	26508.91
489.81	27344.48
489.99	27316.39
490.17	27454.48
490.35	27775.14
490.53	27833.65
490.70	27915.57
490.88	27810.25
491.06	28304.10
491.24	27744.71
491.41	28566.24
491.59	28893.91
491.77	28917.32
491.95	29371.38
492.13	29268.40
492.30	29179.46
492.48	29783.32
492.66	29766.93
492.84	29443.94
493.01	30209.29
493.19	29853.53
493.37	30787.41
493.54	30525.27
493.72	30588.46
493.90	31124.44
494.08	31229.77
494.25	31686.17
494.43	31440.42
494.61	31639.36
494.79	31826.60
494.96	31960.02
495.14	32252.58
495.32	32428.12
495.49	33029.64
495.67	32587.28
495.85	32755.80
496.02	33251.99
496.20	33310.50
496.38	33406.47
496.55	33497.75
496.73	34431.62
496.91	33837.12
497.09	34188.21
497.26	34534.60
497.44	34389.49
497.62	34469.07
497.79	35204.00
497.97	34731.21
498.14	35143.14
498.32	35578.48
498.50	35428.69
498.67	36247.88
498.85	35314.00
499.03	35744.66
499.20	35833.60
499.38	36062.97
499.56	36428.10
499.73	36669.17
499.91	36994.51
500.08	37043.66
500.26	36629.38
500.44	37258.99
500.61	37102.17
500.79	36980.46
500.97	37422.83
501.14	37956.47
501.32	37951.79
501.49	38155.41
501.67	37504.74
501.84	38211.59
502.02	38096.90
502.20	38213.93
502.37	38953.54
502.55	38546.28
502.72	38775.66
502.90	38639.90
503.07	38539.26
503.25	39124.40
503.43	38852.89
503.60	39503.56
503.78	39440.37
503.95	39477.82
504.13	39480.16
504.30	39751.66
504.48	39442.71
504.65	40013.80
504.83	40161.25
505.01	40685.53
505.18	40355.52
505.36	40840.01
505.53	40334.45
505.71	40390.62
505.88	40730.00
506.06	40715.96
506.23	41235.56
506.41	41237.90
506.58	41780.90
506.76	41441.53
506.93	41553.87
507.11	40947.67
507.28	42106.24
507.46	41764.52
507.63	42337.95
507.81	42199.86
507.98	42607.11
508.16	42883.30
508.33	42239.65
508.50	42515.83
508.68	42895.00
508.85	43014.37
509.03	43035.43
509.20	42965.21
509.38	43370.13
509.55	43587.80
509.73	43421.62
509.90	43503.54
510.08	43791.42
510.25	43756.32
510.42	44170.59
510.60	44163.57
510.77	43959.94
510.95	44381.24
511.12	44126.12
511.30	44226.76
511.47	44514.65
511.64	44725.30
511.82	45207.45
511.99	44652.74
512.17	44905.52
512.34	45074.04
512.51	45408.73
512.69	45530.44
512.86	45581.93
513.04	46021.95
513.21	45776.20
513.38	46094.51
513.56	46038.34
513.73	45710.66
513.90	45553.85
514.08	46192.81
514.25	46433.89
514.43	46461.97
514.60	46653.90
514.77	46663.26
514.95	47145.41
515.12	46834.12
515.29	46894.97
515.47	47423.93
515.64	47690.76
515.81	47288.18
515.99	47304.57
516.16	47826.51
516.33	47594.79
516.51	47922.47
516.68	47566.71
516.85	47646.29
517.03	47978.64
517.20	48442.07
517.37	48390.58
517.54	47936.51
517.72	48500.58
517.89	48271.21
518.06	48282.91
518.24	48495.90
518.41	48385.89
518.58	48346.11
518.75	48694.85
518.93	48727.61
519.10	48825.92
519.27	49116.14
519.45	48687.82
519.62	49097.42
519.79	49010.82
519.96	49249.55
520.14	49729.36
520.31	49074.01
520.48	49439.14
520.65	49310.41
520.83	49633.40
521.00	49560.84
521.17	49745.75
521.34	49921.29
521.52	49897.88
521.69	50080.44
521.86	50403.44
522.03	50185.77
522.20	50167.04
522.38	50508.76
522.55	50370.67
522.72	50131.93
522.89	50415.14
523.07	50801.33
523.24	50899.63
523.41	50962.82
523.58	50466.63
523.75	51150.07
523.92	50838.78
524.10	50747.50
524.27	51004.95
524.44	51316.25
524.61	51274.12
524.78	51246.03
524.96	51199.22
525.13	51428.59
525.30	51004.95
525.47	51505.83
525.64	51615.83
525.81	51987.98
525.98	51922.44
526.16	51854.57
526.33	51966.91
526.50	52348.42
526.67	51681.37
526.84	52044.15
527.01	51929.47
527.18	52310.97
527.36	52217.35
527.53	52552.05
527.70	52676.10
527.87	52460.77
528.04	52289.91
528.21	52189.27
528.38	52463.11
528.55	52404.59
528.72	52893.77
528.89	52853.98
529.07	52678.44
529.24	52512.26
529.41	52842.27
529.58	52849.30
529.75	52928.87
529.92	52900.79
530.09	53003.77
530.26	53123.14
530.43	53109.10
530.60	52980.37
530.77	53375.92
530.94	53336.13
531.11	53308.04
531.28	53111.44
531.46	53322.08
531.63	53750.40
531.80	53560.82
531.97	53778.49
532.14	53801.89
532.31	53303.36
532.48	53642.74
532.65	53858.07
532.82	53460.18
532.99	53806.58
533.16	53722.32
533.33	53989.14
533.50	54167.02
533.67	54127.23
533.84	53827.64
534.01	53855.73
534.18	53900.20
534.35	54344.90
534.52	54363.62
534.69	54372.99
534.86	54600.02
535.03	54164.68
535.20	54436.18
535.37	54415.11
535.54	54490.01
535.71	54363.62
535.88	54473.63
536.05	54593.00
536.22	54705.34
536.38	54827.05
536.55	54808.32
536.72	55082.17
536.89	54827.05
537.06	54766.20
537.23	55072.81
537.40	54728.75
537.57	54763.85
537.74	54817.69
537.91	55182.81
538.08	55002.59
538.25	54894.92
538.42	55194.51
538.59	55077.49
538.75	54983.86
538.92	55002.59
539.09	55124.30
539.26	55325.58
539.43	55241.32
539.60	55407.50
539.77	55182.81
539.94	55468.36
540.11	55517.51
540.28	55281.11
540.44	55405.16
540.61	55547.93
540.78	55608.79
540.95	55543.25
541.12	55585.38
541.29	55498.78
541.46	55587.72
541.62	55646.24
541.79	55573.68
541.96	55491.76
542.13	55781.99
542.30	55793.69
542.47	55812.41
542.63	56044.13
542.80	56135.41
542.97	56200.94
543.14	56371.80
543.31	56121.37
543.48	56172.86
543.64	56563.73
543.81	56430.32
543.98	56582.45
544.15	56411.59
544.32	56406.91
544.48	56519.26
544.65	56271.16
544.82	56308.61
544.99	56332.01
545.16	56633.94
545.32	56350.74
545.49	56875.02
545.66	56849.27
545.83	56711.18
546.00	56870.34
546.16	56928.85
546.33	56657.35
546.50	56317.97
546.67	56760.33
546.83	56364.78
547.00	56924.17
547.17	56828.21
547.34	56804.80
547.50	56975.66
547.67	57029.49
547.84	57013.11
548.00	57123.11
548.17	57198.01
548.34	57116.09
548.51	57139.50
548.67	57420.36
548.84	57310.36
549.01	57254.18
549.18	57275.25
549.34	57226.10
549.51	57265.89
549.68	57289.29
549.84	57233.12
550.01	57233.12
550.18	57565.48
550.34	57481.22
550.51	57471.85
550.68	57212.06
550.84	57275.25
551.01	57436.75
551.18	57202.69
551.34	57420.36
551.51	57415.68
551.68	57705.91
551.84	57530.37
552.01	57476.54
552.18	57598.24
552.34	57476.54
552.51	57616.97
552.68	57593.56
552.84	57853.36
553.01	57972.73
553.18	57755.06
553.34	57958.69
553.51	57703.57
553.67	58007.84
553.84	58010.18
554.01	58185.72
554.17	57836.98
554.34	57874.43
554.51	57799.53
554.67	58127.20
554.84	58000.82
555.00	57965.71
555.17	57811.23
555.33	58024.22
555.50	58024.22
555.67	58085.07
555.83	57989.11
556.00	58134.23
556.16	58321.47
556.33	58106.14
556.50	58042.95
556.66	58110.82
556.83	58096.78
556.99	58183.38
557.16	58349.56
557.32	58471.26
557.49	58497.01
557.65	58206.78
557.82	58342.53
557.98	58300.40
558.15	58429.13
558.32	58578.93
558.48	58480.63
558.65	58475.94
558.81	58487.65
558.98	58433.81
559.14	58529.78
559.31	58328.49
559.47	58555.52
559.64	58291.04
559.80	58581.27
559.97	58665.53
560.13	58482.97
560.30	58602.33
560.46	58674.89
560.63	58817.66
560.79	58981.50
560.96	58719.36
561.12	58576.59
561.29	58635.10
561.45	58604.67
561.61	58698.30
561.78	58698.30
561.94	58796.60
562.11	58831.71
562.27	58698.30
562.44	58604.67
562.60	58721.70
562.77	58761.49
562.93	58801.28
563.10	59002.56
563.26	58843.41
563.42	58958.09
563.59	58922.99
563.75	58883.20
563.92	59016.61
564.08	58904.26
564.24	58777.87
564.41	59065.76
564.57	58892.56
564.74	58988.52
564.90	58997.88
565.07	59047.04
565.23	59049.38
565.39	59056.40
565.56	58798.94
565.72	59002.56
565.88	58866.81
566.05	58962.78
566.21	59007.25
566.38	59042.35
566.54	58965.12
566.70	59079.80
566.87	59290.45
567.03	59051.72
567.19	59402.80
567.36	58981.50
567.52	59079.80
567.68	59222.58
567.85	59150.02
568.01	58932.35
568.17	59220.23
568.34	59260.02
568.50	59175.76
568.66	59131.29
568.83	59311.52
568.99	59023.63
569.15	58976.82
569.32	59288.11
569.48	59047.04
569.64	59196.83
569.81	59231.94
569.97	59189.81
570.13	59400.46
570.30	59430.88
570.46	59086.82
570.62	59199.17
570.78	59194.49
570.95	59105.55
571.11	59128.95
571.27	59011.93
571.43	59077.46
571.60	59318.54
571.76	59089.16
571.92	59215.55
572.09	59297.47
572.25	59379.39
572.41	59330.24
572.57	59405.14
572.74	59536.21
572.90	59407.48
573.06	59414.50
573.22	59262.36
573.38	59227.26
573.55	59302.15
573.71	59594.72
573.87	59421.52
574.03	59423.86
574.20	59461.31
574.36	59182.79
574.52	59400.46
574.68	59229.60
574.84	59405.14
575.01	59468.33
575.17	59344.28
575.33	59393.43
575.49	59489.40
575.65	59561.95
575.82	59409.82
575.98	59358.33
576.14	59465.99
576.30	59400.46
576.46	59281.09
576.62	59353.65
576.79	59367.69
576.95	59128.95
577.11	59611.10
577.27	59512.80
577.43	59578.34
577.59	59444.93
577.75	59461.31
577.92	59304.49
578.08	59248.32
578.24	59316.20
578.40	59428.54
578.56	59592.38
578.72	59587.70
578.88	59538.55
579.04	59587.70
579.21	59583.02
579.37	59480.03
579.53	59650.89
579.69	59262.36
579.85	59281.09
580.01	59515.14
580.17	59491.74
580.33	59650.89
580.49	59585.36
580.65	59643.87
580.82	59854.52
580.98	59601.74
581.14	59494.08
581.30	59503.44
581.46	59480.03
581.62	59510.46
581.78	59370.03
581.94	59592.38
582.10	59571.32
582.26	59615.79
582.42	59592.38
582.58	59739.83
582.74	59763.24
582.90	59686.00
583.06	59564.29
583.22	59557.27
583.38	59451.95
583.54	59519.82
583.70	59533.87
583.86	59561.95
584.02	59629.83
584.18	59737.49
584.34	59641.53
584.50	59915.37
584.66	59531.53
584.82	59412.16
584.98	59711.75
585.14	59564.29
585.30	59618.13
585.46	59473.01
585.62	59803.03
585.78	59814.73
585.94	59639.19
586.10	59950.48
586.26	59615.79
586.42	59936.44
586.58	59934.10
586.74	59653.23
586.90	59489.40
587.06	59547.91
587.22	59498.76
587.38	59611.10
587.54	59849.84
587.70	59966.87
587.86	59821.75
588.02	59728.13
588.18	59906.01
588.34	59620.47
588.49	59592.38
588.65	59693.02
588.81	59737.49
588.97	59807.71
589.13	59669.62
