SpectraSuite Data File
++++++++++++++++++++++++++++++++++++
Date: Fri Oct 04 11:48:42 GMT-05:00 2013
User: price-jones
Dark Spectrum Present: No
Reference Spectrum Present: No
Number of Sampled Component Spectra: 1
Spectrometers: USB2+H05261
Integration Time (usec): 100000 (USB2+H05261)
Spectra Averaged: 1 (USB2+H05261)
Boxcar Smoothing: 0 (USB2+H05261)
Correct for Electrical Dark: No (USB2+H05261)
Strobe/Lamp Enabled: No (USB2+H05261)
Correct for Detector Non-linearity: No (USB2+H05261)
Correct for Stray Light: No (USB2+H05261)
Number of Pixels in Processed Spectrum: 2048
>>>>>Begin Processed Spectral Data<<<<<
365.73	0.00
365.92	0.00
366.12	0.00
366.32	0.00
366.52	0.00
366.72	0.00
366.91	0.00
367.11	0.00
367.31	0.00
367.51	0.00
367.70	0.00
367.90	0.00
368.10	0.00
368.30	0.00
368.49	0.00
368.69	0.00
368.89	0.00
369.09	0.00
369.28	0.00
369.48	0.00
369.68	0.00
369.87	0.00
370.07	0.00
370.27	0.00
370.47	72.56
370.66	152.13
370.86	168.52
371.06	215.33
371.25	271.50
371.45	222.35
371.65	208.31
371.84	201.29
372.04	194.26
372.24	222.35
372.44	266.82
372.63	320.65
372.83	334.70
373.03	301.93
373.22	180.22
373.42	306.61
373.62	255.12
373.81	269.16
374.01	325.33
374.21	245.76
374.40	393.21
374.60	365.12
374.79	308.95
374.99	327.68
375.19	337.04
375.38	278.52
375.58	322.99
375.78	311.29
375.97	297.25
376.17	325.33
376.37	299.59
376.56	231.71
376.76	330.02
376.95	376.83
377.15	402.57
377.35	355.76
377.54	447.04
377.74	437.68
377.93	388.53
378.13	351.08
378.33	348.74
378.52	306.61
378.72	379.17
378.91	306.61
379.11	348.74
379.31	346.40
379.50	388.53
379.70	348.74
379.89	379.17
380.09	339.38
380.28	344.06
380.48	348.74
380.68	358.10
380.87	402.57
381.07	414.27
381.26	456.40
381.46	348.74
381.65	395.55
381.85	458.74
382.04	358.10
382.24	465.77
382.43	383.85
382.63	409.59
382.83	313.63
383.02	503.22
383.22	463.43
383.41	411.93
383.61	407.25
383.80	416.62
384.00	440.02
384.19	390.87
384.39	449.38
384.58	407.25
384.78	374.49
384.97	407.25
385.17	437.68
385.36	416.62
385.56	423.64
385.75	489.17
385.95	477.47
386.14	430.66
386.34	395.55
386.53	500.87
386.72	390.87
386.92	512.58
387.11	440.02
387.31	442.36
387.50	393.21
387.70	400.23
387.89	547.69
388.09	404.91
388.28	444.70
388.48	486.83
388.67	528.96
388.86	528.96
389.06	463.43
389.25	496.19
389.45	484.49
389.64	454.06
389.84	526.62
390.03	550.03
390.22	566.41
390.42	566.41
390.61	517.26
390.81	484.49
391.00	575.77
391.19	540.66
391.39	496.19
391.58	575.77
391.78	608.54
391.97	662.37
392.16	594.50
392.36	631.94
392.55	587.47
392.75	554.71
392.94	615.56
393.13	592.16
393.33	671.73
393.52	688.12
393.71	727.91
393.91	631.94
394.10	568.75
394.29	641.31
394.49	627.26
394.68	760.67
394.88	676.41
395.07	692.80
395.26	727.91
395.46	732.59
395.65	704.50
395.84	709.18
396.04	826.21
396.23	716.20
396.42	683.44
396.62	704.50
396.81	770.04
397.00	746.63
397.19	678.76
397.39	683.44
397.58	770.04
397.77	809.83
397.97	763.01
398.16	704.50
398.35	847.27
398.55	770.04
398.74	814.51
398.93	842.59
399.12	823.87
399.32	823.87
399.51	837.91
399.70	950.26
399.90	863.66
400.09	929.19
400.28	903.45
400.47	847.27
400.67	929.19
400.86	940.90
401.05	795.78
401.24	863.66
401.44	828.55
401.63	924.51
401.82	968.98
402.01	931.53
402.21	992.39
402.40	1074.31
402.59	973.66
402.78	964.30
402.97	1032.18
403.17	1029.84
403.36	983.02
403.55	1055.58
403.74	1102.39
403.93	1240.48
404.13	1128.14
404.32	1081.33
404.51	1057.92
404.70	1100.05
404.89	1041.54
405.09	1181.97
405.28	1139.84
405.47	1100.05
405.66	1071.97
405.85	1142.18
406.05	1214.74
406.24	1221.76
406.43	1294.32
406.62	1200.69
406.81	1289.64
407.00	1284.95
407.20	1200.69
407.39	1334.11
407.58	1427.73
407.77	1352.83
407.96	1275.59
408.15	1441.77
408.34	1324.74
408.54	1364.53
408.73	1383.26
408.92	1404.32
409.11	1409.00
409.30	1434.75
409.49	1427.73
409.68	1444.11
409.87	1474.54
410.07	1629.01
410.26	1511.99
410.45	1624.33
410.64	1509.65
410.83	1589.22
411.02	1584.54
411.21	1692.21
411.40	1619.65
411.59	1621.99
411.78	1727.32
411.98	1743.70
412.17	1717.95
412.36	1668.80
412.55	1748.38
412.74	1785.83
412.93	1891.15
413.12	1778.81
413.31	1832.64
413.50	1706.25
413.69	1891.15
413.88	1952.01
414.07	1961.37
414.26	1975.41
414.45	1935.62
414.64	2087.76
414.83	1921.58
415.02	2010.52
415.22	2052.65
415.41	2113.50
415.60	2052.65
415.79	2125.21
415.98	2087.76
416.17	2057.33
416.36	1982.43
416.55	2127.55
416.74	2146.27
416.93	2242.23
417.12	2012.86
417.31	2272.66
417.50	2293.72
417.69	2345.22
417.88	2239.89
418.07	2345.22
418.26	2385.01
418.45	2469.27
418.64	2534.80
418.83	2483.31
419.02	2401.39
419.21	2427.14
419.39	2492.67
419.58	2469.27
419.77	2457.56
419.96	2420.11
420.15	2410.75
420.34	2509.05
420.53	2492.67
420.72	2579.27
420.91	2555.86
421.10	2513.74
421.29	2677.57
421.48	2478.63
421.67	2700.98
421.86	2560.55
422.05	2686.94
422.24	2593.31
422.43	2686.94
422.61	2642.46
422.80	2712.68
422.99	2766.51
423.18	2761.83
423.37	2661.19
423.56	2712.68
423.75	2649.49
423.94	2609.70
424.13	2600.34
424.32	2640.12
424.50	2689.28
424.69	2766.51
424.88	2637.78
425.07	2722.04
425.26	2614.38
425.45	2698.64
425.64	2658.85
425.83	2693.96
426.01	2731.41
426.20	2689.28
426.39	2801.62
426.58	2846.09
426.77	2862.48
426.96	2848.43
427.15	2939.71
427.33	2806.30
427.52	2871.84
427.71	2970.14
427.90	2920.99
428.09	2897.58
428.28	2876.52
428.46	2937.37
428.65	2895.24
428.84	2977.16
429.03	3038.02
429.22	2909.29
429.40	3070.78
429.59	3070.78
429.78	2853.11
429.97	2928.01
430.16	2958.44
430.34	3047.38
430.53	3115.25
430.72	3178.45
430.91	3080.14
431.10	3145.68
431.28	3089.51
431.47	3272.07
431.66	3342.28
431.85	3260.37
432.03	3253.34
432.22	3361.01
432.41	3274.41
432.60	3283.77
432.79	3295.47
432.97	3269.73
433.16	3417.18
433.35	3382.07
433.54	3372.71
433.72	3473.36
433.91	3344.63
434.10	3405.48
434.28	3246.32
434.47	3449.95
434.66	3529.53
434.85	3435.91
435.03	3527.19
435.22	3609.11
435.41	3623.15
435.59	3566.98
435.78	3506.12
435.97	3545.91
436.16	3599.74
436.34	3543.57
436.53	3705.07
436.72	3712.09
436.90	3499.10
437.09	3660.60
437.28	3655.92
437.46	3726.13
437.65	3779.97
437.84	3709.75
438.02	3625.49
438.21	3709.75
438.40	3688.68
438.58	3815.07
438.77	3829.12
438.96	3936.78
439.14	4184.88
439.33	4112.32
439.52	3988.27
439.70	4105.30
439.89	4175.52
440.08	4128.70
440.26	4152.11
440.45	4184.88
440.63	4168.49
440.82	4276.16
441.01	4224.67
441.19	4234.03
441.38	4163.81
441.57	4292.54
441.75	4393.19
441.94	4484.47
442.12	4306.59
442.31	4428.29
442.50	4400.21
442.68	4332.33
442.87	4498.51
443.05	4451.70
443.24	4655.33
443.43	4559.36
443.61	4674.05
443.80	4779.37
443.98	4477.44
444.17	4374.46
444.35	4655.33
444.54	4685.75
444.73	4627.24
444.91	4568.73
445.10	4688.09
445.28	4589.79
445.47	4620.22
445.65	4643.62
445.84	4629.58
446.02	4615.54
446.21	4592.13
446.39	4571.07
446.58	4830.87
446.77	4669.37
446.95	4620.22
447.14	4608.51
447.32	4711.50
447.51	4833.21
447.69	4629.58
447.88	4671.71
448.06	4793.42
448.25	4706.82
448.43	4795.76
448.62	4667.03
448.80	4802.78
448.99	4910.44
449.17	4875.34
449.36	4739.58
449.54	4905.76
449.73	4837.89
449.91	5048.54
450.10	4821.50
450.28	5116.41
450.46	4975.98
450.65	5125.77
450.83	5057.90
451.02	5022.79
451.20	5212.37
451.39	5064.92
451.57	5027.47
451.76	5228.76
451.94	4987.68
452.13	5153.86
452.31	5046.20
452.49	5004.07
452.68	5275.57
452.86	5188.97
453.05	5308.34
453.23	5357.49
453.42	5177.26
453.60	5259.18
453.78	5193.65
453.97	5163.22
454.15	5352.81
454.34	5282.59
454.52	5238.12
454.70	5322.38
454.89	5411.32
455.07	5467.49
455.26	5364.51
455.44	5418.34
455.62	5493.24
455.81	5352.81
455.99	5537.71
456.17	5771.76
456.36	5568.13
456.54	5757.72
456.73	5846.66
456.91	5666.44
457.09	5731.97
457.28	5968.37
457.46	5764.74
457.64	5928.58
457.83	5951.98
458.01	5701.54
458.19	5778.78
458.38	5675.80
458.56	5762.40
458.74	5977.73
458.93	5975.39
459.11	5827.93
459.29	5820.91
459.48	5867.72
459.66	5951.98
459.84	6092.41
460.03	6171.99
460.21	6017.52
460.39	6076.03
460.57	6038.58
460.76	6162.63
460.94	6179.01
461.12	6263.27
461.31	6085.39
461.49	6127.52
461.67	6132.20
461.85	6502.01
462.04	6235.19
462.22	6813.30
462.40	6256.25
462.59	6562.86
462.77	6417.75
462.95	6286.68
463.13	6494.99
463.32	6466.90
463.50	6555.84
463.68	6485.62
463.86	6455.20
464.05	6333.49
464.23	6366.26
464.41	6499.67
464.59	6600.31
464.78	6595.63
464.96	6623.72
465.14	6520.73
465.32	6600.31
465.50	6689.25
465.69	6780.53
465.87	6642.44
466.05	6691.59
466.23	6668.19
466.41	6813.30
466.60	6825.00
466.78	6825.00
466.96	6808.62
467.14	6864.79
467.32	6857.77
467.51	6832.02
467.69	6651.80
467.87	6927.99
468.05	6913.94
468.23	6544.14
468.41	6913.94
468.60	6846.07
468.78	6899.90
468.96	6850.75
469.14	7037.99
469.32	7131.61
469.50	6986.50
469.69	7084.80
469.87	7208.85
470.05	7274.38
470.23	7281.41
470.41	7229.91
470.59	7197.15
470.77	7330.56
470.95	7300.13
471.14	7442.90
471.32	7321.20
471.50	7501.42
471.68	7339.92
471.86	7332.90
472.04	7566.95
472.22	7761.22
472.40	7482.69
472.58	7637.17
472.77	7805.69
472.95	7595.04
473.13	7864.20
473.31	7639.51
473.49	7588.02
473.67	7728.45
473.85	7620.78
474.03	8044.42
474.21	7992.93
474.39	8002.29
474.57	8025.70
474.75	7920.37
474.93	8187.19
475.12	8156.77
475.30	8367.42
475.48	8100.59
475.66	8446.99
475.84	8294.86
476.02	8533.59
476.20	8329.97
476.38	8526.57
476.56	8755.94
476.74	8643.60
476.92	8606.15
477.10	8606.15
477.28	8723.18
477.46	8793.39
477.64	8788.71
477.82	9048.51
478.00	9135.11
478.18	9039.15
478.36	9111.71
478.54	9329.38
478.72	9425.34
478.90	9280.22
479.08	9598.54
479.26	9430.02
479.44	9774.08
479.62	9607.90
479.80	9827.91
479.98	9825.57
480.16	10052.60
480.34	9916.85
480.52	10218.78
480.70	10134.52
480.88	10019.83
481.06	10188.35
481.24	10115.80
481.41	10305.38
481.59	10391.98
481.77	10483.26
481.95	10731.36
482.13	10679.86
482.31	10764.12
482.49	10965.41
482.67	10918.60
482.85	11094.14
483.03	11190.10
483.21	11199.46
483.39	11625.44
483.57	11307.13
483.74	11681.61
483.92	11529.48
484.10	11466.28
484.28	11925.03
484.46	11793.96
484.64	12077.16
484.82	11873.54
485.00	12170.79
485.18	12238.66
485.35	12388.46
485.53	12439.95
485.71	12461.01
485.89	12521.87
486.07	12755.92
486.25	12798.05
486.43	12463.35
486.61	12732.51
486.78	12891.67
486.96	13022.74
487.14	13069.55
487.32	13308.29
487.50	13544.68
487.68	13575.11
487.85	13575.11
488.03	13778.73
488.21	14150.88
488.39	13970.66
488.57	13930.87
488.75	13956.61
488.92	14251.52
489.10	14373.23
489.28	14581.54
489.46	14607.28
489.64	14761.76
489.81	14843.68
489.99	14871.76
490.17	14876.44
490.35	15295.40
490.53	15286.04
490.70	15248.59
490.88	15133.90
491.06	15536.48
491.24	15433.49
491.41	15473.28
491.59	15826.70
491.77	15798.62
491.95	15805.64
492.13	16081.82
492.30	16608.44
492.48	16009.26
492.66	16252.68
492.84	16428.22
493.01	16493.76
493.19	16566.31
493.37	16858.88
493.54	16821.43
493.72	17092.93
493.90	16582.70
494.08	17153.79
494.25	17188.89
494.43	17153.79
494.61	17554.02
494.79	17465.08
494.96	17385.50
495.14	17535.29
495.32	17769.35
495.49	17624.23
495.67	17994.04
495.85	18066.60
496.02	18115.75
496.20	18073.62
496.38	18200.01
496.55	18445.76
496.73	18780.46
496.91	18321.71
497.09	18817.91
497.26	18766.42
497.44	18904.51
497.62	18836.63
497.79	19405.38
497.97	19260.27
498.14	19358.57
498.32	19487.30
498.50	19271.97
498.67	19594.96
498.85	19534.11
499.03	19836.04
499.20	19754.12
499.38	20086.48
499.56	20039.67
499.73	20009.24
499.91	20458.62
500.08	20425.86
500.26	20203.50
500.44	20442.24
500.61	20472.67
500.79	20573.31
500.97	20467.98
501.14	21022.69
501.32	20725.44
501.49	20938.43
501.67	20786.30
501.84	20973.54
502.02	21060.14
502.20	21174.83
502.37	21331.64
502.55	21153.76
502.72	21406.54
502.90	21399.52
503.07	21355.05
503.25	21469.73
503.43	21376.11
503.60	21867.63
503.78	21879.33
503.95	21708.47
504.13	21757.62
504.30	21935.50
504.48	22064.23
504.65	22129.77
504.83	22026.78
505.01	22714.90
505.18	22471.48
505.36	22347.44
505.53	22057.21
505.71	22431.69
505.88	22466.80
506.06	22621.28
506.23	22558.08
506.41	22647.02
506.58	22771.07
506.76	22817.88
506.93	22721.92
507.11	23042.57
507.28	22799.16
507.46	23274.29
507.63	23398.34
507.81	23211.09
507.98	23068.32
508.16	23213.43
508.33	23365.57
508.50	23517.70
508.68	23585.58
508.85	23896.87
509.03	23721.33
509.20	23630.05
509.38	24044.32
509.55	24109.86
509.73	24379.02
509.90	24547.54
510.08	23981.13
510.25	24547.54
510.42	24718.40
510.60	24573.28
510.77	24533.50
510.95	24835.42
511.12	24584.99
511.30	24769.89
511.47	25362.04
511.64	25083.52
511.82	25233.32
511.99	24957.13
512.17	25219.27
512.34	24863.51
512.51	25352.68
512.69	25256.72
512.86	25268.42
513.04	25467.37
513.21	25961.22
513.38	25507.16
513.56	25888.67
513.73	26068.89
513.90	25671.00
514.08	26050.16
514.25	25853.56
514.43	25820.79
514.60	25914.41
514.77	26167.19
514.95	26139.10
515.12	26096.97
515.29	26150.81
515.47	26492.52
515.64	26742.96
515.81	26504.23
515.99	26382.52
516.16	27342.14
516.33	26876.37
516.51	26867.01
516.68	26740.62
516.85	26965.31
517.03	26789.77
517.20	27131.49
517.37	26747.64
517.54	27159.58
517.72	26906.80
517.89	27318.73
518.06	27077.66
518.24	27014.46
518.41	27332.78
518.58	27321.07
518.75	27665.13
518.93	27597.26
519.10	27580.87
519.27	27754.07
519.45	27798.54
519.62	27604.28
519.79	27655.77
519.96	27847.69
520.14	28102.81
520.31	27985.79
520.48	28123.88
520.65	28072.39
520.83	28020.89
521.00	28189.41
521.17	28070.04
521.34	28205.80
521.52	28313.46
521.69	28224.52
521.86	28577.94
522.03	28428.15
522.20	28790.93
522.38	28730.08
522.55	28814.34
522.72	29170.10
522.89	28868.17
523.07	29200.52
523.24	28793.27
523.41	28713.69
523.58	29008.60
523.75	29102.22
523.92	29050.73
524.10	29074.13
524.27	29359.68
524.44	29539.90
524.61	29600.76
524.78	29652.25
524.96	29436.92
525.13	29462.66
525.30	29420.53
525.47	29729.48
525.64	29490.75
525.81	29837.15
525.98	29972.90
526.16	30082.91
526.33	29626.50
526.50	30078.22
526.67	30036.09
526.84	29722.46
527.01	29832.47
527.18	30237.38
527.36	30380.15
527.53	30176.53
527.70	30787.41
527.87	30380.15
528.04	30307.60
528.21	30429.30
528.38	30293.55
528.55	30764.00
528.72	31065.93
528.89	30766.34
529.07	30960.61
529.24	30632.93
529.41	30883.37
529.58	30991.03
529.75	30771.02
529.92	30869.33
530.09	30967.63
530.26	30780.39
530.43	31243.81
530.60	30771.02
530.77	31168.91
530.94	31199.34
531.11	30998.06
531.28	31482.55
531.46	31154.87
531.63	31674.47
531.80	31538.72
531.97	31637.02
532.14	31857.03
532.31	31695.53
532.48	31749.37
532.65	31580.85
532.82	31704.90
532.99	31868.73
533.16	31772.77
533.33	32018.53
533.50	32278.33
533.67	32011.51
533.84	31878.10
534.01	31878.10
534.18	31587.87
534.35	32353.23
534.52	32116.83
534.69	32053.64
534.86	32598.98
535.03	32311.10
535.20	32294.71
535.37	32369.61
535.54	32327.48
535.71	32191.73
535.88	32203.43
536.05	32397.70
536.22	32783.88
536.38	32774.52
536.55	32449.19
536.72	32802.61
536.89	32315.78
537.06	32804.95
537.23	32842.40
537.40	32687.92
537.57	32402.38
537.74	32692.60
537.91	33352.63
538.08	32655.15
538.25	33083.47
538.42	32870.48
538.59	33027.30
538.75	32943.04
538.92	32842.40
539.09	33296.46
539.26	33017.94
539.43	33118.58
539.60	33191.14
539.77	33251.99
539.94	33610.09
540.11	33076.45
540.28	33315.19
540.44	33329.23
540.61	33247.31
540.78	33614.77
540.95	33696.69
541.12	33668.61
541.29	33755.21
541.46	33670.95
541.62	33621.80
541.79	33837.12
541.96	33586.69
542.13	33787.97
542.30	33998.62
542.47	33897.98
542.63	33965.85
542.80	34284.17
542.97	34431.62
543.14	34562.69
543.31	34066.50
543.48	33839.47
543.64	34763.98
543.81	34717.17
543.98	34349.70
544.15	34316.93
544.32	34520.56
544.48	34712.49
544.65	34181.18
544.82	33921.38
544.99	34295.87
545.16	34717.17
545.32	34398.85
545.49	34733.55
545.66	35180.59
545.83	34763.98
546.00	35063.57
546.16	34855.26
546.33	34492.47
546.50	34209.27
546.67	34895.05
546.83	34209.27
547.00	34684.40
547.17	34668.02
547.34	34813.13
547.50	35093.99
547.67	35138.46
547.84	34930.16
548.00	35391.24
548.17	35218.04
548.34	35328.05
548.51	35093.99
548.67	35587.85
548.84	35391.24
549.01	35744.66
549.18	35473.16
549.34	35152.51
549.51	35765.73
549.68	35140.80
549.84	35363.15
550.01	35653.38
550.18	35239.11
550.34	35438.05
550.51	35943.61
550.68	35824.24
550.84	35363.15
551.01	35461.46
551.18	35599.55
551.34	35505.93
551.51	35604.23
551.68	35807.86
551.84	35653.38
552.01	36070.00
552.18	35817.22
552.34	35988.08
552.51	36184.68
552.68	35732.96
552.84	35889.77
553.01	36240.86
553.18	35899.14
553.34	36149.57
553.51	35559.76
553.67	36215.11
553.84	36397.67
554.01	36217.45
554.17	35931.90
554.34	36074.68
554.51	36081.70
554.67	36566.19
554.84	36481.93
555.00	36268.94
555.17	35917.86
555.33	36519.38
555.50	36701.94
555.67	36095.74
555.83	36301.71
556.00	36308.73
556.16	36746.41
556.33	36376.61
556.50	36275.96
556.66	36629.38
556.83	36381.29
556.99	36730.03
557.16	36512.36
557.32	36886.84
557.49	36884.50
557.65	36479.59
557.82	36142.55
557.98	36563.85
558.15	36463.21
558.32	36807.26
558.48	36580.23
558.65	36666.83
558.81	36898.55
558.98	36706.62
559.14	36676.19
559.31	36470.23
559.47	36793.22
559.64	37228.56
559.80	36758.11
559.97	37151.32
560.13	36734.71
560.30	36680.88
560.46	37013.23
560.63	36495.97
560.79	37076.43
560.96	37050.68
561.12	36783.86
561.29	36818.97
561.45	36910.25
561.61	37287.07
561.78	37413.46
561.94	36870.46
562.11	36840.03
562.27	37017.91
562.44	36872.80
562.60	37242.60
562.77	36947.70
562.93	36898.55
563.10	37031.96
563.26	37104.51
563.42	37202.82
563.59	36753.43
563.75	37434.53
563.92	37230.90
564.08	36950.04
564.24	37294.10
564.41	37202.82
564.57	36900.89
564.74	37254.31
564.90	37816.04
565.07	37280.05
565.23	37476.66
565.39	37200.47
565.56	37174.73
565.72	36994.51
565.88	37572.62
566.05	37163.03
566.21	37614.75
566.38	37413.46
566.54	37256.65
566.70	37476.66
566.87	37572.62
567.03	37429.85
567.19	37329.20
567.36	37315.16
567.52	37420.48
567.68	37460.27
567.85	37392.40
568.01	37481.34
568.17	37233.24
568.34	37593.68
568.50	37656.88
568.66	37329.20
568.83	37787.95
568.99	37361.97
569.15	37490.70
569.32	37652.20
569.48	37097.49
569.64	37603.05
569.81	37530.49
569.97	37392.40
570.13	37797.31
570.30	37486.02
570.46	37436.87
570.62	37216.86
570.78	37523.47
570.95	37184.09
571.11	37450.91
571.27	37256.65
571.43	37530.49
571.60	38057.11
571.76	37956.47
571.92	37883.91
572.09	37586.66
572.25	37794.97
572.41	37460.27
572.57	37600.71
572.74	37565.60
572.90	37574.96
573.06	37464.96
573.22	37991.58
573.38	38014.98
573.55	37621.77
573.71	38195.20
573.87	37764.54
574.03	36975.78
574.20	38031.36
574.36	37408.78
574.52	37401.76
574.68	37364.31
574.84	37820.72
575.01	37738.80
575.17	37832.42
575.33	37696.67
575.49	37816.04
575.65	37926.04
575.82	37858.17
575.98	38033.71
576.14	38014.98
576.30	37766.88
576.46	37661.56
576.62	37675.60
576.79	37715.39
576.95	37109.19
577.11	37818.38
577.27	38136.69
577.43	38073.49
577.59	37659.22
577.75	37518.79
577.92	37378.36
578.08	37296.44
578.24	37722.41
578.40	37670.92
578.56	37448.57
578.72	37673.26
578.88	38295.85
579.04	38150.73
579.21	38204.56
579.37	37872.21
579.53	37647.52
579.69	37956.47
579.85	37717.73
580.01	38127.33
580.17	37764.54
580.33	37926.04
580.49	38146.05
580.65	38129.67
580.82	37844.12
580.98	37947.11
581.14	37818.38
581.30	38447.98
581.46	37532.83
581.62	37549.21
581.78	37589.00
581.94	37689.65
582.10	37502.40
582.26	37682.62
582.42	38279.46
582.58	37970.51
582.74	38382.45
582.90	38059.45
583.06	38302.87
583.22	37450.91
583.38	37731.78
583.54	38017.32
583.70	37886.25
583.86	37635.81
584.02	37315.16
584.18	38274.78
584.34	38188.18
584.50	38141.37
584.66	37909.66
584.82	37584.32
584.98	38370.74
585.14	37996.26
585.30	38120.31
585.46	37764.54
585.62	38117.96
585.78	37914.34
585.94	37612.41
586.10	38218.61
586.26	38012.64
586.42	37930.72
586.58	37963.49
586.74	37961.15
586.90	37493.04
587.06	37724.75
587.22	38169.46
587.38	37656.88
587.54	37923.70
587.70	38234.99
587.86	37947.11
588.02	37996.26
588.18	38253.72
588.34	37909.66
588.49	37888.59
588.65	37907.32
588.81	38096.90
588.97	38251.38
589.13	37738.80
589.29	37961.15
589.45	38157.75
589.61	38459.68
589.77	38124.99
589.93	38602.46
590.08	38513.52
590.24	37907.32
590.40	38176.48
590.56	38045.41
590.72	38122.65
590.88	37659.22
591.04	37755.18
591.20	37912.00
591.35	38117.96
