SpectraSuite Data File
++++++++++++++++++++++++++++++++++++
Date: Fri Oct 04 11:48:44 GMT-05:00 2013
User: price-jones
Dark Spectrum Present: No
Reference Spectrum Present: No
Number of Sampled Component Spectra: 1
Spectrometers: USB2+H05261
Integration Time (usec): 100000 (USB2+H05261)
Spectra Averaged: 1 (USB2+H05261)
Boxcar Smoothing: 0 (USB2+H05261)
Correct for Electrical Dark: No (USB2+H05261)
Strobe/Lamp Enabled: No (USB2+H05261)
Correct for Detector Non-linearity: No (USB2+H05261)
Correct for Stray Light: No (USB2+H05261)
Number of Pixels in Processed Spectrum: 2048
>>>>>Begin Processed Spectral Data<<<<<
365.73	74.90
365.92	74.90
366.12	74.90
366.32	0.00
366.52	0.00
366.72	0.00
366.91	0.00
367.11	0.00
367.31	0.00
367.51	0.00
367.70	0.00
367.90	0.00
368.10	0.00
368.30	0.00
368.49	0.00
368.69	0.00
368.89	0.00
369.09	4.68
369.28	0.00
369.48	0.00
369.68	0.00
369.87	0.00
370.07	0.00
370.27	0.00
370.47	234.05
370.66	442.36
370.86	573.43
371.06	636.63
371.25	660.03
371.45	624.92
371.65	557.05
371.84	653.01
372.04	655.35
372.24	767.70
372.44	662.37
372.63	713.86
372.83	809.83
373.03	664.71
373.22	758.33
373.42	795.78
373.62	709.18
373.81	748.97
374.01	840.25
374.21	905.79
374.40	819.19
374.60	851.96
374.79	819.19
374.99	819.19
375.19	828.55
375.38	823.87
375.58	898.77
375.78	905.79
375.97	851.96
376.17	933.87
376.37	910.47
376.56	929.19
376.76	884.72
376.95	889.40
377.15	954.94
377.35	889.40
377.54	933.87
377.74	1043.88
377.93	894.08
378.13	983.02
378.33	973.66
378.52	884.72
378.72	1018.13
378.91	1057.92
379.11	931.53
379.31	971.32
379.50	1090.69
379.70	1069.62
379.89	1130.48
380.09	1088.35
380.28	1032.18
380.48	1008.77
380.68	1086.01
380.87	1071.97
381.07	1090.69
381.26	1153.88
381.46	1158.57
381.65	1160.91
381.85	1116.44
382.04	1093.03
382.24	1064.94
382.43	1203.04
382.63	1128.14
382.83	1200.69
383.02	1299.00
383.22	1219.42
383.41	1188.99
383.61	1327.08
383.80	1235.80
384.00	1291.98
384.19	1273.25
384.39	1261.55
384.58	1315.38
384.78	1329.42
384.97	1327.08
385.17	1322.40
385.36	1308.36
385.56	1324.74
385.75	1275.59
385.95	1413.68
386.14	1392.62
386.34	1320.06
386.53	1303.68
386.72	1357.51
386.92	1446.45
387.11	1486.24
387.31	1371.55
387.50	1444.11
387.70	1462.83
387.89	1390.28
388.09	1362.19
388.28	1526.03
388.48	1465.18
388.67	1497.94
388.86	1521.35
389.06	1434.75
389.25	1593.90
389.45	1643.06
389.64	1561.14
389.84	1699.23
390.03	1671.14
390.22	1636.03
390.42	1710.93
390.61	1636.03
390.81	1640.72
391.00	1717.95
391.19	1619.65
391.39	1692.21
391.58	1652.42
391.78	1685.19
391.97	1811.57
392.16	1757.74
392.36	1865.41
392.55	1827.96
392.75	1820.94
392.94	1753.06
393.13	1736.68
393.33	1769.44
393.52	1919.24
393.71	1933.28
393.91	1837.32
394.10	1820.94
394.29	1937.96
394.49	1781.15
394.68	1963.71
394.88	1919.24
395.07	1930.94
395.26	1952.01
395.46	2038.61
395.65	2150.95
395.84	2026.90
396.04	2153.29
396.23	2050.31
396.42	2186.06
396.62	2174.36
396.81	2155.63
397.00	2036.27
397.19	2214.15
397.39	2190.74
397.58	2359.26
397.77	2169.68
397.97	2235.21
398.16	2279.68
398.35	2307.77
398.55	2356.92
398.74	2342.88
398.93	2370.96
399.12	2445.86
399.32	2328.83
399.51	2286.70
399.70	2406.07
399.90	2399.05
400.09	2415.43
400.28	2495.01
400.47	2452.88
400.67	2495.01
400.86	2576.93
401.05	2663.53
401.24	2530.12
401.44	2637.78
401.63	2635.44
401.82	2668.21
402.01	2546.50
402.21	2612.04
402.40	2684.59
402.59	2712.68
402.78	2630.76
402.97	2743.11
403.17	2794.60
403.36	2757.15
403.55	2782.90
403.74	2841.41
403.93	2911.63
404.13	2970.14
404.32	2871.84
404.51	2942.05
404.70	3119.93
404.89	2864.82
405.09	2991.20
405.28	3080.14
405.47	3063.76
405.66	3119.93
405.85	3012.27
406.05	3145.68
406.24	3115.25
406.43	3302.50
406.62	3274.41
406.81	3433.57
407.00	3215.90
407.20	3215.90
407.39	3307.18
407.58	3424.20
407.77	3335.26
407.96	3454.63
408.15	3475.70
408.34	3368.03
408.54	3571.66
408.73	3459.31
408.92	3492.08
409.11	3655.92
409.30	3564.64
409.49	3609.11
409.68	3730.81
409.87	3688.68
410.07	3723.79
410.26	3768.26
410.45	3805.71
410.64	3735.50
410.83	3803.37
411.02	3861.88
411.21	3925.08
411.40	3896.99
411.59	3822.09
411.78	4039.76
411.98	3997.64
412.17	4124.02
412.36	3997.64
412.55	4201.26
412.74	4238.71
412.93	4306.59
413.12	4255.09
413.31	4489.15
413.50	4238.71
413.69	4379.14
413.88	4395.53
414.07	4440.00
414.26	4486.81
414.45	4564.04
414.64	4561.70
414.83	4617.88
415.02	4610.86
415.22	4713.84
415.41	4809.80
415.60	4828.53
415.79	4880.02
415.98	4990.02
416.17	4938.53
416.36	5006.41
416.55	5027.47
416.74	5076.62
416.93	5179.61
417.12	5163.22
417.31	5144.50
417.50	5205.35
417.69	5437.06
417.88	5317.70
418.07	5373.87
418.26	5387.91
418.45	5504.94
418.64	5717.93
418.83	5621.97
419.02	5542.39
419.21	5680.48
419.39	5579.84
419.58	5542.39
419.77	5547.07
419.96	5741.33
420.15	5774.10
420.34	5675.80
420.53	5870.06
420.72	5888.79
420.91	5874.74
421.10	5963.68
421.29	6029.22
421.48	5858.36
421.67	6244.55
421.86	6076.03
422.05	5951.98
422.24	6061.99
422.43	5884.11
422.61	6239.87
422.80	6326.47
422.99	6141.57
423.18	6256.25
423.37	6228.17
423.56	6284.34
423.75	6146.25
423.94	6249.23
424.13	5956.66
424.32	5944.96
424.50	6333.49
424.69	6279.66
424.88	6286.68
425.07	6183.70
425.26	6106.46
425.45	6239.87
425.64	6345.19
425.83	6310.08
426.01	6462.22
426.20	6160.29
426.39	6267.95
426.58	6373.28
426.77	6384.98
426.96	6441.15
427.15	6448.18
427.33	6441.15
427.52	6597.97
427.71	6588.61
427.90	6651.80
428.09	6707.98
428.28	6780.53
428.46	6794.58
428.65	6712.66
428.84	6937.35
429.03	7183.10
429.22	6890.54
429.40	7028.63
429.59	6911.60
429.78	6705.63
429.97	6773.51
430.16	6935.01
430.34	7000.54
430.53	7358.64
430.72	7201.83
430.91	7047.35
431.10	6988.84
431.28	7239.28
431.47	7241.62
431.66	7410.14
431.85	7363.33
432.03	7325.88
432.22	7595.04
432.41	7389.07
432.60	7651.21
432.79	7571.63
432.97	7667.60
433.16	7620.78
433.35	7531.84
433.54	7658.23
433.72	7660.57
433.91	7796.32
434.10	7702.70
434.28	7836.11
434.47	7714.41
434.66	7819.73
434.85	8138.04
435.03	7967.18
435.22	7995.27
435.41	8313.58
435.59	8105.28
435.78	8177.83
435.97	7976.55
436.16	8290.18
436.34	8084.21
436.53	8250.39
436.72	8791.05
436.90	8205.92
437.09	8365.07
437.28	8203.58
437.46	8292.52
437.65	8435.29
437.84	8631.90
438.02	8524.23
438.21	8610.83
438.40	8587.43
438.58	8781.69
438.77	9067.24
438.96	8788.71
439.14	9282.56
439.33	9102.34
439.52	9242.78
439.70	9128.09
439.89	9207.67
440.08	9296.61
440.26	9149.15
440.45	9741.31
440.63	9610.24
440.82	9652.37
441.01	9551.73
441.19	9551.73
441.38	9935.57
441.57	9778.76
441.75	10005.79
441.94	10298.36
442.12	10314.74
442.31	10457.51
442.50	10305.38
442.68	9984.73
442.87	10373.25
443.05	10391.98
443.24	10237.50
443.43	10525.39
443.61	10513.69
443.80	10640.08
443.98	10544.11
444.17	10054.94
444.35	10576.88
444.54	10759.44
444.73	10785.19
444.91	10644.76
445.10	10534.75
445.28	10279.63
445.47	10759.44
445.65	10832.00
445.84	10988.82
446.02	10934.98
446.21	10555.82
446.39	10546.45
446.58	10860.09
446.77	10862.43
446.95	10679.86
447.14	10855.40
447.32	11070.73
447.51	10956.05
447.69	10918.60
447.88	11131.59
448.06	10829.66
448.25	11019.24
448.43	10963.07
448.62	10916.26
448.80	11112.86
448.99	11075.42
449.17	11468.62
449.36	11016.90
449.54	11316.49
449.73	11379.68
449.91	11330.53
450.10	11496.71
450.28	11609.06
450.46	11693.32
450.65	11639.48
450.83	11716.72
451.02	11761.19
451.20	11644.17
451.39	11831.41
451.57	11496.71
451.76	11658.21
451.94	11761.19
452.13	12154.40
452.31	11932.05
452.49	11789.28
452.68	12180.15
452.86	12035.03
453.05	11906.31
453.23	12257.39
453.42	12231.64
453.60	12278.45
453.78	12245.68
453.97	12320.58
454.15	12283.13
454.34	12245.68
454.52	12484.42
454.70	12409.52
454.89	12898.69
455.07	12704.43
455.26	12638.89
455.44	12748.90
455.62	12774.64
455.81	12814.43
455.99	13069.55
456.17	12968.91
456.36	13146.79
456.54	13322.33
456.73	13252.11
456.91	13425.31
457.09	13745.97
457.28	13841.93
457.46	13310.63
457.64	13633.62
457.83	13745.97
458.01	13432.33
458.19	13848.95
458.38	13720.22
458.56	14064.28
458.74	14085.34
458.93	13830.23
459.11	13865.33
459.29	13886.40
459.48	13914.48
459.66	13937.89
459.84	14286.63
460.03	14487.92
460.21	14391.95
460.39	14195.35
460.57	14403.66
460.76	14185.99
460.94	14663.46
461.12	14321.74
461.31	14691.54
461.49	14436.42
461.67	14452.81
461.85	15070.71
462.04	14651.75
462.22	15410.09
462.40	14991.13
462.59	14850.70
462.77	14951.34
462.95	14857.72
463.13	14995.81
463.32	15204.12
463.50	15473.28
463.68	15246.25
463.86	15199.44
464.05	15243.91
464.23	15152.63
464.41	15393.70
464.59	14972.41
464.78	15632.44
464.96	15531.80
465.14	15424.13
465.32	15866.49
465.50	15971.82
465.69	15838.41
465.87	15587.97
466.05	15719.04
466.23	15857.13
466.41	16013.95
466.60	16086.50
466.78	15927.35
466.96	15868.83
467.14	16107.57
467.32	16060.76
467.51	16589.72
467.69	16013.95
467.87	16147.36
468.05	16446.94
468.23	16037.35
468.41	16374.39
468.60	16430.56
468.78	16652.91
468.96	16088.84
469.14	16664.61
469.32	16840.15
469.50	16702.06
469.69	17153.79
469.87	17041.44
470.05	17334.01
470.23	17069.53
470.41	17109.32
470.59	17453.37
470.77	17184.21
470.95	17469.76
471.14	17603.17
471.32	17242.73
471.50	17762.33
471.68	17523.59
471.86	17928.50
472.04	17738.92
472.22	18478.53
472.40	17811.48
472.58	18291.29
472.77	18101.70
472.95	18523.00
473.13	18611.94
473.31	18415.34
473.49	18520.66
473.67	18658.75
473.85	18558.11
474.03	19002.81
474.21	18838.97
474.39	18787.48
474.57	18792.16
474.75	19651.14
474.93	19445.17
475.12	19499.00
475.30	19761.14
475.48	19552.84
475.66	19985.83
475.84	19988.18
476.02	20458.62
476.20	20149.67
476.38	20601.40
476.56	20854.17
476.74	20915.03
476.92	20589.69
477.10	20601.40
477.28	20933.75
477.46	21137.38
477.64	21371.43
477.82	21537.61
478.00	22136.79
478.18	22005.72
478.36	22473.82
478.54	22064.23
478.72	22726.60
478.90	22539.36
479.08	22649.36
479.26	23145.56
479.44	23388.97
479.62	23775.16
479.80	23599.62
479.98	23908.57
480.16	23728.35
480.34	24018.58
480.52	24039.64
480.70	24479.66
480.88	24472.64
481.06	24816.70
481.24	24390.72
481.41	24718.40
481.59	25275.45
481.77	25565.67
481.95	25745.89
482.13	26050.16
482.31	26068.89
482.49	26300.60
482.67	26625.93
482.85	26876.37
483.03	27318.73
483.21	27697.90
483.39	27648.75
483.57	27105.74
483.74	27505.98
483.92	28222.18
484.10	28294.74
484.28	28261.97
484.46	28875.19
484.64	29738.85
484.82	29081.16
485.00	29373.72
485.18	30036.09
485.35	30015.03
485.53	29872.26
485.71	30600.16
485.89	30628.25
486.07	30590.80
486.25	30845.92
486.43	31208.70
486.61	31250.83
486.78	31796.18
486.96	32231.52
487.14	32481.95
487.32	32432.80
487.50	32985.17
487.68	33116.24
487.85	33598.39
488.03	33745.84
488.21	33979.90
488.39	34555.67
488.57	34199.91
488.75	34600.14
488.92	35016.75
489.10	35477.84
489.28	35257.83
489.46	35950.63
489.64	35330.39
489.81	36348.52
489.99	36521.72
490.17	36727.69
490.35	37125.58
490.53	36945.36
490.70	37359.63
490.88	37638.15
491.06	37769.22
491.24	37961.15
491.41	38031.36
491.59	38508.83
491.77	38597.77
491.95	38834.17
492.13	39119.71
492.30	39196.95
492.48	39594.84
492.66	39648.68
492.84	40147.21
493.01	40526.38
493.19	40484.25
493.37	40910.22
493.54	41020.23
493.72	40835.33
493.90	41500.04
494.08	41839.42
494.25	41893.25
494.43	42452.64
494.61	42644.56
494.79	42981.60
494.96	42628.18
495.14	43119.69
495.32	43346.72
495.49	43246.08
495.67	43810.15
495.85	43831.21
496.02	44123.78
496.20	44692.53
496.38	44498.26
496.55	44493.58
496.73	45420.44
496.91	45085.74
497.09	45694.28
497.26	45607.68
497.44	45490.65
497.62	45741.09
497.79	46199.83
497.97	46424.53
498.14	46618.79
498.32	46885.61
498.50	46944.12
498.67	47079.88
498.85	47264.78
499.03	47407.55
499.20	47742.25
499.38	47784.38
499.56	47812.46
499.73	48217.38
499.91	48076.94
500.08	48421.00
500.26	48217.38
500.44	48676.12
500.61	48973.37
500.79	48619.95
500.97	49006.14
501.14	49638.08
501.32	49523.40
501.49	49162.95
501.67	49502.33
501.84	49780.85
502.02	49631.06
502.20	50211.51
502.37	50492.38
502.55	50155.34
502.72	50302.79
502.90	50621.11
503.07	50351.94
503.25	50791.97
503.43	50916.01
503.60	50808.35
503.78	51468.38
503.95	51100.92
504.13	51084.53
504.30	50993.25
504.48	51229.65
504.65	52027.77
504.83	51711.80
505.01	52374.17
505.18	52027.77
505.36	52355.44
505.53	52215.01
505.71	52121.39
505.88	52210.33
506.06	51938.83
506.23	52830.57
506.41	53029.52
506.58	52743.97
506.76	52961.64
506.93	52938.24
507.11	52519.28
507.28	53317.40
507.46	53195.70
507.63	53275.27
507.81	53703.59
507.98	53460.18
508.16	53804.24
508.33	53565.50
508.50	53682.53
508.68	53956.37
508.85	54246.60
509.03	53977.43
509.20	54099.14
509.38	54490.01
509.55	54475.97
509.73	54880.88
509.90	54351.92
510.08	54609.38
510.25	54705.34
510.42	54857.48
510.60	54883.22
510.77	55248.35
510.95	55313.88
511.12	54988.55
511.30	55363.03
511.47	55405.16
511.64	55402.82
511.82	55608.79
511.99	55728.16
512.17	55683.69
512.34	55641.56
512.51	55842.84
512.69	55781.99
512.86	55889.65
513.04	56315.63
513.21	56123.71
513.38	56088.60
513.56	56142.43
513.73	56224.35
513.90	56530.96
514.08	56666.71
514.25	56505.21
514.43	56608.20
514.60	56889.06
514.77	56804.80
514.95	56982.68
515.12	56783.74
515.29	56680.75
515.47	57020.13
515.64	56933.53
515.81	57052.90
515.99	57293.97
516.16	57485.90
516.33	57293.97
516.51	57546.75
516.68	57291.63
516.85	57490.58
517.03	57677.82
517.20	57731.65
517.37	57752.72
517.54	57977.41
517.72	57900.17
517.89	57694.21
518.06	57750.38
518.24	57705.91
518.41	58049.97
518.58	58033.58
518.75	57982.09
518.93	58431.47
519.10	58239.55
519.27	58394.03
519.45	58436.16
519.62	58412.75
519.79	58501.69
519.96	58351.90
520.14	58581.27
520.31	58677.23
520.48	59051.72
520.65	58611.70
520.83	58761.49
521.00	58934.69
521.17	58911.28
521.34	59131.29
521.52	59119.59
521.69	59128.95
521.86	59213.21
522.03	59302.15
522.20	59367.69
522.38	59379.39
522.55	59522.16
522.72	59444.93
522.89	59606.42
523.07	59833.46
523.24	59632.17
523.41	59817.07
523.58	59777.28
523.75	59770.26
523.92	59788.98
524.10	59646.21
524.27	59910.69
524.44	60088.57
524.61	60116.66
524.78	60119.00
524.96	60264.11
525.13	60236.03
525.30	60264.11
525.47	60214.96
525.64	60348.37
525.81	60451.36
525.98	60460.72
526.16	60449.02
526.33	60383.48
526.50	60437.31
526.67	60278.16
526.84	60666.69
527.01	60584.77
527.18	60544.98
527.36	60935.85
527.53	60818.82
527.70	61127.77
527.87	61118.41
528.04	60994.36
528.21	60985.00
528.38	61001.38
528.55	61254.16
528.72	61015.43
528.89	61319.70
529.07	61359.48
529.24	61017.77
529.41	61286.93
529.58	61272.88
529.75	61439.06
529.92	61457.79
530.09	61525.66
530.26	61581.84
530.43	61600.56
530.60	61572.47
530.77	61481.19
530.94	61418.00
531.11	61441.40
531.28	61422.68
531.46	61586.52
531.63	61750.35
531.80	61652.05
531.97	61801.85
532.14	62040.58
532.31	61998.45
532.48	61895.47
532.65	61963.34
532.82	61712.91
532.99	62103.77
533.16	61968.02
533.33	62265.27
533.50	62319.10
533.67	62262.93
533.84	62120.16
534.01	62115.48
534.18	62115.48
534.35	62349.53
534.52	62220.80
534.69	62588.27
534.86	62466.56
535.03	62522.73
535.20	62578.90
535.37	62522.73
535.54	62745.08
535.71	62438.47
535.88	62686.57
536.05	62829.34
536.22	62752.10
536.38	62976.79
536.55	62899.56
536.72	62878.49
536.89	62742.74
537.06	62906.58
537.23	62862.11
537.40	62831.68
537.57	62621.03
537.74	62953.39
537.91	63257.66
538.08	63117.23
538.25	63145.31
538.42	63166.38
538.59	63257.66
538.75	62775.51
538.92	63199.15
539.09	63337.24
539.26	63337.24
539.43	63374.69
539.60	63515.12
539.77	63454.26
539.94	63416.82
540.11	63573.63
540.28	63463.63
540.44	63449.58
540.61	63360.64
540.78	63454.26
540.95	63545.54
541.12	63636.83
541.29	63597.04
541.46	63519.80
541.62	63564.27
541.79	63751.51
541.96	63554.91
542.13	63828.75
542.30	63842.79
542.47	63884.92
542.63	63934.07
542.80	63980.88
542.97	64231.32
543.14	64205.58
543.31	64030.04
543.48	64067.48
543.64	64371.75
543.81	64257.07
543.98	64343.67
544.15	64348.35
544.32	64423.25
544.48	64559.00
544.65	64219.62
544.82	64268.77
544.99	64217.28
545.16	64622.19
545.32	64465.38
545.49	64708.79
545.66	64748.58
545.83	64835.18
546.00	64926.46
546.16	64755.60
546.33	64699.43
546.50	64509.85
546.67	64521.55
546.83	64338.99
547.00	64727.52
547.17	64650.28
547.34	64741.56
547.50	65013.06
547.67	65050.51
547.84	64912.42
548.00	64867.95
548.17	64956.89
548.34	64924.12
548.51	65197.96
548.67	65118.38
548.84	65169.88
549.01	65015.40
549.18	64952.21
549.34	64970.93
549.51	65048.17
549.68	65270.52
549.84	65008.38
550.01	65207.32
550.18	65144.13
550.34	65263.50
550.51	65378.18
550.68	65233.07
550.84	65139.45
551.01	65282.22
551.18	65230.73
551.34	65291.58
551.51	65450.74
551.68	65535.00
551.84	65535.00
552.01	65401.59
552.18	65535.00
552.34	65535.00
552.51	65535.00
552.68	65446.06
552.84	65535.00
553.01	65535.00
553.18	65535.00
553.34	65535.00
553.51	65535.00
553.67	65535.00
553.84	65535.00
554.01	65535.00
554.17	65535.00
554.34	65535.00
554.51	65535.00
554.67	65535.00
554.84	65535.00
555.00	65535.00
555.17	65535.00
555.33	65535.00
555.50	65535.00
555.67	65535.00
555.83	65535.00
556.00	65535.00
556.16	65535.00
556.33	65535.00
556.50	65535.00
556.66	65535.00
556.83	65535.00
556.99	65535.00
557.16	65535.00
557.32	65535.00
557.49	65535.00
557.65	65535.00
557.82	65535.00
557.98	65535.00
558.15	65535.00
558.32	65535.00
558.48	65535.00
558.65	65535.00
558.81	65535.00
558.98	65535.00
559.14	65535.00
559.31	65535.00
559.47	65535.00
559.64	65535.00
559.80	65535.00
559.97	65535.00
560.13	65535.00
560.30	65535.00
560.46	65535.00
560.63	65535.00
560.79	65535.00
560.96	65535.00
561.12	65535.00
561.29	65535.00
561.45	65535.00
561.61	65535.00
561.78	65535.00
561.94	65535.00
562.11	65535.00
562.27	65535.00
562.44	65535.00
562.60	65535.00
562.77	65535.00
562.93	65535.00
563.10	65535.00
563.26	65535.00
563.42	65535.00
563.59	65535.00
563.75	65535.00
563.92	65535.00
564.08	65535.00
564.24	65535.00
564.41	65535.00
564.57	65535.00
564.74	65535.00
564.90	65535.00
565.07	65535.00
565.23	65535.00
565.39	65535.00
565.56	65535.00
565.72	65535.00
565.88	65535.00
566.05	65535.00
566.21	65535.00
566.38	65535.00
566.54	65535.00
566.70	65535.00
566.87	65535.00
567.03	65535.00
567.19	65535.00
567.36	65535.00
567.52	65535.00
567.68	65535.00
567.85	65535.00
568.01	65535.00
568.17	65535.00
568.34	65535.00
568.50	65535.00
568.66	65535.00
568.83	65535.00
568.99	65535.00
569.15	65535.00
569.32	65535.00
569.48	65535.00
569.64	65535.00
569.81	65535.00
569.97	65535.00
570.13	65535.00
570.30	65535.00
570.46	65535.00
570.62	65535.00
570.78	65535.00
570.95	65535.00
571.11	65535.00
571.27	65535.00
571.43	65535.00
571.60	65535.00
571.76	65535.00
571.92	65535.00
572.09	65535.00
572.25	65535.00
572.41	65535.00
572.57	65535.00
572.74	65535.00
572.90	65535.00
573.06	65535.00
573.22	65535.00
573.38	65535.00
573.55	65535.00
573.71	65535.00
573.87	65535.00
574.03	65535.00
574.20	65535.00
574.36	65535.00
574.52	65535.00
574.68	65535.00
574.84	65535.00
575.01	65535.00
575.17	65535.00
575.33	65535.00
575.49	65535.00
575.65	65535.00
575.82	65535.00
575.98	65535.00
576.14	65535.00
576.30	65535.00
576.46	65535.00
576.62	65535.00
576.79	65535.00
576.95	65535.00
577.11	65535.00
577.27	65535.00
577.43	65535.00
577.59	65535.00
577.75	65535.00
577.92	65535.00
578.08	65535.00
578.24	65535.00
578.40	65535.00
578.56	65535.00
578.72	65535.00
578.88	65535.00
579.04	65535.00
579.21	65535.00
579.37	65535.00
579.53	65535.00
579.69	65535.00
579.85	65535.00
580.01	65535.00
580.17	65535.00
580.33	65535.00
580.49	65535.00
580.65	65535.00
580.82	65535.00
580.98	65535.00
581.14	65535.00
581.30	65535.00
581.46	65535.00
581.62	65535.00
581.78	65535.00
581.94	65535.00
582.10	65535.00
582.26	65535.00
582.42	65535.00
582.58	65535.00
582.74	65535.00
582.90	65535.00
583.06	65535.00
583.22	65535.00
583.38	65535.00
583.54	65535.00
583.70	65535.00
583.86	65535.00
584.02	65535.00
584.18	65535.00
584.34	65535.00
584.50	65535.00
584.66	65535.00
584.82	65535.00
584.98	65535.00
585.14	65535.00
585.30	65535.00
585.46	65535.00
585.62	65535.00
585.78	65535.00
585.94	65535.00
586.10	65535.00
586.26	65535.00
586.42	65535.00
586.58	65535.00
586.74	65535.00
586.90	65535.00
587.06	65535.00
587.22	65535.00
587.38	65535.00
587.54	65535.00
587.70	65535.00
587.86	65535.00
588.02	65535.00
