SpectraSuite Data File
++++++++++++++++++++++++++++++++++++
Date: Fri Oct 04 11:47:02 GMT-05:00 2013
User: price-jones
Dark Spectrum Present: No
Reference Spectrum Present: No
Number of Sampled Component Spectra: 1
Spectrometers: USB2+H05261
Integration Time (usec): 100000 (USB2+H05261)
Spectra Averaged: 1 (USB2+H05261)
Boxcar Smoothing: 0 (USB2+H05261)
Correct for Electrical Dark: No (USB2+H05261)
Strobe/Lamp Enabled: No (USB2+H05261)
Correct for Detector Non-linearity: No (USB2+H05261)
Correct for Stray Light: No (USB2+H05261)
Number of Pixels in Processed Spectrum: 2048
>>>>>Begin Processed Spectral Data<<<<<
365.73	79.58
365.92	79.58
366.12	79.58
366.32	0.00
366.52	0.00
366.72	0.00
366.91	0.00
367.11	0.00
367.31	0.00
367.51	0.00
367.70	0.00
367.90	0.00
368.10	0.00
368.30	0.00
368.49	0.00
368.69	0.00
368.89	0.00
369.09	0.00
369.28	18.72
369.48	0.00
369.68	9.36
369.87	0.00
370.07	0.00
370.27	0.00
370.47	0.00
370.66	4.68
370.86	0.00
371.06	95.96
371.25	98.30
371.45	11.70
371.65	74.90
371.84	65.54
372.04	16.38
372.24	18.72
372.44	70.22
372.63	168.52
372.83	74.90
373.03	95.96
373.22	133.41
373.42	149.79
373.62	138.09
373.81	161.50
374.01	100.64
374.21	156.82
374.40	105.32
374.60	121.71
374.79	95.96
374.99	65.54
375.19	140.43
375.38	105.32
375.58	145.11
375.78	124.05
375.97	187.24
376.17	210.65
376.37	72.56
376.56	77.24
376.76	28.09
376.95	63.19
377.15	107.66
377.35	79.58
377.54	58.51
377.74	53.83
377.93	72.56
378.13	131.07
378.33	105.32
378.52	117.03
378.72	138.09
378.91	102.98
379.11	86.60
379.31	173.20
379.50	119.37
379.70	100.64
379.89	18.72
380.09	65.54
380.28	88.94
380.48	74.90
380.68	46.81
380.87	42.13
381.07	81.92
381.26	124.05
381.46	23.41
381.65	166.18
381.85	77.24
382.04	58.51
382.24	107.66
382.43	121.71
382.63	91.28
382.83	110.01
383.02	112.35
383.22	135.75
383.41	114.69
383.61	98.30
383.80	77.24
384.00	95.96
384.19	95.96
384.39	114.69
384.58	70.22
384.78	77.24
384.97	114.69
385.17	56.17
385.36	37.45
385.56	93.62
385.75	98.30
385.95	182.56
386.14	173.20
386.34	53.83
386.53	121.71
386.72	53.83
386.92	63.19
387.11	14.04
387.31	114.69
387.50	110.01
387.70	98.30
387.89	110.01
388.09	63.19
388.28	77.24
388.48	95.96
388.67	126.39
388.86	117.03
389.06	65.54
389.25	107.66
389.45	126.39
389.64	205.97
389.84	117.03
390.03	170.86
390.22	117.03
390.42	100.64
390.61	39.79
390.81	166.18
391.00	65.54
391.19	117.03
391.39	107.66
391.58	63.19
391.78	95.96
391.97	32.77
392.16	65.54
392.36	163.84
392.55	124.05
392.75	95.96
392.94	51.49
393.13	107.66
393.33	107.66
393.52	72.56
393.71	95.96
393.91	77.24
394.10	84.26
394.29	91.28
394.49	140.43
394.68	145.11
394.88	177.88
395.07	100.64
395.26	119.37
395.46	79.58
395.65	131.07
395.84	74.90
396.04	173.20
396.23	107.66
396.42	79.58
396.62	124.05
396.81	51.49
397.00	42.13
397.19	81.92
397.39	154.48
397.58	126.39
397.77	67.88
397.97	126.39
398.16	135.75
398.35	56.17
398.55	63.19
398.74	131.07
398.93	63.19
399.12	107.66
399.32	93.62
399.51	100.64
399.70	105.32
399.90	56.17
400.09	149.79
400.28	138.09
400.47	86.60
400.67	142.77
400.86	154.48
401.05	163.84
401.24	121.71
401.44	100.64
401.63	135.75
401.82	126.39
402.01	67.88
402.21	88.94
402.40	135.75
402.59	51.49
402.78	63.19
402.97	128.73
403.17	100.64
403.36	93.62
403.55	126.39
403.74	121.71
403.93	147.45
404.13	187.24
404.32	91.28
404.51	131.07
404.70	102.98
404.89	21.06
405.09	159.16
405.28	110.01
405.47	86.60
405.66	124.05
405.85	128.73
406.05	159.16
406.24	117.03
406.43	149.79
406.62	142.77
406.81	119.37
407.00	114.69
407.20	117.03
407.39	152.13
407.58	131.07
407.77	86.60
407.96	140.43
408.15	114.69
408.34	74.90
408.54	37.45
408.73	105.32
408.92	112.35
409.11	128.73
409.30	170.86
409.49	37.45
409.68	98.30
409.87	117.03
410.07	74.90
410.26	65.54
410.45	135.75
410.64	140.43
410.83	70.22
411.02	142.77
411.21	128.73
411.40	166.18
411.59	154.48
411.78	72.56
411.98	72.56
412.17	63.19
412.36	74.90
412.55	135.75
412.74	95.96
412.93	217.67
413.12	74.90
413.31	128.73
413.50	93.62
413.69	100.64
413.88	128.73
414.07	46.81
414.26	131.07
414.45	203.63
414.64	95.96
414.83	121.71
415.02	126.39
415.22	217.67
415.41	131.07
415.60	65.54
415.79	88.94
415.98	131.07
416.17	32.77
416.36	63.19
416.55	88.94
416.74	124.05
416.93	126.39
417.12	133.41
417.31	147.45
417.50	145.11
417.69	222.35
417.88	210.65
418.07	210.65
418.26	250.44
418.45	166.18
418.64	166.18
418.83	201.29
419.02	135.75
419.21	156.82
419.39	229.37
419.58	220.01
419.77	208.31
419.96	135.75
420.15	133.41
420.34	147.45
420.53	133.41
420.72	126.39
420.91	88.94
421.10	124.05
421.29	114.69
421.48	180.22
421.67	145.11
421.86	124.05
422.05	77.24
422.24	49.15
422.43	131.07
422.61	105.32
422.80	117.03
422.99	49.15
423.18	147.45
423.37	196.60
423.56	128.73
423.75	72.56
423.94	93.62
424.13	93.62
424.32	107.66
424.50	124.05
424.69	163.84
424.88	154.48
425.07	149.79
425.26	91.28
425.45	198.95
425.64	257.46
425.83	187.24
426.01	175.54
426.20	145.11
426.39	159.16
426.58	77.24
426.77	161.50
426.96	142.77
427.15	212.99
427.33	177.88
427.52	124.05
427.71	161.50
427.90	126.39
428.09	91.28
428.28	149.79
428.46	86.60
428.65	145.11
428.84	100.64
429.03	163.84
429.22	166.18
429.40	112.35
429.59	138.09
429.78	161.50
429.97	159.16
430.16	110.01
430.34	37.45
430.53	126.39
430.72	74.90
430.91	159.16
431.10	142.77
431.28	121.71
431.47	58.51
431.66	56.17
431.85	149.79
432.03	156.82
432.22	133.41
432.41	70.22
432.60	161.50
432.79	170.86
432.97	290.23
433.16	241.08
433.35	161.50
433.54	201.29
433.72	182.56
433.91	175.54
434.10	187.24
434.28	203.63
434.47	133.41
434.66	142.77
434.85	142.77
435.03	119.37
435.22	140.43
435.41	201.29
435.59	180.22
435.78	93.62
435.97	170.86
436.16	135.75
436.34	138.09
436.53	98.30
436.72	182.56
436.90	121.71
437.09	135.75
437.28	86.60
437.46	187.24
437.65	161.50
437.84	142.77
438.02	124.05
438.21	126.39
438.40	124.05
438.58	81.92
438.77	154.48
438.96	70.22
439.14	138.09
439.33	105.32
439.52	88.94
439.70	77.24
439.89	107.66
440.08	138.09
440.26	187.24
440.45	194.26
440.63	86.60
440.82	163.84
441.01	121.71
441.19	140.43
441.38	191.92
441.57	98.30
441.75	147.45
441.94	74.90
442.12	170.86
442.31	149.79
442.50	91.28
442.68	184.90
442.87	131.07
443.05	126.39
443.24	166.18
443.43	107.66
443.61	117.03
443.80	30.43
443.98	91.28
444.17	182.56
444.35	126.39
444.54	145.11
444.73	131.07
444.91	114.69
445.10	131.07
445.28	205.97
445.47	135.75
445.65	154.48
445.84	114.69
446.02	42.13
446.21	184.90
446.39	131.07
446.58	93.62
446.77	65.54
446.95	112.35
447.14	138.09
447.32	252.78
447.51	74.90
447.69	170.86
447.88	187.24
448.06	194.26
448.25	93.62
448.43	44.47
448.62	128.73
448.80	145.11
448.99	112.35
449.17	98.30
449.36	102.98
449.54	161.50
449.73	170.86
449.91	215.33
450.10	49.15
450.28	145.11
450.46	208.31
450.65	203.63
450.83	149.79
451.02	138.09
451.20	131.07
451.39	110.01
451.57	140.43
451.76	126.39
451.94	133.41
452.13	161.50
452.31	173.20
452.49	147.45
452.68	70.22
452.86	88.94
453.05	191.92
453.23	117.03
453.42	79.58
453.60	154.48
453.78	180.22
453.97	161.50
454.15	135.75
454.34	156.82
454.52	107.66
454.70	149.79
454.89	159.16
455.07	63.19
455.26	128.73
455.44	161.50
455.62	110.01
455.81	217.67
455.99	198.95
456.17	203.63
456.36	154.48
456.54	119.37
456.73	159.16
456.91	107.66
457.09	93.62
457.28	149.79
457.46	133.41
457.64	128.73
457.83	177.88
458.01	114.69
458.19	191.92
458.38	222.35
458.56	107.66
458.74	30.43
458.93	138.09
459.11	128.73
459.29	184.90
459.48	180.22
459.66	124.05
459.84	128.73
460.03	245.76
460.21	168.52
460.39	175.54
460.57	121.71
460.76	135.75
460.94	119.37
461.12	191.92
461.31	208.31
461.49	215.33
461.67	91.28
461.85	161.50
462.04	93.62
462.22	503.22
462.40	159.16
462.59	189.58
462.77	112.35
462.95	177.88
463.13	110.01
463.32	131.07
463.50	201.29
463.68	133.41
463.86	105.32
464.05	133.41
464.23	173.20
464.41	217.67
464.59	105.32
464.78	133.41
464.96	161.50
465.14	126.39
465.32	201.29
465.50	168.52
465.69	168.52
465.87	100.64
466.05	152.13
466.23	117.03
466.41	168.52
466.60	110.01
466.78	131.07
466.96	175.54
467.14	205.97
467.32	187.24
467.51	152.13
467.69	156.82
467.87	196.60
468.05	121.71
468.23	196.60
468.41	175.54
468.60	138.09
468.78	182.56
468.96	220.01
469.14	86.60
469.32	154.48
469.50	121.71
469.69	152.13
469.87	117.03
470.05	79.58
470.23	222.35
470.41	147.45
470.59	189.58
470.77	145.11
470.95	126.39
471.14	203.63
471.32	238.73
471.50	177.88
471.68	91.28
471.86	227.03
472.04	180.22
472.22	135.75
472.40	86.60
472.58	154.48
472.77	107.66
472.95	145.11
473.13	114.69
473.31	210.65
473.49	135.75
473.67	187.24
473.85	126.39
474.03	170.86
474.21	140.43
474.39	152.13
474.57	177.88
474.75	124.05
474.93	168.52
475.12	175.54
475.30	156.82
475.48	114.69
475.66	100.64
475.84	128.73
476.02	124.05
476.20	182.56
476.38	149.79
476.56	163.84
476.74	156.82
476.92	149.79
477.10	98.30
477.28	175.54
477.46	163.84
477.64	184.90
477.82	168.52
478.00	91.28
478.18	95.96
478.36	138.09
478.54	100.64
478.72	161.50
478.90	117.03
479.08	189.58
479.26	121.71
479.44	152.13
479.62	81.92
479.80	194.26
479.98	126.39
480.16	128.73
480.34	198.95
480.52	124.05
480.70	124.05
480.88	159.16
481.06	161.50
481.24	107.66
481.41	168.52
481.59	198.95
481.77	173.20
481.95	107.66
482.13	168.52
482.31	168.52
482.49	145.11
482.67	182.56
482.85	102.98
483.03	149.79
483.21	187.24
483.39	140.43
483.57	112.35
483.74	208.31
483.92	168.52
484.10	147.45
484.28	149.79
484.46	198.95
484.64	142.77
484.82	163.84
485.00	168.52
485.18	191.92
485.35	133.41
485.53	156.82
485.71	140.43
485.89	173.20
486.07	147.45
486.25	166.18
486.43	168.52
486.61	234.05
486.78	114.69
486.96	107.66
487.14	145.11
487.32	255.12
487.50	170.86
487.68	205.97
487.85	142.77
488.03	142.77
488.21	138.09
488.39	180.22
488.57	191.92
488.75	215.33
488.92	393.21
489.10	124.05
489.28	196.60
489.46	102.98
489.64	124.05
489.81	147.45
489.99	175.54
490.17	215.33
490.35	280.86
490.53	222.35
490.70	145.11
490.88	205.97
491.06	182.56
491.24	248.10
491.41	187.24
491.59	102.98
491.77	121.71
491.95	168.52
492.13	177.88
492.30	152.13
492.48	175.54
492.66	175.54
492.84	166.18
493.01	208.31
493.19	121.71
493.37	145.11
493.54	243.42
493.72	187.24
493.90	102.98
494.08	159.16
494.25	245.76
494.43	140.43
494.61	231.71
494.79	117.03
494.96	173.20
495.14	198.95
495.32	215.33
495.49	203.63
495.67	159.16
495.85	205.97
496.02	250.44
496.20	229.37
496.38	243.42
496.55	177.88
496.73	210.65
496.91	140.43
497.09	227.03
497.26	152.13
497.44	170.86
497.62	170.86
497.79	152.13
497.97	269.16
498.14	170.86
498.32	245.76
498.50	201.29
498.67	224.69
498.85	159.16
499.03	166.18
499.20	142.77
499.38	128.73
499.56	117.03
499.73	196.60
499.91	257.46
500.08	220.01
500.26	138.09
500.44	191.92
500.61	203.63
500.79	212.99
500.97	227.03
501.14	156.82
501.32	198.95
501.49	182.56
501.67	135.75
501.84	198.95
502.02	175.54
502.20	182.56
502.37	187.24
502.55	238.73
502.72	191.92
502.90	220.01
503.07	210.65
503.25	201.29
503.43	215.33
503.60	208.31
503.78	198.95
503.95	229.37
504.13	173.20
504.30	222.35
504.48	180.22
504.65	273.84
504.83	187.24
505.01	177.88
505.18	166.18
505.36	212.99
505.53	156.82
505.71	227.03
505.88	229.37
506.06	285.55
506.23	170.86
506.41	114.69
506.58	177.88
506.76	210.65
506.93	149.79
507.11	184.90
507.28	124.05
507.46	135.75
507.63	243.42
507.81	161.50
507.98	205.97
508.16	149.79
508.33	196.60
508.50	217.67
508.68	147.45
508.85	166.18
509.03	231.71
509.20	138.09
509.38	152.13
509.55	252.78
509.73	266.82
509.90	229.37
510.08	210.65
510.25	173.20
510.42	215.33
510.60	149.79
510.77	187.24
510.95	262.14
511.12	220.01
511.30	299.59
511.47	248.10
511.64	271.50
511.82	187.24
511.99	187.24
512.17	173.20
512.34	163.84
512.51	205.97
512.69	133.41
512.86	238.73
513.04	112.35
513.21	234.05
513.38	212.99
513.56	187.24
513.73	205.97
513.90	133.41
514.08	131.07
514.25	201.29
514.43	229.37
514.60	198.95
514.77	156.82
514.95	238.73
515.12	205.97
515.29	210.65
515.47	177.88
515.64	283.20
515.81	191.92
515.99	203.63
516.16	161.50
516.33	156.82
516.51	212.99
516.68	152.13
516.85	208.31
517.03	175.54
517.20	245.76
517.37	255.12
517.54	201.29
517.72	180.22
517.89	98.30
518.06	91.28
518.24	166.18
518.41	287.89
518.58	290.23
518.75	182.56
518.93	224.69
519.10	269.16
519.27	152.13
519.45	250.44
519.62	194.26
519.79	266.82
519.96	194.26
520.14	278.52
520.31	196.60
520.48	159.16
520.65	224.69
520.83	224.69
521.00	196.60
521.17	187.24
521.34	184.90
521.52	215.33
521.69	180.22
521.86	203.63
522.03	243.42
522.20	269.16
522.38	215.33
522.55	170.86
522.72	168.52
522.89	205.97
523.07	248.10
523.24	229.37
523.41	210.65
523.58	292.57
523.75	212.99
523.92	205.97
524.10	191.92
524.27	175.54
524.44	91.28
524.61	191.92
524.78	224.69
524.96	184.90
525.13	262.14
525.30	210.65
525.47	227.03
525.64	238.73
525.81	133.41
525.98	212.99
526.16	189.58
526.33	98.30
526.50	133.41
526.67	147.45
526.84	198.95
527.01	248.10
527.18	248.10
527.36	152.13
527.53	159.16
527.70	276.18
527.87	224.69
528.04	173.20
528.21	252.78
528.38	273.84
528.55	236.39
528.72	243.42
528.89	133.41
529.07	248.10
529.24	236.39
529.41	292.57
529.58	248.10
529.75	184.90
529.92	257.46
530.09	234.05
530.26	276.18
530.43	217.67
530.60	224.69
530.77	208.31
530.94	198.95
531.11	234.05
531.28	241.08
531.46	173.20
531.63	243.42
531.80	191.92
531.97	166.18
532.14	231.71
532.31	238.73
532.48	252.78
532.65	308.95
532.82	280.86
532.99	404.91
533.16	379.17
533.33	250.44
533.50	297.25
533.67	355.76
533.84	470.45
534.01	486.83
534.18	416.62
534.35	322.99
534.52	313.63
534.69	278.52
534.86	241.08
535.03	231.71
535.20	271.50
535.37	224.69
535.54	248.10
535.71	297.25
535.88	231.71
536.05	194.26
536.22	248.10
536.38	196.60
536.55	243.42
536.72	264.48
536.89	210.65
537.06	210.65
537.23	205.97
537.40	269.16
537.57	229.37
537.74	264.48
537.91	154.48
538.08	227.03
538.25	224.69
538.42	236.39
538.59	278.52
538.75	180.22
538.92	191.92
539.09	201.29
539.26	159.16
539.43	535.98
539.60	1371.55
539.77	2139.25
539.94	2272.66
540.11	1385.60
540.28	774.72
540.44	575.77
540.61	313.63
540.78	210.65
540.95	222.35
541.12	154.48
541.29	203.63
541.46	393.21
541.62	212.99
541.79	250.44
541.96	191.92
542.13	79.58
542.30	208.31
542.47	196.60
542.63	140.43
542.80	194.26
542.97	227.03
543.14	229.37
543.31	229.37
543.48	187.24
543.64	205.97
543.81	198.95
543.98	152.13
544.15	177.88
544.32	198.95
544.48	227.03
544.65	234.05
544.82	257.46
544.99	250.44
545.16	201.29
545.32	175.54
545.49	205.97
545.66	220.01
545.83	224.69
546.00	217.67
546.16	168.52
546.33	266.82
546.50	208.31
546.67	280.86
546.83	224.69
547.00	264.48
547.17	112.35
547.34	210.65
547.50	187.24
547.67	212.99
547.84	208.31
548.00	194.26
548.17	131.07
548.34	248.10
548.51	269.16
548.67	222.35
548.84	126.39
549.01	248.10
549.18	217.67
549.34	187.24
549.51	203.63
549.68	259.80
549.84	222.35
550.01	175.54
550.18	290.23
550.34	238.73
550.51	220.01
550.68	297.25
550.84	238.73
551.01	280.86
551.18	220.01
551.34	102.98
551.51	217.67
551.68	243.42
551.84	227.03
552.01	217.67
552.18	220.01
552.34	245.76
552.51	182.56
552.68	205.97
552.84	175.54
553.01	201.29
553.18	229.37
553.34	196.60
553.51	180.22
553.67	241.08
553.84	271.50
554.01	245.76
554.17	243.42
554.34	212.99
554.51	180.22
554.67	135.75
554.84	205.97
555.00	210.65
555.17	191.92
555.33	217.67
555.50	180.22
555.67	203.63
555.83	259.80
556.00	189.58
556.16	411.93
556.33	332.36
556.50	184.90
556.66	222.35
556.83	180.22
556.99	245.76
557.16	224.69
557.32	173.20
557.49	184.90
557.65	163.84
557.82	215.33
557.98	262.14
558.15	208.31
558.32	194.26
558.48	152.13
558.65	177.88
558.81	168.52
558.98	156.82
559.14	248.10
559.31	166.18
559.47	184.90
559.64	245.76
559.80	182.56
559.97	184.90
560.13	152.13
560.30	217.67
560.46	198.95
560.63	159.16
560.79	229.37
560.96	229.37
561.12	217.67
561.29	241.08
561.45	208.31
561.61	198.95
561.78	278.52
561.94	241.08
562.11	168.52
562.27	135.75
562.44	198.95
562.60	152.13
562.77	170.86
562.93	285.55
563.10	257.46
563.26	203.63
563.42	201.29
563.59	229.37
563.75	166.18
563.92	205.97
564.08	215.33
564.24	264.48
564.41	224.69
564.57	173.20
564.74	304.27
564.90	201.29
565.07	255.12
565.23	231.71
565.39	231.71
565.56	339.38
565.72	241.08
565.88	152.13
566.05	177.88
566.21	198.95
566.38	231.71
566.54	220.01
566.70	208.31
566.87	229.37
567.03	180.22
567.19	250.44
567.36	220.01
567.52	222.35
567.68	142.77
567.85	205.97
568.01	184.90
568.17	180.22
568.34	189.58
568.50	198.95
568.66	222.35
568.83	287.89
568.99	278.52
569.15	285.55
569.32	252.78
569.48	145.11
569.64	177.88
569.81	248.10
569.97	201.29
570.13	205.97
570.30	152.13
570.46	210.65
570.62	208.31
570.78	156.82
570.95	170.86
571.11	259.80
571.27	346.40
571.43	227.03
571.60	276.18
571.76	283.20
571.92	177.88
572.09	184.90
572.25	212.99
572.41	264.48
572.57	175.54
572.74	271.50
572.90	250.44
573.06	273.84
573.22	271.50
573.38	313.63
573.55	238.73
573.71	243.42
573.87	173.20
574.03	229.37
574.20	252.78
574.36	241.08
574.52	337.04
574.68	411.93
574.84	266.82
575.01	278.52
575.17	194.26
575.33	285.55
575.49	234.05
575.65	271.50
575.82	381.51
575.98	568.75
576.14	931.53
576.30	938.55
576.46	709.18
576.62	472.79
576.79	365.12
576.95	404.91
577.11	278.52
577.27	334.70
577.43	360.44
577.59	332.36
577.75	220.01
577.92	236.39
578.08	224.69
578.24	318.31
578.40	304.27
578.56	287.89
578.72	325.33
578.88	308.95
579.04	227.03
579.21	262.14
579.37	341.72
579.53	292.57
579.69	308.95
579.85	243.42
580.01	383.85
580.17	472.79
580.33	402.57
580.49	365.12
580.65	337.04
580.82	374.49
580.98	374.49
581.14	334.70
581.30	461.09
581.46	554.71
581.62	688.12
581.78	763.01
581.94	727.91
582.10	645.99
582.26	557.05
582.42	503.22
582.58	482.15
582.74	503.22
582.90	423.64
583.06	514.92
583.22	575.77
583.38	613.22
583.54	564.07
583.70	725.57
583.86	908.13
584.02	1034.52
584.18	1210.06
584.34	1729.66
584.50	4358.08
584.66	33214.54
584.82	65535.00
584.98	65535.00
585.14	65535.00
585.30	65535.00
585.46	45158.30
585.62	28226.86
585.78	12533.57
585.94	4793.42
586.10	2263.30
586.26	1418.36
586.42	1081.33
586.58	898.77
586.74	812.17
586.90	779.40
587.06	681.10
587.22	730.25
587.38	692.80
587.54	1643.06
587.70	4954.91
587.86	8428.27
588.02	9891.10
588.18	7077.78
588.34	4262.12
588.49	2813.32
588.65	1652.42
588.81	856.64
588.97	484.49
589.13	390.87
589.29	376.83
589.45	374.49
589.61	334.70
589.77	564.07
589.93	505.56
590.08	561.73
590.24	566.41
590.40	531.30
590.56	451.72
590.72	430.66
590.88	311.29
591.04	390.87
591.20	365.12
591.35	388.53
591.51	306.61
591.67	344.06
591.83	285.55
591.99	330.02
592.15	327.68
592.31	271.50
592.46	322.99
592.62	248.10
592.78	337.04
592.94	332.36
593.10	266.82
593.26	292.57
593.41	407.25
593.57	414.27
593.73	760.67
593.89	3854.86
594.05	10583.90
594.20	16727.81
594.36	16264.38
594.52	10483.26
594.68	6392.00
594.84	4332.33
594.99	2305.43
595.15	978.34
595.31	566.41
595.47	435.34
595.62	358.10
595.78	334.70
595.94	287.89
596.10	379.17
596.25	376.83
596.41	409.59
596.57	351.08
596.73	414.27
596.88	711.52
597.04	2003.50
597.20	3241.64
597.36	4004.66
597.51	3056.74
597.67	1952.01
597.83	1252.19
597.99	936.21
598.14	564.07
598.30	372.15
598.46	379.17
598.61	388.53
598.77	379.17
598.93	313.63
599.09	283.20
599.24	313.63
599.40	292.57
599.56	243.42
599.71	224.69
599.87	245.76
600.03	222.35
600.18	259.80
600.34	259.80
600.50	205.97
600.65	257.46
600.81	196.60
600.97	170.86
601.12	266.82
601.28	287.89
601.44	212.99
601.59	238.73
601.75	245.76
601.91	203.63
602.06	334.70
602.22	351.08
602.37	814.51
602.53	2436.50
602.69	3857.20
602.84	4332.33
603.00	3059.08
603.16	2054.99
603.31	1401.98
603.47	954.94
603.62	550.03
603.78	390.87
603.94	360.44
604.09	297.25
604.25	318.31
604.40	325.33
604.56	245.76
604.71	276.18
604.87	229.37
605.03	283.20
605.18	264.48
605.34	280.86
605.49	238.73
605.65	264.48
605.80	184.90
605.96	238.73
606.12	330.02
606.27	367.46
606.43	372.15
606.58	479.81
606.74	1022.81
606.89	4842.57
607.05	10658.80
607.20	14642.39
607.36	12016.31
607.51	8102.93
607.67	4884.70
607.82	3370.37
607.98	1834.98
608.13	875.36
608.29	580.45
608.44	489.17
608.60	428.32
608.75	622.58
608.91	1476.88
609.06	7616.10
609.22	17682.75
609.37	25879.30
609.53	22005.72
609.68	14471.53
609.84	9025.11
609.99	5888.79
610.15	3133.98
610.30	1385.60
610.46	826.21
610.61	491.51
610.76	465.77
610.92	454.06
611.07	367.46
611.23	411.93
611.38	369.80
611.54	238.73
