SpectraSuite Data File
++++++++++++++++++++++++++++++++++++
Date: Fri Oct 04 11:48:39 GMT-05:00 2013
User: price-jones
Dark Spectrum Present: No
Reference Spectrum Present: No
Number of Sampled Component Spectra: 1
Spectrometers: USB2+H05261
Integration Time (usec): 100000 (USB2+H05261)
Spectra Averaged: 1 (USB2+H05261)
Boxcar Smoothing: 0 (USB2+H05261)
Correct for Electrical Dark: No (USB2+H05261)
Strobe/Lamp Enabled: No (USB2+H05261)
Correct for Detector Non-linearity: No (USB2+H05261)
Correct for Stray Light: No (USB2+H05261)
Number of Pixels in Processed Spectrum: 2048
>>>>>Begin Processed Spectral Data<<<<<
365.73	35.11
365.92	35.11
366.12	35.11
366.32	0.00
366.52	0.00
366.72	0.00
366.91	0.00
367.11	0.00
367.31	0.00
367.51	0.00
367.70	0.00
367.90	0.00
368.10	0.00
368.30	0.00
368.49	0.00
368.69	0.00
368.89	0.00
369.09	0.00
369.28	0.00
369.48	0.00
369.68	23.41
369.87	0.00
370.07	9.36
370.27	4.68
370.47	152.13
370.66	255.12
370.86	351.08
371.06	339.38
371.25	341.72
371.45	285.55
371.65	341.72
371.84	304.27
372.04	374.49
372.24	444.70
372.44	318.31
372.63	407.25
372.83	454.06
373.03	514.92
373.22	418.96
373.42	433.00
373.62	472.79
373.81	489.17
374.01	496.19
374.21	472.79
374.40	468.11
374.60	472.79
374.79	454.06
374.99	442.36
375.19	458.74
375.38	535.98
375.58	510.24
375.78	524.28
375.97	493.85
376.17	552.37
376.37	463.43
376.56	559.39
376.76	433.00
376.95	535.98
377.15	470.45
377.35	503.22
377.54	589.82
377.74	470.45
377.93	470.45
378.13	479.81
378.33	547.69
378.52	531.30
378.72	578.11
378.91	561.73
379.11	524.28
379.31	554.71
379.50	535.98
379.70	599.18
379.89	521.94
380.09	500.87
380.28	545.34
380.48	601.52
380.68	571.09
380.87	610.88
381.07	573.43
381.26	660.03
381.46	573.43
381.65	585.13
381.85	568.75
382.04	575.77
382.24	606.20
382.43	613.22
382.63	561.73
382.83	624.92
383.02	667.05
383.22	678.76
383.41	667.05
383.61	734.93
383.80	629.60
384.00	704.50
384.19	573.43
384.39	641.31
384.58	739.61
384.78	723.23
384.97	655.35
385.17	751.31
385.36	634.29
385.56	702.16
385.75	711.52
385.95	664.71
386.14	737.27
386.34	676.41
386.53	779.40
386.72	699.82
386.92	767.70
387.11	753.65
387.31	800.46
387.50	732.59
387.70	807.48
387.89	770.04
388.09	667.05
388.28	784.08
388.48	791.10
388.67	905.79
388.86	800.46
389.06	856.64
389.25	844.93
389.45	866.00
389.64	849.61
389.84	779.40
390.03	854.30
390.22	873.02
390.42	844.93
390.61	826.21
390.81	837.91
391.00	800.46
391.19	924.51
391.39	973.66
391.58	1001.75
391.78	912.81
391.97	952.60
392.16	1008.77
392.36	1020.47
392.55	976.00
392.75	952.60
392.94	1006.43
393.13	1041.54
393.33	880.04
393.52	926.85
393.71	1083.67
393.91	1027.50
394.10	990.05
394.29	1041.54
394.49	1060.26
394.68	1053.24
394.88	1125.80
395.07	1083.67
395.26	1067.28
395.46	1011.11
395.65	1128.14
395.84	1020.47
396.04	1165.59
396.23	1165.59
396.42	1165.59
396.62	1139.84
396.81	1151.54
397.00	1128.14
397.19	1245.16
397.39	1181.97
397.58	1186.65
397.77	1284.95
397.97	1170.27
398.16	1242.82
398.35	1294.32
398.55	1221.76
398.74	1355.17
398.93	1334.11
399.12	1352.83
399.32	1275.59
399.51	1306.02
399.70	1308.36
399.90	1338.79
400.09	1439.43
400.28	1380.92
400.47	1380.92
400.67	1497.94
400.86	1350.49
401.05	1376.24
401.24	1401.98
401.44	1465.18
401.63	1493.26
401.82	1514.33
402.01	1476.88
402.21	1563.48
402.40	1598.59
402.59	1612.63
402.78	1551.78
402.97	1500.28
403.17	1621.99
403.36	1682.85
403.55	1500.28
403.74	1617.31
403.93	1629.01
404.13	1591.56
404.32	1682.85
404.51	1675.82
404.70	1596.25
404.89	1741.36
405.09	1790.51
405.28	1739.02
405.47	1739.02
405.66	1832.64
405.85	1820.94
406.05	1769.44
406.24	1893.49
406.43	1865.41
406.62	1865.41
406.81	2026.90
407.00	1895.83
407.20	1870.09
407.39	1912.22
407.58	2022.22
407.77	1956.69
407.96	2069.03
408.15	2047.97
408.34	2099.46
408.54	2008.18
408.73	2024.56
408.92	2120.53
409.11	2113.50
409.30	2104.14
409.49	2141.59
409.68	2064.35
409.87	2120.53
410.07	2188.40
410.26	2235.21
410.45	2289.04
410.64	2190.74
410.83	2347.56
411.02	2389.69
411.21	2340.54
411.40	2214.15
411.59	2434.16
411.78	2417.77
411.98	2427.14
412.17	2504.37
412.36	2436.50
412.55	2532.46
412.74	2583.95
412.93	2546.50
413.12	2637.78
413.31	2719.70
413.50	2640.12
413.69	2743.11
413.88	2794.60
414.07	2754.81
414.26	2825.03
414.45	2792.26
414.64	2792.26
414.83	2946.73
415.02	3047.38
415.22	2860.13
415.41	3040.36
415.60	2991.20
415.79	3030.99
415.98	3108.23
416.17	2902.26
416.36	3059.08
416.55	3126.96
416.74	3068.44
416.93	3208.87
417.12	3265.05
417.31	3243.98
417.50	3164.40
417.69	3274.41
417.88	3274.41
418.07	3208.87
418.26	3239.30
418.45	3494.42
418.64	3583.36
418.83	3454.63
419.02	3391.44
419.21	3398.46
419.39	3550.59
419.58	3452.29
419.77	3403.14
419.96	3557.61
420.15	3672.30
420.34	3449.95
420.53	3604.42
420.72	3700.39
420.91	3709.75
421.10	3730.81
421.29	3726.13
421.48	3742.52
421.67	3712.09
421.86	3620.81
422.05	3735.50
422.24	3882.95
422.43	3651.24
422.61	3794.01
422.80	3801.03
422.99	3784.65
423.18	3817.41
423.37	3831.46
423.56	3810.39
423.75	3857.20
423.94	3744.86
424.13	3571.66
424.32	3674.64
424.50	3803.37
424.69	3983.59
424.88	3932.10
425.07	3747.20
425.26	3815.07
425.45	3751.88
425.64	3882.95
425.83	3866.56
426.01	3985.93
426.20	3845.50
426.39	3857.20
426.58	3801.03
426.77	3974.23
426.96	3964.87
427.15	3908.69
427.33	4133.39
427.52	4030.40
427.71	4135.73
427.90	3999.98
428.09	3981.25
428.28	3999.98
428.46	4229.35
428.65	4212.96
428.84	4252.75
429.03	4269.14
429.22	4112.32
429.40	4304.25
429.59	4255.09
429.78	4149.77
429.97	4044.45
430.16	4236.37
430.34	4262.12
430.53	4435.32
430.72	4456.38
430.91	4402.55
431.10	4428.29
431.28	4486.81
431.47	4404.89
431.66	4573.41
431.85	4498.51
432.03	4568.73
432.22	4805.12
432.41	4477.44
432.60	4678.73
432.79	4500.85
432.97	4676.39
433.16	4603.83
433.35	4660.01
433.54	4727.88
433.72	4805.12
433.91	4770.01
434.10	4695.11
434.28	4840.23
434.47	4844.91
434.66	4854.27
434.85	5085.98
435.03	5020.45
435.22	4975.98
435.41	5135.14
435.59	5034.49
435.78	5090.67
435.97	5116.41
436.16	4910.44
436.34	5039.17
436.53	5172.58
436.72	5207.69
436.90	5118.75
437.09	5259.18
437.28	5109.39
437.46	5081.30
437.65	5200.67
437.84	5284.93
438.02	5350.46
438.21	5188.97
438.40	5245.14
438.58	5441.75
438.77	5504.94
438.96	5584.52
439.14	5540.05
439.33	5727.29
439.52	5734.31
439.70	5533.03
439.89	5652.39
440.08	5687.50
440.26	5657.07
440.45	5858.36
440.63	5959.00
440.82	6005.81
441.01	5991.77
441.19	5977.73
441.38	6111.14
441.57	6010.50
441.75	6087.73
441.94	6260.93
442.12	6225.82
442.31	6310.08
442.50	6441.15
442.68	6296.04
442.87	6141.57
443.05	6312.42
443.24	6394.34
443.43	6436.47
443.61	6544.14
443.80	6483.28
443.98	6335.83
444.17	6253.91
444.35	6436.47
444.54	6745.42
444.73	6586.27
444.91	6541.80
445.10	6331.15
445.28	6436.47
445.47	6525.41
445.65	6497.33
445.84	6633.08
446.02	6532.44
446.21	6525.41
446.39	6651.80
446.58	6527.75
446.77	6537.12
446.95	6492.65
447.14	6604.99
447.32	6820.32
447.51	6520.73
447.69	6647.12
447.88	6813.30
448.06	6686.91
448.25	6607.33
448.43	6806.28
448.62	6619.04
448.80	6789.89
448.99	6794.58
449.17	6874.15
449.36	6860.11
449.54	6986.50
449.73	7110.55
449.91	6923.30
450.10	7068.42
450.28	7255.66
450.46	7098.84
450.65	7138.63
450.83	7035.65
451.02	7159.70
451.20	7290.77
451.39	7197.15
451.57	7243.96
451.76	7105.87
451.94	7293.11
452.13	7255.66
452.31	7253.32
452.49	7302.47
452.68	7290.77
452.86	7405.46
453.05	7096.50
453.23	7581.00
453.42	7353.96
453.60	7328.22
453.78	7290.77
453.97	7613.76
454.15	7419.50
454.34	7442.90
454.52	7744.83
454.70	7686.32
454.89	7585.68
455.07	7627.81
455.26	7630.15
455.44	7747.17
455.62	7737.81
455.81	7644.19
455.99	7698.02
456.17	7950.80
456.36	7908.67
456.54	8074.85
456.73	7878.24
456.91	8210.60
457.09	8163.79
457.28	8248.05
457.46	8004.63
457.64	8252.73
457.83	8084.21
458.01	8292.52
458.19	8430.61
458.38	8147.40
458.56	8472.74
458.74	8259.75
458.93	8290.18
459.11	8367.42
459.29	8496.14
459.48	8416.57
459.66	8231.66
459.84	8407.20
460.03	8622.53
460.21	8496.14
460.39	8615.51
460.57	8454.02
460.76	8765.31
460.94	8842.54
461.12	8762.97
461.31	8954.89
461.49	8854.25
461.67	8589.77
461.85	8854.25
462.04	8765.31
462.22	9291.93
462.40	9048.51
462.59	8828.50
462.77	9032.13
462.95	9158.52
463.13	9057.87
463.32	9039.15
463.50	9097.66
463.68	9088.30
463.86	9135.11
464.05	9212.35
464.23	9427.68
464.41	9172.56
464.59	9139.79
464.78	9324.69
464.96	9266.18
465.14	9174.90
465.32	9476.83
465.50	9432.36
465.69	9418.32
465.87	9437.04
466.05	9345.76
466.23	9343.42
466.41	9415.98
466.60	9741.31
466.78	9528.32
466.96	9561.09
467.14	9633.64
467.32	9673.43
467.51	9804.50
467.69	9474.49
467.87	9673.43
468.05	9708.54
468.23	9687.48
468.41	9820.89
468.60	9909.83
468.78	9865.36
468.96	9703.86
469.14	10019.83
469.32	10160.27
469.50	10083.03
469.69	10167.29
469.87	10263.25
470.05	10253.89
470.23	10134.52
470.41	10139.20
470.59	10272.61
470.77	10141.54
470.95	10527.73
471.14	10555.82
471.32	10326.44
471.50	10663.48
471.68	10665.82
471.86	10703.27
472.04	10745.40
472.22	10719.65
472.40	10817.96
472.58	10876.47
472.77	10834.34
472.95	11304.79
473.13	11054.35
473.31	10998.18
473.49	10988.82
473.67	10960.73
473.85	11096.48
474.03	11215.85
474.21	11250.96
474.39	11538.84
474.57	11473.31
474.75	11541.18
474.93	11623.10
475.12	11651.19
475.30	11800.98
475.48	11604.38
475.66	11770.55
475.84	11910.99
476.02	12100.57
476.20	12100.57
476.38	11990.56
476.56	12313.56
476.74	12472.71
476.92	12226.96
477.10	12592.08
477.28	12765.28
477.46	12271.43
477.64	12786.35
477.82	13078.91
478.00	13184.24
478.18	13336.37
478.36	13301.26
478.54	13294.24
478.72	13406.59
478.90	13572.77
479.08	13453.40
479.26	13731.92
479.44	13846.61
479.62	13923.85
479.80	14001.08
479.98	14104.07
480.16	14499.62
480.34	13989.38
480.52	14174.28
480.70	14637.71
480.88	14361.53
481.06	14640.05
481.24	14731.33
481.41	14801.55
481.59	15033.26
481.77	15159.65
481.95	15302.42
482.13	15552.86
482.31	15316.47
482.49	15683.93
482.67	15594.99
482.85	15770.53
483.03	16128.63
483.21	16266.72
483.39	16418.86
483.57	16121.61
483.74	16645.89
483.92	17099.95
484.10	16645.89
484.28	16919.73
484.46	17121.02
484.64	17469.76
484.82	17130.38
485.00	17619.55
485.18	17565.72
485.35	17949.57
485.53	17926.16
485.71	17689.77
485.89	18267.88
486.07	18129.79
486.25	18317.03
486.43	18499.59
486.61	18654.07
486.78	18731.31
486.96	19012.17
487.14	18909.19
487.32	19131.54
487.50	19168.99
487.68	19424.11
487.85	19667.52
488.03	20009.24
488.21	20091.16
488.39	20299.47
488.57	20247.97
488.75	20144.99
488.92	20847.15
489.10	20823.75
489.28	20985.24
489.46	20893.96
489.64	21018.01
489.81	21254.40
489.99	21788.05
490.17	21551.65
490.35	21879.33
490.53	21752.94
490.70	22174.24
490.88	22309.99
491.06	22258.49
491.24	22169.55
491.41	22403.61
491.59	22668.09
491.77	22441.06
491.95	22953.63
492.13	23016.83
492.30	23260.24
492.48	23445.15
492.66	23461.53
492.84	23812.61
493.01	23805.59
493.19	23777.50
493.37	24060.71
493.54	24327.53
493.72	24290.08
493.90	24655.20
494.08	24627.12
494.25	25181.82
494.43	24830.74
494.61	25376.09
494.79	25036.71
494.96	25291.83
495.14	25411.20
495.32	26113.36
495.49	25961.22
495.67	25970.58
495.85	26302.94
496.02	26113.36
496.20	26560.40
496.38	26785.09
496.55	26906.80
496.73	27091.70
496.91	27065.96
497.09	27381.93
497.26	27103.40
497.44	27459.16
497.62	27283.62
497.79	27545.76
497.97	27585.55
498.14	27810.25
498.32	28308.78
498.50	28287.71
498.67	28865.83
498.85	28627.09
499.03	28545.17
499.20	28554.54
499.38	28582.62
499.56	28739.44
499.73	29399.47
499.91	29263.72
500.08	29256.70
500.26	29095.20
500.44	29263.72
500.61	29788.00
500.79	29701.40
500.97	29696.72
501.14	30005.67
501.32	29993.97
501.49	29912.05
501.67	30050.14
501.84	30263.13
502.02	30373.13
502.20	30338.02
502.37	31056.57
502.55	30958.27
502.72	30848.26
502.90	30904.43
503.07	30520.59
503.25	31108.06
503.43	30668.04
503.60	31372.54
503.78	31187.64
503.95	31304.67
504.13	31307.01
504.30	32144.92
504.48	31798.52
504.65	31740.00
504.83	32011.51
505.01	32341.52
505.18	32055.98
505.36	32708.99
505.53	32299.39
505.71	32531.11
505.88	32814.31
506.06	32584.94
506.23	32926.66
506.41	33069.43
506.58	33202.84
506.76	32921.98
506.93	33525.83
507.11	33427.53
507.28	33338.59
507.46	33574.98
507.63	33951.81
507.81	34043.09
507.98	33418.17
508.16	33982.24
508.33	34213.95
508.50	34462.05
508.68	34274.80
508.85	34490.13
509.03	34651.63
509.20	34895.05
509.38	35091.65
509.55	34637.59
509.73	34754.61
509.90	35035.48
510.08	35325.71
510.25	35400.60
510.42	35159.53
510.60	35208.68
510.77	35337.41
510.95	35524.65
511.12	35445.07
511.30	35276.55
511.47	36095.74
511.64	36070.00
511.82	36268.94
511.99	36067.66
512.17	36203.41
512.34	36210.43
512.51	36285.33
512.69	36804.92
512.86	36575.55
513.04	37296.44
513.21	37088.13
513.38	37038.98
513.56	37219.20
513.73	36938.33
513.90	36964.08
514.08	37291.76
514.25	37422.83
514.43	37570.28
514.60	37640.50
514.77	37727.10
514.95	37560.92
515.12	38082.86
515.29	37612.41
515.47	38192.86
515.64	38373.08
515.81	38216.27
515.99	38188.18
516.16	38588.41
516.33	38593.09
516.51	38536.92
516.68	38623.52
516.85	38508.83
517.03	38815.44
517.20	39035.45
517.37	38892.68
517.54	39119.71
517.72	39318.66
517.89	38895.02
518.06	39110.35
518.24	39330.36
518.41	39049.50
518.58	39751.66
518.75	39264.83
518.93	39681.44
519.10	39683.78
519.27	40079.33
519.45	39826.56
519.62	40378.92
519.79	39852.30
519.96	40098.06
520.14	40367.22
520.31	40287.64
520.48	40308.71
520.65	40484.25
520.83	40502.97
521.00	40680.85
521.17	40456.16
521.34	40987.46
521.52	40538.08
521.69	41029.59
521.86	41340.88
522.03	41287.05
522.20	41151.30
522.38	41694.30
522.55	41104.49
522.72	41764.52
522.89	41502.38
523.07	42103.90
523.24	41790.27
523.41	41823.03
523.58	41659.20
523.75	42045.38
523.92	41586.64
524.10	42043.04
524.27	42185.82
524.44	42801.38
524.61	42939.47
524.78	42239.65
524.96	42787.33
525.13	42380.08
525.30	42335.61
525.47	42656.26
525.64	42459.66
525.81	43316.29
525.98	42513.49
526.16	43196.93
526.33	43117.35
526.50	42988.62
526.67	43035.43
526.84	43648.65
527.01	43311.61
527.18	43496.52
527.36	43920.15
527.53	43985.69
527.70	44065.27
527.87	43828.87
528.04	43639.29
528.21	43920.15
528.38	44292.30
528.55	44418.69
528.72	43952.92
528.89	44418.69
529.07	43796.10
529.24	44023.14
529.41	44350.81
529.58	44568.48
529.75	43934.20
529.92	43995.05
530.09	44266.55
530.26	44381.24
530.43	44772.11
530.60	44161.23
530.77	44823.60
530.94	44524.01
531.11	44549.76
531.28	44535.71
531.46	44638.70
531.63	44961.69
531.80	45020.20
531.97	45097.44
532.14	45125.53
532.31	45329.16
532.48	45200.43
532.65	45050.63
532.82	44861.05
532.99	45509.38
533.16	45392.35
533.33	45488.31
533.50	45305.75
533.67	45851.09
533.84	45446.18
534.01	45778.54
534.18	45427.46
534.35	45755.13
534.52	45961.10
534.69	46038.34
534.86	46241.96
535.03	46134.30
535.20	46351.97
535.37	45977.48
535.54	46553.26
535.71	46248.99
535.88	46169.41
536.05	46419.84
536.22	46295.80
536.38	46724.11
536.55	46740.50
536.72	46571.98
536.89	46436.23
537.06	46738.16
537.23	47313.93
537.40	46506.44
537.57	46473.68
537.74	46930.08
537.91	47358.40
538.08	47398.19
538.25	46834.12
538.42	47522.24
538.59	47208.61
538.75	47351.38
538.92	46834.12
539.09	47515.22
539.26	47353.72
539.43	47765.65
539.60	47618.20
539.77	47669.69
539.94	47662.67
540.11	47690.76
540.28	47730.54
540.44	47447.34
540.61	47470.75
540.78	47522.24
540.95	48067.58
541.12	47997.37
541.29	47985.66
541.46	47791.40
541.62	47908.43
541.79	48175.25
541.96	47536.28
542.13	47880.34
542.30	47746.93
542.47	48446.75
542.63	48301.64
542.80	48425.68
542.97	48828.26
543.14	48811.87
543.31	48509.94
543.48	48713.57
543.64	48849.32
543.81	49397.01
543.98	49160.61
544.15	49088.06
544.32	49113.80
544.48	49373.60
544.65	49130.19
544.82	49109.12
544.99	48711.23
545.16	49139.55
545.32	49272.96
545.49	49544.46
545.66	49663.83
545.83	49469.56
546.00	49687.23
546.16	49762.13
546.33	48935.92
546.50	48947.62
546.67	49614.68
546.83	49343.17
547.00	49469.56
547.17	49116.14
547.34	49151.25
547.50	49553.82
547.67	49769.15
547.84	49308.07
548.00	49670.85
548.17	49839.37
548.34	49902.56
548.51	50225.56
548.67	50019.59
548.84	50042.99
549.01	49925.97
549.18	50064.06
549.34	49949.37
549.51	49937.67
549.68	50024.27
549.84	50106.19
550.01	50080.44
550.18	49902.56
550.34	50335.56
550.51	50431.52
550.68	49925.97
550.84	50017.25
551.01	50209.17
551.18	50047.68
551.34	50295.77
551.51	50373.01
551.68	50478.33
551.84	50548.55
552.01	50714.73
552.18	50487.70
552.34	50138.96
552.51	50532.17
552.68	50583.66
552.84	50522.80
553.01	50686.64
553.18	50871.54
553.34	50745.15
553.51	50836.44
553.67	50609.40
553.84	50878.57
554.01	50932.40
554.17	50518.12
554.34	50754.52
554.51	50824.73
554.67	51136.02
554.84	51100.92
555.00	51026.02
555.17	51550.30
555.33	51105.60
555.50	51100.92
555.67	50848.14
555.83	50857.50
556.00	51473.06
556.16	51400.50
556.33	51515.19
556.50	51026.02
556.66	51316.25
556.83	51253.05
556.99	51398.16
557.16	51910.74
557.32	51494.13
557.49	51536.26
557.65	51133.68
557.82	51536.26
557.98	51526.89
558.15	51295.18
558.32	51760.95
558.48	51419.23
558.65	51545.62
558.81	51985.64
558.98	51587.75
559.14	51531.57
559.31	51466.04
559.47	51662.64
559.64	51746.90
559.80	51899.04
559.97	51650.94
560.13	51695.41
560.30	51711.80
560.46	51798.40
560.63	51751.59
560.79	52168.20
560.96	51814.78
561.12	51992.66
561.29	51611.15
561.45	52025.43
561.61	52053.51
561.78	52025.43
561.94	51859.25
562.11	52081.60
562.27	51767.97
562.44	51856.91
562.60	51812.44
562.77	51863.93
562.93	52093.30
563.10	52247.78
563.26	52112.03
563.42	52123.73
563.59	52100.32
563.75	52023.09
563.92	52465.45
564.08	52090.96
564.24	52222.03
564.41	52004.36
564.57	51833.50
564.74	52362.46
564.90	52465.45
565.07	52140.11
565.23	52514.60
565.39	52439.70
565.56	52076.92
565.72	51992.66
565.88	52142.45
566.05	52292.25
566.21	52198.63
566.38	52039.47
566.54	52392.89
566.70	52254.80
566.87	52530.98
567.03	52292.25
567.19	52388.21
567.36	52413.96
567.52	52596.52
567.68	52346.08
567.85	52498.22
568.01	52161.18
568.17	52650.35
568.34	52547.37
568.50	52512.26
568.66	52491.19
568.83	52552.05
568.99	52280.55
569.15	52481.83
569.32	52135.43
569.48	52591.84
569.64	52442.04
569.81	52568.43
569.97	52420.98
570.13	52683.12
570.30	52383.53
570.46	52362.46
570.62	52561.41
570.78	52439.70
570.95	52348.42
571.11	52580.13
571.27	52350.76
571.43	52882.06
571.60	52521.62
571.76	52603.54
571.92	52505.24
572.09	52652.69
572.25	52795.46
572.41	52608.22
572.57	52301.61
572.74	52725.25
572.90	52626.95
573.06	52790.78
573.22	52758.02
573.38	53057.60
573.55	52839.93
573.71	53221.44
573.87	52753.33
574.03	52788.44
574.20	52814.19
574.36	52683.12
574.52	52549.71
574.68	52858.66
574.84	52676.10
575.01	52671.42
575.17	52823.55
575.33	52512.26
575.49	52720.57
575.65	52933.56
575.82	52912.49
575.98	52898.45
576.14	52963.98
576.30	52818.87
576.46	52973.34
576.62	52938.24
576.79	52423.32
576.95	52650.35
577.11	52779.08
577.27	52877.38
577.43	53251.87
577.59	53085.69
577.75	52982.71
577.92	52823.55
578.08	52701.84
578.24	52858.66
578.40	52884.40
578.56	52868.02
578.72	52474.81
578.88	53022.50
579.04	53036.54
579.21	52898.45
579.37	52655.03
579.53	52853.98
579.69	52732.27
579.85	52926.53
580.01	52978.03
580.17	52528.64
580.33	53319.74
580.49	53041.22
580.65	52985.05
580.82	53090.37
580.98	53172.29
581.14	52945.26
581.30	53073.99
581.46	52893.77
581.62	52786.10
581.78	52783.76
581.94	53254.21
582.10	53085.69
582.26	52942.92
582.42	52844.62
582.58	52823.55
582.74	53205.06
582.90	53188.67
583.06	53162.93
583.22	53055.26
583.38	52907.81
583.54	53081.01
583.70	52959.30
583.86	53059.94
584.02	52954.62
584.18	53329.11
584.34	53233.14
584.50	53401.66
584.66	53282.30
584.82	52952.28
584.98	53120.80
585.14	52893.77
585.30	52786.10
585.46	53141.86
585.62	52856.32
585.78	53343.15
585.94	53132.50
586.10	53191.01
586.26	52994.41
586.42	52788.44
586.58	53595.93
586.74	53036.54
586.90	52968.66
587.06	53200.38
587.22	52973.34
587.38	52853.98
587.54	53294.00
587.70	53326.77
587.86	53324.43
588.02	53387.62
588.18	53078.67
588.34	53043.56
588.49	53090.37
588.65	53029.52
588.81	53207.40
588.97	53144.20
589.13	53286.98
589.29	53258.89
589.45	53375.92
589.61	53478.90
589.77	53294.00
589.93	53481.24
590.08	53661.46
