SpectraSuite Data File
++++++++++++++++++++++++++++++++++++
Date: Fri Oct 04 11:48:45 GMT-05:00 2013
User: price-jones
Dark Spectrum Present: No
Reference Spectrum Present: No
Number of Sampled Component Spectra: 1
Spectrometers: USB2+H05261
Integration Time (usec): 100000 (USB2+H05261)
Spectra Averaged: 1 (USB2+H05261)
Boxcar Smoothing: 0 (USB2+H05261)
Correct for Electrical Dark: No (USB2+H05261)
Strobe/Lamp Enabled: No (USB2+H05261)
Correct for Detector Non-linearity: No (USB2+H05261)
Correct for Stray Light: No (USB2+H05261)
Number of Pixels in Processed Spectrum: 2048
>>>>>Begin Processed Spectral Data<<<<<
365.73	23.41
365.92	23.41
366.12	23.41
366.32	0.00
366.52	0.00
366.72	0.00
366.91	0.00
367.11	2.34
367.31	0.00
367.51	0.00
367.70	0.00
367.90	0.00
368.10	0.00
368.30	0.00
368.49	0.00
368.69	0.00
368.89	0.00
369.09	0.00
369.28	0.00
369.48	0.00
369.68	0.00
369.87	0.00
370.07	44.47
370.27	0.00
370.47	32.77
370.66	374.49
370.86	402.57
371.06	433.00
371.25	470.45
371.45	484.49
371.65	451.72
371.84	414.27
372.04	435.34
372.24	449.38
372.44	437.68
372.63	512.58
372.83	571.09
373.03	500.87
373.22	442.36
373.42	465.77
373.62	596.84
373.81	528.96
374.01	571.09
374.21	580.45
374.40	552.37
374.60	580.45
374.79	578.11
374.99	538.32
375.19	578.11
375.38	620.24
375.58	613.22
375.78	587.47
375.97	521.94
376.17	655.35
376.37	620.24
376.56	585.13
376.76	620.24
376.95	552.37
377.15	678.76
377.35	732.59
377.54	699.82
377.74	653.01
377.93	660.03
378.13	636.63
378.33	737.27
378.52	650.67
378.72	657.69
378.91	645.99
379.11	641.31
379.31	697.48
379.50	608.54
379.70	760.67
379.89	650.67
380.09	730.25
380.28	589.82
380.48	734.93
380.68	744.29
380.87	781.74
381.07	706.84
381.26	723.23
381.46	718.54
381.65	837.91
381.85	791.10
382.04	777.06
382.24	695.14
382.43	709.18
382.63	795.78
382.83	748.97
383.02	851.96
383.22	887.06
383.41	866.00
383.61	744.29
383.80	887.06
384.00	931.53
384.19	753.65
384.39	802.80
384.58	851.96
384.78	938.55
384.97	898.77
385.17	823.87
385.36	830.89
385.56	870.68
385.75	842.59
385.95	952.60
386.14	952.60
386.34	908.13
386.53	959.62
386.72	966.64
386.92	1015.79
387.11	968.98
387.31	933.87
387.50	985.37
387.70	947.92
387.89	1029.84
388.09	1025.15
388.28	999.41
388.48	1062.60
388.67	1055.58
388.86	1011.11
389.06	1053.24
389.25	1018.13
389.45	1018.13
389.64	1029.84
389.84	1071.97
390.03	1191.33
390.22	1074.31
390.42	1057.92
390.61	1069.62
390.81	1062.60
391.00	1132.82
391.19	1081.33
391.39	1109.41
391.58	1163.25
391.78	1111.75
391.97	1191.33
392.16	1174.95
392.36	1144.52
392.55	1125.80
392.75	1191.33
392.94	1156.22
393.13	1191.33
393.33	1193.67
393.52	1254.53
393.71	1270.91
393.91	1261.55
394.10	1334.11
394.29	1179.63
394.49	1268.57
394.68	1247.51
394.88	1369.21
395.07	1291.98
395.26	1324.74
395.46	1287.29
395.65	1355.17
395.84	1329.42
396.04	1500.28
396.23	1493.26
396.42	1437.09
396.62	1495.60
396.81	1376.24
397.00	1369.21
397.19	1427.73
397.39	1458.15
397.58	1526.03
397.77	1465.18
397.97	1497.94
398.16	1502.62
398.35	1502.62
398.55	1514.33
398.74	1643.06
398.93	1547.09
399.12	1589.22
399.32	1453.47
399.51	1654.76
399.70	1713.27
399.90	1640.72
400.09	1650.08
400.28	1680.50
400.47	1526.03
400.67	1664.12
400.86	1694.55
401.05	1713.27
401.24	1652.42
401.44	1685.19
401.63	1788.17
401.82	1811.57
402.01	1685.19
402.21	1804.55
402.40	1823.28
402.59	1839.66
402.78	1839.66
402.97	1926.26
403.17	1909.88
403.36	1839.66
403.55	1820.94
403.74	1884.13
403.93	2022.22
404.13	1935.62
404.32	1895.83
404.51	2015.20
404.70	2005.84
404.89	1961.37
405.09	2033.93
405.28	1959.03
405.47	1987.11
405.66	2069.03
405.85	2179.04
406.05	2069.03
406.24	2190.74
406.43	2176.70
406.62	2249.25
406.81	2228.19
407.00	2218.83
407.20	2211.81
407.39	2267.98
407.58	2328.83
407.77	2230.53
407.96	2286.70
408.15	2385.01
408.34	2195.42
408.54	2277.34
408.73	2368.62
408.92	2403.73
409.11	2459.90
409.30	2537.14
409.49	2403.73
409.68	2520.76
409.87	2516.08
410.07	2569.91
410.26	2640.12
410.45	2600.34
410.64	2581.61
410.83	2560.55
411.02	2551.18
411.21	2677.57
411.40	2710.34
411.59	2787.58
411.78	2757.15
411.98	2686.94
412.17	2846.09
412.36	2857.79
412.55	2935.03
412.74	2930.35
412.93	3042.70
413.12	2857.79
413.31	3021.63
413.50	3030.99
413.69	2958.44
413.88	3019.29
414.07	3133.98
414.26	3115.25
414.45	3222.92
414.64	3180.79
414.83	3063.76
415.02	3265.05
415.22	3396.12
415.41	3321.22
415.60	3349.31
415.79	3227.60
415.98	3391.44
416.17	3433.57
416.36	3557.61
416.55	3449.95
416.74	3562.30
416.93	3466.33
417.12	3517.83
417.31	3520.17
417.50	3562.30
417.69	3702.73
417.88	3667.62
418.07	3667.62
418.26	3737.84
418.45	3695.71
418.64	3901.67
418.83	3882.95
419.02	3791.67
419.21	3794.01
419.39	3974.23
419.58	3896.99
419.77	3929.76
419.96	4030.40
420.15	4159.13
420.34	3985.93
420.53	3948.48
420.72	3999.98
420.91	4145.09
421.10	4147.43
421.29	4252.75
421.48	4297.22
421.67	4131.05
421.86	4292.54
422.05	4285.52
422.24	4208.28
422.43	4278.50
422.61	4241.05
422.80	4320.63
422.99	4430.63
423.18	4292.54
423.37	4327.65
423.56	4386.16
423.75	4358.08
423.94	4224.67
424.13	4093.60
424.32	4091.26
424.50	4393.19
424.69	4409.57
424.88	4447.02
425.07	4292.54
425.26	4198.92
425.45	4306.59
425.64	4283.18
425.83	4262.12
426.01	4535.96
426.20	4292.54
426.39	4344.03
426.58	4388.50
426.77	4454.04
426.96	4550.00
427.15	4550.00
427.33	4498.51
427.52	4592.13
427.71	4610.86
427.90	4599.15
428.09	4631.92
428.28	4671.71
428.46	4660.01
428.65	4842.57
428.84	4849.59
429.03	4847.25
429.22	4699.80
429.40	4950.23
429.59	4828.53
429.78	4571.07
429.97	4753.63
430.16	4568.73
430.34	4868.31
430.53	5050.88
430.72	5046.20
430.91	4884.70
431.10	5004.07
431.28	5217.05
431.47	4971.30
431.66	5095.35
431.85	5067.26
432.03	5268.55
432.22	5228.76
432.41	5074.28
432.60	5186.63
432.79	5111.73
432.97	5242.80
433.16	5259.18
433.35	5247.48
433.54	5423.02
433.72	5242.80
433.91	5242.80
434.10	5514.30
434.28	5467.49
434.47	5523.66
434.66	5591.54
434.85	5385.57
435.03	5408.98
435.22	5582.18
435.41	5785.80
435.59	5654.73
435.78	5514.30
435.97	5645.37
436.16	5797.51
436.34	5729.63
436.53	5764.74
436.72	5771.76
436.90	5778.78
437.09	5825.59
437.28	5811.55
437.46	5879.43
437.65	5909.85
437.84	5996.45
438.02	5863.04
438.21	6005.81
438.40	5930.92
438.58	6232.85
438.77	6120.50
438.96	6122.84
439.14	6125.18
439.33	6272.64
439.52	6506.69
439.70	6588.61
439.89	6583.93
440.08	6537.12
440.26	6483.28
440.45	6424.77
440.63	6548.82
440.82	6602.65
441.01	6513.71
441.19	6712.66
441.38	6876.49
441.57	6715.00
441.75	6993.52
441.94	7087.14
442.12	6935.01
442.31	7241.62
442.50	7035.65
442.68	7105.87
442.87	7070.76
443.05	7288.43
443.24	7124.59
443.43	7241.62
443.61	7323.54
443.80	7349.28
443.98	7302.47
444.17	7063.74
444.35	7470.99
444.54	7543.55
444.73	7349.28
444.91	7215.87
445.10	7353.96
445.28	7534.18
445.47	7323.54
445.65	7480.35
445.84	7466.31
446.02	7562.27
446.21	7501.42
446.39	7438.22
446.58	7492.05
446.77	7517.80
446.95	7407.80
447.14	7452.27
447.32	7538.87
447.51	7611.42
447.69	7545.89
447.88	7590.36
448.06	7492.05
448.25	7602.06
448.43	7438.22
448.62	7655.89
448.80	7550.57
448.99	7599.72
449.17	7765.90
449.36	7548.23
449.54	7843.14
449.73	7955.48
449.91	8065.49
450.10	8049.10
450.28	7976.55
450.46	7878.24
450.65	8030.38
450.83	8198.90
451.02	7943.78
451.20	8032.72
451.39	8018.68
451.57	8203.58
451.76	8182.51
451.94	8205.92
452.13	8252.73
452.31	8170.81
452.49	8023.36
452.68	8278.47
452.86	8292.52
453.05	8280.82
453.23	8250.39
453.42	8243.37
453.60	8348.69
453.78	8367.42
453.97	8245.71
454.15	8535.93
454.34	8348.69
454.52	8704.45
454.70	8571.04
454.89	8734.88
455.07	8620.19
455.26	8681.05
455.44	8720.84
455.62	8868.29
455.81	8933.82
455.99	8999.36
456.17	8805.10
456.36	8676.37
456.54	9041.49
456.73	8968.93
456.91	9235.75
457.09	9198.31
457.28	9341.08
457.46	9179.58
457.64	9383.21
457.83	9217.03
458.01	9123.41
458.19	9437.04
458.38	9301.29
458.56	9282.56
458.74	9523.64
458.93	9486.19
459.11	9755.35
459.29	9448.74
459.48	9699.18
459.66	9533.00
459.84	9792.80
460.03	9884.08
460.21	9699.18
460.39	9666.41
460.57	9839.61
460.76	9914.51
460.94	9673.43
461.12	9692.16
461.31	9895.78
461.49	9755.35
461.67	9984.73
461.85	10303.04
462.04	10167.29
462.22	10452.83
462.40	10176.65
462.59	9982.38
462.77	10230.48
462.95	10207.08
463.13	10420.06
463.32	10265.59
463.50	10157.92
463.68	10279.63
463.86	10658.80
464.05	10434.11
464.23	10485.60
464.41	10431.77
464.59	10373.25
464.78	10647.10
464.96	10579.22
465.14	10401.34
465.32	10651.78
465.50	10422.41
465.69	10810.93
465.87	10719.65
466.05	10764.12
466.23	10817.96
466.41	10899.87
466.60	11300.11
466.78	10736.04
466.96	10974.77
467.14	10824.98
467.32	11131.59
467.51	11140.95
467.69	10555.82
467.87	10932.64
468.05	11248.61
468.23	10998.18
468.41	11190.10
468.60	11257.98
468.78	11047.33
468.96	11059.03
469.14	11449.90
469.32	11356.28
469.50	11028.60
469.69	11456.92
469.87	11590.33
470.05	11784.60
470.23	11777.58
470.41	11672.25
470.59	11686.29
470.77	11723.74
470.95	11873.54
471.14	12088.87
471.32	11878.22
471.50	12264.41
471.68	12023.33
471.86	12081.85
472.04	12212.92
472.22	12615.49
472.40	12456.33
472.58	12114.61
472.77	12407.18
472.95	12697.41
473.13	12863.58
473.31	12582.72
473.49	12685.70
473.67	12858.90
473.85	12692.73
474.03	13015.72
474.21	12959.55
474.39	12982.95
474.57	12999.34
474.75	13373.82
474.93	13448.72
475.12	13334.03
475.30	13399.57
475.48	13118.70
475.66	13308.29
475.84	13474.46
476.02	13954.27
476.20	13837.25
476.38	13818.52
476.56	14181.31
476.74	14083.00
476.92	13954.27
477.10	14382.59
477.28	14129.81
477.46	14347.48
477.64	14588.56
477.82	14850.70
478.00	14897.51
478.18	14864.74
478.36	15176.03
478.54	14993.47
478.72	15398.38
478.90	15438.17
479.08	15503.71
479.26	15618.39
479.44	16086.50
479.62	16053.73
479.80	16126.29
479.98	16367.37
480.16	16201.19
480.34	16386.09
480.52	16519.50
480.70	16828.45
480.88	16638.87
481.06	17006.33
481.24	16681.00
481.41	16865.90
481.59	17097.61
481.77	17275.49
481.95	17266.13
482.13	17692.11
482.31	17664.02
482.49	18050.21
482.67	18162.56
482.85	18202.35
483.03	18443.42
483.21	18815.57
483.39	18658.75
483.57	18443.42
483.74	18750.03
483.92	18953.66
484.10	19101.11
484.28	19557.52
484.46	19697.95
484.64	20161.37
484.82	19342.19
485.00	19943.70
485.18	20161.37
485.35	20542.88
485.53	20856.51
485.71	20514.80
485.89	20896.30
486.07	20695.02
486.25	20767.57
486.43	21109.29
486.61	21102.27
486.78	21556.33
486.96	21781.03
487.14	21991.67
487.32	21816.13
487.50	22331.05
487.68	22377.86
487.85	22469.14
488.03	23040.23
488.21	23056.62
488.39	23054.28
488.57	23309.40
488.75	23405.36
488.92	23828.99
489.10	23880.49
489.28	24109.86
489.46	23950.70
489.64	24161.35
489.81	24566.26
489.99	24629.46
490.17	24627.12
490.35	25207.57
490.53	25226.29
490.70	25490.77
490.88	25230.98
491.06	25678.02
491.24	25729.51
491.41	26120.38
491.59	26579.12
491.77	26544.02
491.95	26623.59
492.13	26686.79
492.30	26738.28
492.48	26684.45
492.66	26960.63
492.84	27541.08
493.01	27583.21
493.19	27611.30
493.37	27758.75
493.54	27960.04
493.72	28180.05
493.90	28407.08
494.08	28182.39
494.25	28657.52
494.43	28716.03
494.61	28891.57
494.79	29123.29
494.96	29256.70
495.14	29427.56
495.32	29663.95
495.49	29558.63
495.67	29991.62
495.85	30204.61
496.02	30323.98
496.20	30464.41
496.38	30560.37
496.55	30541.65
496.73	31501.27
496.91	30745.28
497.09	31335.09
497.26	31372.54
497.44	31276.58
497.62	31482.55
497.79	31782.13
497.97	32163.64
498.14	32402.38
498.32	32568.55
498.50	32430.46
498.67	32655.15
498.85	32217.47
499.03	32833.04
499.20	33097.52
499.38	32814.31
499.56	33659.24
499.73	33434.55
499.91	33649.88
500.08	34045.43
500.26	33340.93
500.44	33846.49
500.61	33668.61
500.79	34293.53
500.97	34206.93
501.14	34651.63
501.32	34820.15
501.49	34132.03
501.67	34445.66
501.84	35070.59
502.02	34976.97
502.20	35278.89
502.37	35615.93
502.55	35784.45
502.72	35243.79
502.90	35608.91
503.07	35571.46
503.25	35615.93
503.43	35826.58
503.60	36350.86
503.78	36601.30
503.95	36325.11
504.13	36327.45
504.30	36816.63
504.48	36498.31
504.65	36914.93
504.83	37158.34
505.01	36973.44
505.18	36755.77
505.36	37427.51
505.53	37132.60
505.71	37516.45
505.88	37368.99
506.06	37256.65
506.23	37289.42
506.41	37804.33
506.58	38068.81
506.76	38239.67
506.93	38220.95
507.11	38134.35
507.28	38642.24
507.46	38249.03
507.63	38384.79
507.81	39100.99
507.98	38888.00
508.16	38717.14
508.33	39014.39
508.50	38916.09
508.68	39482.50
508.85	39391.22
509.03	39260.15
509.20	39786.77
509.38	40224.45
509.55	39849.96
509.73	40006.78
509.90	40158.91
510.08	40297.00
510.25	40493.61
510.42	40727.66
510.60	40346.15
510.77	40840.01
510.95	41029.59
511.12	41303.43
511.30	40879.80
511.47	41340.88
511.64	41134.92
511.82	42031.34
511.99	41354.93
512.17	41720.05
512.34	41689.62
512.51	41539.83
512.69	42237.31
512.86	42349.65
513.04	42415.19
513.21	42527.53
513.38	42579.03
513.56	42574.34
513.73	42513.49
513.90	42677.33
514.08	42621.16
514.25	43061.18
514.43	43037.77
514.60	43150.12
514.77	43222.67
514.95	43690.78
515.12	42960.53
515.29	43178.20
515.47	43758.66
515.64	43583.12
515.81	43751.63
515.99	43906.11
516.16	44355.49
516.33	44093.35
516.51	44296.98
516.68	44516.99
516.85	44062.93
517.03	44531.03
517.20	44605.93
517.37	44959.35
517.54	44856.37
517.72	44493.58
517.89	44336.77
518.06	44680.83
518.24	44596.57
518.41	45174.68
518.58	45029.57
518.75	45298.73
518.93	45605.34
519.10	45394.69
519.27	45347.88
519.45	45507.04
519.62	45815.99
519.79	45790.24
519.96	46181.11
520.14	46543.89
520.31	45970.46
520.48	46174.09
520.65	46328.56
520.83	46429.21
521.00	46305.16
521.17	46445.59
521.34	46546.23
521.52	47098.60
521.69	47065.83
521.86	46955.83
522.03	47129.03
522.20	47157.11
522.38	47224.99
522.55	47098.60
522.72	47070.51
522.89	47454.36
523.07	47751.61
523.24	47646.29
523.41	47702.46
523.58	47995.03
523.75	47819.49
523.92	47894.38
524.10	47840.55
524.27	48226.74
524.44	48034.81
524.61	48397.60
524.78	48142.48
524.96	48053.54
525.13	48280.57
525.30	48563.78
525.47	48435.05
525.64	48626.97
525.81	48329.72
525.98	48882.09
526.16	48680.80
526.33	48964.01
526.50	49357.22
526.67	48968.69
526.84	48781.45
527.01	48669.10
527.18	49029.54
527.36	49247.21
527.53	49034.22
527.70	49598.29
527.87	49687.23
528.04	49586.59
528.21	49617.02
528.38	49453.18
528.55	50078.10
528.72	49799.58
528.89	49832.35
529.07	49815.96
529.24	49860.43
529.41	50141.30
529.58	49759.79
529.75	49741.06
529.92	50190.45
530.09	50541.53
530.26	50522.80
530.43	50204.49
530.60	50321.52
530.77	50447.91
530.94	50974.53
531.11	50347.26
531.28	50396.42
531.46	50518.12
531.63	50815.37
531.80	51009.64
531.97	50997.93
532.14	51000.27
532.31	50796.65
532.48	50918.35
532.65	51035.38
532.82	50651.53
532.99	50934.74
533.16	51077.51
533.33	51400.50
533.50	51629.88
533.67	50955.80
533.84	50960.48
534.01	51405.19
534.18	51512.85
534.35	51793.71
534.52	51779.67
534.69	52097.98
534.86	51847.55
535.03	51927.13
535.20	51632.22
535.37	52018.41
535.54	52172.88
535.71	51800.74
535.88	52100.32
536.05	51959.89
536.22	52353.10
536.38	51966.91
536.55	52470.13
536.72	52069.90
536.89	52254.80
537.06	52151.82
537.23	52507.58
537.40	52516.94
537.57	52360.12
537.74	52376.51
537.91	52996.75
538.08	52612.90
538.25	52261.82
538.42	52430.34
538.59	52619.92
538.75	52530.98
538.92	52439.70
539.09	52676.10
539.26	52802.49
539.43	52870.36
539.60	52928.87
539.77	52699.50
539.94	53347.83
540.11	52935.90
540.28	53331.45
540.44	52968.66
540.61	52898.45
540.78	53216.76
540.95	53492.94
541.12	53244.85
541.29	53212.08
541.46	53624.01
541.62	52842.27
541.79	53296.34
541.96	53226.12
542.13	53506.99
542.30	53581.88
542.47	53654.44
542.63	53661.46
542.80	53719.98
542.97	53937.65
543.14	54129.57
543.31	53715.29
543.48	53544.44
543.64	54230.21
543.81	54277.02
543.98	54260.64
544.15	54248.94
544.32	54569.59
544.48	54468.95
544.65	54307.45
544.82	54277.02
544.99	54178.72
545.16	54223.19
545.32	54387.03
545.49	54618.74
545.66	54527.46
545.83	54576.61
546.00	54759.17
546.16	54506.40
546.33	54450.22
546.50	54298.09
546.67	54674.91
546.83	54312.13
547.00	54459.58
547.17	54522.78
547.34	54747.47
547.50	54763.85
547.67	54920.67
547.84	55033.02
548.00	55150.04
548.17	54791.94
548.34	55180.47
548.51	54913.65
548.67	55161.75
548.84	55330.26
549.01	55187.49
549.18	54841.09
549.34	54906.63
549.51	55257.71
549.68	55168.77
549.84	55224.94
550.01	55604.11
550.18	55213.24
550.34	55325.58
550.51	55210.90
550.68	55208.56
550.84	54831.73
551.01	55391.12
551.18	55337.29
551.34	55311.54
551.51	55400.48
551.68	55557.30
551.84	55632.19
552.01	55358.35
552.18	55796.03
552.34	55435.59
552.51	55676.66
552.68	55594.74
552.84	55519.85
553.01	55707.09
553.18	55695.39
553.34	56072.21
553.51	55779.65
553.67	55882.63
553.84	56095.62
554.01	55693.05
554.17	55913.06
554.34	55941.14
554.51	55753.90
554.67	55976.25
554.84	56069.87
555.00	56154.13
555.17	55863.91
555.33	55959.87
555.50	56123.71
555.67	55922.42
555.83	55924.76
556.00	56170.52
556.16	56346.06
556.33	56355.42
556.50	56149.45
556.66	56383.51
556.83	56004.34
556.99	56406.91
557.16	56495.85
557.32	56303.93
557.49	56252.44
557.65	56147.11
557.82	56191.58
557.98	56236.05
558.15	56179.88
558.32	56430.32
558.48	56460.74
558.65	56491.17
558.81	56657.35
558.98	56364.78
559.14	56413.93
559.31	56399.89
559.47	56493.51
559.64	56573.09
559.80	56755.65
559.97	56804.80
560.13	56755.65
560.30	56636.28
560.46	56619.90
560.63	56793.10
560.79	56755.65
560.96	56816.50
561.12	56615.22
561.29	56640.96
561.45	56912.47
561.61	57106.73
561.78	56978.00
561.94	56919.49
562.11	56858.63
562.27	56694.80
562.44	56687.78
562.60	56722.88
562.77	57006.09
562.93	57029.49
563.10	56900.76
563.26	56982.68
563.42	57371.21
563.59	57034.17
563.75	56945.23
563.92	57286.95
564.08	56755.65
564.24	57069.28
564.41	57209.71
564.57	57141.84
564.74	56835.23
564.90	57174.61
565.07	57284.61
565.23	57020.13
565.39	57237.80
565.56	57329.08
565.72	57059.92
565.88	57139.50
566.05	56959.28
566.21	57099.71
566.38	57148.86
566.54	57228.44
566.70	57429.72
566.87	57315.04
567.03	57254.18
567.19	57598.24
567.36	57083.33
567.52	57139.50
567.68	57340.78
567.85	57167.58
568.01	57174.61
568.17	57242.48
568.34	57368.87
568.50	57521.01
568.66	57450.79
568.83	57286.95
568.99	57193.33
569.15	57296.31
569.32	57371.21
569.48	57268.23
569.64	57453.13
569.81	57556.11
569.97	57616.97
570.13	57457.81
570.30	57284.61
570.46	57378.23
570.62	57422.70
570.78	57354.83
570.95	57080.98
571.11	57258.87
571.27	57343.12
571.43	57476.54
571.60	57389.94
571.76	57425.04
571.92	57705.91
572.09	57556.11
572.25	57616.97
572.41	57457.81
572.57	57584.20
572.74	57509.30
572.90	57251.84
573.06	57462.49
573.22	57509.30
573.38	57787.83
573.55	57567.82
573.71	57902.51
573.87	57600.58
574.03	57434.41
574.20	57631.01
574.36	57560.79
574.52	57691.86
574.68	57530.37
574.84	57689.52
575.01	57829.96
575.17	57623.99
575.33	57855.70
575.49	57509.30
575.65	57724.63
575.82	57691.86
575.98	57752.72
576.14	57813.57
576.30	57818.25
576.46	57598.24
576.62	57621.65
576.79	57726.97
576.95	57689.52
577.11	57839.32
577.27	57790.17
577.43	58042.95
577.59	57719.95
577.75	57820.59
577.92	57551.43
578.08	57523.35
578.24	57492.92
578.40	57677.82
578.56	57609.95
578.72	57469.51
578.88	57984.43
579.04	58028.90
579.21	57661.44
579.37	57588.88
579.53	58019.54
579.69	57556.11
579.85	57719.95
580.01	57904.85
580.17	57759.74
580.33	57923.58
580.49	57886.13
580.65	57989.11
580.82	57961.03
580.98	57951.66
581.14	57832.30
581.30	57946.98
581.46	57682.50
581.62	57663.78
581.78	57609.95
581.94	57993.79
582.10	58120.18
582.26	57946.98
582.42	58064.01
582.58	58110.82
582.74	57829.96
582.90	57729.31
583.06	57846.34
583.22	57731.65
583.38	58052.31
583.54	57914.22
583.70	57907.19
583.86	57523.35
584.02	57757.40
584.18	58007.84
584.34	58061.67
584.50	58054.65
584.66	58049.97
584.82	57773.78
584.98	57766.76
585.14	57928.26
585.30	57745.70
585.46	57705.91
585.62	57834.64
585.78	58021.88
585.94	57783.15
586.10	57888.47
586.26	58129.54
586.42	58330.83
586.58	58204.44
586.74	57691.86
586.90	57954.00
587.06	58108.48
587.22	57808.89
587.38	57726.97
587.54	58068.69
587.70	58309.77
587.86	58035.92
588.02	58223.17
588.18	58314.45
588.34	57904.85
588.49	57979.75
588.65	57951.66
588.81	57836.98
588.97	58024.22
589.13	58223.17
589.29	58026.56
589.45	58071.03
