SpectraSuite Data File
++++++++++++++++++++++++++++++++++++
Date: Fri Oct 04 11:48:45 GMT-05:00 2013
User: price-jones
Dark Spectrum Present: No
Reference Spectrum Present: No
Number of Sampled Component Spectra: 1
Spectrometers: USB2+H05261
Integration Time (usec): 100000 (USB2+H05261)
Spectra Averaged: 1 (USB2+H05261)
Boxcar Smoothing: 0 (USB2+H05261)
Correct for Electrical Dark: No (USB2+H05261)
Strobe/Lamp Enabled: No (USB2+H05261)
Correct for Detector Non-linearity: No (USB2+H05261)
Correct for Stray Light: No (USB2+H05261)
Number of Pixels in Processed Spectrum: 2048
>>>>>Begin Processed Spectral Data<<<<<
365.73	63.19
365.92	63.19
366.12	63.19
366.32	0.00
366.52	0.00
366.72	0.00
366.91	0.00
367.11	0.00
367.31	0.00
367.51	0.00
367.70	0.00
367.90	0.00
368.10	0.00
368.30	0.00
368.49	0.00
368.69	0.00
368.89	0.00
369.09	0.00
369.28	0.00
369.48	0.00
369.68	0.00
369.87	0.00
370.07	0.00
370.27	7.02
370.47	30.43
370.66	330.02
370.86	351.08
371.06	344.06
371.25	435.34
371.45	367.46
371.65	348.74
371.84	407.25
372.04	409.59
372.24	418.96
372.44	407.25
372.63	540.66
372.83	533.64
373.03	472.79
373.22	533.64
373.42	327.68
373.62	440.02
373.81	458.74
374.01	496.19
374.21	554.71
374.40	503.22
374.60	571.09
374.79	521.94
374.99	517.26
375.19	543.00
375.38	603.86
375.58	514.92
375.78	627.26
375.97	606.20
376.17	582.79
376.37	531.30
376.56	645.99
376.76	517.26
376.95	573.43
377.15	564.07
377.35	559.39
377.54	681.10
377.74	634.29
377.93	582.79
378.13	692.80
378.33	624.92
378.52	585.13
378.72	699.82
378.91	638.97
379.11	648.33
379.31	702.16
379.50	613.22
379.70	641.31
379.89	641.31
380.09	608.54
380.28	674.07
380.48	622.58
380.68	676.41
380.87	521.94
381.07	695.14
381.26	751.31
381.46	699.82
381.65	580.45
381.85	718.54
382.04	716.20
382.24	711.52
382.43	704.50
382.63	643.65
382.83	720.88
383.02	711.52
383.22	746.63
383.41	676.41
383.61	781.74
383.80	791.10
384.00	781.74
384.19	650.67
384.39	758.33
384.58	746.63
384.78	713.86
384.97	891.74
385.17	795.78
385.36	774.72
385.56	870.68
385.75	828.55
385.95	858.98
386.14	866.00
386.34	795.78
386.53	823.87
386.72	809.83
386.92	849.61
387.11	929.19
387.31	842.59
387.50	898.77
387.70	805.14
387.89	809.83
388.09	795.78
388.28	835.57
388.48	901.11
388.67	917.49
388.86	894.08
389.06	919.83
389.25	1036.86
389.45	905.79
389.64	997.07
389.84	987.71
390.03	1032.18
390.22	1032.18
390.42	961.96
390.61	1041.54
390.81	929.19
391.00	983.02
391.19	1064.94
391.39	959.62
391.58	924.51
391.78	1018.13
391.97	1048.56
392.16	1116.44
392.36	1116.44
392.55	1128.14
392.75	1100.05
392.94	1100.05
393.13	1156.22
393.33	1132.82
393.52	1121.12
393.71	1252.19
393.91	1139.84
394.10	1118.78
394.29	1107.07
394.49	1109.41
394.68	1102.39
394.88	1252.19
395.07	1142.18
395.26	1160.91
395.46	1228.78
395.65	1294.32
395.84	1238.14
396.04	1277.93
396.23	1266.23
396.42	1270.91
396.62	1327.08
396.81	1315.38
397.00	1331.76
397.19	1324.74
397.39	1306.02
397.58	1472.20
397.77	1348.15
397.97	1397.30
398.16	1390.28
398.35	1385.60
398.55	1289.64
398.74	1401.98
398.93	1465.18
399.12	1373.89
399.32	1446.45
399.51	1444.11
399.70	1507.30
399.90	1425.39
400.09	1486.24
400.28	1488.58
400.47	1502.62
400.67	1533.05
400.86	1502.62
401.05	1514.33
401.24	1563.48
401.44	1577.52
401.63	1657.10
401.82	1523.69
402.01	1675.82
402.21	1624.33
402.40	1596.25
402.59	1633.69
402.78	1703.91
402.97	1629.01
403.17	1680.50
403.36	1650.08
403.55	1746.04
403.74	1886.47
403.93	1881.79
404.13	1849.02
404.32	1825.62
404.51	1884.13
404.70	1858.39
404.89	1746.04
405.09	1977.75
405.28	1834.98
405.47	1956.69
405.66	1952.01
405.85	2113.50
406.05	1977.75
406.24	1944.99
406.43	2031.58
406.62	2104.14
406.81	2064.35
407.00	2083.08
407.20	2029.24
407.39	1987.11
407.58	2080.74
407.77	2062.01
407.96	2054.99
408.15	2097.12
408.34	2139.25
408.54	2148.61
408.73	2186.06
408.92	2223.51
409.11	2186.06
409.30	2312.45
409.49	2300.75
409.68	2246.91
409.87	2471.61
410.07	2354.58
410.26	2399.05
410.45	2387.35
410.64	2296.07
410.83	2354.58
411.02	2471.61
411.21	2455.22
411.40	2438.84
411.59	2497.35
411.78	2534.80
411.98	2495.01
412.17	2595.65
412.36	2605.02
412.55	2609.70
412.74	2640.12
412.93	2630.76
413.12	2675.23
413.31	2808.64
413.50	2731.41
413.69	2724.38
413.88	2794.60
414.07	2757.15
414.26	2935.03
414.45	2813.32
414.64	3049.72
414.83	3047.38
415.02	3108.23
415.22	3091.85
415.41	3211.22
415.60	3180.79
415.79	3115.25
415.98	3117.59
416.17	3054.40
416.36	3260.37
416.55	3253.34
416.74	3180.79
416.93	3335.26
417.12	3379.73
417.31	3243.98
417.50	3377.39
417.69	3503.78
417.88	3311.86
418.07	3487.40
418.26	3433.57
418.45	3494.42
418.64	3653.58
418.83	3595.06
419.02	3419.52
419.21	3660.60
419.39	3613.79
419.58	3623.15
419.77	3641.87
419.96	3857.20
420.15	3691.02
420.34	3674.64
420.53	3700.39
420.72	3698.05
420.91	3798.69
421.10	3983.59
421.29	4091.26
421.48	3808.05
421.67	3899.33
421.86	3840.82
422.05	3894.65
422.24	3960.19
422.43	3936.78
422.61	3880.61
422.80	4051.47
422.99	4030.40
423.18	3992.95
423.37	4194.24
423.56	4016.36
423.75	3946.14
423.94	3964.87
424.13	3782.31
424.32	3850.18
424.50	4121.68
424.69	4098.28
424.88	3964.87
425.07	4044.45
425.26	3927.42
425.45	4091.26
425.64	4088.92
425.83	3950.82
426.01	4072.53
426.20	4058.49
426.39	4140.41
426.58	4063.17
426.77	4126.36
426.96	4117.00
427.15	4203.60
427.33	4215.30
427.52	4168.49
427.71	4306.59
427.90	4280.84
428.09	4241.05
428.28	4283.18
428.46	4337.01
428.65	4372.12
428.84	4416.59
429.03	4573.41
429.22	4306.59
429.40	4517.23
429.59	4381.48
429.78	4168.49
429.97	4093.60
430.16	4430.63
430.34	4454.04
430.53	4456.38
430.72	4652.98
430.91	4620.22
431.10	4657.67
431.28	4641.28
431.47	4816.82
431.66	4800.44
431.85	4538.30
432.03	4725.54
432.22	4898.74
432.41	4575.75
432.60	4926.83
432.79	4903.42
432.97	4915.12
433.16	4873.00
433.35	4791.08
433.54	5015.77
433.72	4894.06
433.91	5013.43
434.10	5041.51
434.28	4966.62
434.47	5249.82
434.66	5018.11
434.85	4924.49
435.03	5158.54
435.22	5036.83
435.41	5322.38
435.59	5284.93
435.78	5207.69
435.97	5282.59
436.16	5256.84
436.34	5184.29
436.53	5268.55
436.72	5282.59
436.90	5263.86
437.09	5423.02
437.28	5305.99
437.46	5469.83
437.65	5490.90
437.84	5390.25
438.02	5504.94
438.21	5509.62
438.40	5437.06
438.58	5685.16
438.77	5619.63
438.96	5781.12
439.14	5743.67
439.33	5905.17
439.52	5783.46
439.70	5867.72
439.89	5839.64
440.08	5923.90
440.26	6143.91
440.45	6057.31
440.63	6132.20
440.82	6106.46
441.01	6066.67
441.19	6232.85
441.38	6359.24
441.57	6279.66
441.75	6399.02
441.94	6326.47
442.12	6541.80
442.31	6698.61
442.50	6441.15
442.68	6466.90
442.87	6408.39
443.05	6661.16
443.24	6789.89
443.43	6675.21
443.61	6593.29
443.80	6932.67
443.98	6621.38
444.17	6607.33
444.35	6640.10
444.54	6773.51
444.73	6733.72
444.91	6682.23
445.10	6579.25
445.28	6918.62
445.47	6782.87
445.65	6855.43
445.84	6829.68
446.02	7094.16
446.21	6860.11
446.39	6799.26
446.58	6972.46
446.77	7080.12
446.95	6778.19
447.14	6970.12
447.32	7023.95
447.51	6995.86
447.69	6927.99
447.88	7012.24
448.06	6885.86
448.25	6946.71
448.43	6993.52
448.62	6977.14
448.80	7176.08
448.99	7218.21
449.17	7159.70
449.36	7059.06
449.54	7197.15
449.73	7379.71
449.91	7222.89
450.10	7393.75
450.28	7538.87
450.46	7262.68
450.65	7407.80
450.83	7616.10
451.02	7435.88
451.20	7679.30
451.39	7494.40
451.57	7440.56
451.76	7403.11
451.94	7513.12
452.13	7737.81
452.31	7669.94
452.49	7679.30
452.68	7836.11
452.86	7751.85
453.05	7901.65
453.23	7665.25
453.42	7548.23
453.60	7599.72
453.78	7625.47
453.97	7777.60
454.15	7772.92
454.34	7822.07
454.52	8013.99
454.70	7997.61
454.89	8004.63
455.07	7845.48
455.26	7882.92
455.44	8149.75
455.62	8126.34
455.81	8248.05
455.99	8182.51
456.17	8086.55
456.36	8140.38
456.54	8376.78
456.73	8318.26
456.91	8578.06
457.09	8564.02
457.28	8559.34
457.46	8360.39
457.64	8566.36
457.83	8496.14
458.01	8578.06
458.19	8657.64
458.38	8512.53
458.56	8924.46
458.74	8816.80
458.93	8634.24
459.11	8690.41
459.29	8692.75
459.48	8697.43
459.66	9057.87
459.84	9090.64
460.03	8912.76
460.21	8968.93
460.39	8931.48
460.57	8870.63
460.76	9020.42
460.94	9214.69
461.12	8933.82
461.31	9217.03
461.49	9132.77
461.67	9092.98
461.85	9572.79
462.04	9282.56
462.22	9895.78
462.40	9446.40
462.59	9474.49
462.77	9598.54
462.95	9561.09
463.13	9444.06
463.32	9408.95
463.50	9635.99
463.68	9502.58
463.86	9605.56
464.05	9687.48
464.23	9703.86
464.41	9771.74
464.59	9570.45
464.78	9872.38
464.96	9659.39
465.14	9640.67
465.32	10076.01
465.50	9680.46
465.69	10036.22
465.87	9764.72
466.05	9830.25
466.23	9860.68
466.41	10038.56
466.60	10146.22
466.78	9902.81
466.96	9790.46
467.14	9958.98
467.32	10221.12
467.51	10417.72
467.69	9848.97
467.87	10188.35
468.05	10200.05
468.23	10176.65
468.41	10272.61
468.60	10509.01
468.78	10134.52
468.96	10183.67
469.14	10480.92
469.32	10499.64
469.50	10026.86
469.69	10672.84
469.87	10565.18
470.05	10691.57
470.23	10754.76
470.41	10843.70
470.59	10813.28
470.77	10670.50
470.95	11002.86
471.14	10899.87
471.32	10878.81
471.50	11012.22
471.68	10991.16
471.86	11222.87
472.04	11059.03
472.22	11576.29
472.40	11199.46
472.58	11419.47
472.77	11360.96
472.95	11520.12
473.13	11683.95
473.31	11496.71
473.49	11499.05
473.67	11658.21
473.85	11737.79
474.03	11901.62
474.21	11934.39
474.39	11906.31
474.57	12201.21
474.75	12123.98
474.93	12418.88
475.12	12212.92
475.30	12334.62
475.48	12140.36
475.66	12573.36
475.84	12365.05
476.02	12622.51
476.20	12994.65
476.38	12959.55
476.56	13160.83
476.74	12945.50
476.92	13212.32
477.10	13081.25
477.28	13135.09
477.46	13088.28
477.64	13275.52
477.82	13493.19
478.00	14113.43
478.18	13830.23
478.36	13998.74
478.54	14003.43
478.72	14249.18
478.90	14408.34
479.08	14298.33
479.26	14415.36
479.44	14640.05
479.62	14757.08
479.80	14586.22
479.98	14984.11
480.16	15150.29
480.34	14946.66
480.52	15435.83
480.70	15028.58
480.88	15218.16
481.06	15272.00
481.24	15328.17
481.41	15456.90
481.59	16086.50
481.77	16074.80
481.95	16215.23
482.13	16145.02
482.31	16252.68
482.49	16360.34
482.67	16570.99
482.85	16968.88
483.03	16889.31
483.21	17151.45
483.39	17422.95
483.57	17064.85
483.74	17392.52
483.92	17200.60
484.10	17411.25
484.28	17724.88
484.46	18253.84
484.64	18370.86
484.82	18036.17
485.00	18267.88
485.18	18843.65
485.35	19204.10
485.53	18853.02
485.71	18853.02
485.89	19084.73
486.07	19332.82
486.25	19393.68
486.43	19686.25
486.61	19583.26
486.78	20112.22
486.96	20016.26
487.14	20372.02
487.32	20306.49
487.50	20470.33
487.68	20458.62
487.85	20772.25
488.03	21013.33
488.21	21123.33
488.39	21184.19
488.57	21198.23
488.75	21333.98
488.92	21900.39
489.10	21994.01
489.28	21930.82
489.46	22445.74
489.64	22050.19
489.81	22642.34
489.99	22546.38
490.17	23061.30
490.35	23124.49
490.53	23201.73
490.70	23646.43
490.88	23274.29
491.06	23693.24
491.24	24060.71
491.41	23807.93
491.59	24002.19
491.77	24137.94
491.95	24304.12
492.13	24465.62
492.30	24507.75
492.48	24833.08
492.66	24783.93
492.84	24814.36
493.01	25032.03
493.19	25083.52
493.37	25294.17
493.54	25841.85
493.72	25942.50
493.90	25769.30
494.08	25949.52
494.25	26700.83
494.43	26536.99
494.61	26740.62
494.79	26799.13
494.96	26604.87
495.14	26981.70
495.32	26890.41
495.49	27218.09
495.67	27442.78
495.85	27503.64
496.02	27885.14
496.20	27992.81
496.38	27875.78
496.55	28212.82
496.73	28496.02
496.91	28444.53
497.09	28276.01
497.26	28584.96
497.44	29017.96
497.62	28758.16
497.79	29371.38
497.97	29432.24
498.14	29722.46
498.32	30008.01
498.50	29696.72
498.67	30057.16
498.85	29790.34
499.03	29998.65
499.20	30426.96
499.38	30518.25
499.56	30785.07
499.73	30941.88
499.91	30843.58
500.08	31082.31
500.26	31030.82
500.44	31295.30
500.61	31138.49
500.79	31295.30
500.97	31218.07
501.14	31728.30
501.32	32037.25
501.49	31948.31
501.67	31906.18
501.84	31908.52
502.02	32074.70
502.20	32091.09
502.37	32877.51
502.55	32554.51
502.72	32428.12
502.90	32795.59
503.07	32486.64
503.25	32929.00
503.43	32847.08
503.60	33275.40
503.78	33261.35
503.95	33153.69
504.13	33567.96
504.30	33670.95
504.48	33385.40
504.65	33661.58
504.83	33713.08
505.01	34555.67
505.18	34216.29
505.36	34553.33
505.53	33546.90
505.71	34164.80
505.88	34562.69
506.06	34188.21
506.23	34712.49
506.41	34897.39
506.58	34876.32
506.76	34817.81
506.93	34747.59
507.11	34913.77
507.28	35594.87
507.46	35826.58
507.63	35688.49
507.81	35896.80
507.98	35587.85
508.16	35632.32
508.33	35775.09
508.50	35866.37
508.68	36077.02
508.85	36554.49
509.03	36643.43
509.20	37099.83
509.38	36652.79
509.55	36800.24
509.73	37106.85
509.90	36886.84
510.08	36715.98
510.25	37181.75
510.42	37031.96
510.60	37713.05
510.77	37577.30
510.95	37610.07
511.12	37745.82
511.30	37764.54
511.47	38103.92
511.64	38005.62
511.82	38508.83
511.99	37818.38
512.17	38094.56
512.34	38258.40
512.51	38689.06
512.69	39098.65
512.86	38684.37
513.04	39290.57
513.21	38595.43
513.38	39175.89
513.56	39332.70
513.73	39585.48
513.90	39512.92
514.08	39381.85
514.25	39166.52
514.43	39515.26
514.60	39749.32
514.77	40107.42
514.95	39903.79
515.12	39739.96
515.29	40048.91
515.47	39995.07
515.64	40367.22
515.81	40137.85
515.99	40381.26
516.16	40830.65
516.33	40950.01
516.51	40968.74
516.68	40559.14
516.85	40435.10
517.03	40861.07
517.20	41368.97
517.37	41345.56
517.54	41446.21
517.72	41345.56
517.89	41076.40
518.06	41310.46
518.24	41633.45
518.41	41378.33
518.58	41935.38
518.75	41713.03
518.93	42171.77
519.10	41958.78
519.27	41865.16
519.45	42080.49
519.62	42094.53
519.79	42499.45
519.96	42265.39
520.14	42859.89
520.31	42473.70
520.48	42569.66
520.65	42660.94
520.83	42564.98
521.00	43098.62
521.17	43143.09
521.34	42749.88
521.52	42939.47
521.69	43346.72
521.86	43318.64
522.03	43594.82
522.20	43662.69
522.38	43763.34
522.55	43847.60
522.72	43910.79
522.89	44456.14
523.07	44219.74
523.24	44252.51
523.41	44465.50
523.58	44065.27
523.75	44231.44
523.92	44308.68
524.10	44498.26
524.27	44814.24
524.44	44971.05
524.61	44856.37
524.78	45132.55
524.96	44903.18
525.13	45146.59
525.30	45118.51
525.47	45162.98
525.64	45113.83
525.81	45525.76
525.98	45492.99
526.16	45378.31
526.33	45078.72
526.50	45909.61
526.67	45338.52
526.84	45694.28
527.01	45509.38
527.18	45649.81
527.36	46127.28
527.53	45773.86
527.70	46494.74
527.87	45982.16
528.04	46286.43
528.21	46127.28
528.38	46183.45
528.55	46508.79
528.72	46124.94
528.89	46543.89
529.07	46511.13
529.24	46436.23
529.41	46880.93
529.58	46628.15
529.75	46607.09
529.92	46370.69
530.09	47072.85
530.26	46960.51
530.43	47250.74
530.60	46728.80
530.77	46845.82
530.94	47466.06
531.11	46897.31
531.28	47283.50
531.46	46939.44
531.63	47456.70
531.80	47636.92
531.97	47833.53
532.14	47875.66
532.31	47599.47
532.48	47657.99
532.65	47313.93
532.82	47646.29
532.99	47845.23
533.16	47580.75
533.33	48374.19
533.50	48177.59
533.67	47985.66
533.84	48240.78
534.01	47643.94
534.18	48250.14
534.35	48376.53
534.52	48140.14
534.69	48807.19
534.86	48868.05
535.03	48495.90
535.20	48830.60
535.37	49006.14
535.54	48690.16
535.71	48643.35
535.88	48971.03
536.05	48851.66
536.22	49074.01
536.38	49205.08
536.55	49291.68
536.72	49301.04
536.89	49081.03
537.06	49024.86
537.23	49272.96
537.40	49345.51
537.57	49331.47
537.74	49111.46
537.91	49612.34
538.08	49738.72
538.25	49801.92
538.42	49593.61
538.59	49942.35
538.75	49256.57
538.92	49708.30
539.09	49673.19
539.26	50181.09
539.43	49689.57
539.60	50113.21
539.77	49940.01
539.94	49837.03
540.11	50192.79
540.28	49998.52
540.44	49867.45
540.61	50129.59
540.78	50150.66
540.95	50504.08
541.12	50330.88
541.29	50099.17
541.46	50017.25
541.62	50260.66
541.79	50410.46
541.96	50019.59
542.13	50274.71
542.30	50548.55
542.47	50674.94
542.63	50932.40
542.80	51082.19
542.97	51030.70
543.14	50916.01
543.31	50955.80
543.48	50993.25
543.64	51224.96
543.81	51231.99
543.98	51304.54
544.15	51423.91
544.32	51615.83
544.48	51566.68
544.65	51145.39
544.82	51210.92
544.99	51459.02
545.16	51667.33
545.32	51283.48
545.49	51686.05
545.66	51669.67
545.83	51969.26
546.00	51845.21
546.16	51592.43
546.33	51655.62
546.50	51395.82
546.67	51723.50
546.83	51494.13
547.00	51636.90
547.17	51990.32
547.34	51341.99
547.50	51959.89
547.67	52329.70
547.84	51870.95
548.00	52154.16
548.17	52411.62
548.34	52137.77
548.51	52100.32
548.67	52357.78
548.84	52395.23
549.01	52205.65
549.18	52252.46
549.34	52264.16
549.51	52355.44
549.68	52465.45
549.84	52332.04
550.01	52603.54
550.18	52250.12
550.34	52493.54
550.51	52498.22
550.68	52516.94
550.84	52310.97
551.01	52664.39
551.18	52301.61
551.34	52577.79
551.51	52863.34
551.68	52900.79
551.84	52910.15
552.01	52636.31
552.18	52879.72
552.34	52949.94
552.51	52905.47
552.68	52954.62
552.84	52603.54
553.01	53343.15
553.18	52905.47
553.34	53235.48
553.51	52938.24
553.67	53167.61
553.84	53324.43
554.01	53525.71
554.17	53200.38
554.34	53081.01
554.51	53450.81
554.67	53212.08
554.84	53654.44
555.00	53579.54
555.17	53279.96
555.33	53401.66
555.50	53471.88
555.67	53612.31
555.83	53279.96
556.00	53418.05
556.16	53595.93
556.33	53626.35
556.50	53771.47
556.66	53401.66
556.83	53415.71
556.99	54035.95
557.16	54042.97
557.32	53574.86
557.49	53673.16
557.65	53385.28
557.82	53408.68
557.98	53570.18
558.15	53729.34
558.32	53738.70
558.48	53902.54
558.65	53890.83
558.81	53710.61
558.98	53839.34
559.14	53684.87
559.31	54042.97
559.47	53914.24
559.64	54258.30
559.80	54197.44
559.97	54127.23
560.13	53858.07
560.30	53935.30
560.46	54040.63
560.63	54059.35
560.79	54174.04
560.96	54380.01
561.12	54124.89
561.29	53968.07
561.45	54349.58
561.61	54152.97
561.78	54117.87
561.94	54190.42
562.11	54391.71
562.27	54005.52
562.44	54096.80
562.60	54520.44
562.77	54354.26
562.93	54323.83
563.10	54667.89
563.26	54415.11
563.42	54759.17
563.59	54408.09
563.75	54316.81
563.92	54450.22
564.08	54354.26
564.24	54574.27
564.41	54424.48
564.57	54237.23
564.74	54354.26
564.90	54768.54
565.07	54763.85
565.23	54473.63
565.39	54569.59
565.56	54864.50
565.72	54391.71
565.88	54499.37
566.05	54429.16
566.21	54660.87
566.38	54653.85
566.54	54405.75
566.70	54901.95
566.87	54955.78
567.03	54742.79
567.19	54550.87
567.36	54670.23
567.52	54731.09
567.68	54684.28
567.85	54745.13
568.01	54452.56
568.17	54630.44
568.34	54923.01
568.50	54958.12
568.66	54927.69
568.83	54993.23
568.99	54756.83
569.15	54925.35
569.32	54820.03
569.48	54810.67
569.64	54611.72
569.81	54927.69
569.97	54590.66
570.13	54939.39
570.30	54827.05
570.46	54890.24
570.62	55028.34
570.78	54913.65
570.95	54714.70
571.11	54614.06
571.27	54777.90
571.43	54906.63
571.60	55068.12
571.76	54934.71
571.92	55037.70
572.09	55079.83
572.25	55260.05
572.41	54939.39
572.57	54937.05
572.74	54852.80
572.90	54621.08
573.06	54965.14
573.22	54915.99
573.38	55054.08
573.55	54925.35
573.71	55061.10
573.87	55206.22
574.03	55000.25
574.20	54981.52
574.36	55016.63
574.52	54887.90
574.68	55114.94
574.84	55302.18
575.01	55248.35
575.17	55182.81
575.33	55128.98
575.49	55051.74
575.65	55150.04
575.82	55112.59
575.98	55021.31
576.14	55309.20
576.30	55346.65
576.46	55077.49
576.62	55271.75
576.79	55143.02
576.95	54974.50
577.11	55269.41
577.27	55433.25
577.43	55477.72
577.59	55447.29
577.75	55007.27
577.92	55131.32
578.08	54988.55
578.24	54967.48
578.40	55285.79
578.56	54911.31
578.72	55086.85
578.88	55367.71
579.04	55426.23
579.21	54983.86
579.37	55178.13
579.53	55299.84
579.69	55133.66
579.85	55351.33
580.01	55000.25
580.17	55084.51
580.33	55255.37
580.49	55496.44
580.65	55316.22
580.82	55503.46
580.98	55409.84
581.14	55255.37
581.30	55487.08
581.46	55246.00
581.62	54946.42
581.78	54953.44
581.94	55248.35
582.10	55292.82
582.26	55430.91
582.42	55386.44
582.58	55466.02
582.74	55473.04
582.90	55323.24
583.06	55231.96
583.22	55423.89
583.38	55346.65
583.54	55407.50
583.70	55377.08
583.86	55248.35
584.02	55398.14
584.18	55351.33
584.34	55468.36
584.50	55622.83
584.66	55451.97
584.82	55168.77
584.98	55370.05
585.14	55306.86
585.30	54962.80
585.46	55264.73
585.62	55285.79
585.78	55620.49
585.94	55332.60
586.10	55379.42
586.26	55426.23
586.42	55353.67
586.58	55849.86
586.74	55398.14
586.90	55587.72
587.06	55402.82
587.22	55547.93
587.38	55374.73
587.54	55454.31
587.70	55669.64
587.86	55704.75
588.02	55847.52
588.18	55643.90
588.34	55482.40
588.49	55517.51
588.65	55557.30
588.81	55636.87
588.97	55454.31
589.13	55615.81
589.29	55374.73
589.45	55664.96
589.61	55735.18
589.77	55838.16
589.93	55737.52
