SpectraSuite Data File
++++++++++++++++++++++++++++++++++++
Date: Fri Oct 04 11:47:07 GMT-05:00 2013
User: price-jones
Dark Spectrum Present: No
Reference Spectrum Present: No
Number of Sampled Component Spectra: 1
Spectrometers: USB2+H05261
Integration Time (usec): 100000 (USB2+H05261)
Spectra Averaged: 1 (USB2+H05261)
Boxcar Smoothing: 0 (USB2+H05261)
Correct for Electrical Dark: No (USB2+H05261)
Strobe/Lamp Enabled: No (USB2+H05261)
Correct for Detector Non-linearity: No (USB2+H05261)
Correct for Stray Light: No (USB2+H05261)
Number of Pixels in Processed Spectrum: 2048
>>>>>Begin Processed Spectral Data<<<<<
365.73	35.11
365.92	35.11
366.12	35.11
366.32	0.00
366.52	0.00
366.72	0.00
366.91	0.00
367.11	0.00
367.31	0.00
367.51	0.00
367.70	0.00
367.90	0.00
368.10	0.00
368.30	0.00
368.49	0.00
368.69	0.00
368.89	0.00
369.09	0.00
369.28	0.00
369.48	0.00
369.68	0.00
369.87	0.00
370.07	28.09
370.27	0.00
370.47	0.00
370.66	7.02
370.86	14.04
371.06	63.19
371.25	51.49
371.45	0.00
371.65	30.43
371.84	0.00
372.04	77.24
372.24	39.79
372.44	49.15
372.63	84.26
372.83	147.45
373.03	25.75
373.22	86.60
373.42	56.17
373.62	128.73
373.81	105.32
374.01	98.30
374.21	93.62
374.40	110.01
374.60	170.86
374.79	112.35
374.99	93.62
375.19	131.07
375.38	77.24
375.58	140.43
375.78	81.92
375.97	152.13
376.17	212.99
376.37	135.75
376.56	114.69
376.76	28.09
376.95	95.96
377.15	105.32
377.35	117.03
377.54	67.88
377.74	138.09
377.93	77.24
378.13	93.62
378.33	42.13
378.52	67.88
378.72	198.95
378.91	105.32
379.11	9.36
379.31	119.37
379.50	95.96
379.70	77.24
379.89	95.96
380.09	53.83
380.28	88.94
380.48	112.35
380.68	35.11
380.87	49.15
381.07	93.62
381.26	117.03
381.46	126.39
381.65	131.07
381.85	95.96
382.04	79.58
382.24	105.32
382.43	72.56
382.63	51.49
382.83	100.64
383.02	102.98
383.22	161.50
383.41	72.56
383.61	77.24
383.80	84.26
384.00	114.69
384.19	84.26
384.39	114.69
384.58	65.54
384.78	81.92
384.97	72.56
385.17	58.51
385.36	46.81
385.56	77.24
385.75	77.24
385.95	32.77
386.14	147.45
386.34	28.09
386.53	93.62
386.72	70.22
386.92	147.45
387.11	65.54
387.31	180.22
387.50	70.22
387.70	39.79
387.89	79.58
388.09	70.22
388.28	30.43
388.48	91.28
388.67	102.98
388.86	67.88
389.06	110.01
389.25	105.32
389.45	93.62
389.64	74.90
389.84	79.58
390.03	70.22
390.22	126.39
390.42	88.94
390.61	114.69
390.81	63.19
391.00	51.49
391.19	121.71
391.39	67.88
391.58	117.03
391.78	93.62
391.97	124.05
392.16	77.24
392.36	126.39
392.55	81.92
392.75	117.03
392.94	145.11
393.13	79.58
393.33	44.47
393.52	21.06
393.71	114.69
393.91	77.24
394.10	81.92
394.29	145.11
394.49	72.56
394.68	95.96
394.88	198.95
395.07	177.88
395.26	93.62
395.46	126.39
395.65	112.35
395.84	95.96
396.04	77.24
396.23	72.56
396.42	105.32
396.62	107.66
396.81	107.66
397.00	119.37
397.19	138.09
397.39	93.62
397.58	119.37
397.77	74.90
397.97	98.30
398.16	65.54
398.35	79.58
398.55	0.00
398.74	102.98
398.93	86.60
399.12	86.60
399.32	63.19
399.51	77.24
399.70	126.39
399.90	145.11
400.09	28.09
400.28	95.96
400.47	124.05
400.67	84.26
400.86	161.50
401.05	105.32
401.24	140.43
401.44	159.16
401.63	133.41
401.82	11.70
402.01	51.49
402.21	107.66
402.40	93.62
402.59	131.07
402.78	95.96
402.97	67.88
403.17	142.77
403.36	110.01
403.55	119.37
403.74	84.26
403.93	187.24
404.13	241.08
404.32	131.07
404.51	191.92
404.70	110.01
404.89	81.92
405.09	107.66
405.28	86.60
405.47	86.60
405.66	147.45
405.85	110.01
406.05	112.35
406.24	42.13
406.43	63.19
406.62	81.92
406.81	224.69
407.00	152.13
407.20	112.35
407.39	16.38
407.58	0.00
407.77	100.64
407.96	133.41
408.15	133.41
408.34	88.94
408.54	140.43
408.73	74.90
408.92	98.30
409.11	182.56
409.30	163.84
409.49	184.90
409.68	100.64
409.87	79.58
410.07	74.90
410.26	98.30
410.45	79.58
410.64	119.37
410.83	84.26
411.02	126.39
411.21	70.22
411.40	91.28
411.59	121.71
411.78	102.98
411.98	142.77
412.17	147.45
412.36	91.28
412.55	81.92
412.74	121.71
412.93	182.56
413.12	74.90
413.31	112.35
413.50	81.92
413.69	121.71
413.88	121.71
414.07	138.09
414.26	124.05
414.45	105.32
414.64	91.28
414.83	84.26
415.02	140.43
415.22	147.45
415.41	189.58
415.60	163.84
415.79	58.51
415.98	152.13
416.17	142.77
416.36	105.32
416.55	107.66
416.74	112.35
416.93	227.03
417.12	88.94
417.31	124.05
417.50	126.39
417.69	208.31
417.88	250.44
418.07	184.90
418.26	154.48
418.45	201.29
418.64	180.22
418.83	229.37
419.02	283.20
419.21	212.99
419.39	149.79
419.58	154.48
419.77	177.88
419.96	212.99
420.15	140.43
420.34	124.05
420.53	98.30
420.72	128.73
420.91	98.30
421.10	46.81
421.29	131.07
421.48	133.41
421.67	140.43
421.86	98.30
422.05	124.05
422.24	91.28
422.43	131.07
422.61	105.32
422.80	119.37
422.99	114.69
423.18	98.30
423.37	91.28
423.56	102.98
423.75	166.18
423.94	133.41
424.13	110.01
424.32	58.51
424.50	112.35
424.69	88.94
424.88	119.37
425.07	119.37
425.26	175.54
425.45	273.84
425.64	231.71
425.83	250.44
426.01	189.58
426.20	154.48
426.39	74.90
426.58	131.07
426.77	166.18
426.96	175.54
427.15	187.24
427.33	67.88
427.52	84.26
427.71	72.56
427.90	114.69
428.09	149.79
428.28	133.41
428.46	133.41
428.65	217.67
428.84	77.24
429.03	128.73
429.22	81.92
429.40	93.62
429.59	138.09
429.78	154.48
429.97	105.32
430.16	98.30
430.34	100.64
430.53	86.60
430.72	117.03
430.91	161.50
431.10	91.28
431.28	166.18
431.47	121.71
431.66	131.07
431.85	84.26
432.03	126.39
432.22	147.45
432.41	100.64
432.60	175.54
432.79	210.65
432.97	269.16
433.16	264.48
433.35	203.63
433.54	184.90
433.72	205.97
433.91	147.45
434.10	196.60
434.28	131.07
434.47	163.84
434.66	149.79
434.85	126.39
435.03	159.16
435.22	126.39
435.41	175.54
435.59	138.09
435.78	121.71
435.97	128.73
436.16	117.03
436.34	91.28
436.53	124.05
436.72	156.82
436.90	140.43
437.09	163.84
437.28	67.88
437.46	56.17
437.65	112.35
437.84	126.39
438.02	107.66
438.21	131.07
438.40	140.43
438.58	133.41
438.77	95.96
438.96	95.96
439.14	205.97
439.33	117.03
439.52	156.82
439.70	91.28
439.89	177.88
440.08	156.82
440.26	100.64
440.45	133.41
440.63	161.50
440.82	166.18
441.01	142.77
441.19	117.03
441.38	198.95
441.57	159.16
441.75	149.79
441.94	163.84
442.12	70.22
442.31	142.77
442.50	159.16
442.68	142.77
442.87	126.39
443.05	180.22
443.24	30.43
443.43	126.39
443.61	217.67
443.80	147.45
443.98	133.41
444.17	131.07
444.35	110.01
444.54	128.73
444.73	93.62
444.91	170.86
445.10	25.75
445.28	121.71
445.47	131.07
445.65	107.66
445.84	107.66
446.02	161.50
446.21	88.94
446.39	147.45
446.58	147.45
446.77	114.69
446.95	105.32
447.14	114.69
447.32	173.20
447.51	156.82
447.69	126.39
447.88	161.50
448.06	142.77
448.25	126.39
448.43	84.26
448.62	81.92
448.80	198.95
448.99	184.90
449.17	189.58
449.36	135.75
449.54	121.71
449.73	121.71
449.91	175.54
450.10	147.45
450.28	168.52
450.46	212.99
450.65	173.20
450.83	124.05
451.02	30.43
451.20	126.39
451.39	212.99
451.57	161.50
451.76	121.71
451.94	107.66
452.13	128.73
452.31	140.43
452.49	182.56
452.68	98.30
452.86	128.73
453.05	180.22
453.23	156.82
453.42	112.35
453.60	110.01
453.78	142.77
453.97	128.73
454.15	65.54
454.34	42.13
454.52	102.98
454.70	166.18
454.89	159.16
455.07	72.56
455.26	114.69
455.44	173.20
455.62	81.92
455.81	84.26
455.99	170.86
456.17	135.75
456.36	79.58
456.54	107.66
456.73	138.09
456.91	175.54
457.09	147.45
457.28	110.01
457.46	98.30
457.64	196.60
457.83	93.62
458.01	102.98
458.19	175.54
458.38	86.60
458.56	138.09
458.74	105.32
458.93	152.13
459.11	147.45
459.29	91.28
459.48	110.01
459.66	124.05
459.84	133.41
460.03	243.42
460.21	121.71
460.39	81.92
460.57	212.99
460.76	138.09
460.94	110.01
461.12	70.22
461.31	187.24
461.49	154.48
461.67	135.75
461.85	86.60
462.04	126.39
462.22	535.98
462.40	243.42
462.59	161.50
462.77	86.60
462.95	114.69
463.13	138.09
463.32	161.50
463.50	88.94
463.68	77.24
463.86	107.66
464.05	170.86
464.23	163.84
464.41	117.03
464.59	175.54
464.78	91.28
464.96	147.45
465.14	133.41
465.32	131.07
465.50	159.16
465.69	163.84
465.87	86.60
466.05	135.75
466.23	93.62
466.41	187.24
466.60	180.22
466.78	98.30
466.96	98.30
467.14	149.79
467.32	74.90
467.51	187.24
467.69	182.56
467.87	173.20
468.05	156.82
468.23	194.26
468.41	184.90
468.60	159.16
468.78	147.45
468.96	142.77
469.14	110.01
469.32	119.37
469.50	110.01
469.69	119.37
469.87	112.35
470.05	133.41
470.23	88.94
470.41	51.49
470.59	138.09
470.77	175.54
470.95	65.54
471.14	147.45
471.32	128.73
471.50	191.92
471.68	184.90
471.86	124.05
472.04	124.05
472.22	220.01
472.40	126.39
472.58	98.30
472.77	126.39
472.95	121.71
473.13	229.37
473.31	154.48
473.49	117.03
473.67	189.58
473.85	126.39
474.03	140.43
474.21	194.26
474.39	182.56
474.57	152.13
474.75	184.90
474.93	65.54
475.12	133.41
475.30	131.07
475.48	175.54
475.66	175.54
475.84	159.16
476.02	121.71
476.20	131.07
476.38	142.77
476.56	245.76
476.74	184.90
476.92	145.11
477.10	128.73
477.28	250.44
477.46	212.99
477.64	198.95
477.82	142.77
478.00	131.07
478.18	168.52
478.36	184.90
478.54	154.48
478.72	140.43
478.90	198.95
479.08	133.41
479.26	91.28
479.44	154.48
479.62	112.35
479.80	140.43
479.98	187.24
480.16	175.54
480.34	121.71
480.52	187.24
480.70	163.84
480.88	184.90
481.06	117.03
481.24	229.37
481.41	124.05
481.59	180.22
481.77	140.43
481.95	135.75
482.13	152.13
482.31	198.95
482.49	175.54
482.67	238.73
482.85	114.69
483.03	149.79
483.21	159.16
483.39	215.33
483.57	114.69
483.74	220.01
483.92	105.32
484.10	168.52
484.28	152.13
484.46	212.99
484.64	175.54
484.82	135.75
485.00	119.37
485.18	159.16
485.35	191.92
485.53	86.60
485.71	168.52
485.89	180.22
486.07	142.77
486.25	252.78
486.43	189.58
486.61	147.45
486.78	161.50
486.96	156.82
487.14	126.39
487.32	112.35
487.50	142.77
487.68	203.63
487.85	161.50
488.03	149.79
488.21	243.42
488.39	147.45
488.57	234.05
488.75	194.26
488.92	407.25
489.10	105.32
489.28	194.26
489.46	166.18
489.64	159.16
489.81	117.03
489.99	142.77
490.17	117.03
490.35	173.20
490.53	173.20
490.70	154.48
490.88	191.92
491.06	147.45
491.24	196.60
491.41	229.37
491.59	229.37
491.77	173.20
491.95	161.50
492.13	203.63
492.30	117.03
492.48	180.22
492.66	231.71
492.84	166.18
493.01	187.24
493.19	222.35
493.37	131.07
493.54	201.29
493.72	245.76
493.90	149.79
494.08	184.90
494.25	243.42
494.43	170.86
494.61	191.92
494.79	142.77
494.96	173.20
495.14	140.43
495.32	154.48
495.49	198.95
495.67	266.82
495.85	180.22
496.02	187.24
496.20	163.84
496.38	196.60
496.55	196.60
496.73	170.86
496.91	93.62
497.09	168.52
497.26	184.90
497.44	152.13
497.62	140.43
497.79	147.45
497.97	217.67
498.14	140.43
498.32	222.35
498.50	217.67
498.67	135.75
498.85	184.90
499.03	159.16
499.20	133.41
499.38	208.31
499.56	145.11
499.73	208.31
499.91	180.22
500.08	156.82
500.26	187.24
500.44	201.29
500.61	121.71
500.79	245.76
500.97	170.86
501.14	220.01
501.32	201.29
501.49	234.05
501.67	212.99
501.84	238.73
502.02	184.90
502.20	217.67
502.37	187.24
502.55	238.73
502.72	257.46
502.90	215.33
503.07	238.73
503.25	210.65
503.43	152.13
503.60	262.14
503.78	180.22
503.95	203.63
504.13	203.63
504.30	243.42
504.48	194.26
504.65	215.33
504.83	243.42
505.01	84.26
505.18	189.58
505.36	227.03
505.53	189.58
505.71	205.97
505.88	222.35
506.06	168.52
506.23	257.46
506.41	224.69
506.58	196.60
506.76	201.29
506.93	224.69
507.11	196.60
507.28	149.79
507.46	224.69
507.63	241.08
507.81	224.69
507.98	191.92
508.16	191.92
508.33	229.37
508.50	203.63
508.68	173.20
508.85	161.50
509.03	229.37
509.20	184.90
509.38	145.11
509.55	212.99
509.73	229.37
509.90	236.39
510.08	133.41
510.25	227.03
510.42	180.22
510.60	131.07
510.77	187.24
510.95	222.35
511.12	203.63
511.30	255.12
511.47	262.14
511.64	278.52
511.82	248.10
511.99	194.26
512.17	156.82
512.34	154.48
512.51	161.50
512.69	149.79
512.86	187.24
513.04	156.82
513.21	138.09
513.38	107.66
513.56	166.18
513.73	191.92
513.90	182.56
514.08	236.39
514.25	250.44
514.43	161.50
514.60	175.54
514.77	173.20
514.95	217.67
515.12	210.65
515.29	266.82
515.47	229.37
515.64	191.92
515.81	166.18
515.99	191.92
516.16	161.50
516.33	238.73
516.51	184.90
516.68	175.54
516.85	215.33
517.03	133.41
517.20	180.22
517.37	182.56
517.54	201.29
517.72	252.78
517.89	243.42
518.06	170.86
518.24	217.67
518.41	238.73
518.58	212.99
518.75	210.65
518.93	257.46
519.10	245.76
519.27	220.01
519.45	191.92
519.62	222.35
519.79	212.99
519.96	180.22
520.14	170.86
520.31	203.63
520.48	184.90
520.65	250.44
520.83	152.13
521.00	191.92
521.17	189.58
521.34	198.95
521.52	229.37
521.69	224.69
521.86	184.90
522.03	238.73
522.20	255.12
522.38	198.95
522.55	236.39
522.72	175.54
522.89	180.22
523.07	231.71
523.24	243.42
523.41	227.03
523.58	142.77
523.75	147.45
523.92	212.99
524.10	259.80
524.27	208.31
524.44	163.84
524.61	208.31
524.78	184.90
524.96	229.37
525.13	124.05
525.30	177.88
525.47	285.55
525.64	187.24
525.81	182.56
525.98	210.65
526.16	180.22
526.33	269.16
526.50	156.82
526.67	156.82
526.84	166.18
527.01	222.35
527.18	229.37
527.36	149.79
527.53	252.78
527.70	208.31
527.87	187.24
528.04	341.72
528.21	222.35
528.38	290.23
528.55	215.33
528.72	145.11
528.89	189.58
529.07	229.37
529.24	154.48
529.41	201.29
529.58	212.99
529.75	227.03
529.92	180.22
530.09	248.10
530.26	180.22
530.43	201.29
530.60	285.55
530.77	212.99
530.94	182.56
531.11	227.03
531.28	234.05
531.46	215.33
531.63	175.54
531.80	245.76
531.97	250.44
532.14	229.37
532.31	243.42
532.48	278.52
532.65	304.27
532.82	351.08
532.99	395.55
533.16	320.65
533.33	266.82
533.50	231.71
533.67	271.50
533.84	423.64
534.01	463.43
534.18	339.38
534.35	276.18
534.52	212.99
534.69	301.93
534.86	191.92
535.03	236.39
535.20	276.18
535.37	243.42
535.54	250.44
535.71	201.29
535.88	259.80
536.05	229.37
536.22	212.99
536.38	266.82
536.55	224.69
536.72	292.57
536.89	161.50
537.06	245.76
537.23	224.69
537.40	262.14
537.57	191.92
537.74	227.03
537.91	201.29
538.08	182.56
538.25	170.86
538.42	184.90
538.59	252.78
538.75	196.60
538.92	220.01
539.09	170.86
539.26	285.55
539.43	493.85
539.60	1196.01
539.77	1947.33
539.94	2073.71
540.11	1299.00
540.28	823.87
540.44	634.29
540.61	299.59
540.78	259.80
540.95	220.01
541.12	229.37
541.29	154.48
541.46	236.39
541.62	266.82
541.79	187.24
541.96	182.56
542.13	201.29
542.30	238.73
542.47	248.10
542.63	241.08
542.80	177.88
542.97	262.14
543.14	241.08
543.31	306.61
543.48	238.73
543.64	217.67
543.81	198.95
543.98	208.31
544.15	208.31
544.32	276.18
544.48	234.05
544.65	205.97
544.82	252.78
544.99	196.60
545.16	201.29
545.32	198.95
545.49	231.71
545.66	208.31
545.83	264.48
546.00	205.97
546.16	210.65
546.33	215.33
546.50	236.39
546.67	196.60
546.83	238.73
547.00	187.24
547.17	238.73
547.34	198.95
547.50	112.35
547.67	173.20
547.84	236.39
548.00	245.76
548.17	220.01
548.34	210.65
548.51	238.73
548.67	269.16
548.84	196.60
549.01	149.79
549.18	182.56
549.34	259.80
549.51	203.63
549.68	276.18
549.84	175.54
550.01	163.84
550.18	283.20
550.34	194.26
550.51	163.84
550.68	215.33
550.84	196.60
551.01	191.92
551.18	257.46
551.34	212.99
551.51	131.07
551.68	156.82
551.84	182.56
552.01	231.71
552.18	215.33
552.34	229.37
552.51	220.01
552.68	196.60
552.84	180.22
553.01	262.14
553.18	234.05
553.34	203.63
553.51	180.22
553.67	255.12
553.84	220.01
554.01	224.69
554.17	140.43
554.34	128.73
554.51	210.65
554.67	154.48
554.84	177.88
555.00	283.20
555.17	203.63
555.33	236.39
555.50	163.84
555.67	117.03
555.83	205.97
556.00	222.35
556.16	365.12
556.33	271.50
556.50	217.67
556.66	184.90
556.83	131.07
556.99	166.18
557.16	140.43
557.32	173.20
557.49	238.73
557.65	215.33
557.82	173.20
557.98	161.50
558.15	210.65
558.32	145.11
558.48	205.97
558.65	243.42
558.81	222.35
558.98	180.22
559.14	292.57
559.31	145.11
559.47	145.11
559.64	145.11
559.80	273.84
559.97	231.71
560.13	135.75
560.30	161.50
560.46	224.69
560.63	262.14
560.79	212.99
560.96	234.05
561.12	196.60
561.29	255.12
561.45	154.48
561.61	250.44
561.78	360.44
561.94	234.05
562.11	217.67
562.27	187.24
562.44	191.92
562.60	138.09
562.77	203.63
562.93	252.78
563.10	205.97
563.26	224.69
563.42	210.65
563.59	241.08
563.75	229.37
563.92	191.92
564.08	224.69
564.24	205.97
564.41	304.27
564.57	182.56
564.74	229.37
564.90	166.18
565.07	294.91
565.23	287.89
565.39	238.73
565.56	292.57
565.72	234.05
565.88	297.25
566.05	241.08
566.21	194.26
566.38	210.65
566.54	266.82
566.70	203.63
566.87	184.90
567.03	110.01
567.19	114.69
567.36	177.88
567.52	184.90
567.68	203.63
567.85	229.37
568.01	241.08
568.17	121.71
568.34	149.79
568.50	297.25
568.66	189.58
568.83	224.69
568.99	241.08
569.15	236.39
569.32	145.11
569.48	227.03
569.64	175.54
569.81	220.01
569.97	149.79
570.13	161.50
570.30	189.58
570.46	168.52
570.62	180.22
570.78	168.52
570.95	131.07
571.11	231.71
571.27	149.79
571.43	124.05
571.60	147.45
571.76	231.71
571.92	236.39
572.09	229.37
572.25	212.99
572.41	175.54
572.57	135.75
572.74	177.88
572.90	128.73
573.06	194.26
573.22	245.76
573.38	257.46
573.55	241.08
573.71	196.60
573.87	248.10
574.03	142.77
574.20	264.48
574.36	292.57
574.52	327.68
574.68	287.89
574.84	301.93
575.01	220.01
575.17	220.01
575.33	182.56
575.49	308.95
575.65	229.37
575.82	339.38
575.98	559.39
576.14	779.40
576.30	868.34
576.46	599.18
576.62	512.58
576.79	332.36
576.95	283.20
577.11	252.78
577.27	243.42
577.43	344.06
577.59	243.42
577.75	231.71
577.92	224.69
578.08	210.65
578.24	290.23
578.40	252.78
578.56	238.73
578.72	259.80
578.88	348.74
579.04	269.16
579.21	252.78
579.37	250.44
579.53	308.95
579.69	276.18
579.85	271.50
580.01	301.93
580.17	308.95
580.33	404.91
580.49	346.40
580.65	292.57
580.82	404.91
580.98	304.27
581.14	318.31
581.30	470.45
581.46	479.81
581.62	636.63
581.78	636.63
581.94	713.86
582.10	601.52
582.26	477.47
582.42	437.68
582.58	454.06
582.74	442.36
582.90	470.45
583.06	507.90
583.22	491.51
583.38	454.06
583.54	571.09
583.70	603.86
583.86	788.76
584.02	898.77
584.18	1076.65
584.34	1350.49
584.50	3658.26
584.66	27164.26
584.82	61525.66
584.98	65535.00
585.14	65535.00
585.30	62698.27
585.46	39054.18
585.62	23838.36
585.78	10951.37
585.94	4117.00
586.10	1902.86
586.26	1261.55
586.42	1055.58
586.58	791.10
586.74	638.97
586.90	744.29
587.06	641.31
587.22	617.90
587.38	561.73
587.54	1308.36
587.70	4077.21
587.86	7159.70
588.02	8727.86
588.18	6244.55
588.34	3569.32
588.49	2382.67
588.65	1519.01
588.81	685.78
588.97	423.64
589.13	351.08
589.29	355.76
589.45	386.19
589.61	304.27
589.77	461.09
589.93	528.96
590.08	533.64
590.24	458.74
590.40	519.60
590.56	472.79
590.72	400.23
590.88	397.89
591.04	332.36
591.20	374.49
591.35	381.51
591.51	327.68
591.67	318.31
591.83	201.29
591.99	285.55
592.15	241.08
592.31	285.55
592.46	283.20
592.62	362.78
592.78	278.52
592.94	252.78
593.10	285.55
593.26	292.57
593.41	411.93
593.57	409.59
593.73	631.94
593.89	3304.84
594.05	8922.12
594.20	14691.54
594.36	14207.05
594.52	9205.33
594.68	5561.11
594.84	3700.39
594.99	2003.50
595.15	940.90
595.31	493.85
595.47	388.53
595.62	341.72
595.78	355.76
595.94	297.25
596.10	344.06
596.25	376.83
596.41	327.68
596.57	315.97
596.73	393.21
596.88	465.77
597.04	1509.65
597.20	2965.46
597.36	3492.08
597.51	2689.28
597.67	1767.10
597.83	1139.84
597.99	765.36
598.14	496.19
598.30	355.76
598.46	285.55
598.61	353.42
598.77	351.08
598.93	369.80
599.09	330.02
599.24	306.61
599.40	259.80
599.56	243.42
599.71	243.42
599.87	264.48
600.03	238.73
600.18	149.79
600.34	224.69
600.50	255.12
600.65	222.35
600.81	252.78
600.97	283.20
601.12	220.01
601.28	196.60
601.44	273.84
601.59	220.01
601.75	210.65
601.91	299.59
602.06	290.23
602.22	409.59
602.37	793.44
602.53	2085.42
602.69	3442.93
602.84	3852.52
603.00	2778.22
603.16	1874.77
603.31	1301.34
603.47	760.67
603.62	402.57
603.78	322.99
603.94	273.84
604.09	234.05
604.25	243.42
604.40	264.48
604.56	273.84
604.71	243.42
604.87	259.80
605.03	257.46
605.18	299.59
605.34	259.80
605.49	238.73
605.65	304.27
605.80	304.27
605.96	297.25
606.12	283.20
606.27	353.42
606.43	346.40
606.58	409.59
606.74	997.07
606.89	3999.98
607.05	8652.96
607.20	12400.16
607.36	10368.57
607.51	6869.47
607.67	4236.37
607.82	2953.76
607.98	1638.38
608.13	840.25
608.29	510.24
608.44	510.24
608.60	468.11
608.75	587.47
608.91	1254.53
609.06	6487.96
609.22	15007.52
609.37	22373.18
609.53	19171.33
609.68	12823.80
609.84	8004.63
609.99	5174.92
610.15	2843.75
610.30	1247.51
610.46	699.82
610.61	463.43
610.76	491.51
610.92	386.19
611.07	330.02
611.23	423.64
611.38	318.31
611.54	222.35
611.69	287.89
611.84	294.91
612.00	266.82
