SpectraSuite Data File
++++++++++++++++++++++++++++++++++++
Date: Fri Oct 04 11:48:30 GMT-05:00 2013
User: price-jones
Dark Spectrum Present: No
Reference Spectrum Present: No
Number of Sampled Component Spectra: 1
Spectrometers: USB2+H05261
Integration Time (usec): 100000 (USB2+H05261)
Spectra Averaged: 1 (USB2+H05261)
Boxcar Smoothing: 0 (USB2+H05261)
Correct for Electrical Dark: No (USB2+H05261)
Strobe/Lamp Enabled: No (USB2+H05261)
Correct for Detector Non-linearity: No (USB2+H05261)
Correct for Stray Light: No (USB2+H05261)
Number of Pixels in Processed Spectrum: 2048
>>>>>Begin Processed Spectral Data<<<<<
365.73	0.00
365.92	0.00
366.12	0.00
366.32	0.00
366.52	0.00
366.72	0.00
366.91	0.00
367.11	0.00
367.31	0.00
367.51	0.00
367.70	0.00
367.90	0.00
368.10	0.00
368.30	0.00
368.49	0.00
368.69	0.00
368.89	0.00
369.09	0.00
369.28	4.68
369.48	0.00
369.68	0.00
369.87	0.00
370.07	0.00
370.27	49.15
370.47	98.30
370.66	318.31
370.86	365.12
371.06	421.30
371.25	475.13
371.45	367.46
371.65	510.24
371.84	489.17
372.04	463.43
372.24	528.96
372.44	416.62
372.63	524.28
372.83	648.33
373.03	580.45
373.22	538.32
373.42	580.45
373.62	538.32
373.81	578.11
374.01	594.50
374.21	559.39
374.40	512.58
374.60	615.56
374.79	540.66
374.99	622.58
375.19	617.90
375.38	669.39
375.58	667.05
375.78	664.71
375.97	681.10
376.17	681.10
376.37	669.39
376.56	622.58
376.76	660.03
376.95	674.07
377.15	732.59
377.35	571.09
377.54	683.44
377.74	664.71
377.93	688.12
378.13	718.54
378.33	725.57
378.52	730.25
378.72	767.70
378.91	802.80
379.11	763.01
379.31	704.50
379.50	725.57
379.70	793.44
379.89	786.42
380.09	791.10
380.28	793.44
380.48	727.91
380.68	744.29
380.87	688.12
381.07	833.23
381.26	863.66
381.46	795.78
381.65	849.61
381.85	917.49
382.04	849.61
382.24	908.13
382.43	851.96
382.63	924.51
382.83	861.32
383.02	910.47
383.22	847.27
383.41	849.61
383.61	894.08
383.80	809.83
384.00	851.96
384.19	966.64
384.39	828.55
384.58	903.45
384.78	926.85
384.97	994.73
385.17	910.47
385.36	1006.43
385.56	994.73
385.75	943.24
385.95	912.81
386.14	961.96
386.34	957.28
386.53	1022.81
386.72	1020.47
386.92	1123.46
387.11	1039.20
387.31	1004.09
387.50	919.83
387.70	1013.45
387.89	1057.92
388.09	983.02
388.28	1116.44
388.48	1071.97
388.67	1060.26
388.86	1067.28
389.06	1111.75
389.25	1177.29
389.45	1111.75
389.64	1121.12
389.84	1128.14
390.03	1186.65
390.22	1303.68
390.42	1174.95
390.61	1210.06
390.81	1156.22
391.00	1146.86
391.19	1235.80
391.39	1228.78
391.58	1170.27
391.78	1226.44
391.97	1287.29
392.16	1261.55
392.36	1270.91
392.55	1350.49
392.75	1387.94
392.94	1259.21
393.13	1247.51
393.33	1296.66
393.52	1352.83
393.71	1502.62
393.91	1455.81
394.10	1390.28
394.29	1385.60
394.49	1352.83
394.68	1434.75
394.88	1479.22
395.07	1444.11
395.26	1437.09
395.46	1404.32
395.65	1570.50
395.84	1565.82
396.04	1530.71
396.23	1493.26
396.42	1493.26
396.62	1554.12
396.81	1493.26
397.00	1537.73
397.19	1657.10
397.39	1643.06
397.58	1640.72
397.77	1579.86
397.97	1654.76
398.16	1596.25
398.35	1661.78
398.55	1790.51
398.74	1806.89
398.93	1685.19
399.12	1680.50
399.32	1678.16
399.51	1643.06
399.70	1760.08
399.90	1703.91
400.09	1748.38
400.28	1664.12
400.47	1797.53
400.67	1827.96
400.86	1849.02
401.05	1853.70
401.24	1919.24
401.44	1818.60
401.63	1872.43
401.82	1940.30
402.01	1844.34
402.21	1973.07
402.40	1928.60
402.59	2050.31
402.78	1980.09
402.97	2010.52
403.17	1928.60
403.36	1961.37
403.55	2047.97
403.74	2251.60
403.93	2106.48
404.13	2263.30
404.32	2186.06
404.51	2085.42
404.70	2120.53
404.89	2094.78
405.09	2256.28
405.28	2209.47
405.47	2195.42
405.66	2270.32
405.85	2319.47
406.05	2352.24
406.24	2296.07
406.43	2349.90
406.62	2368.62
406.81	2382.67
407.00	2331.17
407.20	2324.15
407.39	2406.07
407.58	2471.61
407.77	2459.90
407.96	2502.03
408.15	2511.39
408.34	2497.35
408.54	2551.18
408.73	2527.78
408.92	2509.05
409.11	2712.68
409.30	2637.78
409.49	2651.83
409.68	2616.72
409.87	2654.17
410.07	2818.00
410.26	2726.72
410.45	2775.88
410.64	2745.45
410.83	2808.64
411.02	2871.84
411.21	2949.08
411.40	2932.69
411.59	2913.97
411.78	3007.59
411.98	2846.09
412.17	2986.52
412.36	2956.10
412.55	3124.62
412.74	2942.05
412.93	3094.19
413.12	3180.79
413.31	3272.07
413.50	3232.28
413.69	3307.18
413.88	3400.80
414.07	3307.18
414.26	3400.80
414.45	3346.97
414.64	3499.10
414.83	3541.23
415.02	3529.53
415.22	3529.53
415.41	3632.51
415.60	3695.71
415.79	3536.55
415.98	3595.06
416.17	3744.86
416.36	3590.38
416.55	3702.73
416.74	3688.68
416.93	3735.50
417.12	3824.44
417.31	3878.27
417.50	3812.73
417.69	4105.30
417.88	3901.67
418.07	3866.56
418.26	3941.46
418.45	4095.94
418.64	4243.39
418.83	4128.70
419.02	4060.83
419.21	4100.62
419.39	4119.34
419.58	4056.15
419.77	4058.49
419.96	4070.19
420.15	4212.96
420.34	4259.78
420.53	4238.71
420.72	4348.72
420.91	4325.31
421.10	4341.69
421.29	4538.30
421.48	4348.72
421.67	4358.08
421.86	4568.73
422.05	4444.68
422.24	4521.92
422.43	4430.63
422.61	4524.26
422.80	4486.81
422.99	4489.15
423.18	4528.94
423.37	4564.04
423.56	4465.74
423.75	4514.89
423.94	4486.81
424.13	4484.47
424.32	4393.19
424.50	4610.86
424.69	4770.01
424.88	4695.11
425.07	4449.36
425.26	4631.92
425.45	4624.90
425.64	4643.62
425.83	4451.70
426.01	4631.92
426.20	4751.29
426.39	4622.56
426.58	4425.95
426.77	4805.12
426.96	4755.97
427.15	4741.93
427.33	4641.28
427.52	4702.14
427.71	4858.95
427.90	4777.03
428.09	4877.68
428.28	4835.55
428.46	5020.45
428.65	4894.06
428.84	5142.16
429.03	5020.45
429.22	5011.09
429.40	5135.14
429.59	5207.69
429.78	4770.01
429.97	4933.85
430.16	4915.12
430.34	5135.14
430.53	5355.15
430.72	5109.39
430.91	5231.10
431.10	5179.61
431.28	5380.89
431.47	5364.51
431.66	5472.17
431.85	5411.32
432.03	5448.77
432.22	5598.56
432.41	5540.05
432.60	5493.24
432.79	5416.00
432.97	5364.51
433.16	5465.15
433.35	5654.73
433.54	5720.27
433.72	5830.27
433.91	5467.49
434.10	5706.23
434.28	5750.70
434.47	5699.20
434.66	5724.95
434.85	5771.76
435.03	5846.66
435.22	5774.10
435.41	6033.90
435.59	5921.56
435.78	5984.75
435.97	6029.22
436.16	6026.88
436.34	5963.68
436.53	6012.84
436.72	6242.21
436.90	6099.44
437.09	6162.63
437.28	6061.99
437.46	6321.79
437.65	6108.80
437.84	6237.53
438.02	6303.06
438.21	6202.42
438.40	6204.76
438.58	6431.79
438.77	6602.65
438.96	6574.56
439.14	6516.05
439.33	6715.00
439.52	6885.86
439.70	6778.19
439.89	6808.62
440.08	6876.49
440.26	6825.00
440.45	6932.67
440.63	6850.75
440.82	7087.14
441.01	7087.14
441.19	7094.16
441.38	7225.23
441.57	7178.42
441.75	7445.24
441.94	7421.84
442.12	7375.03
442.31	7644.19
442.50	7520.14
442.68	7356.30
442.87	7482.69
443.05	7480.35
443.24	7726.11
443.43	7707.38
443.61	7503.76
443.80	7789.30
443.98	7506.10
444.17	7566.95
444.35	7843.14
444.54	7756.54
444.73	7974.21
444.91	7896.97
445.10	7817.39
445.28	7655.89
445.47	7756.54
445.65	7866.54
445.84	8042.08
446.02	8084.21
446.21	7775.26
446.39	7810.37
446.58	8046.76
446.77	7985.91
446.95	7819.73
447.14	7826.75
447.32	8070.17
447.51	7812.71
447.69	7929.74
447.88	7999.95
448.06	7978.89
448.25	7810.37
448.43	8065.49
448.62	8091.23
448.80	8175.49
448.99	8086.55
449.17	8180.17
449.36	8093.57
449.54	8362.73
449.73	8177.83
449.91	8648.28
450.10	8271.45
450.28	8549.98
450.46	8418.91
450.65	8397.84
450.83	8393.16
451.02	8552.32
451.20	8608.49
451.39	8599.13
451.57	8475.08
451.76	8566.36
451.94	8667.00
452.13	8751.26
452.31	8779.35
452.49	8676.37
452.68	8713.81
452.86	8741.90
453.05	8697.43
453.23	8865.95
453.42	8816.80
453.60	8762.97
453.78	8805.10
453.97	8898.72
454.15	8821.48
454.34	9020.42
454.52	8990.00
454.70	9146.81
454.89	8910.42
455.07	8950.21
455.26	9188.94
455.44	9329.38
455.62	9289.59
455.81	9200.65
455.99	9125.75
456.17	9275.54
456.36	9533.00
456.54	9591.52
456.73	9736.63
456.91	9799.82
457.09	9884.08
457.28	9893.44
457.46	9631.30
457.64	9867.70
457.83	9720.24
458.01	9753.01
458.19	9994.09
458.38	9846.63
458.56	10029.20
458.74	9870.04
458.93	10101.75
459.11	10076.01
459.29	9994.09
459.48	10312.40
459.66	10216.44
459.84	10345.17
460.03	10375.59
460.21	10094.73
460.39	10277.29
460.57	10232.82
460.76	10382.62
460.94	10595.61
461.12	10391.98
461.31	10473.90
461.49	10677.52
461.67	10370.91
461.85	10803.91
462.04	10621.35
462.22	11115.20
462.40	10724.33
462.59	10661.14
462.77	10729.02
462.95	10979.45
463.13	10815.62
463.32	11066.05
463.50	10939.66
463.68	10869.45
463.86	11201.80
464.05	10946.69
464.23	11133.93
464.41	11208.83
464.59	10916.26
464.78	11293.08
464.96	10956.05
465.14	11140.95
465.32	11463.94
465.50	11225.21
465.69	11257.98
465.87	11325.85
466.05	11379.68
466.23	11117.54
466.41	11620.76
466.60	11896.94
466.78	11510.75
466.96	11559.91
467.14	11513.10
467.32	11789.28
467.51	11939.07
467.69	11447.56
467.87	11698.00
468.05	11756.51
468.23	11623.10
468.41	11927.37
468.60	11918.01
468.78	12114.61
468.96	11882.90
469.14	11901.62
469.32	12266.75
469.50	11901.62
469.69	11971.84
469.87	12299.52
470.05	12358.03
470.23	12250.36
470.41	12514.84
470.59	12678.68
470.77	12512.50
470.95	12444.63
471.14	12666.98
471.32	12449.31
471.50	13029.76
471.68	12772.30
471.86	12924.44
472.04	13001.68
472.22	13214.66
472.40	12922.10
472.58	13025.08
472.77	13334.03
472.95	13259.13
473.13	13554.04
473.31	13448.72
473.49	13170.19
473.67	13352.76
473.85	13685.11
474.03	13888.74
474.21	13862.99
474.39	13912.14
474.57	13996.40
474.75	14073.64
474.93	14083.00
475.12	13827.88
475.30	14207.05
475.48	14396.64
475.66	14539.41
475.84	14394.29
476.02	14513.66
476.20	14567.49
476.38	14803.89
476.56	14953.68
476.74	15098.80
476.92	14953.68
477.10	15159.65
477.28	15246.25
477.46	15414.77
477.64	15335.19
477.82	15697.97
478.00	16020.97
478.18	16086.50
478.36	15824.36
478.54	16388.43
478.72	16428.22
478.90	16386.09
479.08	16500.78
479.26	17123.36
479.44	16685.68
479.62	16966.54
479.80	16966.54
479.98	17406.56
480.16	17420.61
480.34	17652.32
480.52	17699.13
480.70	17745.94
480.88	17245.07
481.06	18066.60
481.24	17895.74
481.41	17881.69
481.59	18494.91
481.77	18511.30
481.95	18504.28
482.13	18785.14
482.31	18670.45
482.49	18822.59
482.67	19227.50
482.85	19566.88
483.03	19768.16
483.21	19571.56
483.39	19920.30
483.57	19967.11
483.74	20058.39
483.92	19990.52
484.10	20205.84
484.28	20458.62
484.46	21125.68
484.64	21350.37
484.82	20950.14
485.00	21099.93
485.18	21549.31
485.35	21848.90
485.53	21514.20
485.71	21837.20
485.89	22342.75
486.07	22199.98
486.25	22611.92
486.43	22541.70
486.61	22555.74
486.78	23297.69
486.96	23063.64
487.14	23154.92
487.32	23363.23
487.50	23648.77
487.68	23735.37
487.85	24308.80
488.03	24533.50
488.21	24444.56
488.39	24261.99
488.57	25001.60
488.75	24936.07
488.92	25317.57
489.10	25221.61
489.28	25450.99
489.46	25970.58
489.64	25406.52
489.81	26265.49
489.99	25851.22
490.17	26480.82
490.35	26768.71
490.53	26869.35
490.70	27246.18
490.88	27094.04
491.06	27030.85
491.24	27442.78
491.41	27728.33
491.59	28004.51
491.77	27941.32
491.95	28121.54
492.13	28739.44
492.30	28559.22
492.48	28505.38
492.66	28556.88
492.84	29041.37
493.01	29280.10
493.19	29298.83
493.37	29694.38
493.54	29656.93
493.72	29869.92
493.90	30075.88
494.08	30263.13
494.25	30457.39
494.43	30490.16
494.61	31019.12
494.79	30925.50
494.96	30696.13
495.14	31409.99
495.32	31754.05
495.49	31215.72
495.67	31824.26
495.85	32306.41
496.02	32339.18
496.20	32460.89
496.38	32245.56
496.55	32631.75
496.73	33256.67
496.91	32936.02
497.09	33294.12
497.26	33759.89
497.44	33111.56
497.62	33113.90
497.79	33296.46
497.97	33715.42
498.14	34487.79
498.32	34700.78
498.50	34572.05
498.67	34902.07
498.85	34707.80
499.03	34845.90
499.20	35416.99
499.38	35377.20
499.56	35438.05
499.73	35608.91
499.91	35555.08
500.08	35875.73
500.26	35557.42
500.44	36287.67
500.61	36147.23
500.79	36046.59
500.97	36800.24
501.14	36727.69
501.32	36498.31
501.49	36767.48
501.67	37195.79
501.84	37022.59
502.02	37270.69
502.20	37390.06
502.37	38012.64
502.55	37439.21
502.72	37584.32
502.90	38199.88
503.07	37619.43
503.25	38167.12
503.43	38251.38
503.60	38429.26
503.78	38677.35
503.95	38281.80
504.13	38733.53
504.30	38574.37
504.48	38728.84
504.65	39056.52
504.83	39220.36
505.01	39995.07
505.18	39679.10
505.36	39959.97
505.53	39473.13
505.71	39412.28
505.88	39880.39
506.06	39316.32
506.23	40369.56
506.41	39983.37
506.58	40170.61
506.76	40451.48
506.93	40830.65
507.11	40505.31
507.28	40917.25
507.46	40591.91
507.63	41191.09
507.81	41537.49
507.98	41375.99
508.16	41074.06
508.33	41357.27
508.50	41830.05
508.68	41680.26
508.85	41832.39
509.03	42342.63
509.20	42117.94
509.38	42356.67
509.55	42368.38
509.73	42740.52
509.90	42880.95
510.08	42803.72
510.25	42733.50
510.42	42829.46
510.60	43269.48
510.77	43379.49
510.95	43351.40
511.12	43522.26
511.30	43695.46
511.47	43842.92
511.64	43789.08
511.82	44266.55
511.99	44531.03
512.17	44617.63
512.34	44383.58
512.51	44350.81
512.69	44481.88
512.86	45111.49
513.04	45113.83
513.21	45181.70
513.38	44893.82
513.56	45062.33
513.73	44893.82
513.90	45127.87
514.08	44907.86
514.25	45378.31
514.43	45734.07
514.60	46358.99
514.77	45263.62
514.95	45748.11
515.12	45553.85
515.29	45422.78
515.47	46134.30
515.64	46344.95
515.81	45846.41
515.99	46590.70
516.16	46775.61
516.33	46611.77
516.51	46885.61
516.68	46506.44
516.85	46745.18
517.03	47229.67
517.20	47138.39
517.37	47430.96
517.54	47599.47
517.72	47239.03
517.89	47021.36
518.06	47510.53
518.24	47653.31
518.41	47419.25
518.58	47887.36
518.75	47999.71
518.93	47791.40
519.10	47854.59
519.27	48156.52
519.45	47585.43
519.62	47763.31
519.79	48233.76
519.96	48643.35
520.14	48453.77
520.31	48280.57
520.48	48584.84
520.65	48924.22
520.83	48872.73
521.00	48669.10
521.17	48790.81
521.34	48891.45
521.52	49160.61
521.69	49043.59
521.86	49602.97
522.03	49813.62
522.20	49748.09
522.38	49387.64
522.55	49523.40
522.72	49549.14
522.89	49499.99
523.07	50089.80
523.24	50115.55
523.41	50267.69
523.58	49837.03
523.75	50375.35
523.92	49855.75
524.10	50220.87
524.27	50464.29
524.44	50356.63
524.61	50944.10
524.78	50703.03
524.96	50843.46
525.13	50160.02
525.30	50431.52
525.47	50916.01
525.64	50838.78
525.81	51063.47
525.98	51070.49
526.16	51150.07
526.33	50939.42
526.50	51494.13
526.67	51222.62
526.84	51554.98
527.01	51220.28
527.18	51447.32
527.36	51540.94
527.53	51756.27
527.70	51899.04
527.87	51945.85
528.04	51700.09
528.21	51550.30
528.38	51791.37
528.55	52200.97
528.72	51868.61
528.89	52067.56
529.07	52165.86
529.24	52093.30
529.41	52367.15
529.58	52446.72
529.75	51990.32
529.92	52142.45
530.09	52243.10
530.26	52172.88
530.43	52655.03
530.60	52371.83
530.77	52144.80
530.94	52755.68
531.11	52303.95
531.28	52507.58
531.46	52755.68
531.63	52762.70
531.80	52889.09
531.97	53385.28
532.14	53130.16
532.31	52973.34
532.48	52879.72
532.65	52917.17
532.82	52956.96
532.99	53380.60
533.16	53071.65
533.33	53521.03
533.50	53715.29
533.67	53258.89
533.84	53265.91
534.01	53649.76
534.18	53425.07
534.35	53680.19
534.52	53694.23
534.69	53663.80
534.86	53900.20
535.03	53647.42
535.20	53811.26
535.37	54164.68
535.54	54033.61
535.71	53979.78
535.88	53925.94
536.05	53827.64
536.22	54160.00
536.38	54197.44
536.55	54017.22
536.72	54316.81
536.89	54106.16
537.06	53963.39
537.23	54124.89
537.40	54412.77
537.57	54064.03
537.74	54176.38
537.91	54674.91
538.08	54571.93
538.25	54784.92
538.42	54611.72
538.59	54387.03
538.75	54604.70
538.92	54543.84
539.09	54611.72
539.26	54691.30
539.43	54759.17
539.60	55100.89
539.77	54700.66
539.94	54878.54
540.11	54965.14
540.28	54993.23
540.44	55133.66
540.61	54873.86
540.78	54934.71
540.95	55124.30
541.12	55295.16
541.29	55388.78
541.46	55325.58
541.62	55217.92
541.79	55231.96
541.96	54974.50
542.13	55370.05
542.30	55767.94
542.47	55580.70
542.63	55648.58
542.80	55697.73
542.97	55866.25
543.14	55812.41
543.31	55941.14
543.48	55388.78
543.64	56020.72
543.81	56182.22
543.98	56030.08
544.15	56252.44
544.32	56037.11
544.48	56144.77
544.65	56163.50
544.82	55950.51
544.99	55978.59
545.16	56210.31
545.32	56067.53
545.49	56320.31
545.66	56718.20
545.83	56383.51
546.00	56540.32
546.16	56324.99
546.33	56165.84
546.50	55948.17
546.67	56390.53
546.83	55868.59
547.00	56460.74
547.17	56519.26
547.34	56608.20
547.50	56430.32
547.67	56889.06
547.84	56666.71
548.00	56755.65
548.17	56818.84
548.34	56732.25
548.51	56945.23
548.67	57008.43
548.84	56907.79
549.01	57062.26
549.18	56774.37
549.34	56889.06
549.51	56800.12
549.68	56837.57
549.84	56779.06
550.01	56858.63
550.18	56928.85
550.34	56947.57
550.51	57057.58
550.68	57172.27
550.84	56875.02
551.01	57118.43
551.18	57162.90
551.34	56989.70
551.51	57258.87
551.68	57403.98
551.84	57532.71
552.01	57240.14
552.18	57546.75
552.34	57242.48
552.51	57471.85
552.68	57165.24
552.84	57338.44
553.01	57439.09
553.18	57635.69
553.34	57588.88
553.51	57745.70
553.67	57682.50
553.84	57841.66
554.01	57783.15
554.17	57537.39
554.34	57691.86
554.51	57710.59
554.67	57998.48
554.84	57595.90
555.00	57865.06
555.17	57834.64
555.33	58075.71
555.50	57670.80
555.67	57640.37
555.83	57993.79
556.00	57897.83
556.16	58031.24
556.33	57946.98
556.50	57956.35
556.66	58124.86
556.83	57867.40
556.99	58305.09
557.16	58225.51
557.32	57961.03
557.49	58108.48
557.65	57956.35
557.82	58021.88
557.98	58164.65
558.15	58377.64
558.32	58071.03
558.48	58138.91
558.65	58335.51
558.81	58333.17
558.98	58405.73
559.14	58314.45
559.31	58159.97
559.47	58305.09
559.64	58368.28
559.80	58534.46
559.97	58623.40
560.13	58436.16
560.30	58232.53
560.46	58337.85
560.63	58553.18
560.79	58440.84
560.96	58539.14
561.12	58508.71
561.29	58370.62
561.45	58838.73
561.61	58522.76
561.78	58646.80
561.94	58546.16
562.11	58738.08
562.27	58599.99
562.44	58501.69
562.60	58548.50
562.77	58679.57
562.93	58679.57
563.10	58824.68
563.26	58850.43
563.42	59030.65
563.59	58738.08
563.75	58489.99
563.92	58787.24
564.08	58740.42
564.24	58920.65
564.41	58672.55
564.57	58637.44
564.74	58738.08
564.90	58995.54
565.07	59091.51
565.23	59217.89
565.39	59025.97
565.56	58754.47
565.72	58780.21
565.88	58979.16
566.05	58775.53
566.21	58817.66
566.38	58948.73
566.54	59042.35
566.70	59208.53
566.87	59274.07
567.03	58920.65
567.19	59288.11
567.36	58953.41
567.52	58925.33
567.68	58850.43
567.85	58805.96
568.01	59056.40
568.17	58773.19
568.34	59178.10
568.50	59168.74
568.66	59128.95
568.83	59187.47
568.99	58890.22
569.15	58941.71
569.32	59016.61
569.48	58791.92
569.64	59091.51
569.81	59231.94
569.97	59292.79
570.13	59302.15
570.30	59100.87
570.46	59180.45
570.62	59222.58
570.78	59131.29
570.95	59285.77
571.11	59126.61
571.27	59154.70
571.43	59082.14
571.60	59608.76
571.76	59447.27
571.92	59386.41
572.09	59456.63
572.25	59143.00
572.41	59447.27
572.57	59288.11
572.74	59400.46
572.90	59283.43
573.06	59238.96
573.22	59253.00
573.38	59430.88
573.55	59428.54
573.71	59643.87
573.87	59646.21
574.03	59358.33
574.20	59433.22
574.36	59220.23
574.52	59344.28
574.68	59395.77
574.84	59475.35
575.01	59393.43
575.17	59526.84
575.33	59604.08
575.49	59456.63
575.65	59695.36
575.82	59566.63
575.98	59374.71
576.14	59536.21
576.30	59344.28
576.46	59274.07
576.62	59295.13
576.79	59505.78
576.95	59175.76
577.11	59189.81
577.27	59433.22
577.43	59653.23
577.59	59515.14
577.75	59573.66
577.92	59428.54
578.08	59337.26
578.24	59367.69
578.40	59215.55
578.56	59454.29
578.72	59501.10
578.88	59515.14
579.04	59723.45
579.21	59503.44
579.37	59475.35
579.53	59517.48
579.69	59337.26
579.85	59475.35
580.01	59599.40
580.17	59344.28
580.33	59688.34
580.49	59840.48
580.65	59688.34
580.82	59606.42
580.98	59671.96
581.14	59512.80
581.30	59798.35
581.46	59639.19
581.62	59374.71
581.78	59458.97
581.94	59458.97
582.10	59770.26
582.26	59667.28
582.42	59714.09
582.58	59618.13
582.74	59718.77
582.90	59709.41
583.06	59608.76
583.22	59735.15
583.38	59728.13
583.54	59922.40
583.70	59880.27
583.86	59788.98
584.02	59707.07
584.18	59861.54
584.34	59882.61
584.50	59784.30
584.66	59877.93
584.82	59494.08
584.98	59859.20
585.14	59585.36
585.30	59590.04
585.46	59632.17
585.62	59597.06
585.78	59746.86
585.94	59320.88
586.10	59742.17
586.26	59877.93
586.42	59863.88
586.58	59877.93
586.74	59625.15
586.90	59458.97
587.06	59590.04
587.22	59887.29
587.38	59934.10
587.54	59934.10
587.70	59721.11
587.86	59891.97
588.02	59966.87
588.18	59994.95
588.34	59842.82
588.49	59742.17
588.65	59810.05
588.81	59681.32
588.97	59941.12
589.13	59723.45
589.29	59908.35
