SpectraSuite Data File
++++++++++++++++++++++++++++++++++++
Date: Fri Oct 04 11:48:37 GMT-05:00 2013
User: price-jones
Dark Spectrum Present: No
Reference Spectrum Present: No
Number of Sampled Component Spectra: 1
Spectrometers: USB2+H05261
Integration Time (usec): 100000 (USB2+H05261)
Spectra Averaged: 1 (USB2+H05261)
Boxcar Smoothing: 0 (USB2+H05261)
Correct for Electrical Dark: No (USB2+H05261)
Strobe/Lamp Enabled: No (USB2+H05261)
Correct for Detector Non-linearity: No (USB2+H05261)
Correct for Stray Light: No (USB2+H05261)
Number of Pixels in Processed Spectrum: 2048
>>>>>Begin Processed Spectral Data<<<<<
365.73	23.41
365.92	23.41
366.12	23.41
366.32	0.00
366.52	0.00
366.72	0.00
366.91	0.00
367.11	0.00
367.31	0.00
367.51	0.00
367.70	0.00
367.90	0.00
368.10	0.00
368.30	0.00
368.49	0.00
368.69	18.72
368.89	0.00
369.09	0.00
369.28	0.00
369.48	0.00
369.68	0.00
369.87	0.00
370.07	0.00
370.27	53.83
370.47	7.02
370.66	149.79
370.86	91.28
371.06	234.05
371.25	236.39
371.45	163.84
371.65	201.29
371.84	149.79
372.04	128.73
372.24	191.92
372.44	205.97
372.63	177.88
372.83	248.10
373.03	124.05
373.22	163.84
373.42	220.01
373.62	210.65
373.81	231.71
374.01	292.57
374.21	290.23
374.40	208.31
374.60	341.72
374.79	245.76
374.99	229.37
375.19	170.86
375.38	245.76
375.58	159.16
375.78	285.55
375.97	287.89
376.17	280.86
376.37	264.48
376.56	313.63
376.76	217.67
376.95	215.33
377.15	271.50
377.35	159.16
377.54	227.03
377.74	243.42
377.93	266.82
378.13	236.39
378.33	304.27
378.52	191.92
378.72	287.89
378.91	290.23
379.11	248.10
379.31	238.73
379.50	234.05
379.70	264.48
379.89	311.29
380.09	301.93
380.28	196.60
380.48	245.76
380.68	306.61
380.87	224.69
381.07	248.10
381.26	334.70
381.46	264.48
381.65	234.05
381.85	231.71
382.04	278.52
382.24	334.70
382.43	283.20
382.63	271.50
382.83	271.50
383.02	290.23
383.22	299.59
383.41	252.78
383.61	227.03
383.80	306.61
384.00	280.86
384.19	236.39
384.39	257.46
384.58	320.65
384.78	330.02
384.97	280.86
385.17	271.50
385.36	308.95
385.56	374.49
385.75	248.10
385.95	278.52
386.14	330.02
386.34	306.61
386.53	280.86
386.72	276.18
386.92	278.52
387.11	297.25
387.31	421.30
387.50	344.06
387.70	287.89
387.89	292.57
388.09	276.18
388.28	341.72
388.48	191.92
388.67	327.68
388.86	332.36
389.06	301.93
389.25	327.68
389.45	320.65
389.64	287.89
389.84	360.44
390.03	369.80
390.22	341.72
390.42	327.68
390.61	266.82
390.81	351.08
391.00	245.76
391.19	383.85
391.39	447.04
391.58	372.15
391.78	433.00
391.97	320.65
392.16	372.15
392.36	383.85
392.55	444.70
392.75	435.34
392.94	348.74
393.13	379.17
393.33	322.99
393.52	341.72
393.71	538.32
393.91	409.59
394.10	402.57
394.29	351.08
394.49	421.30
394.68	451.72
394.88	461.09
395.07	418.96
395.26	505.56
395.46	411.93
395.65	531.30
395.84	374.49
396.04	500.87
396.23	489.17
396.42	376.83
396.62	383.85
396.81	500.87
397.00	503.22
397.19	470.45
397.39	550.03
397.58	601.52
397.77	496.19
397.97	510.24
398.16	589.82
398.35	425.98
398.55	524.28
398.74	510.24
398.93	538.32
399.12	585.13
399.32	601.52
399.51	561.73
399.70	580.45
399.90	528.96
400.09	631.94
400.28	601.52
400.47	568.75
400.67	608.54
400.86	603.86
401.05	615.56
401.24	655.35
401.44	585.13
401.63	648.33
401.82	671.73
402.01	578.11
402.21	702.16
402.40	678.76
402.59	774.72
402.78	725.57
402.97	688.12
403.17	788.76
403.36	765.36
403.55	723.23
403.74	734.93
403.93	800.46
404.13	840.25
404.32	723.23
404.51	695.14
404.70	943.24
404.89	816.85
405.09	800.46
405.28	947.92
405.47	793.44
405.66	856.64
405.85	805.14
406.05	910.47
406.24	922.17
406.43	870.68
406.62	933.87
406.81	931.53
407.00	1048.56
407.20	1020.47
407.39	971.32
407.58	983.02
407.77	1025.15
407.96	1043.88
408.15	1057.92
408.34	1074.31
408.54	1130.48
408.73	1200.69
408.92	1083.67
409.11	1125.80
409.30	1118.78
409.49	1116.44
409.68	1088.35
409.87	1153.88
410.07	1196.01
410.26	1277.93
410.45	1233.46
410.64	1247.51
410.83	1277.93
411.02	1203.04
411.21	1275.59
411.40	1296.66
411.59	1282.61
411.78	1406.66
411.98	1282.61
412.17	1287.29
412.36	1350.49
412.55	1483.90
412.74	1385.60
412.93	1556.46
413.12	1329.42
413.31	1497.94
413.50	1448.79
413.69	1467.52
413.88	1528.37
414.07	1504.96
414.26	1568.16
414.45	1502.62
414.64	1493.26
414.83	1593.90
415.02	1666.46
415.22	1692.21
415.41	1708.59
415.60	1607.95
415.79	1785.83
415.98	1673.48
416.17	1799.87
416.36	1715.61
416.55	1715.61
416.74	1788.17
416.93	1769.44
417.12	1895.83
417.31	1802.21
417.50	1795.19
417.69	1926.26
417.88	1830.30
418.07	1825.62
418.26	1916.90
418.45	1968.39
418.64	1998.82
418.83	2008.18
419.02	1933.28
419.21	1921.58
419.39	1930.94
419.58	2015.20
419.77	1994.14
419.96	2054.99
420.15	2040.95
420.34	1944.99
420.53	2087.76
420.72	2108.82
420.91	2094.78
421.10	2078.40
421.29	2054.99
421.48	2083.08
421.67	2153.29
421.86	2054.99
422.05	2136.91
422.24	2162.66
422.43	2228.19
422.61	2237.55
422.80	2312.45
422.99	2249.25
423.18	2284.36
423.37	2345.22
423.56	2260.96
423.75	2293.72
423.94	2143.93
424.13	2038.61
424.32	2169.68
424.50	2267.98
424.69	2242.23
424.88	2293.72
425.07	2160.31
425.26	2150.95
425.45	2239.89
425.64	2265.64
425.83	2190.74
426.01	2286.70
426.20	2207.13
426.39	2232.87
426.58	2272.66
426.77	2282.02
426.96	2279.68
427.15	2148.61
427.33	2352.24
427.52	2422.45
427.71	2305.43
427.90	2410.75
428.09	2422.45
428.28	2427.14
428.46	2431.82
428.65	2473.95
428.84	2445.86
429.03	2560.55
429.22	2429.48
429.40	2516.08
429.59	2562.89
429.78	2347.56
429.97	2438.84
430.16	2438.84
430.34	2537.14
430.53	2661.19
430.72	2623.74
430.91	2487.99
431.10	2499.69
431.28	2682.25
431.47	2665.87
431.66	2658.85
431.85	2691.62
432.03	2537.14
432.22	2766.51
432.41	2637.78
432.60	2731.41
432.79	2733.75
432.97	2710.34
433.16	2813.32
433.35	2663.53
433.54	2628.42
433.72	2848.43
433.91	2761.83
434.10	2810.98
434.28	2754.81
434.47	2808.64
434.66	2771.19
434.85	2729.06
435.03	2904.60
435.22	2876.52
435.41	3047.38
435.59	2928.01
435.78	2792.26
435.97	2822.69
436.16	2963.12
436.34	2909.29
436.53	2920.99
436.72	3012.27
436.90	2942.05
437.09	2928.01
437.28	3073.12
437.46	2970.14
437.65	3038.02
437.84	3096.53
438.02	3119.93
438.21	3087.17
438.40	3012.27
438.58	3101.21
438.77	3077.80
438.96	3133.98
439.14	3255.69
439.33	3148.02
439.52	3251.00
439.70	3255.69
439.89	3426.54
440.08	3403.14
440.26	3452.29
440.45	3248.66
440.63	3382.07
440.82	3407.82
441.01	3351.65
441.19	3398.46
441.38	3473.36
441.57	3431.23
441.75	3585.70
441.94	3620.81
442.12	3639.53
442.31	3693.37
442.50	3590.38
442.68	3758.90
442.87	3524.85
443.05	3613.79
443.24	3763.58
443.43	3707.41
443.61	3824.44
443.80	3873.59
443.98	3662.94
444.17	3623.15
444.35	3798.69
444.54	3709.75
444.73	3684.00
444.91	3660.60
445.10	3737.84
445.28	3824.44
445.47	3662.94
445.65	3794.01
445.84	3824.44
446.02	3852.52
446.21	3866.56
446.39	3709.75
446.58	3707.41
446.77	3871.25
446.95	3885.29
447.14	3794.01
447.32	3915.72
447.51	3866.56
447.69	3796.35
447.88	3836.14
448.06	3978.91
448.25	3906.35
448.43	3882.95
448.62	3885.29
448.80	3988.27
448.99	3936.78
449.17	4009.34
449.36	3941.46
449.54	4072.53
449.73	4114.66
449.91	4105.30
450.10	4044.45
450.28	4234.03
450.46	4124.02
450.65	4142.75
450.83	4149.77
451.02	4147.43
451.20	4184.88
451.39	4140.41
451.57	4177.86
451.76	4032.74
451.94	4236.37
452.13	4278.50
452.31	4180.20
452.49	4180.20
452.68	4173.18
452.86	4315.95
453.05	4219.99
453.23	4390.84
453.42	4067.85
453.60	4313.61
453.78	4276.16
453.97	4250.41
454.15	4325.31
454.34	4229.35
454.52	4411.91
454.70	4257.43
454.89	4362.76
455.07	4386.16
455.26	4493.83
455.44	4550.00
455.62	4596.81
455.81	4503.19
455.99	4613.20
456.17	4517.23
456.36	4437.66
456.54	4503.19
456.73	4566.39
456.91	4760.65
457.09	4734.90
457.28	4809.80
457.46	4725.54
457.64	4674.05
457.83	4723.20
458.01	4720.86
458.19	4711.50
458.38	4669.37
458.56	4842.57
458.74	4868.31
458.93	4990.02
459.11	4739.58
459.29	4842.57
459.48	4873.00
459.66	4849.59
459.84	4947.89
460.03	5029.81
460.21	4950.23
460.39	4882.36
460.57	4896.40
460.76	4957.25
460.94	4800.44
461.12	5029.81
461.31	4994.70
461.49	4987.68
461.67	4926.83
461.85	5146.84
462.04	5195.99
462.22	5610.26
462.40	5249.82
462.59	5132.79
462.77	5111.73
462.95	5298.97
463.13	5313.02
463.32	5240.46
463.50	5289.61
463.68	5233.44
463.86	5296.63
464.05	5165.56
464.23	5160.88
464.41	5289.61
464.59	5320.04
464.78	5413.66
464.96	5493.24
465.14	5266.21
465.32	5465.15
465.50	5584.52
465.69	5425.36
465.87	5469.83
466.05	5385.57
466.23	5259.18
466.41	5476.85
466.60	5631.33
466.78	5338.76
466.96	5572.82
467.14	5549.41
467.32	5614.95
467.51	5540.05
467.69	5343.44
467.87	5479.19
468.05	5729.63
468.23	5476.85
468.41	5547.07
468.60	5617.29
468.78	5713.25
468.96	5577.50
469.14	5809.21
469.32	5694.52
469.50	5673.46
469.69	5762.40
469.87	5935.60
470.05	5729.63
470.23	5844.32
470.41	5736.65
470.59	5813.89
470.77	5844.32
470.95	6012.84
471.14	6015.18
471.32	5851.34
471.50	6066.67
471.68	6221.14
471.86	6019.86
472.04	5968.37
472.22	6167.31
472.40	6221.14
472.58	6260.93
472.77	6167.31
472.95	6267.95
473.13	6265.61
473.31	6120.50
473.49	6359.24
473.67	6399.02
473.85	6530.09
474.03	6672.87
474.21	6410.73
474.39	6635.42
474.57	6544.14
474.75	6637.76
474.93	6698.61
475.12	6574.56
475.30	6743.08
475.48	6588.61
475.66	6693.93
475.84	6647.12
476.02	6731.38
476.20	6930.33
476.38	6897.56
476.56	6953.73
476.74	7023.95
476.92	6998.20
477.10	6981.82
477.28	7150.34
477.46	7091.82
477.64	7122.25
477.82	7365.67
478.00	7302.47
478.18	7550.57
478.36	7588.02
478.54	7702.70
478.72	7683.98
478.90	7597.38
479.08	7595.04
479.26	7618.44
479.44	7747.17
479.62	7960.16
479.80	7911.01
479.98	7819.73
480.16	8173.15
480.34	7983.57
480.52	8339.33
480.70	8114.64
480.88	8053.78
481.06	8210.60
481.24	8016.33
481.41	8498.49
481.59	8669.34
481.77	8610.83
481.95	8400.18
482.13	8540.61
482.31	8479.76
482.49	8592.11
482.67	8877.65
482.85	8816.80
483.03	9373.85
483.21	9076.60
483.39	9172.56
483.57	9240.44
483.74	9446.40
483.92	9275.54
484.10	9408.95
484.28	9533.00
484.46	9593.86
484.64	9710.88
484.82	9479.17
485.00	9877.06
485.18	9708.54
485.35	10073.67
485.53	10148.56
485.71	10129.84
485.89	10057.28
486.07	10148.56
486.25	10307.72
486.43	10359.21
486.61	10298.36
486.78	10459.85
486.96	10523.05
487.14	10635.39
487.32	10824.98
487.50	10778.17
487.68	10836.68
487.85	10651.78
488.03	11000.52
488.21	11419.47
488.39	11281.38
488.57	11307.13
488.75	11255.64
488.92	11700.34
489.10	11721.40
489.28	11550.54
489.46	11683.95
489.64	11686.29
489.81	11962.48
489.99	11943.75
490.17	12002.27
490.35	12056.10
490.53	12166.10
490.70	12372.07
490.88	12421.22
491.06	12531.23
491.24	12374.41
491.41	12608.47
491.59	12477.40
491.77	12681.02
491.95	12830.82
492.13	12751.24
492.30	12924.44
492.48	13191.26
492.66	12875.29
492.84	13071.89
493.01	13172.54
493.19	13179.56
493.37	13315.31
493.54	13486.17
493.72	13488.51
493.90	13514.25
494.08	13891.08
494.25	13685.11
494.43	13692.13
494.61	14094.71
494.79	13928.53
494.96	13963.64
495.14	14291.31
495.32	14024.49
495.49	14251.52
495.67	14469.19
495.85	14359.19
496.02	14457.49
496.20	14675.16
496.38	14633.03
496.55	14846.02
496.73	15087.09
496.91	14925.60
497.09	15124.54
497.26	14937.30
497.44	14960.70
497.62	15213.48
497.79	15269.66
497.97	15342.21
498.14	15627.76
498.32	15456.90
498.50	15695.63
498.67	15761.17
498.85	15908.62
499.03	15784.57
499.20	15899.26
499.38	15791.59
499.56	16053.73
499.73	16046.71
499.91	16245.66
500.08	16465.67
500.26	16259.70
500.44	16203.53
500.61	16453.97
500.79	16262.04
500.97	16510.14
501.14	16666.95
501.32	16613.12
501.49	16325.24
501.67	16608.44
501.84	16915.05
502.02	17029.74
502.20	16917.39
502.37	16922.07
502.55	16758.24
502.72	17057.82
502.90	17011.01
503.07	16891.65
503.25	17439.33
503.43	16994.63
503.60	17359.75
503.78	17137.40
503.95	17373.80
504.13	17275.49
504.30	17668.70
504.48	17687.43
504.65	17893.40
504.83	17942.55
505.01	17980.00
505.18	18010.42
505.36	17989.36
505.53	17905.10
505.71	17900.42
505.88	18071.28
506.06	17790.41
506.23	18085.32
506.41	18188.30
506.58	18073.62
506.76	18377.89
506.93	18263.20
507.11	18434.06
507.28	18487.89
507.46	18572.15
507.63	18546.40
507.81	18579.17
507.98	18628.32
508.16	18735.99
508.33	18841.31
508.50	18523.00
508.68	18654.07
508.85	18981.74
509.03	19082.39
509.20	19098.77
509.38	19304.74
509.55	19278.99
509.73	19185.37
509.90	19136.22
510.08	19220.48
510.25	19545.81
510.42	19363.25
510.60	19810.29
510.77	19826.68
510.95	19932.00
511.12	19700.29
511.30	19564.54
511.47	20147.33
511.64	20161.37
511.82	19866.47
511.99	20381.38
512.17	20432.88
512.34	20051.37
512.51	20187.12
512.69	20482.03
512.86	20676.29
513.04	20732.47
513.21	20795.66
513.38	20570.97
513.56	20652.89
513.73	20346.28
513.90	20458.62
514.08	20379.04
514.25	20980.56
514.43	20915.03
514.60	21226.32
514.77	21008.65
514.95	20987.58
515.12	20751.19
515.29	20889.28
515.47	21003.97
515.64	21394.84
515.81	21221.64
515.99	21392.50
516.16	21633.57
516.33	21724.85
516.51	21792.73
516.68	21364.41
516.85	21558.67
517.03	21614.85
517.20	21844.22
517.37	21516.54
517.54	21762.30
517.72	21846.56
517.89	21944.86
518.06	21743.58
518.24	21682.72
518.41	21689.74
518.58	22199.98
518.75	22298.28
518.93	22258.49
519.10	22024.44
519.27	22176.58
519.45	22377.86
519.62	22050.19
519.79	22120.40
519.96	22422.33
520.14	22560.42
520.31	22469.14
520.48	22820.22
520.65	22476.16
520.83	22604.89
521.00	22462.12
521.17	22757.03
521.34	22600.21
521.52	22785.12
521.69	22927.89
521.86	22939.59
522.03	22911.50
522.20	23171.30
522.38	23424.08
522.55	23295.35
522.72	23058.96
522.89	23536.43
523.07	23124.49
523.24	23307.05
523.41	23370.25
523.58	23089.38
523.75	23419.40
523.92	23126.83
524.10	23082.36
524.27	23679.20
524.44	23728.35
524.61	23653.45
524.78	23800.91
524.96	23428.76
525.13	23859.42
525.30	23744.73
525.47	23754.10
525.64	23969.43
525.81	23997.51
525.98	24046.66
526.16	23744.73
526.33	24128.58
526.50	23847.72
526.67	23707.29
526.84	24067.73
527.01	23915.59
527.18	24287.74
527.36	24088.79
527.53	24297.10
527.70	24236.25
527.87	24372.00
528.04	24451.58
528.21	24519.45
528.38	24627.12
528.55	24730.10
528.72	24456.26
528.89	24795.64
529.07	24526.47
529.24	24570.94
529.41	24802.66
529.58	24886.92
529.75	24577.97
529.92	24606.05
530.09	24575.62
530.26	24915.00
530.43	24697.33
530.60	24741.80
530.77	25188.85
530.94	25015.65
531.11	24996.92
531.28	25015.65
531.46	25001.60
531.63	25340.98
531.80	25228.63
531.97	25259.06
532.14	25268.42
532.31	25205.23
532.48	25132.67
532.65	25450.99
532.82	25078.84
532.99	25406.52
533.16	25411.20
533.33	25486.09
533.50	25883.98
533.67	25577.37
533.84	25167.78
534.01	25560.99
534.18	25378.43
534.35	25788.02
534.52	25771.64
534.69	25963.56
534.86	25860.58
535.03	25612.48
535.20	25752.91
535.37	25600.78
535.54	26061.87
535.71	25734.19
535.88	25860.58
536.05	25958.88
536.22	26162.51
536.38	26022.08
536.55	26202.30
536.72	26118.04
536.89	26167.19
537.06	25965.90
537.23	26164.85
537.40	26199.96
537.57	26218.68
537.74	26162.51
537.91	26534.65
538.08	26618.91
538.25	26382.52
538.42	26410.60
538.59	26749.98
538.75	26188.25
538.92	25860.58
539.09	26539.33
539.26	27028.51
539.43	26239.75
539.60	26780.41
539.77	26588.49
539.94	26757.00
540.11	26506.57
540.28	26536.99
540.44	26871.69
540.61	26637.64
540.78	26864.67
540.95	26740.62
541.12	26977.01
541.29	26874.03
541.46	26527.63
541.62	26684.45
541.79	26703.17
541.96	26698.49
542.13	26916.16
542.30	26984.04
542.47	27332.78
542.63	27236.81
542.80	27087.02
542.97	27370.22
543.14	27592.58
543.31	27756.41
543.48	27105.74
543.64	27372.57
543.81	27711.94
543.98	27821.95
544.15	27693.22
544.32	27854.72
544.48	27695.56
544.65	27641.73
544.82	27718.96
544.99	27782.16
545.16	27505.98
545.32	27843.01
545.49	28130.90
545.66	28009.19
545.83	27995.15
546.00	28325.16
546.16	28081.75
546.33	27510.66
546.50	27611.30
546.67	27817.27
546.83	27564.49
547.00	27817.27
547.17	27896.85
547.34	27971.74
547.50	27735.35
547.67	28215.16
547.84	28128.56
548.00	28128.56
548.17	28437.51
548.34	27929.61
548.51	28315.80
548.67	28133.24
548.84	28343.89
549.01	27967.06
549.18	28093.45
549.34	28191.75
549.51	28198.77
549.68	28584.96
549.84	27910.89
550.01	28477.30
550.18	27997.49
550.34	28226.86
550.51	28077.07
550.68	28285.37
550.84	27845.35
551.01	28655.18
551.18	28456.23
551.34	28046.64
551.51	28547.51
551.68	28486.66
551.84	28851.78
552.01	28570.92
552.18	28723.05
552.34	28439.85
552.51	28664.54
552.68	28535.81
552.84	28606.03
553.01	28884.55
553.18	28716.03
553.34	28657.52
553.51	28519.43
553.67	28786.25
553.84	28975.83
554.01	29104.56
554.17	28620.07
554.34	28786.25
554.51	28673.90
554.67	29041.37
554.84	28912.64
555.00	28868.17
555.17	29177.12
555.33	28926.68
555.50	28889.23
555.67	28980.51
555.83	29085.84
556.00	28830.72
556.16	28933.70
556.33	29413.51
556.50	28922.00
556.66	29085.84
556.83	29048.39
556.99	29263.72
557.16	29593.73
557.32	29343.30
557.49	28931.36
557.65	28882.21
557.82	28704.33
557.98	29483.73
558.15	29069.45
558.32	29497.77
558.48	29216.91
558.65	29186.48
558.81	29298.83
558.98	29174.78
559.14	29172.44
559.31	29008.60
559.47	29188.82
559.64	29312.87
559.80	29502.45
559.97	29525.86
560.13	29099.88
560.30	29390.11
560.46	29689.70
560.63	29289.46
560.79	29362.02
560.96	29191.16
561.12	29376.06
561.29	29490.75
561.45	29195.84
561.61	29766.93
561.78	29355.00
561.94	29467.34
562.11	29614.80
562.27	29420.53
562.44	29355.00
562.60	29039.03
562.77	29392.45
562.93	29425.22
563.10	29397.13
563.26	29448.62
563.42	30059.50
563.59	29631.18
563.75	29935.45
563.92	29647.57
564.08	29397.13
564.24	30045.46
564.41	29551.60
564.57	29462.66
564.74	29570.33
564.90	29919.07
565.07	29848.85
565.23	29715.44
565.39	29720.12
565.56	29645.23
565.72	29647.57
565.88	29453.30
566.05	29619.48
566.21	29544.58
566.38	29291.80
566.54	29619.48
566.70	29748.21
566.87	29600.76
567.03	29724.80
567.19	30202.27
567.36	29677.99
567.52	29715.44
567.68	29628.84
567.85	29780.98
568.01	29326.91
568.17	29528.20
568.34	29708.42
568.50	29717.78
568.66	29607.78
568.83	29736.51
568.99	29996.31
569.15	29605.44
569.32	29572.67
569.48	29481.39
569.64	29680.33
569.81	29610.12
569.97	29509.47
570.13	30003.33
570.30	29766.93
570.46	29731.83
570.62	29809.06
570.78	29769.27
570.95	29951.84
571.11	29839.49
571.27	29373.72
571.43	29420.53
571.60	30108.65
571.76	29722.46
571.92	29890.98
572.09	29916.73
572.25	30075.88
572.41	30129.72
572.57	30064.18
572.74	29769.27
572.90	29429.90
573.06	29563.31
573.22	29788.00
573.38	29970.56
573.55	29961.20
573.71	29963.54
573.87	30242.06
574.03	29607.78
574.20	30054.82
574.36	29603.10
574.52	29780.98
574.68	29642.88
574.84	29748.21
575.01	29942.47
575.17	29902.68
575.33	30249.08
575.49	30209.29
575.65	30321.64
575.82	30127.38
575.98	29872.26
576.14	29755.23
576.30	29914.39
576.46	29661.61
576.62	29560.97
576.79	30174.19
576.95	30080.56
577.11	29572.67
577.27	29949.50
577.43	30267.81
577.59	29940.13
577.75	29825.45
577.92	29392.45
578.08	29724.80
578.24	30125.04
578.40	30125.04
578.56	30246.74
578.72	29773.95
578.88	30157.80
579.04	30101.63
579.21	29893.32
579.37	29780.98
579.53	29811.40
579.69	29682.67
579.85	29741.19
580.01	29806.72
580.17	29937.79
580.33	29638.20
580.49	30164.82
580.65	29860.55
580.82	30106.31
580.98	29926.09
581.14	29979.92
581.30	30160.14
581.46	29860.55
581.62	29839.49
581.78	29762.25
581.94	30167.16
582.10	29972.90
582.26	30366.11
582.42	30143.76
582.58	30129.72
582.74	29858.21
582.90	30246.74
583.06	29692.04
583.22	30195.25
583.38	30176.53
583.54	30068.86
583.70	29652.25
583.86	29729.48
584.02	29670.97
584.18	30174.19
584.34	29809.06
584.50	30188.23
584.66	30052.48
584.82	29677.99
584.98	29867.58
585.14	30136.74
585.30	29738.85
585.46	29881.62
585.62	29572.67
585.78	30082.91
585.94	29984.60
586.10	30103.97
586.26	30148.44
586.42	29900.34
586.58	29797.36
586.74	29825.45
586.90	29926.09
587.06	29834.81
587.22	30071.20
587.38	29912.05
587.54	29832.47
587.70	30216.32
587.86	30216.32
588.02	30176.53
588.18	30078.22
588.34	30080.56
588.49	30136.74
588.65	29846.51
588.81	29848.85
588.97	30108.65
589.13	29991.62
589.29	30092.27
589.45	30232.70
589.61	30443.35
589.77	30335.68
589.93	30033.75
590.08	30174.19
590.24	30607.19
590.40	30258.45
590.56	30235.04
590.72	30089.93
590.88	30099.29
591.04	29769.27
591.20	30295.89
591.35	30567.40
591.51	30740.60
591.67	30012.69
591.83	30094.61
