SpectraSuite Data File
++++++++++++++++++++++++++++++++++++
Date: Fri Oct 04 11:48:26 GMT-05:00 2013
User: price-jones
Dark Spectrum Present: No
Reference Spectrum Present: No
Number of Sampled Component Spectra: 1
Spectrometers: USB2+H05261
Integration Time (usec): 100000 (USB2+H05261)
Spectra Averaged: 1 (USB2+H05261)
Boxcar Smoothing: 0 (USB2+H05261)
Correct for Electrical Dark: No (USB2+H05261)
Strobe/Lamp Enabled: No (USB2+H05261)
Correct for Detector Non-linearity: No (USB2+H05261)
Correct for Stray Light: No (USB2+H05261)
Number of Pixels in Processed Spectrum: 2048
>>>>>Begin Processed Spectral Data<<<<<
365.73	98.30
365.92	98.30
366.12	98.30
366.32	0.00
366.52	0.00
366.72	0.00
366.91	0.00
367.11	0.00
367.31	0.00
367.51	0.00
367.70	0.00
367.90	0.00
368.10	0.00
368.30	0.00
368.49	0.00
368.69	0.00
368.89	0.00
369.09	0.00
369.28	0.00
369.48	0.00
369.68	0.00
369.87	0.00
370.07	0.00
370.27	39.79
370.47	154.48
370.66	470.45
370.86	491.51
371.06	528.96
371.25	547.69
371.45	568.75
371.65	585.13
371.84	486.83
372.04	585.13
372.24	594.50
372.44	496.19
372.63	575.77
372.83	596.84
373.03	606.20
373.22	629.60
373.42	519.60
373.62	634.29
373.81	599.18
374.01	732.59
374.21	725.57
374.40	709.18
374.60	706.84
374.79	760.67
374.99	727.91
375.19	690.46
375.38	720.88
375.58	755.99
375.78	732.59
375.97	833.23
376.17	763.01
376.37	765.36
376.56	702.16
376.76	777.06
376.95	788.76
377.15	767.70
377.35	791.10
377.54	863.66
377.74	781.74
377.93	823.87
378.13	898.77
378.33	851.96
378.52	835.57
378.72	847.27
378.91	791.10
379.11	826.21
379.31	856.64
379.50	772.38
379.70	880.04
379.89	873.02
380.09	917.49
380.28	851.96
380.48	919.83
380.68	887.06
380.87	947.92
381.07	940.90
381.26	992.39
381.46	922.17
381.65	976.00
381.85	950.26
382.04	1029.84
382.24	938.55
382.43	971.32
382.63	1001.75
382.83	1032.18
383.02	1104.73
383.22	1013.45
383.41	1057.92
383.61	957.28
383.80	1022.81
384.00	1041.54
384.19	1048.56
384.39	1046.22
384.58	1029.84
384.78	1008.77
384.97	1064.94
385.17	1029.84
385.36	1083.67
385.56	1144.52
385.75	1076.65
385.95	1104.73
386.14	1156.22
386.34	1032.18
386.53	1200.69
386.72	1039.20
386.92	1095.37
387.11	1193.67
387.31	1343.47
387.50	1142.18
387.70	1188.99
387.89	1203.04
388.09	1207.72
388.28	1252.19
388.48	1336.45
388.67	1268.57
388.86	1163.25
389.06	1348.15
389.25	1247.51
389.45	1315.38
389.64	1366.87
389.84	1350.49
390.03	1406.66
390.22	1423.05
390.42	1310.70
390.61	1392.62
390.81	1378.58
391.00	1261.55
391.19	1511.99
391.39	1376.24
391.58	1465.18
391.78	1533.05
391.97	1526.03
392.16	1418.36
392.36	1467.52
392.55	1455.81
392.75	1334.11
392.94	1540.07
393.13	1465.18
393.33	1593.90
393.52	1467.52
393.71	1563.48
393.91	1535.39
394.10	1652.42
394.29	1586.88
394.49	1638.38
394.68	1633.69
394.88	1589.22
395.07	1668.80
395.26	1591.56
395.46	1713.27
395.65	1659.44
395.84	1762.42
396.04	1785.83
396.23	1715.61
396.42	1774.13
396.62	1781.15
396.81	1823.28
397.00	1795.19
397.19	1877.11
397.39	1912.22
397.58	1930.94
397.77	1907.54
397.97	1888.81
398.16	1853.70
398.35	1909.88
398.55	1998.82
398.74	1966.05
398.93	2029.24
399.12	1898.17
399.32	2017.54
399.51	1991.80
399.70	2160.31
399.90	1963.71
400.09	2024.56
400.28	2157.97
400.47	2064.35
400.67	2118.18
400.86	2146.27
401.05	2190.74
401.24	2246.91
401.44	2211.81
401.63	2277.34
401.82	2263.30
402.01	2211.81
402.21	2228.19
402.40	2373.30
402.59	2333.51
402.78	2345.22
402.97	2424.80
403.17	2333.51
403.36	2464.58
403.55	2462.24
403.74	2513.74
403.93	2420.11
404.13	2422.45
404.32	2525.44
404.51	2478.63
404.70	2502.03
404.89	2516.08
405.09	2525.44
405.28	2612.04
405.47	2684.59
405.66	2586.29
405.85	2740.77
406.05	2719.70
406.24	2715.02
406.43	2656.51
406.62	2785.24
406.81	2829.71
407.00	2637.78
407.20	2698.64
407.39	2731.41
407.58	2803.96
407.77	2892.90
407.96	2930.35
408.15	2953.76
408.34	2918.65
408.54	2949.08
408.73	3173.77
408.92	3150.36
409.11	3119.93
409.30	3000.57
409.49	3014.61
409.68	3155.04
409.87	3260.37
410.07	3281.43
410.26	3145.68
410.45	3318.88
410.64	3353.99
410.83	3304.84
411.02	3276.75
411.21	3473.36
411.40	3428.88
411.59	3438.25
411.78	3438.25
411.98	3548.25
412.17	3644.21
412.36	3503.78
412.55	3655.92
412.74	3684.00
412.93	3826.78
413.12	3686.34
413.31	3772.94
413.50	3871.25
413.69	3927.42
413.88	3810.39
414.07	3887.63
414.26	3967.21
414.45	4002.32
414.64	3985.93
414.83	4098.28
415.02	4007.00
415.22	4170.83
415.41	4224.67
415.60	4306.59
415.79	4175.52
415.98	4285.52
416.17	4449.36
416.36	4318.29
416.55	4269.14
416.74	4512.55
416.93	4430.63
417.12	4615.54
417.31	4650.64
417.50	4535.96
417.69	4734.90
417.88	4720.86
418.07	4631.92
418.26	4652.98
418.45	4770.01
418.64	4910.44
418.83	4737.24
419.02	4760.65
419.21	4830.87
419.39	4835.55
419.58	4854.27
419.77	4858.95
419.96	4999.38
420.15	5011.09
420.34	4983.00
420.53	5085.98
420.72	5104.71
420.91	5135.14
421.10	5111.73
421.29	5277.91
421.48	5226.42
421.67	5158.54
421.86	5121.09
422.05	5448.77
422.24	5420.68
422.43	5282.59
422.61	5366.85
422.80	5434.72
422.99	5434.72
423.18	5420.68
423.37	5495.58
423.56	5329.40
423.75	5270.89
423.94	5380.89
424.13	5069.60
424.32	5074.28
424.50	5479.19
424.69	5645.37
424.88	5755.38
425.07	5420.68
425.26	5359.83
425.45	5514.30
425.64	5357.49
425.83	5568.13
426.01	5516.64
426.20	5708.57
426.39	5605.58
426.58	5511.96
426.77	5668.78
426.96	5530.69
427.15	5561.11
427.33	5586.86
427.52	5769.42
427.71	5795.17
427.90	5841.98
428.09	5811.55
428.28	5886.45
428.46	6001.13
428.65	5959.00
428.84	6001.13
429.03	6047.94
429.22	5884.11
429.40	6024.54
429.59	6080.71
429.78	6066.67
429.97	5891.13
430.16	5998.79
430.34	6181.35
430.53	6441.15
430.72	6186.04
430.91	6085.39
431.10	6167.31
431.28	6221.14
431.47	6319.45
431.66	6483.28
431.85	6242.21
432.03	6600.31
432.22	6679.89
432.41	6506.69
432.60	6502.01
432.79	6356.90
432.97	6506.69
433.16	6569.88
433.35	6464.56
433.54	6630.74
433.72	6780.53
433.91	6740.74
434.10	6724.36
434.28	6640.10
434.47	6853.09
434.66	6923.30
434.85	6925.65
435.03	7016.93
435.22	7073.10
435.41	7150.34
435.59	7108.21
435.78	7089.48
435.97	7068.42
436.16	7126.93
436.34	7290.77
436.53	7150.34
436.72	7445.24
436.90	7246.30
437.09	7400.77
437.28	7211.19
437.46	7243.96
437.65	7351.62
437.84	7442.90
438.02	7538.87
438.21	7658.23
438.40	7433.54
438.58	7742.49
438.77	7868.88
438.96	7726.11
439.14	7878.24
439.33	8311.24
439.52	7857.18
439.70	8147.40
439.89	8013.99
440.08	8081.87
440.26	8086.55
440.45	8187.19
440.63	8348.69
440.82	8372.10
441.01	8339.33
441.19	8456.36
441.38	8739.56
441.57	8779.35
441.75	8601.47
441.94	8746.58
442.12	8795.73
442.31	8812.12
442.50	9004.04
442.68	8978.30
442.87	9114.05
443.05	8931.48
443.24	9233.41
443.43	9067.24
443.61	9235.75
443.80	9329.38
443.98	9174.90
444.17	8751.26
444.35	9219.37
444.54	9385.55
444.73	9394.91
444.91	9357.46
445.10	9186.60
445.28	9238.09
445.47	9254.48
445.65	9128.09
445.84	9301.29
446.02	9350.44
446.21	9497.89
446.39	9525.98
446.58	9415.98
446.77	9549.39
446.95	9385.55
447.14	9497.89
447.32	9514.28
447.51	9537.68
447.69	9795.14
447.88	9596.20
448.06	9411.29
448.25	9504.92
448.43	9551.73
448.62	9582.15
448.80	9596.20
448.99	9638.33
449.17	9650.03
449.36	9628.96
449.54	9792.80
449.73	9858.34
449.91	9933.23
450.10	9916.85
450.28	10160.27
450.46	10076.01
450.65	10038.56
450.83	10169.63
451.02	10164.95
451.20	10272.61
451.39	10281.97
451.57	10265.59
451.76	10178.99
451.94	10448.15
452.13	10251.55
452.31	10555.82
452.49	10263.25
452.68	10541.77
452.86	10560.50
453.05	10640.08
453.23	10712.63
453.42	10719.65
453.60	10523.05
453.78	10754.76
453.97	10593.26
454.15	10693.91
454.34	10391.98
454.52	10979.45
454.70	10661.14
454.89	10820.30
455.07	11012.22
455.26	11077.76
455.44	11077.76
455.62	11105.84
455.81	10850.72
455.99	11386.71
456.17	11157.33
456.36	11250.96
456.54	11332.87
456.73	11412.45
456.91	11669.91
457.09	11447.56
457.28	11878.22
457.46	11454.58
457.64	11798.64
457.83	11805.66
458.01	11515.44
458.19	11850.13
458.38	11658.21
458.56	12011.63
458.74	12023.33
458.93	11894.60
459.11	11878.22
459.29	12147.38
459.48	11997.59
459.66	12201.21
459.84	12248.02
460.03	12201.21
460.21	12208.23
460.39	12367.39
460.57	12121.63
460.76	12432.93
460.94	12397.82
461.12	12444.63
461.31	12650.60
461.49	12493.78
461.67	12615.49
461.85	13011.04
462.04	12683.36
462.22	13369.14
462.40	12968.91
462.59	12929.12
462.77	12800.39
462.95	13109.34
463.13	12957.21
463.32	13128.06
463.50	13144.45
463.68	13013.38
463.86	12973.59
464.05	13006.36
464.23	13116.36
464.41	13247.43
464.59	13156.15
464.78	13474.46
464.96	13551.70
465.14	13411.27
465.32	13572.77
465.50	13547.02
465.69	13862.99
465.87	13488.51
466.05	13659.37
466.23	13582.13
466.41	13937.89
466.60	14162.58
466.78	13577.45
466.96	13724.90
467.14	13582.13
467.32	13884.06
467.51	14235.14
467.69	13764.69
467.87	13942.57
468.05	13968.32
468.23	13771.71
468.41	14087.68
468.60	14031.51
468.78	14347.48
468.96	14253.86
469.14	14106.41
469.32	14155.56
469.50	14249.18
469.69	14366.21
469.87	14611.96
470.05	14801.55
470.23	14586.22
470.41	14588.56
470.59	14628.35
470.77	14794.53
470.95	14848.36
471.14	15056.67
471.32	14925.60
471.50	15236.89
471.68	15279.02
471.86	15356.25
472.04	15508.39
472.22	15611.37
472.40	15332.85
472.58	15784.57
472.77	15796.28
472.95	15475.62
473.13	16444.60
473.31	15901.60
473.49	15868.83
473.67	16130.97
473.85	15934.37
474.03	16397.79
474.21	16163.74
474.39	16552.27
474.57	16491.41
474.75	16919.73
474.93	17266.13
475.12	16765.26
475.30	16821.43
475.48	17013.35
475.66	17174.85
475.84	17348.05
476.02	17418.27
476.20	17202.94
476.38	17830.20
476.56	17902.76
476.74	17745.94
476.92	17994.04
477.10	17759.98
477.28	18033.83
477.46	18387.25
477.64	18422.36
477.82	18625.98
478.00	18991.11
478.18	19131.54
478.36	19253.25
478.54	19187.71
478.72	19662.84
478.90	19632.41
479.08	19697.95
479.26	20042.01
479.44	20023.28
479.62	20547.56
479.80	20334.57
479.98	20585.01
480.16	20943.11
480.34	20879.92
480.52	21074.18
480.70	21198.23
480.88	20847.15
481.06	20959.50
481.24	21238.02
481.41	21425.26
481.59	21748.26
481.77	22075.93
481.95	21968.27
482.13	22122.74
482.31	21989.33
482.49	22761.71
482.67	22927.89
482.85	23307.05
483.03	23190.03
483.21	23297.69
483.39	23772.82
483.57	23559.83
483.74	23929.64
483.92	24081.77
484.10	24168.37
484.28	24599.03
484.46	25158.42
484.64	25434.60
484.82	24734.78
485.00	25530.56
485.18	25528.22
485.35	26080.59
485.53	25832.49
485.71	26321.66
485.89	26689.13
486.07	26443.37
486.25	26522.95
486.43	26848.29
486.61	26927.86
486.78	27288.31
486.96	27276.60
487.14	27805.56
487.32	27608.96
487.50	27896.85
487.68	28257.29
487.85	28781.57
488.03	28994.56
488.21	29457.98
488.39	29488.41
488.57	29488.41
488.75	29865.24
488.92	30122.69
489.10	30263.13
489.28	30359.09
489.46	30719.53
489.64	30703.15
489.81	31332.75
489.99	31065.93
490.17	31402.97
490.35	31985.76
490.53	31817.24
490.70	32285.35
490.88	32063.00
491.06	32355.57
491.24	32264.28
491.41	32393.01
491.59	32854.10
491.77	33401.79
491.95	33680.31
492.13	34129.69
492.30	33914.36
492.48	34005.64
492.66	34080.54
492.84	34354.38
493.01	34904.41
493.19	34663.33
493.37	35360.81
493.54	35180.59
493.72	35426.35
493.90	35377.20
494.08	36109.78
494.25	36126.17
494.43	36341.50
494.61	36465.55
494.79	37132.60
494.96	37071.75
495.14	36950.04
495.32	37383.04
495.49	37708.37
495.67	37886.25
495.85	38237.33
496.02	38033.71
496.20	38614.16
496.38	38476.07
496.55	38747.57
496.73	39786.77
496.91	39456.75
497.09	39356.11
497.26	39353.77
497.44	39529.31
497.62	39655.70
497.79	40168.27
497.97	40374.24
498.14	40854.05
498.32	40912.56
498.50	40840.01
498.67	41195.77
498.85	40914.90
499.03	41146.62
499.20	41738.77
499.38	41682.60
499.56	42059.43
499.73	41930.70
499.91	42595.41
500.08	42564.98
500.26	41991.55
500.44	42780.31
500.61	42871.59
500.79	42803.72
500.97	43239.06
501.14	43847.60
501.32	43709.50
501.49	42937.13
501.67	43419.28
501.84	43887.39
502.02	43658.01
502.20	44065.27
502.37	43716.53
502.55	44402.30
502.72	44664.44
502.90	44212.72
503.07	44320.38
503.25	44552.10
503.43	44470.18
503.60	45390.01
503.78	45263.62
503.95	45380.65
504.13	45312.77
504.30	45645.13
504.48	45102.12
504.65	45881.52
504.83	46024.29
505.01	46169.41
505.18	46300.48
505.36	46644.54
505.53	46136.64
505.71	46651.56
505.88	46806.03
506.06	46539.21
506.23	47236.69
506.41	47049.45
506.58	47655.65
506.76	47056.47
506.93	47419.25
507.11	47323.29
507.28	47812.46
507.46	47828.85
507.63	48229.08
507.81	48147.16
507.98	48179.93
508.16	48212.70
508.33	48397.60
508.50	48591.86
508.68	48406.96
508.85	49003.80
509.03	49041.24
509.20	49249.55
509.38	49200.40
509.55	49336.15
509.73	49326.79
509.90	49436.80
510.08	49579.57
510.25	49712.98
510.42	49734.04
510.60	50094.49
510.77	50117.89
510.95	50295.77
511.12	49991.50
511.30	50239.60
511.47	50370.67
511.64	50550.89
511.82	50536.85
511.99	50347.26
512.17	50752.18
512.34	50798.99
512.51	51000.27
512.69	50871.54
512.86	51377.10
513.04	51330.29
513.21	51372.42
513.38	51697.75
513.56	51498.81
513.73	51334.97
513.90	51489.45
514.08	51571.36
514.25	51990.32
514.43	51873.29
514.60	52016.07
514.77	51922.44
514.95	52353.10
515.12	52320.34
515.29	52219.69
515.47	52327.36
515.64	52706.52
515.81	52713.55
515.99	52753.33
516.16	52945.26
516.33	53120.80
516.51	52924.19
516.68	53052.92
516.85	53001.43
517.03	53130.16
517.20	53474.22
517.37	53418.05
517.54	53167.61
517.72	53315.06
517.89	53467.20
518.06	53432.09
518.24	53492.94
518.41	53446.13
518.58	53745.72
518.75	53464.86
518.93	54031.27
519.10	53794.87
519.27	54267.66
519.45	53883.81
519.62	54209.15
519.79	53872.11
519.96	54244.26
520.14	54443.20
520.31	54010.20
520.48	54281.70
520.65	54340.22
520.83	54539.16
521.00	54567.25
521.17	54597.68
521.34	54520.44
521.52	54866.84
521.69	54700.66
521.86	55180.47
522.03	55276.43
522.20	55208.56
522.38	55238.98
522.55	55157.06
522.72	55079.83
522.89	55194.51
523.07	55735.18
523.24	55353.67
523.41	55423.89
523.58	55430.91
523.75	55709.43
523.92	55538.57
524.10	55564.32
524.27	55774.97
524.44	55791.35
524.61	55903.70
524.78	55798.37
524.96	55840.50
525.13	56095.62
525.30	56301.59
525.47	56011.36
525.64	56016.04
525.81	56390.53
525.98	56491.17
526.16	56563.73
526.33	56420.95
526.50	56404.57
526.67	56030.08
526.84	56444.36
527.01	56636.28
527.18	56645.65
527.36	56619.90
527.53	56647.99
527.70	57015.45
527.87	56886.72
528.04	56659.69
528.21	56856.29
528.38	56807.14
528.55	57109.07
528.72	57104.39
528.89	57286.95
529.07	57176.95
529.24	56985.02
529.41	57308.02
529.58	57076.30
529.75	57106.73
529.92	57322.06
530.09	57457.81
530.26	57411.00
530.43	57663.78
530.60	57244.82
530.77	57460.15
530.94	57492.92
531.11	57364.19
531.28	57481.22
531.46	57612.29
531.63	57890.81
531.80	57846.34
531.97	57900.17
532.14	57853.36
532.31	57949.32
532.48	57820.59
532.65	58124.86
532.82	57851.02
532.99	57970.39
533.16	57961.03
533.33	58110.82
533.50	58244.23
533.67	58244.23
533.84	58007.84
534.01	58237.21
534.18	57907.19
534.35	58239.55
534.52	58480.63
534.69	58539.14
534.86	58740.42
535.03	58527.44
535.20	58597.65
535.37	58717.02
535.54	58464.24
535.71	58576.59
535.88	58670.21
536.05	58599.99
536.22	58885.54
536.38	59009.59
536.55	58726.38
536.72	58810.64
536.89	58688.93
537.06	58684.25
537.23	59002.56
537.40	58892.56
537.57	59009.59
537.74	59114.91
537.91	59014.27
538.08	59229.60
538.25	59009.59
538.42	58894.90
538.59	59456.63
538.75	59093.85
538.92	59040.01
539.09	59442.59
539.26	59402.80
539.43	59379.39
539.60	59639.19
539.77	59421.52
539.94	59650.89
540.11	59400.46
540.28	59517.48
540.44	59571.32
540.61	59634.51
540.78	59533.87
540.95	59611.10
541.12	59512.80
541.29	59676.64
541.46	59746.86
541.62	59767.92
541.79	59913.03
541.96	59730.47
542.13	59723.45
542.30	59875.58
542.47	59992.61
542.63	59929.42
542.80	60020.70
542.97	60245.39
543.14	60219.64
543.31	60097.94
543.48	60259.43
543.64	60575.40
543.81	60451.36
543.98	60390.50
544.15	60427.95
544.32	60566.04
544.48	60839.89
544.65	60231.35
544.82	60310.92
544.99	60221.98
545.16	60420.93
545.32	60418.59
545.49	60807.12
545.66	60725.20
545.83	60556.68
546.00	60750.94
546.16	60610.51
546.33	60638.60
546.50	60465.40
546.67	60821.16
546.83	60633.92
547.00	60776.69
547.17	60715.84
547.34	60652.64
547.50	60846.91
547.67	60896.06
547.84	60874.99
548.00	61006.06
548.17	61134.79
548.34	60889.04
548.51	61282.25
548.67	61258.84
548.84	61134.79
549.01	61123.09
549.18	61202.67
549.34	61396.93
549.51	61256.50
549.68	61195.65
549.84	61073.94
550.01	61403.95
550.18	61352.46
550.34	61434.38
550.51	61371.19
550.68	61420.34
550.84	61277.57
551.01	61256.50
551.18	61310.33
551.34	61293.95
551.51	61418.00
551.68	61586.52
551.84	61535.02
552.01	61499.92
552.18	61808.87
552.34	61336.08
552.51	61602.90
552.68	61441.40
552.84	61771.42
553.01	61579.49
553.18	61773.76
553.34	61811.21
553.51	61771.42
553.67	61914.19
553.84	61733.97
554.01	61956.32
554.17	61979.73
554.34	61825.25
554.51	61904.83
554.67	61911.85
554.84	61839.29
555.00	61984.41
555.17	61729.29
555.33	62173.99
555.50	62143.56
555.67	61867.38
555.83	61846.32
556.00	61797.16
556.16	62049.94
556.33	62134.20
556.50	62042.92
556.66	62438.47
556.83	62178.67
556.99	62431.45
557.16	62274.63
557.32	62284.00
557.49	62375.28
557.65	62218.46
557.82	62244.21
557.98	62017.17
558.15	62288.68
558.32	62379.96
558.48	62560.18
558.65	62429.11
558.81	62454.86
558.98	62347.19
559.14	62433.79
559.31	62539.11
559.47	62473.58
559.64	62499.33
559.80	62422.09
559.97	62508.69
560.13	62480.60
560.30	62482.94
560.46	62347.19
560.63	62583.58
560.79	62457.20
560.96	62693.59
561.12	62475.92
561.29	62618.69
561.45	62564.86
561.61	62717.00
561.78	62625.71
561.94	62733.38
562.11	62660.82
562.27	62543.80
562.44	62707.63
562.60	62585.92
562.77	62670.18
562.93	62670.18
563.10	62946.37
563.26	62733.38
563.42	63023.61
563.59	62775.51
563.75	62827.00
563.92	62866.79
564.08	62691.25
564.24	62876.15
564.41	62829.34
564.57	62925.30
564.74	62990.84
564.90	63004.88
565.07	62824.66
565.23	62864.45
565.39	63035.31
565.56	62969.77
565.72	62747.42
565.88	62981.48
566.05	62944.03
566.21	62756.78
566.38	62787.21
566.54	63084.46
566.70	63215.53
566.87	63299.79
567.03	63025.95
567.19	63154.68
567.36	63210.85
567.52	63011.90
567.68	63054.03
567.85	62911.26
568.01	62986.16
568.17	63009.56
568.34	63267.02
568.50	63213.19
568.66	63061.05
568.83	63388.73
568.99	63157.02
569.15	62953.39
569.32	63056.37
569.48	63082.12
569.64	63283.40
569.81	63234.25
569.97	63243.62
570.13	63241.28
570.30	63175.74
570.46	63091.48
570.62	63173.40
570.78	63103.18
570.95	63112.55
571.11	62960.41
571.27	63002.54
571.43	63016.58
571.60	63299.79
571.76	63107.86
571.92	63267.02
572.09	63367.66
572.25	63348.94
572.41	63311.49
572.57	63252.98
572.74	63365.32
572.90	63224.89
573.06	63365.32
573.22	63278.72
573.38	63365.32
573.55	63395.75
573.71	63526.82
573.87	63573.63
574.03	63241.28
574.20	63323.19
574.36	63238.93
574.52	63330.22
574.68	63421.50
574.84	63245.96
575.01	63475.33
575.17	63274.04
575.33	63386.39
575.49	63168.72
575.65	63430.86
575.82	63550.23
575.98	63346.60
576.14	63529.16
576.30	63398.09
576.46	63304.47
576.62	63344.26
576.79	63472.99
576.95	63379.37
577.11	63512.78
577.27	63667.25
577.43	63597.04
577.59	63395.75
577.75	63414.47
577.92	63288.09
578.08	63381.71
578.24	63519.80
578.40	63510.44
578.56	63524.48
578.72	63482.35
578.88	63704.70
579.04	63454.26
579.21	63472.99
579.37	63496.39
579.53	63510.44
579.69	63348.94
579.85	63416.82
580.01	63449.58
580.17	63267.02
580.33	63599.38
580.49	63442.56
580.65	63697.68
580.82	63573.63
580.98	63657.89
581.14	63554.91
581.30	63632.14
581.46	63465.97
581.62	63613.42
581.78	63512.78
581.94	63573.63
582.10	63416.82
582.26	63622.78
582.42	63510.44
582.58	63723.43
582.74	63575.97
582.90	63714.06
583.06	63643.85
583.22	63503.42
583.38	63377.03
583.54	63456.60
583.70	63512.78
583.86	63526.82
584.02	63625.12
584.18	63746.83
584.34	63704.70
584.50	63718.74
584.66	63669.59
584.82	63426.18
584.98	63685.98
585.14	63590.01
585.30	63618.10
585.46	63737.47
585.62	63653.21
585.78	63636.83
585.94	63760.87
586.10	63599.38
586.26	63716.40
586.42	63803.00
586.58	63702.36
586.74	63601.72
586.90	63582.99
587.06	63695.34
587.22	63812.37
587.38	63791.30
587.54	63700.02
587.70	63819.39
587.86	63702.36
588.02	63978.54
588.18	63894.28
588.34	63929.39
588.49	63803.00
588.65	63643.85
