SpectraSuite Data File
++++++++++++++++++++++++++++++++++++
Date: Fri Oct 04 11:48:37 GMT-05:00 2013
User: price-jones
Dark Spectrum Present: No
Reference Spectrum Present: No
Number of Sampled Component Spectra: 1
Spectrometers: USB2+H05261
Integration Time (usec): 100000 (USB2+H05261)
Spectra Averaged: 1 (USB2+H05261)
Boxcar Smoothing: 0 (USB2+H05261)
Correct for Electrical Dark: No (USB2+H05261)
Strobe/Lamp Enabled: No (USB2+H05261)
Correct for Detector Non-linearity: No (USB2+H05261)
Correct for Stray Light: No (USB2+H05261)
Number of Pixels in Processed Spectrum: 2048
>>>>>Begin Processed Spectral Data<<<<<
365.73	107.66
365.92	107.66
366.12	107.66
366.32	0.00
366.52	0.00
366.72	0.00
366.91	0.00
367.11	0.00
367.31	0.00
367.51	0.00
367.70	0.00
367.90	0.00
368.10	0.00
368.30	0.00
368.49	0.00
368.69	0.00
368.89	7.02
369.09	0.00
369.28	0.00
369.48	0.00
369.68	0.00
369.87	0.00
370.07	0.00
370.27	23.41
370.47	79.58
370.66	133.41
370.86	91.28
371.06	121.71
371.25	140.43
371.45	149.79
371.65	124.05
371.84	152.13
372.04	102.98
372.24	131.07
372.44	133.41
372.63	177.88
372.83	212.99
373.03	100.64
373.22	128.73
373.42	133.41
373.62	138.09
373.81	149.79
374.01	229.37
374.21	180.22
374.40	177.88
374.60	241.08
374.79	152.13
374.99	131.07
375.19	187.24
375.38	220.01
375.58	159.16
375.78	198.95
375.97	210.65
376.17	191.92
376.37	234.05
376.56	168.52
376.76	168.52
376.95	124.05
377.15	173.20
377.35	210.65
377.54	182.56
377.74	152.13
377.93	166.18
378.13	210.65
378.33	262.14
378.52	198.95
378.72	220.01
378.91	142.77
379.11	180.22
379.31	208.31
379.50	220.01
379.70	196.60
379.89	163.84
380.09	175.54
380.28	149.79
380.48	224.69
380.68	245.76
380.87	215.33
381.07	229.37
381.26	154.48
381.46	187.24
381.65	222.35
381.85	152.13
382.04	184.90
382.24	177.88
382.43	175.54
382.63	203.63
382.83	210.65
383.02	234.05
383.22	229.37
383.41	229.37
383.61	184.90
383.80	231.71
384.00	264.48
384.19	278.52
384.39	205.97
384.58	210.65
384.78	177.88
384.97	229.37
385.17	269.16
385.36	227.03
385.56	217.67
385.75	175.54
385.95	184.90
386.14	203.63
386.34	252.78
386.53	238.73
386.72	161.50
386.92	266.82
387.11	283.20
387.31	238.73
387.50	189.58
387.70	236.39
387.89	201.29
388.09	273.84
388.28	128.73
388.48	273.84
388.67	259.80
388.86	177.88
389.06	217.67
389.25	189.58
389.45	215.33
389.64	227.03
389.84	315.97
390.03	355.76
390.22	215.33
390.42	271.50
390.61	227.03
390.81	215.33
391.00	297.25
391.19	372.15
391.39	292.57
391.58	311.29
391.78	210.65
391.97	273.84
392.16	259.80
392.36	315.97
392.55	325.33
392.75	330.02
392.94	355.76
393.13	308.95
393.33	311.29
393.52	294.91
393.71	348.74
393.91	315.97
394.10	308.95
394.29	339.38
394.49	283.20
394.68	374.49
394.88	273.84
395.07	369.80
395.26	383.85
395.46	297.25
395.65	425.98
395.84	362.78
396.04	395.55
396.23	367.46
396.42	433.00
396.62	351.08
396.81	393.21
397.00	308.95
397.19	411.93
397.39	430.66
397.58	416.62
397.77	311.29
397.97	341.72
398.16	390.87
398.35	404.91
398.55	388.53
398.74	433.00
398.93	454.06
399.12	402.57
399.32	444.70
399.51	468.11
399.70	500.87
399.90	491.51
400.09	456.40
400.28	493.85
400.47	531.30
400.67	475.13
400.86	458.74
401.05	493.85
401.24	559.39
401.44	535.98
401.63	610.88
401.82	575.77
402.01	500.87
402.21	533.64
402.40	559.39
402.59	533.64
402.78	587.47
402.97	538.32
403.17	566.41
403.36	592.16
403.55	552.37
403.74	582.79
403.93	617.90
404.13	596.84
404.32	631.94
404.51	624.92
404.70	688.12
404.89	650.67
405.09	732.59
405.28	627.26
405.47	655.35
405.66	699.82
405.85	781.74
406.05	655.35
406.24	748.97
406.43	741.95
406.62	718.54
406.81	821.53
407.00	774.72
407.20	765.36
407.39	793.44
407.58	875.36
407.77	800.46
407.96	842.59
408.15	868.34
408.34	866.00
408.54	788.76
408.73	898.77
408.92	800.46
409.11	924.51
409.30	894.08
409.49	833.23
409.68	968.98
409.87	983.02
410.07	894.08
410.26	1006.43
410.45	1011.11
410.64	966.64
410.83	1006.43
411.02	1001.75
411.21	1088.35
411.40	1043.88
411.59	980.68
411.78	1083.67
411.98	1064.94
412.17	1118.78
412.36	1163.25
412.55	1146.86
412.74	1153.88
412.93	1196.01
413.12	1114.10
413.31	1160.91
413.50	1366.87
413.69	1366.87
413.88	1315.38
414.07	1378.58
414.26	1287.29
414.45	1345.81
414.64	1303.68
414.83	1291.98
415.02	1385.60
415.22	1308.36
415.41	1453.47
415.60	1366.87
415.79	1416.02
415.98	1355.17
416.17	1387.94
416.36	1437.09
416.55	1439.43
416.74	1472.20
416.93	1469.86
417.12	1486.24
417.31	1516.67
417.50	1537.73
417.69	1558.80
417.88	1561.14
418.07	1591.56
418.26	1577.52
418.45	1547.09
418.64	1596.25
418.83	1661.78
419.02	1612.63
419.21	1542.41
419.39	1708.59
419.58	1556.46
419.77	1596.25
419.96	1689.87
420.15	1736.68
420.34	1750.72
420.53	1820.94
420.72	1739.02
420.91	1900.52
421.10	1769.44
421.29	1732.00
421.48	1724.97
421.67	1799.87
421.86	1778.81
422.05	1858.39
422.24	1746.04
422.43	1860.73
422.61	1813.92
422.80	1739.02
422.99	1905.20
423.18	1928.60
423.37	1844.34
423.56	1813.92
423.75	1914.56
423.94	1774.13
424.13	1734.34
424.32	1870.09
424.50	1884.13
424.69	1916.90
424.88	1872.43
425.07	1760.08
425.26	1832.64
425.45	1898.17
425.64	1778.81
425.83	1923.92
426.01	1942.64
426.20	1975.41
426.39	1930.94
426.58	1888.81
426.77	1846.68
426.96	1987.11
427.15	1895.83
427.33	1930.94
427.52	1940.30
427.71	1956.69
427.90	1926.26
428.09	2029.24
428.28	1881.79
428.46	2078.40
428.65	2043.29
428.84	2136.91
429.03	1977.75
429.22	2019.88
429.40	2057.33
429.59	2141.59
429.78	1944.99
429.97	2045.63
430.16	1968.39
430.34	2139.25
430.53	2157.97
430.72	2078.40
430.91	2202.44
431.10	2078.40
431.28	2174.36
431.47	2087.76
431.66	2150.95
431.85	2085.42
432.03	2169.68
432.22	2399.05
432.41	2242.23
432.60	2270.32
432.79	2342.88
432.97	2317.13
433.16	2275.00
433.35	2352.24
433.54	2296.07
433.72	2246.91
433.91	2300.75
434.10	2230.53
434.28	2324.15
434.47	2427.14
434.66	2445.86
434.85	2373.30
435.03	2431.82
435.22	2445.86
435.41	2382.67
435.59	2459.90
435.78	2492.67
435.97	2523.10
436.16	2417.77
436.34	2513.74
436.53	2429.48
436.72	2473.95
436.90	2394.37
437.09	2541.82
437.28	2506.71
437.46	2495.01
437.65	2492.67
437.84	2616.72
438.02	2560.55
438.21	2548.84
438.40	2600.34
438.58	2619.06
438.77	2607.36
438.96	2590.97
439.14	2752.47
439.33	2651.83
439.52	2665.87
439.70	2722.04
439.89	2672.89
440.08	2738.43
440.26	2710.34
440.45	2747.79
440.63	2869.50
440.82	2902.26
441.01	2920.99
441.19	2787.58
441.38	2925.67
441.57	3000.57
441.75	2960.78
441.94	3026.31
442.12	3016.95
442.31	3066.10
442.50	3077.80
442.68	3070.78
442.87	3103.55
443.05	3082.49
443.24	3133.98
443.43	3033.33
443.61	3150.36
443.80	3251.00
443.98	3045.04
444.17	3023.97
444.35	3138.66
444.54	3110.57
444.73	3070.78
444.91	3148.02
445.10	3213.56
445.28	3157.38
445.47	3155.04
445.65	3220.58
445.84	3164.40
446.02	3035.67
446.21	3197.17
446.39	3169.09
446.58	3159.72
446.77	3190.15
446.95	3178.45
447.14	3117.59
447.32	3194.83
447.51	3227.60
447.69	3194.83
447.88	3300.16
448.06	3211.22
448.25	3243.98
448.43	3269.73
448.62	3262.71
448.80	3323.56
448.99	3339.94
449.17	3330.58
449.36	3382.07
449.54	3414.84
449.73	3358.67
449.91	3431.23
450.10	3503.78
450.28	3449.95
450.46	3536.55
450.65	3379.73
450.83	3471.01
451.02	3508.46
451.20	3426.54
451.39	3368.03
451.57	3349.31
451.76	3363.35
451.94	3485.06
452.13	3466.33
452.31	3529.53
452.49	3459.31
452.68	3480.38
452.86	3541.23
453.05	3562.30
453.23	3569.32
453.42	3627.83
453.60	3492.08
453.78	3527.19
453.97	3468.67
454.15	3588.04
454.34	3496.76
454.52	3744.86
454.70	3669.96
454.89	3761.24
455.07	3829.12
455.26	3723.79
455.44	3712.09
455.62	3714.43
455.81	3740.18
455.99	3747.20
456.17	3864.22
456.36	3817.41
456.54	3885.29
456.73	3791.67
456.91	3976.57
457.09	3983.59
457.28	4021.04
457.46	3880.61
457.64	3896.99
457.83	3899.33
458.01	3850.18
458.19	3955.51
458.38	3885.29
458.56	3969.55
458.74	4063.17
458.93	4067.85
459.11	4016.36
459.29	4109.98
459.48	4170.83
459.66	4121.68
459.84	4177.86
460.03	4271.48
460.21	4117.00
460.39	4201.26
460.57	4042.11
460.76	4058.49
460.94	4229.35
461.12	4299.56
461.31	4250.41
461.49	4311.27
461.67	4159.13
461.85	4379.14
462.04	4262.12
462.22	4835.55
462.40	4306.59
462.59	4257.43
462.77	4372.12
462.95	4425.95
463.13	4322.97
463.32	4386.16
463.50	4369.78
463.68	4547.66
463.86	4423.61
464.05	4308.93
464.23	4339.35
464.41	4358.08
464.59	4283.18
464.78	4489.15
464.96	4507.87
465.14	4479.79
465.32	4542.98
465.50	4573.41
465.69	4554.68
465.87	4416.59
466.05	4503.19
466.23	4601.49
466.41	4585.11
466.60	4711.50
466.78	4524.26
466.96	4409.57
467.14	4608.51
467.32	4662.35
467.51	4699.80
467.69	4477.44
467.87	4678.73
468.05	4723.20
468.23	4760.65
468.41	4676.39
468.60	4788.74
468.78	4704.48
468.96	4732.56
469.14	4723.20
469.32	4741.93
469.50	4734.90
469.69	4734.90
469.87	4858.95
470.05	4725.54
470.23	4833.21
470.41	4889.38
470.59	4847.25
470.77	4929.17
470.95	5123.43
471.14	4851.93
471.32	4910.44
471.50	5095.35
471.68	4973.64
471.86	5142.16
472.04	5027.47
472.22	5139.82
472.40	5032.15
472.58	5156.20
472.77	5102.37
472.95	5254.50
473.13	5366.85
473.31	5160.88
473.49	5118.75
473.67	5228.76
473.85	5343.44
474.03	5334.08
474.21	5448.77
474.39	5385.57
474.57	5579.84
474.75	5404.30
474.93	5518.98
475.12	5507.28
475.30	5703.89
475.48	5542.39
475.66	5654.73
475.84	5530.69
476.02	5699.20
476.20	5867.72
476.38	5771.76
476.56	5968.37
476.74	6050.28
476.92	5893.47
477.10	5942.62
477.28	5921.56
477.46	6022.20
477.64	6256.25
477.82	6174.33
478.00	6237.53
478.18	6141.57
478.36	6354.55
478.54	6384.98
478.72	6242.21
478.90	6441.15
479.08	6525.41
479.26	6370.94
479.44	6462.22
479.62	6565.20
479.80	6614.35
479.98	6635.42
480.16	6839.05
480.34	6843.73
480.52	6590.95
480.70	6899.90
480.88	6799.26
481.06	6761.81
481.24	6832.02
481.41	6951.39
481.59	7005.22
481.77	7054.37
481.95	7119.91
482.13	7190.13
482.31	7234.60
482.49	7274.38
482.67	7449.93
482.85	7522.48
483.03	7566.95
483.21	7571.63
483.39	7765.90
483.57	7676.96
483.74	7660.57
483.92	7829.09
484.10	7726.11
484.28	7899.31
484.46	8065.49
484.64	8243.37
484.82	7880.58
485.00	8208.26
485.18	8018.68
485.35	8388.48
485.53	8257.41
485.71	8540.61
485.89	8376.78
486.07	8327.63
486.25	8564.02
486.43	8475.08
486.61	8774.67
486.78	8748.92
486.96	8798.07
487.14	9181.92
487.32	8929.14
487.50	8910.42
487.68	8973.61
487.85	9114.05
488.03	9249.80
488.21	9305.97
488.39	9390.23
488.57	9535.34
488.75	9327.03
488.92	9659.39
489.10	9619.60
489.28	9535.34
489.46	10012.81
489.64	9797.48
489.81	9930.89
489.99	10015.15
490.17	10066.64
490.35	10139.20
490.53	10097.07
490.70	10586.24
490.88	10289.00
491.06	10176.65
491.24	10256.23
491.41	10567.52
491.59	10450.49
491.77	10534.75
491.95	10583.90
492.13	10764.12
492.30	10696.25
492.48	10679.86
492.66	10766.46
492.84	10771.15
493.01	11000.52
493.19	11073.07
493.37	11243.93
493.54	11094.14
493.72	11220.53
493.90	11281.38
494.08	11571.61
494.25	11709.70
494.43	11452.24
494.61	11562.25
494.79	11899.28
494.96	11777.58
495.14	11875.88
495.32	11967.16
495.49	11810.34
495.67	12067.80
495.85	12065.46
496.02	12453.99
496.20	12114.61
496.38	12145.04
496.55	12248.02
496.73	12594.42
496.91	12269.09
497.09	12533.57
497.26	12762.94
497.44	12360.37
497.62	12758.26
497.79	12805.07
497.97	12762.94
498.14	13020.40
498.32	12903.37
498.50	12903.37
498.67	13107.00
498.85	13123.38
499.03	13254.45
499.20	13167.85
499.38	13420.63
499.56	13144.45
499.73	13362.12
499.91	13343.39
500.08	13528.30
500.26	13432.33
500.44	13408.93
500.61	13722.56
500.79	13628.94
500.97	13729.58
501.14	14101.73
501.32	14012.79
501.49	13989.38
501.67	14024.49
501.84	13933.21
502.02	14026.83
502.20	14015.13
502.37	14169.60
502.55	14017.47
502.72	14162.58
502.90	14230.46
503.07	14300.67
503.25	14466.85
503.43	14429.40
503.60	14415.36
503.78	14555.79
503.95	14427.06
504.13	14455.15
504.30	14696.22
504.48	14401.32
504.65	14829.63
504.83	14876.44
505.01	14888.15
505.18	14883.47
505.36	14923.26
505.53	14867.08
505.71	15143.27
505.88	15220.50
506.06	14963.04
506.23	15332.85
506.41	15225.18
506.58	15131.56
506.76	15328.17
506.93	15374.98
507.11	15157.31
507.28	15236.89
507.46	15651.16
507.63	15403.07
507.81	15838.41
507.98	15641.80
508.16	15611.37
508.33	15700.31
508.50	15761.17
508.68	15840.75
508.85	15716.70
509.03	15850.11
509.20	16236.30
509.38	16285.45
509.55	15779.89
509.73	16163.74
509.90	16056.08
510.08	15969.48
510.25	16411.84
510.42	16327.58
510.60	16109.91
510.77	16365.03
510.95	16645.89
511.12	16362.69
511.30	16379.07
511.47	16699.72
511.64	16704.40
511.82	16692.70
511.99	16648.23
512.17	16966.54
512.34	16957.18
512.51	16842.50
512.69	16912.71
512.86	17132.72
513.04	17006.33
513.21	17184.21
513.38	17329.33
513.56	17310.60
513.73	17317.62
513.90	17153.79
514.08	17319.96
514.25	17713.17
514.43	17551.68
514.60	17453.37
514.77	17631.26
514.95	17568.06
515.12	17439.33
515.29	17507.21
515.47	17654.66
515.64	17869.99
515.81	17937.87
515.99	18417.68
516.16	17851.27
516.33	17841.90
516.51	18160.22
516.68	17972.97
516.85	17996.38
517.03	18200.01
517.20	18310.01
517.37	18157.88
517.54	17919.14
517.72	18331.08
517.89	18382.57
518.06	18153.20
518.24	18354.48
518.41	18237.45
518.58	18520.66
518.75	18515.98
518.93	18455.12
519.10	18436.40
519.27	18731.31
519.45	18583.85
519.62	18448.10
519.79	18609.60
519.96	18792.16
520.14	18817.91
520.31	18845.99
520.48	18927.91
520.65	18857.70
520.83	19197.07
521.00	19110.47
521.17	19040.26
521.34	19222.82
521.52	18827.27
521.69	19332.82
521.86	19358.57
522.03	19431.13
522.20	19349.21
522.38	19000.47
522.55	19281.33
522.72	19344.53
522.89	19571.56
523.07	19484.96
523.24	19667.52
523.41	19538.79
523.58	19491.98
523.75	19775.19
523.92	19410.06
524.10	19543.47
524.27	19658.16
524.44	19683.91
524.61	19915.62
524.78	19768.16
524.96	20058.39
525.13	20020.94
525.30	19887.53
525.47	19974.13
525.64	19875.83
525.81	20088.82
525.98	20224.57
526.16	20114.56
526.33	19953.07
526.50	19960.09
526.67	20173.08
526.84	20079.46
527.01	19976.47
527.18	19887.53
527.36	20713.74
527.53	20266.70
527.70	20493.73
527.87	20383.73
528.04	20381.38
528.21	20678.63
528.38	20556.93
528.55	20482.03
528.72	20727.78
528.89	20622.46
529.07	20407.13
529.24	20519.48
529.41	20999.29
529.58	20657.57
529.75	20805.02
529.92	20828.43
530.09	20908.01
530.26	21039.08
530.43	21097.59
530.60	20645.87
530.77	20919.71
530.94	20868.22
531.11	20802.68
531.28	20919.71
531.46	20905.66
531.63	21380.79
531.80	21006.31
531.97	21287.17
532.14	21252.06
532.31	21345.69
532.48	21654.64
532.65	21191.21
532.82	21301.22
532.99	21628.89
533.16	21202.91
533.33	21553.99
533.50	21502.50
533.67	21678.04
533.84	21326.96
534.01	21624.21
534.18	21245.04
534.35	21633.57
534.52	21694.43
534.69	21696.77
534.86	21759.96
535.03	21685.06
535.20	21811.45
535.37	21610.17
535.54	21727.19
535.71	21455.69
535.88	21827.84
536.05	21977.63
536.22	22052.53
536.38	22174.24
536.55	21919.12
536.72	22059.55
536.89	22267.86
537.06	21834.86
537.23	21979.97
537.40	21696.77
537.57	21914.44
537.74	21898.05
537.91	22607.23
538.08	22284.24
538.25	22148.49
538.42	22398.93
538.59	22040.82
538.75	22108.70
538.92	22225.73
539.09	22111.04
539.26	22342.75
539.43	22391.91
539.60	22331.05
539.77	22335.73
539.94	22443.40
540.11	22497.23
540.28	22450.42
540.44	22483.19
540.61	22410.63
540.78	22520.63
540.95	22855.33
541.12	22459.78
541.29	22794.48
541.46	22361.48
541.62	22522.98
541.79	22778.09
541.96	22469.14
542.13	22735.96
542.30	22934.91
542.47	22916.19
542.63	22803.84
542.80	22775.75
542.97	23058.96
543.14	23293.01
543.31	22991.08
543.48	22998.10
543.64	23316.42
543.81	23388.97
543.98	23316.42
544.15	23084.70
544.32	23241.52
544.48	23524.72
544.65	23480.25
544.82	23058.96
544.99	23175.98
545.16	23250.88
545.32	23218.11
545.49	23246.20
545.66	23569.19
545.83	23632.39
546.00	23461.53
546.16	23260.24
546.33	23302.37
546.50	23323.44
546.67	23522.38
546.83	23302.37
547.00	23414.72
547.17	23524.72
547.34	23714.31
547.50	23908.57
547.67	23569.19
547.84	23653.45
548.00	23861.76
548.17	23915.59
548.34	23592.60
548.51	23857.08
548.67	24137.94
548.84	23726.01
549.01	23847.72
549.18	23594.94
549.34	23583.24
549.51	23608.98
549.68	23737.71
549.84	23798.57
550.01	24016.24
550.18	23674.52
550.34	23707.29
550.51	24044.32
550.68	23894.53
550.84	23728.35
551.01	23730.69
551.18	23999.85
551.34	23859.42
551.51	23978.79
551.68	24341.57
551.84	24266.67
552.01	24135.60
552.18	23988.15
552.34	24107.52
552.51	24252.63
552.68	24023.26
552.84	23880.49
553.01	24217.52
553.18	24341.57
553.34	24086.45
553.51	24098.16
553.67	24535.84
553.84	24451.58
554.01	24503.07
554.17	24306.46
554.34	24329.87
554.51	24346.25
554.67	24369.66
554.84	24428.17
555.00	24257.31
555.17	24411.79
555.33	24559.24
555.50	23955.38
555.67	24383.70
555.83	24416.47
556.00	24575.62
556.16	25055.43
556.33	24156.67
556.50	24418.81
556.66	24683.29
556.83	24584.99
556.99	24690.31
557.16	24470.30
557.32	24353.27
557.49	24423.49
557.65	24393.06
557.82	24643.50
557.98	24528.81
558.15	24620.10
558.32	24762.87
558.48	24294.76
558.65	24580.31
558.81	24470.30
558.98	24215.18
559.14	24636.48
559.31	24666.91
559.47	24680.95
559.64	24589.67
559.80	24973.52
559.97	24847.13
560.13	24535.84
560.30	24891.60
560.46	24601.37
560.63	24699.67
560.79	24814.36
560.96	24718.40
561.12	24486.68
561.29	24760.53
561.45	25088.20
561.61	24725.42
561.78	24987.56
561.94	24734.78
562.11	25048.41
562.27	24402.43
562.44	24678.61
562.60	24952.45
562.77	24851.81
562.93	24968.84
563.10	24915.00
563.26	24704.35
563.42	25109.27
563.59	24800.32
563.75	24872.87
563.92	24835.42
564.08	24828.40
564.24	24765.21
564.41	24716.06
564.57	24690.31
564.74	24638.82
564.90	24865.85
565.07	25034.37
565.23	24992.24
565.39	24786.27
565.56	24744.14
565.72	24547.54
565.88	24823.72
566.05	24680.95
566.21	24772.23
566.38	24648.18
566.54	24809.68
566.70	24989.90
566.87	25355.02
567.03	24694.99
567.19	25425.24
567.36	24964.15
567.52	24603.71
567.68	25064.80
567.85	24856.49
568.01	24959.47
568.17	24978.20
568.34	25085.86
568.50	25027.35
568.66	24655.20
568.83	25172.46
568.99	24950.11
569.15	24851.81
569.32	24830.74
569.48	24744.14
569.64	24823.72
569.81	24940.75
569.97	25319.92
570.13	24868.19
570.30	24678.61
570.46	24816.70
570.62	25252.04
570.78	24847.13
570.95	24842.45
571.11	25408.86
571.27	24685.63
571.43	24776.91
571.60	24926.71
571.76	25266.08
571.92	24915.00
572.09	25287.15
572.25	25455.67
572.41	25333.96
572.57	24915.00
572.74	25102.25
572.90	24982.88
573.06	25249.70
573.22	25099.90
573.38	24858.83
573.55	25289.49
573.71	25511.84
573.87	25238.00
574.03	24931.39
574.20	25025.01
574.36	25223.95
574.52	25083.52
574.68	24950.11
574.84	25013.31
575.01	25329.28
575.17	25212.25
575.33	25036.71
575.49	25127.99
575.65	25191.19
575.82	25575.03
575.98	25123.31
576.14	25495.46
576.30	25245.02
576.46	25291.83
576.62	25013.31
576.79	25214.59
576.95	24964.15
577.11	25181.82
577.27	25081.18
577.43	25097.56
577.59	25078.84
577.75	25106.93
577.92	24938.41
578.08	25149.06
578.24	24999.26
578.40	25008.62
578.56	25113.95
578.72	25254.38
578.88	25177.14
579.04	25439.28
579.21	25380.77
579.37	25399.49
579.53	25186.50
579.69	25537.59
579.85	25268.42
580.01	24971.18
580.17	25252.04
580.33	25039.05
580.49	25392.47
580.65	25268.42
580.82	25443.96
580.98	25340.98
581.14	24989.90
581.30	25408.86
581.46	24987.56
581.62	25537.59
581.78	25343.32
581.94	25422.90
582.10	24973.52
582.26	25415.88
582.42	25366.73
582.58	25249.70
582.74	25376.09
582.90	25476.73
583.06	25081.18
583.22	25071.82
583.38	25401.83
583.54	25027.35
583.70	25329.28
583.86	25362.04
584.02	25048.41
584.18	24996.92
584.34	24971.18
584.50	25397.15
584.66	25088.20
584.82	25200.55
584.98	25516.52
585.14	25350.34
585.30	25294.17
585.46	24877.55
585.62	25216.93
585.78	25729.51
585.94	24971.18
586.10	25296.51
586.26	25376.09
586.42	25357.36
586.58	25392.47
586.74	25174.80
586.90	24744.14
587.06	25205.23
587.22	25631.21
587.38	25528.22
587.54	25359.70
587.70	25542.27
587.86	25429.92
588.02	25425.24
588.18	25855.90
588.34	25556.31
588.49	25245.02
588.65	25142.03
588.81	25460.35
588.97	25284.81
589.13	24978.20
589.29	25736.53
589.45	25406.52
589.61	25172.46
589.77	25586.74
589.93	25649.93
590.08	25263.74
590.24	25228.63
590.40	25399.49
590.56	25525.88
590.72	25497.80
590.88	25275.45
591.04	25111.61
591.20	25586.74
591.35	25560.99
591.51	25694.40
591.67	25507.16
591.83	25720.15
591.99	25481.41
592.15	25497.80
