SpectraSuite Data File
++++++++++++++++++++++++++++++++++++
Date: Fri Oct 04 11:48:19 GMT-05:00 2013
User: price-jones
Dark Spectrum Present: No
Reference Spectrum Present: No
Number of Sampled Component Spectra: 1
Spectrometers: USB2+H05261
Integration Time (usec): 100000 (USB2+H05261)
Spectra Averaged: 1 (USB2+H05261)
Boxcar Smoothing: 0 (USB2+H05261)
Correct for Electrical Dark: No (USB2+H05261)
Strobe/Lamp Enabled: No (USB2+H05261)
Correct for Detector Non-linearity: No (USB2+H05261)
Correct for Stray Light: No (USB2+H05261)
Number of Pixels in Processed Spectrum: 2048
>>>>>Begin Processed Spectral Data<<<<<
365.73	0.00
365.92	0.00
366.12	0.00
366.32	0.00
366.52	0.00
366.72	0.00
366.91	0.00
367.11	0.00
367.31	0.00
367.51	0.00
367.70	0.00
367.90	0.00
368.10	0.00
368.30	0.00
368.49	0.00
368.69	0.00
368.89	0.00
369.09	0.00
369.28	0.00
369.48	0.00
369.68	0.00
369.87	0.00
370.07	0.00
370.27	84.26
370.47	49.15
370.66	0.00
370.86	51.49
371.06	70.22
371.25	128.73
371.45	88.94
371.65	32.77
371.84	60.85
372.04	63.19
372.24	100.64
372.44	42.13
372.63	37.45
372.83	156.82
373.03	37.45
373.22	131.07
373.42	67.88
373.62	131.07
373.81	107.66
374.01	140.43
374.21	152.13
374.40	44.47
374.60	142.77
374.79	203.63
374.99	121.71
375.19	117.03
375.38	131.07
375.58	149.79
375.78	84.26
375.97	56.17
376.17	126.39
376.37	79.58
376.56	72.56
376.76	114.69
376.95	30.43
377.15	21.06
377.35	184.90
377.54	105.32
377.74	117.03
377.93	121.71
378.13	37.45
378.33	135.75
378.52	72.56
378.72	93.62
378.91	53.83
379.11	23.41
379.31	156.82
379.50	154.48
379.70	95.96
379.89	91.28
380.09	140.43
380.28	11.70
380.48	49.15
380.68	98.30
380.87	98.30
381.07	100.64
381.26	156.82
381.46	65.54
381.65	135.75
381.85	187.24
382.04	84.26
382.24	128.73
382.43	37.45
382.63	49.15
382.83	53.83
383.02	142.77
383.22	112.35
383.41	65.54
383.61	121.71
383.80	98.30
384.00	142.77
384.19	37.45
384.39	42.13
384.58	56.17
384.78	107.66
384.97	70.22
385.17	98.30
385.36	51.49
385.56	84.26
385.75	39.79
385.95	72.56
386.14	124.05
386.34	117.03
386.53	121.71
386.72	138.09
386.92	135.75
387.11	128.73
387.31	117.03
387.50	28.09
387.70	63.19
387.89	28.09
388.09	126.39
388.28	58.51
388.48	91.28
388.67	177.88
388.86	65.54
389.06	91.28
389.25	98.30
389.45	163.84
389.64	49.15
389.84	126.39
390.03	77.24
390.22	35.11
390.42	70.22
390.61	30.43
390.81	63.19
391.00	100.64
391.19	72.56
391.39	84.26
391.58	18.72
391.78	37.45
391.97	77.24
392.16	98.30
392.36	74.90
392.55	149.79
392.75	77.24
392.94	93.62
393.13	128.73
393.33	16.38
393.52	117.03
393.71	105.32
393.91	117.03
394.10	131.07
394.29	32.77
394.49	100.64
394.68	74.90
394.88	93.62
395.07	117.03
395.26	131.07
395.46	112.35
395.65	175.54
395.84	88.94
396.04	163.84
396.23	110.01
396.42	93.62
396.62	98.30
396.81	91.28
397.00	65.54
397.19	135.75
397.39	128.73
397.58	88.94
397.77	135.75
397.97	135.75
398.16	168.52
398.35	95.96
398.55	112.35
398.74	67.88
398.93	180.22
399.12	72.56
399.32	173.20
399.51	133.41
399.70	161.50
399.90	110.01
400.09	72.56
400.28	110.01
400.47	159.16
400.67	117.03
400.86	88.94
401.05	119.37
401.24	135.75
401.44	135.75
401.63	95.96
401.82	110.01
402.01	98.30
402.21	124.05
402.40	98.30
402.59	51.49
402.78	145.11
402.97	170.86
403.17	98.30
403.36	159.16
403.55	102.98
403.74	63.19
403.93	65.54
404.13	81.92
404.32	56.17
404.51	79.58
404.70	119.37
404.89	91.28
405.09	163.84
405.28	152.13
405.47	18.72
405.66	128.73
405.85	161.50
406.05	88.94
406.24	121.71
406.43	152.13
406.62	138.09
406.81	124.05
407.00	110.01
407.20	93.62
407.39	145.11
407.58	91.28
407.77	79.58
407.96	128.73
408.15	74.90
408.34	119.37
408.54	205.97
408.73	131.07
408.92	77.24
409.11	175.54
409.30	201.29
409.49	105.32
409.68	133.41
409.87	102.98
410.07	53.83
410.26	58.51
410.45	95.96
410.64	60.85
410.83	110.01
411.02	135.75
411.21	93.62
411.40	121.71
411.59	105.32
411.78	51.49
411.98	156.82
412.17	110.01
412.36	161.50
412.55	128.73
412.74	156.82
412.93	166.18
413.12	140.43
413.31	119.37
413.50	159.16
413.69	105.32
413.88	182.56
414.07	133.41
414.26	53.83
414.45	133.41
414.64	124.05
414.83	110.01
415.02	163.84
415.22	138.09
415.41	205.97
415.60	168.52
415.79	98.30
415.98	198.95
416.17	145.11
416.36	161.50
416.55	114.69
416.74	142.77
416.93	203.63
417.12	86.60
417.31	177.88
417.50	154.48
417.69	184.90
417.88	156.82
418.07	128.73
418.26	100.64
418.45	126.39
418.64	100.64
418.83	189.58
419.02	124.05
419.21	126.39
419.39	154.48
419.58	166.18
419.77	88.94
419.96	126.39
420.15	224.69
420.34	234.05
420.53	168.52
420.72	154.48
420.91	138.09
421.10	131.07
421.29	131.07
421.48	180.22
421.67	95.96
421.86	135.75
422.05	173.20
422.24	88.94
422.43	156.82
422.61	152.13
422.80	205.97
422.99	191.92
423.18	154.48
423.37	191.92
423.56	161.50
423.75	205.97
423.94	147.45
424.13	98.30
424.32	135.75
424.50	152.13
424.69	114.69
424.88	161.50
425.07	145.11
425.26	180.22
425.45	191.92
425.64	168.52
425.83	126.39
426.01	126.39
426.20	205.97
426.39	140.43
426.58	117.03
426.77	182.56
426.96	145.11
427.15	166.18
427.33	187.24
427.52	140.43
427.71	182.56
427.90	159.16
428.09	205.97
428.28	44.47
428.46	147.45
428.65	145.11
428.84	149.79
429.03	168.52
429.22	114.69
429.40	168.52
429.59	149.79
429.78	222.35
429.97	140.43
430.16	147.45
430.34	135.75
430.53	117.03
430.72	131.07
430.91	152.13
431.10	135.75
431.28	203.63
431.47	142.77
431.66	184.90
431.85	79.58
432.03	32.77
432.22	168.52
432.41	135.75
432.60	189.58
432.79	131.07
432.97	205.97
433.16	196.60
433.35	117.03
433.54	102.98
433.72	238.73
433.91	112.35
434.10	114.69
434.28	224.69
434.47	138.09
434.66	107.66
434.85	128.73
435.03	140.43
435.22	229.37
435.41	194.26
435.59	166.18
435.78	166.18
435.97	177.88
436.16	220.01
436.34	187.24
436.53	170.86
436.72	175.54
436.90	191.92
437.09	124.05
437.28	182.56
437.46	168.52
437.65	170.86
437.84	217.67
438.02	189.58
438.21	156.82
438.40	191.92
438.58	124.05
438.77	149.79
438.96	196.60
439.14	236.39
439.33	163.84
439.52	175.54
439.70	217.67
439.89	208.31
440.08	128.73
440.26	168.52
440.45	161.50
440.63	156.82
440.82	210.65
441.01	170.86
441.19	149.79
441.38	166.18
441.57	231.71
441.75	173.20
441.94	198.95
442.12	170.86
442.31	121.71
442.50	245.76
442.68	166.18
442.87	196.60
443.05	210.65
443.24	175.54
443.43	152.13
443.61	154.48
443.80	114.69
443.98	203.63
444.17	220.01
444.35	255.12
444.54	156.82
444.73	217.67
444.91	203.63
445.10	198.95
445.28	163.84
445.47	147.45
445.65	264.48
445.84	154.48
446.02	175.54
446.21	166.18
446.39	245.76
446.58	236.39
446.77	210.65
446.95	159.16
447.14	229.37
447.32	182.56
447.51	208.31
447.69	201.29
447.88	210.65
448.06	248.10
448.25	142.77
448.43	248.10
448.62	152.13
448.80	170.86
448.99	198.95
449.17	194.26
449.36	229.37
449.54	173.20
449.73	154.48
449.91	236.39
450.10	142.77
450.28	205.97
450.46	231.71
450.65	227.03
450.83	152.13
451.02	198.95
451.20	177.88
451.39	180.22
451.57	138.09
451.76	196.60
451.94	175.54
452.13	142.77
452.31	243.42
452.49	266.82
452.68	184.90
452.86	119.37
453.05	245.76
453.23	149.79
453.42	142.77
453.60	191.92
453.78	210.65
453.97	191.92
454.15	128.73
454.34	194.26
454.52	138.09
454.70	224.69
454.89	257.46
455.07	135.75
455.26	245.76
455.44	250.44
455.62	149.79
455.81	135.75
455.99	264.48
456.17	236.39
456.36	138.09
456.54	196.60
456.73	124.05
456.91	180.22
457.09	173.20
457.28	145.11
457.46	191.92
457.64	191.92
457.83	191.92
458.01	180.22
458.19	212.99
458.38	215.33
458.56	238.73
458.74	128.73
458.93	229.37
459.11	205.97
459.29	210.65
459.48	203.63
459.66	304.27
459.84	180.22
460.03	229.37
460.21	159.16
460.39	159.16
460.57	138.09
460.76	252.78
460.94	210.65
461.12	212.99
461.31	201.29
461.49	238.73
461.67	238.73
461.85	224.69
462.04	191.92
462.22	580.45
462.40	222.35
462.59	205.97
462.77	142.77
462.95	266.82
463.13	147.45
463.32	180.22
463.50	198.95
463.68	212.99
463.86	180.22
464.05	236.39
464.23	238.73
464.41	180.22
464.59	243.42
464.78	203.63
464.96	168.52
465.14	180.22
465.32	215.33
465.50	222.35
465.69	215.33
465.87	105.32
466.05	241.08
466.23	166.18
466.41	166.18
466.60	241.08
466.78	166.18
466.96	168.52
467.14	229.37
467.32	208.31
467.51	217.67
467.69	259.80
467.87	276.18
468.05	217.67
468.23	241.08
468.41	203.63
468.60	198.95
468.78	243.42
468.96	245.76
469.14	145.11
469.32	163.84
469.50	168.52
469.69	175.54
469.87	184.90
470.05	241.08
470.23	215.33
470.41	245.76
470.59	276.18
470.77	100.64
470.95	173.20
471.14	290.23
471.32	161.50
471.50	278.52
471.68	224.69
471.86	177.88
472.04	201.29
472.22	180.22
472.40	168.52
472.58	194.26
472.77	205.97
472.95	212.99
473.13	255.12
473.31	259.80
473.49	163.84
473.67	205.97
473.85	231.71
474.03	245.76
474.21	215.33
474.39	252.78
474.57	278.52
474.75	304.27
474.93	208.31
475.12	191.92
475.30	229.37
475.48	238.73
475.66	194.26
475.84	175.54
476.02	163.84
476.20	250.44
476.38	222.35
476.56	308.95
476.74	227.03
476.92	189.58
477.10	215.33
477.28	191.92
477.46	182.56
477.64	248.10
477.82	248.10
478.00	245.76
478.18	269.16
478.36	285.55
478.54	290.23
478.72	159.16
478.90	255.12
479.08	334.70
479.26	229.37
479.44	212.99
479.62	236.39
479.80	205.97
479.98	269.16
480.16	255.12
480.34	220.01
480.52	205.97
480.70	276.18
480.88	250.44
481.06	215.33
481.24	238.73
481.41	234.05
481.59	283.20
481.77	262.14
481.95	189.58
482.13	297.25
482.31	245.76
482.49	236.39
482.67	231.71
482.85	358.10
483.03	304.27
483.21	257.46
483.39	222.35
483.57	227.03
483.74	381.51
483.92	180.22
484.10	292.57
484.28	266.82
484.46	271.50
484.64	212.99
484.82	212.99
485.00	229.37
485.18	231.71
485.35	327.68
485.53	220.01
485.71	222.35
485.89	271.50
486.07	222.35
486.25	280.86
486.43	311.29
486.61	287.89
486.78	273.84
486.96	184.90
487.14	252.78
487.32	243.42
487.50	222.35
487.68	383.85
487.85	311.29
488.03	297.25
488.21	339.38
488.39	266.82
488.57	294.91
488.75	301.93
488.92	596.84
489.10	311.29
489.28	280.86
489.46	276.18
489.64	231.71
489.81	355.76
489.99	252.78
490.17	341.72
490.35	374.49
490.53	318.31
490.70	308.95
490.88	292.57
491.06	358.10
491.24	330.02
491.41	311.29
491.59	285.55
491.77	203.63
491.95	339.38
492.13	248.10
492.30	262.14
492.48	299.59
492.66	379.17
492.84	344.06
493.01	360.44
493.19	362.78
493.37	404.91
493.54	306.61
493.72	292.57
493.90	238.73
494.08	285.55
494.25	404.91
494.43	346.40
494.61	367.46
494.79	301.93
494.96	353.42
495.14	337.04
495.32	301.93
495.49	351.08
495.67	374.49
495.85	376.83
496.02	327.68
496.20	411.93
496.38	262.14
496.55	393.21
496.73	367.46
496.91	294.91
497.09	414.27
497.26	388.53
497.44	306.61
497.62	285.55
497.79	360.44
497.97	320.65
498.14	397.89
498.32	346.40
498.50	365.12
498.67	318.31
498.85	362.78
499.03	409.59
499.20	372.15
499.38	358.10
499.56	379.17
499.73	411.93
499.91	374.49
500.08	369.80
500.26	358.10
500.44	395.55
500.61	318.31
500.79	348.74
500.97	379.17
501.14	411.93
501.32	376.83
501.49	374.49
501.67	433.00
501.84	465.77
502.02	388.53
502.20	400.23
502.37	372.15
502.55	418.96
502.72	327.68
502.90	449.38
503.07	472.79
503.25	397.89
503.43	390.87
503.60	344.06
503.78	411.93
503.95	409.59
504.13	386.19
504.30	360.44
504.48	383.85
504.65	423.64
504.83	397.89
505.01	381.51
505.18	421.30
505.36	395.55
505.53	386.19
505.71	362.78
505.88	444.70
506.06	400.23
506.23	383.85
506.41	409.59
506.58	337.04
506.76	463.43
506.93	372.15
507.11	414.27
507.28	416.62
507.46	344.06
507.63	400.23
507.81	397.89
507.98	341.72
508.16	348.74
508.33	388.53
508.50	395.55
508.68	411.93
508.85	411.93
509.03	360.44
509.20	395.55
509.38	379.17
509.55	428.32
509.73	479.81
509.90	423.64
510.08	365.12
510.25	390.87
510.42	360.44
510.60	458.74
510.77	428.32
510.95	425.98
511.12	444.70
511.30	561.73
511.47	379.17
511.64	458.74
511.82	404.91
511.99	367.46
512.17	383.85
512.34	376.83
512.51	367.46
512.69	416.62
512.86	461.09
513.04	440.02
513.21	393.21
513.38	440.02
513.56	484.49
513.73	423.64
513.90	428.32
514.08	433.00
514.25	372.15
514.43	454.06
514.60	404.91
514.77	400.23
514.95	423.64
515.12	344.06
515.29	444.70
515.47	360.44
515.64	395.55
515.81	334.70
515.99	545.34
516.16	393.21
516.33	444.70
516.51	369.80
516.68	362.78
516.85	407.25
517.03	358.10
517.20	409.59
517.37	489.17
517.54	416.62
517.72	451.72
517.89	407.25
518.06	416.62
518.24	465.77
518.41	404.91
518.58	360.44
518.75	404.91
518.93	390.87
519.10	454.06
519.27	322.99
519.45	397.89
519.62	369.80
519.79	454.06
519.96	386.19
520.14	437.68
520.31	535.98
520.48	498.53
520.65	454.06
520.83	458.74
521.00	475.13
521.17	547.69
521.34	393.21
521.52	442.36
521.69	409.59
521.86	442.36
522.03	472.79
522.20	507.90
522.38	470.45
522.55	425.98
522.72	425.98
522.89	465.77
523.07	440.02
523.24	533.64
523.41	409.59
523.58	463.43
523.75	458.74
523.92	521.94
524.10	390.87
524.27	449.38
524.44	503.22
524.61	458.74
524.78	463.43
524.96	461.09
525.13	421.30
525.30	437.68
525.47	348.74
525.64	423.64
525.81	449.38
525.98	472.79
526.16	400.23
526.33	425.98
526.50	477.47
526.67	557.05
526.84	409.59
527.01	463.43
527.18	470.45
527.36	486.83
527.53	472.79
527.70	468.11
527.87	400.23
528.04	540.66
528.21	470.45
528.38	510.24
528.55	430.66
528.72	498.53
528.89	533.64
529.07	461.09
529.24	435.34
529.41	578.11
529.58	531.30
529.75	458.74
529.92	486.83
530.09	390.87
530.26	435.34
530.43	505.56
530.60	465.77
530.77	535.98
530.94	510.24
531.11	521.94
531.28	512.58
531.46	477.47
531.63	465.77
531.80	505.56
531.97	512.58
532.14	454.06
532.31	416.62
532.48	411.93
532.65	435.34
532.82	451.72
532.99	442.36
533.16	470.45
533.33	507.90
533.50	425.98
533.67	425.98
533.84	454.06
534.01	510.24
534.18	491.51
534.35	491.51
534.52	423.64
534.69	545.34
534.86	524.28
535.03	517.26
535.20	461.09
535.37	435.34
535.54	463.43
535.71	484.49
535.88	461.09
536.05	479.81
536.22	479.81
536.38	435.34
536.55	430.66
536.72	449.38
536.89	341.72
537.06	519.60
537.23	409.59
537.40	449.38
537.57	571.09
537.74	425.98
537.91	468.11
538.08	514.92
538.25	411.93
538.42	440.02
538.59	451.72
538.75	470.45
538.92	479.81
539.09	477.47
539.26	451.72
539.43	514.92
539.60	521.94
539.77	524.28
539.94	451.72
540.11	444.70
540.28	533.64
540.44	498.53
540.61	486.83
540.78	435.34
540.95	514.92
541.12	578.11
541.29	433.00
541.46	547.69
541.62	416.62
541.79	503.22
541.96	461.09
542.13	465.77
542.30	535.98
542.47	510.24
542.63	510.24
542.80	491.51
542.97	463.43
543.14	521.94
543.31	528.96
543.48	458.74
543.64	550.03
543.81	465.77
543.98	461.09
544.15	442.36
544.32	538.32
544.48	514.92
544.65	461.09
544.82	484.49
544.99	486.83
545.16	517.26
545.32	463.43
545.49	512.58
545.66	486.83
545.83	435.34
546.00	451.72
546.16	503.22
546.33	566.41
546.50	461.09
546.67	526.62
546.83	519.60
547.00	395.55
547.17	470.45
547.34	472.79
547.50	479.81
547.67	491.51
547.84	582.79
548.00	578.11
548.17	479.81
548.34	461.09
548.51	540.66
548.67	526.62
548.84	517.26
549.01	470.45
549.18	477.47
549.34	496.19
549.51	444.70
549.68	528.96
549.84	526.62
550.01	486.83
550.18	631.94
550.34	582.79
550.51	463.43
550.68	540.66
550.84	573.43
551.01	594.50
551.18	503.22
551.34	540.66
551.51	557.05
551.68	484.49
551.84	479.81
552.01	500.87
552.18	383.85
552.34	521.94
552.51	547.69
552.68	531.30
552.84	498.53
553.01	496.19
553.18	421.30
553.34	477.47
553.51	433.00
553.67	531.30
553.84	538.32
554.01	512.58
554.17	493.85
554.34	444.70
554.51	540.66
554.67	449.38
554.84	468.11
555.00	475.13
555.17	519.60
555.33	620.24
555.50	482.15
555.67	550.03
555.83	510.24
556.00	463.43
556.16	653.01
556.33	550.03
556.50	486.83
556.66	447.04
556.83	397.89
556.99	512.58
557.16	456.40
557.32	498.53
557.49	557.05
557.65	510.24
557.82	379.17
557.98	554.71
558.15	444.70
558.32	571.09
558.48	514.92
558.65	451.72
558.81	496.19
558.98	535.98
559.14	538.32
559.31	430.66
559.47	524.28
559.64	451.72
559.80	458.74
559.97	521.94
560.13	489.17
560.30	475.13
560.46	461.09
560.63	489.17
560.79	435.34
560.96	526.62
561.12	456.40
561.29	458.74
561.45	458.74
561.61	484.49
561.78	580.45
561.94	416.62
562.11	482.15
562.27	500.87
562.44	444.70
562.60	486.83
562.77	461.09
562.93	517.26
563.10	573.43
563.26	507.90
563.42	507.90
563.59	468.11
563.75	479.81
563.92	493.85
564.08	470.45
564.24	510.24
564.41	496.19
564.57	479.81
564.74	505.56
564.90	528.96
565.07	440.02
565.23	484.49
565.39	500.87
565.56	535.98
565.72	491.51
565.88	528.96
566.05	514.92
566.21	559.39
566.38	505.56
566.54	489.17
566.70	582.79
566.87	540.66
567.03	489.17
567.19	505.56
567.36	447.04
567.52	444.70
567.68	557.05
567.85	524.28
568.01	489.17
568.17	510.24
568.34	510.24
568.50	491.51
568.66	491.51
568.83	528.96
568.99	402.57
569.15	475.13
569.32	465.77
569.48	416.62
569.64	428.32
569.81	559.39
569.97	449.38
570.13	496.19
570.30	463.43
570.46	454.06
570.62	491.51
570.78	456.40
570.95	435.34
571.11	519.60
571.27	550.03
571.43	435.34
571.60	444.70
571.76	416.62
571.92	465.77
572.09	463.43
572.25	458.74
572.41	454.06
572.57	397.89
572.74	482.15
572.90	489.17
573.06	477.47
573.22	496.19
573.38	482.15
573.55	557.05
573.71	454.06
573.87	510.24
574.03	425.98
574.20	479.81
574.36	498.53
574.52	400.23
574.68	531.30
574.84	493.85
575.01	514.92
575.17	484.49
575.33	451.72
575.49	524.28
575.65	547.69
575.82	531.30
575.98	528.96
576.14	500.87
576.30	528.96
576.46	503.22
576.62	409.59
576.79	463.43
576.95	498.53
577.11	503.22
577.27	468.11
577.43	463.43
577.59	489.17
577.75	498.53
577.92	463.43
578.08	386.19
578.24	463.43
578.40	484.49
578.56	512.58
578.72	498.53
578.88	535.98
579.04	491.51
579.21	428.32
579.37	538.32
579.53	465.77
579.69	514.92
579.85	444.70
580.01	561.73
580.17	484.49
580.33	554.71
580.49	482.15
580.65	528.96
580.82	484.49
580.98	496.19
581.14	554.71
581.30	545.34
581.46	496.19
581.62	482.15
581.78	449.38
581.94	479.81
582.10	510.24
582.26	507.90
582.42	482.15
582.58	463.43
582.74	440.02
582.90	400.23
583.06	547.69
583.22	491.51
583.38	500.87
583.54	526.62
583.70	510.24
583.86	437.68
584.02	397.89
584.18	526.62
584.34	533.64
584.50	519.60
584.66	463.43
584.82	442.36
584.98	510.24
585.14	472.79
585.30	475.13
585.46	496.19
585.62	503.22
585.78	418.96
585.94	533.64
586.10	498.53
586.26	451.72
586.42	550.03
586.58	433.00
586.74	486.83
586.90	470.45
587.06	519.60
587.22	418.96
587.38	407.25
587.54	500.87
587.70	526.62
587.86	545.34
588.02	447.04
588.18	519.60
588.34	564.07
588.49	472.79
588.65	486.83
588.81	486.83
588.97	484.49
589.13	489.17
589.29	458.74
589.45	491.51
589.61	475.13
589.77	470.45
589.93	472.79
590.08	489.17
590.24	470.45
590.40	465.77
590.56	468.11
590.72	440.02
590.88	496.19
591.04	482.15
591.20	465.77
591.35	510.24
591.51	484.49
591.67	456.40
591.83	430.66
591.99	365.12
592.15	414.27
592.31	496.19
592.46	507.90
592.62	447.04
592.78	451.72
592.94	449.38
593.10	365.12
593.26	395.55
593.41	463.43
593.57	440.02
593.73	456.40
593.89	519.60
594.05	461.09
594.20	461.09
594.36	472.79
594.52	489.17
594.68	435.34
594.84	423.64
594.99	486.83
595.15	456.40
595.31	416.62
595.47	550.03
595.62	463.43
595.78	496.19
595.94	514.92
596.10	486.83
596.25	414.27
596.41	451.72
596.57	430.66
596.73	463.43
596.88	503.22
597.04	503.22
597.20	465.77
597.36	437.68
597.51	472.79
597.67	468.11
597.83	447.04
597.99	552.37
598.14	416.62
598.30	538.32
598.46	465.77
598.61	524.28
598.77	435.34
598.93	482.15
599.09	456.40
599.24	540.66
599.40	484.49
599.56	498.53
599.71	435.34
599.87	489.17
600.03	531.30
600.18	465.77
600.34	440.02
600.50	456.40
600.65	447.04
600.81	496.19
600.97	517.26
601.12	454.06
601.28	526.62
601.44	433.00
601.59	379.17
601.75	493.85
601.91	416.62
602.06	496.19
602.22	543.00
602.37	437.68
602.53	550.03
602.69	454.06
602.84	414.27
603.00	482.15
603.16	503.22
603.31	383.85
603.47	503.22
603.62	479.81
603.78	531.30
603.94	538.32
604.09	482.15
604.25	491.51
604.40	465.77
604.56	575.77
604.71	475.13
604.87	484.49
605.03	486.83
605.18	463.43
605.34	454.06
605.49	388.53
605.65	454.06
605.80	454.06
605.96	489.17
606.12	428.32
606.27	414.27
606.43	428.32
606.58	414.27
606.74	435.34
606.89	456.40
607.05	437.68
607.20	409.59
607.36	566.41
607.51	397.89
607.67	397.89
607.82	482.15
607.98	491.51
608.13	428.32
608.29	365.12
608.44	489.17
608.60	421.30
608.75	479.81
608.91	449.38
609.06	521.94
609.22	465.77
609.37	421.30
609.53	470.45
609.68	379.17
609.84	416.62
609.99	421.30
610.15	461.09
610.30	442.36
610.46	484.49
610.61	484.49
610.76	519.60
610.92	491.51
611.07	386.19
611.23	498.53
611.38	477.47
611.54	416.62
611.69	477.47
611.84	404.91
612.00	451.72
