SpectraSuite Data File
++++++++++++++++++++++++++++++++++++
Date: Fri Oct 04 11:48:46 GMT-05:00 2013
User: price-jones
Dark Spectrum Present: No
Reference Spectrum Present: No
Number of Sampled Component Spectra: 1
Spectrometers: USB2+H05261
Integration Time (usec): 100000 (USB2+H05261)
Spectra Averaged: 1 (USB2+H05261)
Boxcar Smoothing: 0 (USB2+H05261)
Correct for Electrical Dark: No (USB2+H05261)
Strobe/Lamp Enabled: No (USB2+H05261)
Correct for Detector Non-linearity: No (USB2+H05261)
Correct for Stray Light: No (USB2+H05261)
Number of Pixels in Processed Spectrum: 2048
>>>>>Begin Processed Spectral Data<<<<<
365.73	105.32
365.92	105.32
366.12	105.32
366.32	0.00
366.52	0.00
366.72	0.00
366.91	0.00
367.11	0.00
367.31	0.00
367.51	0.00
367.70	0.00
367.90	0.00
368.10	0.00
368.30	0.00
368.49	0.00
368.69	0.00
368.89	0.00
369.09	0.00
369.28	0.00
369.48	0.00
369.68	0.00
369.87	0.00
370.07	0.00
370.27	0.00
370.47	77.24
370.66	341.72
370.86	311.29
371.06	355.76
371.25	433.00
371.45	355.76
371.65	484.49
371.84	376.83
372.04	308.95
372.24	325.33
372.44	416.62
372.63	507.90
372.83	517.26
373.03	517.26
373.22	390.87
373.42	561.73
373.62	519.60
373.81	484.49
374.01	498.53
374.21	489.17
374.40	484.49
374.60	557.05
374.79	456.40
374.99	514.92
375.19	535.98
375.38	606.20
375.58	603.86
375.78	624.92
375.97	615.56
376.17	587.47
376.37	519.60
376.56	465.77
376.76	468.11
376.95	514.92
377.15	540.66
377.35	554.71
377.54	655.35
377.74	552.37
377.93	631.94
378.13	512.58
378.33	545.34
378.52	603.86
378.72	613.22
378.91	606.20
379.11	557.05
379.31	638.97
379.50	608.54
379.70	617.90
379.89	685.78
380.09	535.98
380.28	620.24
380.48	620.24
380.68	589.82
380.87	610.88
381.07	638.97
381.26	622.58
381.46	683.44
381.65	695.14
381.85	746.63
382.04	718.54
382.24	737.27
382.43	697.48
382.63	688.12
382.83	671.73
383.02	718.54
383.22	699.82
383.41	699.82
383.61	716.20
383.80	730.25
384.00	718.54
384.19	737.27
384.39	779.40
384.58	748.97
384.78	767.70
384.97	784.08
385.17	758.33
385.36	695.14
385.56	784.08
385.75	695.14
385.95	678.76
386.14	793.44
386.34	814.51
386.53	772.38
386.72	718.54
386.92	901.11
387.11	851.96
387.31	877.70
387.50	866.00
387.70	842.59
387.89	868.34
388.09	828.55
388.28	849.61
388.48	884.72
388.67	873.02
388.86	882.38
389.06	917.49
389.25	915.15
389.45	889.40
389.64	978.34
389.84	891.74
390.03	919.83
390.22	1004.09
390.42	936.21
390.61	1018.13
390.81	994.73
391.00	992.39
391.19	983.02
391.39	1022.81
391.58	1008.77
391.78	1027.50
391.97	1062.60
392.16	943.24
392.36	1060.26
392.55	1053.24
392.75	1118.78
392.94	1064.94
393.13	1135.16
393.33	1025.15
393.52	1081.33
393.71	1050.90
393.91	1121.12
394.10	1116.44
394.29	1153.88
394.49	1034.52
394.68	1158.57
394.88	1097.71
395.07	1200.69
395.26	1233.46
395.46	1177.29
395.65	1240.48
395.84	1158.57
396.04	1322.40
396.23	1184.31
396.42	1135.16
396.62	1242.82
396.81	1191.33
397.00	1254.53
397.19	1205.38
397.39	1313.04
397.58	1198.35
397.77	1369.21
397.97	1357.51
398.16	1284.95
398.35	1284.95
398.55	1380.92
398.74	1439.43
398.93	1397.30
399.12	1437.09
399.32	1352.83
399.51	1439.43
399.70	1502.62
399.90	1481.56
400.09	1521.35
400.28	1441.77
400.47	1561.14
400.67	1504.96
400.86	1554.12
401.05	1441.77
401.24	1603.27
401.44	1570.50
401.63	1490.92
401.82	1561.14
402.01	1607.95
402.21	1654.76
402.40	1640.72
402.59	1621.99
402.78	1722.63
402.97	1645.40
403.17	1706.25
403.36	1605.61
403.55	1746.04
403.74	1727.32
403.93	1706.25
404.13	1884.13
404.32	1783.49
404.51	1762.42
404.70	1853.70
404.89	1795.19
405.09	1830.30
405.28	1783.49
405.47	1898.17
405.66	1853.70
405.85	1860.73
406.05	1893.49
406.24	1930.94
406.43	2043.29
406.62	2001.16
406.81	2097.12
407.00	1867.75
407.20	1949.67
407.39	1980.09
407.58	2134.57
407.77	2104.14
407.96	2157.97
408.15	2263.30
408.34	2153.29
408.54	2193.08
408.73	2160.31
408.92	2080.74
409.11	2239.89
409.30	2260.96
409.49	2277.34
409.68	2282.02
409.87	2174.36
410.07	2326.49
410.26	2310.11
410.45	2370.96
410.64	2345.22
410.83	2370.96
411.02	2459.90
411.21	2523.10
411.40	2602.68
411.59	2548.84
411.78	2609.70
411.98	2457.56
412.17	2698.64
412.36	2621.40
412.55	2733.75
412.74	2675.23
412.93	2801.62
413.12	2747.79
413.31	2803.96
413.50	2895.24
413.69	2771.19
413.88	2874.18
414.07	2916.31
414.26	2946.73
414.45	2775.88
414.64	2920.99
414.83	3009.93
415.02	2946.73
415.22	3105.89
415.41	3176.11
415.60	3110.57
415.79	3159.72
415.98	3260.37
416.17	3115.25
416.36	3178.45
416.55	3293.13
416.74	3251.00
416.93	3260.37
417.12	3272.07
417.31	3358.67
417.50	3351.65
417.69	3417.18
417.88	3529.53
418.07	3548.25
418.26	3564.64
418.45	3475.70
418.64	3545.91
418.83	3639.53
419.02	3655.92
419.21	3726.13
419.39	3721.45
419.58	3669.96
419.77	3508.46
419.96	3730.81
420.15	3726.13
420.34	3700.39
420.53	3684.00
420.72	3758.90
420.91	3943.80
421.10	3981.25
421.29	4063.17
421.48	3747.20
421.67	3960.19
421.86	3913.38
422.05	3894.65
422.24	3904.01
422.43	3981.25
422.61	3950.82
422.80	4128.70
422.99	3988.27
423.18	4056.15
423.37	4156.79
423.56	4025.72
423.75	4077.21
423.94	3932.10
424.13	3845.50
424.32	3901.67
424.50	4236.37
424.69	4044.45
424.88	4259.78
425.07	4084.23
425.26	4014.02
425.45	4039.76
425.64	4044.45
425.83	4259.78
426.01	4166.15
426.20	4152.11
426.39	4121.68
426.58	4070.19
426.77	4039.76
426.96	4255.09
427.15	4152.11
427.33	4161.47
427.52	4117.00
427.71	4437.66
427.90	4432.97
428.09	4315.95
428.28	4416.59
428.46	4297.22
428.65	4313.61
428.84	4622.56
429.03	4402.55
429.22	4397.87
429.40	4365.10
429.59	4603.83
429.78	4311.27
429.97	4463.40
430.16	4463.40
430.34	4613.20
430.53	4575.75
430.72	4681.07
430.91	4564.04
431.10	4437.66
431.28	4620.22
431.47	4802.78
431.66	4718.52
431.85	4692.77
432.03	4952.57
432.22	4910.44
432.41	4997.04
432.60	4933.85
432.79	4772.35
432.97	4992.36
433.16	4973.64
433.35	4917.47
433.54	4924.49
433.72	4908.10
433.91	4807.46
434.10	5036.83
434.28	4973.64
434.47	5093.01
434.66	5151.52
434.85	5170.24
435.03	5235.78
435.22	5296.63
435.41	5301.31
435.59	5163.22
435.78	5352.81
435.97	5378.55
436.16	5263.86
436.34	5488.56
436.53	5474.51
436.72	5495.58
436.90	5376.21
437.09	5416.00
437.28	5280.25
437.46	5437.06
437.65	5701.54
437.84	5678.14
438.02	5643.03
438.21	5507.28
438.40	5554.09
438.58	5834.96
438.77	5874.74
438.96	5813.89
439.14	5942.62
439.33	5870.06
439.52	5998.79
439.70	6010.50
439.89	6015.18
440.08	6064.33
440.26	6097.10
440.45	6195.40
440.63	6244.55
440.82	6085.39
441.01	6167.31
441.19	6310.08
441.38	6307.74
441.57	6363.92
441.75	6403.71
441.94	6682.23
442.12	6544.14
442.31	6567.54
442.50	6558.18
442.68	6644.78
442.87	6612.01
443.05	6609.67
443.24	6869.47
443.43	6729.04
443.61	6860.11
443.80	6942.03
443.98	6649.46
444.17	6738.40
444.35	6918.62
444.54	7021.61
444.73	6869.47
444.91	6750.10
445.10	6885.86
445.28	6792.23
445.47	6860.11
445.65	6881.18
445.84	6862.45
446.02	7194.81
446.21	7119.91
446.39	6965.43
446.58	7239.28
446.77	7000.54
446.95	6757.13
447.14	7098.84
447.32	7112.89
447.51	6970.12
447.69	7112.89
447.88	6986.50
448.06	7133.95
448.25	7173.74
448.43	7082.46
448.62	7190.13
448.80	7014.59
448.99	7159.70
449.17	7304.81
449.36	7171.40
449.54	7403.11
449.73	7239.28
449.91	7360.98
450.10	7211.19
450.28	7634.83
450.46	7485.03
450.65	7606.74
450.83	7602.06
451.02	7400.77
451.20	7637.17
451.39	7578.65
451.57	7531.84
451.76	7536.52
451.94	7531.84
452.13	7627.81
452.31	7775.26
452.49	7730.79
452.68	7709.72
452.86	7824.41
453.05	7798.66
453.23	7786.96
453.42	7920.37
453.60	7836.11
453.78	7892.29
453.97	7719.09
454.15	8032.72
454.34	7990.59
454.52	8140.38
454.70	8086.55
454.89	8168.47
455.07	8210.60
455.26	8053.78
455.44	8177.83
455.62	8159.11
455.81	8152.09
455.99	8367.42
456.17	8418.91
456.36	8409.54
456.54	8542.96
456.73	8463.38
456.91	8610.83
457.09	8524.23
457.28	8650.62
457.46	8318.26
457.64	8709.13
457.83	8695.09
458.01	8662.32
458.19	8879.99
458.38	8751.26
458.56	8835.52
458.74	8734.88
458.93	8791.05
459.11	8933.82
459.29	8737.22
459.48	9074.26
459.66	8908.08
459.84	8994.68
460.03	9109.36
460.21	9172.56
460.39	9130.43
460.57	9137.45
460.76	9158.52
460.94	9118.73
461.12	9205.33
461.31	9193.62
461.49	9142.13
461.67	9146.81
461.85	9408.95
462.04	9324.69
462.22	9881.74
462.40	9631.30
462.59	9495.55
462.77	9516.62
462.95	9678.12
463.13	9781.10
463.32	9785.78
463.50	9834.93
463.68	9593.86
463.86	9944.94
464.05	9561.09
464.23	9767.06
464.41	9776.42
464.59	9748.33
464.78	10024.51
464.96	10008.13
465.14	9839.61
465.32	10029.20
465.50	10036.22
465.69	10202.40
465.87	10024.51
466.05	9900.47
466.23	9919.19
466.41	10017.49
466.60	10326.44
466.78	10024.51
466.96	10031.54
467.14	10024.51
467.32	10197.71
467.51	10377.94
467.69	10115.80
467.87	10326.44
468.05	10370.91
468.23	10251.55
468.41	10230.48
468.60	10394.32
468.78	10525.39
468.96	10478.58
469.14	10771.15
469.32	10710.29
469.50	10518.37
469.69	10640.08
469.87	11047.33
470.05	10892.85
470.23	10733.70
470.41	10604.97
470.59	10937.32
470.77	10817.96
470.95	10986.47
471.14	11054.35
471.32	10918.60
471.50	11190.10
471.68	11176.06
471.86	11061.37
472.04	11232.23
472.22	11646.51
472.40	11389.05
472.58	11386.71
472.77	11538.84
472.95	11562.25
473.13	12037.38
473.31	11419.47
473.49	11768.21
473.67	11852.47
473.85	11716.72
474.03	12035.03
474.21	11906.31
474.39	12112.27
474.57	12212.92
474.75	12271.43
474.93	12400.16
475.12	12329.94
475.30	12407.18
475.48	12336.96
475.66	12580.38
475.84	12353.35
476.02	12755.92
476.20	12582.72
476.38	13006.36
476.56	13060.19
476.74	13149.13
476.92	12994.65
477.10	13057.85
477.28	13713.20
477.46	13415.95
477.64	13593.83
477.82	13804.48
478.00	14080.66
478.18	13923.85
478.36	14008.11
478.54	14429.40
478.72	14155.56
478.90	14368.55
479.08	14457.49
479.26	14408.34
479.44	14640.05
479.62	14815.59
479.80	14717.29
479.98	15000.49
480.16	14986.45
480.34	15286.04
480.52	15433.49
480.70	15335.19
480.88	15400.72
481.06	15594.99
481.24	15695.63
481.41	15613.71
481.59	16023.31
481.77	16100.55
481.95	15957.77
482.13	16095.86
482.31	16189.49
482.49	16535.88
482.67	16582.70
482.85	16688.02
483.03	17055.48
483.21	17102.29
483.39	17305.92
483.57	17399.54
483.74	17657.00
483.92	17792.75
484.10	17238.05
484.28	17900.42
484.46	18328.74
484.64	18518.32
484.82	18232.77
485.00	18338.10
485.18	18750.03
485.35	18757.05
485.53	19054.30
485.71	19009.83
485.89	19543.47
486.07	19112.81
486.25	19131.54
486.43	19470.92
486.61	19782.21
486.78	19906.26
486.96	20114.56
487.14	20372.02
487.32	20458.62
487.50	20360.32
487.68	20772.25
487.85	21013.33
488.03	21179.51
488.21	21303.56
488.39	21380.79
488.57	21216.96
488.75	21565.70
488.92	22029.12
489.10	21977.63
489.28	22237.43
489.46	22551.06
489.64	22185.94
489.81	22946.61
489.99	22946.61
490.17	22974.70
490.35	23454.51
490.53	23211.09
490.70	23866.44
490.88	23508.34
491.06	23857.08
491.24	23307.05
491.41	23985.81
491.59	24133.26
491.77	24189.44
491.95	24437.53
492.13	24744.14
492.30	24746.48
492.48	24819.04
492.66	25048.41
492.84	24982.88
493.01	25462.69
493.19	25282.47
493.37	25926.11
493.54	25415.88
493.72	26197.62
493.90	25741.21
494.08	26174.21
494.25	26611.89
494.43	26712.53
494.61	26670.40
494.79	27164.26
494.96	27124.47
495.14	26986.38
495.32	27459.16
495.49	27672.15
495.67	27281.28
495.85	28224.52
496.02	28184.73
496.20	27828.97
496.38	27985.79
496.55	28425.81
496.73	29146.69
496.91	28655.18
497.09	29214.57
497.26	28982.85
497.44	28964.13
497.62	29067.11
497.79	29233.29
497.97	29408.83
498.14	30132.06
498.32	29778.64
498.50	30167.16
498.67	30396.54
498.85	30096.95
499.03	30387.18
499.20	30359.09
499.38	30497.18
499.56	30698.47
499.73	31299.98
499.91	30415.26
500.08	31372.54
500.26	30866.98
500.44	31208.70
500.61	31122.10
500.79	31475.52
500.97	31555.10
501.14	31784.48
501.32	32205.77
501.49	31964.70
501.67	32102.79
501.84	32414.08
502.02	32231.52
502.20	32940.70
502.37	32837.72
502.55	32793.25
502.72	33284.76
502.90	32980.49
503.07	32615.37
503.25	33078.79
503.43	33191.14
503.60	33359.66
503.78	33329.23
503.95	33394.76
504.13	33696.69
504.30	33759.89
504.48	33699.03
504.65	34188.21
504.83	34054.79
505.01	34866.96
505.18	34099.26
505.36	34450.35
505.53	34277.15
505.71	34597.80
505.88	34801.43
506.06	34300.55
506.23	35225.06
506.41	35182.93
506.58	34993.35
506.76	35309.32
506.93	35433.37
507.11	35253.15
507.28	35278.89
507.46	35660.40
507.63	35711.89
507.81	35875.73
507.98	36079.36
508.16	36222.13
508.33	36121.49
508.50	36311.07
508.68	36116.81
508.85	36613.00
509.03	36673.85
509.20	37076.43
509.38	37385.38
509.55	37497.72
509.73	37017.91
509.90	37170.05
510.08	37347.93
510.25	37177.07
510.42	37773.91
510.60	38143.71
510.77	37483.68
510.95	37799.65
511.12	37483.68
511.30	37982.21
511.47	38242.01
511.64	38298.19
511.82	38361.38
511.99	38857.57
512.17	38417.55
512.34	38817.78
512.51	38831.83
512.69	39199.29
512.86	38801.40
513.04	39115.03
513.21	39536.33
513.38	39318.66
513.56	39473.13
513.73	39342.06
513.90	39461.43
514.08	39489.52
514.25	39798.47
514.43	39707.19
514.60	40002.10
514.77	40140.19
514.95	39861.66
515.12	40051.25
515.29	40313.39
515.47	39922.52
515.64	40528.72
515.81	40336.79
515.99	40596.59
516.16	40659.79
516.33	40582.55
516.51	41432.16
516.68	40795.54
516.85	41214.49
517.03	41521.10
517.20	41495.36
517.37	41511.74
517.54	41336.20
517.72	41535.15
517.89	41579.62
518.06	41701.32
518.24	41399.40
518.41	41708.35
518.58	41916.65
518.75	42429.23
518.93	42351.99
519.10	42223.26
519.27	42134.32
519.45	42511.15
519.62	42195.18
519.79	42398.80
519.96	42642.22
520.14	42834.14
520.31	43070.54
520.48	43124.37
520.65	43145.44
520.83	43047.13
521.00	43185.22
521.17	43157.14
521.34	43103.31
521.52	43342.04
521.69	43583.12
521.86	43501.20
522.03	43583.12
522.20	43789.08
522.38	43964.62
522.55	43838.23
522.72	43981.01
522.89	44114.42
523.07	44685.51
523.24	44189.31
523.41	44215.06
523.58	44304.00
523.75	45022.54
523.92	44339.11
524.10	44275.91
524.27	44605.93
524.44	44975.73
524.61	45322.13
524.78	45275.32
524.96	45031.91
525.13	45331.50
525.30	45055.31
525.47	45322.13
525.64	45352.56
525.81	45439.16
525.98	45296.39
526.16	45490.65
526.33	45280.00
526.50	45914.29
526.67	45956.42
526.84	45642.79
527.01	45680.24
527.18	46288.77
527.36	46129.62
527.53	46361.33
527.70	46316.86
527.87	46403.46
528.04	46134.30
528.21	46120.26
528.38	46141.32
528.55	46277.07
528.72	46351.97
528.89	46548.57
529.07	46852.84
529.24	46700.71
529.41	47210.95
529.58	46410.48
529.75	46574.32
529.92	46960.51
530.09	47178.18
530.26	47388.83
530.43	47437.98
530.60	47227.33
530.77	46974.55
530.94	47063.49
531.11	47154.77
531.28	47079.88
531.46	47327.97
531.63	47650.97
531.80	47973.96
531.97	47948.21
532.14	47547.98
532.31	47426.28
532.48	47379.46
532.65	47903.74
532.82	47782.04
532.99	48165.88
533.16	47920.13
533.33	48222.06
533.50	48783.79
533.67	48280.57
533.84	48215.04
534.01	48186.95
534.18	47943.53
534.35	48685.48
534.52	48596.54
534.69	48715.91
534.86	49066.99
535.03	48713.57
535.20	48776.76
535.37	48725.27
535.54	48919.54
535.71	48186.95
535.88	48343.77
536.05	48921.88
536.22	49223.81
536.38	48673.78
536.55	49230.83
536.72	49113.80
536.89	49139.55
537.06	49181.68
537.23	49600.63
537.40	49158.27
537.57	49453.18
537.74	49272.96
537.91	49705.96
538.08	49801.92
538.25	49460.20
538.42	49708.30
538.59	50019.59
538.75	49923.63
538.92	49324.45
539.09	50157.68
539.26	49703.62
539.43	49888.52
539.60	49614.68
539.77	49701.28
539.94	50183.43
540.11	50129.59
540.28	50195.13
540.44	50028.95
540.61	50122.57
540.78	50204.49
540.95	50361.31
541.12	50218.53
541.29	50122.57
541.46	50349.60
541.62	50471.31
541.79	50417.48
541.96	50375.35
542.13	50501.74
542.30	50733.45
542.47	50784.94
542.63	50644.51
542.80	50705.37
542.97	51313.90
543.14	51203.90
543.31	50908.99
543.48	51161.77
543.64	51552.64
543.81	51260.07
543.98	51482.42
544.15	51428.59
544.32	51526.89
544.48	51592.43
544.65	51047.08
544.82	51463.70
544.99	51105.60
545.16	51573.70
545.32	51405.19
545.49	51306.88
545.66	51728.18
545.83	51948.19
546.00	52016.07
546.16	51885.00
546.33	51650.94
546.50	51473.06
546.67	51557.32
546.83	51540.94
547.00	51660.30
547.17	51679.03
547.34	51779.67
547.50	51894.36
547.67	52168.20
547.84	51866.27
548.00	52226.71
548.17	52107.35
548.34	52076.92
548.51	52460.77
548.67	52435.02
548.84	52465.45
549.01	52420.98
549.18	52224.37
549.34	52156.50
549.51	52477.15
549.68	52252.46
549.84	52339.06
550.01	52360.12
550.18	52442.04
550.34	52638.65
550.51	52978.03
550.68	52547.37
550.84	52172.88
551.01	52605.88
551.18	52708.86
551.34	52397.57
551.51	52526.30
551.68	53003.77
551.84	52692.48
552.01	52631.63
552.18	53516.35
552.34	52952.28
552.51	52884.40
552.68	52736.95
552.84	52814.19
553.01	53118.46
553.18	52807.17
553.34	53179.31
553.51	53064.63
553.67	53254.21
553.84	53509.33
554.01	53279.96
554.17	53102.07
554.34	53219.10
554.51	53186.33
554.67	53284.64
554.84	53249.53
555.00	53291.66
555.17	53308.04
555.33	53436.77
555.50	53647.42
555.67	53254.21
555.83	53368.90
556.00	53471.88
556.16	53668.48
556.33	53523.37
556.50	53310.38
556.66	53394.64
556.83	53439.11
556.99	53645.08
557.16	53799.55
557.32	53560.82
557.49	53837.00
557.65	53544.44
557.82	53333.79
557.98	53523.37
558.15	53677.85
558.32	53855.73
558.48	53736.36
558.65	53801.89
558.81	53876.79
558.98	53778.49
559.14	53914.24
559.31	53595.93
559.47	53930.62
559.64	53921.26
559.80	54010.20
559.97	53972.75
560.13	53921.26
560.30	54234.89
560.46	54230.21
560.63	54195.10
560.79	53998.50
560.96	54073.40
561.12	53900.20
561.29	54120.21
561.45	54281.70
561.61	54382.35
561.78	54162.34
561.94	54518.10
562.11	54141.27
562.27	54220.85
562.44	54152.97
562.60	54066.38
562.77	54677.25
562.93	53949.35
563.10	54473.63
563.26	54321.49
563.42	54337.88
563.59	54326.17
563.75	54534.48
563.92	54492.35
564.08	54302.77
564.24	54190.42
564.41	53914.24
564.57	54356.60
564.74	54078.08
564.90	54480.65
565.07	54836.41
565.23	54695.98
565.39	54555.55
565.56	54375.33
565.72	54253.62
565.88	54447.88
566.05	54410.43
566.21	54546.18
566.38	54447.88
566.54	54550.87
566.70	54850.45
566.87	54770.88
567.03	54569.59
567.19	54845.77
567.36	54621.08
567.52	54464.27
567.68	54831.73
567.85	54602.36
568.01	54461.93
568.17	54707.68
568.34	54791.94
568.50	54642.15
568.66	54768.54
568.83	54770.88
568.99	54564.91
569.15	54574.27
569.32	54508.74
569.48	54560.23
569.64	54876.20
569.81	54679.60
569.97	54660.87
570.13	54703.00
570.30	54564.91
570.46	54714.70
570.62	54768.54
570.78	54815.35
570.95	54543.84
571.11	54892.58
571.27	54473.63
571.43	54667.89
571.60	54780.24
571.76	54923.01
571.92	54932.37
572.09	54915.99
572.25	55018.97
572.41	54768.54
572.57	54932.37
572.74	54934.71
572.90	54681.94
573.06	54482.99
573.22	54789.60
573.38	55171.11
573.55	54948.76
573.71	55154.72
573.87	55103.23
574.03	54864.50
574.20	54920.67
574.36	54810.67
574.52	54836.41
574.68	54639.81
574.84	54660.87
575.01	55023.65
575.17	55182.81
575.33	54855.14
575.49	55023.65
575.65	55157.06
575.82	55016.63
575.98	55025.99
576.14	55021.31
576.30	54923.01
576.46	54925.35
576.62	55021.31
576.79	54930.03
576.95	54827.05
577.11	54941.74
577.27	55105.57
577.43	54995.57
577.59	54986.21
577.75	55117.28
577.92	54908.97
578.08	55023.65
578.24	54967.48
578.40	54871.52
578.56	55185.15
578.72	54941.74
578.88	55014.29
579.04	55346.65
579.21	55128.98
579.37	55281.11
579.53	55222.60
579.69	54841.09
579.85	54976.84
580.01	55128.98
580.17	54986.21
580.33	55276.43
580.49	55201.53
580.65	55238.98
580.82	55416.86
580.98	55199.19
581.14	55147.70
581.30	55304.52
581.46	55143.02
581.62	54878.54
581.78	54995.57
581.94	55171.11
582.10	55168.77
582.26	55114.94
582.42	55063.44
582.58	55112.59
582.74	55281.11
582.90	55267.07
583.06	55220.26
583.22	55033.02
583.38	55178.13
583.54	55412.18
583.70	55276.43
583.86	55189.83
584.02	55311.54
584.18	55426.23
584.34	55367.71
584.50	55330.26
584.66	55318.56
584.82	55042.38
584.98	55236.64
585.14	55306.86
585.30	55077.49
585.46	55107.91
585.62	55257.71
585.78	55398.14
585.94	55199.19
586.10	55185.15
586.26	55313.88
586.42	55253.03
586.58	55440.27
586.74	55253.03
586.90	55173.45
587.06	55173.45
587.22	55339.63
587.38	55014.29
587.54	55250.69
587.70	55505.80
587.86	55489.42
588.02	55524.53
588.18	55590.06
588.34	55451.97
588.49	55599.43
588.65	55070.46
588.81	55311.54
588.97	55269.41
589.13	55229.62
589.29	55044.72
589.45	55634.53
589.61	55487.08
589.77	55854.54
