SpectraSuite Data File
++++++++++++++++++++++++++++++++++++
Date: Fri Oct 04 11:47:03 GMT-05:00 2013
User: price-jones
Dark Spectrum Present: No
Reference Spectrum Present: No
Number of Sampled Component Spectra: 1
Spectrometers: USB2+H05261
Integration Time (usec): 100000 (USB2+H05261)
Spectra Averaged: 1 (USB2+H05261)
Boxcar Smoothing: 0 (USB2+H05261)
Correct for Electrical Dark: No (USB2+H05261)
Strobe/Lamp Enabled: No (USB2+H05261)
Correct for Detector Non-linearity: No (USB2+H05261)
Correct for Stray Light: No (USB2+H05261)
Number of Pixels in Processed Spectrum: 2048
>>>>>Begin Processed Spectral Data<<<<<
365.73	7.02
365.92	7.02
366.12	7.02
366.32	0.00
366.52	0.00
366.72	0.00
366.91	0.00
367.11	0.00
367.31	0.00
367.51	0.00
367.70	0.00
367.90	0.00
368.10	0.00
368.30	0.00
368.49	0.00
368.69	0.00
368.89	0.00
369.09	0.00
369.28	0.00
369.48	0.00
369.68	0.00
369.87	0.00
370.07	0.00
370.27	100.64
370.47	63.19
370.66	0.00
370.86	88.94
371.06	65.54
371.25	63.19
371.45	0.00
371.65	14.04
371.84	0.00
372.04	2.34
372.24	67.88
372.44	88.94
372.63	86.60
372.83	117.03
373.03	56.17
373.22	102.98
373.42	23.41
373.62	135.75
373.81	95.96
374.01	142.77
374.21	58.51
374.40	0.00
374.60	161.50
374.79	81.92
374.99	163.84
375.19	173.20
375.38	93.62
375.58	93.62
375.78	133.41
375.97	121.71
376.17	35.11
376.37	51.49
376.56	79.58
376.76	168.52
376.95	128.73
377.15	105.32
377.35	93.62
377.54	119.37
377.74	51.49
377.93	58.51
378.13	105.32
378.33	140.43
378.52	86.60
378.72	105.32
378.91	119.37
379.11	84.26
379.31	95.96
379.50	124.05
379.70	110.01
379.89	84.26
380.09	119.37
380.28	30.43
380.48	135.75
380.68	65.54
380.87	98.30
381.07	131.07
381.26	161.50
381.46	42.13
381.65	131.07
381.85	117.03
382.04	84.26
382.24	152.13
382.43	156.82
382.63	95.96
382.83	149.79
383.02	105.32
383.22	114.69
383.41	42.13
383.61	58.51
383.80	173.20
384.00	77.24
384.19	86.60
384.39	149.79
384.58	105.32
384.78	56.17
384.97	53.83
385.17	49.15
385.36	184.90
385.56	86.60
385.75	32.77
385.95	102.98
386.14	159.16
386.34	65.54
386.53	49.15
386.72	121.71
386.92	198.95
387.11	65.54
387.31	72.56
387.50	53.83
387.70	67.88
387.89	102.98
388.09	107.66
388.28	77.24
388.48	70.22
388.67	173.20
388.86	95.96
389.06	88.94
389.25	119.37
389.45	124.05
389.64	131.07
389.84	74.90
390.03	56.17
390.22	49.15
390.42	35.11
390.61	49.15
390.81	81.92
391.00	28.09
391.19	121.71
391.39	58.51
391.58	98.30
391.78	84.26
391.97	124.05
392.16	60.85
392.36	166.18
392.55	156.82
392.75	163.84
392.94	105.32
393.13	152.13
393.33	112.35
393.52	84.26
393.71	77.24
393.91	100.64
394.10	67.88
394.29	105.32
394.49	65.54
394.68	124.05
394.88	154.48
395.07	114.69
395.26	126.39
395.46	117.03
395.65	100.64
395.84	95.96
396.04	126.39
396.23	67.88
396.42	112.35
396.62	95.96
396.81	145.11
397.00	114.69
397.19	187.24
397.39	74.90
397.58	105.32
397.77	14.04
397.97	86.60
398.16	98.30
398.35	152.13
398.55	32.77
398.74	177.88
398.93	126.39
399.12	49.15
399.32	124.05
399.51	84.26
399.70	46.81
399.90	74.90
400.09	102.98
400.28	63.19
400.47	53.83
400.67	95.96
400.86	74.90
401.05	105.32
401.24	175.54
401.44	124.05
401.63	128.73
401.82	81.92
402.01	95.96
402.21	128.73
402.40	140.43
402.59	124.05
402.78	84.26
402.97	119.37
403.17	100.64
403.36	32.77
403.55	95.96
403.74	74.90
403.93	168.52
404.13	234.05
404.32	100.64
404.51	23.41
404.70	154.48
404.89	67.88
405.09	67.88
405.28	2.34
405.47	124.05
405.66	114.69
405.85	84.26
406.05	131.07
406.24	189.58
406.43	126.39
406.62	77.24
406.81	117.03
407.00	152.13
407.20	142.77
407.39	107.66
407.58	60.85
407.77	84.26
407.96	56.17
408.15	95.96
408.34	114.69
408.54	46.81
408.73	154.48
408.92	65.54
409.11	53.83
409.30	98.30
409.49	128.73
409.68	77.24
409.87	152.13
410.07	23.41
410.26	203.63
410.45	126.39
410.64	70.22
410.83	102.98
411.02	124.05
411.21	135.75
411.40	88.94
411.59	70.22
411.78	119.37
411.98	95.96
412.17	79.58
412.36	23.41
412.55	21.06
412.74	105.32
412.93	135.75
413.12	77.24
413.31	159.16
413.50	46.81
413.69	131.07
413.88	86.60
414.07	72.56
414.26	84.26
414.45	126.39
414.64	107.66
414.83	112.35
415.02	95.96
415.22	105.32
415.41	156.82
415.60	107.66
415.79	140.43
415.98	177.88
416.17	112.35
416.36	51.49
416.55	58.51
416.74	107.66
416.93	201.29
417.12	60.85
417.31	46.81
417.50	91.28
417.69	147.45
417.88	154.48
418.07	145.11
418.26	51.49
418.45	142.77
418.64	105.32
418.83	147.45
419.02	189.58
419.21	147.45
419.39	212.99
419.58	138.09
419.77	156.82
419.96	114.69
420.15	217.67
420.34	133.41
420.53	105.32
420.72	194.26
420.91	133.41
421.10	39.79
421.29	149.79
421.48	105.32
421.67	210.65
421.86	112.35
422.05	191.92
422.24	49.15
422.43	126.39
422.61	102.98
422.80	177.88
422.99	67.88
423.18	49.15
423.37	114.69
423.56	154.48
423.75	135.75
423.94	88.94
424.13	131.07
424.32	133.41
424.50	133.41
424.69	114.69
424.88	140.43
425.07	161.50
425.26	182.56
425.45	257.46
425.64	168.52
425.83	229.37
426.01	173.20
426.20	184.90
426.39	112.35
426.58	93.62
426.77	187.24
426.96	138.09
427.15	67.88
427.33	102.98
427.52	175.54
427.71	217.67
427.90	163.84
428.09	51.49
428.28	161.50
428.46	126.39
428.65	98.30
428.84	166.18
429.03	145.11
429.22	121.71
429.40	138.09
429.59	110.01
429.78	203.63
429.97	110.01
430.16	121.71
430.34	140.43
430.53	102.98
430.72	49.15
430.91	234.05
431.10	77.24
431.28	149.79
431.47	131.07
431.66	133.41
431.85	110.01
432.03	121.71
432.22	208.31
432.41	156.82
432.60	142.77
432.79	154.48
432.97	177.88
433.16	212.99
433.35	283.20
433.54	107.66
433.72	198.95
433.91	243.42
434.10	100.64
434.28	133.41
434.47	152.13
434.66	196.60
434.85	93.62
435.03	98.30
435.22	117.03
435.41	271.50
435.59	128.73
435.78	140.43
435.97	91.28
436.16	161.50
436.34	95.96
436.53	156.82
436.72	173.20
436.90	131.07
437.09	152.13
437.28	86.60
437.46	60.85
437.65	117.03
437.84	100.64
438.02	133.41
438.21	159.16
438.40	95.96
438.58	74.90
438.77	170.86
438.96	161.50
439.14	119.37
439.33	128.73
439.52	166.18
439.70	110.01
439.89	112.35
440.08	107.66
440.26	84.26
440.45	105.32
440.63	63.19
440.82	220.01
441.01	46.81
441.19	161.50
441.38	140.43
441.57	154.48
441.75	145.11
441.94	128.73
442.12	95.96
442.31	93.62
442.50	98.30
442.68	138.09
442.87	140.43
443.05	131.07
443.24	203.63
443.43	67.88
443.61	238.73
443.80	177.88
443.98	140.43
444.17	117.03
444.35	131.07
444.54	65.54
444.73	119.37
444.91	161.50
445.10	135.75
445.28	161.50
445.47	124.05
445.65	110.01
445.84	25.75
446.02	135.75
446.21	131.07
446.39	166.18
446.58	107.66
446.77	135.75
446.95	149.79
447.14	166.18
447.32	175.54
447.51	201.29
447.69	170.86
447.88	140.43
448.06	210.65
448.25	177.88
448.43	159.16
448.62	77.24
448.80	184.90
448.99	133.41
449.17	152.13
449.36	91.28
449.54	152.13
449.73	105.32
449.91	177.88
450.10	159.16
450.28	105.32
450.46	215.33
450.65	166.18
450.83	215.33
451.02	133.41
451.20	114.69
451.39	145.11
451.57	133.41
451.76	175.54
451.94	95.96
452.13	77.24
452.31	133.41
452.49	72.56
452.68	194.26
452.86	112.35
453.05	227.03
453.23	102.98
453.42	135.75
453.60	152.13
453.78	182.56
453.97	140.43
454.15	16.38
454.34	91.28
454.52	149.79
454.70	140.43
454.89	37.45
455.07	196.60
455.26	105.32
455.44	152.13
455.62	177.88
455.81	138.09
455.99	166.18
456.17	84.26
456.36	156.82
456.54	105.32
456.73	131.07
456.91	135.75
457.09	88.94
457.28	100.64
457.46	70.22
457.64	166.18
457.83	49.15
458.01	119.37
458.19	194.26
458.38	95.96
458.56	145.11
458.74	163.84
458.93	205.97
459.11	105.32
459.29	117.03
459.48	140.43
459.66	149.79
459.84	170.86
460.03	245.76
460.21	170.86
460.39	60.85
460.57	142.77
460.76	147.45
460.94	173.20
461.12	140.43
461.31	84.26
461.49	112.35
461.67	252.78
461.85	135.75
462.04	152.13
462.22	557.05
462.40	152.13
462.59	161.50
462.77	84.26
462.95	173.20
463.13	147.45
463.32	142.77
463.50	124.05
463.68	177.88
463.86	128.73
464.05	74.90
464.23	191.92
464.41	173.20
464.59	95.96
464.78	149.79
464.96	124.05
465.14	95.96
465.32	102.98
465.50	175.54
465.69	135.75
465.87	135.75
466.05	135.75
466.23	95.96
466.41	100.64
466.60	88.94
466.78	128.73
466.96	131.07
467.14	121.71
467.32	191.92
467.51	236.39
467.69	145.11
467.87	98.30
468.05	142.77
468.23	269.16
468.41	184.90
468.60	154.48
468.78	128.73
468.96	100.64
469.14	196.60
469.32	156.82
469.50	191.92
469.69	173.20
469.87	194.26
470.05	210.65
470.23	156.82
470.41	154.48
470.59	93.62
470.77	117.03
470.95	100.64
471.14	187.24
471.32	170.86
471.50	147.45
471.68	79.58
471.86	117.03
472.04	107.66
472.22	112.35
472.40	112.35
472.58	203.63
472.77	102.98
472.95	196.60
473.13	201.29
473.31	170.86
473.49	79.58
473.67	173.20
473.85	194.26
474.03	189.58
474.21	126.39
474.39	161.50
474.57	98.30
474.75	110.01
474.93	133.41
475.12	95.96
475.30	177.88
475.48	117.03
475.66	184.90
475.84	149.79
476.02	135.75
476.20	224.69
476.38	81.92
476.56	198.95
476.74	131.07
476.92	114.69
477.10	154.48
477.28	177.88
477.46	145.11
477.64	107.66
477.82	175.54
478.00	128.73
478.18	170.86
478.36	140.43
478.54	142.77
478.72	177.88
478.90	133.41
479.08	86.60
479.26	117.03
479.44	163.84
479.62	114.69
479.80	166.18
479.98	124.05
480.16	88.94
480.34	140.43
480.52	180.22
480.70	117.03
480.88	100.64
481.06	149.79
481.24	135.75
481.41	110.01
481.59	135.75
481.77	159.16
481.95	133.41
482.13	175.54
482.31	110.01
482.49	166.18
482.67	215.33
482.85	187.24
483.03	159.16
483.21	154.48
483.39	196.60
483.57	177.88
483.74	245.76
483.92	159.16
484.10	98.30
484.28	154.48
484.46	189.58
484.64	102.98
484.82	105.32
485.00	114.69
485.18	121.71
485.35	196.60
485.53	135.75
485.71	124.05
485.89	126.39
486.07	133.41
486.25	278.52
486.43	112.35
486.61	133.41
486.78	152.13
486.96	102.98
487.14	175.54
487.32	145.11
487.50	210.65
487.68	243.42
487.85	182.56
488.03	161.50
488.21	208.31
488.39	201.29
488.57	222.35
488.75	119.37
488.92	416.62
489.10	208.31
489.28	210.65
489.46	121.71
489.64	133.41
489.81	154.48
489.99	196.60
490.17	210.65
490.35	163.84
490.53	44.47
490.70	121.71
490.88	212.99
491.06	184.90
491.24	250.44
491.41	182.56
491.59	184.90
491.77	145.11
491.95	191.92
492.13	227.03
492.30	163.84
492.48	77.24
492.66	194.26
492.84	236.39
493.01	191.92
493.19	201.29
493.37	224.69
493.54	159.16
493.72	215.33
493.90	234.05
494.08	231.71
494.25	198.95
494.43	154.48
494.61	184.90
494.79	145.11
494.96	112.35
495.14	212.99
495.32	208.31
495.49	215.33
495.67	156.82
495.85	227.03
496.02	152.13
496.20	128.73
496.38	201.29
496.55	159.16
496.73	170.86
496.91	227.03
497.09	168.52
497.26	227.03
497.44	121.71
497.62	210.65
497.79	234.05
497.97	238.73
498.14	140.43
498.32	203.63
498.50	212.99
498.67	175.54
498.85	131.07
499.03	147.45
499.20	262.14
499.38	173.20
499.56	184.90
499.73	175.54
499.91	168.52
500.08	175.54
500.26	168.52
500.44	128.73
500.61	166.18
500.79	175.54
500.97	238.73
501.14	194.26
501.32	140.43
501.49	236.39
501.67	187.24
501.84	180.22
502.02	126.39
502.20	208.31
502.37	145.11
502.55	140.43
502.72	313.63
502.90	215.33
503.07	205.97
503.25	187.24
503.43	154.48
503.60	175.54
503.78	173.20
503.95	269.16
504.13	159.16
504.30	210.65
504.48	191.92
504.65	231.71
504.83	189.58
505.01	131.07
505.18	184.90
505.36	152.13
505.53	168.52
505.71	194.26
505.88	194.26
506.06	250.44
506.23	166.18
506.41	191.92
506.58	147.45
506.76	264.48
506.93	264.48
507.11	203.63
507.28	131.07
507.46	252.78
507.63	205.97
507.81	175.54
507.98	131.07
508.16	198.95
508.33	245.76
508.50	152.13
508.68	227.03
508.85	163.84
509.03	156.82
509.20	170.86
509.38	166.18
509.55	159.16
509.73	194.26
509.90	208.31
510.08	175.54
510.25	203.63
510.42	173.20
510.60	138.09
510.77	138.09
510.95	220.01
511.12	285.55
511.30	220.01
511.47	292.57
511.64	306.61
511.82	273.84
511.99	194.26
512.17	166.18
512.34	135.75
512.51	294.91
512.69	212.99
512.86	287.89
513.04	201.29
513.21	203.63
513.38	163.84
513.56	262.14
513.73	163.84
513.90	112.35
514.08	198.95
514.25	154.48
514.43	215.33
514.60	156.82
514.77	159.16
514.95	220.01
515.12	205.97
515.29	196.60
515.47	220.01
515.64	229.37
515.81	145.11
515.99	245.76
516.16	156.82
516.33	231.71
516.51	198.95
516.68	135.75
516.85	222.35
517.03	159.16
517.20	196.60
517.37	170.86
517.54	220.01
517.72	180.22
517.89	194.26
518.06	163.84
518.24	227.03
518.41	236.39
518.58	259.80
518.75	191.92
518.93	147.45
519.10	238.73
519.27	168.52
519.45	236.39
519.62	170.86
519.79	182.56
519.96	269.16
520.14	196.60
520.31	203.63
520.48	236.39
520.65	243.42
520.83	184.90
521.00	140.43
521.17	227.03
521.34	177.88
521.52	217.67
521.69	198.95
521.86	294.91
522.03	175.54
522.20	250.44
522.38	203.63
522.55	229.37
522.72	166.18
522.89	224.69
523.07	264.48
523.24	252.78
523.41	210.65
523.58	138.09
523.75	133.41
523.92	163.84
524.10	168.52
524.27	222.35
524.44	212.99
524.61	243.42
524.78	222.35
524.96	161.50
525.13	262.14
525.30	126.39
525.47	217.67
525.64	220.01
525.81	173.20
525.98	198.95
526.16	208.31
526.33	234.05
526.50	168.52
526.67	229.37
526.84	166.18
527.01	133.41
527.18	173.20
527.36	191.92
527.53	191.92
527.70	266.82
527.87	142.77
528.04	278.52
528.21	191.92
528.38	205.97
528.55	299.59
528.72	135.75
528.89	243.42
529.07	191.92
529.24	243.42
529.41	217.67
529.58	166.18
529.75	210.65
529.92	257.46
530.09	224.69
530.26	241.08
530.43	170.86
530.60	201.29
530.77	187.24
530.94	252.78
531.11	238.73
531.28	163.84
531.46	201.29
531.63	191.92
531.80	236.39
531.97	212.99
532.14	117.03
532.31	248.10
532.48	217.67
532.65	376.83
532.82	344.06
532.99	418.96
533.16	299.59
533.33	292.57
533.50	259.80
533.67	320.65
533.84	510.24
534.01	461.09
534.18	337.04
534.35	290.23
534.52	189.58
534.69	255.12
534.86	208.31
535.03	292.57
535.20	205.97
535.37	161.50
535.54	198.95
535.71	154.48
535.88	248.10
536.05	177.88
536.22	224.69
536.38	234.05
536.55	203.63
536.72	217.67
536.89	252.78
537.06	210.65
537.23	271.50
537.40	271.50
537.57	220.01
537.74	220.01
537.91	168.52
538.08	250.44
538.25	276.18
538.42	224.69
538.59	161.50
538.75	182.56
538.92	215.33
539.09	250.44
539.26	222.35
539.43	535.98
539.60	1224.10
539.77	1706.25
539.94	1659.44
540.11	1109.41
540.28	737.27
540.44	486.83
540.61	285.55
540.78	227.03
540.95	163.84
541.12	266.82
541.29	159.16
541.46	266.82
541.62	124.05
541.79	224.69
541.96	234.05
542.13	297.25
542.30	210.65
542.47	222.35
542.63	102.98
542.80	224.69
542.97	215.33
543.14	220.01
543.31	180.22
543.48	245.76
543.64	212.99
543.81	220.01
543.98	259.80
544.15	194.26
544.32	152.13
544.48	227.03
544.65	205.97
544.82	152.13
544.99	198.95
545.16	276.18
545.32	201.29
545.49	215.33
545.66	234.05
545.83	154.48
546.00	194.26
546.16	173.20
546.33	145.11
546.50	220.01
546.67	205.97
546.83	138.09
547.00	259.80
547.17	156.82
547.34	119.37
547.50	224.69
547.67	201.29
547.84	196.60
548.00	166.18
548.17	65.54
548.34	180.22
548.51	278.52
548.67	271.50
548.84	124.05
549.01	241.08
549.18	210.65
549.34	248.10
549.51	234.05
549.68	194.26
549.84	229.37
550.01	196.60
550.18	266.82
550.34	266.82
550.51	203.63
550.68	205.97
550.84	184.90
551.01	227.03
551.18	203.63
551.34	234.05
551.51	161.50
551.68	180.22
551.84	290.23
552.01	227.03
552.18	77.24
552.34	243.42
552.51	220.01
552.68	191.92
552.84	194.26
553.01	287.89
553.18	283.20
553.34	196.60
553.51	201.29
553.67	196.60
553.84	208.31
554.01	252.78
554.17	182.56
554.34	234.05
554.51	252.78
554.67	315.97
554.84	194.26
555.00	154.48
555.17	280.86
555.33	182.56
555.50	175.54
555.67	224.69
555.83	220.01
556.00	248.10
556.16	367.46
556.33	215.33
556.50	243.42
556.66	217.67
556.83	250.44
556.99	205.97
557.16	264.48
557.32	175.54
557.49	243.42
557.65	177.88
557.82	177.88
557.98	264.48
558.15	128.73
558.32	140.43
558.48	222.35
558.65	250.44
558.81	201.29
558.98	187.24
559.14	191.92
559.31	243.42
559.47	205.97
559.64	142.77
559.80	210.65
559.97	220.01
560.13	138.09
560.30	224.69
560.46	241.08
560.63	259.80
560.79	159.16
560.96	180.22
561.12	154.48
561.29	191.92
561.45	243.42
561.61	257.46
561.78	273.84
561.94	187.24
562.11	191.92
562.27	182.56
562.44	198.95
562.60	138.09
562.77	180.22
562.93	280.86
563.10	257.46
563.26	229.37
563.42	217.67
563.59	182.56
563.75	142.77
563.92	177.88
564.08	194.26
564.24	166.18
564.41	210.65
564.57	201.29
564.74	229.37
564.90	180.22
565.07	210.65
565.23	297.25
565.39	269.16
565.56	259.80
565.72	201.29
565.88	210.65
566.05	231.71
566.21	255.12
566.38	189.58
566.54	187.24
566.70	238.73
566.87	177.88
567.03	163.84
567.19	210.65
567.36	168.52
567.52	154.48
567.68	189.58
567.85	198.95
568.01	135.75
568.17	255.12
568.34	149.79
568.50	257.46
568.66	187.24
568.83	327.68
568.99	175.54
569.15	208.31
569.32	170.86
569.48	198.95
569.64	189.58
569.81	191.92
569.97	227.03
570.13	168.52
570.30	126.39
570.46	131.07
570.62	203.63
570.78	217.67
570.95	100.64
571.11	210.65
571.27	217.67
571.43	180.22
571.60	224.69
571.76	217.67
571.92	205.97
572.09	231.71
572.25	203.63
572.41	182.56
572.57	191.92
572.74	238.73
572.90	175.54
573.06	264.48
573.22	161.50
573.38	208.31
573.55	224.69
573.71	215.33
573.87	220.01
574.03	156.82
574.20	236.39
574.36	297.25
574.52	311.29
574.68	315.97
574.84	276.18
575.01	229.37
575.17	248.10
575.33	215.33
575.49	191.92
575.65	224.69
575.82	339.38
575.98	610.88
576.14	847.27
576.30	837.91
576.46	561.73
576.62	433.00
576.79	414.27
576.95	297.25
577.11	299.59
577.27	208.31
577.43	231.71
577.59	325.33
577.75	220.01
577.92	330.02
578.08	168.52
578.24	238.73
578.40	285.55
578.56	306.61
578.72	269.16
578.88	285.55
579.04	285.55
579.21	273.84
579.37	287.89
579.53	201.29
579.69	264.48
579.85	278.52
580.01	344.06
580.17	339.38
580.33	379.17
580.49	325.33
580.65	369.80
580.82	259.80
580.98	334.70
581.14	348.74
581.30	414.27
581.46	444.70
581.62	629.60
581.78	594.50
581.94	660.03
582.10	557.05
582.26	489.17
582.42	428.32
582.58	479.81
582.74	442.36
582.90	367.46
583.06	437.68
583.22	472.79
583.38	521.94
583.54	507.90
583.70	660.03
583.86	748.97
584.02	959.62
584.18	1071.97
584.34	1373.89
584.50	4032.74
584.66	32713.67
584.82	62475.92
584.98	65535.00
585.14	65535.00
585.30	58227.85
585.46	36259.58
585.62	21972.95
585.78	9973.02
585.94	3943.80
586.10	1898.17
586.26	1167.93
586.42	1015.79
586.58	833.23
586.74	615.56
586.90	681.10
587.06	709.18
587.22	606.20
587.38	533.64
587.54	1455.81
587.70	4327.65
587.86	7115.23
588.02	7571.63
588.18	5362.17
588.34	3428.88
588.49	2195.42
588.65	1338.79
588.81	746.63
588.97	442.36
589.13	334.70
589.29	320.65
589.45	308.95
589.61	315.97
589.77	456.40
589.93	489.17
590.08	472.79
590.24	447.04
590.40	404.91
590.56	421.30
590.72	381.51
590.88	433.00
591.04	400.23
591.20	322.99
591.35	367.46
591.51	425.98
591.67	301.93
591.83	315.97
591.99	313.63
592.15	257.46
592.31	325.33
592.46	262.14
592.62	315.97
592.78	276.18
592.94	351.08
593.10	297.25
593.26	301.93
593.41	299.59
593.57	416.62
593.73	631.94
593.89	3747.20
594.05	9228.73
594.20	13390.20
594.36	12638.89
594.52	7915.69
594.68	5114.07
594.84	3400.80
594.99	1830.30
595.15	835.57
595.31	444.70
595.47	416.62
595.62	355.76
595.78	266.82
595.94	243.42
596.10	337.04
596.25	444.70
596.41	318.31
596.57	339.38
596.73	313.63
596.88	627.26
597.04	1696.89
597.20	2853.11
597.36	3304.84
597.51	2335.85
597.67	1636.03
597.83	1118.78
597.99	709.18
598.14	444.70
598.30	327.68
598.46	313.63
598.61	369.80
598.77	311.29
598.93	248.10
599.09	248.10
599.24	248.10
599.40	224.69
599.56	276.18
599.71	215.33
599.87	231.71
600.03	290.23
600.18	154.48
600.34	283.20
600.50	255.12
600.65	210.65
600.81	215.33
600.97	224.69
601.12	220.01
601.28	236.39
601.44	266.82
601.59	243.42
601.75	170.86
601.91	224.69
602.06	238.73
602.22	337.04
602.37	894.08
602.53	2087.76
602.69	3243.98
602.84	3255.69
603.00	2356.92
603.16	1626.67
603.31	1088.35
603.47	725.57
603.62	479.81
603.78	425.98
603.94	304.27
604.09	374.49
604.25	290.23
604.40	250.44
604.56	245.76
604.71	198.95
604.87	248.10
605.03	266.82
605.18	278.52
605.34	308.95
605.49	255.12
605.65	266.82
605.80	250.44
605.96	215.33
606.12	308.95
606.27	360.44
606.43	297.25
606.58	435.34
606.74	1046.22
606.89	4723.20
607.05	8994.68
607.20	11293.08
607.36	8997.02
607.51	6171.99
607.67	4203.60
607.82	2686.94
607.98	1341.13
608.13	758.33
608.29	442.36
608.44	491.51
608.60	442.36
608.75	566.41
608.91	1441.77
609.06	7316.51
609.22	15183.06
609.37	19819.66
609.53	16973.56
609.68	11178.40
609.84	7318.86
609.99	4727.88
610.15	2422.45
610.30	1158.57
610.46	631.94
610.61	507.90
610.76	428.32
610.92	440.02
611.07	304.27
611.23	348.74
611.38	353.42
611.54	234.05
611.69	287.89
611.84	332.36
