SpectraSuite Data File
++++++++++++++++++++++++++++++++++++
Date: Fri Oct 04 11:48:23 GMT-05:00 2013
User: price-jones
Dark Spectrum Present: No
Reference Spectrum Present: No
Number of Sampled Component Spectra: 1
Spectrometers: USB2+H05261
Integration Time (usec): 100000 (USB2+H05261)
Spectra Averaged: 1 (USB2+H05261)
Boxcar Smoothing: 0 (USB2+H05261)
Correct for Electrical Dark: No (USB2+H05261)
Strobe/Lamp Enabled: No (USB2+H05261)
Correct for Detector Non-linearity: No (USB2+H05261)
Correct for Stray Light: No (USB2+H05261)
Number of Pixels in Processed Spectrum: 2048
>>>>>Begin Processed Spectral Data<<<<<
365.73	0.00
365.92	0.00
366.12	0.00
366.32	0.00
366.52	0.00
366.72	0.00
366.91	0.00
367.11	0.00
367.31	0.00
367.51	0.00
367.70	0.00
367.90	0.00
368.10	0.00
368.30	0.00
368.49	0.00
368.69	0.00
368.89	14.04
369.09	0.00
369.28	0.00
369.48	0.00
369.68	0.00
369.87	0.00
370.07	0.00
370.27	37.45
370.47	126.39
370.66	386.19
370.86	360.44
371.06	498.53
371.25	409.59
371.45	458.74
371.65	465.77
371.84	491.51
372.04	498.53
372.24	521.94
372.44	514.92
372.63	512.58
372.83	535.98
373.03	491.51
373.22	528.96
373.42	486.83
373.62	554.71
373.81	599.18
374.01	564.07
374.21	631.94
374.40	440.02
374.60	540.66
374.79	678.76
374.99	681.10
375.19	636.63
375.38	582.79
375.58	706.84
375.78	657.69
375.97	580.45
376.17	648.33
376.37	723.23
376.56	716.20
376.76	667.05
376.95	636.63
377.15	606.20
377.35	657.69
377.54	660.03
377.74	709.18
377.93	634.29
378.13	641.31
378.33	784.08
378.52	809.83
378.72	732.59
378.91	908.13
379.11	709.18
379.31	746.63
379.50	718.54
379.70	753.65
379.89	828.55
380.09	690.46
380.28	795.78
380.48	767.70
380.68	779.40
380.87	814.51
381.07	744.29
381.26	833.23
381.46	854.30
381.65	847.27
381.85	856.64
382.04	854.30
382.24	870.68
382.43	858.98
382.63	856.64
382.83	823.87
383.02	774.72
383.22	908.13
383.41	840.25
383.61	919.83
383.80	933.87
384.00	919.83
384.19	919.83
384.39	894.08
384.58	950.26
384.78	950.26
384.97	905.79
385.17	933.87
385.36	950.26
385.56	968.98
385.75	912.81
385.95	1041.54
386.14	978.34
386.34	1022.81
386.53	910.47
386.72	973.66
386.92	1041.54
387.11	1013.45
387.31	1006.43
387.50	1011.11
387.70	1064.94
387.89	1008.77
388.09	1060.26
388.28	1020.47
388.48	1100.05
388.67	1100.05
388.86	1095.37
389.06	1083.67
389.25	1181.97
389.45	1086.01
389.64	1048.56
389.84	1130.48
390.03	1160.91
390.22	1151.54
390.42	1130.48
390.61	1221.76
390.81	1100.05
391.00	1284.95
391.19	1266.23
391.39	1245.16
391.58	1299.00
391.78	1238.14
391.97	1263.89
392.16	1331.76
392.36	1341.13
392.55	1266.23
392.75	1317.72
392.94	1249.85
393.13	1252.19
393.33	1357.51
393.52	1364.53
393.71	1437.09
393.91	1380.92
394.10	1334.11
394.29	1378.58
394.49	1413.68
394.68	1430.07
394.88	1387.94
395.07	1533.05
395.26	1465.18
395.46	1458.15
395.65	1523.69
395.84	1575.18
396.04	1570.50
396.23	1495.60
396.42	1469.86
396.62	1591.56
396.81	1589.22
397.00	1577.52
397.19	1591.56
397.39	1591.56
397.58	1577.52
397.77	1579.86
397.97	1575.18
398.16	1626.67
398.35	1685.19
398.55	1535.39
398.74	1629.01
398.93	1797.53
399.12	1692.21
399.32	1551.78
399.51	1652.42
399.70	1762.42
399.90	1832.64
400.09	1839.66
400.28	1954.35
400.47	1849.02
400.67	1811.57
400.86	1827.96
401.05	1785.83
401.24	1940.30
401.44	2003.50
401.63	1893.49
401.82	1937.96
402.01	1825.62
402.21	1905.20
402.40	1987.11
402.59	2036.27
402.78	2005.84
402.97	2120.53
403.17	2118.18
403.36	1989.46
403.55	1973.07
403.74	2132.23
403.93	2249.25
404.13	2239.89
404.32	2181.38
404.51	2228.19
404.70	2165.00
404.89	2104.14
405.09	2303.09
405.28	2260.96
405.47	2326.49
405.66	2289.04
405.85	2293.72
406.05	2347.56
406.24	2401.39
406.43	2359.26
406.62	2457.56
406.81	2373.30
407.00	2429.48
407.20	2443.52
407.39	2492.67
407.58	2483.31
407.77	2516.08
407.96	2457.56
408.15	2448.20
408.34	2583.95
408.54	2635.44
408.73	2635.44
408.92	2586.29
409.11	2532.46
409.30	2710.34
409.49	2766.51
409.68	2719.70
409.87	2672.89
410.07	2750.13
410.26	2733.75
410.45	2801.62
410.64	2822.69
410.83	2789.92
411.02	2778.22
411.21	3070.78
411.40	2904.60
411.59	2883.54
411.78	2939.71
411.98	2932.69
412.17	3073.12
412.36	3166.74
412.55	3152.70
412.74	3300.16
412.93	3297.81
413.12	3047.38
413.31	3407.82
413.50	3239.30
413.69	3283.77
413.88	3426.54
414.07	3372.71
414.26	3361.01
414.45	3358.67
414.64	3361.01
414.83	3328.24
415.02	3522.51
415.22	3627.83
415.41	3688.68
415.60	3557.61
415.79	3768.26
415.98	3733.15
416.17	3691.02
416.36	3733.15
416.55	3791.67
416.74	3712.09
416.93	3904.01
417.12	3936.78
417.31	3969.55
417.50	3932.10
417.69	4135.73
417.88	4098.28
418.07	4032.74
418.26	3981.25
418.45	4011.68
418.64	4259.78
418.83	4175.52
419.02	4175.52
419.21	4205.94
419.39	4168.49
419.58	4138.07
419.77	4292.54
419.96	4128.70
420.15	4257.43
420.34	4212.96
420.53	4348.72
420.72	4461.06
420.91	4440.00
421.10	4367.44
421.29	4449.36
421.48	4348.72
421.67	4533.62
421.86	4393.19
422.05	4638.94
422.24	4498.51
422.43	4622.56
422.61	4667.03
422.80	4634.26
422.99	4699.80
423.18	4559.36
423.37	4596.81
423.56	4592.13
423.75	4566.39
423.94	4594.47
424.13	4353.40
424.32	4493.83
424.50	4713.84
424.69	4730.22
424.88	4809.80
425.07	4781.71
425.26	4615.54
425.45	4641.28
425.64	4802.78
425.83	4786.40
426.01	4915.12
426.20	4596.81
426.39	4784.06
426.58	4730.22
426.77	4765.33
426.96	4947.89
427.15	4835.55
427.33	4922.15
427.52	4765.33
427.71	4959.60
427.90	4990.02
428.09	5043.85
428.28	4997.04
428.46	5252.16
428.65	5167.90
428.84	5350.46
429.03	5252.16
429.22	5057.90
429.40	5221.74
429.59	5294.29
429.78	5090.67
429.97	5097.69
430.16	5172.58
430.34	5266.21
430.53	5256.84
430.72	5334.08
430.91	5303.65
431.10	5179.61
431.28	5507.28
431.47	5584.52
431.66	5483.88
431.85	5406.64
432.03	5488.56
432.22	5708.57
432.41	5619.63
432.60	5717.93
432.79	5612.60
432.97	5902.83
433.16	5666.44
433.35	5694.52
433.54	5717.93
433.72	5664.10
433.91	5820.91
434.10	5846.66
434.28	5788.14
434.47	5699.20
434.66	5788.14
434.85	6073.69
435.03	5877.09
435.22	6176.67
435.41	6289.02
435.59	6162.63
435.78	5980.07
435.97	6083.05
436.16	6036.24
436.34	6097.10
436.53	6160.29
436.72	6246.89
436.90	6164.97
437.09	6232.85
437.28	6132.20
437.46	6340.51
437.65	6176.67
437.84	6331.15
438.02	6373.28
438.21	6436.47
438.40	6513.71
438.58	6640.10
438.77	6581.59
438.96	6656.48
439.14	6822.66
439.33	6937.35
439.52	6946.71
439.70	6960.75
439.89	6935.01
440.08	7087.14
440.26	6988.84
440.45	6988.84
440.63	7162.04
440.82	7293.11
441.01	7304.81
441.19	7309.49
441.38	7309.49
441.57	7548.23
441.75	7492.05
441.94	7473.33
442.12	7576.31
442.31	7829.09
442.50	7576.31
442.68	7559.93
442.87	7758.88
443.05	7672.28
443.24	7889.95
443.43	7896.97
443.61	7819.73
443.80	8128.68
443.98	7887.61
444.17	7531.84
444.35	7873.56
444.54	8109.96
444.73	7978.89
444.91	7672.28
445.10	7913.35
445.28	7964.84
445.47	7918.03
445.65	7758.88
445.84	7932.08
446.02	7997.61
446.21	7920.37
446.39	7796.32
446.58	8170.81
446.77	7990.59
446.95	7990.59
447.14	8021.02
447.32	8201.24
447.51	8173.15
447.69	8056.12
447.88	8084.21
448.06	8006.97
448.25	8184.85
448.43	8201.24
448.62	8079.53
448.80	8093.57
448.99	8308.90
449.17	8318.26
449.36	8156.77
449.54	8603.81
449.73	8449.33
449.91	8524.23
450.10	8496.14
450.28	8685.73
450.46	8428.27
450.65	8779.35
450.83	8688.07
451.02	8564.02
451.20	8802.75
451.39	8739.56
451.57	8835.52
451.76	8706.79
451.94	8952.55
452.13	8908.08
452.31	8833.18
452.49	8725.52
452.68	8945.53
452.86	8992.34
453.05	9013.40
453.23	9193.62
453.42	9046.17
453.60	8847.22
453.78	9050.85
453.97	9128.09
454.15	9092.98
454.34	9294.27
454.52	9263.84
454.70	9320.01
454.89	9399.59
455.07	9287.25
455.26	9329.38
455.44	9671.09
455.62	9628.96
455.81	9282.56
455.99	9600.88
456.17	9600.88
456.36	9853.66
456.54	9792.80
456.73	10061.96
456.91	10031.54
457.09	10115.80
457.28	10284.31
457.46	9919.19
457.64	10115.80
457.83	10012.81
458.01	9767.06
458.19	10214.10
458.38	10054.94
458.56	10471.56
458.74	10153.24
458.93	10331.12
459.11	10244.52
459.29	10228.14
459.48	10391.98
459.66	10211.76
459.84	10583.90
460.03	10658.80
460.21	10586.24
460.39	10647.10
460.57	10523.05
460.76	10621.35
460.94	10757.10
461.12	10614.33
461.31	10787.53
461.49	10740.72
461.67	10448.15
461.85	10796.89
462.04	10920.94
462.22	11365.64
462.40	11023.92
462.59	11201.80
462.77	11187.76
462.95	11227.55
463.13	11187.76
463.32	11140.95
463.50	11246.27
463.68	11108.18
463.86	10995.84
464.05	11197.12
464.23	11227.55
464.41	11323.51
464.59	11070.73
464.78	11267.34
464.96	11435.86
465.14	11499.05
465.32	11529.48
465.50	11831.41
465.69	11747.15
465.87	11728.42
466.05	11461.60
466.23	11452.24
466.41	11688.64
466.60	12011.63
466.78	11690.98
466.96	11456.92
467.14	11688.64
467.32	11793.96
467.51	11925.03
467.69	11796.30
467.87	11833.75
468.05	11950.78
468.23	11712.04
468.41	11946.09
468.60	12269.09
468.78	12107.59
468.96	11913.33
469.14	12238.66
469.32	12243.34
469.50	11978.86
469.69	12627.19
469.87	12657.62
470.05	12826.14
470.23	12472.71
470.41	12507.82
470.59	12805.07
470.77	12683.36
470.95	12725.49
471.14	12681.02
471.32	12657.62
471.50	13006.36
471.68	13006.36
471.86	13004.02
472.04	13231.05
472.22	13432.33
472.40	13219.35
472.58	13324.67
472.77	13268.50
472.95	13465.10
473.13	14155.56
473.31	13296.58
473.49	13577.45
473.67	13563.40
473.85	13532.98
474.03	13996.40
474.21	14068.96
474.39	13724.90
474.57	14043.21
474.75	14359.19
474.93	14555.79
475.12	14291.31
475.30	14567.49
475.48	14370.89
475.66	14403.66
475.84	14717.29
476.02	14747.72
476.20	14518.34
476.38	15023.90
476.56	15264.97
476.74	14993.47
476.92	15192.42
477.10	15279.02
477.28	15468.60
477.46	15412.43
477.64	15749.46
477.82	15681.59
478.00	16039.69
478.18	16233.96
478.36	16456.31
478.54	16554.61
478.72	16657.59
478.90	16709.08
479.08	17078.89
479.26	16915.05
479.44	16994.63
479.62	17102.29
479.80	17167.83
479.98	17319.96
480.16	17591.47
480.34	17558.70
480.52	17912.12
480.70	17884.03
480.88	17603.17
481.06	18167.24
481.24	17881.69
481.41	18342.78
481.59	18391.93
481.77	18764.07
481.95	18838.97
482.13	18948.98
482.31	18965.36
482.49	19337.51
482.67	19035.58
482.85	19735.40
483.03	19779.87
483.21	20238.61
483.39	20201.16
483.57	19901.58
483.74	20460.96
483.92	20580.33
484.10	20442.24
484.28	20980.56
484.46	21062.48
484.64	21462.71
484.82	20943.11
485.00	21298.88
485.18	21635.91
485.35	22010.40
485.53	22288.92
485.71	22017.42
485.89	22530.00
486.07	22525.32
486.25	22623.62
486.43	22885.76
486.61	23000.44
486.78	23487.28
486.96	23370.25
487.14	23735.37
487.32	23562.17
487.50	24095.82
487.68	24084.11
487.85	24334.55
488.03	24882.24
488.21	24950.11
488.39	24868.19
488.57	25296.51
488.75	25390.13
488.92	26045.48
489.10	25914.41
489.28	25914.41
489.46	26434.01
489.64	26279.54
489.81	26096.97
489.99	26574.44
490.17	27080.00
490.35	27442.78
490.53	26953.61
490.70	27295.33
490.88	27482.57
491.06	27934.29
491.24	27796.20
491.41	27922.59
491.59	28489.00
491.77	28552.20
491.95	28758.16
492.13	28706.67
492.30	28687.95
492.48	28645.82
492.66	29369.04
492.84	29443.94
493.01	29640.54
493.19	29539.90
493.37	30118.01
493.54	29937.79
493.72	30735.92
493.90	30169.51
494.08	30684.42
494.25	30911.46
494.43	31110.40
494.61	31292.96
494.79	31285.94
494.96	31426.37
495.14	31625.32
495.32	31999.80
495.49	31742.35
495.67	32046.62
495.85	32133.21
496.02	32533.45
496.20	32563.87
496.38	32407.06
496.55	32811.97
496.73	33340.93
496.91	33319.87
497.09	33680.31
497.26	34043.09
497.44	33823.08
497.62	34022.03
497.79	34305.23
497.97	34174.16
498.14	34796.74
498.32	34923.13
498.50	34974.63
498.67	35225.06
498.85	34862.28
499.03	35342.09
499.20	35534.01
499.38	35838.28
499.56	35964.67
499.73	35754.02
499.91	36346.18
500.08	36435.12
500.26	36065.31
500.44	36236.17
500.61	36706.62
500.79	36943.02
500.97	36732.37
501.14	37296.44
501.32	37031.96
501.49	37376.01
501.67	37273.03
501.84	37434.53
502.02	37663.90
502.20	37816.04
502.37	38031.36
502.55	38272.44
502.72	37834.76
502.90	38040.73
503.07	38134.35
503.25	38295.85
503.43	38611.82
503.60	38707.78
503.78	39246.10
503.95	38941.83
504.13	39075.24
504.30	39035.45
504.48	39044.82
504.65	39725.91
504.83	39770.38
505.01	39758.68
505.18	40229.13
505.36	40231.47
505.53	39952.94
505.71	40362.54
505.88	40067.63
506.06	39732.93
506.23	40311.05
506.41	40694.89
506.58	40809.58
506.76	41069.38
506.93	40982.78
507.11	40851.71
507.28	41352.58
507.46	41471.95
507.63	41663.88
507.81	41926.02
507.98	41640.47
508.16	41567.91
508.33	41617.07
508.50	42293.48
508.68	41907.29
508.85	42539.24
509.03	42234.97
509.20	42770.95
509.38	42490.09
509.55	42988.62
509.73	43241.40
509.90	43005.00
510.08	43519.92
510.25	42997.98
510.42	43538.65
510.60	43756.32
510.77	43985.69
510.95	43978.67
511.12	43576.09
511.30	43882.70
511.47	44318.04
511.64	44327.41
511.82	44540.39
511.99	44306.34
512.17	44781.47
512.34	44404.64
512.51	44554.44
512.69	44818.92
512.86	44877.43
513.04	45680.24
513.21	45270.64
513.38	45556.19
513.56	45717.68
513.73	45478.95
513.90	45675.55
514.08	45205.11
514.25	45893.22
514.43	45900.25
514.60	46478.36
514.77	46033.66
514.95	46096.85
515.12	46050.04
515.29	46038.34
515.47	46162.39
515.64	46674.96
515.81	46988.60
515.99	46784.97
516.16	47129.03
516.33	46677.30
516.51	47234.35
516.68	46611.77
516.85	47096.26
517.03	47388.83
517.20	47662.67
517.37	47849.91
517.54	48081.63
517.72	47398.19
517.89	47737.57
518.06	47421.59
518.24	47622.88
518.41	47854.59
518.58	48212.70
518.75	48095.67
518.93	48135.46
519.10	48198.65
519.27	48619.95
519.45	48615.27
519.62	48472.49
519.79	48287.59
519.96	48924.22
520.14	48718.25
520.31	48863.36
520.48	49057.63
520.65	48956.99
520.83	49186.36
521.00	49287.00
521.17	48985.07
521.34	49467.22
521.52	49469.56
521.69	49528.08
521.86	49633.40
522.03	49771.49
522.20	49682.55
522.38	50061.72
522.55	49984.48
522.72	49729.36
522.89	50314.50
523.07	50454.93
523.24	49923.63
523.41	50436.20
523.58	50103.85
523.75	50494.72
523.92	50333.22
524.10	50307.47
524.27	50721.75
524.44	50822.39
524.61	50906.65
524.78	50719.41
524.96	51152.41
525.13	50871.54
525.30	51119.64
525.47	51168.79
525.64	51285.82
525.81	51494.13
525.98	51810.10
526.16	51414.55
526.33	51592.43
526.50	51468.38
526.67	51021.34
526.84	51491.79
527.01	51447.32
527.18	52048.83
527.36	52081.60
527.53	51971.60
527.70	52186.92
527.87	52004.36
528.04	52243.10
528.21	52011.38
528.38	52114.37
528.55	51863.93
528.72	52247.78
528.89	52420.98
529.07	51934.15
529.24	52217.35
529.41	52360.12
529.58	52570.77
529.75	52357.78
529.92	52750.99
530.09	52769.72
530.26	52830.57
530.43	52690.14
530.60	52884.40
530.77	52954.62
530.94	52994.41
531.11	52484.17
531.28	52683.12
531.46	52924.19
531.63	53174.63
531.80	53020.16
531.97	53373.58
532.14	53528.05
532.31	52987.39
532.48	53338.47
532.65	53436.77
532.82	53425.07
532.99	53315.06
533.16	53378.26
533.33	53701.25
533.50	54232.55
533.67	53591.25
533.84	53375.92
534.01	53481.24
534.18	53167.61
534.35	53633.38
534.52	53890.83
534.69	54092.12
534.86	53829.98
535.03	53883.81
535.20	53963.39
535.37	54047.65
535.54	54218.51
535.71	53834.66
535.88	54239.57
536.05	54225.53
536.22	54658.53
536.38	54546.18
536.55	54550.87
536.72	54302.77
536.89	53902.54
537.06	54520.44
537.23	54597.68
537.40	54234.89
537.57	54295.75
537.74	54632.78
537.91	55009.61
538.08	54646.83
538.25	54450.22
538.42	54892.58
538.59	54820.03
538.75	54461.93
538.92	54600.02
539.09	54859.82
539.26	55023.65
539.43	55023.65
539.60	55215.58
539.77	55056.42
539.94	55065.78
540.11	55203.88
540.28	55206.22
540.44	55199.19
540.61	55131.32
540.78	55271.75
540.95	55594.74
541.12	55447.29
541.29	55395.80
541.46	55161.75
541.62	55327.92
541.79	55229.62
541.96	55248.35
542.13	55339.63
542.30	55657.94
542.47	55351.33
542.63	55557.30
542.80	55849.86
542.97	55835.82
543.14	55901.36
543.31	55994.98
543.48	55786.67
543.64	56191.58
543.81	56196.26
543.98	56097.96
544.15	56002.00
544.32	56261.80
544.48	56472.45
544.65	56133.07
544.82	56334.35
544.99	56184.56
545.16	56261.80
545.32	56198.60
545.49	56390.53
545.66	56708.84
545.83	56765.01
546.00	56753.31
546.16	56577.77
546.33	56142.43
546.50	56027.74
546.67	56610.54
546.83	56334.35
547.00	56633.94
547.17	56537.98
547.34	56662.03
547.50	56720.54
547.67	57050.56
547.84	56750.97
548.00	56704.16
548.17	56940.55
548.34	56781.40
548.51	56889.06
548.67	57034.17
548.84	57109.07
549.01	56978.00
549.18	56954.60
549.34	56919.49
549.51	56947.57
549.68	56818.84
549.84	57165.24
550.01	57036.51
550.18	56849.27
550.34	57062.26
550.51	57162.90
550.68	57364.19
550.84	56966.30
551.01	57305.68
551.18	57141.84
551.34	56856.29
551.51	57083.33
551.68	57249.50
551.84	57485.90
552.01	57270.57
552.18	57499.94
552.34	57207.37
552.51	57631.01
552.68	57443.77
552.84	57460.15
553.01	57602.92
553.18	57715.27
553.34	57612.29
553.51	57687.18
553.67	57806.55
553.84	57691.86
554.01	57745.70
554.17	57811.23
554.34	57726.97
554.51	57738.68
554.67	57879.11
554.84	57750.38
555.00	57635.69
555.17	57846.34
555.33	57804.21
555.50	57745.70
555.67	57879.11
555.83	57832.30
556.00	57822.93
556.16	57979.75
556.33	57977.41
556.50	57939.96
556.66	57937.62
556.83	57755.06
556.99	58265.30
557.16	58288.70
557.32	58014.86
557.49	58237.21
557.65	58230.19
557.82	58120.18
557.98	58064.01
558.15	58110.82
558.32	58440.84
558.48	58302.74
558.65	58356.58
558.81	58363.60
558.98	58246.57
559.14	58300.40
559.31	58312.11
559.47	58370.62
559.64	58277.00
559.80	58515.73
559.97	58590.63
560.13	58265.30
560.30	58438.50
560.46	58632.76
560.63	58539.14
560.79	58562.54
560.96	58672.55
561.12	58609.35
561.29	58342.53
561.45	58567.23
561.61	58625.74
561.78	58548.50
561.94	58599.99
562.11	58597.65
562.27	58595.31
562.44	58595.31
562.60	58691.27
562.77	58597.65
562.93	58539.14
563.10	58955.75
563.26	58445.52
563.42	58843.41
563.59	58777.87
563.75	58803.62
563.92	58740.42
564.08	58569.57
564.24	58616.38
564.41	58576.59
564.57	58836.39
564.74	58747.45
564.90	58829.37
565.07	58850.43
565.23	59037.67
565.39	58883.20
565.56	58845.75
565.72	58862.13
565.88	58740.42
566.05	58808.30
566.21	58574.25
566.38	58873.84
566.54	58927.67
566.70	59107.89
566.87	58979.16
567.03	58934.69
567.19	59297.47
567.36	59117.25
567.52	58791.92
567.68	58946.39
567.85	58934.69
568.01	58988.52
568.17	59065.76
568.34	59032.99
568.50	59040.01
568.66	59098.53
568.83	59215.55
568.99	59018.95
569.15	59040.01
569.32	59014.27
569.48	58841.07
569.64	59112.57
569.81	59110.23
569.97	59103.21
570.13	58937.03
570.30	58974.48
570.46	59203.85
570.62	59384.07
570.78	59018.95
570.95	58820.00
571.11	59185.13
571.27	59348.96
571.43	59194.49
571.60	59187.47
571.76	59164.06
571.92	59440.24
572.09	59372.37
572.25	59341.94
572.41	59306.83
572.57	59330.24
572.74	59213.21
572.90	58972.14
573.06	59180.45
573.22	59355.99
573.38	59412.16
573.55	59051.72
573.71	59465.99
573.87	59423.86
574.03	59133.63
574.20	59592.38
574.36	59011.93
574.52	59140.66
574.68	59274.07
574.84	59220.23
575.01	59372.37
575.17	59320.88
575.33	59295.13
575.49	59461.31
575.65	59597.06
575.82	59737.49
575.98	59260.02
576.14	59267.05
576.30	59477.69
576.46	59508.12
576.62	59152.36
576.79	59344.28
576.95	59405.14
577.11	59430.88
577.27	59409.82
577.43	59433.22
577.59	59611.10
577.75	59444.93
577.92	59327.90
578.08	58986.18
578.24	59447.27
578.40	59353.65
578.56	59606.42
578.72	59571.32
578.88	59641.53
579.04	59491.74
579.21	59522.16
579.37	59737.49
579.53	59388.75
579.69	59173.42
579.85	59409.82
580.01	59531.53
580.17	59351.30
580.33	59379.39
580.49	59709.41
580.65	59746.86
580.82	59669.62
580.98	59618.13
581.14	59529.19
581.30	59756.22
581.46	59290.45
581.62	59253.00
581.78	59475.35
581.94	59779.62
582.10	59505.78
582.26	59559.61
582.42	59580.68
582.58	59758.56
582.74	59468.33
582.90	59531.53
583.06	59590.04
583.22	59571.32
583.38	59854.52
583.54	59571.32
583.70	59531.53
583.86	59824.09
584.02	59477.69
584.18	59777.28
584.34	59433.22
584.50	59681.32
584.66	59505.78
584.82	59498.76
584.98	59744.51
585.14	59753.88
585.30	59400.46
585.46	59430.88
585.62	59578.34
585.78	59650.89
585.94	59271.73
586.10	59798.35
586.26	59473.01
586.42	59828.77
586.58	59779.62
586.74	59648.55
586.90	59714.09
587.06	59678.98
587.22	59662.60
587.38	59526.84
587.54	59831.11
587.70	59948.14
587.86	59983.25
588.02	59770.26
588.18	59711.75
588.34	59742.17
588.49	59681.32
588.65	59517.48
588.81	59693.02
588.97	59662.60
589.13	59487.06
