SpectraSuite Data File
++++++++++++++++++++++++++++++++++++
Date: Fri Oct 04 11:47:19 GMT-05:00 2013
User: price-jones
Dark Spectrum Present: No
Reference Spectrum Present: No
Number of Sampled Component Spectra: 1
Spectrometers: USB2+H05261
Integration Time (usec): 100000 (USB2+H05261)
Spectra Averaged: 1 (USB2+H05261)
Boxcar Smoothing: 0 (USB2+H05261)
Correct for Electrical Dark: No (USB2+H05261)
Strobe/Lamp Enabled: No (USB2+H05261)
Correct for Detector Non-linearity: No (USB2+H05261)
Correct for Stray Light: No (USB2+H05261)
Number of Pixels in Processed Spectrum: 2048
>>>>>Begin Processed Spectral Data<<<<<
365.73	23.41
365.92	23.41
366.12	23.41
366.32	0.00
366.52	0.00
366.72	0.00
366.91	0.00
367.11	0.00
367.31	0.00
367.51	0.00
367.70	0.00
367.90	0.00
368.10	0.00
368.30	0.00
368.49	0.00
368.69	2.34
368.89	0.00
369.09	0.00
369.28	0.00
369.48	0.00
369.68	0.00
369.87	0.00
370.07	0.00
370.27	60.85
370.47	0.00
370.66	9.36
370.86	30.43
371.06	37.45
371.25	81.92
371.45	7.02
371.65	72.56
371.84	28.09
372.04	28.09
372.24	105.32
372.44	79.58
372.63	58.51
372.83	135.75
373.03	18.72
373.22	88.94
373.42	86.60
373.62	77.24
373.81	65.54
374.01	81.92
374.21	86.60
374.40	95.96
374.60	100.64
374.79	77.24
374.99	98.30
375.19	46.81
375.38	98.30
375.58	58.51
375.78	53.83
375.97	63.19
376.17	168.52
376.37	138.09
376.56	84.26
376.76	74.90
376.95	91.28
377.15	119.37
377.35	163.84
377.54	107.66
377.74	63.19
377.93	88.94
378.13	124.05
378.33	124.05
378.52	128.73
378.72	124.05
378.91	126.39
379.11	107.66
379.31	135.75
379.50	88.94
379.70	95.96
379.89	100.64
380.09	49.15
380.28	88.94
380.48	135.75
380.68	128.73
380.87	110.01
381.07	93.62
381.26	84.26
381.46	93.62
381.65	135.75
381.85	95.96
382.04	119.37
382.24	145.11
382.43	58.51
382.63	32.77
382.83	58.51
383.02	46.81
383.22	119.37
383.41	65.54
383.61	84.26
383.80	93.62
384.00	60.85
384.19	166.18
384.39	128.73
384.58	93.62
384.78	177.88
384.97	88.94
385.17	23.41
385.36	9.36
385.56	121.71
385.75	42.13
385.95	72.56
386.14	133.41
386.34	128.73
386.53	93.62
386.72	65.54
386.92	91.28
387.11	91.28
387.31	110.01
387.50	42.13
387.70	56.17
387.89	175.54
388.09	58.51
388.28	23.41
388.48	98.30
388.67	91.28
388.86	124.05
389.06	81.92
389.25	93.62
389.45	39.79
389.64	70.22
389.84	140.43
390.03	105.32
390.22	100.64
390.42	88.94
390.61	131.07
390.81	88.94
391.00	67.88
391.19	114.69
391.39	133.41
391.58	91.28
391.78	138.09
391.97	124.05
392.16	32.77
392.36	159.16
392.55	102.98
392.75	128.73
392.94	117.03
393.13	107.66
393.33	0.00
393.52	88.94
393.71	107.66
393.91	102.98
394.10	77.24
394.29	142.77
394.49	124.05
394.68	126.39
394.88	208.31
395.07	100.64
395.26	131.07
395.46	102.98
395.65	145.11
395.84	79.58
396.04	147.45
396.23	102.98
396.42	49.15
396.62	126.39
396.81	140.43
397.00	70.22
397.19	102.98
397.39	32.77
397.58	86.60
397.77	102.98
397.97	102.98
398.16	121.71
398.35	117.03
398.55	163.84
398.74	44.47
398.93	128.73
399.12	35.11
399.32	117.03
399.51	142.77
399.70	177.88
399.90	135.75
400.09	105.32
400.28	98.30
400.47	142.77
400.67	133.41
400.86	184.90
401.05	135.75
401.24	154.48
401.44	154.48
401.63	72.56
401.82	105.32
402.01	86.60
402.21	74.90
402.40	88.94
402.59	77.24
402.78	102.98
402.97	95.96
403.17	145.11
403.36	121.71
403.55	142.77
403.74	107.66
403.93	175.54
404.13	149.79
404.32	133.41
404.51	126.39
404.70	114.69
404.89	124.05
405.09	131.07
405.28	121.71
405.47	65.54
405.66	100.64
405.85	102.98
406.05	189.58
406.24	131.07
406.43	95.96
406.62	128.73
406.81	156.82
407.00	105.32
407.20	145.11
407.39	117.03
407.58	86.60
407.77	142.77
407.96	110.01
408.15	156.82
408.34	131.07
408.54	98.30
408.73	98.30
408.92	142.77
409.11	112.35
409.30	86.60
409.49	65.54
409.68	112.35
409.87	124.05
410.07	74.90
410.26	131.07
410.45	88.94
410.64	84.26
410.83	100.64
411.02	86.60
411.21	88.94
411.40	147.45
411.59	74.90
411.78	70.22
411.98	161.50
412.17	86.60
412.36	140.43
412.55	138.09
412.74	107.66
412.93	194.26
413.12	208.31
413.31	114.69
413.50	86.60
413.69	67.88
413.88	140.43
414.07	133.41
414.26	142.77
414.45	88.94
414.64	154.48
414.83	173.20
415.02	156.82
415.22	147.45
415.41	184.90
415.60	189.58
415.79	126.39
415.98	117.03
416.17	58.51
416.36	133.41
416.55	147.45
416.74	154.48
416.93	102.98
417.12	107.66
417.31	60.85
417.50	110.01
417.69	117.03
417.88	117.03
418.07	147.45
418.26	98.30
418.45	95.96
418.64	177.88
418.83	159.16
419.02	177.88
419.21	166.18
419.39	238.73
419.58	138.09
419.77	152.13
419.96	191.92
420.15	161.50
420.34	126.39
420.53	18.72
420.72	98.30
420.91	60.85
421.10	95.96
421.29	121.71
421.48	112.35
421.67	114.69
421.86	112.35
422.05	128.73
422.24	180.22
422.43	163.84
422.61	117.03
422.80	81.92
422.99	194.26
423.18	142.77
423.37	77.24
423.56	131.07
423.75	161.50
423.94	119.37
424.13	70.22
424.32	79.58
424.50	159.16
424.69	102.98
424.88	161.50
425.07	93.62
425.26	208.31
425.45	180.22
425.64	245.76
425.83	133.41
426.01	175.54
426.20	114.69
426.39	142.77
426.58	203.63
426.77	149.79
426.96	159.16
427.15	86.60
427.33	121.71
427.52	149.79
427.71	147.45
427.90	119.37
428.09	138.09
428.28	86.60
428.46	70.22
428.65	128.73
428.84	121.71
429.03	173.20
429.22	117.03
429.40	74.90
429.59	124.05
429.78	168.52
429.97	95.96
430.16	142.77
430.34	131.07
430.53	124.05
430.72	98.30
430.91	142.77
431.10	166.18
431.28	131.07
431.47	208.31
431.66	159.16
431.85	112.35
432.03	163.84
432.22	177.88
432.41	112.35
432.60	191.92
432.79	133.41
432.97	238.73
433.16	292.57
433.35	252.78
433.54	110.01
433.72	140.43
433.91	163.84
434.10	210.65
434.28	152.13
434.47	154.48
434.66	201.29
434.85	138.09
435.03	105.32
435.22	191.92
435.41	191.92
435.59	156.82
435.78	149.79
435.97	135.75
436.16	159.16
436.34	70.22
436.53	91.28
436.72	79.58
436.90	170.86
437.09	175.54
437.28	105.32
437.46	84.26
437.65	79.58
437.84	112.35
438.02	67.88
438.21	131.07
438.40	84.26
438.58	135.75
438.77	161.50
438.96	86.60
439.14	56.17
439.33	88.94
439.52	135.75
439.70	154.48
439.89	201.29
440.08	147.45
440.26	126.39
440.45	184.90
440.63	159.16
440.82	126.39
441.01	180.22
441.19	149.79
441.38	114.69
441.57	140.43
441.75	93.62
441.94	149.79
442.12	114.69
442.31	110.01
442.50	191.92
442.68	70.22
442.87	196.60
443.05	105.32
443.24	124.05
443.43	128.73
443.61	234.05
443.80	175.54
443.98	126.39
444.17	84.26
444.35	154.48
444.54	88.94
444.73	74.90
444.91	196.60
445.10	102.98
445.28	168.52
445.47	124.05
445.65	112.35
445.84	119.37
446.02	98.30
446.21	32.77
446.39	152.13
446.58	91.28
446.77	131.07
446.95	149.79
447.14	210.65
447.32	243.42
447.51	117.03
447.69	138.09
447.88	180.22
448.06	138.09
448.25	128.73
448.43	93.62
448.62	28.09
448.80	63.19
448.99	168.52
449.17	142.77
449.36	135.75
449.54	133.41
449.73	198.95
449.91	182.56
450.10	177.88
450.28	168.52
450.46	234.05
450.65	135.75
450.83	46.81
451.02	95.96
451.20	149.79
451.39	140.43
451.57	138.09
451.76	191.92
451.94	105.32
452.13	152.13
452.31	170.86
452.49	56.17
452.68	110.01
452.86	95.96
453.05	154.48
453.23	126.39
453.42	56.17
453.60	159.16
453.78	229.37
453.97	110.01
454.15	138.09
454.34	135.75
454.52	163.84
454.70	110.01
454.89	156.82
455.07	70.22
455.26	133.41
455.44	196.60
455.62	67.88
455.81	163.84
455.99	168.52
456.17	107.66
456.36	138.09
456.54	88.94
456.73	102.98
456.91	105.32
457.09	217.67
457.28	161.50
457.46	126.39
457.64	133.41
457.83	56.17
458.01	58.51
458.19	77.24
458.38	140.43
458.56	117.03
458.74	67.88
458.93	138.09
459.11	56.17
459.29	133.41
459.48	166.18
459.66	166.18
459.84	135.75
460.03	231.71
460.21	86.60
460.39	170.86
460.57	126.39
460.76	142.77
460.94	187.24
461.12	203.63
461.31	166.18
461.49	114.69
461.67	135.75
461.85	159.16
462.04	161.50
462.22	564.07
462.40	145.11
462.59	119.37
462.77	140.43
462.95	152.13
463.13	147.45
463.32	140.43
463.50	201.29
463.68	161.50
463.86	163.84
464.05	142.77
464.23	95.96
464.41	163.84
464.59	135.75
464.78	163.84
464.96	173.20
465.14	182.56
465.32	147.45
465.50	159.16
465.69	163.84
465.87	152.13
466.05	72.56
466.23	133.41
466.41	77.24
466.60	156.82
466.78	128.73
466.96	229.37
467.14	112.35
467.32	121.71
467.51	126.39
467.69	196.60
467.87	187.24
468.05	112.35
468.23	224.69
468.41	121.71
468.60	168.52
468.78	173.20
468.96	138.09
469.14	126.39
469.32	93.62
469.50	37.45
469.69	128.73
469.87	133.41
470.05	121.71
470.23	53.83
470.41	135.75
470.59	154.48
470.77	142.77
470.95	100.64
471.14	147.45
471.32	163.84
471.50	170.86
471.68	107.66
471.86	208.31
472.04	182.56
472.22	177.88
472.40	147.45
472.58	70.22
472.77	91.28
472.95	205.97
473.13	163.84
473.31	140.43
473.49	135.75
473.67	163.84
473.85	102.98
474.03	93.62
474.21	163.84
474.39	191.92
474.57	194.26
474.75	147.45
474.93	147.45
475.12	145.11
475.30	114.69
475.48	145.11
475.66	72.56
475.84	229.37
476.02	91.28
476.20	163.84
476.38	180.22
476.56	229.37
476.74	140.43
476.92	98.30
477.10	100.64
477.28	152.13
477.46	161.50
477.64	156.82
477.82	163.84
478.00	105.32
478.18	191.92
478.36	159.16
478.54	79.58
478.72	175.54
478.90	131.07
479.08	117.03
479.26	138.09
479.44	107.66
479.62	93.62
479.80	147.45
479.98	147.45
480.16	84.26
480.34	154.48
480.52	100.64
480.70	124.05
480.88	117.03
481.06	65.54
481.24	159.16
481.41	191.92
481.59	121.71
481.77	159.16
481.95	98.30
482.13	154.48
482.31	210.65
482.49	154.48
482.67	175.54
482.85	166.18
483.03	152.13
483.21	173.20
483.39	128.73
483.57	166.18
483.74	210.65
483.92	121.71
484.10	159.16
484.28	149.79
484.46	180.22
484.64	135.75
484.82	194.26
485.00	147.45
485.18	231.71
485.35	177.88
485.53	131.07
485.71	133.41
485.89	126.39
486.07	112.35
486.25	189.58
486.43	119.37
486.61	88.94
486.78	222.35
486.96	124.05
487.14	210.65
487.32	187.24
487.50	189.58
487.68	163.84
487.85	156.82
488.03	182.56
488.21	184.90
488.39	198.95
488.57	191.92
488.75	105.32
488.92	395.55
489.10	161.50
489.28	168.52
489.46	194.26
489.64	56.17
489.81	121.71
489.99	163.84
490.17	156.82
490.35	227.03
490.53	152.13
490.70	177.88
490.88	212.99
491.06	191.92
491.24	187.24
491.41	177.88
491.59	184.90
491.77	215.33
491.95	182.56
492.13	119.37
492.30	217.67
492.48	159.16
492.66	168.52
492.84	138.09
493.01	91.28
493.19	184.90
493.37	227.03
493.54	189.58
493.72	175.54
493.90	173.20
494.08	105.32
494.25	105.32
494.43	177.88
494.61	114.69
494.79	182.56
494.96	189.58
495.14	184.90
495.32	177.88
495.49	180.22
495.67	191.92
495.85	194.26
496.02	156.82
496.20	180.22
496.38	196.60
496.55	217.67
496.73	250.44
496.91	126.39
497.09	210.65
497.26	252.78
497.44	262.14
497.62	180.22
497.79	180.22
497.97	161.50
498.14	241.08
498.32	217.67
498.50	138.09
498.67	170.86
498.85	126.39
499.03	283.20
499.20	215.33
499.38	119.37
499.56	88.94
499.73	168.52
499.91	166.18
500.08	264.48
500.26	217.67
500.44	210.65
500.61	224.69
500.79	105.32
500.97	152.13
501.14	124.05
501.32	131.07
501.49	205.97
501.67	243.42
501.84	184.90
502.02	163.84
502.20	290.23
502.37	142.77
502.55	269.16
502.72	180.22
502.90	201.29
503.07	196.60
503.25	173.20
503.43	168.52
503.60	168.52
503.78	189.58
503.95	138.09
504.13	149.79
504.30	290.23
504.48	177.88
504.65	198.95
504.83	184.90
505.01	198.95
505.18	245.76
505.36	114.69
505.53	187.24
505.71	224.69
505.88	173.20
506.06	173.20
506.23	180.22
506.41	126.39
506.58	234.05
506.76	159.16
506.93	154.48
507.11	252.78
507.28	170.86
507.46	229.37
507.63	208.31
507.81	250.44
507.98	276.18
508.16	241.08
508.33	266.82
508.50	177.88
508.68	210.65
508.85	198.95
509.03	180.22
509.20	257.46
509.38	191.92
509.55	191.92
509.73	191.92
509.90	264.48
510.08	273.84
510.25	205.97
510.42	133.41
510.60	156.82
510.77	198.95
510.95	243.42
511.12	191.92
511.30	276.18
511.47	255.12
511.64	313.63
511.82	229.37
511.99	248.10
512.17	191.92
512.34	117.03
512.51	173.20
512.69	245.76
512.86	177.88
513.04	131.07
513.21	156.82
513.38	95.96
513.56	187.24
513.73	201.29
513.90	166.18
514.08	238.73
514.25	159.16
514.43	210.65
514.60	189.58
514.77	215.33
514.95	191.92
515.12	217.67
515.29	217.67
515.47	217.67
515.64	201.29
515.81	215.33
515.99	245.76
516.16	266.82
516.33	189.58
516.51	152.13
516.68	135.75
516.85	191.92
517.03	217.67
517.20	182.56
517.37	182.56
517.54	299.59
517.72	201.29
517.89	177.88
518.06	196.60
518.24	243.42
518.41	252.78
518.58	198.95
518.75	229.37
518.93	220.01
519.10	201.29
519.27	194.26
519.45	173.20
519.62	184.90
519.79	187.24
519.96	229.37
520.14	229.37
520.31	278.52
520.48	229.37
520.65	205.97
520.83	229.37
521.00	187.24
521.17	245.76
521.34	194.26
521.52	128.73
521.69	175.54
521.86	208.31
522.03	269.16
522.20	262.14
522.38	175.54
522.55	217.67
522.72	102.98
522.89	236.39
523.07	290.23
523.24	224.69
523.41	138.09
523.58	163.84
523.75	166.18
523.92	227.03
524.10	173.20
524.27	187.24
524.44	238.73
524.61	245.76
524.78	114.69
524.96	236.39
525.13	245.76
525.30	290.23
525.47	220.01
525.64	154.48
525.81	210.65
525.98	252.78
526.16	212.99
526.33	189.58
526.50	201.29
526.67	203.63
526.84	117.03
527.01	180.22
527.18	241.08
527.36	173.20
527.53	215.33
527.70	243.42
527.87	203.63
528.04	224.69
528.21	266.82
528.38	203.63
528.55	255.12
528.72	250.44
528.89	297.25
529.07	201.29
529.24	227.03
529.41	248.10
529.58	203.63
529.75	255.12
529.92	175.54
530.09	180.22
530.26	189.58
530.43	243.42
530.60	217.67
530.77	224.69
530.94	163.84
531.11	238.73
531.28	224.69
531.46	222.35
531.63	131.07
531.80	217.67
531.97	266.82
532.14	243.42
532.31	229.37
532.48	227.03
532.65	287.89
532.82	379.17
532.99	332.36
533.16	201.29
533.33	252.78
533.50	229.37
533.67	325.33
533.84	341.72
534.01	421.30
534.18	358.10
534.35	292.57
534.52	252.78
534.69	227.03
534.86	227.03
535.03	238.73
535.20	245.76
535.37	205.97
535.54	264.48
535.71	250.44
535.88	341.72
536.05	208.31
536.22	250.44
536.38	236.39
536.55	210.65
536.72	175.54
536.89	196.60
537.06	184.90
537.23	196.60
537.40	191.92
537.57	198.95
537.74	187.24
537.91	168.52
538.08	156.82
538.25	241.08
538.42	224.69
538.59	264.48
538.75	182.56
538.92	203.63
539.09	259.80
539.26	194.26
539.43	386.19
539.60	1015.79
539.77	1605.61
539.94	1797.53
540.11	1198.35
540.28	662.37
540.44	421.30
540.61	262.14
540.78	255.12
540.95	177.88
541.12	208.31
541.29	264.48
541.46	297.25
541.62	257.46
541.79	152.13
541.96	203.63
542.13	205.97
542.30	227.03
542.47	205.97
542.63	241.08
542.80	257.46
542.97	234.05
543.14	248.10
543.31	208.31
543.48	152.13
543.64	280.86
543.81	222.35
543.98	159.16
544.15	159.16
544.32	210.65
544.48	259.80
544.65	168.52
544.82	227.03
544.99	210.65
545.16	276.18
545.32	156.82
545.49	208.31
545.66	159.16
545.83	194.26
546.00	252.78
546.16	212.99
546.33	205.97
546.50	262.14
546.67	287.89
546.83	262.14
547.00	161.50
547.17	180.22
547.34	227.03
547.50	231.71
547.67	212.99
547.84	166.18
548.00	276.18
548.17	191.92
548.34	236.39
548.51	238.73
548.67	252.78
548.84	236.39
549.01	217.67
549.18	163.84
549.34	234.05
549.51	273.84
549.68	224.69
549.84	196.60
550.01	112.35
550.18	264.48
550.34	280.86
550.51	234.05
550.68	241.08
550.84	175.54
551.01	210.65
551.18	262.14
551.34	161.50
551.51	245.76
551.68	224.69
551.84	191.92
552.01	205.97
552.18	217.67
552.34	215.33
552.51	210.65
552.68	264.48
552.84	262.14
553.01	280.86
553.18	224.69
553.34	168.52
553.51	170.86
553.67	180.22
553.84	252.78
554.01	198.95
554.17	234.05
554.34	163.84
554.51	184.90
554.67	222.35
554.84	180.22
555.00	227.03
555.17	266.82
555.33	238.73
555.50	194.26
555.67	175.54
555.83	236.39
556.00	182.56
556.16	393.21
556.33	217.67
556.50	203.63
556.66	191.92
556.83	203.63
556.99	217.67
557.16	220.01
557.32	224.69
557.49	184.90
557.65	220.01
557.82	227.03
557.98	224.69
558.15	161.50
558.32	196.60
558.48	147.45
558.65	210.65
558.81	168.52
558.98	227.03
559.14	189.58
559.31	177.88
559.47	205.97
559.64	220.01
559.80	255.12
559.97	156.82
560.13	278.52
560.30	180.22
560.46	241.08
560.63	191.92
560.79	184.90
560.96	145.11
561.12	212.99
561.29	248.10
561.45	133.41
561.61	191.92
561.78	222.35
561.94	194.26
562.11	161.50
562.27	170.86
562.44	248.10
562.60	182.56
562.77	201.29
562.93	320.65
563.10	217.67
563.26	163.84
563.42	166.18
563.59	189.58
563.75	152.13
563.92	173.20
564.08	217.67
564.24	241.08
564.41	243.42
564.57	110.01
564.74	257.46
564.90	159.16
565.07	184.90
565.23	255.12
565.39	227.03
565.56	287.89
565.72	203.63
565.88	262.14
566.05	243.42
566.21	243.42
566.38	224.69
566.54	229.37
566.70	191.92
566.87	135.75
567.03	177.88
567.19	201.29
567.36	231.71
567.52	234.05
567.68	301.93
567.85	264.48
568.01	215.33
568.17	163.84
568.34	147.45
568.50	156.82
568.66	205.97
568.83	299.59
568.99	227.03
569.15	222.35
569.32	276.18
569.48	189.58
569.64	191.92
569.81	222.35
569.97	203.63
570.13	175.54
570.30	154.48
570.46	227.03
570.62	220.01
570.78	161.50
570.95	140.43
571.11	224.69
571.27	203.63
571.43	222.35
571.60	266.82
571.76	205.97
571.92	224.69
572.09	191.92
572.25	184.90
572.41	166.18
572.57	217.67
572.74	241.08
572.90	222.35
573.06	198.95
573.22	243.42
573.38	224.69
573.55	262.14
573.71	243.42
573.87	191.92
574.03	245.76
574.20	147.45
574.36	341.72
574.52	306.61
574.68	348.74
574.84	322.99
575.01	269.16
575.17	318.31
575.33	205.97
575.49	290.23
575.65	245.76
575.82	287.89
575.98	484.49
576.14	674.07
576.30	767.70
576.46	552.37
576.62	428.32
576.79	365.12
576.95	308.95
577.11	250.44
577.27	255.12
577.43	231.71
577.59	245.76
577.75	241.08
577.92	194.26
578.08	304.27
578.24	236.39
578.40	217.67
578.56	325.33
578.72	280.86
578.88	248.10
579.04	236.39
579.21	257.46
579.37	248.10
579.53	278.52
579.69	292.57
579.85	285.55
580.01	301.93
580.17	339.38
580.33	372.15
580.49	374.49
580.65	327.68
580.82	320.65
580.98	301.93
581.14	255.12
581.30	315.97
581.46	435.34
581.62	596.84
581.78	613.22
581.94	636.63
582.10	456.40
582.26	444.70
582.42	367.46
582.58	348.74
582.74	397.89
582.90	468.11
583.06	440.02
583.22	435.34
583.38	404.91
583.54	540.66
583.70	617.90
583.86	620.24
584.02	760.67
584.18	976.00
584.34	1303.68
584.50	3325.90
584.66	24636.48
584.82	57811.23
584.98	65535.00
585.14	65535.00
585.30	53956.37
585.46	33120.92
585.62	20503.09
585.78	9401.93
585.94	3562.30
586.10	1750.72
586.26	1100.05
586.42	901.11
586.58	664.71
586.74	676.41
586.90	641.31
587.06	585.13
587.22	498.53
587.38	484.49
587.54	1095.37
587.70	3606.77
587.86	6349.87
588.02	7630.15
588.18	5109.39
588.34	3262.71
588.49	2146.27
588.65	1214.74
588.81	645.99
588.97	390.87
589.13	365.12
589.29	341.72
589.45	344.06
589.61	369.80
589.77	409.59
589.93	423.64
590.08	454.06
590.24	395.55
590.40	400.23
590.56	351.08
590.72	315.97
590.88	315.97
591.04	313.63
591.20	297.25
591.35	423.64
591.51	266.82
591.67	245.76
591.83	285.55
591.99	334.70
592.15	292.57
592.31	201.29
592.46	243.42
592.62	287.89
592.78	224.69
592.94	308.95
593.10	306.61
593.26	250.44
593.41	365.12
593.57	411.93
593.73	559.39
593.89	2876.52
594.05	7911.01
594.20	12491.44
594.36	12154.40
594.52	7911.01
594.68	4875.34
594.84	3260.37
594.99	1755.40
595.15	828.55
595.31	447.04
595.47	355.76
595.62	269.16
595.78	308.95
595.94	287.89
596.10	299.59
596.25	353.42
596.41	325.33
596.57	301.93
596.73	243.42
596.88	538.32
597.04	1495.60
597.20	2548.84
597.36	3073.12
597.51	2188.40
597.67	1497.94
597.83	1064.94
597.99	671.73
598.14	383.85
598.30	376.83
598.46	252.78
598.61	372.15
598.77	304.27
598.93	308.95
599.09	271.50
599.24	264.48
599.40	205.97
599.56	283.20
599.71	320.65
599.87	283.20
600.03	238.73
600.18	234.05
600.34	257.46
600.50	119.37
600.65	250.44
600.81	276.18
600.97	224.69
601.12	215.33
601.28	276.18
601.44	241.08
601.59	194.26
601.75	224.69
601.91	294.91
602.06	227.03
602.22	367.46
602.37	734.93
602.53	1806.89
602.69	2920.99
602.84	3201.85
603.00	2373.30
603.16	1563.48
603.31	1128.14
603.47	599.18
603.62	430.66
603.78	297.25
603.94	248.10
604.09	322.99
604.25	212.99
604.40	273.84
604.56	180.22
604.71	241.08
604.87	224.69
605.03	262.14
605.18	308.95
605.34	241.08
605.49	241.08
605.65	243.42
605.80	238.73
605.96	241.08
606.12	332.36
606.27	358.10
606.43	264.48
606.58	404.91
606.74	919.83
606.89	3545.91
607.05	7576.31
607.20	10581.56
607.36	9060.21
607.51	5949.64
607.67	3772.94
607.82	2588.63
607.98	1362.19
608.13	631.94
608.29	421.30
608.44	421.30
608.60	367.46
608.75	484.49
608.91	1221.76
609.06	5540.05
609.22	12774.64
609.37	18820.25
609.53	16264.38
609.68	10527.73
609.84	6726.70
609.99	4564.04
610.15	2382.67
610.30	1060.26
610.46	500.87
610.61	411.93
610.76	315.97
610.92	351.08
611.07	325.33
611.23	379.17
611.38	255.12
611.54	285.55
611.69	283.20
611.84	301.93
