SpectraSuite Data File
++++++++++++++++++++++++++++++++++++
Date: Fri Oct 04 11:48:48 GMT-05:00 2013
User: price-jones
Dark Spectrum Present: No
Reference Spectrum Present: No
Number of Sampled Component Spectra: 1
Spectrometers: USB2+H05261
Integration Time (usec): 100000 (USB2+H05261)
Spectra Averaged: 1 (USB2+H05261)
Boxcar Smoothing: 0 (USB2+H05261)
Correct for Electrical Dark: No (USB2+H05261)
Strobe/Lamp Enabled: No (USB2+H05261)
Correct for Detector Non-linearity: No (USB2+H05261)
Correct for Stray Light: No (USB2+H05261)
Number of Pixels in Processed Spectrum: 2048
>>>>>Begin Processed Spectral Data<<<<<
365.73	39.79
365.92	39.79
366.12	39.79
366.32	0.00
366.52	0.00
366.72	0.00
366.91	0.00
367.11	0.00
367.31	0.00
367.51	0.00
367.70	0.00
367.90	0.00
368.10	0.00
368.30	0.00
368.49	0.00
368.69	0.00
368.89	0.00
369.09	0.00
369.28	0.00
369.48	0.00
369.68	0.00
369.87	0.00
370.07	7.02
370.27	28.09
370.47	72.56
370.66	205.97
370.86	217.67
371.06	229.37
371.25	330.02
371.45	339.38
371.65	311.29
371.84	294.91
372.04	395.55
372.24	266.82
372.44	330.02
372.63	365.12
372.83	362.78
373.03	325.33
373.22	337.04
373.42	404.91
373.62	362.78
373.81	379.17
374.01	381.51
374.21	390.87
374.40	388.53
374.60	430.66
374.79	390.87
374.99	400.23
375.19	386.19
375.38	418.96
375.58	463.43
375.78	451.72
375.97	404.91
376.17	451.72
376.37	526.62
376.56	428.32
376.76	414.27
376.95	482.15
377.15	423.64
377.35	482.15
377.54	484.49
377.74	404.91
377.93	482.15
378.13	449.38
378.33	482.15
378.52	479.81
378.72	507.90
378.91	526.62
379.11	421.30
379.31	451.72
379.50	449.38
379.70	498.53
379.89	470.45
380.09	440.02
380.28	449.38
380.48	458.74
380.68	475.13
380.87	442.36
381.07	486.83
381.26	599.18
381.46	493.85
381.65	456.40
381.85	517.26
382.04	540.66
382.24	458.74
382.43	564.07
382.63	433.00
382.83	484.49
383.02	524.28
383.22	599.18
383.41	603.86
383.61	571.09
383.80	543.00
384.00	568.75
384.19	578.11
384.39	641.31
384.58	599.18
384.78	540.66
384.97	514.92
385.17	603.86
385.36	615.56
385.56	653.01
385.75	538.32
385.95	603.86
386.14	622.58
386.34	615.56
386.53	627.26
386.72	627.26
386.92	718.54
387.11	627.26
387.31	620.24
387.50	472.79
387.70	650.67
387.89	653.01
388.09	631.94
388.28	664.71
388.48	704.50
388.67	727.91
388.86	667.05
389.06	784.08
389.25	739.61
389.45	688.12
389.64	727.91
389.84	699.82
390.03	664.71
390.22	760.67
390.42	711.52
390.61	709.18
390.81	645.99
391.00	748.97
391.19	716.20
391.39	770.04
391.58	711.52
391.78	777.06
391.97	748.97
392.16	830.89
392.36	798.12
392.55	784.08
392.75	814.51
392.94	835.57
393.13	915.15
393.33	770.04
393.52	798.12
393.71	917.49
393.91	798.12
394.10	814.51
394.29	840.25
394.49	912.81
394.68	889.40
394.88	856.64
395.07	910.47
395.26	936.21
395.46	947.92
395.65	929.19
395.84	964.30
396.04	959.62
396.23	959.62
396.42	966.64
396.62	976.00
396.81	863.66
397.00	943.24
397.19	1060.26
397.39	994.73
397.58	924.51
397.77	1043.88
397.97	1053.24
398.16	1022.81
398.35	1160.91
398.55	1064.94
398.74	1048.56
398.93	1034.52
399.12	1060.26
399.32	1004.09
399.51	1186.65
399.70	1139.84
399.90	1130.48
400.09	1125.80
400.28	1137.50
400.47	1203.04
400.67	1188.99
400.86	1132.82
401.05	1151.54
401.24	1203.04
401.44	1179.63
401.63	1299.00
401.82	1270.91
402.01	1214.74
402.21	1291.98
402.40	1296.66
402.59	1252.19
402.78	1231.12
402.97	1224.10
403.17	1327.08
403.36	1291.98
403.55	1392.62
403.74	1418.36
403.93	1399.64
404.13	1460.49
404.32	1451.13
404.51	1427.73
404.70	1413.68
404.89	1451.13
405.09	1474.54
405.28	1483.90
405.47	1423.05
405.66	1551.78
405.85	1617.31
406.05	1460.49
406.24	1551.78
406.43	1591.56
406.62	1671.14
406.81	1682.85
407.00	1640.72
407.20	1511.99
407.39	1591.56
407.58	1720.29
407.77	1682.85
407.96	1682.85
408.15	1701.57
408.34	1781.15
408.54	1724.97
408.73	1713.27
408.92	1750.72
409.11	1774.13
409.30	1895.83
409.49	1795.19
409.68	1919.24
409.87	1942.64
410.07	1865.41
410.26	1909.88
410.45	1933.28
410.64	1923.92
410.83	1949.67
411.02	2017.54
411.21	2118.18
411.40	2101.80
411.59	2104.14
411.78	2094.78
411.98	2059.67
412.17	2115.84
412.36	2097.12
412.55	2129.89
412.74	2284.36
412.93	2172.02
413.12	2218.83
413.31	2352.24
413.50	2221.17
413.69	2225.85
413.88	2345.22
414.07	2375.64
414.26	2427.14
414.45	2326.49
414.64	2443.52
414.83	2471.61
415.02	2483.31
415.22	2495.01
415.41	2567.57
415.60	2534.80
415.79	2567.57
415.98	2656.51
416.17	2654.17
416.36	2607.36
416.55	2715.02
416.74	2778.22
416.93	2757.15
417.12	2857.79
417.31	2698.64
417.50	2747.79
417.69	2918.65
417.88	2815.66
418.07	2897.58
418.26	2864.82
418.45	2874.18
418.64	2998.23
418.83	2913.97
419.02	2928.01
419.21	2998.23
419.39	3038.02
419.58	2953.76
419.77	3108.23
419.96	2986.52
420.15	3183.13
420.34	3007.59
420.53	3040.36
420.72	3089.51
420.91	3040.36
421.10	3218.24
421.29	3150.36
421.48	3129.30
421.67	3309.52
421.86	3150.36
422.05	3232.28
422.24	3204.19
422.43	3218.24
422.61	3239.30
422.80	3353.99
422.99	3288.45
423.18	3353.99
423.37	3431.23
423.56	3325.90
423.75	3297.81
423.94	3253.34
424.13	3033.33
424.32	3148.02
424.50	3384.41
424.69	3471.01
424.88	3361.01
425.07	3293.13
425.26	3337.60
425.45	3307.18
425.64	3389.10
425.83	3321.22
426.01	3513.14
426.20	3487.40
426.39	3323.56
426.58	3452.29
426.77	3522.51
426.96	3604.42
427.15	3487.40
427.33	3590.38
427.52	3515.48
427.71	3412.50
427.90	3463.99
428.09	3709.75
428.28	3557.61
428.46	3655.92
428.65	3669.96
428.84	3789.33
429.03	3726.13
429.22	3669.96
429.40	3681.66
429.59	3702.73
429.78	3871.25
429.97	3550.59
430.16	3548.25
430.34	3815.07
430.53	3838.48
430.72	3843.16
430.91	3761.24
431.10	3786.99
431.28	3889.97
431.47	3999.98
431.66	3904.01
431.85	3852.52
432.03	4014.02
432.22	4128.70
432.41	3976.57
432.60	3957.85
432.79	3899.33
432.97	4152.11
433.16	4051.47
433.35	3948.48
433.54	4039.76
433.72	4201.26
433.91	4140.41
434.10	4126.36
434.28	4175.52
434.47	4032.74
434.66	4292.54
434.85	4236.37
435.03	4318.29
435.22	4236.37
435.41	4367.44
435.59	4383.82
435.78	4344.03
435.97	4484.47
436.16	4374.46
436.34	4322.97
436.53	4491.49
436.72	4606.17
436.90	4311.27
437.09	4542.98
437.28	4355.74
437.46	4404.89
437.65	4444.68
437.84	4641.28
438.02	4603.83
438.21	4444.68
438.40	4535.96
438.58	4784.06
438.77	4812.14
438.96	4727.88
439.14	4760.65
439.33	4844.91
439.52	4830.87
439.70	4835.55
439.89	5188.97
440.08	4933.85
440.26	4961.94
440.45	5135.14
440.63	5181.95
440.82	5259.18
441.01	5139.82
441.19	5142.16
441.38	5275.57
441.57	5245.14
441.75	5268.55
441.94	5460.47
442.12	5320.04
442.31	5476.85
442.50	5568.13
442.68	5458.13
442.87	5451.11
443.05	5643.03
443.24	5694.52
443.43	5612.60
443.61	5577.50
443.80	5696.86
443.98	5650.05
444.17	5317.70
444.35	5781.12
444.54	5877.09
444.73	5647.71
444.91	5699.20
445.10	5708.57
445.28	5680.48
445.47	5598.56
445.65	5753.04
445.84	5605.58
446.02	5820.91
446.21	5743.67
446.39	5713.25
446.58	5764.74
446.77	5771.76
446.95	5769.42
447.14	5755.38
447.32	5748.36
447.51	5865.38
447.69	5832.62
447.88	5827.93
448.06	5886.45
448.25	5940.28
448.43	5837.30
448.62	5802.19
448.80	5825.59
448.99	5898.15
449.17	5699.20
449.36	5877.09
449.54	5951.98
449.73	6083.05
449.91	6069.01
450.10	6200.08
450.28	6291.36
450.46	6043.26
450.65	6289.02
450.83	6141.57
451.02	6169.65
451.20	6223.48
451.39	6216.46
451.57	6092.41
451.76	6218.80
451.94	6303.06
452.13	6345.19
452.31	6441.15
452.49	6314.77
452.68	6469.24
452.86	6408.39
453.05	6506.69
453.23	6516.05
453.42	6445.84
453.60	6399.02
453.78	6590.95
453.97	6370.94
454.15	6445.84
454.34	6354.55
454.52	6733.72
454.70	6700.95
454.89	6633.08
455.07	6658.82
455.26	6867.13
455.44	6740.74
455.62	6850.75
455.81	6698.61
455.99	6534.78
456.17	6803.94
456.36	6693.93
456.54	6960.75
456.73	6871.81
456.91	6967.77
457.09	7063.74
457.28	7246.30
457.46	7122.25
457.64	7265.02
457.83	6960.75
458.01	7096.50
458.19	7234.60
458.38	7262.68
458.56	7379.71
458.74	7180.76
458.93	7117.57
459.11	7250.98
459.29	7360.98
459.48	7250.98
459.66	7236.94
459.84	7382.05
460.03	7508.44
460.21	7478.01
460.39	7590.36
460.57	7407.80
460.76	7515.46
460.94	7676.96
461.12	7630.15
461.31	7735.47
461.49	7595.04
461.67	7686.32
461.85	7885.26
462.04	7756.54
462.22	8189.53
462.40	7775.26
462.59	7761.22
462.77	7793.98
462.95	7983.57
463.13	7808.03
463.32	7960.16
463.50	7861.86
463.68	8035.06
463.86	7971.86
464.05	7911.01
464.23	7981.23
464.41	8004.63
464.59	7925.05
464.78	8201.24
464.96	8049.10
465.14	8131.02
465.32	8152.09
465.50	8301.88
465.69	8191.88
465.87	8201.24
466.05	8168.47
466.23	8276.13
466.41	8234.00
466.60	8538.27
466.78	8367.42
466.96	8311.24
467.14	8255.07
467.32	8142.72
467.51	8491.46
467.69	8189.53
467.87	8564.02
468.05	8414.23
468.23	8594.45
468.41	8234.00
468.60	8276.13
468.78	8709.13
468.96	8781.69
469.14	8620.19
469.32	8868.29
469.50	8554.66
469.69	8884.67
469.87	8947.87
470.05	8805.10
470.23	9029.79
470.41	8901.06
470.59	8973.61
470.77	8856.59
470.95	8999.36
471.14	9039.15
471.32	9137.45
471.50	9210.01
471.68	9315.33
471.86	9111.71
472.04	9287.25
472.22	9577.47
472.40	9245.12
472.58	9537.68
472.77	9401.93
472.95	9511.94
473.13	9811.53
473.31	9664.07
473.49	9504.92
473.67	9614.92
473.85	9617.26
474.03	10005.79
474.21	9851.31
474.39	9958.98
474.57	10157.92
474.75	10218.78
474.93	10242.18
475.12	10068.98
475.30	10298.36
475.48	10129.84
475.66	10347.51
475.84	10141.54
476.02	10546.45
476.20	10321.76
476.38	10668.16
476.56	10553.48
476.74	10787.53
476.92	10473.90
477.10	10857.75
477.28	10899.87
477.46	10899.87
477.64	11140.95
477.82	11274.36
478.00	11475.65
478.18	11311.81
478.36	11461.60
478.54	11623.10
478.72	11480.33
478.90	11831.41
479.08	11702.68
479.26	11976.52
479.44	12128.66
479.62	11948.43
479.80	12245.68
479.98	12325.26
480.16	12538.25
480.34	12325.26
480.52	12451.65
480.70	12559.31
480.88	12507.82
481.06	12786.35
481.24	12720.81
481.41	12788.69
481.59	13085.94
481.77	13104.66
481.95	13238.07
482.13	13158.49
482.31	13479.15
482.49	13544.68
482.67	13390.20
482.85	13774.05
483.03	14043.21
483.21	13987.04
483.39	14101.73
483.57	14108.75
483.74	14317.06
483.92	14553.45
484.10	14202.37
484.28	14607.28
484.46	14839.00
484.64	15101.14
484.82	14808.57
485.00	14614.30
485.18	15325.83
485.35	15726.06
485.53	15559.88
485.71	15290.72
485.89	15470.94
486.07	15782.23
486.25	15803.30
486.43	15978.84
486.61	15913.30
486.78	16273.74
486.96	16156.72
487.14	16482.05
487.32	16472.69
487.50	16791.00
487.68	17006.33
487.85	17364.43
488.03	17348.05
488.21	17703.81
488.39	17151.45
488.57	17598.49
488.75	17806.80
488.92	18178.94
489.10	18164.90
489.28	17923.82
489.46	18459.81
489.64	18260.86
489.81	18740.67
489.99	18813.23
490.17	18745.35
490.35	18916.21
490.53	19213.46
490.70	19133.88
490.88	19339.85
491.06	19381.98
491.24	19367.93
491.41	19726.04
491.59	19737.74
491.77	19669.86
491.95	19943.70
492.13	20130.95
492.30	20233.93
492.48	20437.56
492.66	20327.55
492.84	20327.55
493.01	20627.14
493.19	20723.10
493.37	21291.85
493.54	21102.27
493.72	21137.38
493.90	21326.96
494.08	21298.88
494.25	21546.97
494.43	21710.81
494.61	21991.67
494.79	21839.54
494.96	22003.38
495.14	21788.05
495.32	22260.84
495.49	22286.58
495.67	22628.30
495.85	22712.56
496.02	22759.37
496.20	22822.56
496.38	22679.79
496.55	22883.42
496.73	23417.06
496.91	23288.33
497.09	23667.50
497.26	23506.00
497.44	23590.26
497.62	23630.05
497.79	24002.19
497.97	24046.66
498.14	24507.75
498.32	24694.99
498.50	24292.42
498.67	24907.98
498.85	24636.48
499.03	24690.31
499.20	24905.64
499.38	24706.70
499.56	24762.87
499.73	25153.74
499.91	25376.09
500.08	25502.48
500.26	25331.62
500.44	25865.26
500.61	25366.73
500.79	25476.73
500.97	25729.51
501.14	26331.03
501.32	25923.77
501.49	25951.86
501.67	26218.68
501.84	25947.18
502.02	26293.58
502.20	26214.00
502.37	26434.01
502.55	26480.82
502.72	26623.59
502.90	27222.77
503.07	26581.46
503.25	26731.26
503.43	27021.48
503.60	27044.89
503.78	27248.52
503.95	27459.16
504.13	27047.23
504.30	27433.42
504.48	27274.26
504.65	27871.10
504.83	28182.39
505.01	27936.63
505.18	27871.10
505.36	28180.05
505.53	28105.15
505.71	28100.47
505.88	28112.17
506.06	28107.49
506.23	28409.42
506.41	28491.34
506.58	28737.10
506.76	28666.88
506.93	29130.31
507.11	28418.78
507.28	28685.61
507.46	28980.51
507.63	29390.11
507.81	29521.18
507.98	29036.69
508.16	29020.30
508.33	29500.11
508.50	29509.47
508.68	29567.99
508.85	29975.24
509.03	29619.48
509.20	30085.25
509.38	30644.63
509.55	30232.70
509.73	30485.48
509.90	30438.67
510.08	30043.12
510.25	30565.06
510.42	30859.96
510.60	30728.89
510.77	30986.35
510.95	30895.07
511.12	30759.32
511.30	30876.35
511.47	31164.23
511.64	31274.24
511.82	31295.30
511.99	31283.60
512.17	31047.21
512.34	31229.77
512.51	31517.65
512.69	31796.18
512.86	31672.13
513.04	32343.86
513.21	31974.06
513.38	32219.81
513.56	32306.41
513.73	31817.24
513.90	32039.59
514.08	32053.64
514.25	32128.53
514.43	32687.92
514.60	32826.01
514.77	32278.33
514.95	32769.84
515.12	32676.22
515.29	32582.60
515.47	33041.34
515.64	33425.19
515.81	33308.16
515.99	33577.33
516.16	33507.11
516.33	33193.48
516.51	33858.19
516.68	33078.79
516.85	33589.03
517.03	33443.91
517.20	33682.65
517.37	33783.29
517.54	33809.04
517.72	33806.70
517.89	33876.91
518.06	34052.45
518.24	33963.51
518.41	33972.88
518.58	34609.50
518.75	34026.71
518.93	34614.18
519.10	34230.33
519.27	34792.06
519.45	34504.18
519.62	34471.41
519.79	34579.07
519.96	34852.92
520.14	35056.54
520.31	34857.60
520.48	35054.20
520.65	35204.00
520.83	35477.84
521.00	35311.66
521.17	35325.71
521.34	35241.45
521.52	35489.54
521.69	35571.46
521.86	35952.97
522.03	35974.03
522.20	35835.94
522.38	35629.98
522.55	35695.51
522.72	36187.02
522.89	36409.37
523.07	36477.25
523.24	36250.22
523.41	36020.84
523.58	35992.76
523.75	36547.47
523.92	36177.66
524.10	36650.45
524.27	36767.48
524.44	37148.98
524.61	37212.18
524.78	36605.98
524.96	36861.10
525.13	36673.85
525.30	36952.38
525.47	37354.95
525.64	36985.15
525.81	37518.79
525.98	37940.08
526.16	37493.04
526.33	37003.87
526.50	37893.27
526.67	37371.33
526.84	37525.81
527.01	37783.27
527.18	37933.06
527.36	37759.86
527.53	38010.30
527.70	38106.26
527.87	38115.62
528.04	38469.04
528.21	38429.26
528.38	37940.08
528.55	38216.27
528.72	38705.44
528.89	38064.13
529.07	38323.93
529.24	38618.84
529.41	38511.17
529.58	38443.30
529.75	38586.07
529.92	37989.24
530.09	38562.67
530.26	38302.87
530.43	38534.58
530.60	39007.37
530.77	38902.04
530.94	38822.47
531.11	38834.17
531.28	38438.62
531.46	39000.35
531.63	39115.03
531.80	39765.70
531.97	39250.78
532.14	39562.08
532.31	39297.59
532.48	39569.10
532.65	39660.38
532.82	39309.30
532.99	39620.59
533.16	39796.13
533.33	39807.83
533.50	40479.57
533.67	40037.20
533.84	39594.84
534.01	39959.97
534.18	39814.85
534.35	39962.31
534.52	40208.06
534.69	40172.96
534.86	40287.64
535.03	40315.73
535.20	40505.31
535.37	40486.59
535.54	40715.96
535.71	40570.85
535.88	40727.66
536.05	40769.79
536.22	40507.65
536.38	40858.73
536.55	40900.86
536.72	40299.34
536.89	40680.85
537.06	41141.94
537.23	40580.21
537.40	40811.92
537.57	40847.03
537.74	41050.66
537.91	41535.15
538.08	41361.95
538.25	40882.14
538.42	41654.51
538.59	41165.34
538.75	41020.23
538.92	41350.24
539.09	41067.04
539.26	41567.91
539.43	41638.13
539.60	41827.71
539.77	41563.23
539.94	41713.03
540.11	41188.75
540.28	41883.89
540.44	41598.34
540.61	41823.03
540.78	42052.41
540.95	41764.52
541.12	42234.97
541.29	41722.39
541.46	41792.61
541.62	42181.13
541.79	41904.95
541.96	41923.68
542.13	42300.50
542.30	42667.97
542.47	42447.96
542.63	42513.49
542.80	42759.25
542.97	42834.14
543.14	42625.84
543.31	42691.37
543.48	42639.88
543.64	43248.42
543.81	43215.65
543.98	42857.55
544.15	43601.84
544.32	43957.60
544.48	43859.30
544.65	43147.78
544.82	43119.69
544.99	43110.33
545.16	43058.84
545.32	43409.92
545.49	43543.33
545.66	44121.44
545.83	43625.25
546.00	43248.42
546.16	43674.40
546.33	43440.34
546.50	43187.56
546.67	43660.35
546.83	43072.88
547.00	43562.05
547.17	43463.75
547.34	43281.19
547.50	43887.39
547.67	44264.21
547.84	43882.70
548.00	43672.06
548.17	44013.77
548.34	43880.36
548.51	44648.06
548.67	44715.93
548.84	44311.02
549.01	44032.50
549.18	44048.88
549.34	43782.06
549.51	44399.96
549.68	44081.65
549.84	44212.72
550.01	44353.15
550.18	44608.27
550.34	44610.61
550.51	44531.03
550.68	44165.91
550.84	43894.41
551.01	44774.45
551.18	44318.04
551.34	44357.83
551.51	44390.60
551.68	44973.39
551.84	44907.86
552.01	44406.98
552.18	44889.13
552.34	44783.81
552.51	45404.05
552.68	44879.77
552.84	45120.85
553.01	44919.56
553.18	44847.00
553.34	45132.55
553.51	45303.41
553.67	45151.27
553.84	45373.63
554.01	45296.39
554.17	45464.91
554.34	45216.81
554.51	45125.53
554.67	45485.97
554.84	45471.93
555.00	45453.20
555.17	45195.74
555.33	45607.68
555.50	45188.72
555.67	45057.65
555.83	45378.31
556.00	45511.72
556.16	45907.27
556.33	45996.21
556.50	45518.74
556.66	45448.52
556.83	45287.03
556.99	45996.21
557.16	46527.51
557.32	45645.13
557.49	46110.89
557.65	45446.18
557.82	45748.11
557.98	45511.72
558.15	46330.90
558.32	45748.11
558.48	45731.73
558.65	45581.93
558.81	45783.22
558.98	46094.51
559.14	45797.26
559.31	46134.30
559.47	46314.52
559.64	45968.12
559.80	45834.71
559.97	46461.97
560.13	46153.02
560.30	46134.30
560.46	46628.15
560.63	46251.33
560.79	46319.20
560.96	46021.95
561.12	45752.79
561.29	45830.03
561.45	46246.65
561.61	46567.30
561.78	45998.55
561.94	46520.49
562.11	46490.06
562.27	46211.54
562.44	46036.00
562.60	46454.95
562.77	46698.37
562.93	46623.47
563.10	46784.97
563.26	46199.83
563.42	46934.76
563.59	46925.40
563.75	46693.69
563.92	46550.91
564.08	46466.66
564.24	46681.98
564.41	46115.58
564.57	46548.57
564.74	46710.07
564.90	46642.20
565.07	46653.90
565.23	46810.71
565.39	46637.51
565.56	47159.45
565.72	46256.01
565.88	46714.75
566.05	46436.23
566.21	46478.36
566.38	46681.98
566.54	46948.81
566.70	46717.09
566.87	47009.66
567.03	46913.70
567.19	46883.27
567.36	46644.54
567.52	46850.50
567.68	46642.20
567.85	46700.71
568.01	47105.62
568.17	47084.56
568.34	47442.66
568.50	47318.61
568.66	47037.75
568.83	47292.86
568.99	46838.80
569.15	46789.65
569.32	46953.49
569.48	46920.72
569.64	46979.23
569.81	47220.31
569.97	46988.60
570.13	47426.28
570.30	47182.86
570.46	47140.73
570.62	47297.55
570.78	47063.49
570.95	47208.61
571.11	47037.75
571.27	46745.18
571.43	46562.62
571.60	47103.28
571.76	47463.72
571.92	47533.94
572.09	47508.19
572.25	47168.82
572.41	47709.48
572.57	47246.05
572.74	47229.67
572.90	46958.17
573.06	47040.09
573.22	47147.75
573.38	47250.74
573.55	47533.94
573.71	47697.78
573.87	47538.62
574.03	47131.37
574.20	47262.44
574.36	46892.63
574.52	47349.04
574.68	46925.40
574.84	47161.79
575.01	47302.23
575.17	47573.73
575.33	47573.73
575.49	47377.12
575.65	47377.12
575.82	47227.33
575.98	47028.38
576.14	47351.38
576.30	47491.81
576.46	47079.88
576.62	46808.37
576.79	47243.71
576.95	47332.65
577.11	47519.90
577.27	47327.97
577.43	47494.15
577.59	47566.71
577.75	47484.79
577.92	47037.75
578.08	47105.62
578.24	47297.55
578.40	47414.57
578.56	47234.35
578.72	47126.69
578.88	47374.78
579.04	47419.25
579.21	47171.16
579.37	47414.57
579.53	47920.13
579.69	47363.08
579.85	47409.89
580.01	47428.62
580.17	47360.74
580.33	47475.43
580.49	47435.64
580.65	47580.75
580.82	47997.37
580.98	47543.30
581.14	47384.15
581.30	47819.49
581.46	47353.72
581.62	47140.73
581.78	47033.07
581.94	47753.95
582.10	47414.57
582.26	47594.79
582.42	47695.44
582.58	48062.90
582.74	47707.14
582.90	47969.28
583.06	47735.23
583.22	47452.02
583.38	47672.03
583.54	47805.44
583.70	47363.08
583.86	47725.86
584.02	47421.59
584.18	47524.58
584.34	47632.24
584.50	47739.91
584.66	47634.58
584.82	47468.40
584.98	47875.66
585.14	47763.31
585.30	47454.36
585.46	47669.69
585.62	47082.22
585.78	47402.87
585.94	47435.64
586.10	48020.77
586.26	47620.54
586.42	47639.26
586.58	47700.12
586.74	47533.94
586.90	47545.64
587.06	47192.22
587.22	47665.01
587.38	47906.08
587.54	47594.79
587.70	47934.17
587.86	47555.00
588.02	47889.70
588.18	48093.33
588.34	47796.08
588.49	47854.59
588.65	47552.66
588.81	47728.20
588.97	47480.11
589.13	47735.23
589.29	47550.32
589.45	47655.65
589.61	47887.36
589.77	48067.58
589.93	47831.19
590.08	47976.30
590.24	48009.07
590.40	47936.51
590.56	47744.59
590.72	48076.94
