SpectraSuite Data File
++++++++++++++++++++++++++++++++++++
Date: Fri Oct 04 11:48:36 GMT-05:00 2013
User: price-jones
Dark Spectrum Present: No
Reference Spectrum Present: No
Number of Sampled Component Spectra: 1
Spectrometers: USB2+H05261
Integration Time (usec): 100000 (USB2+H05261)
Spectra Averaged: 1 (USB2+H05261)
Boxcar Smoothing: 0 (USB2+H05261)
Correct for Electrical Dark: No (USB2+H05261)
Strobe/Lamp Enabled: No (USB2+H05261)
Correct for Detector Non-linearity: No (USB2+H05261)
Correct for Stray Light: No (USB2+H05261)
Number of Pixels in Processed Spectrum: 2048
>>>>>Begin Processed Spectral Data<<<<<
365.73	0.00
365.92	0.00
366.12	0.00
366.32	0.00
366.52	0.00
366.72	0.00
366.91	0.00
367.11	0.00
367.31	0.00
367.51	0.00
367.70	0.00
367.90	0.00
368.10	0.00
368.30	0.00
368.49	0.00
368.69	0.00
368.89	0.00
369.09	0.00
369.28	0.00
369.48	0.00
369.68	0.00
369.87	0.00
370.07	0.00
370.27	25.75
370.47	65.54
370.66	182.56
370.86	212.99
371.06	334.70
371.25	285.55
371.45	271.50
371.65	304.27
371.84	252.78
372.04	280.86
372.24	306.61
372.44	287.89
372.63	278.52
372.83	355.76
373.03	332.36
373.22	318.31
373.42	304.27
373.62	351.08
373.81	318.31
374.01	322.99
374.21	367.46
374.40	322.99
374.60	437.68
374.79	365.12
374.99	341.72
375.19	372.15
375.38	334.70
375.58	320.65
375.78	433.00
375.97	388.53
376.17	433.00
376.37	369.80
376.56	456.40
376.76	414.27
376.95	355.76
377.15	397.89
377.35	425.98
377.54	442.36
377.74	376.83
377.93	308.95
378.13	386.19
378.33	514.92
378.52	407.25
378.72	416.62
378.91	414.27
379.11	383.85
379.31	463.43
379.50	386.19
379.70	425.98
379.89	404.91
380.09	440.02
380.28	383.85
380.48	400.23
380.68	386.19
380.87	440.02
381.07	416.62
381.26	500.87
381.46	348.74
381.65	468.11
381.85	430.66
382.04	442.36
382.24	411.93
382.43	458.74
382.63	458.74
382.83	531.30
383.02	465.77
383.22	519.60
383.41	430.66
383.61	442.36
383.80	512.58
384.00	510.24
384.19	519.60
384.39	484.49
384.58	447.04
384.78	505.56
384.97	517.26
385.17	503.22
385.36	451.72
385.56	568.75
385.75	538.32
385.95	458.74
386.14	585.13
386.34	521.94
386.53	554.71
386.72	524.28
386.92	643.65
387.11	547.69
387.31	521.94
387.50	505.56
387.70	603.86
387.89	603.86
388.09	430.66
388.28	599.18
388.48	573.43
388.67	638.97
388.86	615.56
389.06	500.87
389.25	636.63
389.45	543.00
389.64	641.31
389.84	543.00
390.03	631.94
390.22	631.94
390.42	575.77
390.61	629.60
390.81	653.01
391.00	645.99
391.19	655.35
391.39	587.47
391.58	664.71
391.78	643.65
391.97	744.29
392.16	634.29
392.36	676.41
392.55	674.07
392.75	692.80
392.94	678.76
393.13	770.04
393.33	615.56
393.52	624.92
393.71	723.23
393.91	809.83
394.10	662.37
394.29	695.14
394.49	774.72
394.68	758.33
394.88	854.30
395.07	901.11
395.26	858.98
395.46	802.80
395.65	889.40
395.84	898.77
396.04	840.25
396.23	805.14
396.42	837.91
396.62	903.45
396.81	837.91
397.00	877.70
397.19	873.02
397.39	793.44
397.58	954.94
397.77	922.17
397.97	917.49
398.16	837.91
398.35	877.70
398.55	966.64
398.74	945.58
398.93	997.07
399.12	973.66
399.32	880.04
399.51	905.79
399.70	1015.79
399.90	957.28
400.09	1043.88
400.28	1104.73
400.47	1076.65
400.67	1109.41
400.86	1039.20
401.05	1158.57
401.24	1107.07
401.44	1151.54
401.63	1188.99
401.82	1041.54
402.01	1048.56
402.21	1116.44
402.40	1184.31
402.59	1231.12
402.78	1240.48
402.97	1184.31
403.17	1254.53
403.36	1280.27
403.55	1188.99
403.74	1306.02
403.93	1275.59
404.13	1306.02
404.32	1373.89
404.51	1240.48
404.70	1221.76
404.89	1394.96
405.09	1348.15
405.28	1437.09
405.47	1423.05
405.66	1514.33
405.85	1369.21
406.05	1444.11
406.24	1467.52
406.43	1509.65
406.62	1455.81
406.81	1589.22
407.00	1535.39
407.20	1516.67
407.39	1444.11
407.58	1509.65
407.77	1614.97
407.96	1701.57
408.15	1638.38
408.34	1570.50
408.54	1699.23
408.73	1703.91
408.92	1696.89
409.11	1722.63
409.30	1757.74
409.49	1790.51
409.68	1820.94
409.87	1678.16
410.07	1797.53
410.26	1919.24
410.45	1795.19
410.64	1858.39
410.83	1935.62
411.02	1818.60
411.21	1982.43
411.40	1977.75
411.59	2017.54
411.78	2003.50
411.98	1905.20
412.17	1977.75
412.36	2085.42
412.55	1980.09
412.74	2108.82
412.93	2172.02
413.12	2200.10
413.31	2239.89
413.50	2111.16
413.69	2242.23
413.88	2345.22
414.07	2289.04
414.26	2225.85
414.45	2361.60
414.64	2394.37
414.83	2354.58
415.02	2394.37
415.22	2438.84
415.41	2434.16
415.60	2399.05
415.79	2553.52
415.98	2623.74
416.17	2457.56
416.36	2572.25
416.55	2464.58
416.74	2595.65
416.93	2656.51
417.12	2640.12
417.31	2609.70
417.50	2827.37
417.69	2799.28
417.88	2808.64
418.07	2820.35
418.26	2731.41
418.45	2820.35
418.64	2890.56
418.83	2937.37
419.02	2813.32
419.21	2857.79
419.39	2871.84
419.58	2953.76
419.77	2909.29
419.96	2967.80
420.15	2958.44
420.34	2932.69
420.53	3028.65
420.72	3131.64
420.91	3061.42
421.10	3119.93
421.29	3190.15
421.48	3087.17
421.67	3286.11
421.86	3283.77
422.05	3173.77
422.24	3206.53
422.43	3164.40
422.61	3190.15
422.80	3122.27
422.99	3290.79
423.18	3215.90
423.37	3246.32
423.56	3314.20
423.75	3255.69
423.94	3201.85
424.13	3073.12
424.32	3133.98
424.50	3255.69
424.69	3433.57
424.88	3304.84
425.07	3283.77
425.26	3227.60
425.45	3262.71
425.64	3197.17
425.83	3176.11
426.01	3286.11
426.20	3309.52
426.39	3344.63
426.58	3323.56
426.77	3424.20
426.96	3363.35
427.15	3368.03
427.33	3365.69
427.52	3342.28
427.71	3499.10
427.90	3412.50
428.09	3508.46
428.28	3485.06
428.46	3517.83
428.65	3602.08
428.84	3623.15
429.03	3609.11
429.22	3461.65
429.40	3609.11
429.59	3545.91
429.78	3529.53
429.97	3492.08
430.16	3557.61
430.34	3859.54
430.53	3779.97
430.72	3651.24
430.91	3712.09
431.10	3672.30
431.28	3721.45
431.47	3875.93
431.66	3794.01
431.85	3740.18
432.03	3948.48
432.22	4044.45
432.41	3868.91
432.60	3971.89
432.79	3777.62
432.97	3955.51
433.16	3749.54
433.35	3950.82
433.54	4093.60
433.72	4004.66
433.91	3925.08
434.10	4084.23
434.28	3889.97
434.47	4215.30
434.66	4081.89
434.85	4091.26
435.03	4159.13
435.22	4067.85
435.41	4362.76
435.59	4140.41
435.78	4259.78
435.97	4241.05
436.16	4229.35
436.34	4304.25
436.53	4496.17
436.72	4348.72
436.90	4365.10
437.09	4269.14
437.28	4308.93
437.46	4374.46
437.65	4503.19
437.84	4341.69
438.02	4325.31
438.21	4568.73
438.40	4505.53
438.58	4559.36
438.77	4585.11
438.96	4589.79
439.14	4552.34
439.33	4664.69
439.52	4702.14
439.70	4755.97
439.89	4858.95
440.08	4805.12
440.26	4851.93
440.45	4842.57
440.63	4760.65
440.82	5097.69
441.01	4882.36
441.19	5034.49
441.38	5282.59
441.57	5195.99
441.75	5179.61
441.94	5177.26
442.12	5188.97
442.31	5263.86
442.50	5357.49
442.68	5181.95
442.87	5411.32
443.05	5305.99
443.24	5397.28
443.43	5521.32
443.61	5413.66
443.80	5699.20
443.98	5350.46
444.17	5310.68
444.35	5462.81
444.54	5483.88
444.73	5528.35
444.91	5563.45
445.10	5586.86
445.28	5692.18
445.47	5394.93
445.65	5380.89
445.84	5507.28
446.02	5673.46
446.21	5465.15
446.39	5554.09
446.58	5589.20
446.77	5535.37
446.95	5582.18
447.14	5575.16
447.32	5689.84
447.51	5603.24
447.69	5612.60
447.88	5614.95
448.06	5582.18
448.25	5537.71
448.43	5614.95
448.62	5621.97
448.80	5586.86
448.99	5685.16
449.17	5746.02
449.36	5617.29
449.54	6001.13
449.73	5949.64
449.91	5867.72
450.10	5682.82
450.28	5959.00
450.46	5963.68
450.65	5961.34
450.83	6003.47
451.02	5989.43
451.20	5996.45
451.39	6171.99
451.57	6031.56
451.76	5867.72
451.94	6101.78
452.13	6160.29
452.31	6139.23
452.49	6076.03
452.68	6232.85
452.86	6071.35
453.05	6242.21
453.23	6321.79
453.42	6125.18
453.60	6148.59
453.78	6326.47
453.97	6195.40
454.15	6148.59
454.34	6256.25
454.52	6387.32
454.70	6258.59
454.89	6457.54
455.07	6473.92
455.26	6448.18
455.44	6590.95
455.62	6459.88
455.81	6490.31
455.99	6518.39
456.17	6661.16
456.36	6534.78
456.54	6586.27
456.73	6609.67
456.91	6862.45
457.09	6771.17
457.28	7016.93
457.46	6958.41
457.64	6974.80
457.83	6836.70
458.01	6981.82
458.19	6888.20
458.38	6796.92
458.56	6899.90
458.74	7094.16
458.93	6939.69
459.11	7101.19
459.29	6963.09
459.48	7187.79
459.66	7176.08
459.84	7176.08
460.03	7213.53
460.21	7220.55
460.39	7108.21
460.57	7124.59
460.76	7178.42
460.94	7286.09
461.12	7351.62
461.31	7360.98
461.49	7220.55
461.67	7377.37
461.85	7403.11
462.04	7234.60
462.22	7847.82
462.40	7548.23
462.59	7447.58
462.77	7548.23
462.95	7501.42
463.13	7499.08
463.32	7660.57
463.50	7588.02
463.68	7817.39
463.86	7695.68
464.05	7686.32
464.23	7566.95
464.41	7737.81
464.59	7342.26
464.78	7866.54
464.96	7798.66
465.14	7700.36
465.32	8065.49
465.50	7976.55
465.69	7908.67
465.87	7875.90
466.05	7803.35
466.23	7878.24
466.41	7985.91
466.60	8280.82
466.78	7880.58
466.96	7850.16
467.14	7943.78
467.32	8116.98
467.51	8056.12
467.69	7946.12
467.87	7885.26
468.05	8234.00
468.23	7999.95
468.41	7985.91
468.60	7978.89
468.78	8198.90
468.96	8173.15
469.14	8322.94
469.32	8325.29
469.50	8065.49
469.69	8425.93
469.87	8421.25
470.05	8486.78
470.23	8409.54
470.41	8465.72
470.59	8538.27
470.77	8493.80
470.95	8903.40
471.14	8641.26
471.32	8608.49
471.50	8807.44
471.68	8851.91
471.86	8856.59
472.04	8950.21
472.22	8952.55
472.40	8762.97
472.58	8931.48
472.77	8943.19
472.95	9041.49
473.13	9516.62
473.31	9114.05
473.49	9074.26
473.67	9217.03
473.85	9050.85
474.03	9666.41
474.21	9448.74
474.39	9427.68
474.57	9432.36
474.75	9542.36
474.93	9664.07
475.12	9523.64
475.30	9848.97
475.48	9715.56
475.66	9926.21
475.84	9745.99
476.02	9987.07
476.20	9944.94
476.38	10115.80
476.56	10469.22
476.74	10155.58
476.92	10228.14
477.10	10387.30
477.28	10445.81
477.46	10480.92
477.64	10607.31
477.82	10565.18
478.00	10785.19
478.18	10864.77
478.36	10815.62
478.54	10970.09
478.72	11091.80
478.90	11309.47
479.08	11115.20
479.26	11002.86
479.44	11279.04
479.62	11463.94
479.80	11487.35
479.98	11597.35
480.16	11688.64
480.34	11597.35
480.52	11999.93
480.70	12035.03
480.88	11777.58
481.06	12060.78
481.24	11892.26
481.41	12512.50
481.59	12496.12
481.77	12477.40
481.95	12695.07
482.13	12535.91
482.31	12739.54
482.49	12624.85
482.67	13092.96
482.85	13214.66
483.03	13289.56
483.21	13331.69
483.39	13479.15
483.57	13373.82
483.74	13671.07
483.92	13603.19
484.10	13675.75
484.28	13837.25
484.46	14015.13
484.64	14513.66
484.82	14090.02
485.00	14134.50
485.18	14473.87
485.35	14544.09
485.53	14366.21
485.71	14745.38
485.89	14883.47
486.07	14754.74
486.25	15051.99
486.43	15215.82
486.61	15246.25
486.78	15550.52
486.96	15534.14
487.14	15660.52
487.32	15829.04
487.50	15812.66
487.68	15831.38
487.85	16299.49
488.03	16182.46
488.21	16552.27
488.39	16444.60
488.57	16762.92
488.75	16631.85
488.92	17296.56
489.10	17273.15
489.28	16999.31
489.46	17326.99
489.64	17181.87
489.81	17687.43
489.99	17610.19
490.17	17675.73
490.35	17914.46
490.53	17940.21
490.70	18195.32
490.88	18506.62
491.06	18420.02
491.24	18335.76
491.41	18698.54
491.59	18466.83
491.77	18738.33
491.95	19002.81
492.13	18841.31
492.30	19150.26
492.48	19070.68
492.66	19286.01
492.84	19400.70
493.01	19384.32
493.19	19632.41
493.37	19791.57
493.54	19953.07
493.72	19864.13
493.90	19861.79
494.08	20304.15
494.25	20475.01
494.43	20247.97
494.61	20676.29
494.79	20915.03
494.96	20741.83
495.14	21013.33
495.32	20968.86
495.49	20699.70
495.67	21226.32
495.85	21458.03
496.02	21284.83
496.20	21621.87
496.38	21633.57
496.55	21628.89
496.73	22176.58
496.91	22080.61
497.09	22202.32
497.26	22202.32
497.44	22043.17
497.62	22473.82
497.79	22939.59
497.97	22625.96
498.14	22862.35
498.32	23204.07
498.50	22934.91
498.67	23503.66
498.85	23084.70
499.03	23330.46
499.20	23403.02
499.38	23363.23
499.56	23576.22
499.73	23796.23
499.91	23840.70
500.08	23931.98
500.26	23737.71
500.44	23967.09
500.61	23960.06
500.79	23913.25
500.97	24259.65
501.14	24414.13
501.32	24627.12
501.49	24292.42
501.67	24449.24
501.84	24769.89
502.02	24657.54
502.20	24877.55
502.37	25324.60
502.55	25116.29
502.72	25228.63
502.90	24943.09
503.07	25172.46
503.25	25139.69
503.43	25104.59
503.60	25841.85
503.78	25404.17
503.95	25661.63
504.13	25809.09
504.30	25788.02
504.48	25773.98
504.65	26057.18
504.83	26302.94
505.01	26333.37
505.18	26398.90
505.36	26693.81
505.53	26267.83
505.71	26139.10
505.88	26572.10
506.06	26789.77
506.23	26871.69
506.41	26904.46
506.58	27054.25
506.76	27056.59
506.93	27000.42
507.11	26953.61
507.28	27101.06
507.46	27084.68
507.63	27072.98
507.81	27613.64
507.98	27482.57
508.16	27250.86
508.33	27585.55
508.50	27370.22
508.68	27819.61
508.85	28336.87
509.03	28191.75
509.20	27990.47
509.38	28355.59
509.55	28280.69
509.73	28020.89
509.90	28924.34
510.08	28613.05
510.25	28680.92
510.42	28851.78
510.60	29137.33
510.77	29106.90
510.95	28968.81
511.12	28748.80
511.30	28891.57
511.47	29039.03
511.64	29621.82
511.82	29582.03
511.99	29170.10
512.17	29638.20
512.34	29933.11
512.51	29656.93
512.69	29598.41
512.86	29509.47
513.04	30258.45
513.21	30064.18
513.38	30356.75
513.56	30211.64
513.73	30225.68
513.90	30132.06
514.08	30693.79
514.25	30347.39
514.43	30740.60
514.60	30806.13
514.77	30569.74
514.95	30845.92
515.12	30728.89
515.29	30621.23
515.47	31171.25
515.64	31105.72
515.81	31016.78
515.99	31236.79
516.16	31527.02
516.33	31199.34
516.51	31702.56
516.68	31632.34
516.85	31138.49
517.03	31424.03
517.20	31725.96
517.37	31906.18
517.54	32048.96
517.72	31702.56
517.89	32081.72
518.06	32130.87
518.24	32086.40
518.41	32329.82
518.58	32308.76
518.75	32189.39
518.93	32638.77
519.10	32376.63
519.27	32400.04
519.45	32404.72
519.62	32514.72
519.79	32666.86
519.96	32706.65
520.14	33244.97
520.31	33050.70
520.48	33095.18
520.65	32882.19
520.83	33390.08
521.00	33343.27
521.17	33439.23
521.34	33034.32
521.52	33259.01
521.69	33017.94
521.86	33549.24
522.03	33909.68
522.20	34040.75
522.38	33621.80
522.55	33621.80
522.72	33951.81
522.89	33759.89
523.07	34040.75
523.24	34068.84
523.41	34267.78
523.58	33958.83
523.75	34216.29
523.92	34532.26
524.10	34251.40
524.27	34052.45
524.44	34199.91
524.61	34370.77
524.78	35065.91
524.96	34714.83
525.13	34831.85
525.30	34656.31
525.47	34934.84
525.64	34888.03
525.81	35206.34
525.98	35175.91
526.16	35243.79
526.33	34866.96
526.50	35360.81
526.67	34644.61
526.84	34974.63
527.01	35433.37
527.18	35278.89
527.36	35501.25
527.53	35662.74
527.70	36034.89
527.87	36030.21
528.04	35522.31
528.21	35505.93
528.38	35391.24
528.55	36058.29
528.72	36091.06
528.89	35552.74
529.07	35849.99
529.24	36231.49
529.41	36058.29
529.58	36128.51
529.75	36023.19
529.92	36187.02
530.09	36144.89
530.26	36343.84
530.43	36381.29
530.60	36542.78
530.77	36030.21
530.94	36575.55
531.11	36402.35
531.28	36503.00
531.46	36442.14
531.63	37053.02
531.80	37048.34
531.97	36797.90
532.14	36769.82
532.31	36996.85
532.48	36769.82
532.65	37031.96
532.82	36416.40
532.99	36973.44
533.16	37153.66
533.33	37640.50
533.50	37748.16
533.67	37006.21
533.84	37113.87
534.01	37156.00
534.18	36734.71
534.35	37539.85
534.52	37406.44
534.69	37551.56
534.86	37886.25
535.03	37336.23
535.20	37684.97
535.37	37666.24
535.54	37684.97
535.71	38061.79
535.88	37832.42
536.05	38026.68
536.22	38036.05
536.38	38036.05
536.55	38040.73
536.72	37855.82
536.89	38129.67
537.06	37872.21
537.23	38052.43
537.40	37785.61
537.57	38270.10
537.74	38565.01
537.91	38639.90
538.08	38630.54
538.25	38466.70
538.42	38628.20
538.59	38548.62
538.75	38565.01
538.92	38932.47
539.09	39014.39
539.26	38696.08
539.43	39012.05
539.60	39049.50
539.77	38389.47
539.94	39463.77
540.11	38852.89
540.28	39229.72
540.44	39173.55
540.61	39157.16
540.78	39203.97
540.95	39360.79
541.12	39449.73
541.29	39531.65
541.46	39103.33
541.62	39171.21
541.79	39140.78
541.96	39065.88
542.13	39089.29
542.30	39416.96
542.47	39920.18
542.63	39484.84
542.80	39770.38
542.97	39756.34
543.14	40069.97
543.31	40023.16
543.48	39842.94
543.64	39643.99
543.81	40425.73
543.98	40378.92
544.15	39868.69
544.32	40144.87
544.48	40694.89
544.65	40112.10
544.82	40039.54
544.99	39835.92
545.16	40432.75
545.32	40240.83
545.49	40790.86
545.66	40861.07
545.83	40774.47
546.00	40676.17
546.16	40371.90
546.33	40315.73
546.50	40392.97
546.67	39871.03
546.83	40381.26
547.00	40699.58
547.17	41275.35
547.34	40680.85
547.50	40830.65
547.67	41319.82
547.84	41092.79
548.00	41144.28
548.17	41226.20
548.34	41085.76
548.51	40891.50
548.67	41191.09
548.84	41078.74
549.01	41497.70
549.18	40980.44
549.34	41146.62
549.51	40725.32
549.68	40971.08
549.84	41226.20
550.01	41785.58
550.18	41507.06
550.34	41680.26
550.51	41806.65
550.68	41813.67
550.84	40999.16
551.01	41808.99
551.18	41219.17
551.34	40973.42
551.51	41387.69
551.68	41736.43
551.84	41392.37
552.01	41684.94
552.18	41841.76
552.34	41596.00
552.51	42183.48
552.68	42068.79
552.84	41523.44
553.01	41879.21
553.18	41914.31
553.34	41911.97
553.51	41769.20
553.67	42075.81
553.84	41993.89
554.01	42438.59
554.17	41918.99
554.34	41897.93
554.51	42511.15
554.67	41649.83
554.84	41961.12
555.00	41965.81
555.17	41748.14
555.33	41970.49
555.50	42323.91
555.67	42291.14
555.83	42061.77
556.00	42232.63
556.16	42946.49
556.33	42579.03
556.50	42190.50
556.66	42667.97
556.83	42536.90
556.99	42522.85
557.16	42845.85
557.32	42756.91
557.49	42951.17
557.65	42574.34
557.82	42656.26
557.98	42728.82
558.15	42700.73
558.32	42707.76
558.48	42604.77
558.65	42593.07
558.81	42637.54
558.98	42770.95
559.14	42759.25
559.31	42557.96
559.47	42927.77
559.64	42897.34
559.80	43217.99
559.97	42824.78
560.13	42827.12
560.30	42831.80
560.46	43054.15
560.63	43096.28
560.79	42850.53
560.96	43222.67
561.12	42895.00
561.29	42873.93
561.45	42672.65
561.61	43384.17
561.78	43049.47
561.94	43030.75
562.11	43023.73
562.27	42600.09
562.44	42553.28
562.60	43042.45
562.77	43002.66
562.93	43264.80
563.10	43512.90
563.26	43246.08
563.42	43430.98
563.59	43283.53
563.75	43297.57
563.92	43330.34
564.08	43096.28
564.24	43199.27
564.41	43267.14
564.57	42972.24
564.74	43304.59
564.90	43222.67
565.07	43559.71
565.23	43746.95
565.39	43576.09
565.56	43716.53
565.72	42995.64
565.88	43440.34
566.05	42967.55
566.21	43145.44
566.38	43412.26
566.54	42976.92
566.70	43274.16
566.87	43693.12
567.03	43098.62
567.19	43480.13
567.36	43629.93
567.52	43510.56
567.68	43508.22
567.85	42866.91
568.01	43412.26
568.17	43737.59
568.34	43377.15
568.50	43615.88
568.66	43812.49
568.83	43604.18
568.99	43042.45
569.15	43255.44
569.32	43122.03
569.48	43339.70
569.64	43477.79
569.81	43182.88
569.97	43320.98
570.13	43569.07
570.30	43379.49
570.46	43643.97
570.62	43793.76
570.78	43779.72
570.95	43220.33
571.11	43796.10
571.27	43358.42
571.43	43704.82
571.60	43613.54
571.76	43042.45
571.92	43342.04
572.09	43791.42
572.25	43503.54
572.41	43646.31
572.57	43323.32
572.74	43831.21
572.90	43433.32
573.06	43526.94
573.22	43433.32
573.38	43667.37
573.55	43885.04
573.71	44252.51
573.87	43910.79
574.03	43480.13
574.20	43761.00
574.36	43449.70
574.52	43796.10
574.68	43674.40
574.84	43615.88
575.01	43880.36
575.17	43938.88
575.33	43716.53
575.49	43768.02
575.65	44032.50
575.82	44236.12
575.98	43349.06
576.14	43941.22
576.30	43704.82
576.46	43859.30
576.62	43555.03
576.79	44062.93
576.95	43524.60
577.11	43548.01
577.27	44023.14
577.43	43856.96
577.59	43941.22
577.75	43438.00
577.92	43379.49
578.08	43702.48
578.24	43653.33
578.40	43533.96
578.56	43674.40
578.72	43856.96
578.88	44346.13
579.04	43985.69
579.21	44002.07
579.37	43538.65
579.53	43641.63
579.69	43501.20
579.85	43751.63
580.01	43489.49
580.17	43487.15
580.33	43482.47
580.49	43721.21
580.65	44215.06
580.82	43992.71
580.98	43480.13
581.14	43580.78
581.30	44093.35
581.46	44060.58
581.62	43564.39
581.78	43473.11
581.94	43964.62
582.10	43592.48
582.26	43620.56
582.42	44163.57
582.58	44020.80
582.74	43583.12
582.90	43725.89
583.06	44292.30
583.22	43416.94
583.38	43999.73
583.54	43973.98
583.70	43859.30
583.86	43573.75
584.02	43901.43
584.18	43899.09
584.34	44154.21
584.50	43782.06
584.66	43569.07
584.82	43400.55
584.98	43510.56
585.14	43875.68
585.30	43571.41
585.46	43847.60
585.62	43716.53
585.78	43873.34
585.94	43475.45
586.10	43636.95
586.26	44240.81
586.42	43725.89
586.58	44002.07
586.74	44013.77
586.90	43538.65
587.06	43157.14
587.22	43761.00
587.38	43742.27
587.54	44201.02
587.70	44116.76
587.86	44430.39
588.02	43896.75
588.18	44378.90
588.34	44186.97
588.49	43901.43
588.65	43683.76
588.81	43957.60
588.97	43878.02
589.13	44114.42
589.29	43882.70
589.45	44023.14
589.61	44194.00
589.77	44116.76
589.93	43845.26
590.08	44243.15
590.24	44273.57
590.40	44107.40
590.56	43966.96
590.72	43988.03
590.88	43763.34
