SpectraSuite Data File
++++++++++++++++++++++++++++++++++++
Date: Fri Oct 04 11:48:43 GMT-05:00 2013
User: price-jones
Dark Spectrum Present: No
Reference Spectrum Present: No
Number of Sampled Component Spectra: 1
Spectrometers: USB2+H05261
Integration Time (usec): 100000 (USB2+H05261)
Spectra Averaged: 1 (USB2+H05261)
Boxcar Smoothing: 0 (USB2+H05261)
Correct for Electrical Dark: No (USB2+H05261)
Strobe/Lamp Enabled: No (USB2+H05261)
Correct for Detector Non-linearity: No (USB2+H05261)
Correct for Stray Light: No (USB2+H05261)
Number of Pixels in Processed Spectrum: 2048
>>>>>Begin Processed Spectral Data<<<<<
365.73	67.88
365.92	67.88
366.12	67.88
366.32	0.00
366.52	0.00
366.72	0.00
366.91	0.00
367.11	0.00
367.31	0.00
367.51	0.00
367.70	0.00
367.90	7.02
368.10	0.00
368.30	0.00
368.49	0.00
368.69	0.00
368.89	0.00
369.09	0.00
369.28	0.00
369.48	0.00
369.68	0.00
369.87	0.00
370.07	0.00
370.27	0.00
370.47	112.35
370.66	489.17
370.86	543.00
371.06	550.03
371.25	589.82
371.45	592.16
371.65	500.87
371.84	510.24
372.04	596.84
372.24	643.65
372.44	564.07
372.63	620.24
372.83	676.41
373.03	676.41
373.22	608.54
373.42	645.99
373.62	678.76
373.81	760.67
374.01	730.25
374.21	678.76
374.40	730.25
374.60	704.50
374.79	716.20
374.99	660.03
375.19	786.42
375.38	781.74
375.58	779.40
375.78	786.42
375.97	816.85
376.17	854.30
376.37	786.42
376.56	788.76
376.76	779.40
376.95	842.59
377.15	849.61
377.35	863.66
377.54	793.44
377.74	847.27
377.93	777.06
378.13	844.93
378.33	922.17
378.52	819.19
378.72	983.02
378.91	912.81
379.11	922.17
379.31	856.64
379.50	889.40
379.70	978.34
379.89	931.53
380.09	968.98
380.28	931.53
380.48	901.11
380.68	1034.52
380.87	940.90
381.07	983.02
381.26	1069.62
381.46	980.68
381.65	1046.22
381.85	968.98
382.04	1027.50
382.24	1015.79
382.43	1083.67
382.63	1020.47
382.83	1067.28
383.02	1137.50
383.22	1090.69
383.41	1050.90
383.61	1249.85
383.80	1086.01
384.00	1018.13
384.19	1153.88
384.39	1186.65
384.58	1102.39
384.78	1114.10
384.97	1191.33
385.17	1196.01
385.36	1146.86
385.56	1130.48
385.75	1160.91
385.95	1170.27
386.14	1125.80
386.34	1217.08
386.53	1160.91
386.72	1111.75
386.92	1203.04
387.11	1366.87
387.31	1277.93
387.50	1306.02
387.70	1123.46
387.89	1221.76
388.09	1380.92
388.28	1310.70
388.48	1306.02
388.67	1256.87
388.86	1315.38
389.06	1310.70
389.25	1434.75
389.45	1378.58
389.64	1362.19
389.84	1481.56
390.03	1401.98
390.22	1490.92
390.42	1390.28
390.61	1451.13
390.81	1385.60
391.00	1451.13
391.19	1345.81
391.39	1584.54
391.58	1455.81
391.78	1497.94
391.97	1502.62
392.16	1540.07
392.36	1624.33
392.55	1547.09
392.75	1542.41
392.94	1565.82
393.13	1577.52
393.33	1579.86
393.52	1638.38
393.71	1678.16
393.91	1673.48
394.10	1645.40
394.29	1652.42
394.49	1619.65
394.68	1689.87
394.88	1722.63
395.07	1755.40
395.26	1797.53
395.46	1746.04
395.65	1895.83
395.84	1739.02
396.04	1849.02
396.23	1813.92
396.42	1834.98
396.62	1846.68
396.81	1919.24
397.00	1902.86
397.19	1937.96
397.39	1940.30
397.58	2045.63
397.77	1928.60
397.97	2022.22
398.16	1977.75
398.35	2078.40
398.55	2045.63
398.74	2085.42
398.93	2209.47
399.12	2092.44
399.32	2080.74
399.51	2012.86
399.70	2143.93
399.90	2188.40
400.09	2218.83
400.28	2272.66
400.47	2361.60
400.67	2303.09
400.86	2265.64
401.05	2267.98
401.24	2214.15
401.44	2260.96
401.63	2335.85
401.82	2340.54
402.01	2368.62
402.21	2312.45
402.40	2399.05
402.59	2445.86
402.78	2478.63
402.97	2389.69
403.17	2588.63
403.36	2518.42
403.55	2506.71
403.74	2558.21
403.93	2700.98
404.13	2555.86
404.32	2569.91
404.51	2647.15
404.70	2597.99
404.89	2569.91
405.09	2799.28
405.28	2689.28
405.47	2712.68
405.66	2654.17
405.85	2672.89
406.05	2951.42
406.24	2754.81
406.43	2925.67
406.62	2911.63
406.81	3080.14
407.00	2920.99
407.20	2991.20
407.39	2974.82
407.58	3005.25
407.77	2986.52
407.96	3108.23
408.15	3148.02
408.34	3021.63
408.54	3197.17
408.73	3136.32
408.92	3096.53
409.11	3218.24
409.30	3269.73
409.49	3213.56
409.68	3091.85
409.87	3377.39
410.07	3356.33
410.26	3389.10
410.45	3339.94
410.64	3389.10
410.83	3496.76
411.02	3517.83
411.21	3676.98
411.40	3449.95
411.59	3595.06
411.78	3529.53
411.98	3566.98
412.17	3754.22
412.36	3672.30
412.55	3744.86
412.74	3801.03
412.93	3735.50
413.12	3742.52
413.31	3969.55
413.50	3964.87
413.69	3997.64
413.88	4135.73
414.07	4030.40
414.26	4152.11
414.45	4159.13
414.64	4259.78
414.83	4229.35
415.02	4227.01
415.22	4320.63
415.41	4491.49
415.60	4390.84
415.79	4379.14
415.98	4547.66
416.17	4432.97
416.36	4578.09
416.55	4517.23
416.74	4753.63
416.93	4587.45
417.12	4596.81
417.31	4713.84
417.50	4765.33
417.69	4849.59
417.88	4643.62
418.07	4692.77
418.26	4823.84
418.45	4882.36
418.64	4985.34
418.83	5153.86
419.02	5013.43
419.21	4983.00
419.39	5146.84
419.58	4873.00
419.77	5022.79
419.96	5217.05
420.15	5275.57
420.34	5100.03
420.53	5172.58
420.72	5224.08
420.91	5158.54
421.10	5394.93
421.29	5486.22
421.48	5217.05
421.67	5411.32
421.86	5610.26
422.05	5448.77
422.24	5488.56
422.43	5420.68
422.61	5509.62
422.80	5645.37
422.99	5661.76
423.18	5481.53
423.37	5577.50
423.56	5575.16
423.75	5647.71
423.94	5626.65
424.13	5224.08
424.32	5411.32
424.50	5558.77
424.69	5816.23
424.88	5645.37
425.07	5577.50
425.26	5636.01
425.45	5724.95
425.64	5680.48
425.83	5682.82
426.01	5858.36
426.20	5792.83
426.39	5886.45
426.58	5743.67
426.77	5809.21
426.96	5893.47
427.15	5912.19
427.33	6031.56
427.52	5750.70
427.71	6080.71
427.90	6050.28
428.09	6101.78
428.28	6078.37
428.46	5921.56
428.65	6024.54
428.84	6246.89
429.03	6483.28
429.22	6005.81
429.40	6293.70
429.59	6361.58
429.78	5846.66
429.97	6087.73
430.16	6209.44
430.34	6317.11
430.53	6560.52
430.72	6392.00
430.91	6399.02
431.10	6312.42
431.28	6604.99
431.47	6597.97
431.66	6722.02
431.85	6715.00
432.03	6841.39
432.22	6815.64
432.41	6888.20
432.60	6757.13
432.79	6766.49
432.97	6799.26
433.16	7077.78
433.35	6904.58
433.54	7035.65
433.72	7007.56
433.91	6876.49
434.10	6995.86
434.28	6916.28
434.47	7248.64
434.66	7045.01
434.85	7162.04
435.03	7183.10
435.22	7220.55
435.41	7478.01
435.59	7349.28
435.78	7407.80
435.97	7485.03
436.16	7372.69
436.34	7473.33
436.53	7611.42
436.72	7644.19
436.90	7215.87
437.09	7772.92
437.28	7508.44
437.46	7449.93
437.65	7604.40
437.84	7765.90
438.02	7894.63
438.21	7662.91
438.40	7651.21
438.58	7749.51
438.77	7857.18
438.96	8191.88
439.14	8116.98
439.33	8327.63
439.52	8154.43
439.70	8297.20
439.89	8315.92
440.08	8538.27
440.26	8519.55
440.45	8755.94
440.63	8514.87
440.82	8613.17
441.01	8681.05
441.19	8739.56
441.38	8954.89
441.57	8844.88
441.75	8891.70
441.94	9158.52
442.12	9238.09
442.31	9380.87
442.50	9315.33
442.68	9195.96
442.87	9317.67
443.05	9369.16
443.24	9600.88
443.43	9350.44
443.61	9287.25
443.80	9884.08
443.98	9373.85
444.17	9235.75
444.35	9748.33
444.54	9694.50
444.73	9558.75
444.91	9495.55
445.10	9385.55
445.28	9502.58
445.47	9610.24
445.65	9678.12
445.84	9942.60
446.02	9767.06
446.21	9603.22
446.39	9717.90
446.58	9755.35
446.77	9783.44
446.95	9685.14
447.14	9844.29
447.32	9909.83
447.51	9856.00
447.69	9879.40
447.88	9942.60
448.06	9795.14
448.25	9968.34
448.43	10054.94
448.62	10043.24
448.80	10141.54
448.99	10015.15
449.17	10155.58
449.36	10087.71
449.54	10279.63
449.73	10459.85
449.91	10352.19
450.10	10553.48
450.28	10476.24
450.46	10525.39
450.65	10476.24
450.83	10719.65
451.02	10403.68
451.20	10686.89
451.39	10588.58
451.57	10759.44
451.76	10483.26
451.94	10665.82
452.13	10934.98
452.31	10394.32
452.49	10567.52
452.68	10895.19
452.86	10644.76
453.05	11166.70
453.23	11007.54
453.42	10920.94
453.60	10934.98
453.78	10993.50
453.97	10956.05
454.15	11068.39
454.34	10984.13
454.52	11227.55
454.70	11208.83
454.89	11307.13
455.07	11477.99
455.26	11382.03
455.44	11744.81
455.62	11405.43
455.81	11566.93
455.99	11555.22
456.17	11646.51
456.36	11683.95
456.54	11819.71
456.73	12018.65
456.91	12255.04
457.09	12145.04
457.28	12479.74
457.46	12046.74
457.64	12278.45
457.83	12269.09
458.01	12201.21
458.19	12243.34
458.38	12395.48
458.56	12554.63
458.74	12648.26
458.93	12336.96
459.11	12615.49
459.29	12681.02
459.48	12709.11
459.66	12798.05
459.84	12910.40
460.03	12896.35
460.21	12823.80
460.39	13032.10
460.57	12512.50
460.76	12968.91
460.94	13385.52
461.12	12957.21
461.31	13282.54
461.49	12968.91
461.67	12943.16
461.85	13336.37
462.04	13179.56
462.22	13958.96
462.40	13486.17
462.59	13247.43
462.77	13495.53
462.95	13327.01
463.13	13439.36
463.32	13696.82
463.50	13937.89
463.68	13607.87
463.86	13893.42
464.05	13703.84
464.23	13678.09
464.41	14019.81
464.59	13575.11
464.78	13874.70
464.96	13937.89
465.14	13982.36
465.32	14193.01
465.50	14333.44
465.69	14157.90
465.87	14078.32
466.05	14249.18
466.23	14178.97
466.41	14335.78
466.60	14618.99
466.78	14295.99
466.96	14305.35
467.14	14237.48
467.32	14541.75
467.51	14527.71
467.69	14359.19
467.87	14682.18
468.05	14590.90
468.23	14462.17
468.41	14698.56
468.60	14717.29
468.78	14885.81
468.96	14623.67
469.14	15122.20
469.32	15129.22
469.50	14630.69
469.69	15087.09
469.87	15445.20
470.05	15669.89
470.23	15353.91
470.41	15286.04
470.59	15274.34
470.77	15337.53
470.95	15803.30
471.14	15728.40
471.32	15363.28
471.50	15910.96
471.68	16016.29
471.86	16098.20
472.04	16222.25
472.22	16592.06
472.40	15995.22
472.58	16510.14
472.77	16500.78
472.95	16472.69
473.13	16891.65
473.31	16297.15
473.49	16437.58
473.67	17008.67
473.85	16631.85
474.03	17137.40
474.21	16961.86
474.39	17352.73
474.57	17436.99
474.75	17355.07
474.93	17706.15
475.12	17511.89
475.30	17827.86
475.48	17734.24
475.66	17820.84
475.84	18129.79
476.02	18216.39
476.20	18101.70
476.38	18518.32
476.56	18705.56
476.74	18792.16
476.92	18799.18
477.10	18815.57
477.28	18995.79
477.46	18925.57
477.64	18993.45
477.82	19557.52
478.00	19735.40
478.18	20025.62
478.36	19969.45
478.54	20243.29
478.72	20067.75
478.90	20505.43
479.08	20577.99
479.26	21071.84
479.44	20847.15
479.62	20854.17
479.80	20865.88
479.98	20905.66
480.16	21603.14
480.34	21289.51
480.52	21923.80
480.70	22061.89
480.88	21923.80
481.06	22118.06
481.24	22052.53
481.41	22604.89
481.59	22635.32
481.77	23091.73
481.95	23073.00
482.13	22923.21
482.31	23248.54
482.49	23875.80
482.67	24006.87
482.85	24194.12
483.03	24292.42
483.21	24496.05
483.39	24851.81
483.57	24741.80
483.74	25043.73
483.92	25352.68
484.10	24879.89
484.28	25614.82
484.46	25883.98
484.64	26335.71
484.82	26059.52
485.00	26356.77
485.18	26850.63
485.35	26684.45
485.53	26911.48
485.71	27087.02
485.89	27590.24
486.07	27758.75
486.25	27562.15
486.43	27779.82
486.61	28292.40
486.78	28463.25
486.96	28795.61
487.14	28961.79
487.32	29048.39
487.50	29317.55
487.68	29715.44
487.85	29942.47
488.03	30462.07
488.21	30738.26
488.39	30569.74
488.57	31112.74
488.75	31089.34
488.92	31360.84
489.10	31782.13
489.28	31424.03
489.46	32037.25
489.64	32173.00
489.81	32807.29
489.99	32687.92
490.17	32645.79
490.35	33235.61
490.53	32929.00
490.70	33661.58
490.88	33680.31
491.06	33525.83
491.24	33975.22
491.41	34361.40
491.59	34448.00
491.77	34623.54
491.95	34831.85
492.13	35026.12
492.30	35672.10
492.48	35634.66
492.66	35538.69
492.84	35873.39
493.01	36601.30
493.19	36245.54
493.37	36966.42
493.54	36893.86
493.72	37177.07
493.90	37368.99
494.08	37769.22
494.25	38080.52
494.43	38178.82
494.61	38157.75
494.79	38703.10
494.96	38366.06
495.14	38649.27
495.32	39168.87
495.49	38902.04
495.67	39440.37
495.85	40172.96
496.02	39739.96
496.20	40165.93
496.38	40301.68
496.55	40154.23
496.73	41226.20
496.91	41001.50
497.09	41212.15
497.26	41483.66
497.44	41083.42
497.62	41551.53
497.79	42143.69
497.97	41289.39
498.14	42630.52
498.32	42672.65
498.50	42424.55
498.67	42878.61
498.85	42845.85
499.03	43475.45
499.20	43079.90
499.38	43571.41
499.56	44217.40
499.73	43810.15
499.91	44065.27
500.08	44442.09
500.26	43690.78
500.44	44088.67
500.61	44430.39
500.79	44179.95
500.97	44921.90
501.14	45422.78
501.32	45397.03
501.49	45247.24
501.67	45507.04
501.84	45399.37
502.02	45717.68
502.20	46092.17
502.37	46286.43
502.55	46225.58
502.72	46185.79
502.90	46192.81
503.07	46019.61
503.25	46520.49
503.43	46852.84
503.60	46749.86
503.78	47215.63
503.95	47178.18
504.13	47213.29
504.30	47283.50
504.48	47129.03
504.65	47461.38
504.83	47910.77
505.01	48273.55
505.18	48076.94
505.36	48624.63
505.53	48341.42
505.71	48294.61
505.88	48432.71
506.06	48215.04
506.23	49352.54
506.41	48645.69
506.58	49340.83
506.76	49010.82
506.93	49308.07
507.11	49141.89
507.28	49177.00
507.46	49380.62
507.63	49155.93
507.81	49701.28
507.98	50057.04
508.16	49799.58
508.33	50164.70
508.50	49914.26
508.68	50578.98
508.85	50946.44
509.03	50635.15
509.20	50586.00
509.38	50834.10
509.55	51056.45
509.73	51103.26
509.90	51341.99
510.08	51358.38
510.25	51180.49
510.42	51327.95
510.60	51217.94
510.77	51653.28
510.95	52411.62
511.12	51615.83
511.30	51676.69
511.47	52135.43
511.64	52231.40
511.82	52292.25
511.99	52058.20
512.17	52205.65
512.34	52381.19
512.51	52428.00
512.69	52463.11
512.86	52514.60
513.04	52982.71
513.21	53045.90
513.38	53034.20
513.56	53038.88
513.73	53130.16
513.90	53069.31
514.08	53003.77
514.25	53216.76
514.43	53593.59
514.60	53525.71
514.77	53635.72
514.95	53741.04
515.12	53301.02
515.29	53612.31
515.47	53762.11
515.64	54094.46
515.81	54089.78
515.99	54150.63
516.16	54494.69
516.33	54410.43
516.51	54372.99
516.68	54272.34
516.85	54281.70
517.03	54590.66
517.20	54588.31
517.37	54822.37
517.54	54906.63
517.72	54726.41
517.89	55054.08
518.06	54777.90
518.24	55018.97
518.41	54941.74
518.58	54969.82
518.75	55150.04
518.93	55243.66
519.10	55508.14
519.27	55367.71
519.45	55243.66
519.62	55423.89
519.79	55370.05
519.96	55714.11
520.14	55552.62
520.31	55660.28
520.48	55847.52
520.65	55913.06
520.83	55966.89
521.00	56133.07
521.17	56088.60
521.34	56083.92
521.52	56154.13
521.69	56374.14
521.86	56273.50
522.03	56467.76
522.20	56442.02
522.38	56460.74
522.55	56484.15
522.72	56350.74
522.89	56750.97
523.07	56793.10
523.24	57010.77
523.41	57106.73
523.58	56765.01
523.75	56961.62
523.92	56647.99
524.10	57073.96
524.27	57160.56
524.44	57312.70
524.61	57434.41
524.78	57396.96
524.96	57146.52
525.13	57174.61
525.30	57509.30
525.47	57130.14
525.64	57696.55
525.81	57738.68
525.98	57523.35
526.16	57792.51
526.33	57923.58
526.50	58059.33
526.67	57396.96
526.84	57705.91
527.01	57733.99
527.18	57911.88
527.36	57993.79
527.53	58054.65
527.70	58323.81
527.87	58347.21
528.04	58181.04
528.21	58204.44
528.38	58337.85
528.55	58300.40
528.72	58412.75
528.89	58595.31
529.07	58295.72
529.24	58377.64
529.41	58504.03
529.58	58379.98
529.75	58408.07
529.92	58557.86
530.09	58883.20
530.26	58667.87
530.43	58782.55
530.60	58777.87
530.77	58653.82
530.94	58836.39
531.11	58777.87
531.28	58616.38
531.46	58717.02
531.63	58937.03
531.80	59075.12
531.97	59227.26
532.14	59110.23
532.31	59051.72
532.48	59135.98
532.65	59075.12
532.82	59018.95
532.99	59384.07
533.16	58986.18
533.33	59341.94
533.50	59810.05
533.67	59728.13
533.84	59374.71
534.01	59426.20
534.18	59540.89
534.35	59723.45
534.52	59491.74
534.69	59714.09
534.86	59873.24
535.03	59683.66
535.20	59835.80
535.37	59840.48
535.54	59884.95
535.71	59779.62
535.88	59985.59
536.05	59948.14
536.22	60020.70
536.38	60149.43
536.55	60203.26
536.72	60121.34
536.89	60140.07
537.06	60214.96
537.23	60264.11
537.40	60294.54
537.57	60175.17
537.74	60245.39
537.91	60512.21
538.08	60542.64
538.25	60289.86
538.42	60500.51
538.59	60568.38
538.75	60142.41
538.92	60362.42
539.09	60491.15
539.26	60802.44
539.43	60800.10
539.60	60882.02
539.77	60743.92
539.94	60945.21
540.11	60706.47
540.28	60786.05
540.44	60816.48
540.61	60809.46
540.78	60776.69
540.95	61017.77
541.12	60917.12
541.29	60945.21
541.46	61029.47
541.62	60947.55
541.79	60956.91
541.96	60966.27
542.13	61066.92
542.30	61057.56
542.47	61226.07
542.63	61233.10
542.80	61460.13
542.97	61467.15
543.14	61483.53
543.31	61511.62
543.48	61532.68
543.64	61572.47
543.81	61647.37
543.98	61759.72
544.15	61811.21
544.32	61914.19
544.48	61778.44
544.65	61750.35
544.82	61460.13
544.99	61771.42
545.16	61778.44
545.32	61588.86
545.49	62010.15
545.66	62232.50
545.83	61998.45
546.00	62230.16
546.16	61982.07
546.33	61752.69
546.50	61591.20
546.67	62026.54
546.83	61820.57
547.00	62129.52
547.17	61984.41
547.34	62340.17
547.50	62251.23
547.67	62220.80
547.84	62293.36
548.00	62330.81
548.17	62471.24
548.34	62239.53
548.51	62379.96
548.67	62401.02
548.84	62459.54
549.01	62279.31
549.18	62391.66
549.34	62391.66
549.51	62429.11
549.68	62646.78
549.84	62583.58
550.01	62693.59
550.18	62553.16
550.34	62726.36
550.51	62679.55
550.68	62672.52
550.84	62590.61
551.01	62873.81
551.18	62550.82
551.34	62532.09
551.51	62700.61
551.68	62988.50
551.84	62911.26
552.01	62679.55
552.18	63131.27
552.34	62929.98
552.51	63126.59
552.68	62824.66
552.84	63021.26
553.01	63224.89
553.18	62988.50
553.34	62925.30
553.51	63121.91
553.67	63292.77
553.84	63339.58
554.01	63164.04
554.17	63201.49
554.34	63267.02
554.51	63030.63
554.67	63229.57
554.84	63238.93
555.00	63243.62
555.17	63409.79
555.33	63316.17
555.50	63199.15
555.67	63267.02
555.83	63444.90
556.00	63442.56
556.16	63515.12
556.33	63330.22
556.50	63419.16
556.66	63487.03
556.83	63377.03
556.99	63568.95
557.16	63545.54
557.32	63557.25
557.49	63627.46
557.65	63344.26
557.82	63655.55
557.98	63517.46
558.15	63650.87
558.32	63793.64
558.48	63613.42
558.65	63800.66
558.81	63835.77
558.98	63756.19
559.14	63798.32
559.31	63791.30
559.47	63653.21
559.64	63779.60
559.80	63870.88
559.97	63924.71
560.13	63655.55
560.30	64037.06
560.46	63784.28
560.63	63875.56
560.79	63957.48
560.96	63962.16
561.12	64001.95
561.29	63856.84
561.45	64020.67
561.61	63880.24
561.78	64030.04
561.94	64156.42
562.11	63971.52
562.27	64044.08
562.44	63931.73
562.60	64069.82
562.77	64186.85
562.93	64055.78
563.10	64315.58
563.26	64072.17
563.42	64336.65
563.59	64317.92
563.75	64170.47
563.92	64266.43
564.08	63962.16
564.24	64224.30
564.41	63999.61
564.57	64046.42
564.74	64170.47
564.90	64067.48
565.07	64186.85
565.23	64338.99
565.39	64247.71
565.56	64133.02
565.72	64175.15
565.88	64228.98
566.05	64196.21
566.21	64268.77
566.38	64196.21
566.54	64303.88
566.70	64526.23
566.87	64430.27
567.03	64470.06
567.19	64505.16
567.36	64458.35
567.52	64341.33
567.68	64612.83
567.85	64310.90
568.01	64601.13
568.17	64516.87
568.34	64603.47
568.50	64626.87
568.66	64626.87
568.83	64577.72
568.99	64432.61
569.15	64502.82
569.32	64343.67
569.48	64308.56
569.64	64392.82
569.81	64420.90
569.97	64500.48
570.13	64720.49
570.30	64643.26
570.46	64500.48
570.62	64549.63
570.78	64521.55
570.95	64521.55
571.11	64477.08
571.27	64472.40
571.43	64434.95
571.60	64690.07
571.76	64645.60
571.92	64697.09
572.09	64797.73
572.25	64694.75
572.41	64856.24
572.57	64725.17
572.74	64764.96
572.90	64643.26
573.06	64678.36
573.22	64659.64
573.38	64743.90
573.55	64699.43
573.71	65073.91
573.87	64970.93
574.03	64650.28
574.20	64774.33
574.36	64666.66
574.52	64748.58
574.68	64654.96
574.84	64853.90
575.01	64851.56
575.17	65013.06
575.33	64980.29
575.49	64849.22
575.65	64956.89
575.82	64863.27
575.98	64811.77
576.14	65013.06
576.30	64694.75
576.46	64748.58
576.62	64786.03
576.79	64706.45
576.95	64835.18
577.11	64797.73
577.27	65080.94
577.43	64954.55
577.59	64872.63
577.75	64914.76
577.92	64669.00
578.08	64657.30
578.24	64921.78
578.40	64863.27
578.56	64743.90
578.72	64851.56
578.88	65073.91
579.04	65036.47
579.21	64928.80
579.37	64940.50
579.53	64966.25
579.69	64779.01
579.85	64797.73
580.01	64893.69
580.17	64945.18
580.33	64881.99
580.49	65085.62
580.65	65008.38
580.82	65130.09
580.98	65226.05
581.14	65031.78
581.30	65066.89
581.46	64975.61
581.62	65020.08
581.78	64849.22
581.94	64989.66
582.10	64996.68
582.26	65073.91
582.42	65104.34
582.58	64872.63
582.74	64919.44
582.90	65038.81
583.06	65148.81
583.22	65043.49
583.38	64952.21
583.54	65106.68
583.70	65008.38
583.86	65219.03
584.02	65181.58
584.18	65153.49
584.34	65174.56
584.50	65233.07
584.66	65069.23
584.82	65123.07
584.98	65141.79
585.14	64952.21
585.30	65087.96
585.46	65113.70
585.62	65024.76
585.78	65212.01
585.94	64987.31
586.10	65216.69
586.26	65167.54
586.42	65162.85
586.58	65424.99
586.74	64956.89
586.90	65141.79
587.06	65123.07
587.22	65197.96
587.38	65106.68
587.54	65207.32
587.70	65249.45
587.86	65174.56
588.02	65314.99
588.18	65361.80
588.34	65275.20
588.49	65272.86
