SpectraSuite Data File
++++++++++++++++++++++++++++++++++++
Date: Fri Oct 04 11:46:57 GMT-05:00 2013
User: price-jones
Dark Spectrum Present: No
Reference Spectrum Present: No
Number of Sampled Component Spectra: 1
Spectrometers: USB2+H05261
Integration Time (usec): 100000 (USB2+H05261)
Spectra Averaged: 1 (USB2+H05261)
Boxcar Smoothing: 0 (USB2+H05261)
Correct for Electrical Dark: No (USB2+H05261)
Strobe/Lamp Enabled: No (USB2+H05261)
Correct for Detector Non-linearity: No (USB2+H05261)
Correct for Stray Light: No (USB2+H05261)
Number of Pixels in Processed Spectrum: 2048
>>>>>Begin Processed Spectral Data<<<<<
365.73	74.90
365.92	74.90
366.12	74.90
366.32	0.00
366.52	0.00
366.72	0.00
366.91	0.00
367.11	16.38
367.31	0.00
367.51	0.00
367.70	0.00
367.90	0.00
368.10	0.00
368.30	0.00
368.49	0.00
368.69	0.00
368.89	0.00
369.09	11.70
369.28	0.00
369.48	0.00
369.68	30.43
369.87	30.43
370.07	0.00
370.27	4.68
370.47	0.00
370.66	0.00
370.86	37.45
371.06	32.77
371.25	154.48
371.45	154.48
371.65	74.90
371.84	25.75
372.04	0.00
372.24	49.15
372.44	140.43
372.63	147.45
372.83	140.43
373.03	88.94
373.22	84.26
373.42	58.51
373.62	37.45
373.81	63.19
374.01	100.64
374.21	95.96
374.40	117.03
374.60	152.13
374.79	126.39
374.99	114.69
375.19	189.58
375.38	117.03
375.58	81.92
375.78	161.50
375.97	93.62
376.17	114.69
376.37	79.58
376.56	126.39
376.76	100.64
376.95	128.73
377.15	100.64
377.35	86.60
377.54	110.01
377.74	84.26
377.93	177.88
378.13	56.17
378.33	114.69
378.52	114.69
378.72	112.35
378.91	95.96
379.11	105.32
379.31	84.26
379.50	79.58
379.70	114.69
379.89	91.28
380.09	105.32
380.28	91.28
380.48	124.05
380.68	126.39
380.87	67.88
381.07	70.22
381.26	79.58
381.46	117.03
381.65	135.75
381.85	49.15
382.04	56.17
382.24	128.73
382.43	58.51
382.63	112.35
382.83	152.13
383.02	79.58
383.22	88.94
383.41	86.60
383.61	124.05
383.80	100.64
384.00	91.28
384.19	37.45
384.39	112.35
384.58	98.30
384.78	81.92
384.97	67.88
385.17	110.01
385.36	53.83
385.56	79.58
385.75	49.15
385.95	88.94
386.14	70.22
386.34	86.60
386.53	56.17
386.72	91.28
386.92	145.11
387.11	95.96
387.31	53.83
387.50	114.69
387.70	72.56
387.89	67.88
388.09	74.90
388.28	56.17
388.48	81.92
388.67	102.98
388.86	23.41
389.06	53.83
389.25	67.88
389.45	60.85
389.64	53.83
389.84	117.03
390.03	154.48
390.22	37.45
390.42	35.11
390.61	102.98
390.81	159.16
391.00	91.28
391.19	114.69
391.39	126.39
391.58	145.11
391.78	86.60
391.97	161.50
392.16	142.77
392.36	187.24
392.55	194.26
392.75	140.43
392.94	67.88
393.13	140.43
393.33	128.73
393.52	107.66
393.71	100.64
393.91	86.60
394.10	67.88
394.29	49.15
394.49	131.07
394.68	168.52
394.88	91.28
395.07	93.62
395.26	49.15
395.46	58.51
395.65	21.06
395.84	142.77
396.04	159.16
396.23	110.01
396.42	138.09
396.62	114.69
396.81	91.28
397.00	149.79
397.19	28.09
397.39	175.54
397.58	159.16
397.77	152.13
397.97	114.69
398.16	81.92
398.35	86.60
398.55	44.47
398.74	100.64
398.93	154.48
399.12	124.05
399.32	105.32
399.51	93.62
399.70	138.09
399.90	142.77
400.09	114.69
400.28	161.50
400.47	84.26
400.67	145.11
400.86	84.26
401.05	81.92
401.24	168.52
401.44	138.09
401.63	107.66
401.82	124.05
402.01	100.64
402.21	58.51
402.40	147.45
402.59	124.05
402.78	145.11
402.97	98.30
403.17	46.81
403.36	182.56
403.55	140.43
403.74	149.79
403.93	114.69
404.13	159.16
404.32	79.58
404.51	121.71
404.70	205.97
404.89	88.94
405.09	203.63
405.28	95.96
405.47	166.18
405.66	65.54
405.85	154.48
406.05	81.92
406.24	107.66
406.43	98.30
406.62	114.69
406.81	210.65
407.00	161.50
407.20	74.90
407.39	72.56
407.58	138.09
407.77	65.54
407.96	107.66
408.15	110.01
408.34	145.11
408.54	100.64
408.73	131.07
408.92	74.90
409.11	128.73
409.30	161.50
409.49	91.28
409.68	98.30
409.87	65.54
410.07	126.39
410.26	166.18
410.45	128.73
410.64	79.58
410.83	95.96
411.02	147.45
411.21	77.24
411.40	133.41
411.59	74.90
411.78	98.30
411.98	86.60
412.17	86.60
412.36	107.66
412.55	100.64
412.74	110.01
412.93	119.37
413.12	138.09
413.31	117.03
413.50	107.66
413.69	100.64
413.88	152.13
414.07	140.43
414.26	114.69
414.45	49.15
414.64	124.05
414.83	161.50
415.02	135.75
415.22	154.48
415.41	140.43
415.60	114.69
415.79	126.39
415.98	121.71
416.17	84.26
416.36	142.77
416.55	102.98
416.74	117.03
416.93	191.92
417.12	163.84
417.31	28.09
417.50	166.18
417.69	168.52
417.88	184.90
418.07	98.30
418.26	147.45
418.45	168.52
418.64	198.95
418.83	212.99
419.02	194.26
419.21	163.84
419.39	210.65
419.58	208.31
419.77	161.50
419.96	168.52
420.15	166.18
420.34	119.37
420.53	107.66
420.72	173.20
420.91	147.45
421.10	117.03
421.29	149.79
421.48	222.35
421.67	128.73
421.86	126.39
422.05	126.39
422.24	88.94
422.43	156.82
422.61	100.64
422.80	135.75
422.99	110.01
423.18	105.32
423.37	166.18
423.56	107.66
423.75	105.32
423.94	149.79
424.13	128.73
424.32	74.90
424.50	124.05
424.69	133.41
424.88	191.92
425.07	175.54
425.26	102.98
425.45	217.67
425.64	196.60
425.83	205.97
426.01	189.58
426.20	203.63
426.39	126.39
426.58	77.24
426.77	117.03
426.96	227.03
427.15	126.39
427.33	91.28
427.52	124.05
427.71	140.43
427.90	93.62
428.09	119.37
428.28	117.03
428.46	105.32
428.65	203.63
428.84	131.07
429.03	114.69
429.22	60.85
429.40	95.96
429.59	102.98
429.78	156.82
429.97	154.48
430.16	60.85
430.34	128.73
430.53	124.05
430.72	105.32
430.91	184.90
431.10	98.30
431.28	149.79
431.47	119.37
431.66	133.41
431.85	21.06
432.03	112.35
432.22	180.22
432.41	63.19
432.60	159.16
432.79	203.63
432.97	287.89
433.16	241.08
433.35	269.16
433.54	180.22
433.72	70.22
433.91	119.37
434.10	98.30
434.28	135.75
434.47	173.20
434.66	107.66
434.85	112.35
435.03	79.58
435.22	142.77
435.41	166.18
435.59	182.56
435.78	159.16
435.97	119.37
436.16	128.73
436.34	133.41
436.53	149.79
436.72	170.86
436.90	79.58
437.09	114.69
437.28	131.07
437.46	98.30
437.65	154.48
437.84	72.56
438.02	74.90
438.21	124.05
438.40	88.94
438.58	44.47
438.77	110.01
438.96	53.83
439.14	105.32
439.33	131.07
439.52	184.90
439.70	119.37
439.89	93.62
440.08	166.18
440.26	166.18
440.45	198.95
440.63	154.48
440.82	135.75
441.01	65.54
441.19	74.90
441.38	189.58
441.57	124.05
441.75	102.98
441.94	142.77
442.12	180.22
442.31	159.16
442.50	81.92
442.68	95.96
442.87	152.13
443.05	107.66
443.24	79.58
443.43	145.11
443.61	145.11
443.80	93.62
443.98	102.98
444.17	100.64
444.35	191.92
444.54	198.95
444.73	168.52
444.91	173.20
445.10	121.71
445.28	95.96
445.47	58.51
445.65	126.39
445.84	124.05
446.02	105.32
446.21	86.60
446.39	84.26
446.58	154.48
446.77	121.71
446.95	163.84
447.14	163.84
447.32	147.45
447.51	126.39
447.69	191.92
447.88	154.48
448.06	201.29
448.25	180.22
448.43	105.32
448.62	189.58
448.80	180.22
448.99	128.73
449.17	128.73
449.36	105.32
449.54	147.45
449.73	114.69
449.91	135.75
450.10	102.98
450.28	184.90
450.46	187.24
450.65	149.79
450.83	124.05
451.02	142.77
451.20	121.71
451.39	98.30
451.57	100.64
451.76	168.52
451.94	105.32
452.13	163.84
452.31	149.79
452.49	149.79
452.68	28.09
452.86	163.84
453.05	131.07
453.23	133.41
453.42	63.19
453.60	119.37
453.78	156.82
453.97	39.79
454.15	126.39
454.34	126.39
454.52	189.58
454.70	145.11
454.89	119.37
455.07	126.39
455.26	121.71
455.44	175.54
455.62	147.45
455.81	86.60
455.99	154.48
456.17	149.79
456.36	156.82
456.54	114.69
456.73	147.45
456.91	117.03
457.09	81.92
457.28	234.05
457.46	203.63
457.64	205.97
457.83	79.58
458.01	142.77
458.19	236.39
458.38	140.43
458.56	196.60
458.74	126.39
458.93	138.09
459.11	159.16
459.29	126.39
459.48	100.64
459.66	182.56
459.84	222.35
460.03	257.46
460.21	191.92
460.39	135.75
460.57	114.69
460.76	107.66
460.94	159.16
461.12	128.73
461.31	81.92
461.49	102.98
461.67	119.37
461.85	180.22
462.04	117.03
462.22	622.58
462.40	175.54
462.59	203.63
462.77	177.88
462.95	145.11
463.13	93.62
463.32	205.97
463.50	149.79
463.68	196.60
463.86	124.05
464.05	119.37
464.23	201.29
464.41	135.75
464.59	131.07
464.78	131.07
464.96	168.52
465.14	140.43
465.32	72.56
465.50	149.79
465.69	187.24
465.87	119.37
466.05	107.66
466.23	128.73
466.41	81.92
466.60	84.26
466.78	84.26
466.96	107.66
467.14	217.67
467.32	161.50
467.51	102.98
467.69	159.16
467.87	173.20
468.05	133.41
468.23	203.63
468.41	112.35
468.60	124.05
468.78	105.32
468.96	238.73
469.14	234.05
469.32	152.13
469.50	74.90
469.69	156.82
469.87	196.60
470.05	212.99
470.23	173.20
470.41	79.58
470.59	121.71
470.77	114.69
470.95	170.86
471.14	210.65
471.32	124.05
471.50	170.86
471.68	145.11
471.86	145.11
472.04	95.96
472.22	142.77
472.40	133.41
472.58	102.98
472.77	119.37
472.95	114.69
473.13	138.09
473.31	210.65
473.49	170.86
473.67	58.51
473.85	154.48
474.03	149.79
474.21	114.69
474.39	175.54
474.57	177.88
474.75	205.97
474.93	63.19
475.12	154.48
475.30	110.01
475.48	161.50
475.66	126.39
475.84	84.26
476.02	173.20
476.20	149.79
476.38	175.54
476.56	278.52
476.74	184.90
476.92	140.43
477.10	140.43
477.28	215.33
477.46	133.41
477.64	196.60
477.82	128.73
478.00	124.05
478.18	210.65
478.36	126.39
478.54	131.07
478.72	149.79
478.90	159.16
479.08	175.54
479.26	145.11
479.44	138.09
479.62	161.50
479.80	149.79
479.98	140.43
480.16	180.22
480.34	201.29
480.52	117.03
480.70	105.32
480.88	170.86
481.06	93.62
481.24	102.98
481.41	135.75
481.59	177.88
481.77	121.71
481.95	196.60
482.13	168.52
482.31	217.67
482.49	145.11
482.67	102.98
482.85	161.50
483.03	177.88
483.21	138.09
483.39	110.01
483.57	138.09
483.74	227.03
483.92	133.41
484.10	100.64
484.28	184.90
484.46	229.37
484.64	93.62
484.82	91.28
485.00	168.52
485.18	166.18
485.35	138.09
485.53	49.15
485.71	208.31
485.89	142.77
486.07	147.45
486.25	252.78
486.43	189.58
486.61	173.20
486.78	163.84
486.96	142.77
487.14	222.35
487.32	100.64
487.50	163.84
487.68	175.54
487.85	182.56
488.03	182.56
488.21	159.16
488.39	210.65
488.57	175.54
488.75	161.50
488.92	433.00
489.10	210.65
489.28	220.01
489.46	133.41
489.64	135.75
489.81	166.18
489.99	128.73
490.17	145.11
490.35	135.75
490.53	147.45
490.70	189.58
490.88	142.77
491.06	194.26
491.24	154.48
491.41	177.88
491.59	166.18
491.77	126.39
491.95	208.31
492.13	189.58
492.30	163.84
492.48	166.18
492.66	189.58
492.84	177.88
493.01	154.48
493.19	124.05
493.37	187.24
493.54	224.69
493.72	217.67
493.90	152.13
494.08	161.50
494.25	177.88
494.43	180.22
494.61	196.60
494.79	147.45
494.96	173.20
495.14	215.33
495.32	220.01
495.49	229.37
495.67	203.63
495.85	215.33
496.02	210.65
496.20	187.24
496.38	227.03
496.55	175.54
496.73	170.86
496.91	159.16
497.09	191.92
497.26	217.67
497.44	231.71
497.62	224.69
497.79	224.69
497.97	189.58
498.14	128.73
498.32	259.80
498.50	224.69
498.67	166.18
498.85	138.09
499.03	145.11
499.20	140.43
499.38	187.24
499.56	203.63
499.73	276.18
499.91	175.54
500.08	138.09
500.26	231.71
500.44	159.16
500.61	191.92
500.79	208.31
500.97	217.67
501.14	187.24
501.32	227.03
501.49	184.90
501.67	191.92
501.84	231.71
502.02	201.29
502.20	198.95
502.37	173.20
502.55	182.56
502.72	212.99
502.90	205.97
503.07	217.67
503.25	227.03
503.43	215.33
503.60	215.33
503.78	208.31
503.95	201.29
504.13	210.65
504.30	229.37
504.48	243.42
504.65	198.95
504.83	205.97
505.01	208.31
505.18	229.37
505.36	184.90
505.53	220.01
505.71	140.43
505.88	208.31
506.06	182.56
506.23	128.73
506.41	184.90
506.58	212.99
506.76	138.09
506.93	250.44
507.11	173.20
507.28	210.65
507.46	201.29
507.63	149.79
507.81	198.95
507.98	168.52
508.16	187.24
508.33	173.20
508.50	220.01
508.68	191.92
508.85	173.20
509.03	154.48
509.20	180.22
509.38	184.90
509.55	220.01
509.73	231.71
509.90	245.76
510.08	189.58
510.25	257.46
510.42	229.37
510.60	156.82
510.77	229.37
510.95	191.92
511.12	212.99
511.30	229.37
511.47	315.97
511.64	222.35
511.82	198.95
511.99	194.26
512.17	220.01
512.34	201.29
512.51	266.82
512.69	173.20
512.86	215.33
513.04	142.77
513.21	159.16
513.38	149.79
513.56	163.84
513.73	231.71
513.90	112.35
514.08	220.01
514.25	201.29
514.43	191.92
514.60	241.08
514.77	212.99
514.95	245.76
515.12	245.76
515.29	189.58
515.47	203.63
515.64	250.44
515.81	224.69
515.99	264.48
516.16	198.95
516.33	269.16
516.51	161.50
516.68	184.90
516.85	205.97
517.03	224.69
517.20	276.18
517.37	234.05
517.54	210.65
517.72	161.50
517.89	196.60
518.06	264.48
518.24	201.29
518.41	215.33
518.58	278.52
518.75	142.77
518.93	205.97
519.10	236.39
519.27	131.07
519.45	229.37
519.62	121.71
519.79	128.73
519.96	168.52
520.14	161.50
520.31	201.29
520.48	163.84
520.65	203.63
520.83	259.80
521.00	264.48
521.17	191.92
521.34	128.73
521.52	243.42
521.69	161.50
521.86	215.33
522.03	212.99
522.20	241.08
522.38	285.55
522.55	180.22
522.72	182.56
522.89	201.29
523.07	250.44
523.24	184.90
523.41	210.65
523.58	159.16
523.75	145.11
523.92	166.18
524.10	236.39
524.27	212.99
524.44	187.24
524.61	175.54
524.78	170.86
524.96	224.69
525.13	191.92
525.30	205.97
525.47	166.18
525.64	189.58
525.81	217.67
525.98	154.48
526.16	196.60
526.33	187.24
526.50	180.22
526.67	147.45
526.84	147.45
527.01	196.60
527.18	131.07
527.36	166.18
527.53	184.90
527.70	191.92
527.87	180.22
528.04	264.48
528.21	152.13
528.38	215.33
528.55	262.14
528.72	224.69
528.89	210.65
529.07	196.60
529.24	154.48
529.41	299.59
529.58	231.71
529.75	210.65
529.92	252.78
530.09	208.31
530.26	222.35
530.43	220.01
530.60	98.30
530.77	210.65
530.94	180.22
531.11	138.09
531.28	163.84
531.46	173.20
531.63	236.39
531.80	241.08
531.97	292.57
532.14	140.43
532.31	208.31
532.48	266.82
532.65	341.72
532.82	341.72
532.99	308.95
533.16	327.68
533.33	224.69
533.50	271.50
533.67	337.04
533.84	372.15
534.01	388.53
534.18	276.18
534.35	259.80
534.52	337.04
534.69	212.99
534.86	264.48
535.03	203.63
535.20	217.67
535.37	217.67
535.54	180.22
535.71	189.58
535.88	294.91
536.05	196.60
536.22	205.97
536.38	229.37
536.55	234.05
536.72	215.33
536.89	238.73
537.06	191.92
537.23	163.84
537.40	189.58
537.57	217.67
537.74	201.29
537.91	269.16
538.08	250.44
538.25	224.69
538.42	191.92
538.59	255.12
538.75	191.92
538.92	278.52
539.09	248.10
539.26	280.86
539.43	449.38
539.60	997.07
539.77	1631.35
539.94	1390.28
540.11	968.98
540.28	713.86
540.44	507.90
540.61	297.25
540.78	238.73
540.95	203.63
541.12	278.52
541.29	81.92
541.46	269.16
541.62	231.71
541.79	208.31
541.96	124.05
542.13	177.88
542.30	154.48
542.47	159.16
542.63	297.25
542.80	175.54
542.97	297.25
543.14	196.60
543.31	170.86
543.48	245.76
543.64	170.86
543.81	112.35
543.98	175.54
544.15	196.60
544.32	208.31
544.48	266.82
544.65	191.92
544.82	175.54
544.99	220.01
545.16	210.65
545.32	175.54
545.49	210.65
545.66	110.01
545.83	210.65
546.00	245.76
546.16	182.56
546.33	234.05
546.50	184.90
546.67	285.55
546.83	257.46
547.00	133.41
547.17	215.33
547.34	180.22
547.50	255.12
547.67	248.10
547.84	212.99
548.00	210.65
548.17	201.29
548.34	194.26
548.51	257.46
548.67	297.25
548.84	217.67
549.01	184.90
549.18	243.42
549.34	227.03
549.51	156.82
549.68	222.35
549.84	255.12
550.01	182.56
550.18	243.42
550.34	231.71
550.51	269.16
550.68	203.63
550.84	182.56
551.01	236.39
551.18	231.71
551.34	198.95
551.51	208.31
551.68	175.54
551.84	238.73
552.01	215.33
552.18	273.84
552.34	220.01
552.51	208.31
552.68	196.60
552.84	112.35
553.01	201.29
553.18	205.97
553.34	250.44
553.51	182.56
553.67	135.75
553.84	180.22
554.01	224.69
554.17	248.10
554.34	222.35
554.51	203.63
554.67	241.08
554.84	159.16
555.00	187.24
555.17	212.99
555.33	212.99
555.50	147.45
555.67	215.33
555.83	234.05
556.00	217.67
556.16	418.96
556.33	177.88
556.50	191.92
556.66	170.86
556.83	177.88
556.99	173.20
557.16	215.33
557.32	180.22
557.49	208.31
557.65	138.09
557.82	124.05
557.98	147.45
558.15	212.99
558.32	191.92
558.48	231.71
558.65	208.31
558.81	189.58
558.98	180.22
559.14	191.92
559.31	205.97
559.47	201.29
559.64	112.35
559.80	196.60
559.97	182.56
560.13	191.92
560.30	222.35
560.46	245.76
560.63	182.56
560.79	201.29
560.96	203.63
561.12	217.67
561.29	187.24
561.45	238.73
561.61	248.10
561.78	301.93
561.94	212.99
562.11	229.37
562.27	138.09
562.44	238.73
562.60	234.05
562.77	152.13
562.93	283.20
563.10	212.99
563.26	203.63
563.42	243.42
563.59	196.60
563.75	182.56
563.92	283.20
564.08	196.60
564.24	241.08
564.41	299.59
564.57	250.44
564.74	168.52
564.90	203.63
565.07	327.68
565.23	217.67
565.39	301.93
565.56	250.44
565.72	231.71
565.88	180.22
566.05	229.37
566.21	156.82
566.38	177.88
566.54	234.05
566.70	131.07
566.87	142.77
567.03	205.97
567.19	187.24
567.36	145.11
567.52	182.56
567.68	156.82
567.85	217.67
568.01	262.14
568.17	175.54
568.34	217.67
568.50	189.58
568.66	168.52
568.83	229.37
568.99	168.52
569.15	180.22
569.32	262.14
569.48	166.18
569.64	175.54
569.81	238.73
569.97	222.35
570.13	236.39
570.30	117.03
570.46	77.24
570.62	196.60
570.78	208.31
570.95	210.65
571.11	222.35
571.27	203.63
571.43	208.31
571.60	294.91
571.76	224.69
571.92	252.78
572.09	231.71
572.25	194.26
572.41	290.23
572.57	224.69
572.74	184.90
572.90	201.29
573.06	278.52
573.22	147.45
573.38	290.23
573.55	243.42
573.71	168.52
573.87	259.80
574.03	236.39
574.20	210.65
574.36	325.33
574.52	306.61
574.68	229.37
574.84	280.86
575.01	238.73
575.17	278.52
575.33	255.12
575.49	191.92
575.65	217.67
575.82	334.70
575.98	524.28
576.14	660.03
576.30	624.92
576.46	512.58
576.62	414.27
576.79	346.40
576.95	344.06
577.11	212.99
577.27	212.99
577.43	266.82
577.59	262.14
577.75	292.57
577.92	194.26
578.08	227.03
578.24	210.65
578.40	243.42
578.56	222.35
578.72	203.63
578.88	166.18
579.04	191.92
579.21	301.93
579.37	229.37
579.53	290.23
579.69	318.31
579.85	238.73
580.01	325.33
580.17	376.83
580.33	374.49
580.49	351.08
580.65	341.72
580.82	369.80
580.98	278.52
581.14	273.84
581.30	311.29
581.46	353.42
581.62	566.41
581.78	601.52
581.94	566.41
582.10	433.00
582.26	437.68
582.42	390.87
582.58	400.23
582.74	388.53
582.90	400.23
583.06	397.89
583.22	411.93
583.38	470.45
583.54	505.56
583.70	603.86
583.86	674.07
584.02	847.27
584.18	976.00
584.34	1233.46
584.50	3117.59
584.66	24552.22
584.82	56947.57
584.98	65535.00
585.14	63824.07
585.30	49813.62
585.46	30586.12
585.62	18848.33
585.78	8549.98
585.94	3351.65
586.10	1643.06
586.26	1011.11
586.42	793.44
586.58	727.91
586.74	601.52
586.90	575.77
587.06	517.26
587.22	472.79
587.38	458.74
587.54	1139.84
587.70	3590.38
587.86	6045.60
588.02	6712.66
588.18	4924.49
588.34	3009.93
588.49	1860.73
588.65	1170.27
588.81	662.37
588.97	355.76
589.13	358.10
589.29	320.65
589.45	241.08
589.61	276.18
589.77	379.17
589.93	484.49
590.08	463.43
590.24	409.59
590.40	376.83
590.56	344.06
590.72	334.70
590.88	269.16
591.04	308.95
591.20	327.68
591.35	358.10
591.51	250.44
591.67	259.80
591.83	278.52
591.99	257.46
592.15	308.95
592.31	287.89
592.46	285.55
592.62	285.55
592.78	222.35
592.94	311.29
593.10	262.14
593.26	320.65
593.41	320.65
593.57	379.17
593.73	566.41
593.89	2810.98
594.05	7447.58
594.20	11428.84
594.36	10846.04
594.52	7119.91
594.68	4547.66
594.84	2902.26
594.99	1685.19
595.15	793.44
595.31	461.09
595.47	365.12
595.62	318.31
595.78	402.57
595.94	229.37
596.10	285.55
596.25	318.31
596.41	393.21
596.57	238.73
596.73	276.18
596.88	524.28
597.04	1444.11
597.20	2399.05
597.36	2897.58
597.51	2169.68
597.67	1362.19
597.83	1001.75
597.99	718.54
598.14	428.32
598.30	365.12
598.46	330.02
598.61	311.29
598.77	346.40
598.93	255.12
599.09	332.36
599.24	337.04
599.40	231.71
599.56	304.27
599.71	290.23
599.87	308.95
600.03	210.65
600.18	166.18
600.34	243.42
600.50	196.60
600.65	266.82
600.81	273.84
600.97	196.60
601.12	168.52
601.28	381.51
601.44	166.18
601.59	255.12
601.75	257.46
601.91	245.76
602.06	224.69
602.22	374.49
602.37	711.52
602.53	1671.14
602.69	2724.38
602.84	3012.27
603.00	2169.68
603.16	1488.58
603.31	1118.78
603.47	662.37
603.62	381.51
603.78	262.14
603.94	315.97
604.09	231.71
604.25	271.50
604.40	294.91
604.56	245.76
604.71	311.29
604.87	215.33
605.03	241.08
605.18	227.03
605.34	271.50
605.49	257.46
605.65	229.37
605.80	294.91
605.96	283.20
606.12	245.76
606.27	341.72
606.43	301.93
606.58	283.20
606.74	922.17
606.89	3564.64
607.05	7190.13
607.20	9528.32
607.36	7999.95
607.51	5439.40
607.67	3426.54
607.82	2214.15
607.98	1207.72
608.13	599.18
608.29	390.87
608.44	388.53
608.60	463.43
608.75	524.28
608.91	1074.31
609.06	5490.90
609.22	12559.31
609.37	17289.54
609.53	14642.39
609.68	9844.29
609.84	6321.79
609.99	4294.88
610.15	2246.91
610.30	1001.75
610.46	528.96
610.61	491.51
610.76	327.68
610.92	358.10
611.07	337.04
611.23	341.72
611.38	304.27
611.54	224.69
611.69	292.57
