SpectraSuite Data File
++++++++++++++++++++++++++++++++++++
Date: Fri Oct 04 11:47:06 GMT-05:00 2013
User: price-jones
Dark Spectrum Present: No
Reference Spectrum Present: No
Number of Sampled Component Spectra: 1
Spectrometers: USB2+H05261
Integration Time (usec): 100000 (USB2+H05261)
Spectra Averaged: 1 (USB2+H05261)
Boxcar Smoothing: 0 (USB2+H05261)
Correct for Electrical Dark: No (USB2+H05261)
Strobe/Lamp Enabled: No (USB2+H05261)
Correct for Detector Non-linearity: No (USB2+H05261)
Correct for Stray Light: No (USB2+H05261)
Number of Pixels in Processed Spectrum: 2048
>>>>>Begin Processed Spectral Data<<<<<
365.73	72.56
365.92	72.56
366.12	72.56
366.32	0.00
366.52	0.00
366.72	0.00
366.91	0.00
367.11	0.00
367.31	0.00
367.51	0.00
367.70	0.00
367.90	0.00
368.10	0.00
368.30	0.00
368.49	0.00
368.69	0.00
368.89	0.00
369.09	0.00
369.28	0.00
369.48	0.00
369.68	0.00
369.87	0.00
370.07	0.00
370.27	25.75
370.47	0.00
370.66	0.00
370.86	46.81
371.06	23.41
371.25	93.62
371.45	72.56
371.65	88.94
371.84	35.11
372.04	58.51
372.24	114.69
372.44	142.77
372.63	74.90
372.83	74.90
373.03	70.22
373.22	25.75
373.42	81.92
373.62	98.30
373.81	30.43
374.01	170.86
374.21	105.32
374.40	107.66
374.60	175.54
374.79	112.35
374.99	49.15
375.19	131.07
375.38	95.96
375.58	39.79
375.78	91.28
375.97	107.66
376.17	198.95
376.37	121.71
376.56	131.07
376.76	74.90
376.95	100.64
377.15	114.69
377.35	100.64
377.54	133.41
377.74	79.58
377.93	74.90
378.13	154.48
378.33	128.73
378.52	145.11
378.72	56.17
378.91	133.41
379.11	112.35
379.31	131.07
379.50	110.01
379.70	98.30
379.89	159.16
380.09	23.41
380.28	154.48
380.48	65.54
380.68	112.35
380.87	18.72
381.07	126.39
381.26	131.07
381.46	128.73
381.65	133.41
381.85	0.00
382.04	124.05
382.24	102.98
382.43	16.38
382.63	114.69
382.83	49.15
383.02	105.32
383.22	159.16
383.41	100.64
383.61	102.98
383.80	110.01
384.00	117.03
384.19	77.24
384.39	161.50
384.58	110.01
384.78	51.49
384.97	77.24
385.17	107.66
385.36	156.82
385.56	170.86
385.75	128.73
385.95	16.38
386.14	58.51
386.34	105.32
386.53	25.75
386.72	65.54
386.92	114.69
387.11	25.75
387.31	81.92
387.50	100.64
387.70	98.30
387.89	93.62
388.09	28.09
388.28	107.66
388.48	175.54
388.67	117.03
388.86	56.17
389.06	86.60
389.25	163.84
389.45	163.84
389.64	126.39
389.84	135.75
390.03	91.28
390.22	133.41
390.42	93.62
390.61	86.60
390.81	126.39
391.00	32.77
391.19	100.64
391.39	84.26
391.58	51.49
391.78	105.32
391.97	91.28
392.16	77.24
392.36	107.66
392.55	133.41
392.75	56.17
392.94	49.15
393.13	70.22
393.33	72.56
393.52	100.64
393.71	110.01
393.91	56.17
394.10	84.26
394.29	152.13
394.49	131.07
394.68	161.50
394.88	124.05
395.07	84.26
395.26	93.62
395.46	84.26
395.65	121.71
395.84	147.45
396.04	217.67
396.23	95.96
396.42	86.60
396.62	49.15
396.81	114.69
397.00	72.56
397.19	147.45
397.39	166.18
397.58	149.79
397.77	79.58
397.97	0.00
398.16	100.64
398.35	142.77
398.55	53.83
398.74	147.45
398.93	51.49
399.12	102.98
399.32	114.69
399.51	88.94
399.70	156.82
399.90	25.75
400.09	88.94
400.28	126.39
400.47	46.81
400.67	46.81
400.86	70.22
401.05	110.01
401.24	131.07
401.44	159.16
401.63	152.13
401.82	128.73
402.01	46.81
402.21	128.73
402.40	131.07
402.59	79.58
402.78	107.66
402.97	79.58
403.17	133.41
403.36	184.90
403.55	100.64
403.74	117.03
403.93	131.07
404.13	124.05
404.32	84.26
404.51	170.86
404.70	138.09
404.89	77.24
405.09	170.86
405.28	126.39
405.47	121.71
405.66	105.32
405.85	105.32
406.05	44.47
406.24	133.41
406.43	95.96
406.62	88.94
406.81	147.45
407.00	117.03
407.20	170.86
407.39	161.50
407.58	105.32
407.77	102.98
407.96	44.47
408.15	135.75
408.34	138.09
408.54	119.37
408.73	70.22
408.92	131.07
409.11	81.92
409.30	102.98
409.49	70.22
409.68	112.35
409.87	145.11
410.07	70.22
410.26	133.41
410.45	117.03
410.64	44.47
410.83	156.82
411.02	58.51
411.21	60.85
411.40	126.39
411.59	91.28
411.78	84.26
411.98	131.07
412.17	119.37
412.36	140.43
412.55	114.69
412.74	112.35
412.93	159.16
413.12	93.62
413.31	156.82
413.50	93.62
413.69	86.60
413.88	84.26
414.07	121.71
414.26	117.03
414.45	88.94
414.64	126.39
414.83	133.41
415.02	72.56
415.22	184.90
415.41	131.07
415.60	138.09
415.79	131.07
415.98	156.82
416.17	154.48
416.36	117.03
416.55	110.01
416.74	49.15
416.93	140.43
417.12	140.43
417.31	95.96
417.50	98.30
417.69	217.67
417.88	126.39
418.07	126.39
418.26	163.84
418.45	168.52
418.64	248.10
418.83	198.95
419.02	152.13
419.21	215.33
419.39	154.48
419.58	182.56
419.77	105.32
419.96	180.22
420.15	138.09
420.34	126.39
420.53	128.73
420.72	93.62
420.91	93.62
421.10	170.86
421.29	194.26
421.48	102.98
421.67	147.45
421.86	121.71
422.05	81.92
422.24	138.09
422.43	93.62
422.61	79.58
422.80	133.41
422.99	86.60
423.18	102.98
423.37	177.88
423.56	140.43
423.75	140.43
423.94	93.62
424.13	117.03
424.32	77.24
424.50	56.17
424.69	170.86
424.88	182.56
425.07	112.35
425.26	159.16
425.45	173.20
425.64	175.54
425.83	201.29
426.01	234.05
426.20	133.41
426.39	140.43
426.58	93.62
426.77	107.66
426.96	88.94
427.15	140.43
427.33	117.03
427.52	119.37
427.71	84.26
427.90	140.43
428.09	128.73
428.28	147.45
428.46	70.22
428.65	117.03
428.84	110.01
429.03	93.62
429.22	107.66
429.40	114.69
429.59	77.24
429.78	215.33
429.97	126.39
430.16	63.19
430.34	147.45
430.53	154.48
430.72	88.94
430.91	140.43
431.10	126.39
431.28	107.66
431.47	156.82
431.66	142.77
431.85	182.56
432.03	166.18
432.22	215.33
432.41	79.58
432.60	163.84
432.79	159.16
432.97	250.44
433.16	163.84
433.35	170.86
433.54	117.03
433.72	182.56
433.91	182.56
434.10	91.28
434.28	105.32
434.47	100.64
434.66	173.20
434.85	124.05
435.03	124.05
435.22	124.05
435.41	245.76
435.59	156.82
435.78	128.73
435.97	81.92
436.16	114.69
436.34	184.90
436.53	126.39
436.72	135.75
436.90	95.96
437.09	121.71
437.28	159.16
437.46	105.32
437.65	142.77
437.84	152.13
438.02	81.92
438.21	184.90
438.40	154.48
438.58	107.66
438.77	128.73
438.96	98.30
439.14	142.77
439.33	70.22
439.52	131.07
439.70	107.66
439.89	189.58
440.08	154.48
440.26	112.35
440.45	184.90
440.63	93.62
440.82	191.92
441.01	194.26
441.19	177.88
441.38	156.82
441.57	140.43
441.75	107.66
441.94	154.48
442.12	128.73
442.31	84.26
442.50	124.05
442.68	156.82
442.87	135.75
443.05	110.01
443.24	152.13
443.43	255.12
443.61	128.73
443.80	161.50
443.98	121.71
444.17	53.83
444.35	60.85
444.54	140.43
444.73	98.30
444.91	208.31
445.10	159.16
445.28	30.43
445.47	163.84
445.65	163.84
445.84	135.75
446.02	140.43
446.21	107.66
446.39	39.79
446.58	145.11
446.77	175.54
446.95	119.37
447.14	191.92
447.32	175.54
447.51	135.75
447.69	112.35
447.88	119.37
448.06	168.52
448.25	142.77
448.43	86.60
448.62	180.22
448.80	107.66
448.99	110.01
449.17	159.16
449.36	100.64
449.54	156.82
449.73	14.04
449.91	128.73
450.10	72.56
450.28	98.30
450.46	149.79
450.65	138.09
450.83	65.54
451.02	79.58
451.20	138.09
451.39	149.79
451.57	105.32
451.76	81.92
451.94	159.16
452.13	133.41
452.31	147.45
452.49	147.45
452.68	100.64
452.86	128.73
453.05	138.09
453.23	128.73
453.42	152.13
453.60	140.43
453.78	147.45
453.97	147.45
454.15	170.86
454.34	154.48
454.52	105.32
454.70	152.13
454.89	112.35
455.07	131.07
455.26	154.48
455.44	86.60
455.62	98.30
455.81	121.71
455.99	203.63
456.17	180.22
456.36	128.73
456.54	121.71
456.73	81.92
456.91	177.88
457.09	128.73
457.28	128.73
457.46	191.92
457.64	147.45
457.83	112.35
458.01	140.43
458.19	138.09
458.38	98.30
458.56	175.54
458.74	72.56
458.93	238.73
459.11	173.20
459.29	131.07
459.48	177.88
459.66	196.60
459.84	229.37
460.03	262.14
460.21	131.07
460.39	110.01
460.57	173.20
460.76	84.26
460.94	119.37
461.12	212.99
461.31	133.41
461.49	44.47
461.67	124.05
461.85	161.50
462.04	124.05
462.22	634.29
462.40	163.84
462.59	121.71
462.77	114.69
462.95	131.07
463.13	77.24
463.32	126.39
463.50	189.58
463.68	138.09
463.86	81.92
464.05	81.92
464.23	138.09
464.41	184.90
464.59	102.98
464.78	180.22
464.96	140.43
465.14	81.92
465.32	117.03
465.50	168.52
465.69	117.03
465.87	91.28
466.05	135.75
466.23	154.48
466.41	105.32
466.60	163.84
466.78	177.88
466.96	161.50
467.14	156.82
467.32	156.82
467.51	114.69
467.69	117.03
467.87	166.18
468.05	128.73
468.23	173.20
468.41	191.92
468.60	145.11
468.78	196.60
468.96	105.32
469.14	170.86
469.32	131.07
469.50	161.50
469.69	142.77
469.87	140.43
470.05	170.86
470.23	124.05
470.41	110.01
470.59	110.01
470.77	220.01
470.95	145.11
471.14	224.69
471.32	124.05
471.50	227.03
471.68	187.24
471.86	191.92
472.04	119.37
472.22	224.69
472.40	166.18
472.58	140.43
472.77	88.94
472.95	189.58
473.13	175.54
473.31	229.37
473.49	182.56
473.67	91.28
473.85	182.56
474.03	142.77
474.21	53.83
474.39	205.97
474.57	121.71
474.75	133.41
474.93	74.90
475.12	74.90
475.30	107.66
475.48	140.43
475.66	205.97
475.84	198.95
476.02	133.41
476.20	168.52
476.38	187.24
476.56	159.16
476.74	217.67
476.92	100.64
477.10	131.07
477.28	201.29
477.46	140.43
477.64	175.54
477.82	142.77
478.00	138.09
478.18	142.77
478.36	128.73
478.54	191.92
478.72	215.33
478.90	133.41
479.08	107.66
479.26	184.90
479.44	112.35
479.62	145.11
479.80	86.60
479.98	203.63
480.16	154.48
480.34	184.90
480.52	128.73
480.70	124.05
480.88	102.98
481.06	154.48
481.24	119.37
481.41	135.75
481.59	196.60
481.77	175.54
481.95	121.71
482.13	236.39
482.31	236.39
482.49	124.05
482.67	252.78
482.85	168.52
483.03	227.03
483.21	161.50
483.39	159.16
483.57	133.41
483.74	161.50
483.92	152.13
484.10	168.52
484.28	142.77
484.46	227.03
484.64	135.75
484.82	114.69
485.00	175.54
485.18	180.22
485.35	175.54
485.53	110.01
485.71	220.01
485.89	154.48
486.07	189.58
486.25	191.92
486.43	147.45
486.61	170.86
486.78	191.92
486.96	124.05
487.14	105.32
487.32	56.17
487.50	161.50
487.68	198.95
487.85	161.50
488.03	182.56
488.21	205.97
488.39	60.85
488.57	236.39
488.75	191.92
488.92	386.19
489.10	154.48
489.28	177.88
489.46	180.22
489.64	220.01
489.81	105.32
489.99	191.92
490.17	145.11
490.35	212.99
490.53	131.07
490.70	147.45
490.88	147.45
491.06	191.92
491.24	154.48
491.41	175.54
491.59	191.92
491.77	105.32
491.95	203.63
492.13	133.41
492.30	187.24
492.48	210.65
492.66	194.26
492.84	154.48
493.01	205.97
493.19	201.29
493.37	227.03
493.54	212.99
493.72	238.73
493.90	212.99
494.08	196.60
494.25	175.54
494.43	201.29
494.61	147.45
494.79	117.03
494.96	117.03
495.14	220.01
495.32	147.45
495.49	175.54
495.67	166.18
495.85	142.77
496.02	250.44
496.20	208.31
496.38	175.54
496.55	196.60
496.73	189.58
496.91	147.45
497.09	161.50
497.26	201.29
497.44	126.39
497.62	170.86
497.79	196.60
497.97	161.50
498.14	81.92
498.32	217.67
498.50	191.92
498.67	234.05
498.85	163.84
499.03	187.24
499.20	191.92
499.38	236.39
499.56	231.71
499.73	180.22
499.91	156.82
500.08	236.39
500.26	198.95
500.44	217.67
500.61	166.18
500.79	224.69
500.97	189.58
501.14	191.92
501.32	250.44
501.49	124.05
501.67	203.63
501.84	294.91
502.02	234.05
502.20	217.67
502.37	187.24
502.55	187.24
502.72	264.48
502.90	248.10
503.07	133.41
503.25	245.76
503.43	187.24
503.60	140.43
503.78	126.39
503.95	112.35
504.13	154.48
504.30	196.60
504.48	180.22
504.65	166.18
504.83	236.39
505.01	138.09
505.18	210.65
505.36	203.63
505.53	128.73
505.71	88.94
505.88	166.18
506.06	147.45
506.23	145.11
506.41	210.65
506.58	145.11
506.76	231.71
506.93	166.18
507.11	166.18
507.28	236.39
507.46	205.97
507.63	203.63
507.81	217.67
507.98	161.50
508.16	231.71
508.33	156.82
508.50	161.50
508.68	196.60
508.85	191.92
509.03	105.32
509.20	142.77
509.38	196.60
509.55	163.84
509.73	252.78
509.90	217.67
510.08	166.18
510.25	128.73
510.42	154.48
510.60	234.05
510.77	252.78
510.95	250.44
511.12	191.92
511.30	271.50
511.47	248.10
511.64	269.16
511.82	259.80
511.99	182.56
512.17	124.05
512.34	208.31
512.51	152.13
512.69	163.84
512.86	189.58
513.04	177.88
513.21	191.92
513.38	163.84
513.56	180.22
513.73	93.62
513.90	180.22
514.08	84.26
514.25	257.46
514.43	191.92
514.60	208.31
514.77	184.90
514.95	187.24
515.12	161.50
515.29	194.26
515.47	184.90
515.64	210.65
515.81	203.63
515.99	201.29
516.16	259.80
516.33	229.37
516.51	124.05
516.68	128.73
516.85	142.77
517.03	156.82
517.20	140.43
517.37	105.32
517.54	168.52
517.72	198.95
517.89	152.13
518.06	210.65
518.24	147.45
518.41	189.58
518.58	229.37
518.75	161.50
518.93	205.97
519.10	203.63
519.27	198.95
519.45	224.69
519.62	175.54
519.79	184.90
519.96	189.58
520.14	170.86
520.31	196.60
520.48	177.88
520.65	184.90
520.83	163.84
521.00	212.99
521.17	220.01
521.34	220.01
521.52	187.24
521.69	184.90
521.86	210.65
522.03	264.48
522.20	245.76
522.38	170.86
522.55	196.60
522.72	145.11
522.89	243.42
523.07	243.42
523.24	177.88
523.41	198.95
523.58	191.92
523.75	131.07
523.92	170.86
524.10	126.39
524.27	177.88
524.44	198.95
524.61	170.86
524.78	177.88
524.96	194.26
525.13	159.16
525.30	278.52
525.47	217.67
525.64	227.03
525.81	229.37
525.98	236.39
526.16	182.56
526.33	175.54
526.50	161.50
526.67	117.03
526.84	140.43
527.01	135.75
527.18	220.01
527.36	205.97
527.53	117.03
527.70	220.01
527.87	236.39
528.04	217.67
528.21	241.08
528.38	294.91
528.55	285.55
528.72	196.60
528.89	278.52
529.07	259.80
529.24	224.69
529.41	177.88
529.58	177.88
529.75	166.18
529.92	222.35
530.09	182.56
530.26	266.82
530.43	220.01
530.60	180.22
530.77	163.84
530.94	149.79
531.11	252.78
531.28	147.45
531.46	191.92
531.63	88.94
531.80	220.01
531.97	191.92
532.14	287.89
532.31	299.59
532.48	320.65
532.65	280.86
532.82	287.89
532.99	229.37
533.16	229.37
533.33	250.44
533.50	208.31
533.67	301.93
533.84	278.52
534.01	388.53
534.18	308.95
534.35	215.33
534.52	191.92
534.69	238.73
534.86	208.31
535.03	236.39
535.20	154.48
535.37	280.86
535.54	290.23
535.71	180.22
535.88	248.10
536.05	229.37
536.22	217.67
536.38	205.97
536.55	208.31
536.72	234.05
536.89	175.54
537.06	177.88
537.23	166.18
537.40	205.97
537.57	145.11
537.74	299.59
537.91	149.79
538.08	205.97
538.25	215.33
538.42	255.12
538.59	224.69
538.75	196.60
538.92	234.05
539.09	287.89
539.26	187.24
539.43	444.70
539.60	889.40
539.77	1306.02
539.94	1277.93
540.11	847.27
540.28	596.84
540.44	379.17
540.61	264.48
540.78	210.65
540.95	182.56
541.12	170.86
541.29	180.22
541.46	182.56
541.62	252.78
541.79	191.92
541.96	217.67
542.13	248.10
542.30	203.63
542.47	184.90
542.63	198.95
542.80	241.08
542.97	203.63
543.14	182.56
543.31	149.79
543.48	126.39
543.64	224.69
543.81	154.48
543.98	128.73
544.15	154.48
544.32	210.65
544.48	259.80
544.65	224.69
544.82	205.97
544.99	322.99
545.16	222.35
545.32	257.46
545.49	238.73
545.66	220.01
545.83	173.20
546.00	196.60
546.16	166.18
546.33	177.88
546.50	161.50
546.67	273.84
546.83	224.69
547.00	224.69
547.17	220.01
547.34	182.56
547.50	187.24
547.67	215.33
547.84	88.94
548.00	187.24
548.17	170.86
548.34	210.65
548.51	280.86
548.67	205.97
548.84	189.58
549.01	220.01
549.18	191.92
549.34	234.05
549.51	250.44
549.68	294.91
549.84	163.84
550.01	154.48
550.18	355.76
550.34	315.97
550.51	156.82
550.68	273.84
550.84	175.54
551.01	243.42
551.18	220.01
551.34	154.48
551.51	212.99
551.68	234.05
551.84	248.10
552.01	180.22
552.18	191.92
552.34	224.69
552.51	205.97
552.68	217.67
552.84	196.60
553.01	161.50
553.18	250.44
553.34	220.01
553.51	180.22
553.67	245.76
553.84	266.82
554.01	217.67
554.17	224.69
554.34	180.22
554.51	205.97
554.67	196.60
554.84	222.35
555.00	189.58
555.17	231.71
555.33	217.67
555.50	236.39
555.67	189.58
555.83	269.16
556.00	163.84
556.16	276.18
556.33	241.08
556.50	234.05
556.66	152.13
556.83	255.12
556.99	177.88
557.16	241.08
557.32	152.13
557.49	241.08
557.65	156.82
557.82	173.20
557.98	234.05
558.15	112.35
558.32	163.84
558.48	133.41
558.65	124.05
558.81	194.26
558.98	205.97
559.14	306.61
559.31	124.05
559.47	142.77
559.64	191.92
559.80	250.44
559.97	264.48
560.13	161.50
560.30	170.86
560.46	198.95
560.63	189.58
560.79	126.39
560.96	189.58
561.12	231.71
561.29	215.33
561.45	145.11
561.61	205.97
561.78	262.14
561.94	102.98
562.11	215.33
562.27	252.78
562.44	189.58
562.60	224.69
562.77	259.80
562.93	259.80
563.10	191.92
563.26	175.54
563.42	145.11
563.59	180.22
563.75	182.56
563.92	189.58
564.08	234.05
564.24	259.80
564.41	227.03
564.57	126.39
564.74	161.50
564.90	173.20
565.07	201.29
565.23	154.48
565.39	140.43
565.56	266.82
565.72	187.24
565.88	241.08
566.05	173.20
566.21	238.73
566.38	257.46
566.54	166.18
566.70	135.75
566.87	161.50
567.03	229.37
567.19	283.20
567.36	252.78
567.52	189.58
567.68	217.67
567.85	173.20
568.01	196.60
568.17	98.30
568.34	203.63
568.50	252.78
568.66	234.05
568.83	271.50
568.99	245.76
569.15	217.67
569.32	215.33
569.48	166.18
569.64	163.84
569.81	234.05
569.97	161.50
570.13	205.97
570.30	264.48
570.46	175.54
570.62	187.24
570.78	229.37
570.95	191.92
571.11	227.03
571.27	184.90
571.43	224.69
571.60	266.82
571.76	217.67
571.92	208.31
572.09	189.58
572.25	201.29
572.41	163.84
572.57	140.43
572.74	248.10
572.90	241.08
573.06	245.76
573.22	173.20
573.38	187.24
573.55	217.67
573.71	227.03
573.87	224.69
574.03	294.91
574.20	229.37
574.36	248.10
574.52	191.92
574.68	252.78
574.84	245.76
575.01	245.76
575.17	222.35
575.33	180.22
575.49	241.08
575.65	215.33
575.82	262.14
575.98	493.85
576.14	582.79
576.30	585.13
576.46	484.49
576.62	376.83
576.79	308.95
576.95	285.55
577.11	234.05
577.27	166.18
577.43	234.05
577.59	196.60
577.75	229.37
577.92	224.69
578.08	184.90
578.24	205.97
578.40	250.44
578.56	180.22
578.72	203.63
578.88	187.24
579.04	217.67
579.21	191.92
579.37	231.71
579.53	229.37
579.69	257.46
579.85	264.48
580.01	278.52
580.17	292.57
580.33	330.02
580.49	287.89
580.65	346.40
580.82	327.68
580.98	322.99
581.14	306.61
581.30	290.23
581.46	393.21
581.62	393.21
581.78	531.30
581.94	517.26
582.10	383.85
582.26	365.12
582.42	322.99
582.58	325.33
582.74	402.57
582.90	358.10
583.06	425.98
583.22	411.93
583.38	386.19
583.54	337.04
583.70	456.40
583.86	601.52
584.02	594.50
584.18	791.10
584.34	1011.11
584.50	2818.00
584.66	20643.52
584.82	50986.23
584.98	61343.10
585.14	57930.60
585.30	41230.88
585.46	24409.45
585.62	14754.74
585.78	6808.62
585.94	2764.17
586.10	1362.19
586.26	873.02
586.42	706.84
586.58	566.41
586.74	545.34
586.90	442.36
587.06	489.17
587.22	449.38
587.38	409.59
587.54	1006.43
587.70	3063.76
587.86	4887.04
588.02	5518.98
588.18	3873.59
588.34	2431.82
588.49	1570.50
588.65	936.21
588.81	540.66
588.97	297.25
589.13	278.52
589.29	292.57
589.45	241.08
589.61	320.65
589.77	374.49
589.93	369.80
590.08	348.74
590.24	351.08
590.40	315.97
590.56	358.10
590.72	299.59
590.88	330.02
591.04	285.55
591.20	292.57
591.35	301.93
591.51	201.29
591.67	290.23
591.83	273.84
591.99	252.78
592.15	276.18
592.31	273.84
592.46	224.69
592.62	339.38
592.78	234.05
592.94	320.65
593.10	262.14
593.26	290.23
593.41	308.95
593.57	290.23
593.73	517.26
593.89	2565.23
594.05	6183.70
594.20	9125.75
594.36	8706.79
594.52	5540.05
594.68	3595.06
594.84	2436.50
594.99	1338.79
595.15	734.93
595.31	409.59
595.47	362.78
595.62	252.78
595.78	318.31
595.94	322.99
596.10	320.65
596.25	299.59
596.41	208.31
596.57	222.35
596.73	208.31
596.88	463.43
597.04	1247.51
597.20	2008.18
597.36	2370.96
597.51	1699.23
597.67	1240.48
597.83	858.98
597.99	550.03
598.14	341.72
598.30	320.65
598.46	257.46
598.61	330.02
598.77	327.68
598.93	243.42
599.09	191.92
599.24	163.84
599.40	182.56
599.56	224.69
599.71	259.80
599.87	238.73
600.03	259.80
600.18	238.73
600.34	278.52
600.50	170.86
600.65	194.26
600.81	189.58
600.97	220.01
601.12	191.92
601.28	255.12
601.44	212.99
601.59	203.63
601.75	250.44
601.91	231.71
602.06	208.31
602.22	400.23
602.37	704.50
602.53	1437.09
602.69	2382.67
602.84	2401.39
603.00	1750.72
603.16	1221.76
603.31	875.36
603.47	575.77
603.62	383.85
603.78	280.86
603.94	227.03
604.09	238.73
604.25	266.82
604.40	250.44
604.56	234.05
604.71	229.37
604.87	196.60
605.03	271.50
605.18	231.71
605.34	266.82
605.49	231.71
605.65	271.50
605.80	194.26
605.96	236.39
606.12	259.80
606.27	346.40
606.43	257.46
606.58	390.87
606.74	758.33
606.89	2970.14
607.05	6052.63
607.20	7854.84
607.36	6525.41
607.51	4313.61
607.67	2860.13
607.82	1961.37
607.98	1048.56
608.13	617.90
608.29	418.96
608.44	374.49
608.60	376.83
608.75	454.06
608.91	1088.35
609.06	4819.16
609.22	10031.54
609.37	13635.96
609.53	11770.55
609.68	7698.02
609.84	5188.97
609.99	3400.80
610.15	1839.66
610.30	821.53
610.46	596.84
610.61	388.53
610.76	348.74
610.92	299.59
611.07	308.95
611.23	313.63
611.38	241.08
611.54	283.20
611.69	236.39
611.84	262.14
