SpectraSuite Data File
++++++++++++++++++++++++++++++++++++
Date: Fri Oct 04 11:47:23 GMT-05:00 2013
User: price-jones
Dark Spectrum Present: No
Reference Spectrum Present: No
Number of Sampled Component Spectra: 1
Spectrometers: USB2+H05261
Integration Time (usec): 100000 (USB2+H05261)
Spectra Averaged: 1 (USB2+H05261)
Boxcar Smoothing: 0 (USB2+H05261)
Correct for Electrical Dark: No (USB2+H05261)
Strobe/Lamp Enabled: No (USB2+H05261)
Correct for Detector Non-linearity: No (USB2+H05261)
Correct for Stray Light: No (USB2+H05261)
Number of Pixels in Processed Spectrum: 2048
>>>>>Begin Processed Spectral Data<<<<<
365.73	32.77
365.92	32.77
366.12	32.77
366.32	0.00
366.52	0.00
366.72	0.00
366.91	0.00
367.11	0.00
367.31	0.00
367.51	0.00
367.70	0.00
367.90	0.00
368.10	0.00
368.30	0.00
368.49	0.00
368.69	0.00
368.89	0.00
369.09	0.00
369.28	0.00
369.48	0.00
369.68	0.00
369.87	0.00
370.07	0.00
370.27	0.00
370.47	0.00
370.66	0.00
370.86	4.68
371.06	0.00
371.25	39.79
371.45	0.00
371.65	117.03
371.84	98.30
372.04	65.54
372.24	46.81
372.44	126.39
372.63	65.54
372.83	212.99
373.03	98.30
373.22	65.54
373.42	44.47
373.62	95.96
373.81	110.01
374.01	189.58
374.21	88.94
374.40	14.04
374.60	102.98
374.79	152.13
374.99	63.19
375.19	149.79
375.38	166.18
375.58	145.11
375.78	114.69
375.97	121.71
376.17	147.45
376.37	58.51
376.56	187.24
376.76	56.17
376.95	98.30
377.15	131.07
377.35	105.32
377.54	95.96
377.74	65.54
377.93	121.71
378.13	56.17
378.33	140.43
378.52	84.26
378.72	154.48
378.91	133.41
379.11	126.39
379.31	42.13
379.50	98.30
379.70	138.09
379.89	91.28
380.09	98.30
380.28	128.73
380.48	154.48
380.68	131.07
380.87	91.28
381.07	184.90
381.26	163.84
381.46	142.77
381.65	98.30
381.85	35.11
382.04	215.33
382.24	135.75
382.43	145.11
382.63	140.43
382.83	65.54
383.02	84.26
383.22	95.96
383.41	56.17
383.61	51.49
383.80	110.01
384.00	79.58
384.19	100.64
384.39	159.16
384.58	135.75
384.78	72.56
384.97	180.22
385.17	140.43
385.36	70.22
385.56	95.96
385.75	77.24
385.95	56.17
386.14	100.64
386.34	79.58
386.53	70.22
386.72	65.54
386.92	91.28
387.11	79.58
387.31	81.92
387.50	98.30
387.70	112.35
387.89	112.35
388.09	91.28
388.28	67.88
388.48	63.19
388.67	117.03
388.86	121.71
389.06	149.79
389.25	124.05
389.45	79.58
389.64	84.26
389.84	163.84
390.03	126.39
390.22	81.92
390.42	67.88
390.61	79.58
390.81	53.83
391.00	98.30
391.19	95.96
391.39	93.62
391.58	142.77
391.78	88.94
391.97	110.01
392.16	93.62
392.36	119.37
392.55	102.98
392.75	133.41
392.94	79.58
393.13	117.03
393.33	98.30
393.52	88.94
393.71	124.05
393.91	86.60
394.10	117.03
394.29	44.47
394.49	105.32
394.68	161.50
394.88	77.24
395.07	170.86
395.26	112.35
395.46	145.11
395.65	114.69
395.84	124.05
396.04	124.05
396.23	84.26
396.42	119.37
396.62	74.90
396.81	128.73
397.00	105.32
397.19	32.77
397.39	100.64
397.58	163.84
397.77	124.05
397.97	63.19
398.16	145.11
398.35	133.41
398.55	102.98
398.74	117.03
398.93	241.08
399.12	79.58
399.32	110.01
399.51	194.26
399.70	189.58
399.90	112.35
400.09	79.58
400.28	119.37
400.47	208.31
400.67	112.35
400.86	124.05
401.05	187.24
401.24	205.97
401.44	173.20
401.63	133.41
401.82	177.88
402.01	117.03
402.21	81.92
402.40	133.41
402.59	131.07
402.78	140.43
402.97	182.56
403.17	170.86
403.36	140.43
403.55	102.98
403.74	142.77
403.93	180.22
404.13	135.75
404.32	138.09
404.51	145.11
404.70	147.45
404.89	149.79
405.09	112.35
405.28	112.35
405.47	70.22
405.66	166.18
405.85	156.82
406.05	191.92
406.24	145.11
406.43	131.07
406.62	135.75
406.81	159.16
407.00	191.92
407.20	140.43
407.39	131.07
407.58	105.32
407.77	95.96
407.96	131.07
408.15	187.24
408.34	203.63
408.54	100.64
408.73	88.94
408.92	215.33
409.11	140.43
409.30	140.43
409.49	119.37
409.68	112.35
409.87	74.90
410.07	124.05
410.26	142.77
410.45	124.05
410.64	149.79
410.83	163.84
411.02	114.69
411.21	112.35
411.40	138.09
411.59	88.94
411.78	131.07
411.98	117.03
412.17	119.37
412.36	100.64
412.55	140.43
412.74	159.16
412.93	201.29
413.12	110.01
413.31	149.79
413.50	128.73
413.69	180.22
413.88	198.95
414.07	203.63
414.26	168.52
414.45	156.82
414.64	156.82
414.83	159.16
415.02	189.58
415.22	119.37
415.41	147.45
415.60	159.16
415.79	152.13
415.98	194.26
416.17	205.97
416.36	191.92
416.55	149.79
416.74	196.60
416.93	170.86
417.12	166.18
417.31	168.52
417.50	117.03
417.69	154.48
417.88	168.52
418.07	140.43
418.26	147.45
418.45	119.37
418.64	173.20
418.83	180.22
419.02	173.20
419.21	191.92
419.39	126.39
419.58	196.60
419.77	124.05
419.96	147.45
420.15	196.60
420.34	198.95
420.53	147.45
420.72	140.43
420.91	126.39
421.10	154.48
421.29	182.56
421.48	238.73
421.67	110.01
421.86	131.07
422.05	140.43
422.24	156.82
422.43	138.09
422.61	133.41
422.80	177.88
422.99	231.71
423.18	177.88
423.37	273.84
423.56	245.76
423.75	250.44
423.94	187.24
424.13	142.77
424.32	145.11
424.50	102.98
424.69	166.18
424.88	159.16
425.07	81.92
425.26	166.18
425.45	177.88
425.64	189.58
425.83	170.86
426.01	201.29
426.20	203.63
426.39	259.80
426.58	170.86
426.77	212.99
426.96	184.90
427.15	177.88
427.33	140.43
427.52	201.29
427.71	203.63
427.90	131.07
428.09	126.39
428.28	133.41
428.46	121.71
428.65	177.88
428.84	203.63
429.03	119.37
429.22	131.07
429.40	128.73
429.59	105.32
429.78	112.35
429.97	135.75
430.16	147.45
430.34	196.60
430.53	142.77
430.72	84.26
430.91	184.90
431.10	168.52
431.28	196.60
431.47	198.95
431.66	241.08
431.85	210.65
432.03	152.13
432.22	250.44
432.41	145.11
432.60	238.73
432.79	107.66
432.97	182.56
433.16	149.79
433.35	175.54
433.54	217.67
433.72	168.52
433.91	156.82
434.10	168.52
434.28	91.28
434.47	156.82
434.66	173.20
434.85	217.67
435.03	222.35
435.22	257.46
435.41	170.86
435.59	285.55
435.78	231.71
435.97	147.45
436.16	243.42
436.34	147.45
436.53	205.97
436.72	191.92
436.90	166.18
437.09	173.20
437.28	203.63
437.46	173.20
437.65	170.86
437.84	175.54
438.02	107.66
438.21	138.09
438.40	189.58
438.58	105.32
438.77	175.54
438.96	161.50
439.14	170.86
439.33	170.86
439.52	175.54
439.70	163.84
439.89	124.05
440.08	175.54
440.26	166.18
440.45	177.88
440.63	161.50
440.82	182.56
441.01	191.92
441.19	182.56
441.38	215.33
441.57	184.90
441.75	126.39
441.94	210.65
442.12	138.09
442.31	212.99
442.50	173.20
442.68	210.65
442.87	229.37
443.05	299.59
443.24	215.33
443.43	159.16
443.61	212.99
443.80	238.73
443.98	177.88
444.17	156.82
444.35	208.31
444.54	196.60
444.73	184.90
444.91	229.37
445.10	156.82
445.28	224.69
445.47	236.39
445.65	182.56
445.84	220.01
446.02	175.54
446.21	297.25
446.39	142.77
446.58	208.31
446.77	264.48
446.95	177.88
447.14	252.78
447.32	182.56
447.51	191.92
447.69	191.92
447.88	184.90
448.06	285.55
448.25	276.18
448.43	145.11
448.62	196.60
448.80	184.90
448.99	191.92
449.17	182.56
449.36	168.52
449.54	250.44
449.73	234.05
449.91	259.80
450.10	184.90
450.28	224.69
450.46	208.31
450.65	243.42
450.83	203.63
451.02	208.31
451.20	227.03
451.39	191.92
451.57	170.86
451.76	175.54
451.94	161.50
452.13	182.56
452.31	149.79
452.49	191.92
452.68	140.43
452.86	252.78
453.05	271.50
453.23	262.14
453.42	145.11
453.60	215.33
453.78	154.48
453.97	241.08
454.15	170.86
454.34	91.28
454.52	198.95
454.70	201.29
454.89	231.71
455.07	133.41
455.26	126.39
455.44	243.42
455.62	119.37
455.81	156.82
455.99	154.48
456.17	201.29
456.36	173.20
456.54	194.26
456.73	149.79
456.91	205.97
457.09	175.54
457.28	208.31
457.46	177.88
457.64	262.14
457.83	191.92
458.01	203.63
458.19	231.71
458.38	110.01
458.56	177.88
458.74	217.67
458.93	175.54
459.11	236.39
459.29	203.63
459.48	222.35
459.66	224.69
459.84	224.69
460.03	245.76
460.21	269.16
460.39	196.60
460.57	290.23
460.76	322.99
460.94	264.48
461.12	208.31
461.31	280.86
461.49	205.97
461.67	194.26
461.85	147.45
462.04	201.29
462.22	669.39
462.40	222.35
462.59	154.48
462.77	269.16
462.95	154.48
463.13	215.33
463.32	262.14
463.50	196.60
463.68	238.73
463.86	205.97
464.05	189.58
464.23	191.92
464.41	212.99
464.59	259.80
464.78	255.12
464.96	276.18
465.14	245.76
465.32	161.50
465.50	308.95
465.69	163.84
465.87	241.08
466.05	215.33
466.23	252.78
466.41	182.56
466.60	229.37
466.78	212.99
466.96	231.71
467.14	278.52
467.32	245.76
467.51	205.97
467.69	191.92
467.87	196.60
468.05	145.11
468.23	306.61
468.41	203.63
468.60	138.09
468.78	243.42
468.96	250.44
469.14	238.73
469.32	126.39
469.50	170.86
469.69	241.08
469.87	231.71
470.05	311.29
470.23	280.86
470.41	229.37
470.59	180.22
470.77	198.95
470.95	266.82
471.14	297.25
471.32	210.65
471.50	292.57
471.68	222.35
471.86	238.73
472.04	262.14
472.22	234.05
472.40	220.01
472.58	205.97
472.77	117.03
472.95	245.76
473.13	278.52
473.31	236.39
473.49	184.90
473.67	245.76
473.85	250.44
474.03	210.65
474.21	276.18
474.39	276.18
474.57	252.78
474.75	292.57
474.93	283.20
475.12	163.84
475.30	208.31
475.48	196.60
475.66	297.25
475.84	255.12
476.02	191.92
476.20	208.31
476.38	191.92
476.56	252.78
476.74	201.29
476.92	182.56
477.10	212.99
477.28	245.76
477.46	245.76
477.64	264.48
477.82	189.58
478.00	234.05
478.18	163.84
478.36	255.12
478.54	271.50
478.72	224.69
478.90	173.20
479.08	234.05
479.26	283.20
479.44	294.91
479.62	196.60
479.80	330.02
479.98	229.37
480.16	337.04
480.34	283.20
480.52	234.05
480.70	257.46
480.88	301.93
481.06	201.29
481.24	234.05
481.41	264.48
481.59	278.52
481.77	278.52
481.95	304.27
482.13	273.84
482.31	287.89
482.49	266.82
482.67	259.80
482.85	299.59
483.03	262.14
483.21	238.73
483.39	191.92
483.57	255.12
483.74	304.27
483.92	257.46
484.10	227.03
484.28	264.48
484.46	285.55
484.64	292.57
484.82	299.59
485.00	201.29
485.18	362.78
485.35	262.14
485.53	135.75
485.71	236.39
485.89	229.37
486.07	266.82
486.25	248.10
486.43	250.44
486.61	257.46
486.78	266.82
486.96	215.33
487.14	278.52
487.32	299.59
487.50	264.48
487.68	217.67
487.85	252.78
488.03	252.78
488.21	269.16
488.39	278.52
488.57	264.48
488.75	315.97
488.92	554.71
489.10	294.91
489.28	327.68
489.46	287.89
489.64	280.86
489.81	358.10
489.99	325.33
490.17	332.36
490.35	358.10
490.53	315.97
490.70	243.42
490.88	341.72
491.06	212.99
491.24	308.95
491.41	290.23
491.59	327.68
491.77	322.99
491.95	306.61
492.13	297.25
492.30	311.29
492.48	299.59
492.66	287.89
492.84	337.04
493.01	301.93
493.19	313.63
493.37	348.74
493.54	379.17
493.72	369.80
493.90	376.83
494.08	294.91
494.25	320.65
494.43	313.63
494.61	248.10
494.79	266.82
494.96	322.99
495.14	411.93
495.32	304.27
495.49	259.80
495.67	311.29
495.85	365.12
496.02	330.02
496.20	285.55
496.38	327.68
496.55	271.50
496.73	252.78
496.91	297.25
497.09	383.85
497.26	332.36
497.44	280.86
497.62	292.57
497.79	297.25
497.97	369.80
498.14	344.06
498.32	346.40
498.50	304.27
498.67	315.97
498.85	353.42
499.03	365.12
499.20	353.42
499.38	393.21
499.56	285.55
499.73	334.70
499.91	360.44
500.08	397.89
500.26	276.18
500.44	273.84
500.61	308.95
500.79	315.97
500.97	360.44
501.14	313.63
501.32	374.49
501.49	372.15
501.67	330.02
501.84	318.31
502.02	299.59
502.20	360.44
502.37	379.17
502.55	346.40
502.72	351.08
502.90	411.93
503.07	339.38
503.25	311.29
503.43	299.59
503.60	332.36
503.78	344.06
503.95	369.80
504.13	311.29
504.30	367.46
504.48	311.29
504.65	348.74
504.83	472.79
505.01	290.23
505.18	376.83
505.36	400.23
505.53	372.15
505.71	332.36
505.88	414.27
506.06	283.20
506.23	376.83
506.41	334.70
506.58	383.85
506.76	318.31
506.93	283.20
507.11	379.17
507.28	313.63
507.46	262.14
507.63	372.15
507.81	416.62
507.98	404.91
508.16	306.61
508.33	386.19
508.50	360.44
508.68	322.99
508.85	337.04
509.03	297.25
509.20	325.33
509.38	383.85
509.55	299.59
509.73	381.51
509.90	421.30
510.08	351.08
510.25	397.89
510.42	379.17
510.60	383.85
510.77	301.93
510.95	404.91
511.12	360.44
511.30	320.65
511.47	369.80
511.64	365.12
511.82	376.83
511.99	313.63
512.17	325.33
512.34	367.46
512.51	351.08
512.69	334.70
512.86	409.59
513.04	332.36
513.21	362.78
513.38	381.51
513.56	367.46
513.73	341.72
513.90	390.87
514.08	308.95
514.25	388.53
514.43	390.87
514.60	372.15
514.77	290.23
514.95	442.36
515.12	362.78
515.29	283.20
515.47	322.99
515.64	376.83
515.81	320.65
515.99	388.53
516.16	442.36
516.33	346.40
516.51	351.08
516.68	330.02
516.85	372.15
517.03	285.55
517.20	369.80
517.37	308.95
517.54	278.52
517.72	334.70
517.89	327.68
518.06	283.20
518.24	348.74
518.41	372.15
518.58	337.04
518.75	315.97
518.93	468.11
519.10	421.30
519.27	339.38
519.45	339.38
519.62	365.12
519.79	463.43
519.96	339.38
520.14	337.04
520.31	482.15
520.48	390.87
520.65	416.62
520.83	271.50
521.00	418.96
521.17	428.32
521.34	393.21
521.52	325.33
521.69	423.64
521.86	304.27
522.03	465.77
522.20	379.17
522.38	421.30
522.55	344.06
522.72	425.98
522.89	458.74
523.07	402.57
523.24	344.06
523.41	383.85
523.58	360.44
523.75	362.78
523.92	437.68
524.10	404.91
524.27	388.53
524.44	381.51
524.61	468.11
524.78	390.87
524.96	285.55
525.13	330.02
525.30	383.85
525.47	414.27
525.64	428.32
525.81	397.89
525.98	330.02
526.16	330.02
526.33	337.04
526.50	402.57
526.67	388.53
526.84	318.31
527.01	250.44
527.18	358.10
527.36	330.02
527.53	334.70
527.70	433.00
527.87	444.70
528.04	437.68
528.21	383.85
528.38	444.70
528.55	372.15
528.72	435.34
528.89	437.68
529.07	428.32
529.24	407.25
529.41	435.34
529.58	404.91
529.75	332.36
529.92	475.13
530.09	433.00
530.26	463.43
530.43	517.26
530.60	383.85
530.77	444.70
530.94	503.22
531.11	458.74
531.28	421.30
531.46	393.21
531.63	428.32
531.80	381.51
531.97	395.55
532.14	379.17
532.31	395.55
532.48	332.36
532.65	407.25
532.82	348.74
532.99	313.63
533.16	442.36
533.33	407.25
533.50	381.51
533.67	290.23
533.84	425.98
534.01	379.17
534.18	355.76
534.35	442.36
534.52	425.98
534.69	383.85
534.86	337.04
535.03	435.34
535.20	367.46
535.37	411.93
535.54	472.79
535.71	521.94
535.88	472.79
536.05	386.19
536.22	454.06
536.38	372.15
536.55	416.62
536.72	433.00
536.89	355.76
537.06	458.74
537.23	404.91
537.40	416.62
537.57	367.46
537.74	369.80
537.91	395.55
538.08	435.34
538.25	433.00
538.42	428.32
538.59	341.72
538.75	458.74
538.92	374.49
539.09	381.51
539.26	409.59
539.43	444.70
539.60	400.23
539.77	503.22
539.94	423.64
540.11	395.55
540.28	325.33
540.44	416.62
540.61	376.83
540.78	313.63
540.95	428.32
541.12	388.53
541.29	367.46
541.46	390.87
541.62	308.95
541.79	409.59
541.96	444.70
542.13	360.44
542.30	346.40
542.47	465.77
542.63	393.21
542.80	390.87
542.97	477.47
543.14	372.15
543.31	344.06
543.48	423.64
543.64	442.36
543.81	395.55
543.98	402.57
544.15	400.23
544.32	376.83
544.48	318.31
544.65	463.43
544.82	409.59
544.99	400.23
545.16	421.30
545.32	465.77
545.49	458.74
545.66	447.04
545.83	489.17
546.00	341.72
546.16	376.83
546.33	351.08
546.50	376.83
546.67	526.62
546.83	493.85
547.00	407.25
547.17	393.21
547.34	322.99
547.50	404.91
547.67	379.17
547.84	393.21
548.00	390.87
548.17	407.25
548.34	393.21
548.51	477.47
548.67	381.51
548.84	442.36
549.01	435.34
549.18	304.27
549.34	425.98
549.51	341.72
549.68	346.40
549.84	339.38
550.01	367.46
550.18	521.94
550.34	442.36
550.51	386.19
550.68	379.17
550.84	358.10
551.01	362.78
551.18	503.22
551.34	344.06
551.51	468.11
551.68	433.00
551.84	393.21
552.01	379.17
552.18	423.64
552.34	355.76
552.51	388.53
552.68	332.36
552.84	381.51
553.01	365.12
553.18	330.02
553.34	409.59
553.51	372.15
553.67	327.68
553.84	517.26
554.01	428.32
554.17	433.00
554.34	325.33
554.51	411.93
554.67	402.57
554.84	449.38
555.00	358.10
555.17	318.31
555.33	351.08
555.50	358.10
555.67	395.55
555.83	440.02
556.00	372.15
556.16	519.60
556.33	456.40
556.50	379.17
556.66	353.42
556.83	353.42
556.99	367.46
557.16	383.85
557.32	402.57
557.49	397.89
557.65	320.65
557.82	376.83
557.98	367.46
558.15	327.68
558.32	339.38
558.48	320.65
558.65	358.10
558.81	381.51
558.98	383.85
559.14	365.12
559.31	418.96
559.47	400.23
559.64	404.91
559.80	369.80
559.97	334.70
560.13	390.87
560.30	306.61
560.46	358.10
560.63	379.17
560.79	451.72
560.96	351.08
561.12	346.40
561.29	383.85
561.45	315.97
561.61	369.80
561.78	486.83
561.94	351.08
562.11	287.89
562.27	367.46
562.44	344.06
562.60	402.57
562.77	304.27
562.93	475.13
563.10	454.06
563.26	369.80
563.42	393.21
563.59	397.89
563.75	322.99
563.92	430.66
564.08	428.32
564.24	458.74
564.41	423.64
564.57	348.74
564.74	376.83
564.90	386.19
565.07	404.91
565.23	322.99
565.39	372.15
565.56	344.06
565.72	351.08
565.88	430.66
566.05	325.33
566.21	381.51
566.38	360.44
566.54	322.99
566.70	397.89
566.87	327.68
567.03	379.17
567.19	306.61
567.36	374.49
567.52	447.04
567.68	383.85
567.85	421.30
568.01	393.21
568.17	308.95
568.34	325.33
568.50	355.76
568.66	341.72
568.83	512.58
568.99	393.21
569.15	411.93
569.32	407.25
569.48	397.89
569.64	348.74
569.81	367.46
569.97	297.25
570.13	388.53
570.30	308.95
570.46	276.18
570.62	360.44
570.78	355.76
570.95	353.42
571.11	360.44
571.27	379.17
571.43	346.40
571.60	318.31
571.76	327.68
571.92	322.99
572.09	348.74
572.25	339.38
572.41	299.59
572.57	322.99
572.74	381.51
572.90	355.76
573.06	383.85
573.22	390.87
573.38	402.57
573.55	365.12
573.71	376.83
573.87	409.59
574.03	379.17
574.20	376.83
574.36	430.66
574.52	292.57
574.68	313.63
574.84	344.06
575.01	330.02
575.17	304.27
575.33	306.61
575.49	348.74
575.65	355.76
575.82	440.02
575.98	383.85
576.14	372.15
576.30	341.72
576.46	428.32
576.62	386.19
576.79	383.85
576.95	400.23
577.11	376.83
577.27	351.08
577.43	322.99
577.59	397.89
577.75	327.68
577.92	294.91
578.08	367.46
578.24	355.76
578.40	386.19
578.56	395.55
578.72	344.06
578.88	327.68
579.04	407.25
579.21	360.44
579.37	306.61
579.53	379.17
579.69	416.62
579.85	308.95
580.01	456.40
580.17	374.49
580.33	362.78
580.49	369.80
580.65	367.46
580.82	325.33
580.98	360.44
581.14	355.76
581.30	442.36
581.46	348.74
581.62	344.06
581.78	325.33
581.94	325.33
582.10	330.02
582.26	339.38
582.42	383.85
582.58	437.68
582.74	386.19
582.90	365.12
583.06	334.70
583.22	313.63
583.38	365.12
583.54	330.02
583.70	390.87
583.86	322.99
584.02	301.93
584.18	479.81
584.34	311.29
584.50	365.12
584.66	325.33
584.82	320.65
584.98	334.70
585.14	372.15
585.30	362.78
585.46	358.10
585.62	393.21
585.78	351.08
585.94	376.83
586.10	325.33
586.26	287.89
586.42	353.42
586.58	374.49
586.74	327.68
586.90	299.59
587.06	390.87
587.22	351.08
587.38	346.40
587.54	400.23
587.70	383.85
587.86	306.61
588.02	308.95
588.18	301.93
588.34	372.15
588.49	315.97
588.65	297.25
588.81	299.59
588.97	297.25
589.13	250.44
589.29	266.82
589.45	365.12
589.61	280.86
589.77	301.93
589.93	273.84
590.08	234.05
590.24	285.55
590.40	313.63
590.56	390.87
590.72	320.65
590.88	334.70
591.04	306.61
591.20	271.50
591.35	355.76
591.51	330.02
591.67	292.57
591.83	276.18
591.99	400.23
592.15	290.23
592.31	339.38
592.46	318.31
592.62	315.97
592.78	327.68
592.94	229.37
593.10	271.50
593.26	332.36
593.41	278.52
593.57	367.46
593.73	269.16
593.89	325.33
594.05	262.14
594.20	334.70
594.36	255.12
594.52	241.08
594.68	301.93
594.84	322.99
594.99	301.93
595.15	381.51
595.31	322.99
595.47	311.29
595.62	308.95
595.78	334.70
595.94	306.61
596.10	351.08
596.25	287.89
596.41	334.70
596.57	304.27
596.73	390.87
596.88	276.18
597.04	351.08
597.20	290.23
597.36	290.23
597.51	313.63
597.67	297.25
597.83	306.61
597.99	330.02
598.14	325.33
598.30	306.61
598.46	252.78
598.61	358.10
598.77	313.63
598.93	280.86
599.09	276.18
599.24	285.55
599.40	306.61
599.56	330.02
599.71	287.89
599.87	283.20
600.03	330.02
600.18	280.86
600.34	297.25
600.50	299.59
600.65	346.40
600.81	376.83
600.97	308.95
601.12	322.99
601.28	381.51
601.44	437.68
601.59	318.31
601.75	372.15
601.91	344.06
602.06	287.89
602.22	411.93
602.37	315.97
602.53	308.95
602.69	271.50
602.84	273.84
603.00	346.40
603.16	351.08
603.31	358.10
603.47	421.30
603.62	259.80
603.78	330.02
603.94	390.87
604.09	341.72
604.25	337.04
604.40	353.42
604.56	280.86
604.71	390.87
604.87	257.46
605.03	313.63
605.18	306.61
605.34	397.89
605.49	411.93
605.65	318.31
605.80	337.04
605.96	264.48
606.12	330.02
606.27	294.91
606.43	334.70
606.58	339.38
606.74	320.65
606.89	334.70
607.05	315.97
607.20	290.23
607.36	299.59
607.51	318.31
607.67	266.82
607.82	238.73
607.98	362.78
608.13	238.73
608.29	290.23
608.44	334.70
608.60	367.46
608.75	330.02
608.91	294.91
609.06	327.68
609.22	376.83
609.37	257.46
609.53	365.12
609.68	311.29
609.84	308.95
609.99	194.26
610.15	355.76
610.30	327.68
610.46	313.63
610.61	294.91
610.76	285.55
610.92	269.16
611.07	344.06
611.23	404.91
611.38	280.86
611.54	358.10
