SpectraSuite Data File
++++++++++++++++++++++++++++++++++++
Date: Fri Oct 04 11:47:04 GMT-05:00 2013
User: price-jones
Dark Spectrum Present: No
Reference Spectrum Present: No
Number of Sampled Component Spectra: 1
Spectrometers: USB2+H05261
Integration Time (usec): 100000 (USB2+H05261)
Spectra Averaged: 1 (USB2+H05261)
Boxcar Smoothing: 0 (USB2+H05261)
Correct for Electrical Dark: No (USB2+H05261)
Strobe/Lamp Enabled: No (USB2+H05261)
Correct for Detector Non-linearity: No (USB2+H05261)
Correct for Stray Light: No (USB2+H05261)
Number of Pixels in Processed Spectrum: 2048
>>>>>Begin Processed Spectral Data<<<<<
365.73	0.00
365.92	0.00
366.12	0.00
366.32	0.00
366.52	0.00
366.72	0.00
366.91	0.00
367.11	0.00
367.31	0.00
367.51	0.00
367.70	0.00
367.90	0.00
368.10	0.00
368.30	0.00
368.49	0.00
368.69	0.00
368.89	0.00
369.09	0.00
369.28	0.00
369.48	0.00
369.68	0.00
369.87	0.00
370.07	4.68
370.27	0.00
370.47	23.41
370.66	0.00
370.86	30.43
371.06	67.88
371.25	93.62
371.45	124.05
371.65	32.77
371.84	79.58
372.04	46.81
372.24	100.64
372.44	135.75
372.63	124.05
372.83	149.79
373.03	86.60
373.22	105.32
373.42	79.58
373.62	124.05
373.81	91.28
374.01	114.69
374.21	145.11
374.40	170.86
374.60	77.24
374.79	149.79
374.99	163.84
375.19	142.77
375.38	77.24
375.58	88.94
375.78	170.86
375.97	126.39
376.17	135.75
376.37	91.28
376.56	112.35
376.76	65.54
376.95	152.13
377.15	93.62
377.35	72.56
377.54	107.66
377.74	65.54
377.93	16.38
378.13	42.13
378.33	51.49
378.52	93.62
378.72	194.26
378.91	53.83
379.11	88.94
379.31	152.13
379.50	138.09
379.70	114.69
379.89	93.62
380.09	119.37
380.28	124.05
380.48	114.69
380.68	58.51
380.87	4.68
381.07	93.62
381.26	180.22
381.46	124.05
381.65	93.62
381.85	121.71
382.04	72.56
382.24	170.86
382.43	138.09
382.63	98.30
382.83	79.58
383.02	175.54
383.22	138.09
383.41	147.45
383.61	37.45
383.80	67.88
384.00	166.18
384.19	32.77
384.39	58.51
384.58	88.94
384.78	32.77
384.97	46.81
385.17	128.73
385.36	100.64
385.56	163.84
385.75	86.60
385.95	25.75
386.14	107.66
386.34	128.73
386.53	124.05
386.72	42.13
386.92	88.94
387.11	79.58
387.31	112.35
387.50	70.22
387.70	21.06
387.89	135.75
388.09	44.47
388.28	37.45
388.48	119.37
388.67	187.24
388.86	121.71
389.06	110.01
389.25	46.81
389.45	67.88
389.64	7.02
389.84	42.13
390.03	93.62
390.22	105.32
390.42	128.73
390.61	35.11
390.81	81.92
391.00	77.24
391.19	135.75
391.39	65.54
391.58	149.79
391.78	121.71
391.97	81.92
392.16	18.72
392.36	114.69
392.55	138.09
392.75	119.37
392.94	67.88
393.13	25.75
393.33	98.30
393.52	100.64
393.71	98.30
393.91	124.05
394.10	79.58
394.29	163.84
394.49	105.32
394.68	147.45
394.88	168.52
395.07	147.45
395.26	11.70
395.46	28.09
395.65	46.81
395.84	91.28
396.04	191.92
396.23	30.43
396.42	70.22
396.62	100.64
396.81	105.32
397.00	93.62
397.19	121.71
397.39	110.01
397.58	74.90
397.77	107.66
397.97	156.82
398.16	91.28
398.35	107.66
398.55	140.43
398.74	58.51
398.93	105.32
399.12	107.66
399.32	110.01
399.51	119.37
399.70	135.75
399.90	37.45
400.09	135.75
400.28	77.24
400.47	128.73
400.67	105.32
400.86	140.43
401.05	110.01
401.24	98.30
401.44	81.92
401.63	63.19
401.82	93.62
402.01	152.13
402.21	140.43
402.40	149.79
402.59	107.66
402.78	77.24
402.97	74.90
403.17	119.37
403.36	159.16
403.55	93.62
403.74	114.69
403.93	105.32
404.13	203.63
404.32	65.54
404.51	194.26
404.70	124.05
404.89	84.26
405.09	191.92
405.28	133.41
405.47	100.64
405.66	88.94
405.85	135.75
406.05	102.98
406.24	140.43
406.43	138.09
406.62	67.88
406.81	222.35
407.00	205.97
407.20	133.41
407.39	110.01
407.58	119.37
407.77	133.41
407.96	105.32
408.15	117.03
408.34	93.62
408.54	121.71
408.73	159.16
408.92	182.56
409.11	121.71
409.30	149.79
409.49	156.82
409.68	100.64
409.87	149.79
410.07	86.60
410.26	154.48
410.45	114.69
410.64	131.07
410.83	95.96
411.02	42.13
411.21	135.75
411.40	140.43
411.59	100.64
411.78	105.32
411.98	91.28
412.17	133.41
412.36	119.37
412.55	102.98
412.74	133.41
412.93	102.98
413.12	98.30
413.31	161.50
413.50	70.22
413.69	107.66
413.88	159.16
414.07	182.56
414.26	58.51
414.45	161.50
414.64	105.32
414.83	119.37
415.02	93.62
415.22	74.90
415.41	189.58
415.60	163.84
415.79	205.97
415.98	170.86
416.17	56.17
416.36	65.54
416.55	93.62
416.74	145.11
416.93	156.82
417.12	95.96
417.31	107.66
417.50	126.39
417.69	198.95
417.88	191.92
418.07	126.39
418.26	126.39
418.45	86.60
418.64	201.29
418.83	215.33
419.02	159.16
419.21	170.86
419.39	154.48
419.58	173.20
419.77	163.84
419.96	187.24
420.15	112.35
420.34	95.96
420.53	107.66
420.72	128.73
420.91	107.66
421.10	105.32
421.29	135.75
421.48	128.73
421.67	149.79
421.86	100.64
422.05	117.03
422.24	138.09
422.43	128.73
422.61	112.35
422.80	84.26
422.99	156.82
423.18	131.07
423.37	112.35
423.56	107.66
423.75	166.18
423.94	133.41
424.13	42.13
424.32	124.05
424.50	138.09
424.69	93.62
424.88	131.07
425.07	177.88
425.26	112.35
425.45	180.22
425.64	271.50
425.83	252.78
426.01	124.05
426.20	149.79
426.39	102.98
426.58	112.35
426.77	105.32
426.96	147.45
427.15	114.69
427.33	81.92
427.52	110.01
427.71	135.75
427.90	159.16
428.09	163.84
428.28	74.90
428.46	107.66
428.65	128.73
428.84	70.22
429.03	124.05
429.22	156.82
429.40	138.09
429.59	128.73
429.78	131.07
429.97	86.60
430.16	105.32
430.34	142.77
430.53	135.75
430.72	67.88
430.91	208.31
431.10	23.41
431.28	112.35
431.47	121.71
431.66	208.31
431.85	124.05
432.03	39.79
432.22	117.03
432.41	107.66
432.60	182.56
432.79	152.13
432.97	280.86
433.16	351.08
433.35	156.82
433.54	98.30
433.72	147.45
433.91	170.86
434.10	147.45
434.28	156.82
434.47	154.48
434.66	74.90
434.85	187.24
435.03	77.24
435.22	100.64
435.41	145.11
435.59	102.98
435.78	100.64
435.97	114.69
436.16	170.86
436.34	58.51
436.53	140.43
436.72	142.77
436.90	67.88
437.09	119.37
437.28	142.77
437.46	67.88
437.65	166.18
437.84	156.82
438.02	138.09
438.21	163.84
438.40	93.62
438.58	74.90
438.77	166.18
438.96	135.75
439.14	154.48
439.33	152.13
439.52	100.64
439.70	138.09
439.89	133.41
440.08	74.90
440.26	170.86
440.45	217.67
440.63	128.73
440.82	63.19
441.01	156.82
441.19	121.71
441.38	84.26
441.57	119.37
441.75	180.22
441.94	135.75
442.12	119.37
442.31	145.11
442.50	124.05
442.68	102.98
442.87	191.92
443.05	138.09
443.24	112.35
443.43	81.92
443.61	170.86
443.80	135.75
443.98	30.43
444.17	138.09
444.35	128.73
444.54	138.09
444.73	133.41
444.91	131.07
445.10	159.16
445.28	112.35
445.47	159.16
445.65	135.75
445.84	154.48
446.02	114.69
446.21	138.09
446.39	205.97
446.58	135.75
446.77	159.16
446.95	98.30
447.14	142.77
447.32	133.41
447.51	65.54
447.69	149.79
447.88	147.45
448.06	159.16
448.25	138.09
448.43	114.69
448.62	147.45
448.80	91.28
448.99	145.11
449.17	152.13
449.36	175.54
449.54	121.71
449.73	126.39
449.91	138.09
450.10	152.13
450.28	135.75
450.46	198.95
450.65	126.39
450.83	168.52
451.02	110.01
451.20	177.88
451.39	140.43
451.57	67.88
451.76	88.94
451.94	138.09
452.13	147.45
452.31	117.03
452.49	156.82
452.68	35.11
452.86	198.95
453.05	191.92
453.23	180.22
453.42	159.16
453.60	84.26
453.78	156.82
453.97	124.05
454.15	102.98
454.34	142.77
454.52	147.45
454.70	114.69
454.89	184.90
455.07	63.19
455.26	112.35
455.44	187.24
455.62	46.81
455.81	224.69
455.99	182.56
456.17	117.03
456.36	121.71
456.54	166.18
456.73	58.51
456.91	220.01
457.09	184.90
457.28	128.73
457.46	166.18
457.64	173.20
457.83	119.37
458.01	100.64
458.19	124.05
458.38	65.54
458.56	198.95
458.74	131.07
458.93	177.88
459.11	126.39
459.29	152.13
459.48	84.26
459.66	180.22
459.84	161.50
460.03	180.22
460.21	159.16
460.39	119.37
460.57	156.82
460.76	105.32
460.94	147.45
461.12	140.43
461.31	175.54
461.49	91.28
461.67	161.50
461.85	135.75
462.04	67.88
462.22	667.05
462.40	234.05
462.59	196.60
462.77	166.18
462.95	88.94
463.13	149.79
463.32	138.09
463.50	105.32
463.68	191.92
463.86	149.79
464.05	133.41
464.23	156.82
464.41	166.18
464.59	88.94
464.78	198.95
464.96	84.26
465.14	177.88
465.32	133.41
465.50	100.64
465.69	100.64
465.87	147.45
466.05	79.58
466.23	182.56
466.41	98.30
466.60	124.05
466.78	173.20
466.96	168.52
467.14	224.69
467.32	201.29
467.51	182.56
467.69	152.13
467.87	93.62
468.05	147.45
468.23	198.95
468.41	168.52
468.60	100.64
468.78	131.07
468.96	210.65
469.14	166.18
469.32	105.32
469.50	156.82
469.69	140.43
469.87	119.37
470.05	182.56
470.23	156.82
470.41	194.26
470.59	180.22
470.77	133.41
470.95	184.90
471.14	154.48
471.32	149.79
471.50	145.11
471.68	152.13
471.86	119.37
472.04	93.62
472.22	126.39
472.40	184.90
472.58	98.30
472.77	88.94
472.95	149.79
473.13	140.43
473.31	95.96
473.49	107.66
473.67	95.96
473.85	138.09
474.03	276.18
474.21	131.07
474.39	124.05
474.57	147.45
474.75	173.20
474.93	105.32
475.12	60.85
475.30	163.84
475.48	114.69
475.66	131.07
475.84	135.75
476.02	215.33
476.20	177.88
476.38	79.58
476.56	222.35
476.74	170.86
476.92	170.86
477.10	166.18
477.28	161.50
477.46	154.48
477.64	173.20
477.82	191.92
478.00	145.11
478.18	170.86
478.36	187.24
478.54	124.05
478.72	60.85
478.90	175.54
479.08	170.86
479.26	102.98
479.44	208.31
479.62	63.19
479.80	154.48
479.98	79.58
480.16	180.22
480.34	248.10
480.52	177.88
480.70	117.03
480.88	135.75
481.06	177.88
481.24	154.48
481.41	170.86
481.59	121.71
481.77	102.98
481.95	124.05
482.13	180.22
482.31	184.90
482.49	159.16
482.67	191.92
482.85	170.86
483.03	191.92
483.21	180.22
483.39	180.22
483.57	95.96
483.74	138.09
483.92	170.86
484.10	128.73
484.28	142.77
484.46	220.01
484.64	121.71
484.82	182.56
485.00	74.90
485.18	159.16
485.35	128.73
485.53	74.90
485.71	212.99
485.89	163.84
486.07	182.56
486.25	236.39
486.43	227.03
486.61	156.82
486.78	140.43
486.96	152.13
487.14	210.65
487.32	138.09
487.50	117.03
487.68	149.79
487.85	126.39
488.03	212.99
488.21	163.84
488.39	177.88
488.57	163.84
488.75	203.63
488.92	358.10
489.10	154.48
489.28	217.67
489.46	161.50
489.64	49.15
489.81	149.79
489.99	222.35
490.17	189.58
490.35	173.20
490.53	182.56
490.70	112.35
490.88	189.58
491.06	152.13
491.24	175.54
491.41	212.99
491.59	191.92
491.77	175.54
491.95	131.07
492.13	152.13
492.30	140.43
492.48	128.73
492.66	205.97
492.84	161.50
493.01	227.03
493.19	180.22
493.37	191.92
493.54	163.84
493.72	175.54
493.90	121.71
494.08	149.79
494.25	243.42
494.43	205.97
494.61	128.73
494.79	124.05
494.96	147.45
495.14	287.89
495.32	168.52
495.49	166.18
495.67	248.10
495.85	196.60
496.02	205.97
496.20	229.37
496.38	163.84
496.55	156.82
496.73	215.33
496.91	177.88
497.09	184.90
497.26	177.88
497.44	184.90
497.62	208.31
497.79	173.20
497.97	198.95
498.14	168.52
498.32	220.01
498.50	180.22
498.67	227.03
498.85	191.92
499.03	145.11
499.20	117.03
499.38	156.82
499.56	163.84
499.73	227.03
499.91	142.77
500.08	182.56
500.26	173.20
500.44	112.35
500.61	166.18
500.79	227.03
500.97	248.10
501.14	189.58
501.32	245.76
501.49	152.13
501.67	142.77
501.84	182.56
502.02	121.71
502.20	196.60
502.37	166.18
502.55	245.76
502.72	168.52
502.90	243.42
503.07	287.89
503.25	147.45
503.43	245.76
503.60	159.16
503.78	201.29
503.95	203.63
504.13	227.03
504.30	238.73
504.48	231.71
504.65	248.10
504.83	259.80
505.01	198.95
505.18	198.95
505.36	264.48
505.53	248.10
505.71	98.30
505.88	175.54
506.06	140.43
506.23	245.76
506.41	184.90
506.58	168.52
506.76	173.20
506.93	138.09
507.11	154.48
507.28	220.01
507.46	173.20
507.63	191.92
507.81	227.03
507.98	208.31
508.16	229.37
508.33	163.84
508.50	142.77
508.68	245.76
508.85	147.45
509.03	212.99
509.20	161.50
509.38	147.45
509.55	271.50
509.73	203.63
509.90	201.29
510.08	110.01
510.25	98.30
510.42	131.07
510.60	175.54
510.77	140.43
510.95	243.42
511.12	159.16
511.30	325.33
511.47	278.52
511.64	308.95
511.82	220.01
511.99	149.79
512.17	187.24
512.34	187.24
512.51	163.84
512.69	187.24
512.86	250.44
513.04	194.26
513.21	212.99
513.38	128.73
513.56	168.52
513.73	187.24
513.90	241.08
514.08	196.60
514.25	252.78
514.43	205.97
514.60	205.97
514.77	198.95
514.95	194.26
515.12	234.05
515.29	252.78
515.47	262.14
515.64	264.48
515.81	191.92
515.99	170.86
516.16	276.18
516.33	212.99
516.51	220.01
516.68	184.90
516.85	215.33
517.03	198.95
517.20	149.79
517.37	177.88
517.54	227.03
517.72	154.48
517.89	126.39
518.06	182.56
518.24	224.69
518.41	250.44
518.58	194.26
518.75	191.92
518.93	203.63
519.10	208.31
519.27	175.54
519.45	220.01
519.62	215.33
519.79	189.58
519.96	173.20
520.14	177.88
520.31	222.35
520.48	250.44
520.65	297.25
520.83	168.52
521.00	191.92
521.17	220.01
521.34	306.61
521.52	245.76
521.69	208.31
521.86	217.67
522.03	234.05
522.20	250.44
522.38	163.84
522.55	205.97
522.72	215.33
522.89	203.63
523.07	208.31
523.24	203.63
523.41	159.16
523.58	234.05
523.75	208.31
523.92	250.44
524.10	262.14
524.27	262.14
524.44	236.39
524.61	238.73
524.78	187.24
524.96	161.50
525.13	212.99
525.30	208.31
525.47	201.29
525.64	250.44
525.81	269.16
525.98	182.56
526.16	210.65
526.33	210.65
526.50	229.37
526.67	142.77
526.84	198.95
527.01	201.29
527.18	196.60
527.36	222.35
527.53	121.71
527.70	259.80
527.87	170.86
528.04	276.18
528.21	205.97
528.38	229.37
528.55	248.10
528.72	212.99
528.89	259.80
529.07	140.43
529.24	154.48
529.41	294.91
529.58	234.05
529.75	156.82
529.92	234.05
530.09	198.95
530.26	227.03
530.43	142.77
530.60	208.31
530.77	201.29
530.94	255.12
531.11	250.44
531.28	255.12
531.46	175.54
531.63	208.31
531.80	201.29
531.97	266.82
532.14	252.78
532.31	173.20
532.48	248.10
532.65	311.29
532.82	381.51
532.99	409.59
533.16	273.84
533.33	315.97
533.50	285.55
533.67	463.43
533.84	458.74
534.01	372.15
534.18	414.27
534.35	322.99
534.52	290.23
534.69	313.63
534.86	245.76
535.03	215.33
535.20	212.99
535.37	266.82
535.54	189.58
535.71	236.39
535.88	276.18
536.05	255.12
536.22	252.78
536.38	224.69
536.55	191.92
536.72	170.86
536.89	224.69
537.06	257.46
537.23	264.48
537.40	227.03
537.57	231.71
537.74	283.20
537.91	154.48
538.08	236.39
538.25	236.39
538.42	131.07
538.59	229.37
538.75	222.35
538.92	215.33
539.09	248.10
539.26	168.52
539.43	526.62
539.60	1392.62
539.77	2003.50
539.94	2022.22
540.11	1322.40
540.28	748.97
540.44	559.39
540.61	341.72
540.78	285.55
540.95	299.59
541.12	283.20
541.29	156.82
541.46	241.08
541.62	231.71
541.79	194.26
541.96	205.97
542.13	208.31
542.30	152.13
542.47	294.91
542.63	182.56
542.80	208.31
542.97	264.48
543.14	318.31
543.31	229.37
543.48	208.31
543.64	196.60
543.81	220.01
543.98	224.69
544.15	196.60
544.32	196.60
544.48	259.80
544.65	208.31
544.82	198.95
544.99	252.78
545.16	180.22
545.32	173.20
545.49	196.60
545.66	154.48
545.83	196.60
546.00	227.03
546.16	161.50
546.33	205.97
546.50	201.29
546.67	229.37
546.83	189.58
547.00	170.86
547.17	220.01
547.34	149.79
547.50	184.90
547.67	231.71
547.84	196.60
548.00	285.55
548.17	168.52
548.34	231.71
548.51	273.84
548.67	217.67
548.84	231.71
549.01	217.67
549.18	194.26
549.34	231.71
549.51	259.80
549.68	215.33
549.84	182.56
550.01	145.11
550.18	269.16
550.34	257.46
550.51	215.33
550.68	290.23
550.84	234.05
551.01	212.99
551.18	257.46
551.34	208.31
551.51	184.90
551.68	124.05
551.84	212.99
552.01	177.88
552.18	194.26
552.34	205.97
552.51	252.78
552.68	196.60
552.84	243.42
553.01	161.50
553.18	198.95
553.34	152.13
553.51	266.82
553.67	285.55
553.84	315.97
554.01	311.29
554.17	224.69
554.34	222.35
554.51	191.92
554.67	191.92
554.84	128.73
555.00	227.03
555.17	227.03
555.33	243.42
555.50	215.33
555.67	140.43
555.83	177.88
556.00	285.55
556.16	360.44
556.33	248.10
556.50	159.16
556.66	227.03
556.83	243.42
556.99	163.84
557.16	227.03
557.32	163.84
557.49	215.33
557.65	205.97
557.82	175.54
557.98	161.50
558.15	177.88
558.32	175.54
558.48	175.54
558.65	262.14
558.81	170.86
558.98	182.56
559.14	243.42
559.31	243.42
559.47	182.56
559.64	229.37
559.80	262.14
559.97	156.82
560.13	227.03
560.30	124.05
560.46	135.75
560.63	180.22
560.79	170.86
560.96	285.55
561.12	156.82
561.29	147.45
561.45	112.35
561.61	208.31
561.78	290.23
561.94	147.45
562.11	243.42
562.27	220.01
562.44	168.52
562.60	262.14
562.77	191.92
562.93	241.08
563.10	161.50
563.26	208.31
563.42	220.01
563.59	203.63
563.75	135.75
563.92	194.26
564.08	285.55
564.24	285.55
564.41	278.52
564.57	278.52
564.74	189.58
564.90	290.23
565.07	227.03
565.23	255.12
565.39	234.05
565.56	252.78
565.72	271.50
565.88	227.03
566.05	264.48
566.21	152.13
566.38	245.76
566.54	201.29
566.70	140.43
566.87	210.65
567.03	147.45
567.19	198.95
567.36	234.05
567.52	168.52
567.68	217.67
567.85	182.56
568.01	138.09
568.17	168.52
568.34	191.92
568.50	269.16
568.66	201.29
568.83	311.29
568.99	231.71
569.15	222.35
569.32	212.99
569.48	203.63
569.64	208.31
569.81	217.67
569.97	166.18
570.13	229.37
570.30	124.05
570.46	128.73
570.62	177.88
570.78	248.10
570.95	161.50
571.11	248.10
571.27	224.69
571.43	203.63
571.60	308.95
571.76	250.44
571.92	266.82
572.09	245.76
572.25	224.69
572.41	175.54
572.57	194.26
572.74	198.95
572.90	177.88
573.06	287.89
573.22	208.31
573.38	238.73
573.55	227.03
573.71	276.18
573.87	301.93
574.03	175.54
574.20	245.76
574.36	348.74
574.52	334.70
574.68	344.06
574.84	297.25
575.01	276.18
575.17	294.91
575.33	257.46
575.49	266.82
575.65	283.20
575.82	381.51
575.98	765.36
576.14	968.98
576.30	842.59
576.46	751.31
576.62	540.66
576.79	360.44
576.95	346.40
577.11	241.08
577.27	175.54
577.43	294.91
577.59	294.91
577.75	297.25
577.92	229.37
578.08	203.63
578.24	243.42
578.40	215.33
578.56	287.89
578.72	287.89
578.88	152.13
579.04	297.25
579.21	320.65
579.37	315.97
579.53	245.76
579.69	236.39
579.85	299.59
580.01	402.57
580.17	421.30
580.33	465.77
580.49	393.21
580.65	344.06
580.82	381.51
580.98	353.42
581.14	397.89
581.30	388.53
581.46	564.07
581.62	723.23
581.78	795.78
581.94	697.48
582.10	582.79
582.26	425.98
582.42	486.83
582.58	461.09
582.74	447.04
582.90	463.43
583.06	512.58
583.22	482.15
583.38	627.26
583.54	641.31
583.70	767.70
583.86	840.25
584.02	1039.20
584.18	1151.54
584.34	1544.75
584.50	4603.83
584.66	36332.14
584.82	65535.00
584.98	65535.00
585.14	65535.00
585.30	63480.01
585.46	42026.66
585.62	25841.85
585.78	11604.38
585.94	4524.26
586.10	2214.15
586.26	1385.60
586.42	1062.60
586.58	856.64
586.74	788.76
586.90	725.57
587.06	751.31
587.22	613.22
587.38	566.41
587.54	1652.42
587.70	5041.51
587.86	8229.32
588.02	9092.98
588.18	6394.34
588.34	4009.34
588.49	2513.74
588.65	1467.52
588.81	784.08
588.97	484.49
589.13	369.80
589.29	372.15
589.45	407.25
589.61	369.80
589.77	465.77
589.93	580.45
590.08	524.28
590.24	533.64
590.40	496.19
590.56	440.02
590.72	390.87
590.88	400.23
591.04	393.21
591.20	355.76
591.35	372.15
591.51	337.04
591.67	264.48
591.83	330.02
591.99	344.06
592.15	351.08
592.31	367.46
592.46	285.55
592.62	304.27
592.78	250.44
592.94	241.08
593.10	304.27
593.26	341.72
593.41	322.99
593.57	437.68
593.73	816.85
593.89	4147.43
594.05	10794.55
594.20	15864.15
594.36	14794.53
594.52	9537.68
594.68	5968.37
594.84	3978.91
594.99	2022.22
595.15	884.72
595.31	552.37
595.47	451.72
595.62	346.40
595.78	278.52
595.94	330.02
596.10	397.89
596.25	400.23
596.41	358.10
596.57	299.59
596.73	339.38
596.88	669.39
597.04	1987.11
597.20	3183.13
597.36	3798.69
597.51	2754.81
597.67	1846.68
597.83	1203.04
597.99	952.60
598.14	486.83
598.30	428.32
598.46	393.21
598.61	395.55
598.77	414.27
598.93	379.17
599.09	280.86
599.24	325.33
599.40	278.52
599.56	276.18
599.71	271.50
599.87	278.52
600.03	210.65
600.18	175.54
600.34	280.86
600.50	196.60
600.65	236.39
600.81	208.31
600.97	177.88
601.12	327.68
601.28	285.55
601.44	294.91
601.59	234.05
601.75	231.71
601.91	154.48
602.06	273.84
602.22	365.12
602.37	936.21
602.53	2424.80
602.69	3754.22
602.84	3896.99
603.00	2731.41
603.16	1881.79
603.31	1334.11
603.47	851.96
603.62	425.98
603.78	365.12
603.94	301.93
604.09	283.20
604.25	252.78
604.40	276.18
604.56	234.05
604.71	182.56
604.87	222.35
605.03	250.44
605.18	287.89
605.34	306.61
605.49	257.46
605.65	229.37
605.80	250.44
605.96	264.48
606.12	306.61
606.27	365.12
606.43	315.97
606.58	411.93
606.74	1062.60
606.89	5156.20
607.05	10153.24
607.20	13144.45
607.36	10729.02
607.51	7056.72
607.67	4610.86
607.82	3117.59
607.98	1607.95
608.13	837.91
608.29	561.73
608.44	528.96
608.60	489.17
608.75	543.00
608.91	1607.95
609.06	7861.86
609.22	17221.66
609.37	23335.14
609.53	19887.53
609.68	12950.18
609.84	8290.18
609.99	5530.69
610.15	3002.91
610.30	1301.34
610.46	662.37
610.61	552.37
610.76	409.59
610.92	456.40
611.07	341.72
611.23	395.55
611.38	393.21
611.54	269.16
