SpectraSuite Data File
++++++++++++++++++++++++++++++++++++
Date: Fri Oct 04 11:48:37 GMT-05:00 2013
User: price-jones
Dark Spectrum Present: No
Reference Spectrum Present: No
Number of Sampled Component Spectra: 1
Spectrometers: USB2+H05261
Integration Time (usec): 100000 (USB2+H05261)
Spectra Averaged: 1 (USB2+H05261)
Boxcar Smoothing: 0 (USB2+H05261)
Correct for Electrical Dark: No (USB2+H05261)
Strobe/Lamp Enabled: No (USB2+H05261)
Correct for Detector Non-linearity: No (USB2+H05261)
Correct for Stray Light: No (USB2+H05261)
Number of Pixels in Processed Spectrum: 2048
>>>>>Begin Processed Spectral Data<<<<<
365.73	18.72
365.92	18.72
366.12	18.72
366.32	0.00
366.52	0.00
366.72	0.00
366.91	0.00
367.11	0.00
367.31	0.00
367.51	0.00
367.70	0.00
367.90	0.00
368.10	0.00
368.30	0.00
368.49	0.00
368.69	0.00
368.89	0.00
369.09	0.00
369.28	0.00
369.48	0.00
369.68	21.06
369.87	0.00
370.07	0.00
370.27	7.02
370.47	58.51
370.66	16.38
370.86	93.62
371.06	138.09
371.25	117.03
371.45	112.35
371.65	154.48
371.84	117.03
372.04	156.82
372.24	177.88
372.44	205.97
372.63	142.77
372.83	191.92
373.03	184.90
373.22	196.60
373.42	156.82
373.62	175.54
373.81	161.50
374.01	196.60
374.21	198.95
374.40	222.35
374.60	138.09
374.79	156.82
374.99	266.82
375.19	210.65
375.38	220.01
375.58	170.86
375.78	189.58
375.97	290.23
376.17	278.52
376.37	212.99
376.56	245.76
376.76	224.69
376.95	212.99
377.15	196.60
377.35	142.77
377.54	187.24
377.74	210.65
377.93	266.82
378.13	173.20
378.33	222.35
378.52	187.24
378.72	189.58
378.91	234.05
379.11	201.29
379.31	215.33
379.50	191.92
379.70	173.20
379.89	234.05
380.09	161.50
380.28	208.31
380.48	266.82
380.68	161.50
380.87	248.10
381.07	262.14
381.26	287.89
381.46	173.20
381.65	229.37
381.85	222.35
382.04	238.73
382.24	266.82
382.43	241.08
382.63	215.33
382.83	184.90
383.02	241.08
383.22	266.82
383.41	184.90
383.61	191.92
383.80	205.97
384.00	217.67
384.19	191.92
384.39	231.71
384.58	248.10
384.78	250.44
384.97	184.90
385.17	273.84
385.36	227.03
385.56	245.76
385.75	257.46
385.95	241.08
386.14	259.80
386.34	217.67
386.53	234.05
386.72	304.27
386.92	245.76
387.11	325.33
387.31	262.14
387.50	271.50
387.70	301.93
387.89	269.16
388.09	273.84
388.28	182.56
388.48	259.80
388.67	250.44
388.86	220.01
389.06	187.24
389.25	318.31
389.45	294.91
389.64	276.18
389.84	320.65
390.03	264.48
390.22	262.14
390.42	217.67
390.61	318.31
390.81	351.08
391.00	304.27
391.19	327.68
391.39	332.36
391.58	299.59
391.78	358.10
391.97	362.78
392.16	341.72
392.36	369.80
392.55	304.27
392.75	383.85
392.94	292.57
393.13	341.72
393.33	341.72
393.52	332.36
393.71	416.62
393.91	362.78
394.10	353.42
394.29	320.65
394.49	287.89
394.68	379.17
394.88	369.80
395.07	367.46
395.26	409.59
395.46	339.38
395.65	367.46
395.84	327.68
396.04	404.91
396.23	393.21
396.42	383.85
396.62	411.93
396.81	435.34
397.00	418.96
397.19	418.96
397.39	411.93
397.58	418.96
397.77	472.79
397.97	468.11
398.16	505.56
398.35	468.11
398.55	470.45
398.74	491.51
398.93	475.13
399.12	468.11
399.32	475.13
399.51	552.37
399.70	557.05
399.90	486.83
400.09	519.60
400.28	575.77
400.47	479.81
400.67	496.19
400.86	479.81
401.05	585.13
401.24	531.30
401.44	603.86
401.63	514.92
401.82	650.67
402.01	552.37
402.21	578.11
402.40	641.31
402.59	599.18
402.78	603.86
402.97	709.18
403.17	592.16
403.36	720.88
403.55	617.90
403.74	615.56
403.93	683.44
404.13	821.53
404.32	699.82
404.51	667.05
404.70	835.57
404.89	695.14
405.09	812.17
405.28	779.40
405.47	748.97
405.66	741.95
405.85	823.87
406.05	753.65
406.24	788.76
406.43	798.12
406.62	880.04
406.81	858.98
407.00	898.77
407.20	858.98
407.39	868.34
407.58	990.05
407.77	873.02
407.96	1008.77
408.15	952.60
408.34	976.00
408.54	901.11
408.73	964.30
408.92	940.90
409.11	1015.79
409.30	968.98
409.49	994.73
409.68	1015.79
409.87	1067.28
410.07	985.37
410.26	1083.67
410.45	1104.73
410.64	1114.10
410.83	1198.35
411.02	1104.73
411.21	1191.33
411.40	1097.71
411.59	1172.61
411.78	1083.67
411.98	1135.16
412.17	1181.97
412.36	1214.74
412.55	1249.85
412.74	1270.91
412.93	1324.74
413.12	1261.55
413.31	1268.57
413.50	1357.51
413.69	1345.81
413.88	1420.71
414.07	1425.39
414.26	1390.28
414.45	1446.45
414.64	1369.21
414.83	1521.35
415.02	1437.09
415.22	1444.11
415.41	1579.86
415.60	1523.69
415.79	1554.12
415.98	1500.28
416.17	1551.78
416.36	1570.50
416.55	1603.27
416.74	1671.14
416.93	1685.19
417.12	1645.40
417.31	1603.27
417.50	1652.42
417.69	1694.55
417.88	1699.23
418.07	1619.65
418.26	1671.14
418.45	1701.57
418.64	1790.51
418.83	1689.87
419.02	1713.27
419.21	1792.85
419.39	1753.06
419.58	1825.62
419.77	1891.15
419.96	1849.02
420.15	1879.45
420.34	1851.36
420.53	1881.79
420.72	1900.52
420.91	1940.30
421.10	1923.92
421.29	1940.30
421.48	1865.41
421.67	2040.95
421.86	1858.39
422.05	2012.86
422.24	2073.71
422.43	1914.56
422.61	1905.20
422.80	1959.03
422.99	2026.90
423.18	2033.93
423.37	2001.16
423.56	2017.54
423.75	2010.52
423.94	1870.09
424.13	1940.30
424.32	1813.92
424.50	1940.30
424.69	2113.50
424.88	1980.09
425.07	2024.56
425.26	2052.65
425.45	2064.35
425.64	2038.61
425.83	2019.88
426.01	2071.37
426.20	2015.20
426.39	2080.74
426.58	2073.71
426.77	2106.48
426.96	2017.54
427.15	2076.06
427.33	2045.63
427.52	2146.27
427.71	2122.87
427.90	2155.63
428.09	2143.93
428.28	2153.29
428.46	2169.68
428.65	2239.89
428.84	2352.24
429.03	2282.02
429.22	2197.76
429.40	2244.57
429.59	2190.74
429.78	2218.83
429.97	2225.85
430.16	2246.91
430.34	2230.53
430.53	2314.79
430.72	2396.71
430.91	2338.20
431.10	2310.11
431.28	2403.73
431.47	2483.31
431.66	2450.54
431.85	2375.64
432.03	2502.03
432.22	2523.10
432.41	2368.62
432.60	2450.54
432.79	2331.17
432.97	2429.48
433.16	2420.11
433.35	2399.05
433.54	2406.07
433.72	2544.16
433.91	2520.76
434.10	2471.61
434.28	2607.36
434.47	2462.24
434.66	2670.55
434.85	2682.25
435.03	2541.82
435.22	2649.49
435.41	2560.55
435.59	2705.66
435.78	2656.51
435.97	2590.97
436.16	2658.85
436.34	2654.17
436.53	2761.83
436.72	2712.68
436.90	2740.77
437.09	2799.28
437.28	2731.41
437.46	2710.34
437.65	2794.60
437.84	2794.60
438.02	2686.94
438.21	2803.96
438.40	2792.26
438.58	2787.58
438.77	2928.01
438.96	2944.39
439.14	3014.61
439.33	2876.52
439.52	2995.89
439.70	2883.54
439.89	3164.40
440.08	2979.50
440.26	3115.25
440.45	2967.80
440.63	3054.40
440.82	3169.09
441.01	3126.96
441.19	3159.72
441.38	3173.77
441.57	3164.40
441.75	3288.45
441.94	3248.66
442.12	3314.20
442.31	3304.84
442.50	3243.98
442.68	3384.41
442.87	3332.92
443.05	3290.79
443.24	3332.92
443.43	3325.90
443.61	3555.27
443.80	3398.46
443.98	3211.22
444.17	3222.92
444.35	3503.78
444.54	3456.97
444.73	3517.83
444.91	3328.24
445.10	3346.97
445.28	3510.80
445.47	3473.36
445.65	3459.31
445.84	3361.01
446.02	3503.78
446.21	3417.18
446.39	3262.71
446.58	3503.78
446.77	3548.25
446.95	3440.59
447.14	3400.80
447.32	3461.65
447.51	3564.64
447.69	3620.81
447.88	3527.19
448.06	3569.32
448.25	3452.29
448.43	3435.91
448.62	3637.19
448.80	3283.77
448.99	3620.81
449.17	3506.12
449.36	3625.49
449.54	3779.97
449.73	3707.41
449.91	3758.90
450.10	3716.77
450.28	3714.43
450.46	3613.79
450.65	3744.86
450.83	3674.64
451.02	3648.90
451.20	3691.02
451.39	3948.48
451.57	3751.88
451.76	3810.39
451.94	3716.77
452.13	3798.69
452.31	3805.71
452.49	3819.75
452.68	3784.65
452.86	3829.12
453.05	3826.78
453.23	3880.61
453.42	4011.68
453.60	3779.97
453.78	3810.39
453.97	3875.93
454.15	3911.04
454.34	3850.18
454.52	3901.67
454.70	4018.70
454.89	4009.34
455.07	4128.70
455.26	4070.19
455.44	4056.15
455.62	4051.47
455.81	4025.72
455.99	4177.86
456.17	4060.83
456.36	4093.60
456.54	4042.11
456.73	4100.62
456.91	4198.92
457.09	4264.46
457.28	4292.54
457.46	4170.83
457.64	4402.55
457.83	4428.29
458.01	4287.86
458.19	4404.89
458.38	4348.72
458.56	4388.50
458.74	4566.39
458.93	4554.68
459.11	4379.14
459.29	4362.76
459.48	4489.15
459.66	4341.69
459.84	4475.10
460.03	4475.10
460.21	4475.10
460.39	4468.08
460.57	4503.19
460.76	4601.49
460.94	4538.30
461.12	4568.73
461.31	4664.69
461.49	4622.56
461.67	4514.89
461.85	4643.62
462.04	4624.90
462.22	5132.79
462.40	4676.39
462.59	4667.03
462.77	4610.86
462.95	4674.05
463.13	4695.11
463.32	4772.35
463.50	4739.58
463.68	4814.48
463.86	4739.58
464.05	4781.71
464.23	4758.31
464.41	4823.84
464.59	4802.78
464.78	4734.90
464.96	4791.08
465.14	4821.50
465.32	4943.21
465.50	4924.49
465.69	4997.04
465.87	4973.64
466.05	4985.34
466.23	4973.64
466.41	4968.96
466.60	5228.76
466.78	4947.89
466.96	4975.98
467.14	5109.39
467.32	5165.56
467.51	5151.52
467.69	4980.66
467.87	5268.55
468.05	5078.96
468.23	5118.75
468.41	5008.75
468.60	5095.35
468.78	5231.10
468.96	5078.96
469.14	5142.16
469.32	5144.50
469.50	5205.35
469.69	5191.31
469.87	5432.38
470.05	5207.69
470.23	5298.97
470.41	5401.96
470.59	5425.36
470.77	5205.35
470.95	5273.23
471.14	5502.60
471.32	5500.26
471.50	5516.64
471.68	5530.69
471.86	5483.88
472.04	5579.84
472.22	5600.90
472.40	5362.17
472.58	5621.97
472.77	5746.02
472.95	5636.01
473.13	5860.70
473.31	5626.65
473.49	5619.63
473.67	5734.31
473.85	5811.55
474.03	5804.53
474.21	5963.68
474.39	5813.89
474.57	6033.90
474.75	6066.67
474.93	6120.50
475.12	6076.03
475.30	6134.54
475.48	6090.07
475.66	6092.41
475.84	6061.99
476.02	6125.18
476.20	6228.17
476.38	6143.91
476.56	6567.54
476.74	6274.98
476.92	6256.25
477.10	6356.90
477.28	6530.09
477.46	6207.10
477.64	6597.97
477.82	6595.63
478.00	6916.28
478.18	6752.45
478.36	6843.73
478.54	6923.30
478.72	6932.67
478.90	6810.96
479.08	6991.18
479.26	6944.37
479.44	7068.42
479.62	7077.78
479.80	7234.60
479.98	7211.19
480.16	7236.94
480.34	7335.24
480.52	7288.43
480.70	7487.37
480.88	7325.88
481.06	7346.94
481.24	7499.08
481.41	7449.93
481.59	7445.24
481.77	7667.60
481.95	7805.69
482.13	7826.75
482.31	7789.30
482.49	8023.36
482.67	7887.61
482.85	7976.55
483.03	8194.22
483.21	8131.02
483.39	8255.07
483.57	8210.60
483.74	8341.67
483.92	8435.29
484.10	8409.54
484.28	8650.62
484.46	8854.25
484.64	8861.27
484.82	8667.00
485.00	8674.03
485.18	8985.32
485.35	9092.98
485.53	9273.20
485.71	9266.18
485.89	9280.22
486.07	9123.41
486.25	9437.04
486.43	9254.48
486.61	9305.97
486.78	9525.98
486.96	9570.45
487.14	9654.71
487.32	9530.66
487.50	9673.43
487.68	9568.11
487.85	10176.65
488.03	9926.21
488.21	10106.43
488.39	10300.70
488.57	10143.88
488.75	10216.44
488.92	10406.02
489.10	10497.30
489.28	10492.62
489.46	10431.77
489.64	10913.92
489.81	10745.40
489.99	10867.11
490.17	10747.74
490.35	11124.57
490.53	10906.90
490.70	11232.23
490.88	11187.76
491.06	11269.68
491.24	11260.32
491.41	11356.28
491.59	11550.54
491.77	11524.80
491.95	11707.36
492.13	11571.61
492.30	11847.79
492.48	11854.81
492.66	11779.92
492.84	11754.17
493.01	12067.80
493.19	12013.97
493.37	12201.21
493.54	12414.20
493.72	12191.85
493.90	12456.33
494.08	12580.38
494.25	12517.18
494.43	12435.27
494.61	12631.87
494.79	12599.10
494.96	12695.07
495.14	12823.80
495.32	12842.52
495.49	12947.84
495.67	12994.65
495.85	13235.73
496.02	13458.08
496.20	13259.13
496.38	13362.12
496.55	13465.10
496.73	13364.46
496.91	13500.21
497.09	13612.56
497.26	13610.22
497.44	13724.90
497.62	13792.78
497.79	14045.55
497.97	13935.55
498.14	13935.55
498.32	14200.03
498.50	14188.33
498.67	14185.99
498.85	14094.71
499.03	14443.45
499.20	14473.87
499.38	14338.12
499.56	14480.89
499.73	14670.48
499.91	14424.72
500.08	14614.30
500.26	14499.62
500.44	14843.68
500.61	14787.50
500.79	14633.03
500.97	15016.88
501.14	15185.40
501.32	14974.75
501.49	15094.11
501.67	15073.05
501.84	15414.77
502.02	14979.43
502.20	15531.80
502.37	15213.48
502.55	15218.16
502.72	15520.09
502.90	15386.68
503.07	15246.25
503.25	15543.50
503.43	15412.43
503.60	15695.63
503.78	15866.49
503.95	15602.01
504.13	15817.34
504.30	15770.53
504.48	15735.42
504.65	16259.70
504.83	16198.85
505.01	16011.60
505.18	16114.59
505.36	16180.12
505.53	16311.19
505.71	16397.79
505.88	16262.04
506.06	16067.78
506.23	16432.90
506.41	16449.28
506.58	16776.96
506.76	16620.14
506.93	16772.28
507.11	16482.05
507.28	16849.52
507.46	16877.60
507.63	17067.19
507.81	17289.54
507.98	16922.07
508.16	16863.56
508.33	16847.18
508.50	16858.88
508.68	17128.04
508.85	17366.78
509.03	17097.61
509.20	17345.71
509.38	17720.20
509.55	17465.08
509.73	17434.65
509.90	17678.07
510.08	17654.66
510.25	17521.25
510.42	17949.57
510.60	17813.82
510.77	17965.95
510.95	18085.32
511.12	17832.54
511.30	17811.48
511.47	18012.76
511.64	18104.04
511.82	18225.75
511.99	18129.79
512.17	18532.36
512.34	18438.74
512.51	18434.06
512.69	18417.68
512.86	18445.76
513.04	18532.36
513.21	18640.03
513.38	18808.54
513.56	18450.44
513.73	18389.59
513.90	19124.52
514.08	18607.26
514.25	18871.74
514.43	19049.62
514.60	19112.81
514.77	19009.83
514.95	19213.46
515.12	18888.12
515.29	19105.79
515.47	19381.98
515.64	19035.58
515.81	19346.87
515.99	19278.99
516.16	19793.91
516.33	19655.82
516.51	19648.80
516.68	19239.20
516.85	19609.01
517.03	19651.14
517.20	19482.62
517.37	19831.36
517.54	19571.56
517.72	19599.65
517.89	19704.97
518.06	19913.28
518.24	19875.83
518.41	20091.16
518.58	19929.66
518.75	20119.24
518.93	20280.74
519.10	20311.17
519.27	20376.70
519.45	19845.40
519.62	19999.88
519.79	20196.48
519.96	20287.76
520.14	20568.63
520.31	20451.60
520.48	20533.52
520.65	20397.77
520.83	20437.56
521.00	20587.35
521.17	20498.41
521.34	20491.39
521.52	20489.05
521.69	20688.00
521.86	20788.64
522.03	21137.38
522.20	20959.50
522.38	21090.57
522.55	20835.45
522.72	20910.35
522.89	21018.01
523.07	21376.11
523.24	21067.16
523.41	21188.87
523.58	20802.68
523.75	21195.89
523.92	21355.05
524.10	21195.89
524.27	21406.54
524.44	21352.71
524.61	21383.13
524.78	21359.73
524.96	21376.11
525.13	21362.07
525.30	21577.40
525.47	21991.67
525.64	21766.98
525.81	21717.83
525.98	22008.06
526.16	21834.86
526.33	21582.08
526.50	21699.11
526.67	21518.89
526.84	21689.74
527.01	21481.44
527.18	22036.14
527.36	22120.40
527.53	22345.09
527.70	22321.69
527.87	22384.88
528.04	22174.24
528.21	21841.88
528.38	22113.38
528.55	22448.08
528.72	22359.14
528.89	22588.51
529.07	22548.72
529.24	22427.01
529.41	22522.98
529.58	22548.72
529.75	22429.35
529.92	22649.36
530.09	22771.07
530.26	22501.91
530.43	22768.73
530.60	22422.33
530.77	22827.24
530.94	22689.15
531.11	22630.64
531.28	22803.84
531.46	22494.89
531.63	22728.94
531.80	22721.92
531.97	23171.30
532.14	23044.91
532.31	23164.28
532.48	22799.16
532.65	23056.62
532.82	22860.01
532.99	23143.22
533.16	22813.20
533.33	23264.92
533.50	23407.70
533.67	23330.46
533.84	22911.50
534.01	23082.36
534.18	23157.26
534.35	23136.20
534.52	23103.43
534.69	23981.13
534.86	23445.15
535.03	23527.06
535.20	23714.31
535.37	23491.96
535.54	23843.04
535.71	23295.35
535.88	23379.61
536.05	23618.35
536.22	23527.06
536.38	23337.48
536.55	23847.72
536.72	23754.10
536.89	23323.44
537.06	23906.23
537.23	23910.91
537.40	23597.28
537.57	23569.19
537.74	23976.45
537.91	24231.57
538.08	23939.00
538.25	24231.57
538.42	23627.71
538.59	24329.87
538.75	24002.19
538.92	23833.68
539.09	24276.04
539.26	24006.87
539.43	24137.94
539.60	24250.29
539.77	24334.55
539.94	24322.85
540.11	24334.55
540.28	23929.64
540.44	24290.08
540.61	24512.43
540.78	24240.93
540.95	24346.25
541.12	24119.22
541.29	24245.61
541.46	24442.21
541.62	24369.66
541.79	24624.78
541.96	24051.34
542.13	24369.66
542.30	24713.72
542.47	24645.84
542.63	24793.29
542.80	24886.92
542.97	25003.94
543.14	24936.07
543.31	24723.08
543.48	25015.65
543.64	25177.14
543.81	25053.09
543.98	25376.09
544.15	24732.44
544.32	25039.05
544.48	25315.23
544.65	25025.01
544.82	24943.09
544.99	24966.49
545.16	25193.53
545.32	25013.31
545.49	25465.03
545.66	25500.14
545.83	25172.46
546.00	25584.40
546.16	25284.81
546.33	25198.21
546.50	25458.01
546.67	25317.57
546.83	25369.07
547.00	25289.49
547.17	25219.27
547.34	25418.22
547.50	25502.48
547.67	25479.07
547.84	25614.82
548.00	25535.24
548.17	25490.77
548.34	25675.68
548.51	26171.87
548.67	25635.89
548.84	25827.81
549.01	25523.54
549.18	25792.70
549.34	25701.42
549.51	25891.01
549.68	25621.84
549.84	25317.57
550.01	25764.62
550.18	25919.09
550.34	25937.82
550.51	25867.60
550.68	25914.41
550.84	25823.13
551.01	25811.43
551.18	25663.97
551.34	25851.22
551.51	25813.77
551.68	25841.85
551.84	26155.49
552.01	25619.50
552.18	26204.64
552.34	25645.25
552.51	25876.96
552.68	25837.17
552.84	25816.11
553.01	26003.35
553.18	25776.32
553.34	26562.74
553.51	26111.02
553.67	26307.62
553.84	26338.05
554.01	26541.68
554.17	26192.94
554.34	26115.70
554.51	26143.78
554.67	26331.03
554.84	26417.63
555.00	26288.90
555.17	26244.43
555.33	26197.62
555.50	26529.97
555.67	26263.15
555.83	26403.58
556.00	26141.44
556.16	26389.54
556.33	26237.41
556.50	26583.80
556.66	26536.99
556.83	26438.69
556.99	26630.62
557.16	26562.74
557.32	26340.39
557.49	26925.52
557.65	26363.79
557.82	26452.73
557.98	26295.92
558.15	26490.18
558.32	26370.82
558.48	26691.47
558.65	26834.24
558.81	26356.77
558.98	26623.59
559.14	26258.47
559.31	26527.63
559.47	26466.78
559.64	26382.52
559.80	27012.12
559.97	27360.86
560.13	26639.98
560.30	26913.82
560.46	26778.07
560.63	26621.25
560.79	26473.80
560.96	26588.49
561.12	26597.85
561.29	26700.83
561.45	26689.13
561.61	26864.67
561.78	27014.46
561.94	27087.02
562.11	26806.16
562.27	26707.85
562.44	26710.19
562.60	26565.08
562.77	26857.65
562.93	26558.06
563.10	26895.10
563.26	26838.92
563.42	27112.77
563.59	26881.05
563.75	26696.15
563.92	27136.17
564.08	26775.73
564.24	26754.66
564.41	26808.50
564.57	26794.45
564.74	26859.99
564.90	26892.76
565.07	27197.02
565.23	27232.13
565.39	27166.60
565.56	26979.36
565.72	26665.72
565.88	26937.23
566.05	26960.63
566.21	26948.93
566.38	26916.16
566.54	26773.39
566.70	26864.67
566.87	26911.48
567.03	27054.25
567.19	26962.97
567.36	27091.70
567.52	26595.51
567.68	26991.06
567.85	26892.76
568.01	26857.65
568.17	26911.48
568.34	27091.70
568.50	27154.90
568.66	26944.25
568.83	27227.45
568.99	26981.70
569.15	27143.19
569.32	27007.44
569.48	27063.61
569.64	26981.70
569.81	27115.11
569.97	27269.58
570.13	27171.28
570.30	27000.42
570.46	27206.39
570.62	27227.45
570.78	27166.60
570.95	26862.33
571.11	27253.20
571.27	27197.02
571.43	26991.06
571.60	26937.23
571.76	27220.43
571.92	27082.34
572.09	27527.04
572.25	27335.12
572.41	26939.57
572.57	27285.97
572.74	27295.33
572.90	27098.72
573.06	27171.28
573.22	27267.24
573.38	27271.92
573.55	27222.77
573.71	27206.39
573.87	27648.75
574.03	26979.36
574.20	26995.74
574.36	26909.14
574.52	27012.12
574.68	26710.19
574.84	27370.22
575.01	27278.94
575.17	27386.61
575.33	27026.17
575.49	27028.51
575.65	27583.21
575.82	27456.82
575.98	27180.64
576.14	27094.04
576.30	27187.66
576.46	26855.31
576.62	27110.43
576.79	27330.44
576.95	26969.99
577.11	27304.69
577.27	27133.83
577.43	26911.48
577.59	27145.53
577.75	27417.04
577.92	27328.10
578.08	27108.08
578.24	26977.01
578.40	27262.56
578.56	27552.79
578.72	27484.91
578.88	27527.04
579.04	27583.21
579.21	27211.07
579.37	27072.98
579.53	27267.24
579.69	27108.08
579.85	27068.30
580.01	27461.51
580.17	27061.27
580.33	27370.22
580.49	27232.13
580.65	27634.71
580.82	27463.85
580.98	27236.81
581.14	27379.59
581.30	27529.38
581.46	27274.26
581.62	26972.33
581.78	26967.65
581.94	27414.69
582.10	27208.73
582.26	26916.16
582.42	27161.92
582.58	27531.72
582.74	27147.87
582.90	27391.29
583.06	27154.90
583.22	27440.44
583.38	27475.55
583.54	27433.42
583.70	27082.34
583.86	27484.91
584.02	27131.49
584.18	27690.88
584.34	27655.77
584.50	27346.82
584.66	27318.73
584.82	27112.77
584.98	27295.33
585.14	27250.86
585.30	27077.66
585.46	27175.96
585.62	27206.39
585.78	27367.88
585.94	27234.47
586.10	27351.50
586.26	27147.87
586.42	27431.08
586.58	27288.31
586.74	27182.98
586.90	27222.77
587.06	27098.72
587.22	26930.20
587.38	26937.23
587.54	27335.12
587.70	27653.43
587.86	27445.12
588.02	27604.28
588.18	27005.10
588.34	27637.05
588.49	27634.71
588.65	27108.08
588.81	26857.65
588.97	27454.48
589.13	27150.21
589.29	27182.98
589.45	27655.77
589.61	27887.48
589.77	27679.18
589.93	27459.16
590.08	27527.04
590.24	27557.47
590.40	27274.26
590.56	27976.42
590.72	27384.27
590.88	27140.85
591.04	26953.61
591.20	27782.16
591.35	28058.34
591.51	27779.82
591.67	27655.77
591.83	27484.91
591.99	27494.27
