SpectraSuite Data File
++++++++++++++++++++++++++++++++++++
Date: Fri Oct 04 11:47:04 GMT-05:00 2013
User: price-jones
Dark Spectrum Present: No
Reference Spectrum Present: No
Number of Sampled Component Spectra: 1
Spectrometers: USB2+H05261
Integration Time (usec): 100000 (USB2+H05261)
Spectra Averaged: 1 (USB2+H05261)
Boxcar Smoothing: 0 (USB2+H05261)
Correct for Electrical Dark: No (USB2+H05261)
Strobe/Lamp Enabled: No (USB2+H05261)
Correct for Detector Non-linearity: No (USB2+H05261)
Correct for Stray Light: No (USB2+H05261)
Number of Pixels in Processed Spectrum: 2048
>>>>>Begin Processed Spectral Data<<<<<
365.73	0.00
365.92	0.00
366.12	0.00
366.32	0.00
366.52	0.00
366.72	0.00
366.91	0.00
367.11	0.00
367.31	0.00
367.51	0.00
367.70	0.00
367.90	0.00
368.10	0.00
368.30	0.00
368.49	0.00
368.69	0.00
368.89	0.00
369.09	0.00
369.28	0.00
369.48	0.00
369.68	0.00
369.87	0.00
370.07	0.00
370.27	37.45
370.47	0.00
370.66	9.36
370.86	0.00
371.06	72.56
371.25	126.39
371.45	25.75
371.65	63.19
371.84	2.34
372.04	67.88
372.24	53.83
372.44	110.01
372.63	93.62
372.83	135.75
373.03	117.03
373.22	44.47
373.42	25.75
373.62	112.35
373.81	105.32
374.01	189.58
374.21	56.17
374.40	117.03
374.60	203.63
374.79	112.35
374.99	107.66
375.19	110.01
375.38	65.54
375.58	161.50
375.78	88.94
375.97	126.39
376.17	159.16
376.37	114.69
376.56	117.03
376.76	60.85
376.95	84.26
377.15	138.09
377.35	112.35
377.54	119.37
377.74	53.83
377.93	46.81
378.13	110.01
378.33	70.22
378.52	39.79
378.72	124.05
378.91	135.75
379.11	98.30
379.31	131.07
379.50	98.30
379.70	177.88
379.89	91.28
380.09	30.43
380.28	0.00
380.48	86.60
380.68	79.58
380.87	74.90
381.07	95.96
381.26	114.69
381.46	131.07
381.65	86.60
381.85	63.19
382.04	7.02
382.24	58.51
382.43	121.71
382.63	128.73
382.83	119.37
383.02	100.64
383.22	159.16
383.41	67.88
383.61	168.52
383.80	67.88
384.00	56.17
384.19	30.43
384.39	159.16
384.58	114.69
384.78	112.35
384.97	60.85
385.17	77.24
385.36	95.96
385.56	133.41
385.75	46.81
385.95	51.49
386.14	126.39
386.34	77.24
386.53	0.00
386.72	138.09
386.92	88.94
387.11	128.73
387.31	110.01
387.50	58.51
387.70	142.77
387.89	208.31
388.09	119.37
388.28	105.32
388.48	135.75
388.67	112.35
388.86	74.90
389.06	23.41
389.25	91.28
389.45	70.22
389.64	84.26
389.84	173.20
390.03	51.49
390.22	102.98
390.42	46.81
390.61	95.96
390.81	140.43
391.00	70.22
391.19	117.03
391.39	93.62
391.58	93.62
391.78	91.28
391.97	93.62
392.16	128.73
392.36	114.69
392.55	168.52
392.75	32.77
392.94	56.17
393.13	161.50
393.33	112.35
393.52	110.01
393.71	112.35
393.91	98.30
394.10	72.56
394.29	147.45
394.49	147.45
394.68	95.96
394.88	63.19
395.07	93.62
395.26	60.85
395.46	51.49
395.65	114.69
395.84	147.45
396.04	210.65
396.23	81.92
396.42	152.13
396.62	152.13
396.81	126.39
397.00	124.05
397.19	119.37
397.39	156.82
397.58	107.66
397.77	86.60
397.97	60.85
398.16	67.88
398.35	58.51
398.55	112.35
398.74	110.01
398.93	105.32
399.12	79.58
399.32	110.01
399.51	131.07
399.70	138.09
399.90	32.77
400.09	114.69
400.28	98.30
400.47	70.22
400.67	114.69
400.86	173.20
401.05	93.62
401.24	124.05
401.44	133.41
401.63	133.41
401.82	182.56
402.01	81.92
402.21	128.73
402.40	102.98
402.59	98.30
402.78	81.92
402.97	124.05
403.17	187.24
403.36	95.96
403.55	53.83
403.74	79.58
403.93	147.45
404.13	110.01
404.32	159.16
404.51	105.32
404.70	135.75
404.89	77.24
405.09	147.45
405.28	72.56
405.47	114.69
405.66	133.41
405.85	81.92
406.05	98.30
406.24	67.88
406.43	135.75
406.62	84.26
406.81	107.66
407.00	100.64
407.20	107.66
407.39	142.77
407.58	56.17
407.77	81.92
407.96	124.05
408.15	212.99
408.34	128.73
408.54	147.45
408.73	110.01
408.92	117.03
409.11	159.16
409.30	170.86
409.49	81.92
409.68	51.49
409.87	95.96
410.07	49.15
410.26	131.07
410.45	159.16
410.64	58.51
410.83	147.45
411.02	70.22
411.21	142.77
411.40	88.94
411.59	135.75
411.78	128.73
411.98	42.13
412.17	84.26
412.36	168.52
412.55	128.73
412.74	180.22
412.93	152.13
413.12	133.41
413.31	133.41
413.50	201.29
413.69	84.26
413.88	119.37
414.07	102.98
414.26	105.32
414.45	110.01
414.64	133.41
414.83	107.66
415.02	126.39
415.22	100.64
415.41	187.24
415.60	191.92
415.79	170.86
415.98	128.73
416.17	140.43
416.36	67.88
416.55	121.71
416.74	93.62
416.93	159.16
417.12	149.79
417.31	128.73
417.50	208.31
417.69	248.10
417.88	191.92
418.07	170.86
418.26	163.84
418.45	93.62
418.64	243.42
418.83	212.99
419.02	255.12
419.21	234.05
419.39	112.35
419.58	163.84
419.77	222.35
419.96	147.45
420.15	135.75
420.34	159.16
420.53	58.51
420.72	84.26
420.91	124.05
421.10	93.62
421.29	152.13
421.48	70.22
421.67	65.54
421.86	72.56
422.05	112.35
422.24	124.05
422.43	131.07
422.61	63.19
422.80	100.64
422.99	77.24
423.18	100.64
423.37	114.69
423.56	161.50
423.75	98.30
423.94	112.35
424.13	117.03
424.32	114.69
424.50	173.20
424.69	102.98
424.88	135.75
425.07	117.03
425.26	88.94
425.45	208.31
425.64	215.33
425.83	215.33
426.01	198.95
426.20	145.11
426.39	102.98
426.58	107.66
426.77	133.41
426.96	133.41
427.15	98.30
427.33	91.28
427.52	67.88
427.71	133.41
427.90	37.45
428.09	135.75
428.28	189.58
428.46	102.98
428.65	138.09
428.84	189.58
429.03	227.03
429.22	138.09
429.40	110.01
429.59	84.26
429.78	166.18
429.97	102.98
430.16	124.05
430.34	117.03
430.53	180.22
430.72	100.64
430.91	133.41
431.10	72.56
431.28	152.13
431.47	135.75
431.66	175.54
431.85	100.64
432.03	128.73
432.22	187.24
432.41	107.66
432.60	196.60
432.79	201.29
432.97	252.78
433.16	234.05
433.35	177.88
433.54	170.86
433.72	184.90
433.91	140.43
434.10	170.86
434.28	262.14
434.47	175.54
434.66	138.09
434.85	74.90
435.03	156.82
435.22	114.69
435.41	234.05
435.59	93.62
435.78	100.64
435.97	147.45
436.16	119.37
436.34	112.35
436.53	114.69
436.72	133.41
436.90	110.01
437.09	131.07
437.28	161.50
437.46	126.39
437.65	187.24
437.84	124.05
438.02	187.24
438.21	152.13
438.40	133.41
438.58	77.24
438.77	142.77
438.96	145.11
439.14	119.37
439.33	201.29
439.52	208.31
439.70	95.96
439.89	133.41
440.08	114.69
440.26	128.73
440.45	166.18
440.63	112.35
440.82	147.45
441.01	145.11
441.19	147.45
441.38	175.54
441.57	91.28
441.75	231.71
441.94	112.35
442.12	152.13
442.31	140.43
442.50	140.43
442.68	51.49
442.87	133.41
443.05	135.75
443.24	117.03
443.43	187.24
443.61	110.01
443.80	161.50
443.98	67.88
444.17	163.84
444.35	152.13
444.54	105.32
444.73	117.03
444.91	128.73
445.10	107.66
445.28	154.48
445.47	121.71
445.65	88.94
445.84	117.03
446.02	196.60
446.21	210.65
446.39	114.69
446.58	119.37
446.77	182.56
446.95	168.52
447.14	124.05
447.32	126.39
447.51	145.11
447.69	198.95
447.88	168.52
448.06	154.48
448.25	145.11
448.43	131.07
448.62	180.22
448.80	121.71
448.99	154.48
449.17	173.20
449.36	145.11
449.54	196.60
449.73	60.85
449.91	138.09
450.10	119.37
450.28	205.97
450.46	173.20
450.65	156.82
450.83	142.77
451.02	98.30
451.20	203.63
451.39	107.66
451.57	121.71
451.76	166.18
451.94	215.33
452.13	147.45
452.31	156.82
452.49	140.43
452.68	93.62
452.86	154.48
453.05	180.22
453.23	138.09
453.42	88.94
453.60	175.54
453.78	231.71
453.97	166.18
454.15	147.45
454.34	119.37
454.52	32.77
454.70	110.01
454.89	128.73
455.07	128.73
455.26	138.09
455.44	86.60
455.62	98.30
455.81	107.66
455.99	210.65
456.17	182.56
456.36	145.11
456.54	166.18
456.73	205.97
456.91	184.90
457.09	180.22
457.28	145.11
457.46	126.39
457.64	184.90
457.83	84.26
458.01	124.05
458.19	121.71
458.38	133.41
458.56	86.60
458.74	56.17
458.93	152.13
459.11	93.62
459.29	72.56
459.48	128.73
459.66	182.56
459.84	145.11
460.03	222.35
460.21	196.60
460.39	110.01
460.57	205.97
460.76	191.92
460.94	201.29
461.12	107.66
461.31	198.95
461.49	182.56
461.67	135.75
461.85	170.86
462.04	63.19
462.22	526.62
462.40	191.92
462.59	166.18
462.77	138.09
462.95	114.69
463.13	124.05
463.32	110.01
463.50	168.52
463.68	182.56
463.86	154.48
464.05	191.92
464.23	166.18
464.41	175.54
464.59	49.15
464.78	95.96
464.96	72.56
465.14	126.39
465.32	145.11
465.50	250.44
465.69	147.45
465.87	156.82
466.05	210.65
466.23	119.37
466.41	149.79
466.60	79.58
466.78	84.26
466.96	175.54
467.14	156.82
467.32	112.35
467.51	77.24
467.69	117.03
467.87	168.52
468.05	112.35
468.23	212.99
468.41	191.92
468.60	189.58
468.78	95.96
468.96	140.43
469.14	182.56
469.32	84.26
469.50	161.50
469.69	236.39
469.87	189.58
470.05	187.24
470.23	145.11
470.41	149.79
470.59	84.26
470.77	182.56
470.95	98.30
471.14	203.63
471.32	152.13
471.50	187.24
471.68	74.90
471.86	95.96
472.04	86.60
472.22	124.05
472.40	224.69
472.58	77.24
472.77	126.39
472.95	100.64
473.13	180.22
473.31	140.43
473.49	163.84
473.67	86.60
473.85	203.63
474.03	152.13
474.21	138.09
474.39	177.88
474.57	159.16
474.75	135.75
474.93	135.75
475.12	72.56
475.30	105.32
475.48	102.98
475.66	147.45
475.84	180.22
476.02	149.79
476.20	154.48
476.38	107.66
476.56	217.67
476.74	81.92
476.92	210.65
477.10	147.45
477.28	121.71
477.46	107.66
477.64	149.79
477.82	201.29
478.00	147.45
478.18	149.79
478.36	56.17
478.54	138.09
478.72	133.41
478.90	145.11
479.08	128.73
479.26	175.54
479.44	196.60
479.62	138.09
479.80	98.30
479.98	67.88
480.16	163.84
480.34	194.26
480.52	170.86
480.70	194.26
480.88	84.26
481.06	168.52
481.24	110.01
481.41	154.48
481.59	145.11
481.77	135.75
481.95	145.11
482.13	173.20
482.31	180.22
482.49	63.19
482.67	124.05
482.85	147.45
483.03	205.97
483.21	173.20
483.39	107.66
483.57	140.43
483.74	163.84
483.92	156.82
484.10	105.32
484.28	198.95
484.46	184.90
484.64	189.58
484.82	173.20
485.00	224.69
485.18	180.22
485.35	119.37
485.53	201.29
485.71	191.92
485.89	145.11
486.07	145.11
486.25	177.88
486.43	177.88
486.61	210.65
486.78	208.31
486.96	224.69
487.14	126.39
487.32	163.84
487.50	173.20
487.68	180.22
487.85	86.60
488.03	273.84
488.21	152.13
488.39	119.37
488.57	168.52
488.75	215.33
488.92	491.51
489.10	184.90
489.28	201.29
489.46	234.05
489.64	110.01
489.81	250.44
489.99	210.65
490.17	194.26
490.35	217.67
490.53	126.39
490.70	168.52
490.88	135.75
491.06	152.13
491.24	168.52
491.41	215.33
491.59	147.45
491.77	105.32
491.95	154.48
492.13	177.88
492.30	212.99
492.48	217.67
492.66	133.41
492.84	112.35
493.01	180.22
493.19	128.73
493.37	229.37
493.54	98.30
493.72	191.92
493.90	88.94
494.08	208.31
494.25	198.95
494.43	177.88
494.61	166.18
494.79	152.13
494.96	187.24
495.14	175.54
495.32	133.41
495.49	154.48
495.67	147.45
495.85	182.56
496.02	138.09
496.20	166.18
496.38	173.20
496.55	234.05
496.73	205.97
496.91	163.84
497.09	173.20
497.26	161.50
497.44	180.22
497.62	194.26
497.79	93.62
497.97	149.79
498.14	217.67
498.32	229.37
498.50	245.76
498.67	133.41
498.85	236.39
499.03	222.35
499.20	177.88
499.38	201.29
499.56	184.90
499.73	229.37
499.91	205.97
500.08	220.01
500.26	201.29
500.44	138.09
500.61	201.29
500.79	243.42
500.97	173.20
501.14	245.76
501.32	191.92
501.49	241.08
501.67	177.88
501.84	198.95
502.02	145.11
502.20	208.31
502.37	147.45
502.55	210.65
502.72	154.48
502.90	259.80
503.07	149.79
503.25	220.01
503.43	191.92
503.60	208.31
503.78	173.20
503.95	198.95
504.13	182.56
504.30	245.76
504.48	208.31
504.65	238.73
504.83	175.54
505.01	142.77
505.18	154.48
505.36	138.09
505.53	212.99
505.71	231.71
505.88	187.24
506.06	212.99
506.23	163.84
506.41	212.99
506.58	243.42
506.76	159.16
506.93	187.24
507.11	243.42
507.28	79.58
507.46	245.76
507.63	189.58
507.81	264.48
507.98	234.05
508.16	210.65
508.33	147.45
508.50	180.22
508.68	227.03
508.85	175.54
509.03	229.37
509.20	227.03
509.38	241.08
509.55	187.24
509.73	257.46
509.90	238.73
510.08	187.24
510.25	224.69
510.42	248.10
510.60	198.95
510.77	191.92
510.95	208.31
511.12	222.35
511.30	346.40
511.47	255.12
511.64	306.61
511.82	182.56
511.99	245.76
512.17	131.07
512.34	175.54
512.51	166.18
512.69	194.26
512.86	184.90
513.04	215.33
513.21	175.54
513.38	222.35
513.56	194.26
513.73	131.07
513.90	205.97
514.08	205.97
514.25	238.73
514.43	229.37
514.60	203.63
514.77	245.76
514.95	250.44
515.12	175.54
515.29	229.37
515.47	243.42
515.64	210.65
515.81	156.82
515.99	215.33
516.16	191.92
516.33	140.43
516.51	126.39
516.68	140.43
516.85	124.05
517.03	168.52
517.20	201.29
517.37	201.29
517.54	229.37
517.72	152.13
517.89	224.69
518.06	191.92
518.24	224.69
518.41	264.48
518.58	163.84
518.75	196.60
518.93	266.82
519.10	259.80
519.27	208.31
519.45	255.12
519.62	264.48
519.79	231.71
519.96	210.65
520.14	290.23
520.31	287.89
520.48	266.82
520.65	205.97
520.83	222.35
521.00	215.33
521.17	138.09
521.34	166.18
521.52	241.08
521.69	255.12
521.86	203.63
522.03	203.63
522.20	252.78
522.38	238.73
522.55	203.63
522.72	140.43
522.89	290.23
523.07	266.82
523.24	297.25
523.41	175.54
523.58	191.92
523.75	238.73
523.92	163.84
524.10	177.88
524.27	170.86
524.44	227.03
524.61	231.71
524.78	238.73
524.96	215.33
525.13	222.35
525.30	248.10
525.47	271.50
525.64	182.56
525.81	189.58
525.98	152.13
526.16	70.22
526.33	194.26
526.50	147.45
526.67	156.82
526.84	161.50
527.01	217.67
527.18	231.71
527.36	212.99
527.53	187.24
527.70	168.52
527.87	215.33
528.04	245.76
528.21	187.24
528.38	124.05
528.55	194.26
528.72	224.69
528.89	224.69
529.07	182.56
529.24	189.58
529.41	224.69
529.58	220.01
529.75	163.84
529.92	205.97
530.09	287.89
530.26	259.80
530.43	166.18
530.60	166.18
530.77	238.73
530.94	187.24
531.11	241.08
531.28	203.63
531.46	168.52
531.63	250.44
531.80	191.92
531.97	222.35
532.14	283.20
532.31	229.37
532.48	304.27
532.65	332.36
532.82	437.68
532.99	351.08
533.16	318.31
533.33	208.31
533.50	280.86
533.67	332.36
533.84	407.25
534.01	423.64
534.18	369.80
534.35	292.57
534.52	262.14
534.69	287.89
534.86	215.33
535.03	243.42
535.20	175.54
535.37	236.39
535.54	210.65
535.71	182.56
535.88	276.18
536.05	180.22
536.22	269.16
536.38	215.33
536.55	208.31
536.72	236.39
536.89	234.05
537.06	175.54
537.23	201.29
537.40	231.71
537.57	205.97
537.74	212.99
537.91	203.63
538.08	259.80
538.25	205.97
538.42	121.71
538.59	231.71
538.75	205.97
538.92	227.03
539.09	264.48
539.26	241.08
539.43	575.77
539.60	1261.55
539.77	2059.67
539.94	1975.41
540.11	1242.82
540.28	875.36
540.44	545.34
540.61	236.39
540.78	234.05
540.95	208.31
541.12	287.89
541.29	175.54
541.46	276.18
541.62	191.92
541.79	154.48
541.96	264.48
542.13	248.10
542.30	191.92
542.47	152.13
542.63	227.03
542.80	170.86
542.97	243.42
543.14	175.54
543.31	133.41
543.48	177.88
543.64	241.08
543.81	222.35
543.98	159.16
544.15	222.35
544.32	161.50
544.48	189.58
544.65	180.22
544.82	170.86
544.99	161.50
545.16	217.67
545.32	248.10
545.49	271.50
545.66	201.29
545.83	170.86
546.00	210.65
546.16	224.69
546.33	203.63
546.50	201.29
546.67	227.03
546.83	234.05
547.00	236.39
547.17	205.97
547.34	100.64
547.50	194.26
547.67	201.29
547.84	180.22
548.00	224.69
548.17	194.26
548.34	234.05
548.51	269.16
548.67	227.03
548.84	196.60
549.01	264.48
549.18	166.18
549.34	250.44
549.51	217.67
549.68	180.22
549.84	210.65
550.01	191.92
550.18	229.37
550.34	203.63
550.51	238.73
550.68	243.42
550.84	198.95
551.01	236.39
551.18	175.54
551.34	154.48
551.51	194.26
551.68	215.33
551.84	212.99
552.01	203.63
552.18	203.63
552.34	243.42
552.51	182.56
552.68	220.01
552.84	196.60
553.01	182.56
553.18	238.73
553.34	234.05
553.51	189.58
553.67	222.35
553.84	294.91
554.01	238.73
554.17	205.97
554.34	208.31
554.51	318.31
554.67	238.73
554.84	189.58
555.00	306.61
555.17	217.67
555.33	248.10
555.50	212.99
555.67	231.71
555.83	269.16
556.00	262.14
556.16	418.96
556.33	212.99
556.50	266.82
556.66	191.92
556.83	255.12
556.99	191.92
557.16	201.29
557.32	187.24
557.49	180.22
557.65	184.90
557.82	198.95
557.98	201.29
558.15	114.69
558.32	182.56
558.48	217.67
558.65	264.48
558.81	212.99
558.98	215.33
559.14	149.79
559.31	201.29
559.47	234.05
559.64	152.13
559.80	250.44
559.97	170.86
560.13	156.82
560.30	191.92
560.46	173.20
560.63	201.29
560.79	224.69
560.96	205.97
561.12	159.16
561.29	259.80
561.45	278.52
561.61	191.92
561.78	292.57
561.94	191.92
562.11	252.78
562.27	224.69
562.44	201.29
562.60	189.58
562.77	238.73
562.93	301.93
563.10	227.03
563.26	149.79
563.42	231.71
563.59	208.31
563.75	210.65
563.92	194.26
564.08	173.20
564.24	205.97
564.41	245.76
564.57	102.98
564.74	182.56
564.90	208.31
565.07	280.86
565.23	234.05
565.39	292.57
565.56	358.10
565.72	248.10
565.88	266.82
566.05	196.60
566.21	205.97
566.38	238.73
566.54	236.39
566.70	187.24
566.87	173.20
567.03	128.73
567.19	147.45
567.36	224.69
567.52	159.16
567.68	231.71
567.85	222.35
568.01	252.78
568.17	234.05
568.34	203.63
568.50	250.44
568.66	271.50
568.83	299.59
568.99	208.31
569.15	283.20
569.32	266.82
569.48	248.10
569.64	140.43
569.81	255.12
569.97	222.35
570.13	147.45
570.30	266.82
570.46	152.13
570.62	231.71
570.78	227.03
570.95	215.33
571.11	248.10
571.27	229.37
571.43	168.52
571.60	208.31
571.76	102.98
571.92	175.54
572.09	203.63
572.25	201.29
572.41	264.48
572.57	243.42
572.74	191.92
572.90	245.76
573.06	234.05
573.22	131.07
573.38	220.01
573.55	168.52
573.71	257.46
573.87	212.99
574.03	166.18
574.20	229.37
574.36	271.50
574.52	358.10
574.68	353.42
574.84	414.27
575.01	325.33
575.17	266.82
575.33	227.03
575.49	245.76
575.65	283.20
575.82	388.53
575.98	741.95
576.14	992.39
576.30	868.34
576.46	678.76
576.62	507.90
576.79	423.64
576.95	379.17
577.11	259.80
577.27	330.02
577.43	269.16
577.59	269.16
577.75	262.14
577.92	224.69
578.08	248.10
578.24	201.29
578.40	322.99
578.56	292.57
578.72	313.63
578.88	344.06
579.04	278.52
579.21	273.84
579.37	264.48
579.53	278.52
579.69	334.70
579.85	285.55
580.01	390.87
580.17	383.85
580.33	393.21
580.49	402.57
580.65	393.21
580.82	299.59
580.98	365.12
581.14	332.36
581.30	470.45
581.46	587.47
581.62	706.84
581.78	805.14
581.94	699.82
582.10	538.32
582.26	507.90
582.42	458.74
582.58	437.68
582.74	477.47
582.90	400.23
583.06	531.30
583.22	505.56
583.38	528.96
583.54	594.50
583.70	681.10
583.86	889.40
584.02	964.30
584.18	1149.20
584.34	1540.07
584.50	4447.02
584.66	36182.34
584.82	65535.00
584.98	65535.00
585.14	65535.00
585.30	63384.05
585.46	41935.38
585.62	25563.33
585.78	11798.64
585.94	4718.52
586.10	2139.25
586.26	1369.21
586.42	1067.28
586.58	807.48
586.74	760.67
586.90	676.41
587.06	704.50
587.22	615.56
587.38	594.50
587.54	1600.93
587.70	5188.97
587.86	8126.34
588.02	9039.15
588.18	6132.20
588.34	3932.10
588.49	2492.67
588.65	1441.77
588.81	798.12
588.97	491.51
589.13	353.42
589.29	358.10
589.45	332.36
589.61	287.89
589.77	514.92
589.93	468.11
590.08	517.26
590.24	447.04
590.40	458.74
590.56	557.05
590.72	376.83
590.88	362.78
591.04	381.51
591.20	327.68
591.35	468.11
591.51	341.72
591.67	299.59
591.83	264.48
591.99	334.70
592.15	313.63
592.31	304.27
592.46	285.55
592.62	341.72
592.78	381.51
592.94	365.12
593.10	304.27
593.26	374.49
593.41	337.04
593.57	341.72
593.73	727.91
593.89	4243.39
594.05	10787.53
594.20	15477.96
594.36	14647.07
594.52	9516.62
594.68	5809.21
594.84	3882.95
594.99	2120.53
595.15	943.24
595.31	496.19
595.47	421.30
595.62	299.59
595.78	301.93
595.94	337.04
596.10	337.04
596.25	313.63
596.41	407.25
596.57	294.91
596.73	372.15
596.88	669.39
597.04	2045.63
597.20	3157.38
597.36	3674.64
597.51	2810.98
597.67	1769.44
597.83	1287.29
597.99	812.17
598.14	489.17
598.30	421.30
598.46	322.99
598.61	404.91
598.77	348.74
598.93	334.70
599.09	318.31
599.24	252.78
599.40	273.84
599.56	231.71
599.71	196.60
599.87	215.33
600.03	276.18
600.18	215.33
600.34	177.88
600.50	212.99
600.65	184.90
600.81	248.10
600.97	184.90
601.12	269.16
601.28	248.10
601.44	238.73
601.59	210.65
601.75	241.08
601.91	257.46
602.06	262.14
602.22	287.89
602.37	943.24
602.53	2408.41
602.69	3672.30
602.84	3817.41
603.00	2785.24
603.16	1790.51
603.31	1277.93
603.47	854.30
603.62	440.02
603.78	348.74
603.94	355.76
604.09	285.55
604.25	252.78
604.40	220.01
604.56	259.80
604.71	262.14
604.87	330.02
605.03	287.89
605.18	262.14
605.34	280.86
605.49	313.63
605.65	283.20
605.80	315.97
605.96	278.52
606.12	313.63
606.27	362.78
606.43	409.59
606.58	440.02
606.74	1217.08
606.89	5130.45
607.05	10148.56
607.20	13245.09
607.36	10939.66
607.51	7206.51
607.67	4521.92
607.82	3030.99
607.98	1584.54
608.13	816.85
608.29	573.43
608.44	528.96
608.60	496.19
608.75	706.84
608.91	1624.33
609.06	7992.93
609.22	17474.44
609.37	22860.01
609.53	19793.91
609.68	13018.06
609.84	8355.71
609.99	5432.38
610.15	2988.86
610.30	1301.34
610.46	702.16
610.61	561.73
610.76	414.27
610.92	468.11
611.07	320.65
611.23	379.17
611.38	318.31
611.54	325.33
611.69	294.91
