SpectraSuite Data File
++++++++++++++++++++++++++++++++++++
Date: Fri Oct 04 11:48:31 GMT-05:00 2013
User: price-jones
Dark Spectrum Present: No
Reference Spectrum Present: No
Number of Sampled Component Spectra: 1
Spectrometers: USB2+H05261
Integration Time (usec): 100000 (USB2+H05261)
Spectra Averaged: 1 (USB2+H05261)
Boxcar Smoothing: 0 (USB2+H05261)
Correct for Electrical Dark: No (USB2+H05261)
Strobe/Lamp Enabled: No (USB2+H05261)
Correct for Detector Non-linearity: No (USB2+H05261)
Correct for Stray Light: No (USB2+H05261)
Number of Pixels in Processed Spectrum: 2048
>>>>>Begin Processed Spectral Data<<<<<
365.73	39.79
365.92	39.79
366.12	39.79
366.32	0.00
366.52	0.00
366.72	0.00
366.91	0.00
367.11	0.00
367.31	0.00
367.51	0.00
367.70	0.00
367.90	0.00
368.10	0.00
368.30	0.00
368.49	0.00
368.69	0.00
368.89	0.00
369.09	0.00
369.28	0.00
369.48	0.00
369.68	0.00
369.87	0.00
370.07	16.38
370.27	0.00
370.47	168.52
370.66	372.15
370.86	447.04
371.06	538.32
371.25	498.53
371.45	435.34
371.65	526.62
371.84	589.82
372.04	479.81
372.24	552.37
372.44	561.73
372.63	514.92
372.83	643.65
373.03	596.84
373.22	564.07
373.42	557.05
373.62	599.18
373.81	554.71
374.01	643.65
374.21	631.94
374.40	662.37
374.60	685.78
374.79	737.27
374.99	657.69
375.19	634.29
375.38	617.90
375.58	683.44
375.78	732.59
375.97	697.48
376.17	748.97
376.37	718.54
376.56	737.27
376.76	617.90
376.95	683.44
377.15	664.71
377.35	690.46
377.54	678.76
377.74	662.37
377.93	681.10
378.13	643.65
378.33	786.42
378.52	699.82
378.72	755.99
378.91	758.33
379.11	823.87
379.31	765.36
379.50	706.84
379.70	856.64
379.89	978.34
380.09	826.21
380.28	882.38
380.48	751.31
380.68	835.57
380.87	805.14
381.07	851.96
381.26	861.32
381.46	830.89
381.65	758.33
381.85	936.21
382.04	748.97
382.24	889.40
382.43	856.64
382.63	880.04
382.83	917.49
383.02	903.45
383.22	978.34
383.41	943.24
383.61	889.40
383.80	983.02
384.00	959.62
384.19	936.21
384.39	1020.47
384.58	917.49
384.78	1011.11
384.97	954.94
385.17	1029.84
385.36	1034.52
385.56	994.73
385.75	842.59
385.95	1067.28
386.14	1025.15
386.34	959.62
386.53	1055.58
386.72	1046.22
386.92	1069.62
387.11	1121.12
387.31	1090.69
387.50	1090.69
387.70	1109.41
387.89	1055.58
388.09	1020.47
388.28	1144.52
388.48	1100.05
388.67	1212.40
388.86	1130.48
389.06	1212.40
389.25	1198.35
389.45	1125.80
389.64	1186.65
389.84	1207.72
390.03	1226.44
390.22	1245.16
390.42	1203.04
390.61	1184.31
390.81	1261.55
391.00	1280.27
391.19	1329.42
391.39	1355.17
391.58	1252.19
391.78	1238.14
391.97	1301.34
392.16	1359.85
392.36	1387.94
392.55	1322.40
392.75	1476.88
392.94	1331.76
393.13	1430.07
393.33	1371.55
393.52	1355.17
393.71	1528.37
393.91	1460.49
394.10	1439.43
394.29	1444.11
394.49	1444.11
394.68	1488.58
394.88	1385.60
395.07	1577.52
395.26	1563.48
395.46	1579.86
395.65	1584.54
395.84	1472.20
396.04	1680.50
396.23	1570.50
396.42	1577.52
396.62	1519.01
396.81	1568.16
397.00	1612.63
397.19	1589.22
397.39	1610.29
397.58	1729.66
397.77	1692.21
397.97	1785.83
398.16	1638.38
398.35	1750.72
398.55	1689.87
398.74	1760.08
398.93	1867.75
399.12	1806.89
399.32	1722.63
399.51	1778.81
399.70	1818.60
399.90	1755.40
400.09	1865.41
400.28	1963.71
400.47	1881.79
400.67	1930.94
400.86	2012.86
401.05	1900.52
401.24	1949.67
401.44	1881.79
401.63	2083.08
401.82	1994.14
402.01	1893.49
402.21	2019.88
402.40	2087.76
402.59	2090.10
402.78	2015.20
402.97	2195.42
403.17	2190.74
403.36	2165.00
403.55	2174.36
403.74	2153.29
403.93	2099.46
404.13	2293.72
404.32	2207.13
404.51	2331.17
404.70	2312.45
404.89	2239.89
405.09	2457.56
405.28	2349.90
405.47	2314.79
405.66	2319.47
405.85	2370.96
406.05	2333.51
406.24	2462.24
406.43	2459.90
406.62	2588.63
406.81	2541.82
407.00	2469.27
407.20	2359.26
407.39	2448.20
407.58	2576.93
407.77	2478.63
407.96	2768.85
408.15	2504.37
408.34	2597.99
408.54	2738.43
408.73	2712.68
408.92	2661.19
409.11	2670.55
409.30	2806.30
409.49	2649.49
409.68	2736.09
409.87	2834.39
410.07	2717.36
410.26	2839.07
410.45	2888.22
410.64	2939.71
410.83	2991.20
411.02	2988.86
411.21	3178.45
411.40	3042.70
411.59	3066.10
411.78	3112.91
411.98	3012.27
412.17	3190.15
412.36	3082.49
412.55	3171.43
412.74	3325.90
412.93	3363.35
413.12	3190.15
413.31	3414.84
413.50	3239.30
413.69	3325.90
413.88	3513.14
414.07	3508.46
414.26	3496.76
414.45	3475.70
414.64	3517.83
414.83	3611.45
415.02	3655.92
415.22	3691.02
415.41	3679.32
415.60	3782.31
415.79	3878.27
415.98	3854.86
416.17	3817.41
416.36	3852.52
416.55	3843.16
416.74	3829.12
416.93	3859.54
417.12	4014.02
417.31	4025.72
417.50	4070.19
417.69	4269.14
417.88	4035.08
418.07	4107.64
418.26	4245.73
418.45	4105.30
418.64	4301.90
418.83	4418.93
419.02	4215.30
419.21	4285.52
419.39	4304.25
419.58	4173.18
419.77	4327.65
419.96	4292.54
420.15	4421.27
420.34	4369.78
420.53	4341.69
420.72	4430.63
420.91	4578.09
421.10	4510.21
421.29	4664.69
421.48	4461.06
421.67	4589.79
421.86	4550.00
422.05	4753.63
422.24	4489.15
422.43	4667.03
422.61	4594.47
422.80	4706.82
422.99	4664.69
423.18	4681.07
423.37	4758.31
423.56	4774.69
423.75	4741.93
423.94	4575.75
424.13	4517.23
424.32	4545.32
424.50	4795.76
424.69	4809.80
424.88	4875.34
425.07	4844.91
425.26	4585.11
425.45	4791.08
425.64	4720.86
425.83	4908.10
426.01	4863.63
426.20	4830.87
426.39	5013.43
426.58	4884.70
426.77	4835.55
426.96	4870.65
427.15	4814.48
427.33	5053.22
427.52	4971.30
427.71	5090.67
427.90	5123.43
428.09	5027.47
428.28	5116.41
428.46	5121.09
428.65	5268.55
428.84	5404.30
429.03	5327.06
429.22	5060.24
429.40	5221.74
429.59	5320.04
429.78	5249.82
429.97	5291.95
430.16	5184.29
430.34	5434.72
430.53	5282.59
430.72	5511.96
430.91	5376.21
431.10	5357.49
431.28	5617.29
431.47	5727.29
431.66	5764.74
431.85	5540.05
432.03	5717.93
432.22	5717.93
432.41	5771.76
432.60	5830.27
432.79	5689.84
432.97	5556.43
433.16	5834.96
433.35	5624.31
433.54	5830.27
433.72	5891.13
433.91	5891.13
434.10	5923.90
434.28	5954.32
434.47	6066.67
434.66	5956.66
434.85	5956.66
435.03	5914.53
435.22	6090.07
435.41	6279.66
435.59	6150.93
435.78	6258.59
435.97	6204.76
436.16	6340.51
436.34	6342.85
436.53	6235.19
436.72	6347.53
436.90	6291.36
437.09	6441.15
437.28	6183.70
437.46	6471.58
437.65	6377.96
437.84	6586.27
438.02	6523.07
438.21	6619.04
438.40	6455.20
438.58	6656.48
438.77	6693.93
438.96	6808.62
439.14	6963.09
439.33	6986.50
439.52	7014.59
439.70	6995.86
439.89	7232.26
440.08	7272.04
440.26	7185.44
440.45	7096.50
440.63	7023.95
440.82	7255.66
441.01	7255.66
441.19	7276.73
441.38	7492.05
441.57	7529.50
441.75	7470.99
441.94	7719.09
442.12	7602.06
442.31	7772.92
442.50	8013.99
442.68	7728.45
442.87	7903.99
443.05	7875.90
443.24	8013.99
443.43	7782.28
443.61	7988.25
443.80	8170.81
443.98	7812.71
444.17	7716.75
444.35	7964.84
444.54	8315.92
444.73	8124.00
444.91	7934.42
445.10	8016.33
445.28	8093.57
445.47	7971.86
445.65	8208.26
445.84	8243.37
446.02	8407.20
446.21	8168.47
446.39	8163.79
446.58	8428.27
446.77	8449.33
446.95	8088.89
447.14	8142.72
447.32	8372.10
447.51	8189.53
447.69	8292.52
447.88	8360.39
448.06	8271.45
448.25	8231.66
448.43	8306.56
448.62	8098.25
448.80	8280.82
448.99	8283.16
449.17	8482.10
449.36	8388.48
449.54	8571.04
449.73	8671.68
449.91	8662.32
450.10	8538.27
450.28	9018.08
450.46	8947.87
450.65	8795.73
450.83	8961.91
451.02	9036.81
451.20	8910.42
451.39	8924.46
451.57	8917.44
451.76	8968.93
451.94	9200.65
452.13	9116.39
452.31	9062.55
452.49	8887.01
452.68	9144.47
452.86	8877.65
453.05	9439.38
453.23	9085.96
453.42	9320.01
453.60	8987.66
453.78	9355.12
453.97	9219.37
454.15	9165.54
454.34	9312.99
454.52	9490.87
454.70	9329.38
454.89	9565.77
455.07	9514.28
455.26	9444.06
455.44	9722.59
455.62	9760.03
455.81	9799.82
455.99	9738.97
456.17	9930.89
456.36	9645.35
456.54	9966.00
456.73	10122.82
456.91	10153.24
457.09	10094.73
457.28	10200.05
457.46	10029.20
457.64	10214.10
457.83	10277.29
458.01	10115.80
458.19	10424.75
458.38	10270.27
458.56	10567.52
458.74	10595.61
458.93	10303.04
459.11	10487.94
459.29	10520.71
459.48	10590.92
459.66	10616.67
459.84	10963.07
460.03	10752.42
460.21	10457.51
460.39	10878.81
460.57	10719.65
460.76	10829.66
460.94	11035.63
461.12	11063.71
461.31	10993.50
461.49	10895.19
461.67	10967.75
461.85	11272.02
462.04	11131.59
462.22	11681.61
462.40	11199.46
462.59	11119.89
462.77	11496.71
462.95	11510.75
463.13	11211.17
463.32	11428.84
463.50	11396.07
463.68	11562.25
463.86	11548.20
464.05	11307.13
464.23	11719.06
464.41	11707.36
464.59	11522.46
464.78	11908.65
464.96	11819.71
465.14	11485.01
465.32	12116.95
465.50	11983.54
465.69	11920.35
465.87	11782.26
466.05	12020.99
466.23	11728.42
466.41	12133.34
466.60	12116.95
466.78	11974.18
466.96	11995.25
467.14	11915.67
467.32	11903.96
467.51	12243.34
467.69	11997.59
467.87	12236.32
468.05	12283.13
468.23	12287.81
468.41	12187.17
468.60	12243.34
468.78	12315.90
468.96	12198.87
469.14	12554.63
469.32	12482.08
469.50	12285.47
469.69	12781.67
469.87	12849.54
470.05	12889.33
470.23	12996.99
470.41	12922.10
470.59	13001.68
470.77	13027.42
470.95	13074.23
471.14	13263.82
471.32	13231.05
471.50	13694.47
471.68	13476.80
471.86	13090.62
472.04	13472.12
472.22	13788.10
472.40	13331.69
472.58	13792.78
472.77	13635.96
472.95	13872.36
473.13	14469.19
473.31	13830.23
473.49	13940.23
473.67	14242.16
473.85	13909.80
474.03	14171.94
474.21	14356.85
474.39	14677.50
474.57	14691.54
474.75	14874.10
474.93	14572.18
475.12	14644.73
475.30	15016.88
475.48	14897.51
475.66	15040.28
475.84	14684.52
476.02	15321.15
476.20	15166.67
476.38	15538.82
476.56	15653.50
476.74	15737.76
476.92	15515.41
477.10	15508.39
477.28	15992.88
477.46	16121.61
477.64	16243.32
477.82	16166.08
478.00	16627.17
478.18	16844.84
478.36	16643.55
478.54	17083.57
478.72	16968.88
478.90	17198.26
479.08	17371.46
479.26	17186.55
479.44	17467.42
479.62	17598.49
479.80	17879.35
479.98	17762.33
480.16	18202.35
480.34	18075.96
480.52	18380.23
480.70	18157.88
480.88	18038.51
481.06	18429.38
481.24	18450.44
481.41	18640.03
481.59	18918.55
481.77	19286.01
481.95	19463.90
482.13	19496.66
482.31	19466.24
482.49	19779.87
482.67	20018.60
482.85	20343.94
483.03	20573.31
483.21	20332.23
483.39	20608.42
483.57	20547.56
483.74	20964.18
483.92	21149.08
484.10	21085.89
484.28	21462.71
484.46	21771.66
484.64	22111.04
484.82	21776.34
485.00	22085.30
485.18	22630.64
485.35	22822.56
485.53	22569.79
485.71	22848.31
485.89	23147.90
486.07	23346.84
486.25	23213.43
486.43	23330.46
486.61	23833.68
486.78	24180.07
486.96	24287.74
487.14	24372.00
487.32	24613.07
487.50	24615.41
487.68	24889.26
487.85	25219.27
488.03	25429.92
488.21	25769.30
488.39	25607.80
488.57	25713.13
488.75	25949.52
488.92	26534.65
489.10	26546.36
489.28	26511.25
489.46	27115.11
489.64	26492.52
489.81	27323.41
489.99	27456.82
490.17	27583.21
490.35	27709.60
490.53	27754.07
490.70	28339.21
490.88	27934.29
491.06	28409.42
491.24	28732.42
491.41	28540.49
491.59	29195.84
491.77	29479.05
491.95	29277.76
492.13	29898.00
492.30	30024.39
492.48	30338.02
492.66	30108.65
492.84	30307.60
493.01	30223.34
493.19	30672.72
493.37	30852.94
493.54	30998.06
493.72	31166.57
493.90	31503.61
494.08	31625.32
494.25	32381.31
494.43	32327.48
494.61	32070.02
494.79	32620.05
494.96	32292.37
495.14	32514.72
495.32	33003.89
495.49	33111.56
495.67	32659.84
495.85	33490.73
496.02	33706.05
496.20	33897.98
496.38	33266.03
496.55	34012.66
496.73	34721.85
496.91	34448.00
497.09	34967.60
497.26	34967.60
497.44	35082.29
497.62	35136.12
497.79	35522.31
497.97	35512.95
498.14	35587.85
498.32	36285.33
498.50	36334.48
498.67	36114.47
498.85	36102.76
499.03	36524.06
499.20	36615.34
499.38	37069.40
499.56	36797.90
499.73	37184.09
499.91	37172.39
500.08	37390.06
500.26	37312.82
500.44	37523.47
500.61	37699.01
500.79	37830.08
500.97	38213.93
501.14	38270.10
501.32	38651.61
501.49	38621.18
501.67	38602.46
501.84	38614.16
502.02	38792.04
502.20	38801.40
502.37	39091.63
502.55	38962.90
502.72	39569.10
502.90	39342.06
503.07	39292.91
503.25	39892.09
503.43	39814.85
503.60	40226.79
503.78	40168.27
503.95	40449.14
504.13	40194.02
504.30	40222.11
504.48	40074.65
504.65	40879.80
504.83	40680.85
505.01	41099.81
505.18	40921.93
505.36	41408.76
505.53	41352.58
505.71	41731.75
505.88	41233.22
506.06	41453.23
506.23	41858.14
506.41	41890.91
506.58	42080.49
506.76	42286.46
506.93	42478.38
507.11	42113.26
507.28	42656.26
507.46	42415.19
507.63	42733.50
507.81	42684.35
507.98	42595.41
508.16	43164.16
508.33	43168.84
508.50	42869.25
508.68	43208.63
508.85	44039.52
509.03	43484.81
509.20	43800.79
509.38	44421.03
509.55	44509.97
509.73	44179.95
509.90	44135.48
510.08	44212.72
510.25	44306.34
510.42	44573.16
510.60	45296.39
510.77	45191.06
510.95	45577.25
511.12	45193.40
511.30	45088.08
511.47	45518.74
511.64	45394.69
511.82	45923.65
511.99	45715.34
512.17	45514.06
512.34	45764.49
512.51	46146.00
512.69	46410.48
512.86	46351.97
513.04	46721.77
513.21	46717.09
513.38	46768.58
513.56	46878.59
513.73	46955.83
513.90	46670.28
514.08	47000.30
514.25	47091.58
514.43	47360.74
514.60	47206.26
514.77	47435.64
514.95	47419.25
515.12	47217.97
515.29	47643.94
515.47	47779.70
515.64	47885.02
515.81	47655.65
515.99	48086.31
516.16	48315.68
516.33	47995.03
516.51	48975.71
516.68	48196.31
516.85	48271.21
517.03	48699.53
517.20	48856.34
517.37	48704.21
517.54	49434.45
517.72	48779.10
517.89	48821.23
518.06	48790.81
518.24	49249.55
518.41	49099.76
518.58	49270.62
518.75	49443.82
518.93	49525.74
519.10	49233.17
519.27	49668.51
519.45	49790.22
519.62	49771.49
519.79	49488.29
519.96	50012.57
520.14	49855.75
520.31	49972.78
520.48	50326.20
520.65	50454.93
520.83	50246.62
521.00	50183.43
521.17	50457.27
521.34	50693.66
521.52	50810.69
521.69	50508.76
521.86	50794.31
522.03	51124.32
522.20	51159.43
522.38	50983.89
522.55	51058.79
522.72	51327.95
522.89	51185.18
523.07	51721.16
523.24	51341.99
523.41	51955.21
523.58	51257.73
523.75	51632.22
523.92	51887.34
524.10	51461.36
524.27	52032.45
524.44	52097.98
524.61	52236.08
524.78	52093.30
524.96	51976.28
525.13	52097.98
525.30	52004.36
525.47	52072.24
525.64	52329.70
525.81	52467.79
525.98	52568.43
526.16	52493.54
526.33	52486.51
526.50	53052.92
526.67	52676.10
526.84	52832.91
527.01	52734.61
527.18	52856.32
527.36	52912.49
527.53	53265.91
527.70	53151.23
527.87	53221.44
528.04	53127.82
528.21	53137.18
528.38	53099.73
528.55	53577.20
528.72	53261.23
528.89	53261.23
529.07	53436.77
529.24	53408.68
529.41	53677.85
529.58	53624.01
529.75	53682.53
529.92	53581.88
530.09	53544.44
530.26	53923.60
530.43	53670.82
530.60	53645.08
530.77	53827.64
530.94	54298.09
531.11	53621.67
531.28	54010.20
531.46	53834.66
531.63	54344.90
531.80	54349.58
531.97	54607.04
532.14	54466.61
532.31	54227.87
532.48	54344.90
532.65	54452.56
532.82	54183.40
532.99	54401.07
533.16	54234.89
533.33	54808.32
533.50	54915.99
533.67	54754.49
533.84	54600.02
534.01	54660.87
534.18	54808.32
534.35	54904.29
534.52	54784.92
534.69	55033.02
534.86	54787.26
535.03	54869.18
535.20	55337.29
535.37	55194.51
535.54	55231.96
535.71	55203.88
535.88	55309.20
536.05	55098.55
536.22	55393.46
536.38	55405.16
536.55	55739.86
536.72	55735.18
536.89	55676.66
537.06	55426.23
537.23	55545.59
537.40	55767.94
537.57	55517.51
537.74	55880.29
537.91	55997.32
538.08	56006.68
538.25	55835.82
538.42	55779.65
538.59	55920.08
538.75	55634.53
538.92	55739.86
539.09	56116.68
539.26	56044.13
539.43	56044.13
539.60	56046.47
539.77	56348.40
539.94	56257.12
540.11	56322.65
540.28	56161.15
540.44	56097.96
540.61	56149.45
540.78	56339.04
540.95	56549.68
541.12	56708.84
541.29	56479.47
541.46	56512.23
541.62	56332.01
541.79	56631.60
541.96	56240.73
542.13	56472.45
542.30	56640.96
542.47	56802.46
542.63	56779.06
542.80	56853.95
542.97	57066.94
543.14	57045.88
543.31	57214.40
543.48	56982.68
543.64	57263.55
543.81	57490.58
543.98	57298.65
544.15	57130.14
544.32	57495.26
544.48	57586.54
544.65	57272.91
544.82	57134.82
544.99	57113.75
545.16	57256.53
545.32	57408.66
545.49	57661.44
545.66	57729.31
545.83	57666.12
546.00	57785.49
546.16	57614.63
546.33	57338.44
546.50	57251.84
546.67	57509.30
546.83	57385.25
547.00	57642.71
547.17	57530.37
547.34	57607.61
547.50	57600.58
547.67	58082.73
547.84	57846.34
548.00	57993.79
548.17	58127.20
548.34	57813.57
548.51	58101.46
548.67	58265.30
548.84	58082.73
549.01	58033.58
549.18	57968.05
549.34	58094.44
549.51	57928.26
549.68	58054.65
549.84	58216.14
550.01	58129.54
550.18	58159.97
550.34	58225.51
550.51	58401.05
550.68	58379.98
550.84	58120.18
551.01	58321.47
551.18	58281.68
551.34	58131.89
551.51	58440.84
551.68	58398.71
551.84	58564.88
552.01	58504.03
552.18	58702.98
552.34	58567.23
552.51	58548.50
552.68	58424.45
552.84	58525.10
553.01	58567.23
553.18	58459.56
553.34	58674.89
553.51	58695.95
553.67	58824.68
553.84	59035.33
554.01	58995.54
554.17	58855.11
554.34	58930.01
554.51	58864.47
554.67	58955.75
554.84	58960.44
555.00	58983.84
555.17	58749.79
555.33	58843.41
555.50	58827.02
555.67	59011.93
555.83	58997.88
556.00	59047.04
556.16	59215.55
556.33	59093.85
556.50	59353.65
556.66	59166.40
556.83	58981.50
556.99	59405.14
557.16	59414.50
557.32	59405.14
557.49	59374.71
557.65	59096.19
557.82	59194.49
557.98	59302.15
558.15	59444.93
558.32	59421.52
558.48	59458.97
558.65	59524.50
558.81	59557.27
558.98	59416.84
559.14	59234.28
559.31	59484.72
559.47	59398.12
559.64	59550.25
559.80	59606.42
559.97	59742.17
560.13	59648.55
560.30	59433.22
560.46	59695.36
560.63	59608.76
560.79	59447.27
560.96	59760.90
561.12	59697.70
561.29	59316.20
561.45	59732.81
561.61	59833.46
561.78	59824.09
561.94	59779.62
562.11	59725.79
562.27	59674.30
562.44	59831.11
562.60	59744.51
562.77	59676.64
562.93	59812.39
563.10	59994.95
563.26	59751.54
563.42	60123.68
563.59	59821.75
563.75	59700.04
563.92	60058.15
564.08	60004.31
564.24	59838.14
564.41	59531.53
564.57	59814.73
564.74	60023.04
564.90	59971.55
565.07	60126.02
565.23	60186.88
565.39	59999.63
565.56	60292.20
565.72	59948.14
565.88	59985.59
566.05	59985.59
566.21	59945.80
566.38	59924.74
566.54	60252.41
566.70	60528.59
566.87	60392.84
567.03	59966.87
567.19	60413.91
567.36	60004.31
567.52	59959.84
567.68	60104.96
567.85	59714.09
568.01	60144.75
568.17	60111.98
568.34	60116.66
568.50	60299.22
568.66	60523.91
568.83	60514.55
568.99	60184.54
569.15	60210.28
569.32	60123.68
569.48	60221.98
569.64	60231.35
569.81	60203.26
569.97	60285.18
570.13	60402.21
570.30	60205.60
570.46	60434.97
570.62	60282.84
570.78	60149.43
570.95	60341.35
571.11	60339.01
571.27	60177.51
571.43	60247.73
571.60	60715.84
571.76	60514.55
571.92	60647.96
572.09	60554.34
572.25	60465.40
572.41	60322.63
572.57	60416.25
572.74	60535.62
572.90	60388.16
573.06	60540.30
573.22	60535.62
573.38	60563.70
573.55	60528.59
573.71	60631.58
573.87	60729.88
574.03	60388.16
574.20	60378.80
574.36	60355.39
574.52	60540.30
574.68	60470.08
574.84	60589.45
575.01	60605.83
575.17	60755.63
575.33	60643.28
575.49	60533.28
575.65	60893.72
575.82	60804.78
575.98	60364.76
576.14	60814.14
576.30	60788.39
576.46	60692.43
576.62	60395.18
576.79	60502.85
576.95	60444.33
577.11	60530.93
577.27	60580.09
577.43	60610.51
577.59	60640.94
577.75	60697.11
577.92	60505.19
578.08	60528.59
578.24	60566.04
578.40	60556.68
578.56	60493.49
578.72	60743.92
578.88	60938.19
579.04	60966.27
579.21	60603.49
579.37	60809.46
579.53	60793.07
579.69	60540.30
579.85	60832.86
580.01	60807.12
580.17	60458.38
580.33	60629.24
580.49	60828.18
580.65	60856.27
580.82	60814.14
580.98	60659.66
581.14	60748.60
581.30	60767.33
581.46	60643.28
581.62	60774.35
581.78	60570.72
581.94	60722.86
582.10	60846.91
582.26	60851.59
582.42	60853.93
582.58	60849.25
582.74	60830.52
582.90	60858.61
583.06	60788.39
583.22	60863.29
583.38	60774.35
583.54	60994.36
583.70	60832.86
583.86	60856.27
584.02	60753.29
584.18	60992.02
584.34	60956.91
584.50	60992.02
584.66	60783.71
584.82	60786.05
584.98	60816.48
585.14	60886.70
585.30	60640.94
585.46	60657.32
585.62	60676.05
585.78	60879.67
585.94	60516.89
586.10	60975.64
586.26	60870.31
586.42	61221.39
586.58	61193.31
586.74	60781.37
586.90	60942.87
587.06	60891.38
587.22	61064.58
587.38	60966.27
587.54	61160.54
587.70	61190.97
587.86	60954.57
588.02	60959.25
588.18	61127.77
588.34	60905.42
588.49	61113.73
588.65	61036.49
588.81	61055.21
588.97	61066.92
589.13	60900.74
