SpectraSuite Data File
++++++++++++++++++++++++++++++++++++
Date: Fri Oct 04 11:48:34 GMT-05:00 2013
User: price-jones
Dark Spectrum Present: No
Reference Spectrum Present: No
Number of Sampled Component Spectra: 1
Spectrometers: USB2+H05261
Integration Time (usec): 100000 (USB2+H05261)
Spectra Averaged: 1 (USB2+H05261)
Boxcar Smoothing: 0 (USB2+H05261)
Correct for Electrical Dark: No (USB2+H05261)
Strobe/Lamp Enabled: No (USB2+H05261)
Correct for Detector Non-linearity: No (USB2+H05261)
Correct for Stray Light: No (USB2+H05261)
Number of Pixels in Processed Spectrum: 2048
>>>>>Begin Processed Spectral Data<<<<<
365.73	7.02
365.92	7.02
366.12	7.02
366.32	0.00
366.52	0.00
366.72	0.00
366.91	0.00
367.11	0.00
367.31	0.00
367.51	0.00
367.70	0.00
367.90	0.00
368.10	0.00
368.30	0.00
368.49	0.00
368.69	0.00
368.89	28.09
369.09	0.00
369.28	18.72
369.48	49.15
369.68	0.00
369.87	0.00
370.07	51.49
370.27	63.19
370.47	140.43
370.66	383.85
370.86	411.93
371.06	503.22
371.25	507.90
371.45	573.43
371.65	599.18
371.84	503.22
372.04	461.09
372.24	608.54
372.44	601.52
372.63	615.56
372.83	650.67
373.03	573.43
373.22	601.52
373.42	671.73
373.62	627.26
373.81	669.39
374.01	713.86
374.21	657.69
374.40	760.67
374.60	732.59
374.79	613.22
374.99	697.48
375.19	676.41
375.38	704.50
375.58	727.91
375.78	716.20
375.97	730.25
376.17	819.19
376.37	667.05
376.56	748.97
376.76	739.61
376.95	671.73
377.15	833.23
377.35	734.93
377.54	781.74
377.74	805.14
377.93	753.65
378.13	844.93
378.33	863.66
378.52	772.38
378.72	858.98
378.91	870.68
379.11	725.57
379.31	802.80
379.50	763.01
379.70	964.30
379.89	940.90
380.09	854.30
380.28	795.78
380.48	898.77
380.68	905.79
380.87	940.90
381.07	940.90
381.26	887.06
381.46	945.58
381.65	973.66
381.85	903.45
382.04	919.83
382.24	903.45
382.43	917.49
382.63	894.08
382.83	950.26
383.02	985.37
383.22	1078.99
383.41	1015.79
383.61	957.28
383.80	940.90
384.00	1057.92
384.19	1090.69
384.39	999.41
384.58	1069.62
384.78	992.39
384.97	992.39
385.17	1160.91
385.36	1053.24
385.56	1039.20
385.75	1006.43
385.95	1135.16
386.14	1156.22
386.34	1125.80
386.53	1165.59
386.72	1198.35
386.92	1139.84
387.11	1069.62
387.31	1245.16
387.50	1142.18
387.70	1184.31
387.89	1235.80
388.09	1200.69
388.28	1289.64
388.48	1179.63
388.67	1266.23
388.86	1207.72
389.06	1341.13
389.25	1287.29
389.45	1268.57
389.64	1299.00
389.84	1453.47
390.03	1444.11
390.22	1390.28
390.42	1313.04
390.61	1343.47
390.81	1411.34
391.00	1430.07
391.19	1416.02
391.39	1378.58
391.58	1401.98
391.78	1458.15
391.97	1516.67
392.16	1423.05
392.36	1502.62
392.55	1495.60
392.75	1507.30
392.94	1467.52
393.13	1509.65
393.33	1467.52
393.52	1458.15
393.71	1502.62
393.91	1603.27
394.10	1558.80
394.29	1717.95
394.49	1640.72
394.68	1666.46
394.88	1614.97
395.07	1713.27
395.26	1755.40
395.46	1579.86
395.65	1788.17
395.84	1710.93
396.04	1778.81
396.23	1823.28
396.42	1774.13
396.62	1778.81
396.81	1746.04
397.00	1799.87
397.19	1886.47
397.39	1783.49
397.58	1837.32
397.77	1811.57
397.97	1888.81
398.16	1830.30
398.35	1926.26
398.55	1877.11
398.74	1930.94
398.93	1905.20
399.12	1919.24
399.32	1825.62
399.51	2010.52
399.70	2136.91
399.90	2010.52
400.09	2029.24
400.28	2136.91
400.47	2155.63
400.67	2106.48
400.86	2186.06
401.05	2101.80
401.24	2181.38
401.44	2298.41
401.63	2260.96
401.82	2176.70
402.01	2282.02
402.21	2176.70
402.40	2300.75
402.59	2260.96
402.78	2359.26
402.97	2249.25
403.17	2370.96
403.36	2260.96
403.55	2328.83
403.74	2394.37
403.93	2452.88
404.13	2544.16
404.32	2504.37
404.51	2424.80
404.70	2534.80
404.89	2525.44
405.09	2504.37
405.28	2480.97
405.47	2602.68
405.66	2675.23
405.85	2607.36
406.05	2658.85
406.24	2743.11
406.43	2761.83
406.62	2801.62
406.81	2920.99
407.00	2693.96
407.20	2855.45
407.39	2803.96
407.58	2834.39
407.77	2841.41
407.96	2834.39
408.15	2963.12
408.34	2956.10
408.54	2977.16
408.73	2998.23
408.92	2935.03
409.11	3077.80
409.30	3096.53
409.49	3084.83
409.68	3176.11
409.87	3180.79
410.07	3344.63
410.26	3300.16
410.45	3358.67
410.64	3199.51
410.83	3318.88
411.02	3379.73
411.21	3578.68
411.40	3466.33
411.59	3494.42
411.78	3478.04
411.98	3379.73
412.17	3538.89
412.36	3517.83
412.55	3620.81
412.74	3684.00
412.93	3646.55
413.12	3611.45
413.31	3798.69
413.50	3599.74
413.69	3796.35
413.88	3904.01
414.07	3840.82
414.26	3847.84
414.45	3922.74
414.64	3997.64
414.83	4210.62
415.02	4208.28
415.22	4086.58
415.41	4161.47
415.60	4243.39
415.79	4147.43
415.98	4372.12
416.17	4238.71
416.36	4322.97
416.55	4461.06
416.74	4388.50
416.93	4407.23
417.12	4505.53
417.31	4531.28
417.50	4421.27
417.69	4748.95
417.88	4737.24
418.07	4669.37
418.26	4681.07
418.45	4865.97
418.64	4828.53
418.83	4863.63
419.02	4718.52
419.21	4931.51
419.39	4849.59
419.58	4753.63
419.77	4844.91
419.96	4943.21
420.15	5067.26
420.34	5013.43
420.53	4978.32
420.72	5109.39
420.91	5121.09
421.10	5231.10
421.29	5266.21
421.48	5135.14
421.67	5226.42
421.86	5153.86
422.05	5324.72
422.24	5277.91
422.43	5214.71
422.61	5366.85
422.80	5336.42
422.99	5357.49
423.18	5317.70
423.37	5427.70
423.56	5577.50
423.75	5256.84
423.94	5212.37
424.13	4966.62
424.32	5165.56
424.50	5444.09
424.69	5628.99
424.88	5493.24
425.07	5448.77
425.26	5392.59
425.45	5434.72
425.64	5481.53
425.83	5434.72
426.01	5645.37
426.20	5467.49
426.39	5729.63
426.58	5577.50
426.77	5434.72
426.96	5568.13
427.15	5771.76
427.33	5666.44
427.52	5692.18
427.71	5820.91
427.90	5687.50
428.09	5771.76
428.28	5891.13
428.46	5809.21
428.65	5844.32
428.84	6029.22
429.03	6052.63
429.22	5813.89
429.40	6036.24
429.59	6092.41
429.78	5933.26
429.97	5863.04
430.16	6047.94
430.34	6171.99
430.53	6113.48
430.72	6221.14
430.91	6085.39
431.10	6230.51
431.28	6368.60
431.47	6424.77
431.66	6478.60
431.85	6230.51
432.03	6504.35
432.22	6614.35
432.41	6525.41
432.60	6516.05
432.79	6490.31
432.97	6546.48
433.16	6476.26
433.35	6562.86
433.54	6768.83
433.72	6707.98
433.91	6628.40
434.10	6637.76
434.28	6862.45
434.47	6722.02
434.66	6949.05
434.85	6855.43
435.03	7014.59
435.22	6843.73
435.41	7159.70
435.59	7087.14
435.78	7033.31
435.97	7117.57
436.16	7148.00
436.34	7101.19
436.53	7220.55
436.72	7349.28
436.90	7119.91
437.09	7323.54
437.28	7260.34
437.46	7201.83
437.65	7470.99
437.84	7290.77
438.02	7555.25
438.21	7431.20
438.40	7623.12
438.58	7651.21
438.77	7648.87
438.96	7632.49
439.14	7906.33
439.33	7817.39
439.52	8037.40
439.70	7868.88
439.89	8035.06
440.08	8018.68
440.26	8173.15
440.45	8266.77
440.63	8292.52
440.82	8514.87
441.01	8266.77
441.19	8547.64
441.38	8554.66
441.57	8517.21
441.75	8737.22
441.94	9081.28
442.12	8713.81
442.31	8840.20
442.50	8936.17
442.68	8727.86
442.87	8961.91
443.05	8793.39
443.24	9039.15
443.43	9071.92
443.61	8924.46
443.80	9570.45
443.98	8957.23
444.17	8837.86
444.35	9270.86
444.54	9287.25
444.73	9291.93
444.91	9128.09
445.10	9177.24
445.28	9240.44
445.47	9095.32
445.65	9357.46
445.84	9624.28
446.02	9558.75
446.21	9465.13
446.39	9465.13
446.58	9369.16
446.77	9650.03
446.95	9324.69
447.14	9315.33
447.32	9544.70
447.51	9504.92
447.69	9434.70
447.88	9525.98
448.06	9479.17
448.25	9469.81
448.43	9448.74
448.62	9437.04
448.80	9671.09
448.99	9678.12
449.17	9893.44
449.36	9624.28
449.54	10026.86
449.73	10008.13
449.91	10054.94
450.10	9797.48
450.28	9893.44
450.46	9998.77
450.65	9933.23
450.83	10066.64
451.02	10068.98
451.20	10274.95
451.39	10195.37
451.57	10064.30
451.76	10272.61
451.94	10296.02
452.13	10391.98
452.31	10024.51
452.49	10352.19
452.68	10450.49
452.86	10434.11
453.05	10389.64
453.23	10684.55
453.42	10478.58
453.60	10211.76
453.78	10499.64
453.97	10256.23
454.15	10513.69
454.34	10483.26
454.52	10808.59
454.70	10707.95
454.89	10736.04
455.07	10724.33
455.26	10876.47
455.44	11019.24
455.62	11187.76
455.81	11211.17
455.99	11061.37
456.17	11087.12
456.36	11126.91
456.54	11162.01
456.73	11330.53
456.91	11562.25
457.09	11620.76
457.28	11824.39
457.46	11571.61
457.64	11779.92
457.83	11592.67
458.01	11356.28
458.19	11967.16
458.38	11927.37
458.56	11964.82
458.74	11885.24
458.93	11800.98
459.11	12004.61
459.29	11995.25
459.48	12074.82
459.66	12091.21
459.84	12170.79
460.03	12245.68
460.21	12283.13
460.39	12365.05
460.57	12037.38
460.76	12416.54
460.94	12758.26
461.12	12472.71
461.31	12446.97
461.49	12468.03
461.67	12519.53
461.85	12915.08
462.04	12582.72
462.22	13085.94
462.40	12945.50
462.59	12671.66
462.77	13018.06
462.95	13032.10
463.13	12950.18
463.32	13088.28
463.50	13025.08
463.68	13303.60
463.86	13252.11
464.05	13200.62
464.23	13193.60
464.41	13291.90
464.59	13254.45
464.78	13823.20
464.96	13151.47
465.14	13158.49
465.32	13455.74
465.50	13640.64
465.69	13799.80
465.87	13568.09
466.05	13331.69
466.23	13638.30
466.41	13563.40
466.60	13905.12
466.78	13722.56
466.96	13832.57
467.14	13930.87
467.32	13839.59
467.51	14064.28
467.69	13720.22
467.87	13823.20
468.05	13977.68
468.23	13806.82
468.41	14183.65
468.60	14012.79
468.78	14520.68
468.96	14078.32
469.14	14207.05
469.32	14139.18
469.50	14258.54
469.69	14750.06
469.87	14661.12
470.05	14780.48
470.23	14644.73
470.41	14878.79
470.59	14885.81
470.77	14724.31
470.95	14754.74
471.14	15164.33
471.32	14750.06
471.50	15484.98
471.68	15405.41
471.86	15288.38
472.04	15192.42
472.22	15777.55
472.40	15154.97
472.58	15580.95
472.77	15611.37
472.95	15943.73
473.13	16348.64
473.31	15704.99
473.49	15639.46
473.67	16042.03
473.85	16049.05
474.03	16332.26
474.21	16175.44
474.39	16360.34
474.57	16580.36
474.75	16950.16
474.93	16826.11
475.12	16718.45
475.30	16898.67
475.48	16458.65
475.66	17095.27
475.84	17018.04
476.02	17191.23
476.20	17179.53
476.38	17343.37
476.56	17720.20
476.74	17806.80
476.92	17703.81
477.10	17879.35
477.28	18059.57
477.46	17851.27
477.64	18228.09
477.82	18593.22
478.00	19218.14
478.18	18857.70
478.36	19040.26
478.54	19225.16
478.72	19185.37
478.90	19676.88
479.08	19641.78
479.26	19838.38
479.44	19873.49
479.62	20311.17
479.80	20163.72
479.98	20545.22
480.16	20779.28
480.34	20788.64
480.52	21085.89
480.70	21102.27
480.88	20952.48
481.06	21233.34
481.24	21032.05
481.41	21394.84
481.59	21612.51
481.77	21659.32
481.95	21968.27
482.13	22143.81
482.31	22075.93
482.49	22672.77
482.67	22656.39
482.85	23028.53
483.03	23564.51
483.21	23777.50
483.39	23377.27
483.57	23517.70
483.74	23658.14
483.92	23866.44
484.10	23903.89
484.28	24388.38
484.46	24851.81
484.64	25359.70
484.82	24800.32
485.00	25298.85
485.18	25909.73
485.35	26099.31
485.53	25958.88
485.71	26082.93
485.89	26384.86
486.07	26209.32
486.25	26726.58
486.43	26621.25
486.61	27199.37
486.78	27522.36
486.96	27129.15
487.14	27700.24
487.32	27878.12
487.50	27601.94
487.68	28070.04
487.85	28584.96
488.03	28835.40
488.21	29186.48
488.39	29186.48
488.57	29570.33
488.75	29479.05
488.92	29727.14
489.10	30340.36
489.28	30010.35
489.46	30656.34
489.64	30539.31
489.81	31028.48
489.99	31339.77
490.17	31468.50
490.35	31775.11
490.53	31737.66
490.70	32252.58
490.88	31992.78
491.06	32716.01
491.24	32348.54
491.41	32823.67
491.59	32994.53
491.77	33230.93
491.95	33687.33
492.13	33626.48
492.30	33785.63
492.48	34059.48
492.66	33909.68
492.84	33755.21
493.01	34607.16
493.19	34656.31
493.37	34522.90
493.54	34923.13
493.72	35543.38
493.90	35559.76
494.08	35468.48
494.25	36163.62
494.43	36327.45
494.61	36507.68
494.79	36943.02
494.96	36439.80
495.14	37106.85
495.32	37720.07
495.49	37589.00
495.67	37450.91
495.85	38120.31
496.02	38260.74
496.20	37947.11
496.38	38057.11
496.55	38506.49
496.73	39328.02
496.91	38890.34
497.09	39028.43
497.26	39454.41
497.44	39398.24
497.62	39978.69
497.79	39714.21
497.97	40112.10
498.14	40364.88
498.32	40472.54
498.50	40868.09
498.67	41071.72
498.85	41083.42
499.03	41031.93
499.20	41558.55
499.38	41593.66
499.56	41830.05
499.73	42234.97
499.91	41947.08
500.08	42450.30
500.26	41750.48
500.44	42541.58
500.61	42534.56
500.79	42745.20
500.97	42925.42
501.14	43430.98
501.32	43206.29
501.49	43180.54
501.67	42873.93
501.84	43253.10
502.02	43604.18
502.20	43899.09
502.37	43810.15
502.55	44189.31
502.72	44341.45
502.90	44495.92
503.07	44191.65
503.25	44334.43
503.43	44772.11
503.60	44821.26
503.78	45392.35
503.95	45406.39
504.13	45165.32
504.30	45359.58
504.48	45167.66
504.65	46078.13
504.83	46134.30
505.01	46326.22
505.18	45984.51
505.36	46457.29
505.53	46354.31
505.71	46637.51
505.88	46358.99
506.06	46218.56
506.23	46848.16
506.41	46960.51
506.58	47428.62
506.76	47182.86
506.93	47318.61
507.11	47194.56
507.28	47412.23
507.46	47870.98
507.63	48137.80
507.81	48205.67
507.98	47618.20
508.16	47697.78
508.33	48034.81
508.50	48446.75
508.68	48699.53
508.85	48931.24
509.03	48633.99
509.20	49090.40
509.38	49343.17
509.55	49074.01
509.73	49001.46
509.90	49499.99
510.08	49085.72
510.25	49261.26
510.42	49497.65
510.60	49893.20
510.77	50026.61
510.95	50202.15
511.12	49855.75
511.30	49968.10
511.47	50361.31
511.64	50536.85
511.82	50555.57
511.99	50607.06
512.17	50810.69
512.34	50703.03
512.51	50869.20
512.69	50923.04
512.86	50913.67
513.04	51470.72
513.21	51625.20
513.38	51566.68
513.56	51391.14
513.73	51040.06
513.90	51599.45
514.08	51517.53
514.25	51728.18
514.43	51819.46
514.60	51840.53
514.77	52121.39
514.95	51997.34
515.12	51957.55
515.29	51966.91
515.47	52149.48
515.64	52540.35
515.81	52332.04
515.99	52575.45
516.16	52767.38
516.33	52978.03
516.51	52935.90
516.68	52914.83
516.85	52718.23
517.03	52980.37
517.20	53233.14
517.37	53443.79
517.54	52975.69
517.72	53389.96
517.89	53104.41
518.06	53694.23
518.24	53432.09
518.41	53343.15
518.58	53766.79
518.75	53872.11
518.93	53801.89
519.10	53900.20
519.27	54059.35
519.45	53801.89
519.62	53773.81
519.79	53930.62
519.96	53951.69
520.14	54192.76
520.31	54244.26
520.48	54766.20
520.65	54223.19
520.83	54286.39
521.00	54499.37
521.17	54450.22
521.34	54616.40
521.52	54541.50
521.69	54798.96
521.86	55136.00
522.03	55262.39
522.20	55121.96
522.38	55290.48
522.55	54993.23
522.72	55217.92
522.89	55334.95
523.07	55554.96
523.24	55309.20
523.41	55552.62
523.58	55199.19
523.75	55662.62
523.92	55374.73
524.10	55646.24
524.27	55606.45
524.44	55700.07
524.61	55861.57
524.78	55887.31
524.96	56023.06
525.13	56062.85
525.30	55847.52
525.47	55969.23
525.64	56261.80
525.81	56285.20
525.98	56495.85
526.16	56582.45
526.33	56341.38
526.50	56734.59
526.67	56355.42
526.84	56570.75
527.01	56484.15
527.18	56589.47
527.36	56587.13
527.53	56697.14
527.70	56942.89
527.87	56725.22
528.04	56718.20
528.21	56849.27
528.38	56842.25
528.55	57027.15
528.72	56858.63
528.89	57020.13
529.07	57212.06
529.24	57193.33
529.41	57160.56
529.58	57181.63
529.75	57015.45
529.92	57088.01
530.09	57301.00
530.26	57368.87
530.43	57607.61
530.60	57481.22
530.77	57602.92
530.94	57415.68
531.11	57368.87
531.28	57450.79
531.46	57528.03
531.63	57696.55
531.80	57600.58
531.97	57815.91
532.14	57804.21
532.31	57909.53
532.48	58012.52
532.65	58218.49
532.82	57769.10
532.99	58012.52
533.16	57783.15
533.33	58230.19
533.50	58471.26
533.67	58356.58
533.84	58117.84
534.01	58190.40
534.18	58202.10
534.35	58302.74
534.52	58499.35
534.69	58487.65
534.86	58646.80
535.03	58389.34
535.20	58436.16
535.37	58623.40
535.54	58791.92
535.71	58677.23
535.88	58550.84
536.05	58426.79
536.22	58721.70
536.38	58670.21
536.55	58791.92
536.72	58993.20
536.89	58782.55
537.06	58941.71
537.23	58855.11
537.40	58721.70
537.57	58904.26
537.74	59021.29
537.91	59283.43
538.08	59173.42
538.25	59245.98
538.42	59297.47
538.59	59355.99
538.75	59128.95
538.92	59119.59
539.09	59592.38
539.26	59253.00
539.43	59346.62
539.60	59484.72
539.77	59435.56
539.94	59774.94
540.11	59344.28
540.28	59547.91
540.44	59391.09
540.61	59400.46
540.78	59458.97
540.95	59646.21
541.12	59641.53
541.29	59728.13
541.46	59765.58
541.62	59489.40
541.79	59817.07
541.96	59482.37
542.13	59882.61
542.30	60037.08
542.47	59969.21
542.63	60093.25
542.80	59976.23
542.97	60133.04
543.14	60357.74
543.31	60224.32
543.48	60214.96
543.64	60568.38
543.81	60542.64
543.98	60523.91
544.15	60624.56
544.32	60451.36
544.48	60701.79
544.65	60441.99
544.82	60247.73
544.99	60409.23
545.16	60535.62
545.32	60580.09
545.49	60732.22
545.66	60935.85
545.83	60891.38
546.00	60945.21
546.16	60603.49
546.33	60381.14
546.50	60488.80
546.67	60699.45
546.83	60399.86
547.00	60687.75
547.17	60844.57
547.34	60739.24
547.50	61148.84
547.67	61226.07
547.84	61057.56
548.00	60952.23
548.17	61158.20
548.34	60942.87
548.51	61146.50
548.67	61209.69
548.84	61141.81
549.01	61123.09
549.18	61006.06
549.34	61134.79
549.51	61076.28
549.68	61139.47
549.84	61125.43
550.01	61396.93
550.18	61293.95
550.34	61581.84
550.51	61347.78
550.68	61464.81
550.84	61197.99
551.01	61490.55
551.18	61272.88
551.34	61307.99
551.51	61422.68
551.68	61656.73
551.84	61457.79
552.01	61439.06
552.18	61670.78
552.34	61464.81
552.51	61780.78
552.68	61630.99
552.84	61729.29
553.01	61635.67
553.18	61640.35
553.34	61930.58
553.51	61755.03
553.67	62005.47
553.84	62047.60
554.01	61984.41
554.17	61953.98
554.34	61895.47
554.51	61698.86
554.67	62017.17
554.84	61916.53
555.00	62026.54
555.17	62038.24
555.33	62040.58
555.50	61865.04
555.67	62141.22
555.83	62003.13
556.00	62045.26
556.16	62344.85
556.33	62134.20
556.50	62108.46
556.66	62183.35
556.83	62171.65
556.99	62405.70
557.16	62267.61
557.32	62349.53
557.49	62431.45
557.65	62110.80
557.82	62136.54
557.98	62286.34
558.15	62213.78
558.32	62365.91
558.48	62473.58
558.65	62695.93
558.81	62506.35
558.98	62611.67
559.14	62461.88
559.31	62316.76
559.47	62492.30
559.64	62602.31
559.80	62688.91
559.97	62637.42
560.13	62663.16
560.30	62475.92
560.46	62681.89
560.63	62461.88
560.79	62899.56
560.96	62674.87
561.12	62564.86
561.29	62588.27
561.45	62709.97
561.61	62784.87
561.78	62925.30
561.94	62749.76
562.11	62717.00
562.27	62822.32
562.44	62653.80
562.60	62717.00
562.77	62700.61
562.93	62630.40
563.10	63084.46
563.26	62878.49
563.42	63091.48
563.59	62955.73
563.75	62810.62
563.92	63103.18
564.08	62693.59
564.24	62759.12
564.41	62838.70
564.57	62780.19
564.74	62983.82
564.90	62808.28
565.07	63114.89
565.23	62871.47
565.39	63016.58
565.56	62969.77
565.72	63070.42
565.88	63119.57
566.05	62976.79
566.21	62937.01
566.38	63032.97
566.54	62920.62
566.70	63245.96
566.87	63117.23
567.03	63082.12
567.19	63269.36
567.36	63072.76
567.52	62892.54
567.68	63229.57
567.85	62997.86
568.01	63065.73
568.17	63157.02
568.34	63159.36
568.50	63173.40
568.66	63304.47
568.83	63323.19
568.99	63285.75
569.15	63229.57
569.32	63075.10
569.48	63007.22
569.64	63238.93
569.81	63126.59
569.97	63267.02
570.13	63199.15
570.30	63302.13
570.46	63229.57
570.62	63032.97
570.78	63117.23
570.95	63215.53
571.11	63372.34
571.27	63262.34
571.43	63384.05
571.60	63267.02
571.76	63281.06
571.92	63449.58
572.09	63465.97
572.25	63571.29
572.41	63379.37
572.57	63271.70
572.74	63587.67
572.90	63599.38
573.06	63341.92
573.22	63510.44
573.38	63355.96
573.55	63433.20
573.71	63554.91
573.87	63557.25
574.03	63475.33
574.20	63435.54
574.36	63351.28
574.52	63669.59
574.68	63388.73
574.84	63465.97
575.01	63599.38
575.17	63590.01
575.33	63629.80
575.49	63423.84
575.65	63639.17
575.82	63781.94
575.98	63660.23
576.14	63501.07
576.30	63428.52
576.46	63515.12
576.62	63566.61
576.79	63554.91
576.95	63461.29
577.11	63442.56
577.27	63632.14
577.43	63639.17
577.59	63543.20
577.75	63613.42
577.92	63400.43
578.08	63482.35
578.24	63566.61
578.40	63585.33
578.56	63426.18
578.72	63587.67
578.88	63838.11
579.04	63819.39
579.21	63671.93
579.37	63564.27
579.53	63742.15
579.69	63482.35
579.85	63552.57
580.01	63564.27
580.17	63615.76
580.33	63582.99
580.49	63723.43
580.65	63676.61
580.82	63943.44
580.98	63793.64
581.14	63833.43
581.30	63936.41
581.46	63585.33
581.62	63758.53
581.78	63419.16
581.94	63625.12
582.10	63690.66
582.26	63674.27
582.42	63728.11
582.58	63728.11
582.74	63861.52
582.90	63807.68
583.06	63896.62
583.22	63622.78
583.38	63639.17
583.54	63978.54
583.70	63793.64
583.86	63938.75
584.02	63702.36
584.18	63898.97
584.34	63917.69
584.50	63934.07
584.66	63779.60
584.82	63414.47
584.98	63655.55
585.14	63814.71
585.30	63669.59
585.46	63821.73
585.62	63580.65
585.78	63716.40
585.94	63641.51
586.10	63861.52
586.26	63693.00
586.42	63852.15
586.58	63962.16
586.74	63838.11
586.90	63702.36
587.06	63667.25
587.22	63941.10
587.38	63882.58
587.54	63976.20
587.70	63927.05
587.86	63866.20
588.02	64025.35
588.18	64095.57
588.34	63994.93
588.49	63891.94
588.65	63894.28
