SpectraSuite Data File
++++++++++++++++++++++++++++++++++++
Date: Fri Oct 04 11:48:42 GMT-05:00 2013
User: price-jones
Dark Spectrum Present: No
Reference Spectrum Present: No
Number of Sampled Component Spectra: 1
Spectrometers: USB2+H05261
Integration Time (usec): 100000 (USB2+H05261)
Spectra Averaged: 1 (USB2+H05261)
Boxcar Smoothing: 0 (USB2+H05261)
Correct for Electrical Dark: No (USB2+H05261)
Strobe/Lamp Enabled: No (USB2+H05261)
Correct for Detector Non-linearity: No (USB2+H05261)
Correct for Stray Light: No (USB2+H05261)
Number of Pixels in Processed Spectrum: 2048
>>>>>Begin Processed Spectral Data<<<<<
365.73	60.85
365.92	60.85
366.12	60.85
366.32	0.00
366.52	0.00
366.72	0.00
366.91	0.00
367.11	0.00
367.31	0.00
367.51	0.00
367.70	0.00
367.90	0.00
368.10	0.00
368.30	0.00
368.49	0.00
368.69	0.00
368.89	0.00
369.09	0.00
369.28	0.00
369.48	0.00
369.68	0.00
369.87	0.00
370.07	18.72
370.27	7.02
370.47	11.70
370.66	86.60
370.86	51.49
371.06	93.62
371.25	65.54
371.45	100.64
371.65	131.07
371.84	119.37
372.04	74.90
372.24	98.30
372.44	100.64
372.63	184.90
372.83	175.54
373.03	138.09
373.22	124.05
373.42	191.92
373.62	142.77
373.81	215.33
374.01	220.01
374.21	133.41
374.40	194.26
374.60	224.69
374.79	173.20
374.99	189.58
375.19	142.77
375.38	224.69
375.58	166.18
375.78	147.45
375.97	210.65
376.17	187.24
376.37	184.90
376.56	128.73
376.76	112.35
376.95	210.65
377.15	145.11
377.35	217.67
377.54	182.56
377.74	72.56
377.93	149.79
378.13	173.20
378.33	173.20
378.52	124.05
378.72	241.08
378.91	180.22
379.11	222.35
379.31	124.05
379.50	131.07
379.70	147.45
379.89	187.24
380.09	112.35
380.28	184.90
380.48	175.54
380.68	152.13
380.87	163.84
381.07	161.50
381.26	210.65
381.46	159.16
381.65	220.01
381.85	100.64
382.04	147.45
382.24	126.39
382.43	217.67
382.63	212.99
382.83	161.50
383.02	280.86
383.22	227.03
383.41	203.63
383.61	161.50
383.80	177.88
384.00	140.43
384.19	194.26
384.39	154.48
384.58	147.45
384.78	168.52
384.97	170.86
385.17	227.03
385.36	229.37
385.56	210.65
385.75	121.71
385.95	126.39
386.14	149.79
386.34	229.37
386.53	170.86
386.72	161.50
386.92	163.84
387.11	262.14
387.31	210.65
387.50	212.99
387.70	208.31
387.89	177.88
388.09	133.41
388.28	149.79
388.48	180.22
388.67	224.69
388.86	170.86
389.06	196.60
389.25	205.97
389.45	231.71
389.64	252.78
389.84	194.26
390.03	285.55
390.22	264.48
390.42	257.46
390.61	222.35
390.81	168.52
391.00	189.58
391.19	276.18
391.39	210.65
391.58	255.12
391.78	273.84
391.97	236.39
392.16	152.13
392.36	252.78
392.55	227.03
392.75	283.20
392.94	194.26
393.13	262.14
393.33	299.59
393.52	168.52
393.71	280.86
393.91	308.95
394.10	280.86
394.29	322.99
394.49	315.97
394.68	301.93
394.88	334.70
395.07	360.44
395.26	322.99
395.46	273.84
395.65	262.14
395.84	257.46
396.04	367.46
396.23	315.97
396.42	262.14
396.62	332.36
396.81	372.15
397.00	325.33
397.19	372.15
397.39	421.30
397.58	372.15
397.77	383.85
397.97	327.68
398.16	276.18
398.35	379.17
398.55	315.97
398.74	404.91
398.93	325.33
399.12	365.12
399.32	325.33
399.51	369.80
399.70	440.02
399.90	428.32
400.09	414.27
400.28	416.62
400.47	416.62
400.67	517.26
400.86	423.64
401.05	423.64
401.24	482.15
401.44	442.36
401.63	465.77
401.82	535.98
402.01	477.47
402.21	433.00
402.40	498.53
402.59	425.98
402.78	440.02
402.97	461.09
403.17	531.30
403.36	503.22
403.55	524.28
403.74	472.79
403.93	433.00
404.13	465.77
404.32	528.96
404.51	596.84
404.70	557.05
404.89	601.52
405.09	620.24
405.28	627.26
405.47	622.58
405.66	557.05
405.85	596.84
406.05	620.24
406.24	629.60
406.43	713.86
406.62	732.59
406.81	692.80
407.00	688.12
407.20	716.20
407.39	713.86
407.58	655.35
407.77	774.72
407.96	692.80
408.15	741.95
408.34	713.86
408.54	751.31
408.73	709.18
408.92	812.17
409.11	751.31
409.30	856.64
409.49	868.34
409.68	706.84
409.87	816.85
410.07	887.06
410.26	866.00
410.45	901.11
410.64	800.46
410.83	833.23
411.02	842.59
411.21	929.19
411.40	973.66
411.59	978.34
411.78	922.17
411.98	952.60
412.17	952.60
412.36	919.83
412.55	894.08
412.74	968.98
412.93	1034.52
413.12	952.60
413.31	1053.24
413.50	933.87
413.69	1071.97
413.88	1067.28
414.07	1174.95
414.26	1188.99
414.45	1186.65
414.64	1060.26
414.83	1146.86
415.02	1198.35
415.22	1219.42
415.41	1170.27
415.60	1210.06
415.79	1170.27
415.98	1296.66
416.17	1219.42
416.36	1259.21
416.55	1277.93
416.74	1329.42
416.93	1306.02
417.12	1343.47
417.31	1378.58
417.50	1331.76
417.69	1362.19
417.88	1399.64
418.07	1380.92
418.26	1430.07
418.45	1320.06
418.64	1490.92
418.83	1446.45
419.02	1472.20
419.21	1467.52
419.39	1437.09
419.58	1406.66
419.77	1483.90
419.96	1469.86
420.15	1542.41
420.34	1385.60
420.53	1521.35
420.72	1640.72
420.91	1507.30
421.10	1692.21
421.29	1523.69
421.48	1502.62
421.67	1633.69
421.86	1423.05
422.05	1586.88
422.24	1647.74
422.43	1551.78
422.61	1565.82
422.80	1671.14
422.99	1596.25
423.18	1661.78
423.37	1781.15
423.56	1589.22
423.75	1673.48
423.94	1650.08
424.13	1540.07
424.32	1621.99
424.50	1699.23
424.69	1652.42
424.88	1699.23
425.07	1640.72
425.26	1682.85
425.45	1650.08
425.64	1657.10
425.83	1659.44
426.01	1661.78
426.20	1715.61
426.39	1579.86
426.58	1743.70
426.77	1706.25
426.96	1729.66
427.15	1755.40
427.33	1741.36
427.52	1706.25
427.71	1753.06
427.90	1778.81
428.09	1717.95
428.28	1720.29
428.46	1811.57
428.65	1804.55
428.84	1856.04
429.03	1900.52
429.22	1785.83
429.40	1823.28
429.59	1799.87
429.78	1827.96
429.97	1769.44
430.16	1804.55
430.34	1724.97
430.53	1956.69
430.72	1783.49
430.91	1834.98
431.10	1935.62
431.28	1902.86
431.47	1998.82
431.66	1959.03
431.85	1905.20
432.03	1888.81
432.22	2076.06
432.41	1998.82
432.60	2136.91
432.79	2047.97
432.97	2045.63
433.16	2019.88
433.35	2043.29
433.54	2033.93
433.72	2010.52
433.91	2045.63
434.10	2064.35
434.28	2059.67
434.47	1987.11
434.66	2101.80
434.85	2118.18
435.03	2066.69
435.22	2176.70
435.41	2237.55
435.59	2143.93
435.78	2094.78
435.97	2101.80
436.16	2214.15
436.34	2115.84
436.53	2092.44
436.72	2314.79
436.90	2150.95
437.09	2237.55
437.28	2111.16
437.46	2256.28
437.65	2242.23
437.84	2286.70
438.02	2279.68
438.21	2246.91
438.40	2293.72
438.58	2462.24
438.77	2326.49
438.96	2513.74
439.14	2394.37
439.33	2331.17
439.52	2370.96
439.70	2455.22
439.89	2431.82
440.08	2370.96
440.26	2448.20
440.45	2473.95
440.63	2464.58
440.82	2462.24
441.01	2396.71
441.19	2485.65
441.38	2539.48
441.57	2605.02
441.75	2581.61
441.94	2560.55
442.12	2691.62
442.31	2616.72
442.50	2560.55
442.68	2555.86
442.87	2656.51
443.05	2710.34
443.24	2609.70
443.43	2782.90
443.61	2850.77
443.80	2747.79
443.98	2686.94
444.17	2729.06
444.35	2736.09
444.54	2736.09
444.73	2843.75
444.91	2780.56
445.10	2881.20
445.28	2628.42
445.47	2827.37
445.65	2698.64
445.84	2839.07
446.02	2752.47
446.21	2644.81
446.39	2745.45
446.58	2839.07
446.77	2761.83
446.95	2794.60
447.14	2775.88
447.32	2932.69
447.51	2808.64
447.69	2935.03
447.88	2871.84
448.06	2972.48
448.25	2825.03
448.43	2820.35
448.62	2850.77
448.80	2855.45
448.99	2920.99
449.17	2867.16
449.36	2906.95
449.54	2977.16
449.73	3030.99
449.91	3098.87
450.10	2939.71
450.28	2970.14
450.46	3045.04
450.65	3023.97
450.83	3089.51
451.02	3082.49
451.20	3148.02
451.39	3038.02
451.57	3068.44
451.76	3075.46
451.94	3124.62
452.13	3162.06
452.31	3045.04
452.49	3105.89
452.68	2958.44
452.86	3038.02
453.05	3225.26
453.23	3236.96
453.42	3159.72
453.60	3030.99
453.78	3075.46
453.97	3246.32
454.15	3185.47
454.34	3206.53
454.52	3110.57
454.70	3218.24
454.89	3295.47
455.07	3379.73
455.26	3222.92
455.44	3344.63
455.62	3258.03
455.81	3293.13
455.99	3353.99
456.17	3365.69
456.36	3384.41
456.54	3346.97
456.73	3365.69
456.91	3463.99
457.09	3382.07
457.28	3419.52
457.46	3379.73
457.64	3459.31
457.83	3508.46
458.01	3520.17
458.19	3389.10
458.38	3424.20
458.56	3548.25
458.74	3391.44
458.93	3482.72
459.11	3494.42
459.29	3555.27
459.48	3578.68
459.66	3702.73
459.84	3599.74
460.03	3829.12
460.21	3737.84
460.39	3744.86
460.57	3590.38
460.76	3695.71
460.94	3651.24
461.12	3723.79
461.31	3822.09
461.49	3604.42
461.67	3691.02
461.85	3808.05
462.04	3742.52
462.22	4287.86
462.40	3786.99
462.59	3882.95
462.77	3847.84
462.95	3920.40
463.13	3831.46
463.32	3927.42
463.50	3995.29
463.68	3777.62
463.86	3784.65
464.05	3831.46
464.23	3885.29
464.41	3999.98
464.59	3859.54
464.78	3997.64
464.96	4021.04
465.14	4063.17
465.32	4109.98
465.50	3896.99
465.69	4046.79
465.87	3904.01
466.05	3887.63
466.23	3997.64
466.41	3976.57
466.60	4149.77
466.78	4109.98
466.96	4135.73
467.14	4011.68
467.32	4077.21
467.51	4081.89
467.69	4009.34
467.87	4065.51
468.05	3992.95
468.23	4159.13
468.41	4241.05
468.60	4313.61
468.78	4217.65
468.96	4156.79
469.14	4215.30
469.32	4304.25
469.50	4320.63
469.69	4301.90
469.87	4329.99
470.05	4262.12
470.23	4255.09
470.41	4315.95
470.59	4320.63
470.77	4386.16
470.95	4416.59
471.14	4456.38
471.32	4337.01
471.50	4535.96
471.68	4367.44
471.86	4472.76
472.04	4542.98
472.22	4627.24
472.40	4552.34
472.58	4493.83
472.77	4510.21
472.95	4716.18
473.13	4767.67
473.31	4587.45
473.49	4854.27
473.67	4629.58
473.85	4781.71
474.03	5008.75
474.21	4744.27
474.39	4751.29
474.57	4980.66
474.75	4908.10
474.93	4905.76
475.12	4873.00
475.30	4922.15
475.48	4880.02
475.66	4901.08
475.84	4898.74
476.02	4968.96
476.20	5020.45
476.38	5256.84
476.56	5259.18
476.74	5128.11
476.92	5118.75
477.10	5247.48
477.28	5231.10
477.46	5193.65
477.64	5308.34
477.82	5526.00
478.00	5511.96
478.18	5441.75
478.36	5394.93
478.54	5518.98
478.72	5488.56
478.90	5612.60
479.08	5647.71
479.26	5647.71
479.44	5795.17
479.62	5753.04
479.80	5771.76
479.98	5678.14
480.16	6076.03
480.34	5937.94
480.52	5977.73
480.70	5977.73
480.88	5877.09
481.06	5989.43
481.24	6005.81
481.41	6228.17
481.59	6174.33
481.77	6410.73
481.95	6370.94
482.13	6310.08
482.31	6455.20
482.49	6483.28
482.67	6700.95
482.85	6602.65
483.03	6637.76
483.21	6558.18
483.39	6855.43
483.57	6869.47
483.74	6883.52
483.92	6951.39
484.10	6888.20
484.28	7136.29
484.46	7054.37
484.64	7274.38
484.82	7082.46
485.00	7218.21
485.18	7157.36
485.35	7384.39
485.53	7255.66
485.71	7253.32
485.89	7445.24
486.07	7396.09
486.25	7520.14
486.43	7578.65
486.61	7585.68
486.78	7611.42
486.96	7831.43
487.14	7847.82
487.32	7887.61
487.50	7859.52
487.68	7946.12
487.85	7995.27
488.03	8149.75
488.21	8105.28
488.39	8257.41
488.57	8498.49
488.75	8332.31
488.92	8564.02
489.10	8423.59
489.28	8765.31
489.46	8657.64
489.64	8718.50
489.81	8835.52
489.99	8746.58
490.17	8769.99
490.35	9163.20
490.53	9020.42
490.70	9132.77
490.88	9102.34
491.06	9142.13
491.24	9111.71
491.41	9568.11
491.59	9135.11
491.77	9233.41
491.95	9373.85
492.13	9504.92
492.30	9521.30
492.48	9441.72
492.66	9612.58
492.84	9741.31
493.01	9654.71
493.19	9785.78
493.37	9877.06
493.54	9949.62
493.72	9947.28
493.90	9863.02
494.08	10160.27
494.25	10279.63
494.43	10338.15
494.61	10462.19
494.79	10303.04
494.96	10459.85
495.14	10518.37
495.32	10471.56
495.49	10668.16
495.67	10553.48
495.85	10658.80
496.02	10796.89
496.20	10991.16
496.38	11059.03
496.55	10839.02
496.73	11171.38
496.91	11115.20
497.09	10923.28
497.26	11171.38
497.44	10874.13
497.62	11028.60
497.79	11363.30
497.97	11225.21
498.14	11360.96
498.32	11445.22
498.50	11218.19
498.67	11782.26
498.85	11353.94
499.03	11541.18
499.20	11639.48
499.38	11810.34
499.56	11815.02
499.73	11967.16
499.91	11765.87
500.08	11971.84
500.26	11690.98
500.44	11721.40
500.61	11864.18
500.79	11824.39
500.97	11971.84
501.14	12339.30
501.32	12231.64
501.49	12367.39
501.67	12138.02
501.84	12271.43
502.02	12379.09
502.20	12451.65
502.37	12533.57
502.55	12411.86
502.72	12486.76
502.90	12496.12
503.07	12582.72
503.25	12678.68
503.43	12500.80
503.60	12589.74
503.78	12769.96
503.95	12697.41
504.13	12599.10
504.30	13130.41
504.48	12886.99
504.65	12982.95
504.83	13050.83
505.01	13240.41
505.18	13156.15
505.36	13172.54
505.53	13043.81
505.71	13224.03
505.88	13434.68
506.06	13331.69
506.23	13488.51
506.41	13238.07
506.58	13591.49
506.76	13729.58
506.93	13752.99
507.11	13518.93
507.28	13455.74
507.46	13692.13
507.63	13774.05
507.81	13846.61
507.98	13764.69
508.16	13909.80
508.33	13870.01
508.50	13701.50
508.68	13968.32
508.85	13975.34
509.03	14202.37
509.20	14258.54
509.38	14108.75
509.55	14403.66
509.73	14274.93
509.90	14216.41
510.08	14368.55
510.25	14476.21
510.42	14424.72
510.60	14452.81
510.77	14670.48
510.95	14728.99
511.12	14523.02
511.30	14927.94
511.47	14415.36
511.64	14815.59
511.82	15049.64
511.99	14831.97
512.17	14906.87
512.34	14780.48
512.51	14958.36
512.69	14923.26
512.86	15279.02
513.04	15288.38
513.21	15267.31
513.38	15166.67
513.56	15309.44
513.73	15056.67
513.90	15297.74
514.08	15096.46
514.25	15225.18
514.43	15459.24
514.60	15433.49
514.77	15761.17
514.95	15658.18
515.12	15370.30
515.29	15590.31
515.47	15971.82
515.64	15747.12
515.81	15604.35
515.99	16020.97
516.16	15618.39
516.33	15672.23
516.51	16140.33
516.68	15967.13
516.85	15845.43
517.03	15981.18
517.20	16128.63
517.37	16339.28
517.54	16383.75
517.72	16039.69
517.89	16175.44
518.06	16318.22
518.24	16271.40
518.41	15981.18
518.58	16578.01
518.75	16175.44
518.93	16311.19
519.10	16250.34
519.27	16463.33
519.45	16491.41
519.62	16418.86
519.79	16451.63
519.96	16772.28
520.14	16816.75
520.31	16379.07
520.48	16823.77
520.65	16741.85
520.83	16896.33
521.00	16830.79
521.17	16699.72
521.34	17018.04
521.52	16940.80
521.69	17092.93
521.86	17015.69
522.03	17011.01
522.20	17109.32
522.38	16975.91
522.55	17111.66
522.72	17235.70
522.89	17057.82
523.07	17247.41
523.24	17577.42
523.41	17282.52
523.58	17364.43
523.75	17514.23
523.92	17406.56
524.10	17193.58
524.27	17425.29
524.44	17682.75
524.61	17783.39
524.78	17731.90
524.96	17851.27
525.13	17509.55
525.30	17600.83
525.47	17703.81
525.64	17579.76
525.81	17755.30
525.98	17717.86
526.16	17516.57
526.33	17928.50
526.50	17806.80
526.67	18010.42
526.84	17970.63
527.01	17792.75
527.18	18134.47
527.36	18141.49
527.53	18050.21
527.70	18097.02
527.87	18153.20
528.04	17898.08
528.21	18235.11
528.38	18373.21
528.55	18288.95
528.72	18125.11
528.89	18169.58
529.07	18136.81
529.24	17984.68
529.41	18403.63
529.58	18141.49
529.75	18141.49
529.92	18422.36
530.09	18504.28
530.26	18429.38
530.43	18455.12
530.60	18604.92
530.77	18525.34
530.94	18745.35
531.11	18595.56
531.28	18424.70
531.46	18787.48
531.63	18714.92
531.80	18551.09
531.97	19026.21
532.14	18794.50
532.31	18455.12
532.48	19075.37
532.65	18897.49
532.82	18656.41
532.99	18948.98
533.16	18815.57
533.33	18862.38
533.50	18904.51
533.67	19112.81
533.84	19089.41
534.01	19077.71
534.18	19101.11
534.35	19157.28
534.52	18845.99
534.69	19363.25
534.86	19042.60
535.03	19208.78
535.20	19161.97
535.37	19407.72
535.54	19426.45
535.71	19262.61
535.88	19302.40
536.05	19433.47
536.22	19241.54
536.38	19482.62
536.55	19403.04
536.72	19391.34
536.89	19131.54
537.06	19229.84
537.23	19407.72
537.40	19564.54
537.57	19576.24
537.74	19431.13
537.91	19826.68
538.08	19559.86
538.25	19726.04
538.42	19583.26
538.59	19620.71
538.75	19704.97
538.92	19428.79
539.09	19817.32
539.26	19871.15
539.43	19726.04
539.60	20034.99
539.77	19735.40
539.94	20058.39
540.11	19903.92
540.28	19747.10
540.44	20182.44
540.61	19749.44
540.78	19941.36
540.95	19850.08
541.12	19955.41
541.29	20245.63
541.46	20126.27
541.62	19910.94
541.79	20205.84
541.96	19758.80
542.13	20053.71
542.30	20187.12
542.47	20374.36
542.63	20105.20
542.80	20285.42
542.97	20512.46
543.14	20573.31
543.31	20402.45
543.48	20350.96
543.64	20762.89
543.81	20505.43
543.98	20798.00
544.15	20439.90
544.32	20741.83
544.48	20982.90
544.65	20582.67
544.82	20547.56
544.99	20430.54
545.16	20655.23
545.32	20236.27
545.49	20858.85
545.66	20861.19
545.83	21048.44
546.00	20624.80
546.16	21029.71
546.33	20388.41
546.50	20339.26
546.67	20613.10
546.83	20610.76
547.00	21120.99
547.17	20535.86
547.34	21202.91
547.50	21205.25
547.67	21231.00
547.84	20779.28
548.00	20954.82
548.17	21280.15
548.34	20814.38
548.51	21001.63
548.67	21390.16
548.84	21144.40
549.01	21120.99
549.18	20893.96
549.34	20992.26
549.51	20788.64
549.68	21120.99
549.84	21254.40
550.01	21429.94
550.18	21357.39
550.34	21460.37
550.51	21394.84
550.68	21174.83
550.84	21315.26
551.01	21434.63
551.18	21069.50
551.34	21069.50
551.51	21231.00
551.68	21331.64
551.84	21333.98
552.01	21282.49
552.18	21596.12
552.34	21687.40
552.51	21474.42
552.68	21315.26
552.84	21439.31
553.01	21626.55
553.18	21525.91
553.34	21759.96
553.51	21432.29
553.67	21607.83
553.84	21802.09
554.01	21673.36
554.17	21589.10
554.34	21476.76
554.51	21764.64
554.67	21589.10
554.84	21729.53
555.00	21528.25
555.17	21474.42
555.33	21544.63
555.50	21652.30
555.67	21582.08
555.83	21465.05
556.00	21860.60
556.16	21898.05
556.33	21774.00
556.50	21940.18
556.66	21900.39
556.83	21745.92
556.99	21579.74
557.16	22024.44
557.32	21839.54
557.49	21699.11
557.65	21568.04
557.82	21619.53
557.98	21720.17
558.15	21935.50
558.32	21776.34
558.48	21947.20
558.65	21930.82
558.81	21692.08
558.98	22162.53
559.14	21635.91
559.31	21935.50
559.47	21792.73
559.64	21921.46
559.80	21790.39
559.97	21942.52
560.13	21860.60
560.30	21867.63
560.46	22104.02
560.63	21823.16
560.79	21764.64
560.96	22085.30
561.12	22036.14
561.29	22188.28
561.45	21869.97
561.61	22092.32
561.78	22546.38
561.94	22146.15
562.11	21996.35
562.27	21884.01
562.44	22059.55
562.60	22092.32
562.77	21841.88
562.93	22089.98
563.10	22244.45
563.26	22174.24
563.42	22464.46
563.59	22153.17
563.75	22003.38
563.92	21977.63
564.08	21846.56
564.24	22057.21
564.41	22155.51
564.57	22277.22
564.74	22464.46
564.90	22073.59
565.07	22211.68
565.23	22326.37
565.39	21778.68
565.56	22089.98
565.72	21577.40
565.88	21977.63
566.05	22216.36
566.21	22162.53
566.38	22328.71
566.54	22087.64
566.70	22230.41
566.87	22354.46
567.03	22293.60
567.19	22424.67
567.36	22071.25
567.52	22050.19
567.68	22338.07
567.85	21809.11
568.01	22242.11
568.17	21963.59
568.34	22487.87
568.50	22410.63
568.66	21991.67
568.83	22518.29
568.99	22202.32
569.15	22181.26
569.32	22104.02
569.48	22207.00
569.64	22045.51
569.81	22525.32
569.97	22300.62
570.13	22478.50
570.30	22043.17
570.46	22192.96
570.62	22059.55
570.78	22026.78
570.95	22001.04
571.11	22408.29
571.27	22277.22
571.43	21930.82
571.60	22726.60
571.76	21991.67
571.92	22295.94
572.09	22136.79
572.25	22651.70
572.41	22225.73
572.57	22253.81
572.74	22565.10
572.90	22298.28
573.06	22099.34
573.22	22356.80
573.38	22445.74
573.55	22574.47
573.71	22417.65
573.87	22576.81
574.03	22309.99
574.20	22019.76
574.36	22230.41
574.52	22335.73
574.68	22340.41
574.84	22148.49
575.01	22487.87
575.17	22581.49
575.33	22235.09
575.49	22693.83
575.65	22265.52
575.82	22670.43
575.98	22419.99
576.14	22478.50
576.30	22335.73
576.46	22267.86
576.62	22546.38
576.79	22207.00
576.95	22532.34
577.11	22237.43
577.27	22214.02
577.43	22328.71
577.59	22197.64
577.75	22462.12
577.92	22155.51
578.08	22146.15
578.24	22427.01
578.40	22541.70
578.56	22572.13
578.72	22450.42
578.88	22242.11
579.04	22305.31
579.21	22281.90
579.37	22775.75
579.53	22125.08
579.69	22436.38
579.85	22157.85
580.01	22525.32
580.17	22675.11
580.33	22410.63
580.49	22579.15
580.65	22625.96
580.82	22544.04
580.98	22354.46
581.14	22305.31
581.30	22497.23
581.46	22473.82
581.62	22286.58
581.78	22251.47
581.94	22628.30
582.10	22129.77
582.26	22422.33
582.42	22431.69
582.58	22803.84
582.74	22654.05
582.90	22508.93
583.06	22656.39
583.22	22331.05
583.38	22232.75
583.54	22312.33
583.70	22417.65
583.86	22532.34
584.02	22466.80
584.18	22750.01
584.34	22724.26
584.50	22773.41
584.66	22462.12
584.82	22532.34
584.98	22796.82
585.14	22492.55
585.30	22515.95
585.46	22412.97
585.62	22244.45
585.78	22485.53
585.94	22436.38
586.10	22544.04
586.26	22422.33
586.42	22993.42
586.58	22892.78
586.74	22387.22
586.90	22499.57
587.06	22600.21
587.22	22717.24
587.38	22391.91
587.54	22265.52
587.70	22775.75
587.86	23035.55
588.02	22576.81
588.18	22773.41
588.34	22815.54
588.49	22544.04
588.65	22317.01
588.81	22754.69
588.97	22504.25
589.13	22522.98
589.29	22422.33
589.45	22670.43
589.61	22642.34
589.77	22415.31
589.93	22693.83
590.08	22963.00
590.24	22647.02
590.40	22611.92
590.56	22874.06
590.72	22443.40
590.88	22352.12
591.04	22771.07
591.20	22562.76
591.35	22721.92
591.51	23119.81
591.67	22775.75
591.83	22738.30
591.99	22878.74
592.15	22850.65
592.31	23117.47
592.46	22469.14
592.62	22614.26
