SpectraSuite Data File
++++++++++++++++++++++++++++++++++++
Date: Fri Oct 04 11:48:26 GMT-05:00 2013
User: price-jones
Dark Spectrum Present: No
Reference Spectrum Present: No
Number of Sampled Component Spectra: 1
Spectrometers: USB2+H05261
Integration Time (usec): 100000 (USB2+H05261)
Spectra Averaged: 1 (USB2+H05261)
Boxcar Smoothing: 0 (USB2+H05261)
Correct for Electrical Dark: No (USB2+H05261)
Strobe/Lamp Enabled: No (USB2+H05261)
Correct for Detector Non-linearity: No (USB2+H05261)
Correct for Stray Light: No (USB2+H05261)
Number of Pixels in Processed Spectrum: 2048
>>>>>Begin Processed Spectral Data<<<<<
365.73	9.36
365.92	9.36
366.12	9.36
366.32	0.00
366.52	0.00
366.72	0.00
366.91	0.00
367.11	0.00
367.31	0.00
367.51	0.00
367.70	0.00
367.90	0.00
368.10	0.00
368.30	0.00
368.49	0.00
368.69	0.00
368.89	0.00
369.09	0.00
369.28	0.00
369.48	0.00
369.68	0.00
369.87	0.00
370.07	0.00
370.27	49.15
370.47	124.05
370.66	280.86
370.86	318.31
371.06	381.51
371.25	451.72
371.45	334.70
371.65	482.15
371.84	322.99
372.04	330.02
372.24	425.98
372.44	353.42
372.63	482.15
372.83	514.92
373.03	514.92
373.22	472.79
373.42	418.96
373.62	440.02
373.81	524.28
374.01	620.24
374.21	489.17
374.40	500.87
374.60	550.03
374.79	470.45
374.99	526.62
375.19	519.60
375.38	564.07
375.58	615.56
375.78	580.45
375.97	629.60
376.17	676.41
376.37	503.22
376.56	543.00
376.76	514.92
376.95	585.13
377.15	641.31
377.35	683.44
377.54	493.85
377.74	573.43
377.93	603.86
378.13	533.64
378.33	655.35
378.52	578.11
378.72	683.44
378.91	617.90
379.11	585.13
379.31	643.65
379.50	674.07
379.70	638.97
379.89	653.01
380.09	624.92
380.28	685.78
380.48	657.69
380.68	578.11
380.87	629.60
381.07	706.84
381.26	599.18
381.46	641.31
381.65	692.80
381.85	720.88
382.04	711.52
382.24	751.31
382.43	727.91
382.63	751.31
382.83	734.93
383.02	688.12
383.22	725.57
383.41	718.54
383.61	774.72
383.80	713.86
384.00	866.00
384.19	786.42
384.39	763.01
384.58	774.72
384.78	800.46
384.97	784.08
385.17	816.85
385.36	844.93
385.56	814.51
385.75	835.57
385.95	866.00
386.14	758.33
386.34	786.42
386.53	800.46
386.72	858.98
386.92	851.96
387.11	856.64
387.31	929.19
387.50	823.87
387.70	903.45
387.89	910.47
388.09	887.06
388.28	896.43
388.48	924.51
388.67	926.85
388.86	868.34
389.06	856.64
389.25	933.87
389.45	870.68
389.64	999.41
389.84	940.90
390.03	987.71
390.22	929.19
390.42	961.96
390.61	1006.43
390.81	980.68
391.00	978.34
391.19	1027.50
391.39	1053.24
391.58	1074.31
391.78	1086.01
391.97	1015.79
392.16	1022.81
392.36	1146.86
392.55	1118.78
392.75	1088.35
392.94	1086.01
393.13	1060.26
393.33	1128.14
393.52	1139.84
393.71	1191.33
393.91	1130.48
394.10	1132.82
394.29	1069.62
394.49	1174.95
394.68	1242.82
394.88	1160.91
395.07	1193.67
395.26	1259.21
395.46	1214.74
395.65	1291.98
395.84	1324.74
396.04	1418.36
396.23	1310.70
396.42	1355.17
396.62	1355.17
396.81	1324.74
397.00	1371.55
397.19	1275.59
397.39	1317.72
397.58	1390.28
397.77	1306.02
397.97	1411.34
398.16	1371.55
398.35	1465.18
398.55	1488.58
398.74	1507.30
398.93	1547.09
399.12	1493.26
399.32	1364.53
399.51	1469.86
399.70	1519.01
399.90	1542.41
400.09	1493.26
400.28	1572.84
400.47	1556.46
400.67	1633.69
400.86	1568.16
401.05	1675.82
401.24	1654.76
401.44	1643.06
401.63	1645.40
401.82	1636.03
402.01	1591.56
402.21	1626.67
402.40	1736.68
402.59	1668.80
402.78	1696.89
402.97	1795.19
403.17	1778.81
403.36	1816.26
403.55	1724.97
403.74	1823.28
403.93	1856.04
404.13	1853.70
404.32	1846.68
404.51	1944.99
404.70	1954.35
404.89	1891.15
405.09	2057.33
405.28	2054.99
405.47	2054.99
405.66	2012.86
405.85	2064.35
406.05	2012.86
406.24	2125.21
406.43	2111.16
406.62	2193.08
406.81	2153.29
407.00	2094.78
407.20	2120.53
407.39	2202.44
407.58	2251.60
407.77	2211.81
407.96	2347.56
408.15	2338.20
408.34	2246.91
408.54	2289.04
408.73	2338.20
408.92	2368.62
409.11	2546.50
409.30	2317.13
409.49	2385.01
409.68	2534.80
409.87	2406.07
410.07	2469.27
410.26	2502.03
410.45	2525.44
410.64	2572.25
410.83	2691.62
411.02	2635.44
411.21	2668.21
411.40	2621.40
411.59	2764.17
411.78	2677.57
411.98	2801.62
412.17	2820.35
412.36	2712.68
412.55	2808.64
412.74	2848.43
412.93	2895.24
413.12	2869.50
413.31	3096.53
413.50	2874.18
413.69	3105.89
413.88	2972.48
414.07	3105.89
414.26	3045.04
414.45	3059.08
414.64	3077.80
414.83	3204.19
415.02	3169.09
415.22	3323.56
415.41	3267.39
415.60	3297.81
415.79	3396.12
415.98	3478.04
416.17	3487.40
416.36	3384.41
416.55	3433.57
416.74	3538.89
416.93	3531.87
417.12	3658.26
417.31	3632.51
417.50	3611.45
417.69	3667.62
417.88	3651.24
418.07	3674.64
418.26	3761.24
418.45	3866.56
418.64	3859.54
418.83	3864.22
419.02	3808.05
419.21	3894.65
419.39	3906.35
419.58	3866.56
419.77	3976.57
419.96	4070.19
420.15	4016.36
420.34	3976.57
420.53	3978.91
420.72	4051.47
420.91	4067.85
421.10	4072.53
421.29	4119.34
421.48	4156.79
421.67	4287.86
421.86	4315.95
422.05	4114.66
422.24	4159.13
422.43	4140.41
422.61	4262.12
422.80	4175.52
422.99	4318.29
423.18	4245.73
423.37	4311.27
423.56	4322.97
423.75	4339.35
423.94	4219.99
424.13	4194.24
424.32	4175.52
424.50	4388.50
424.69	4379.14
424.88	4369.78
425.07	4283.18
425.26	4299.56
425.45	4212.96
425.64	4449.36
425.83	4440.00
426.01	4414.25
426.20	4294.88
426.39	4435.32
426.58	4264.46
426.77	4416.59
426.96	4489.15
427.15	4423.61
427.33	4596.81
427.52	4557.02
427.71	4559.36
427.90	4592.13
428.09	4624.90
428.28	4669.37
428.46	4526.60
428.65	4739.58
428.84	4887.04
429.03	4849.59
429.22	4580.43
429.40	4823.84
429.59	4826.18
429.78	4678.73
429.97	4732.56
430.16	4667.03
430.34	4730.22
430.53	4940.87
430.72	5043.85
430.91	4863.63
431.10	4940.87
431.28	5001.72
431.47	5111.73
431.66	5060.24
431.85	5032.15
432.03	5233.44
432.22	5240.46
432.41	5200.67
432.60	5167.90
432.79	5179.61
432.97	5228.76
433.16	5315.36
433.35	5317.70
433.54	5451.11
433.72	5287.27
433.91	5308.34
434.10	5338.76
434.28	5441.75
434.47	5488.56
434.66	5448.77
434.85	5652.39
435.03	5621.97
435.22	5497.92
435.41	5654.73
435.59	5612.60
435.78	5645.37
435.97	5654.73
436.16	5823.25
436.34	5764.74
436.53	5795.17
436.72	5713.25
436.90	5722.61
437.09	5841.98
437.28	5734.31
437.46	5839.64
437.65	5816.23
437.84	5865.38
438.02	5884.11
438.21	6092.41
438.40	5870.06
438.58	5991.77
438.77	6211.78
438.96	6195.40
439.14	6246.89
439.33	6270.30
439.52	6384.98
439.70	6312.42
439.89	6530.09
440.08	6326.47
440.26	6497.33
440.45	6452.86
440.63	6663.51
440.82	6743.08
441.01	6541.80
441.19	6766.49
441.38	6860.11
441.57	6902.24
441.75	6827.34
441.94	6927.99
442.12	6960.75
442.31	7035.65
442.50	7052.03
442.68	7056.72
442.87	6876.49
443.05	7056.72
443.24	7272.04
443.43	7288.43
443.61	7215.87
443.80	7478.01
443.98	7063.74
444.17	6960.75
444.35	7220.55
444.54	7311.83
444.73	7297.79
444.91	7304.81
445.10	7382.05
445.28	7321.20
445.47	7503.76
445.65	7335.24
445.84	7250.98
446.02	7445.24
446.21	7426.52
446.39	7494.40
446.58	7576.31
446.77	7391.41
446.95	7398.43
447.14	7538.87
447.32	7555.25
447.51	7517.80
447.69	7478.01
447.88	7522.48
448.06	7508.44
448.25	7637.17
448.43	7581.00
448.62	7297.79
448.80	7522.48
448.99	7665.25
449.17	7604.40
449.36	7599.72
449.54	7789.30
449.73	7955.48
449.91	8013.99
450.10	7957.82
450.28	8028.04
450.46	7875.90
450.65	7894.63
450.83	7857.18
451.02	8156.77
451.20	8119.32
451.39	8159.11
451.57	8060.80
451.76	7992.93
451.94	8191.88
452.13	8138.04
452.31	8035.06
452.49	8046.76
452.68	8196.56
452.86	8245.71
453.05	8184.85
453.23	8416.57
453.42	8285.50
453.60	8112.30
453.78	8327.63
453.97	8107.62
454.15	8203.58
454.34	8308.90
454.52	8549.98
454.70	8631.90
454.89	8606.15
455.07	8561.68
455.26	8610.83
455.44	8741.90
455.62	8535.93
455.81	8690.41
455.99	8814.46
456.17	8748.92
456.36	8737.22
456.54	8903.40
456.73	8879.99
456.91	9015.74
457.09	9165.54
457.28	9289.59
457.46	8844.88
457.64	9261.50
457.83	9100.00
458.01	8961.91
458.19	9317.67
458.38	9235.75
458.56	9446.40
458.74	9525.98
458.93	9217.03
459.11	9373.85
459.29	9411.29
459.48	9596.20
459.66	9685.14
459.84	9652.37
460.03	9645.35
460.21	9776.42
460.39	9722.59
460.57	9614.92
460.76	9680.46
460.94	9687.48
461.12	9685.14
461.31	9774.08
461.49	9366.82
461.67	9621.94
461.85	10001.11
462.04	9914.51
462.22	10677.52
462.40	10099.41
462.59	10064.30
462.77	10127.50
462.95	10148.56
463.13	10270.27
463.32	10281.97
463.50	10260.91
463.68	10160.27
463.86	10466.88
464.05	10155.58
464.23	10204.74
464.41	10396.66
464.59	10099.41
464.78	10586.24
464.96	10630.71
465.14	10225.80
465.32	10588.58
465.50	10590.92
465.69	10614.33
465.87	10696.25
466.05	10757.10
466.23	10523.05
466.41	10761.78
466.60	10956.05
466.78	10750.08
466.96	10663.48
467.14	10932.64
467.32	10626.03
467.51	10754.76
467.69	10544.11
467.87	10953.71
468.05	10932.64
468.23	10705.61
468.41	10951.37
468.60	10899.87
468.78	11154.99
468.96	11028.60
469.14	11386.71
469.32	11005.20
469.50	10923.28
469.69	11480.33
469.87	11440.54
470.05	11433.52
470.23	11573.95
470.41	11365.64
470.59	11632.46
470.77	11323.51
470.95	11506.07
471.14	11761.19
471.32	11611.40
471.50	11943.75
471.68	11936.73
471.86	12018.65
472.04	12112.27
472.22	11829.07
472.40	12051.42
472.58	12219.94
472.77	12243.34
472.95	12259.73
473.13	12734.85
473.31	12439.95
473.49	12470.37
473.67	12425.90
473.85	12409.52
474.03	12554.63
474.21	12664.64
474.39	12732.51
474.57	12922.10
474.75	13011.04
474.93	13275.52
475.12	12929.12
475.30	13036.78
475.48	12954.87
475.66	13441.70
475.84	13582.13
476.02	13387.86
476.20	13366.80
476.38	13591.49
476.56	13844.27
476.74	13802.14
476.92	13785.76
477.10	13928.53
477.28	14256.20
477.46	14314.72
477.64	14043.21
477.82	14572.18
478.00	14897.51
478.18	14553.45
478.36	14839.00
478.54	14813.25
478.72	14705.59
478.90	15105.82
479.08	15283.70
479.26	15241.57
479.44	15405.41
479.62	15522.43
479.80	15740.10
479.98	15894.58
480.16	16006.92
480.34	16191.83
480.52	16400.13
480.70	16570.99
480.88	16257.36
481.06	16231.62
481.24	16343.96
481.41	16849.52
481.59	17003.99
481.77	16945.48
481.95	17212.30
482.13	17245.07
482.31	17294.22
482.49	17600.83
482.67	17348.05
482.85	17752.96
483.03	18207.03
483.21	18120.43
483.39	18368.52
483.57	18181.28
483.74	18410.65
483.92	18829.61
484.10	18663.43
484.28	19080.05
484.46	19000.47
484.64	19185.37
484.82	19098.77
485.00	19405.38
485.18	19800.93
485.35	19679.22
485.53	19857.10
485.71	20226.91
485.89	20299.47
486.07	20416.49
486.25	20362.66
486.43	20236.27
486.61	20800.34
486.78	20917.37
486.96	21078.86
487.14	21640.59
487.32	21245.04
487.50	21516.54
487.68	21788.05
487.85	22153.17
488.03	22349.78
488.21	22616.60
488.39	22291.26
488.57	22387.22
488.75	22916.19
488.92	23192.37
489.10	23274.29
489.28	23384.29
489.46	23618.35
489.64	23463.87
489.81	23941.34
489.99	24194.12
490.17	24346.25
490.35	24793.29
490.53	24568.60
490.70	24952.45
490.88	24854.15
491.06	25223.95
491.24	25008.62
491.41	25062.46
491.59	25326.94
491.77	25675.68
491.95	25598.44
492.13	26153.15
492.30	26291.24
492.48	26094.63
492.66	26314.64
492.84	26307.62
493.01	26717.22
493.19	26710.19
493.37	27246.18
493.54	26974.67
493.72	27215.75
493.90	27185.32
494.08	27798.54
494.25	27957.70
494.43	27608.96
494.61	28079.41
494.79	28638.80
494.96	28163.67
495.14	28245.58
495.32	28709.01
495.49	29097.54
495.67	29261.38
495.85	29333.93
496.02	29390.11
496.20	29308.19
496.38	29640.54
496.55	29546.92
496.73	30295.89
496.91	30274.83
497.09	30511.22
497.26	30389.52
497.44	30361.43
497.62	30539.31
497.79	30492.50
497.97	31007.42
498.14	31398.29
498.32	31917.89
498.50	31644.04
498.67	31896.82
498.85	31702.56
499.03	31840.65
499.20	32116.83
499.38	32285.35
499.56	32009.17
499.73	32491.32
499.91	32774.52
500.08	32863.46
500.26	32783.88
500.44	32879.85
500.61	32938.36
500.79	32568.55
500.97	33359.66
501.14	33624.14
501.32	33338.59
501.49	33088.15
501.67	33670.95
501.84	33785.63
502.02	34029.05
502.20	34204.59
502.37	34321.62
502.55	34024.37
502.72	34850.58
502.90	34541.63
503.07	34543.97
503.25	34497.16
503.43	34368.43
503.60	34707.80
503.78	35164.21
503.95	35028.46
504.13	35505.93
504.30	35379.54
504.48	35260.17
504.65	35686.15
504.83	35873.39
505.01	35913.18
505.18	35625.29
505.36	36095.74
505.53	36493.63
505.71	36355.54
505.88	35880.41
506.06	36257.24
506.23	36701.94
506.41	36975.78
506.58	37013.23
506.76	36795.56
506.93	36732.37
507.11	36622.36
507.28	37027.28
507.46	37516.45
507.63	37432.19
507.81	37610.07
507.98	37418.14
508.16	37425.17
508.33	37947.11
508.50	38132.01
508.68	38136.69
508.85	38466.70
509.03	38045.41
509.20	38600.12
509.38	38731.18
509.55	38836.51
509.73	38775.66
509.90	39267.17
510.08	38911.41
510.25	39096.31
510.42	38974.60
510.60	39831.24
510.77	39533.99
510.95	39573.78
511.12	39133.76
511.30	39782.09
511.47	39552.71
511.64	39625.27
511.82	39833.58
511.99	40458.50
512.17	40678.51
512.34	39985.71
512.51	40493.61
512.69	40341.47
512.86	40840.01
513.04	41338.54
513.21	41333.86
513.38	41050.66
513.56	41104.49
513.73	41041.29
513.90	41488.34
514.08	41088.10
514.25	41453.23
514.43	41656.85
514.60	41560.89
514.77	42003.25
514.95	41703.67
515.12	41638.13
515.29	41897.93
515.47	42019.64
515.64	42433.91
515.81	42085.17
515.99	42431.57
516.16	42742.86
516.33	42672.65
516.51	43208.63
516.68	42700.73
516.85	42478.38
517.03	43264.80
517.20	42890.32
517.37	42934.79
517.54	43653.33
517.72	43618.22
517.89	42848.19
518.06	43592.48
518.24	43365.45
518.41	43388.85
518.58	44100.37
518.75	43611.20
518.93	44287.62
519.10	43442.68
519.27	44458.48
519.45	43714.19
519.62	44210.38
519.79	44250.17
519.96	44215.06
520.14	44648.06
520.31	44208.04
520.48	44594.23
520.65	44278.25
520.83	44914.88
521.00	44872.75
521.17	44847.00
521.34	44748.70
521.52	44830.62
521.69	45022.54
521.86	46010.25
522.03	45434.48
522.20	45762.15
522.38	45954.08
522.55	45581.93
522.72	45425.12
522.89	45441.50
523.07	46080.47
523.24	45738.75
523.41	46183.45
523.58	45951.74
523.75	46241.96
523.92	46595.38
524.10	46358.99
524.27	46398.78
524.44	46660.92
524.61	46728.80
524.78	46866.89
524.96	46735.82
525.13	46892.63
525.30	46721.77
525.47	47391.17
525.64	47157.11
525.81	47023.70
525.98	47573.73
526.16	47398.19
526.33	47004.98
526.50	47299.89
526.67	47274.14
526.84	47351.38
527.01	47133.71
527.18	47899.06
527.36	47672.03
527.53	48083.97
527.70	48161.20
527.87	48266.53
528.04	47517.56
528.21	47709.48
528.38	47709.48
528.55	47941.19
528.72	48348.45
528.89	48067.58
529.07	48177.59
529.24	47901.40
529.41	48306.32
529.58	48406.96
529.75	47985.66
529.92	48657.40
530.09	48928.90
530.26	48339.08
530.43	48603.56
530.60	48584.84
530.77	48619.95
530.94	48999.12
531.11	48559.09
531.28	48863.36
531.46	48713.57
531.63	49127.84
531.80	48875.07
531.97	49366.58
532.14	49350.20
532.31	49443.82
532.48	49319.77
532.65	49748.09
532.82	49481.27
532.99	49689.57
533.16	49315.09
533.33	49904.90
533.50	49682.55
533.67	49720.00
533.84	49413.39
534.01	49876.82
534.18	49432.11
534.35	49886.18
534.52	49682.55
534.69	50277.05
534.86	50099.17
535.03	49834.69
535.20	50012.57
535.37	50295.77
535.54	50546.21
535.71	49914.26
535.88	50373.01
536.05	50911.33
536.22	50775.58
536.38	50508.76
536.55	50550.89
536.72	50738.13
536.89	50513.44
537.06	50422.16
537.23	50653.87
537.40	50511.10
537.57	50698.34
537.74	50752.18
537.91	51358.38
538.08	50951.12
538.25	50845.80
538.42	51000.27
538.59	51065.81
538.75	50688.98
538.92	50693.66
539.09	51325.61
539.26	50965.17
539.43	51231.99
539.60	51391.14
539.77	51229.65
539.94	51615.83
540.11	51215.60
540.28	51346.67
540.44	51075.17
540.61	51246.03
540.78	51274.12
540.95	51421.57
541.12	51543.28
541.29	52023.09
541.46	51241.35
541.62	51222.62
541.79	51875.63
541.96	51367.74
542.13	51672.01
542.30	52016.07
542.47	52058.20
542.63	52004.36
542.80	52086.28
542.97	52076.92
543.14	52650.35
543.31	52301.61
543.48	52156.50
543.64	52512.26
543.81	52631.63
543.98	52538.01
544.15	52631.63
544.32	52509.92
544.48	52903.13
544.65	52420.98
544.82	52662.05
544.99	52378.85
545.16	52701.84
545.32	52493.54
545.49	53179.31
545.66	52846.96
545.83	52905.47
546.00	53207.40
546.16	52636.31
546.33	52629.29
546.50	52762.70
546.67	52989.73
546.83	52701.84
547.00	52828.23
547.17	52842.27
547.34	52978.03
547.50	53261.23
547.67	53404.00
547.84	53282.30
548.00	53015.47
548.17	53492.94
548.34	53221.44
548.51	53535.07
548.67	53619.33
548.84	53441.45
549.01	53638.06
549.18	53322.08
549.34	53291.66
549.51	53687.21
549.68	53343.15
549.84	53495.28
550.01	53488.26
550.18	53286.98
550.34	53694.23
550.51	53844.02
550.68	53820.62
550.84	53567.84
551.01	53755.08
551.18	53504.65
551.34	53645.08
551.51	53551.46
551.68	53930.62
551.84	53834.66
552.01	53860.41
552.18	53947.01
552.34	53626.35
552.51	53897.86
552.68	53579.54
552.84	53972.75
553.01	54068.72
553.18	53930.62
553.34	54291.07
553.51	53909.56
553.67	54342.56
553.84	54337.88
554.01	54368.30
554.17	54040.63
554.34	54312.13
554.51	54103.82
554.67	54387.03
554.84	54127.23
555.00	54377.67
555.17	54094.46
555.33	54574.27
555.50	54485.33
555.67	54255.96
555.83	54160.00
556.00	54424.48
556.16	54665.55
556.33	54148.29
556.50	54358.94
556.66	54728.75
556.83	54422.14
556.99	54817.69
557.16	54600.02
557.32	54651.51
557.49	54656.19
557.65	54391.71
557.82	54719.38
557.98	54513.42
558.15	54590.66
558.32	55058.76
558.48	54473.63
558.65	54651.51
558.81	54761.51
558.98	54642.15
559.14	54740.45
559.31	54733.43
559.47	54787.26
559.64	55044.72
559.80	54951.10
559.97	55079.83
560.13	54618.74
560.30	54923.01
560.46	55150.04
560.63	54897.27
560.79	54873.86
560.96	54981.52
561.12	54997.91
561.29	54925.35
561.45	55079.83
561.61	54901.95
561.78	54759.17
561.94	54986.21
562.11	55332.60
562.27	55075.15
562.44	55002.59
562.60	54878.54
562.77	55117.28
562.93	55114.94
563.10	55442.61
563.26	55182.81
563.42	55257.71
563.59	55217.92
563.75	55325.58
563.92	55524.53
564.08	55112.59
564.24	55231.96
564.41	55117.28
564.57	55173.45
564.74	55114.94
564.90	55199.19
565.07	55428.57
565.23	55234.30
565.39	55248.35
565.56	55260.05
565.72	55348.99
565.88	55253.03
566.05	55110.25
566.21	55152.38
566.38	55241.32
566.54	55353.67
566.70	55444.95
566.87	55482.40
567.03	55402.82
567.19	55641.56
567.36	55669.64
567.52	55381.76
567.68	55292.82
567.85	55257.71
568.01	55519.85
568.17	55559.64
568.34	55557.30
568.50	55650.92
568.66	55356.01
568.83	55395.80
568.99	55620.49
569.15	55531.55
569.32	55402.82
569.48	55435.59
569.64	55482.40
569.81	55636.87
569.97	55632.19
570.13	55604.11
570.30	55559.64
570.46	55482.40
570.62	55433.25
570.78	55477.72
570.95	55323.24
571.11	55370.05
571.27	55468.36
571.43	55578.36
571.60	55482.40
571.76	55901.36
571.92	55908.38
572.09	55686.03
572.25	55601.77
572.41	55543.25
572.57	55650.92
572.74	55716.45
572.90	55657.94
573.06	55496.44
573.22	55566.66
573.38	55585.38
573.55	55718.79
573.71	56062.85
573.87	55742.20
574.03	55861.57
574.20	55697.73
574.36	55587.72
574.52	55454.31
574.68	55545.59
574.84	55952.85
575.01	55791.35
575.17	55870.93
575.33	55758.58
575.49	55634.53
575.65	55742.20
575.82	55978.59
575.98	55650.92
576.14	55770.28
576.30	55662.62
576.46	55625.17
576.62	55543.25
576.79	55442.61
576.95	55650.92
577.11	55870.93
577.27	55896.67
577.43	55807.73
577.59	55770.28
577.75	55503.46
577.92	55550.27
578.08	55721.13
578.24	55721.13
578.40	55910.72
578.56	55922.42
578.72	55973.91
578.88	55929.44
579.04	56048.81
579.21	55952.85
579.37	55978.59
579.53	55889.65
579.69	55753.90
579.85	55751.56
580.01	55779.65
580.17	55559.64
580.33	55550.27
580.49	55620.49
580.65	55927.10
580.82	56011.36
580.98	56161.15
581.14	55662.62
581.30	56030.08
581.46	55756.24
581.62	55620.49
581.78	55597.09
581.94	56121.37
582.10	55650.92
582.26	55739.86
582.42	55936.46
582.58	56069.87
582.74	55828.80
582.90	55910.72
583.06	55917.74
583.22	55805.39
583.38	55997.32
583.54	56018.38
583.70	55730.50
583.86	55669.64
584.02	55849.86
584.18	55901.36
584.34	56016.04
584.50	56119.02
584.66	56135.41
584.82	55636.87
584.98	55781.99
585.14	56088.60
585.30	55817.10
585.46	55936.46
585.62	55915.40
585.78	55913.06
585.94	55866.25
586.10	55777.31
586.26	56076.90
586.42	55994.98
586.58	56128.39
586.74	55622.83
586.90	55714.11
587.06	55669.64
587.22	55992.64
587.38	55999.66
587.54	56282.86
587.70	56170.52
587.86	56088.60
588.02	56222.01
588.18	56334.35
588.34	55819.44
588.49	55966.89
588.65	55866.25
588.81	55978.59
588.97	55978.59
589.13	56097.96
589.29	55976.25
589.45	56093.28
589.61	56023.06
