SpectraSuite Data File
++++++++++++++++++++++++++++++++++++
Date: Fri Oct 04 11:47:05 GMT-05:00 2013
User: price-jones
Dark Spectrum Present: No
Reference Spectrum Present: No
Number of Sampled Component Spectra: 1
Spectrometers: USB2+H05261
Integration Time (usec): 100000 (USB2+H05261)
Spectra Averaged: 1 (USB2+H05261)
Boxcar Smoothing: 0 (USB2+H05261)
Correct for Electrical Dark: No (USB2+H05261)
Strobe/Lamp Enabled: No (USB2+H05261)
Correct for Detector Non-linearity: No (USB2+H05261)
Correct for Stray Light: No (USB2+H05261)
Number of Pixels in Processed Spectrum: 2048
>>>>>Begin Processed Spectral Data<<<<<
365.73	72.56
365.92	72.56
366.12	72.56
366.32	0.00
366.52	0.00
366.72	0.00
366.91	0.00
367.11	0.00
367.31	0.00
367.51	0.00
367.70	0.00
367.90	0.00
368.10	0.00
368.30	0.00
368.49	0.00
368.69	0.00
368.89	0.00
369.09	0.00
369.28	0.00
369.48	0.00
369.68	0.00
369.87	0.00
370.07	0.00
370.27	49.15
370.47	7.02
370.66	0.00
370.86	72.56
371.06	100.64
371.25	77.24
371.45	98.30
371.65	107.66
371.84	18.72
372.04	46.81
372.24	58.51
372.44	67.88
372.63	60.85
372.83	163.84
373.03	35.11
373.22	16.38
373.42	56.17
373.62	133.41
373.81	107.66
374.01	166.18
374.21	107.66
374.40	98.30
374.60	149.79
374.79	98.30
374.99	124.05
375.19	100.64
375.38	133.41
375.58	110.01
375.78	102.98
375.97	107.66
376.17	124.05
376.37	53.83
376.56	119.37
376.76	117.03
376.95	100.64
377.15	145.11
377.35	63.19
377.54	117.03
377.74	100.64
377.93	194.26
378.13	114.69
378.33	124.05
378.52	93.62
378.72	110.01
378.91	72.56
379.11	131.07
379.31	100.64
379.50	145.11
379.70	138.09
379.89	100.64
380.09	79.58
380.28	60.85
380.48	145.11
380.68	51.49
380.87	25.75
381.07	86.60
381.26	126.39
381.46	46.81
381.65	114.69
381.85	114.69
382.04	112.35
382.24	32.77
382.43	86.60
382.63	81.92
382.83	60.85
383.02	128.73
383.22	107.66
383.41	32.77
383.61	107.66
383.80	110.01
384.00	105.32
384.19	25.75
384.39	42.13
384.58	65.54
384.78	107.66
384.97	112.35
385.17	121.71
385.36	133.41
385.56	84.26
385.75	72.56
385.95	65.54
386.14	110.01
386.34	25.75
386.53	124.05
386.72	131.07
386.92	140.43
387.11	112.35
387.31	102.98
387.50	119.37
387.70	79.58
387.89	16.38
388.09	93.62
388.28	25.75
388.48	74.90
388.67	117.03
388.86	0.00
389.06	110.01
389.25	91.28
389.45	145.11
389.64	152.13
389.84	147.45
390.03	102.98
390.22	74.90
390.42	58.51
390.61	56.17
390.81	51.49
391.00	42.13
391.19	112.35
391.39	25.75
391.58	114.69
391.78	88.94
391.97	32.77
392.16	74.90
392.36	117.03
392.55	177.88
392.75	140.43
392.94	74.90
393.13	46.81
393.33	49.15
393.52	53.83
393.71	124.05
393.91	88.94
394.10	100.64
394.29	79.58
394.49	32.77
394.68	95.96
394.88	135.75
395.07	117.03
395.26	63.19
395.46	112.35
395.65	126.39
395.84	128.73
396.04	140.43
396.23	110.01
396.42	163.84
396.62	102.98
396.81	16.38
397.00	102.98
397.19	147.45
397.39	135.75
397.58	121.71
397.77	93.62
397.97	152.13
398.16	126.39
398.35	65.54
398.55	56.17
398.74	180.22
398.93	91.28
399.12	70.22
399.32	100.64
399.51	114.69
399.70	170.86
399.90	112.35
400.09	147.45
400.28	135.75
400.47	107.66
400.67	154.48
400.86	56.17
401.05	135.75
401.24	126.39
401.44	133.41
401.63	177.88
401.82	91.28
402.01	119.37
402.21	135.75
402.40	98.30
402.59	93.62
402.78	81.92
402.97	119.37
403.17	58.51
403.36	63.19
403.55	91.28
403.74	84.26
403.93	98.30
404.13	142.77
404.32	102.98
404.51	128.73
404.70	126.39
404.89	81.92
405.09	100.64
405.28	105.32
405.47	30.43
405.66	133.41
405.85	119.37
406.05	156.82
406.24	135.75
406.43	98.30
406.62	79.58
406.81	121.71
407.00	107.66
407.20	37.45
407.39	128.73
407.58	42.13
407.77	98.30
407.96	107.66
408.15	81.92
408.34	124.05
408.54	84.26
408.73	124.05
408.92	65.54
409.11	121.71
409.30	84.26
409.49	138.09
409.68	81.92
409.87	18.72
410.07	110.01
410.26	119.37
410.45	124.05
410.64	84.26
410.83	114.69
411.02	110.01
411.21	105.32
411.40	191.92
411.59	98.30
411.78	128.73
411.98	98.30
412.17	86.60
412.36	138.09
412.55	138.09
412.74	182.56
412.93	110.01
413.12	35.11
413.31	131.07
413.50	131.07
413.69	117.03
413.88	229.37
414.07	140.43
414.26	170.86
414.45	0.00
414.64	79.58
414.83	117.03
415.02	149.79
415.22	133.41
415.41	175.54
415.60	98.30
415.79	81.92
415.98	126.39
416.17	145.11
416.36	145.11
416.55	100.64
416.74	128.73
416.93	147.45
417.12	67.88
417.31	70.22
417.50	86.60
417.69	170.86
417.88	163.84
418.07	161.50
418.26	170.86
418.45	91.28
418.64	201.29
418.83	152.13
419.02	135.75
419.21	138.09
419.39	168.52
419.58	112.35
419.77	135.75
419.96	121.71
420.15	145.11
420.34	168.52
420.53	126.39
420.72	152.13
420.91	140.43
421.10	170.86
421.29	100.64
421.48	215.33
421.67	128.73
421.86	117.03
422.05	46.81
422.24	63.19
422.43	173.20
422.61	126.39
422.80	140.43
422.99	91.28
423.18	145.11
423.37	128.73
423.56	156.82
423.75	65.54
423.94	35.11
424.13	163.84
424.32	107.66
424.50	98.30
424.69	112.35
424.88	133.41
425.07	105.32
425.26	135.75
425.45	191.92
425.64	175.54
425.83	215.33
426.01	210.65
426.20	133.41
426.39	182.56
426.58	107.66
426.77	133.41
426.96	117.03
427.15	154.48
427.33	140.43
427.52	114.69
427.71	86.60
427.90	117.03
428.09	65.54
428.28	184.90
428.46	154.48
428.65	128.73
428.84	149.79
429.03	154.48
429.22	133.41
429.40	110.01
429.59	100.64
429.78	128.73
429.97	135.75
430.16	107.66
430.34	110.01
430.53	105.32
430.72	131.07
430.91	198.95
431.10	135.75
431.28	112.35
431.47	133.41
431.66	133.41
431.85	145.11
432.03	187.24
432.22	180.22
432.41	138.09
432.60	166.18
432.79	241.08
432.97	205.97
433.16	215.33
433.35	128.73
433.54	105.32
433.72	124.05
433.91	147.45
434.10	117.03
434.28	131.07
434.47	215.33
434.66	180.22
434.85	117.03
435.03	168.52
435.22	252.78
435.41	112.35
435.59	42.13
435.78	173.20
435.97	65.54
436.16	159.16
436.34	35.11
436.53	138.09
436.72	187.24
436.90	126.39
437.09	145.11
437.28	124.05
437.46	131.07
437.65	126.39
437.84	191.92
438.02	124.05
438.21	184.90
438.40	105.32
438.58	107.66
438.77	161.50
438.96	184.90
439.14	142.77
439.33	142.77
439.52	170.86
439.70	126.39
439.89	135.75
440.08	138.09
440.26	142.77
440.45	107.66
440.63	67.88
440.82	124.05
441.01	224.69
441.19	86.60
441.38	81.92
441.57	53.83
441.75	154.48
441.94	100.64
442.12	147.45
442.31	110.01
442.50	77.24
442.68	133.41
442.87	147.45
443.05	142.77
443.24	198.95
443.43	177.88
443.61	124.05
443.80	124.05
443.98	149.79
444.17	159.16
444.35	112.35
444.54	182.56
444.73	98.30
444.91	173.20
445.10	140.43
445.28	154.48
445.47	170.86
445.65	156.82
445.84	88.94
446.02	133.41
446.21	159.16
446.39	142.77
446.58	93.62
446.77	131.07
446.95	121.71
447.14	156.82
447.32	135.75
447.51	133.41
447.69	91.28
447.88	191.92
448.06	196.60
448.25	121.71
448.43	84.26
448.62	88.94
448.80	124.05
448.99	105.32
449.17	161.50
449.36	215.33
449.54	126.39
449.73	124.05
449.91	257.46
450.10	124.05
450.28	170.86
450.46	140.43
450.65	163.84
450.83	84.26
451.02	205.97
451.20	121.71
451.39	77.24
451.57	70.22
451.76	220.01
451.94	81.92
452.13	77.24
452.31	182.56
452.49	105.32
452.68	126.39
452.86	119.37
453.05	135.75
453.23	184.90
453.42	117.03
453.60	65.54
453.78	175.54
453.97	156.82
454.15	156.82
454.34	163.84
454.52	133.41
454.70	227.03
454.89	102.98
455.07	77.24
455.26	217.67
455.44	161.50
455.62	149.79
455.81	196.60
455.99	184.90
456.17	86.60
456.36	170.86
456.54	114.69
456.73	175.54
456.91	170.86
457.09	128.73
457.28	107.66
457.46	173.20
457.64	161.50
457.83	191.92
458.01	112.35
458.19	152.13
458.38	98.30
458.56	126.39
458.74	86.60
458.93	201.29
459.11	79.58
459.29	60.85
459.48	166.18
459.66	187.24
459.84	175.54
460.03	201.29
460.21	145.11
460.39	128.73
460.57	159.16
460.76	145.11
460.94	93.62
461.12	196.60
461.31	222.35
461.49	93.62
461.67	145.11
461.85	166.18
462.04	156.82
462.22	601.52
462.40	191.92
462.59	140.43
462.77	81.92
462.95	210.65
463.13	147.45
463.32	163.84
463.50	166.18
463.68	128.73
463.86	126.39
464.05	107.66
464.23	177.88
464.41	142.77
464.59	65.54
464.78	86.60
464.96	138.09
465.14	88.94
465.32	117.03
465.50	161.50
465.69	168.52
465.87	86.60
466.05	117.03
466.23	107.66
466.41	112.35
466.60	175.54
466.78	140.43
466.96	163.84
467.14	110.01
467.32	152.13
467.51	163.84
467.69	224.69
467.87	163.84
468.05	105.32
468.23	208.31
468.41	184.90
468.60	86.60
468.78	147.45
468.96	182.56
469.14	201.29
469.32	138.09
469.50	121.71
469.69	93.62
469.87	142.77
470.05	79.58
470.23	147.45
470.41	114.69
470.59	124.05
470.77	140.43
470.95	131.07
471.14	170.86
471.32	163.84
471.50	133.41
471.68	173.20
471.86	131.07
472.04	147.45
472.22	110.01
472.40	138.09
472.58	140.43
472.77	147.45
472.95	131.07
473.13	210.65
473.31	142.77
473.49	95.96
473.67	170.86
473.85	180.22
474.03	203.63
474.21	163.84
474.39	198.95
474.57	121.71
474.75	124.05
474.93	107.66
475.12	142.77
475.30	117.03
475.48	147.45
475.66	58.51
475.84	135.75
476.02	105.32
476.20	194.26
476.38	187.24
476.56	203.63
476.74	163.84
476.92	184.90
477.10	88.94
477.28	215.33
477.46	159.16
477.64	149.79
477.82	163.84
478.00	212.99
478.18	133.41
478.36	131.07
478.54	212.99
478.72	95.96
478.90	203.63
479.08	140.43
479.26	117.03
479.44	177.88
479.62	173.20
479.80	95.96
479.98	140.43
480.16	194.26
480.34	124.05
480.52	159.16
480.70	124.05
480.88	142.77
481.06	173.20
481.24	124.05
481.41	119.37
481.59	154.48
481.77	201.29
481.95	135.75
482.13	191.92
482.31	138.09
482.49	95.96
482.67	198.95
482.85	119.37
483.03	177.88
483.21	231.71
483.39	149.79
483.57	175.54
483.74	222.35
483.92	140.43
484.10	191.92
484.28	168.52
484.46	182.56
484.64	217.67
484.82	210.65
485.00	182.56
485.18	159.16
485.35	182.56
485.53	187.24
485.71	182.56
485.89	84.26
486.07	112.35
486.25	154.48
486.43	140.43
486.61	168.52
486.78	145.11
486.96	147.45
487.14	163.84
487.32	201.29
487.50	121.71
487.68	124.05
487.85	121.71
488.03	191.92
488.21	243.42
488.39	166.18
488.57	131.07
488.75	161.50
488.92	514.92
489.10	257.46
489.28	205.97
489.46	191.92
489.64	182.56
489.81	231.71
489.99	220.01
490.17	180.22
490.35	238.73
490.53	145.11
490.70	194.26
490.88	243.42
491.06	220.01
491.24	105.32
491.41	184.90
491.59	184.90
491.77	161.50
491.95	126.39
492.13	166.18
492.30	252.78
492.48	203.63
492.66	175.54
492.84	91.28
493.01	210.65
493.19	126.39
493.37	243.42
493.54	222.35
493.72	196.60
493.90	203.63
494.08	128.73
494.25	133.41
494.43	252.78
494.61	175.54
494.79	142.77
494.96	159.16
495.14	173.20
495.32	215.33
495.49	184.90
495.67	177.88
495.85	175.54
496.02	154.48
496.20	238.73
496.38	114.69
496.55	166.18
496.73	212.99
496.91	142.77
497.09	259.80
497.26	220.01
497.44	269.16
497.62	194.26
497.79	250.44
497.97	154.48
498.14	184.90
498.32	210.65
498.50	138.09
498.67	117.03
498.85	205.97
499.03	257.46
499.20	229.37
499.38	182.56
499.56	231.71
499.73	227.03
499.91	234.05
500.08	168.52
500.26	205.97
500.44	229.37
500.61	180.22
500.79	271.50
500.97	173.20
501.14	187.24
501.32	173.20
501.49	175.54
501.67	145.11
501.84	187.24
502.02	147.45
502.20	227.03
502.37	152.13
502.55	245.76
502.72	201.29
502.90	147.45
503.07	161.50
503.25	262.14
503.43	220.01
503.60	252.78
503.78	168.52
503.95	210.65
504.13	159.16
504.30	133.41
504.48	222.35
504.65	236.39
504.83	205.97
505.01	168.52
505.18	131.07
505.36	212.99
505.53	184.90
505.71	163.84
505.88	222.35
506.06	161.50
506.23	189.58
506.41	149.79
506.58	243.42
506.76	208.31
506.93	170.86
507.11	222.35
507.28	177.88
507.46	149.79
507.63	154.48
507.81	156.82
507.98	224.69
508.16	210.65
508.33	294.91
508.50	177.88
508.68	95.96
508.85	201.29
509.03	220.01
509.20	161.50
509.38	175.54
509.55	264.48
509.73	269.16
509.90	191.92
510.08	191.92
510.25	229.37
510.42	152.13
510.60	166.18
510.77	198.95
510.95	217.67
511.12	248.10
511.30	229.37
511.47	203.63
511.64	248.10
511.82	203.63
511.99	196.60
512.17	205.97
512.34	170.86
512.51	234.05
512.69	259.80
512.86	236.39
513.04	236.39
513.21	224.69
513.38	166.18
513.56	238.73
513.73	133.41
513.90	135.75
514.08	166.18
514.25	175.54
514.43	140.43
514.60	264.48
514.77	173.20
514.95	198.95
515.12	194.26
515.29	224.69
515.47	124.05
515.64	189.58
515.81	236.39
515.99	184.90
516.16	135.75
516.33	241.08
516.51	138.09
516.68	203.63
516.85	149.79
517.03	217.67
517.20	114.69
517.37	308.95
517.54	250.44
517.72	182.56
517.89	166.18
518.06	145.11
518.24	140.43
518.41	245.76
518.58	241.08
518.75	222.35
518.93	163.84
519.10	196.60
519.27	217.67
519.45	210.65
519.62	241.08
519.79	196.60
519.96	149.79
520.14	175.54
520.31	299.59
520.48	95.96
520.65	229.37
520.83	159.16
521.00	138.09
521.17	203.63
521.34	182.56
521.52	170.86
521.69	184.90
521.86	142.77
522.03	156.82
522.20	166.18
522.38	191.92
522.55	248.10
522.72	105.32
522.89	262.14
523.07	231.71
523.24	182.56
523.41	217.67
523.58	217.67
523.75	227.03
523.92	149.79
524.10	227.03
524.27	234.05
524.44	227.03
524.61	175.54
524.78	102.98
524.96	245.76
525.13	194.26
525.30	217.67
525.47	238.73
525.64	255.12
525.81	142.77
525.98	161.50
526.16	138.09
526.33	196.60
526.50	138.09
526.67	196.60
526.84	135.75
527.01	163.84
527.18	229.37
527.36	259.80
527.53	168.52
527.70	163.84
527.87	250.44
528.04	257.46
528.21	220.01
528.38	269.16
528.55	236.39
528.72	231.71
528.89	243.42
529.07	299.59
529.24	234.05
529.41	325.33
529.58	231.71
529.75	264.48
529.92	170.86
530.09	170.86
530.26	241.08
530.43	245.76
530.60	210.65
530.77	269.16
530.94	301.93
531.11	222.35
531.28	222.35
531.46	152.13
531.63	215.33
531.80	280.86
531.97	215.33
532.14	166.18
532.31	273.84
532.48	245.76
532.65	278.52
532.82	311.29
532.99	250.44
533.16	292.57
533.33	264.48
533.50	315.97
533.67	381.51
533.84	393.21
534.01	325.33
534.18	376.83
534.35	292.57
534.52	163.84
534.69	376.83
534.86	187.24
535.03	196.60
535.20	187.24
535.37	236.39
535.54	227.03
535.71	196.60
535.88	248.10
536.05	292.57
536.22	175.54
536.38	182.56
536.55	234.05
536.72	264.48
536.89	177.88
537.06	210.65
537.23	159.16
537.40	227.03
537.57	184.90
537.74	217.67
537.91	224.69
538.08	252.78
538.25	238.73
538.42	231.71
538.59	194.26
538.75	224.69
538.92	187.24
539.09	215.33
539.26	234.05
539.43	458.74
539.60	851.96
539.77	1219.42
539.94	1212.40
540.11	723.23
540.28	538.32
540.44	400.23
540.61	236.39
540.78	231.71
540.95	128.73
541.12	208.31
541.29	187.24
541.46	212.99
541.62	287.89
541.79	142.77
541.96	138.09
542.13	205.97
542.30	170.86
542.47	147.45
542.63	161.50
542.80	276.18
542.97	189.58
543.14	156.82
543.31	222.35
543.48	138.09
543.64	262.14
543.81	234.05
543.98	210.65
544.15	238.73
544.32	243.42
544.48	187.24
544.65	194.26
544.82	220.01
544.99	196.60
545.16	262.14
545.32	180.22
545.49	234.05
545.66	243.42
545.83	177.88
546.00	126.39
546.16	140.43
546.33	191.92
546.50	170.86
546.67	266.82
546.83	248.10
547.00	177.88
547.17	177.88
547.34	217.67
547.50	208.31
547.67	264.48
547.84	241.08
548.00	191.92
548.17	227.03
548.34	86.60
548.51	252.78
548.67	234.05
548.84	152.13
549.01	154.48
549.18	245.76
549.34	147.45
549.51	191.92
549.68	266.82
549.84	166.18
550.01	205.97
550.18	308.95
550.34	252.78
550.51	290.23
550.68	182.56
550.84	198.95
551.01	245.76
551.18	189.58
551.34	224.69
551.51	194.26
551.68	189.58
551.84	210.65
552.01	196.60
552.18	163.84
552.34	245.76
552.51	215.33
552.68	159.16
552.84	220.01
553.01	191.92
553.18	182.56
553.34	224.69
553.51	163.84
553.67	231.71
553.84	292.57
554.01	231.71
554.17	234.05
554.34	163.84
554.51	224.69
554.67	252.78
554.84	252.78
555.00	250.44
555.17	276.18
555.33	264.48
555.50	180.22
555.67	208.31
555.83	205.97
556.00	264.48
556.16	386.19
556.33	217.67
556.50	229.37
556.66	248.10
556.83	161.50
556.99	217.67
557.16	231.71
557.32	220.01
557.49	212.99
557.65	135.75
557.82	175.54
557.98	163.84
558.15	166.18
558.32	210.65
558.48	229.37
558.65	180.22
558.81	217.67
558.98	161.50
559.14	224.69
559.31	147.45
559.47	252.78
559.64	149.79
559.80	231.71
559.97	147.45
560.13	208.31
560.30	102.98
560.46	210.65
560.63	133.41
560.79	135.75
560.96	250.44
561.12	168.52
561.29	205.97
561.45	180.22
561.61	175.54
561.78	283.20
561.94	248.10
562.11	231.71
562.27	149.79
562.44	119.37
562.60	175.54
562.77	177.88
562.93	264.48
563.10	245.76
563.26	238.73
563.42	299.59
563.59	205.97
563.75	184.90
563.92	264.48
564.08	271.50
564.24	196.60
564.41	308.95
564.57	187.24
564.74	161.50
564.90	236.39
565.07	210.65
565.23	135.75
565.39	255.12
565.56	241.08
565.72	241.08
565.88	205.97
566.05	280.86
566.21	278.52
566.38	262.14
566.54	161.50
566.70	201.29
566.87	131.07
567.03	201.29
567.19	215.33
567.36	154.48
567.52	212.99
567.68	191.92
567.85	236.39
568.01	196.60
568.17	170.86
568.34	191.92
568.50	266.82
568.66	292.57
568.83	276.18
568.99	238.73
569.15	234.05
569.32	149.79
569.48	201.29
569.64	126.39
569.81	255.12
569.97	210.65
570.13	210.65
570.30	212.99
570.46	142.77
570.62	135.75
570.78	217.67
570.95	212.99
571.11	196.60
571.27	250.44
571.43	227.03
571.60	208.31
571.76	245.76
571.92	166.18
572.09	117.03
572.25	215.33
572.41	163.84
572.57	196.60
572.74	229.37
572.90	280.86
573.06	229.37
573.22	234.05
573.38	182.56
573.55	191.92
573.71	217.67
573.87	173.20
574.03	196.60
574.20	201.29
574.36	222.35
574.52	339.38
574.68	252.78
574.84	292.57
575.01	156.82
575.17	262.14
575.33	212.99
575.49	241.08
575.65	191.92
575.82	367.46
575.98	531.30
576.14	596.84
576.30	582.79
576.46	440.02
576.62	409.59
576.79	280.86
576.95	252.78
577.11	156.82
577.27	259.80
577.43	224.69
577.59	285.55
577.75	264.48
577.92	238.73
578.08	245.76
578.24	259.80
578.40	191.92
578.56	297.25
578.72	318.31
578.88	252.78
579.04	184.90
579.21	255.12
579.37	220.01
579.53	250.44
579.69	234.05
579.85	362.78
580.01	280.86
580.17	245.76
580.33	278.52
580.49	348.74
580.65	348.74
580.82	280.86
580.98	297.25
581.14	308.95
581.30	330.02
581.46	344.06
581.62	440.02
581.78	447.04
581.94	454.06
582.10	381.51
582.26	369.80
582.42	362.78
582.58	430.66
582.74	414.27
582.90	346.40
583.06	353.42
583.22	374.49
583.38	365.12
583.54	447.04
583.70	489.17
583.86	512.58
584.02	641.31
584.18	809.83
584.34	957.28
584.50	2916.31
584.66	22192.96
584.82	51426.25
584.98	60114.32
585.14	55924.76
585.30	38518.20
585.46	23159.60
585.62	14209.39
585.78	6567.54
585.94	2621.40
586.10	1270.91
586.26	809.83
586.42	671.73
586.58	526.62
586.74	486.83
586.90	409.59
587.06	470.45
587.22	414.27
587.38	376.83
587.54	1093.03
587.70	3208.87
587.86	4788.74
588.02	4990.02
588.18	3541.23
588.34	2319.47
588.49	1507.30
588.65	954.94
588.81	580.45
588.97	421.30
589.13	241.08
589.29	257.46
589.45	297.25
589.61	297.25
589.77	376.83
589.93	374.49
590.08	461.09
590.24	379.17
590.40	360.44
590.56	311.29
590.72	283.20
590.88	276.18
591.04	348.74
591.20	278.52
591.35	330.02
591.51	313.63
591.67	280.86
591.83	229.37
591.99	222.35
592.15	241.08
592.31	212.99
592.46	241.08
592.62	250.44
592.78	266.82
592.94	229.37
593.10	231.71
593.26	262.14
593.41	322.99
593.57	355.76
593.73	489.17
593.89	2677.57
594.05	6431.79
594.20	8744.24
594.36	7950.80
594.52	5425.36
594.68	3335.26
594.84	2356.92
594.99	1299.00
595.15	554.71
595.31	351.08
595.47	393.21
595.62	182.56
595.78	280.86
595.94	280.86
596.10	315.97
596.25	346.40
596.41	255.12
596.57	271.50
596.73	308.95
596.88	552.37
597.04	1268.57
597.20	1966.05
597.36	2045.63
597.51	1589.22
597.67	1132.82
597.83	805.14
597.99	538.32
598.14	390.87
598.30	313.63
598.46	271.50
598.61	285.55
598.77	259.80
598.93	154.48
599.09	276.18
599.24	182.56
599.40	191.92
599.56	299.59
599.71	248.10
599.87	182.56
600.03	217.67
600.18	187.24
600.34	212.99
600.50	175.54
600.65	229.37
600.81	273.84
600.97	212.99
601.12	154.48
601.28	140.43
601.44	222.35
601.59	224.69
601.75	210.65
601.91	173.20
602.06	198.95
602.22	330.02
602.37	671.73
602.53	1500.28
602.69	2181.38
602.84	2249.25
603.00	1563.48
603.16	1184.31
603.31	866.00
603.47	489.17
603.62	360.44
603.78	299.59
603.94	194.26
604.09	255.12
604.25	173.20
604.40	241.08
604.56	159.16
604.71	175.54
604.87	224.69
605.03	215.33
605.18	227.03
605.34	360.44
605.49	250.44
605.65	294.91
605.80	175.54
605.96	255.12
606.12	301.93
606.27	322.99
606.43	304.27
606.58	362.78
606.74	758.33
606.89	3176.11
607.05	5874.74
607.20	7403.11
607.36	6061.99
607.51	4229.35
607.67	2733.75
607.82	1776.47
607.98	992.39
608.13	662.37
608.29	407.25
608.44	388.53
608.60	348.74
608.75	468.11
608.91	1130.48
609.06	5053.22
609.22	9966.00
609.37	12741.88
609.53	10822.64
609.68	7323.54
609.84	4882.36
609.99	3197.17
610.15	1685.19
610.30	828.55
610.46	454.06
610.61	339.38
610.76	313.63
610.92	311.29
611.07	224.69
611.23	362.78
611.38	301.93
611.54	308.95
611.69	271.50
