SpectraSuite Data File
++++++++++++++++++++++++++++++++++++
Date: Fri Oct 04 11:48:37 GMT-05:00 2013
User: price-jones
Dark Spectrum Present: No
Reference Spectrum Present: No
Number of Sampled Component Spectra: 1
Spectrometers: USB2+H05261
Integration Time (usec): 100000 (USB2+H05261)
Spectra Averaged: 1 (USB2+H05261)
Boxcar Smoothing: 0 (USB2+H05261)
Correct for Electrical Dark: No (USB2+H05261)
Strobe/Lamp Enabled: No (USB2+H05261)
Correct for Detector Non-linearity: No (USB2+H05261)
Correct for Stray Light: No (USB2+H05261)
Number of Pixels in Processed Spectrum: 2048
>>>>>Begin Processed Spectral Data<<<<<
365.73	25.75
365.92	25.75
366.12	25.75
366.32	0.00
366.52	0.00
366.72	0.00
366.91	0.00
367.11	0.00
367.31	0.00
367.51	0.00
367.70	0.00
367.90	0.00
368.10	0.00
368.30	0.00
368.49	0.00
368.69	0.00
368.89	0.00
369.09	0.00
369.28	0.00
369.48	0.00
369.68	4.68
369.87	0.00
370.07	0.00
370.27	0.00
370.47	25.75
370.66	161.50
370.86	51.49
371.06	140.43
371.25	166.18
371.45	65.54
371.65	142.77
371.84	159.16
372.04	37.45
372.24	124.05
372.44	131.07
372.63	166.18
372.83	161.50
373.03	170.86
373.22	95.96
373.42	147.45
373.62	234.05
373.81	159.16
374.01	208.31
374.21	154.48
374.40	135.75
374.60	180.22
374.79	222.35
374.99	196.60
375.19	149.79
375.38	201.29
375.58	166.18
375.78	201.29
375.97	194.26
376.17	250.44
376.37	220.01
376.56	126.39
376.76	191.92
376.95	121.71
377.15	222.35
377.35	140.43
377.54	102.98
377.74	189.58
377.93	161.50
378.13	255.12
378.33	229.37
378.52	191.92
378.72	294.91
378.91	285.55
379.11	117.03
379.31	156.82
379.50	187.24
379.70	187.24
379.89	177.88
380.09	126.39
380.28	189.58
380.48	208.31
380.68	161.50
380.87	147.45
381.07	215.33
381.26	142.77
381.46	210.65
381.65	231.71
381.85	170.86
382.04	166.18
382.24	243.42
382.43	159.16
382.63	189.58
382.83	198.95
383.02	163.84
383.22	187.24
383.41	196.60
383.61	212.99
383.80	243.42
384.00	147.45
384.19	163.84
384.39	243.42
384.58	161.50
384.78	154.48
384.97	208.31
385.17	180.22
385.36	208.31
385.56	166.18
385.75	163.84
385.95	177.88
386.14	229.37
386.34	229.37
386.53	257.46
386.72	322.99
386.92	285.55
387.11	297.25
387.31	278.52
387.50	203.63
387.70	168.52
387.89	182.56
388.09	266.82
388.28	227.03
388.48	217.67
388.67	283.20
388.86	229.37
389.06	215.33
389.25	257.46
389.45	212.99
389.64	262.14
389.84	322.99
390.03	273.84
390.22	259.80
390.42	255.12
390.61	259.80
390.81	290.23
391.00	304.27
391.19	301.93
391.39	334.70
391.58	414.27
391.78	306.61
391.97	273.84
392.16	290.23
392.36	341.72
392.55	367.46
392.75	306.61
392.94	294.91
393.13	299.59
393.33	311.29
393.52	322.99
393.71	320.65
393.91	318.31
394.10	315.97
394.29	262.14
394.49	250.44
394.68	360.44
394.88	386.19
395.07	292.57
395.26	351.08
395.46	365.12
395.65	353.42
395.84	383.85
396.04	334.70
396.23	348.74
396.42	428.32
396.62	428.32
396.81	360.44
397.00	332.36
397.19	287.89
397.39	393.21
397.58	346.40
397.77	416.62
397.97	409.59
398.16	435.34
398.35	414.27
398.55	386.19
398.74	414.27
398.93	475.13
399.12	414.27
399.32	444.70
399.51	425.98
399.70	486.83
399.90	416.62
400.09	486.83
400.28	587.47
400.47	505.56
400.67	550.03
400.86	491.51
401.05	472.79
401.24	524.28
401.44	519.60
401.63	552.37
401.82	524.28
402.01	540.66
402.21	535.98
402.40	601.52
402.59	491.51
402.78	559.39
402.97	564.07
403.17	599.18
403.36	620.24
403.55	580.45
403.74	573.43
403.93	627.26
404.13	585.13
404.32	655.35
404.51	671.73
404.70	711.52
404.89	650.67
405.09	744.29
405.28	613.22
405.47	669.39
405.66	711.52
405.85	690.46
406.05	688.12
406.24	683.44
406.43	741.95
406.62	791.10
406.81	833.23
407.00	781.74
407.20	741.95
407.39	725.57
407.58	786.42
407.77	772.38
407.96	826.21
408.15	931.53
408.34	826.21
408.54	844.93
408.73	908.13
408.92	940.90
409.11	954.94
409.30	990.05
409.49	929.19
409.68	889.40
409.87	994.73
410.07	968.98
410.26	954.94
410.45	917.49
410.64	922.17
410.83	992.39
411.02	1111.75
411.21	987.71
411.40	1095.37
411.59	1114.10
411.78	1076.65
411.98	1004.09
412.17	1104.73
412.36	1128.14
412.55	1149.20
412.74	1181.97
412.93	1001.75
413.12	1111.75
413.31	1170.27
413.50	1149.20
413.69	1268.57
413.88	1273.25
414.07	1203.04
414.26	1277.93
414.45	1303.68
414.64	1203.04
414.83	1420.71
415.02	1380.92
415.22	1387.94
415.41	1373.89
415.60	1352.83
415.79	1394.96
415.98	1476.88
416.17	1460.49
416.36	1420.71
416.55	1507.30
416.74	1458.15
416.93	1451.13
417.12	1511.99
417.31	1511.99
417.50	1411.34
417.69	1661.78
417.88	1579.86
418.07	1500.28
418.26	1551.78
418.45	1643.06
418.64	1682.85
418.83	1612.63
419.02	1652.42
419.21	1591.56
419.39	1671.14
419.58	1666.46
419.77	1631.35
419.96	1624.33
420.15	1692.21
420.34	1701.57
420.53	1678.16
420.72	1874.77
420.91	1884.13
421.10	1853.70
421.29	1785.83
421.48	1778.81
421.67	1734.34
421.86	1823.28
422.05	1813.92
422.24	1776.47
422.43	1797.53
422.61	1830.30
422.80	1827.96
422.99	1898.17
423.18	1891.15
423.37	1825.62
423.56	1816.26
423.75	1872.43
423.94	1830.30
424.13	1764.76
424.32	1774.13
424.50	1844.34
424.69	1771.79
424.88	2015.20
425.07	1902.86
425.26	1881.79
425.45	1937.96
425.64	1856.04
425.83	1919.24
426.01	1834.98
426.20	1877.11
426.39	1849.02
426.58	1930.94
426.77	1937.96
426.96	1954.35
427.15	1858.39
427.33	2019.88
427.52	1949.67
427.71	1970.73
427.90	2057.33
428.09	1959.03
428.28	1994.14
428.46	2113.50
428.65	2031.58
428.84	2029.24
429.03	2036.27
429.22	1952.01
429.40	2155.63
429.59	2076.06
429.78	2047.97
429.97	1898.17
430.16	2118.18
430.34	2150.95
430.53	2076.06
430.72	2136.91
430.91	2169.68
431.10	2101.80
431.28	2186.06
431.47	2242.23
431.66	2153.29
431.85	2190.74
432.03	2153.29
432.22	2310.11
432.41	2232.87
432.60	2368.62
432.79	2260.96
432.97	2317.13
433.16	2239.89
433.35	2258.62
433.54	2267.98
433.72	2235.21
433.91	2310.11
434.10	2347.56
434.28	2359.26
434.47	2251.60
434.66	2387.35
434.85	2338.20
435.03	2422.45
435.22	2399.05
435.41	2466.92
435.59	2363.94
435.78	2457.56
435.97	2445.86
436.16	2630.76
436.34	2469.27
436.53	2495.01
436.72	2438.84
436.90	2527.78
437.09	2471.61
437.28	2436.50
437.46	2572.25
437.65	2506.71
437.84	2630.76
438.02	2509.05
438.21	2434.16
438.40	2551.18
438.58	2583.95
438.77	2628.42
438.96	2623.74
439.14	2644.81
439.33	2806.30
439.52	2815.66
439.70	2609.70
439.89	2740.77
440.08	2785.24
440.26	2794.60
440.45	2871.84
440.63	2839.07
440.82	2918.65
441.01	2867.16
441.19	2792.26
441.38	2935.03
441.57	2977.16
441.75	2984.18
441.94	3000.57
442.12	3005.25
442.31	3073.12
442.50	2949.08
442.68	3117.59
442.87	3124.62
443.05	3096.53
443.24	3197.17
443.43	3049.72
443.61	3129.30
443.80	3192.49
443.98	3157.38
444.17	3045.04
444.35	3164.40
444.54	3225.26
444.73	3213.56
444.91	3192.49
445.10	3159.72
445.28	3052.06
445.47	3112.91
445.65	3136.32
445.84	3243.98
446.02	3159.72
446.21	3171.43
446.39	3098.87
446.58	3295.47
446.77	3215.90
446.95	3204.19
447.14	3222.92
447.32	3183.13
447.51	3311.86
447.69	3260.37
447.88	3323.56
448.06	3215.90
448.25	3162.06
448.43	3295.47
448.62	3241.64
448.80	3309.52
448.99	3229.94
449.17	3323.56
449.36	3316.54
449.54	3438.25
449.73	3260.37
449.91	3452.29
450.10	3405.48
450.28	3407.82
450.46	3480.38
450.65	3440.59
450.83	3356.33
451.02	3370.37
451.20	3578.68
451.39	3627.83
451.57	3534.21
451.76	3433.57
451.94	3588.04
452.13	3522.51
452.31	3520.17
452.49	3524.85
452.68	3564.64
452.86	3700.39
453.05	3569.32
453.23	3639.53
453.42	3475.70
453.60	3585.70
453.78	3515.48
453.97	3618.47
454.15	3585.70
454.34	3578.68
454.52	3726.13
454.70	3569.32
454.89	3592.72
455.07	3705.07
455.26	3660.60
455.44	3737.84
455.62	3623.15
455.81	3698.05
455.99	3826.78
456.17	3709.75
456.36	3700.39
456.54	3997.64
456.73	3885.29
456.91	3908.69
457.09	3824.44
457.28	4098.28
457.46	3871.25
457.64	3974.23
457.83	4030.40
458.01	3779.97
458.19	4074.87
458.38	3964.87
458.56	4077.21
458.74	3932.10
458.93	3929.76
459.11	3936.78
459.29	4088.92
459.48	4098.28
459.66	4091.26
459.84	4196.58
460.03	4173.18
460.21	4124.02
460.39	4126.36
460.57	4163.81
460.76	4184.88
460.94	4149.77
461.12	4166.15
461.31	4161.47
461.49	4301.90
461.67	4124.02
461.85	4437.66
462.04	4381.48
462.22	4791.08
462.40	4290.20
462.59	4351.06
462.77	4215.30
462.95	4351.06
463.13	4248.07
463.32	4526.60
463.50	4332.33
463.68	4290.20
463.86	4376.80
464.05	4430.63
464.23	4599.15
464.41	4440.00
464.59	4337.01
464.78	4542.98
464.96	4519.57
465.14	4383.82
465.32	4559.36
465.50	4589.79
465.69	4664.69
465.87	4458.72
466.05	4458.72
466.23	4554.68
466.41	4634.26
466.60	4580.43
466.78	4592.13
466.96	4641.28
467.14	4587.45
467.32	4725.54
467.51	4823.84
467.69	4676.39
467.87	4603.83
468.05	4585.11
468.23	4580.43
468.41	4678.73
468.60	4784.06
468.78	4758.31
468.96	4716.18
469.14	4795.76
469.32	4926.83
469.50	4706.82
469.69	4751.29
469.87	4889.38
470.05	4844.91
470.23	4966.62
470.41	4786.40
470.59	4903.42
470.77	4840.23
470.95	4903.42
471.14	4992.36
471.32	4931.51
471.50	5313.02
471.68	4975.98
471.86	5039.17
472.04	5020.45
472.22	5193.65
472.40	5100.03
472.58	5296.63
472.77	5102.37
472.95	5132.79
473.13	5439.40
473.31	5205.35
473.49	5186.63
473.67	5221.74
473.85	5322.38
474.03	5252.16
474.21	5411.32
474.39	5423.02
474.57	5460.47
474.75	5467.49
474.93	5652.39
475.12	5598.56
475.30	5600.90
475.48	5603.24
475.66	5593.88
475.84	5757.72
476.02	5813.89
476.20	5783.46
476.38	5696.86
476.56	5970.71
476.74	5951.98
476.92	5809.21
477.10	5788.14
477.28	5926.24
477.46	5968.37
477.64	6054.97
477.82	6106.46
478.00	6171.99
478.18	6225.82
478.36	6356.90
478.54	6223.48
478.72	6361.58
478.90	6307.74
479.08	6469.24
479.26	6478.60
479.44	6544.14
479.62	6471.58
479.80	6654.14
479.98	6822.66
480.16	6717.34
480.34	6745.42
480.52	7016.93
480.70	6970.12
480.88	6703.29
481.06	7061.40
481.24	6881.18
481.41	7021.61
481.59	7197.15
481.77	7211.19
481.95	7131.61
482.13	7311.83
482.31	7222.89
482.49	7487.37
482.67	7398.43
482.85	7637.17
483.03	7620.78
483.21	7681.64
483.39	7733.13
483.57	7648.87
483.74	7737.81
483.92	7772.92
484.10	7688.66
484.28	7845.48
484.46	8035.06
484.64	8320.60
484.82	8100.59
485.00	8159.11
485.18	8355.71
485.35	8294.86
485.53	8276.13
485.71	8486.78
485.89	8535.93
486.07	8407.20
486.25	8521.89
486.43	8503.17
486.61	8659.98
486.78	8769.99
486.96	8882.33
487.14	8865.95
487.32	8915.10
487.50	9116.39
487.68	9151.49
487.85	9102.34
488.03	9423.00
488.21	9186.60
488.39	9380.87
488.57	9518.96
488.75	9441.72
488.92	9795.14
489.10	9621.94
489.28	9764.72
489.46	9898.13
489.64	10108.77
489.81	10066.64
489.99	10101.75
490.17	9881.74
490.35	10406.02
490.53	10108.77
490.70	10045.58
490.88	10204.74
491.06	10349.85
491.24	10492.62
491.41	10628.37
491.59	10714.97
491.77	10455.17
491.95	10731.36
492.13	10822.64
492.30	10979.45
492.48	10656.46
492.66	10768.80
492.84	10949.03
493.01	10949.03
493.19	11112.86
493.37	10974.77
493.54	11232.23
493.72	11384.37
493.90	11508.41
494.08	11447.56
494.25	11777.58
494.43	11686.29
494.61	11737.79
494.79	11564.59
494.96	11559.91
495.14	11873.54
495.32	11957.80
495.49	12081.85
495.67	12063.12
495.85	12306.54
496.02	12250.36
496.20	12123.98
496.38	12304.20
496.55	12152.06
496.73	12388.46
496.91	12606.13
497.09	12671.66
497.26	12617.83
497.44	12697.41
497.62	12547.61
497.79	13046.15
497.97	12830.82
498.14	13109.34
498.32	13069.55
498.50	13153.81
498.67	13315.31
498.85	13041.46
499.03	13397.23
499.20	13167.85
499.38	13509.57
499.56	13324.67
499.73	13366.80
499.91	13603.19
500.08	13448.72
500.26	13607.87
500.44	13551.70
500.61	13909.80
500.79	13764.69
500.97	13930.87
501.14	13729.58
501.32	14017.47
501.49	13823.20
501.67	13980.02
501.84	13989.38
502.02	13965.98
502.20	14104.07
502.37	14225.78
502.55	14164.92
502.72	14352.16
502.90	14155.56
503.07	14464.51
503.25	14359.19
503.43	14310.04
503.60	14626.01
503.78	14462.17
503.95	14698.56
504.13	14675.16
504.30	14590.90
504.48	14728.99
504.65	14813.25
504.83	14700.90
505.01	14916.23
505.18	14757.08
505.36	14892.83
505.53	14918.57
505.71	15098.80
505.88	15124.54
506.06	15192.42
506.23	15379.66
506.41	15344.55
506.58	15234.55
506.76	15316.47
506.93	15279.02
507.11	15229.87
507.28	15356.25
507.46	15482.64
507.63	15669.89
507.81	15859.47
507.98	15414.77
508.16	15613.71
508.33	15831.38
508.50	15894.58
508.68	15953.09
508.85	16093.52
509.03	15861.81
509.20	16060.76
509.38	16189.49
509.55	16315.87
509.73	16372.05
509.90	16360.34
510.08	16184.80
510.25	16276.09
510.42	16912.71
510.60	16453.97
510.77	16512.48
510.95	16386.09
511.12	16549.93
511.30	16634.19
511.47	16812.07
511.64	16603.76
511.82	16774.62
511.99	17071.87
512.17	17001.65
512.34	16931.44
512.51	16973.56
512.69	16849.52
512.86	17053.14
513.04	17132.72
513.21	17425.29
513.38	17179.53
513.56	17146.76
513.73	17242.73
513.90	17481.46
514.08	17259.11
514.25	17469.76
514.43	17589.13
514.60	17781.05
514.77	17146.76
514.95	17809.14
515.12	17544.66
515.29	17390.18
515.47	17727.22
515.64	17694.45
515.81	17605.51
515.99	18057.23
516.16	18155.54
516.33	18122.77
516.51	17947.23
516.68	17982.34
516.85	18118.09
517.03	18185.96
517.20	18246.82
517.37	18052.55
517.54	18326.39
517.72	18150.85
517.89	18317.03
518.06	18099.36
518.24	18242.14
518.41	18277.24
518.58	18523.00
518.75	18448.10
518.93	18677.48
519.10	18604.92
519.27	18572.15
519.45	18958.34
519.62	18831.95
519.79	18649.39
519.96	18972.38
520.14	18958.34
520.31	18911.53
520.48	19051.96
520.65	18899.83
520.83	18909.19
521.00	18803.86
521.17	18965.36
521.34	19068.34
521.52	19171.33
521.69	19356.23
521.86	19442.83
522.03	19124.52
522.20	19337.51
522.38	19293.04
522.55	19501.34
522.72	19592.62
522.89	19475.60
523.07	19686.25
523.24	19468.58
523.41	19653.48
523.58	19452.19
523.75	19594.96
523.92	19779.87
524.10	19290.70
524.27	19747.10
524.44	19831.36
524.61	19796.25
524.78	20053.71
524.96	20081.80
525.13	20049.03
525.30	19927.32
525.47	20229.25
525.64	20255.00
525.81	20095.84
525.98	20175.42
526.16	19920.30
526.33	20105.20
526.50	20262.02
526.67	20006.90
526.84	20475.01
527.01	20182.44
527.18	20074.77
527.36	20545.22
527.53	20306.49
527.70	20119.24
527.87	20482.03
528.04	20313.51
528.21	20500.75
528.38	20425.86
528.55	20652.89
528.72	20594.37
528.89	20533.52
529.07	20603.74
529.24	20889.28
529.41	21076.52
529.58	20531.18
529.75	20563.95
529.92	20697.36
530.09	20744.17
530.26	21085.89
530.43	21032.05
530.60	20908.01
530.77	21067.16
530.94	20849.49
531.11	21076.52
531.28	21067.16
531.46	21259.09
531.63	21443.99
531.80	21174.83
531.97	21018.01
532.14	21652.30
532.31	21071.84
532.48	21245.04
532.65	21415.90
532.82	21160.78
532.99	21394.84
533.16	21387.82
533.33	21352.71
533.50	21551.65
533.67	21687.40
533.84	21432.29
534.01	21724.85
534.18	21439.31
534.35	22005.72
534.52	21401.86
534.69	21682.72
534.86	22064.23
535.03	21656.98
535.20	21532.93
535.37	22143.81
535.54	21841.88
535.71	21553.99
535.88	22047.85
536.05	21912.10
536.22	21975.29
536.38	21839.54
536.55	22258.49
536.72	21914.44
536.89	21879.33
537.06	21748.26
537.23	22169.55
537.40	22237.43
537.57	22539.36
537.74	22267.86
537.91	22597.87
538.08	22003.38
538.25	21879.33
538.42	22038.48
538.59	22239.77
538.75	22040.82
538.92	22286.58
539.09	22607.23
539.26	22422.33
539.43	22368.50
539.60	22712.56
539.77	22478.50
539.94	22298.28
540.11	22298.28
540.28	22380.20
540.44	22546.38
540.61	22431.69
540.78	22445.74
540.95	22892.78
541.12	22583.83
541.29	22333.39
541.46	22693.83
541.62	22668.09
541.79	22714.90
541.96	22522.98
542.13	22649.36
542.30	22644.68
542.47	22831.93
542.63	22621.28
542.80	23070.66
542.97	22815.54
543.14	23173.64
543.31	23028.53
543.48	23349.18
543.64	23566.85
543.81	23154.92
543.98	23154.92
544.15	23360.89
544.32	23473.23
544.48	23353.87
544.65	23665.16
544.82	23330.46
544.99	23367.91
545.16	23356.21
545.32	23763.46
545.49	23679.20
545.66	23576.22
545.83	23459.19
546.00	23756.44
546.16	23669.84
546.33	23445.15
546.50	23304.71
546.67	23543.45
546.83	23307.05
547.00	23431.10
547.17	23255.56
547.34	23606.64
547.50	23377.27
547.67	23545.79
547.84	23578.56
548.00	23730.69
548.17	23651.11
548.34	23552.81
548.51	23810.27
548.67	23733.03
548.84	24063.05
549.01	23896.87
549.18	23733.03
549.34	23978.79
549.51	23669.84
549.68	23660.48
549.84	23754.10
550.01	23868.78
550.18	24060.71
550.34	23873.46
550.51	23983.47
550.68	23960.06
550.84	23831.33
551.01	23850.06
551.18	23676.86
551.34	23789.20
551.51	23908.57
551.68	24231.57
551.84	24128.58
552.01	24030.28
552.18	24334.55
552.34	23962.40
552.51	24247.95
552.68	23803.25
552.84	24093.47
553.01	24287.74
553.18	24374.34
553.34	24149.65
553.51	23836.02
553.67	24264.33
553.84	24266.67
554.01	24636.48
554.17	24360.30
554.34	24276.04
554.51	24313.48
554.67	24608.39
554.84	24608.39
555.00	24453.92
555.17	24402.43
555.33	24535.84
555.50	24353.27
555.67	24734.78
555.83	24130.92
556.00	24056.03
556.16	25085.86
556.33	24294.76
556.50	24280.72
556.66	24650.52
556.83	24428.17
556.99	24528.81
557.16	24442.21
557.32	24755.85
557.49	24643.50
557.65	24482.00
557.82	24334.55
557.98	24386.04
558.15	24968.84
558.32	24690.31
558.48	24730.10
558.65	25041.39
558.81	24603.71
558.98	24678.61
559.14	24828.40
559.31	24505.41
559.47	24727.76
559.64	24601.37
559.80	24521.79
559.97	24994.58
560.13	24486.68
560.30	24870.53
560.46	24893.94
560.63	24856.49
560.79	25242.68
560.96	24903.30
561.12	24952.45
561.29	25111.61
561.45	24840.11
561.61	25015.65
561.78	25123.31
561.94	24704.35
562.11	24819.04
562.27	24739.46
562.44	24868.19
562.60	24737.12
562.77	24788.61
562.93	24816.70
563.10	24996.92
563.26	24664.57
563.42	25029.69
563.59	24819.04
563.75	24891.60
563.92	24940.75
564.08	24849.47
564.24	24989.90
564.41	24678.61
564.57	24959.47
564.74	24566.26
564.90	24961.81
565.07	25050.75
565.23	25132.67
565.39	24917.34
565.56	25076.50
565.72	24905.64
565.88	24924.36
566.05	24950.11
566.21	24730.10
566.38	24776.91
566.54	24929.05
566.70	24910.32
566.87	25263.74
567.03	25074.16
567.19	25465.03
567.36	24851.81
567.52	24959.47
567.68	24987.56
567.85	24823.72
568.01	24889.26
568.17	24730.10
568.34	25106.93
568.50	25252.04
568.66	25139.69
568.83	25549.29
568.99	25027.35
569.15	25294.17
569.32	24945.43
569.48	24596.69
569.64	25188.85
569.81	25153.74
569.97	24931.39
570.13	25106.93
570.30	24812.02
570.46	25020.33
570.62	25010.96
570.78	24903.30
570.95	25125.65
571.11	25127.99
571.27	25050.75
571.43	25158.42
571.60	25343.32
571.76	25008.62
571.92	25127.99
572.09	25317.57
572.25	25109.27
572.41	25401.83
572.57	25277.79
572.74	25406.52
572.90	25270.76
573.06	25212.25
573.22	25310.55
573.38	25315.23
573.55	25296.51
573.71	25212.25
573.87	25542.27
574.03	24877.55
574.20	25151.40
574.36	25179.48
574.52	25158.42
574.68	24989.90
574.84	25177.14
575.01	25385.45
575.17	25184.16
575.33	25326.94
575.49	25268.42
575.65	25146.72
575.82	25570.35
575.98	25149.06
576.14	25362.04
576.30	25118.63
576.46	25113.95
576.62	25364.39
576.79	24943.09
576.95	25055.43
577.11	25048.41
577.27	25429.92
577.43	25303.53
577.59	25167.78
577.75	25369.07
577.92	24973.52
578.08	25111.61
578.24	25172.46
578.40	25043.73
578.56	25380.77
578.72	24863.51
578.88	25699.08
579.04	25532.90
579.21	25184.16
579.37	25504.82
579.53	25476.73
579.69	25230.98
579.85	25418.22
580.01	25156.08
580.17	25259.06
580.33	25113.95
580.49	25570.35
580.65	25509.50
580.82	25305.87
580.98	25460.35
581.14	25226.29
581.30	25579.71
581.46	25530.56
581.62	25200.55
581.78	25392.47
581.94	25589.08
582.10	25106.93
582.26	25294.17
582.42	25427.58
582.58	25661.63
582.74	25270.76
582.90	25458.01
583.06	25490.77
583.22	25366.73
583.38	24989.90
583.54	25223.95
583.70	25240.34
583.86	25053.09
584.02	25404.17
584.18	25413.54
584.34	25387.79
584.50	25448.64
584.66	25200.55
584.82	25282.47
584.98	25064.80
585.14	25448.64
585.30	25095.22
585.46	25357.36
585.62	25200.55
585.78	25146.72
585.94	25392.47
586.10	25256.72
586.26	25387.79
586.42	25425.24
586.58	25399.49
586.74	25282.47
586.90	25443.96
587.06	25064.80
587.22	25490.77
587.38	25226.29
587.54	25420.56
587.70	25748.23
587.86	25448.64
588.02	25348.00
588.18	25553.97
588.34	25366.73
588.49	25406.52
588.65	25340.98
588.81	25135.01
588.97	25799.73
589.13	25181.82
589.29	25563.33
589.45	25504.82
589.61	25582.06
589.77	25741.21
589.93	25539.93
590.08	25572.69
590.24	25483.75
590.40	25851.22
590.56	25638.23
590.72	25694.40
590.88	25322.26
591.04	25458.01
591.20	25460.35
591.35	25568.01
591.51	25745.89
591.67	25589.08
591.83	25504.82
591.99	25781.00
592.15	25628.87
592.31	25638.23
