SpectraSuite Data File
++++++++++++++++++++++++++++++++++++
Date: Fri Oct 04 11:48:45 GMT-05:00 2013
User: price-jones
Dark Spectrum Present: No
Reference Spectrum Present: No
Number of Sampled Component Spectra: 1
Spectrometers: USB2+H05261
Integration Time (usec): 100000 (USB2+H05261)
Spectra Averaged: 1 (USB2+H05261)
Boxcar Smoothing: 0 (USB2+H05261)
Correct for Electrical Dark: No (USB2+H05261)
Strobe/Lamp Enabled: No (USB2+H05261)
Correct for Detector Non-linearity: No (USB2+H05261)
Correct for Stray Light: No (USB2+H05261)
Number of Pixels in Processed Spectrum: 2048
>>>>>Begin Processed Spectral Data<<<<<
365.73	46.81
365.92	46.81
366.12	46.81
366.32	0.00
366.52	0.00
366.72	0.00
366.91	0.00
367.11	0.00
367.31	0.00
367.51	0.00
367.70	0.00
367.90	0.00
368.10	0.00
368.30	0.00
368.49	0.00
368.69	0.00
368.89	0.00
369.09	0.00
369.28	0.00
369.48	0.00
369.68	0.00
369.87	0.00
370.07	0.00
370.27	0.00
370.47	18.72
370.66	290.23
370.86	348.74
371.06	367.46
371.25	320.65
371.45	280.86
371.65	358.10
371.84	266.82
372.04	294.91
372.24	337.04
372.44	360.44
372.63	355.76
372.83	334.70
373.03	442.36
373.22	477.47
373.42	404.91
373.62	395.55
373.81	472.79
374.01	472.79
374.21	507.90
374.40	449.38
374.60	512.58
374.79	543.00
374.99	528.96
375.19	379.17
375.38	428.32
375.58	489.17
375.78	468.11
375.97	582.79
376.17	564.07
376.37	470.45
376.56	437.68
376.76	550.03
376.95	465.77
377.15	538.32
377.35	528.96
377.54	540.66
377.74	512.58
377.93	475.13
378.13	482.15
378.33	500.87
378.52	545.34
378.72	538.32
378.91	582.79
379.11	531.30
379.31	538.32
379.50	587.47
379.70	638.97
379.89	594.50
380.09	594.50
380.28	634.29
380.48	524.28
380.68	535.98
380.87	550.03
381.07	613.22
381.26	561.73
381.46	545.34
381.65	589.82
381.85	650.67
382.04	606.20
382.24	596.84
382.43	657.69
382.63	671.73
382.83	594.50
383.02	699.82
383.22	830.89
383.41	706.84
383.61	671.73
383.80	653.01
384.00	660.03
384.19	758.33
384.39	744.29
384.58	636.63
384.78	634.29
384.97	697.48
385.17	732.59
385.36	645.99
385.56	744.29
385.75	643.65
385.95	716.20
386.14	809.83
386.34	791.10
386.53	716.20
386.72	744.29
386.92	784.08
387.11	751.31
387.31	718.54
387.50	746.63
387.70	709.18
387.89	781.74
388.09	795.78
388.28	791.10
388.48	777.06
388.67	880.04
388.86	816.85
389.06	844.93
389.25	880.04
389.45	793.44
389.64	875.36
389.84	844.93
390.03	826.21
390.22	835.57
390.42	840.25
390.61	826.21
390.81	908.13
391.00	849.61
391.19	931.53
391.39	894.08
391.58	936.21
391.78	1004.09
391.97	976.00
392.16	929.19
392.36	947.92
392.55	983.02
392.75	985.37
392.94	990.05
393.13	971.32
393.33	966.64
393.52	964.30
393.71	1011.11
393.91	1006.43
394.10	999.41
394.29	1071.97
394.49	990.05
394.68	1020.47
394.88	1015.79
395.07	1107.07
395.26	1125.80
395.46	1118.78
395.65	1153.88
395.84	1081.33
396.04	1226.44
396.23	1130.48
396.42	1006.43
396.62	1149.20
396.81	1156.22
397.00	1172.61
397.19	1142.18
397.39	1163.25
397.58	1181.97
397.77	1125.80
397.97	1254.53
398.16	1268.57
398.35	1273.25
398.55	1221.76
398.74	1242.82
398.93	1287.29
399.12	1277.93
399.32	1226.44
399.51	1177.29
399.70	1303.68
399.90	1273.25
400.09	1458.15
400.28	1397.30
400.47	1329.42
400.67	1416.02
400.86	1352.83
401.05	1366.87
401.24	1427.73
401.44	1516.67
401.63	1430.07
401.82	1432.41
402.01	1446.45
402.21	1547.09
402.40	1488.58
402.59	1542.41
402.78	1507.30
402.97	1425.39
403.17	1572.84
403.36	1462.83
403.55	1586.88
403.74	1572.84
403.93	1444.11
404.13	1621.99
404.32	1582.20
404.51	1645.40
404.70	1652.42
404.89	1570.50
405.09	1762.42
405.28	1703.91
405.47	1589.22
405.66	1767.10
405.85	1792.85
406.05	1753.06
406.24	1713.27
406.43	1813.92
406.62	1865.41
406.81	1902.86
407.00	1823.28
407.20	1825.62
407.39	1881.79
407.58	1961.37
407.77	1844.34
407.96	1944.99
408.15	2047.97
408.34	1940.30
408.54	1881.79
408.73	1989.46
408.92	2129.89
409.11	2078.40
409.30	2045.63
409.49	2071.37
409.68	2062.01
409.87	2143.93
410.07	2143.93
410.26	2099.46
410.45	2305.43
410.64	2148.61
410.83	2186.06
411.02	2303.09
411.21	2340.54
411.40	2286.70
411.59	2275.00
411.78	2328.83
411.98	2356.92
412.17	2457.56
412.36	2380.32
412.55	2473.95
412.74	2476.29
412.93	2574.59
413.12	2502.03
413.31	2588.63
413.50	2565.23
413.69	2605.02
413.88	2546.50
414.07	2602.68
414.26	2677.57
414.45	2640.12
414.64	2649.49
414.83	2736.09
415.02	2780.56
415.22	2925.67
415.41	2899.92
415.60	2897.58
415.79	2787.58
415.98	2981.84
416.17	2904.60
416.36	2930.35
416.55	2991.20
416.74	2958.44
416.93	2967.80
417.12	3023.97
417.31	3145.68
417.50	2935.03
417.69	3283.77
417.88	3185.47
418.07	3218.24
418.26	3222.92
418.45	3199.51
418.64	3370.37
418.83	3318.88
419.02	3330.58
419.21	3337.60
419.39	3428.88
419.58	3274.41
419.77	3197.17
419.96	3346.97
420.15	3473.36
420.34	3337.60
420.53	3691.02
420.72	3616.13
420.91	3529.53
421.10	3627.83
421.29	3611.45
421.48	3496.76
421.67	3646.55
421.86	3515.48
422.05	3665.28
422.24	3552.93
422.43	3655.92
422.61	3611.45
422.80	3630.17
422.99	3660.60
423.18	3716.77
423.37	3777.62
423.56	3709.75
423.75	3653.58
423.94	3679.32
424.13	3410.16
424.32	3623.15
424.50	3822.09
424.69	3684.00
424.88	3798.69
425.07	3665.28
425.26	3669.96
425.45	3747.20
425.64	3756.56
425.83	3747.20
426.01	3796.35
426.20	3943.80
426.39	3803.37
426.58	3948.48
426.77	3819.75
426.96	3922.74
427.15	3913.38
427.33	4058.49
427.52	3943.80
427.71	4014.02
427.90	3999.98
428.09	4014.02
428.28	3971.89
428.46	4156.79
428.65	4072.53
428.84	4255.09
429.03	4198.92
429.22	4023.38
429.40	4142.75
429.59	4149.77
429.78	4107.64
429.97	3946.14
430.16	4121.68
430.34	4231.69
430.53	4393.19
430.72	4210.62
430.91	4269.14
431.10	4299.56
431.28	4407.23
431.47	4280.84
431.66	4430.63
431.85	4538.30
432.03	4449.36
432.22	4571.07
432.41	4468.08
432.60	4489.15
432.79	4461.06
432.97	4573.41
433.16	4568.73
433.35	4568.73
433.54	4554.68
433.72	4575.75
433.91	4528.94
434.10	4559.36
434.28	4702.14
434.47	4535.96
434.66	4762.99
434.85	4894.06
435.03	4903.42
435.22	4819.16
435.41	4774.69
435.59	4762.99
435.78	4973.64
435.97	4926.83
436.16	5041.51
436.34	5034.49
436.53	5013.43
436.72	5071.94
436.90	4997.04
437.09	5205.35
437.28	4891.72
437.46	4975.98
437.65	5043.85
437.84	5071.94
438.02	5036.83
438.21	5177.26
438.40	5076.62
438.58	5331.74
438.77	5331.74
438.96	5371.53
439.14	5359.83
439.33	5469.83
439.52	5355.15
439.70	5565.79
439.89	5411.32
440.08	5540.05
440.26	5547.07
440.45	5664.10
440.63	5636.01
440.82	5748.36
441.01	5774.10
441.19	5804.53
441.38	5905.17
441.57	5846.66
441.75	5935.60
441.94	5933.26
442.12	5928.58
442.31	5984.75
442.50	6157.95
442.68	6085.39
442.87	6186.04
443.05	5973.05
443.24	6312.42
443.43	6204.76
443.61	6331.15
443.80	6239.87
443.98	6061.99
444.17	6047.94
444.35	6455.20
444.54	6471.58
444.73	6424.77
444.91	6333.49
445.10	6331.15
445.28	6319.45
445.47	6282.00
445.65	6328.81
445.84	6504.35
446.02	6408.39
446.21	6359.24
446.39	6324.13
446.58	6473.92
446.77	6530.09
446.95	6429.45
447.14	6291.36
447.32	6506.69
447.51	6452.86
447.69	6565.20
447.88	6544.14
448.06	6502.01
448.25	6546.48
448.43	6541.80
448.62	6670.53
448.80	6401.37
448.99	6558.18
449.17	6565.20
449.36	6537.12
449.54	6539.46
449.73	6761.81
449.91	6733.72
450.10	6775.85
450.28	7098.84
450.46	6881.18
450.65	7112.89
450.83	6946.71
451.02	6876.49
451.20	6935.01
451.39	6920.96
451.57	6942.03
451.76	6965.43
451.94	7021.61
452.13	7211.19
452.31	7063.74
452.49	7035.65
452.68	7218.21
452.86	7194.81
453.05	7304.81
453.23	7204.17
453.42	7122.25
453.60	7222.89
453.78	7183.10
453.97	7021.61
454.15	7173.74
454.34	7157.36
454.52	7421.84
454.70	7412.48
454.89	7459.29
455.07	7382.05
455.26	7534.18
455.44	7573.97
455.62	7445.24
455.81	7468.65
455.99	7627.81
456.17	7562.27
456.36	7513.12
456.54	7836.11
456.73	7604.40
456.91	7941.44
457.09	7861.86
457.28	7843.14
457.46	7850.16
457.64	8119.32
457.83	7981.23
458.01	7784.62
458.19	7941.44
458.38	8018.68
458.56	8210.60
458.74	8032.72
458.93	7939.10
459.11	8023.36
459.29	8271.45
459.48	8336.99
459.66	8191.88
459.84	8456.36
460.03	8430.61
460.21	8393.16
460.39	8320.60
460.57	8400.18
460.76	8435.29
460.94	8344.01
461.12	8465.72
461.31	8507.85
461.49	8568.70
461.67	8535.93
461.85	8753.60
462.04	8793.39
462.22	8954.89
462.40	8748.92
462.59	8793.39
462.77	8690.41
462.95	8933.82
463.13	8826.16
463.32	9004.04
463.50	8975.95
463.68	8858.93
463.86	9048.51
464.05	8777.01
464.23	8758.28
464.41	9043.83
464.59	8889.35
464.78	8903.40
464.96	9109.36
465.14	9055.53
465.32	9102.34
465.50	9057.87
465.69	9202.99
465.87	9156.18
466.05	9146.81
466.23	9137.45
466.41	9315.33
466.60	9490.87
466.78	9090.64
466.96	9217.03
467.14	9362.14
467.32	9373.85
467.51	9577.47
467.69	9202.99
467.87	9352.78
468.05	9511.94
468.23	9294.27
468.41	9516.62
468.60	9750.67
468.78	9607.90
468.96	9373.85
469.14	9783.44
469.32	9755.35
469.50	9570.45
469.69	9809.19
469.87	9825.57
470.05	9923.87
470.23	9961.32
470.41	10040.90
470.59	9998.77
470.77	9874.72
470.95	10188.35
471.14	10188.35
471.32	9907.49
471.50	10448.15
471.68	10429.43
471.86	10270.27
472.04	10359.21
472.22	10534.75
472.40	10298.36
472.58	10443.47
472.77	10487.94
472.95	10665.82
473.13	10843.70
473.31	10588.58
473.49	10593.26
473.67	10918.60
473.85	10729.02
474.03	11021.58
474.21	11000.52
474.39	11176.06
474.57	11360.96
474.75	11330.53
474.93	11290.74
475.12	11447.56
475.30	11501.39
475.48	11220.53
475.66	11449.90
475.84	11726.08
476.02	11716.72
476.20	11920.35
476.38	11819.71
476.56	11894.60
476.74	11889.92
476.92	11927.37
477.10	12067.80
477.28	12297.17
477.46	12140.36
477.64	12648.26
477.82	12631.87
478.00	12816.77
478.18	12924.44
478.36	12723.15
478.54	12933.80
478.72	13090.62
478.90	13310.63
479.08	13071.89
479.26	13277.86
479.44	13406.59
479.62	13500.21
479.80	13460.42
479.98	13572.77
480.16	13525.96
480.34	13853.63
480.52	14363.87
480.70	14129.81
480.88	14118.11
481.06	14083.00
481.24	13877.04
481.41	14759.42
481.59	14780.48
481.77	14810.91
481.95	14953.68
482.13	14864.74
482.31	15101.14
482.49	15349.23
482.67	15236.89
482.85	15623.08
483.03	15590.31
483.21	15719.04
483.39	15822.02
483.57	15786.91
483.74	16123.95
483.92	16114.59
484.10	16133.31
484.28	16486.73
484.46	16978.25
484.64	16898.67
484.82	16903.35
485.00	16879.94
485.18	17167.83
485.35	17444.01
485.53	17591.47
485.71	17362.09
485.89	17755.30
486.07	17537.63
486.25	17778.71
486.43	17832.54
486.61	18204.69
486.78	18178.94
486.96	18740.67
487.14	18466.83
487.32	18672.79
487.50	18899.83
487.68	18853.02
487.85	19274.31
488.03	19440.49
488.21	19730.72
488.39	19686.25
488.57	19789.23
488.75	19775.19
488.92	20215.21
489.10	20229.25
489.28	20547.56
489.46	20458.62
489.64	20573.31
489.81	20996.95
489.99	20987.58
490.17	21254.40
490.35	21029.71
490.53	21050.78
490.70	21408.88
490.88	21254.40
491.06	21724.85
491.24	21867.63
491.41	21942.52
491.59	22024.44
491.77	22207.00
491.95	22368.50
492.13	22424.67
492.30	22923.21
492.48	22742.99
492.66	23040.23
492.84	23035.55
493.01	23101.09
493.19	23147.90
493.37	23704.95
493.54	23496.64
493.72	23957.72
493.90	24023.26
494.08	24107.52
494.25	24442.21
494.43	24507.75
494.61	24891.60
494.79	24570.94
494.96	24709.04
495.14	24952.45
495.32	25010.96
495.49	25383.11
495.67	25296.51
495.85	25263.74
496.02	25769.30
496.20	25642.91
496.38	25685.04
496.55	26157.83
496.73	26389.54
496.91	26338.05
497.09	26792.11
497.26	26649.34
497.44	26195.28
497.62	26885.73
497.79	27206.39
497.97	27072.98
498.14	27566.83
498.32	27765.78
498.50	27648.75
498.67	27784.50
498.85	27630.02
499.03	27695.56
499.20	28025.57
499.38	28063.02
499.56	28290.06
499.73	28311.12
499.91	28437.51
500.08	28713.69
500.26	28311.12
500.44	28718.37
500.61	28823.70
500.79	28568.58
500.97	29095.20
501.14	29340.96
501.32	29490.75
501.49	29198.18
501.67	28996.90
501.84	29439.26
502.02	29619.48
502.20	29834.81
502.37	29923.75
502.55	29930.77
502.72	30017.37
502.90	30529.95
503.07	30195.25
503.25	30132.06
503.43	30136.74
503.60	30581.44
503.78	30869.33
503.95	30696.13
504.13	30806.13
504.30	30663.36
504.48	31021.46
504.65	31197.00
504.83	31292.96
505.01	31466.16
505.18	31171.25
505.36	31660.43
505.53	31424.03
505.71	31627.66
505.88	32151.94
506.06	31714.26
506.23	32205.77
506.41	32219.81
506.58	32273.65
506.76	32407.06
506.93	32772.18
507.11	32336.84
507.28	32484.30
507.46	32835.38
507.63	32692.60
507.81	33273.06
507.98	33083.47
508.16	33074.11
508.33	32954.74
508.50	33074.11
508.68	33062.41
508.85	33549.24
509.03	33287.10
509.20	33516.47
509.38	33563.28
509.55	34260.76
509.73	33930.75
509.90	34293.53
510.08	34150.76
510.25	34206.93
510.42	34244.38
510.60	34277.15
510.77	34595.46
510.95	34754.61
511.12	34817.81
511.30	34607.16
511.47	35220.38
511.64	35416.99
511.82	35363.15
511.99	35089.31
512.17	35484.86
512.34	35281.24
512.51	35414.65
512.69	35924.88
512.86	35959.99
513.04	35831.26
513.21	36584.91
513.38	36357.88
513.56	36128.51
513.73	36051.27
513.90	36091.06
514.08	36273.62
514.25	36570.87
514.43	36746.41
514.60	36903.23
514.77	36854.08
514.95	36882.16
515.12	37195.79
515.29	37120.90
515.47	37156.00
515.64	37544.53
515.81	36950.04
515.99	37516.45
516.16	37479.00
516.33	37773.91
516.51	37605.39
516.68	37291.76
516.85	37834.76
517.03	37806.67
517.20	38192.86
517.37	38195.20
517.54	38352.02
517.72	38300.53
517.89	38169.46
518.06	38199.88
518.24	38450.32
518.41	38263.08
518.58	38424.57
518.75	38424.57
518.93	38754.59
519.10	38717.14
519.27	38958.22
519.45	38920.77
519.62	39119.71
519.79	38801.40
519.96	39290.57
520.14	39597.18
520.31	39423.98
520.48	39498.88
520.65	39423.98
520.83	39784.43
521.00	39866.34
521.17	39892.09
521.34	39927.20
521.52	40076.99
521.69	40044.23
521.86	39737.62
522.03	40172.96
522.20	40135.51
522.38	40495.95
522.55	40397.65
522.72	40650.42
522.89	40741.71
523.07	41001.50
523.24	40828.30
523.41	40861.07
523.58	40645.74
523.75	40938.31
523.92	40978.10
524.10	41167.68
524.27	41408.76
524.44	41221.52
524.61	41523.44
524.78	41106.83
524.96	41715.37
525.13	41441.53
525.30	41844.10
525.47	41883.89
525.64	41617.07
525.81	42071.13
525.98	42171.77
526.16	41790.27
526.33	42405.83
526.50	42033.68
526.67	41904.95
526.84	41691.96
527.01	41858.14
527.18	42494.77
527.36	42288.80
527.53	42616.47
527.70	42609.45
527.87	42885.64
528.04	42614.13
528.21	42658.60
528.38	43105.65
528.55	43103.31
528.72	43129.05
528.89	43461.41
529.07	43026.07
529.24	43129.05
529.41	43253.10
529.58	43367.79
529.75	43524.60
529.92	43232.04
530.09	43526.94
530.26	43250.76
530.43	43690.78
530.60	43559.71
530.77	43693.12
530.94	43737.59
531.11	43847.60
531.28	43636.95
531.46	43854.62
531.63	44367.20
531.80	44004.41
531.97	44189.31
532.14	44460.82
532.31	44243.15
532.48	43786.74
532.65	44767.43
532.82	44011.43
532.99	44325.07
533.16	44102.71
533.33	44893.82
533.50	44966.37
533.67	45155.96
533.84	44500.61
534.01	44711.25
534.18	44800.19
534.35	44980.42
534.52	45205.11
534.69	45542.14
534.86	45303.41
535.03	44832.96
535.20	45397.03
535.37	45509.38
535.54	45167.66
535.71	44601.25
535.88	45221.49
536.05	45500.01
536.22	45705.98
536.38	45846.41
536.55	45525.76
536.72	45659.17
536.89	45715.34
537.06	45940.04
537.23	45975.14
537.40	45694.28
537.57	45965.78
537.74	46333.24
537.91	46469.00
538.08	45949.40
538.25	45874.50
538.42	46087.49
538.59	46417.50
538.75	46019.61
538.92	45986.85
539.09	46302.82
539.26	46417.50
539.43	46270.05
539.60	47019.02
539.77	46611.77
539.94	46728.80
540.11	46452.61
540.28	46941.78
540.44	46492.40
540.61	46581.34
540.78	46777.95
540.95	47065.83
541.12	47185.20
541.29	46885.61
541.46	47213.29
541.62	46672.62
541.79	47145.41
541.96	46960.51
542.13	47639.26
542.30	47281.16
542.47	47421.59
542.63	47498.83
542.80	47452.02
542.97	47435.64
543.14	48072.26
543.31	47536.28
543.48	47753.95
543.64	48006.73
543.81	48109.71
543.98	47896.72
544.15	48870.39
544.32	48250.14
544.48	48116.73
544.65	48327.38
544.82	47583.09
544.99	47966.94
545.16	48626.97
545.32	47995.03
545.49	48523.99
545.66	49013.16
545.83	48718.25
546.00	48746.34
546.16	48818.89
546.33	48523.99
546.50	47765.65
546.67	48486.54
546.83	48137.80
547.00	48446.75
547.17	48811.87
547.34	48516.96
547.50	48753.36
547.67	49120.82
547.84	48989.75
548.00	48966.35
548.17	48999.12
548.34	49111.46
548.51	49539.78
548.67	49507.01
548.84	49343.17
549.01	49076.35
549.18	49317.43
549.34	49265.94
549.51	48987.41
549.68	49083.37
549.84	48989.75
550.01	49455.52
550.18	49724.68
550.34	49312.75
550.51	49499.99
550.68	49469.56
550.84	49275.30
551.01	49619.36
551.18	49155.93
551.34	49443.82
551.51	49668.51
551.68	49588.93
551.84	49916.61
552.01	49701.28
552.18	49869.79
552.34	49848.73
552.51	49748.09
552.68	49972.78
552.84	49921.29
553.01	50047.68
553.18	50094.49
553.34	50258.32
553.51	49832.35
553.67	50230.24
553.84	50426.84
554.01	50251.30
554.17	49972.78
554.34	50108.53
554.51	50176.40
554.67	50188.11
554.84	50440.89
555.00	50595.36
555.17	50539.19
555.33	50286.41
555.50	50316.84
555.67	50202.15
555.83	50431.52
556.00	50761.54
556.16	50686.64
556.33	50543.87
556.50	50506.42
556.66	50677.28
556.83	50497.06
556.99	50761.54
557.16	50728.77
557.32	51011.98
557.49	51023.68
557.65	50597.70
557.82	50756.86
557.98	50719.41
558.15	50960.48
558.32	50986.23
558.48	50904.31
558.65	50644.51
558.81	50698.34
558.98	51042.40
559.14	50490.04
559.31	50843.46
559.47	50824.73
559.64	50948.78
559.80	51086.87
559.97	51164.11
560.13	51016.66
560.30	51339.65
560.46	51229.65
560.63	51040.06
560.79	50899.63
560.96	51320.93
561.12	50843.46
561.29	51264.75
561.45	51189.86
561.61	51269.43
561.78	50981.55
561.94	51220.28
562.11	50892.61
562.27	51072.83
562.44	51068.15
562.60	50857.50
562.77	51657.96
562.93	51377.10
563.10	51344.33
563.26	51456.68
563.42	51484.76
563.59	51533.92
563.75	51285.82
563.92	51475.40
564.08	51089.21
564.24	51381.78
564.41	51370.08
564.57	51365.40
564.74	51660.30
564.90	51304.54
565.07	51714.14
565.23	51835.84
565.39	51920.10
565.56	51810.10
565.72	51358.38
565.88	51819.46
566.05	51442.63
566.21	51716.48
566.38	51461.36
566.54	51770.31
566.70	51859.25
566.87	51608.81
567.03	51657.96
567.19	51987.98
567.36	51613.49
567.52	51444.98
567.68	51824.14
567.85	51732.86
568.01	51770.31
568.17	51585.41
568.34	51927.13
568.50	51821.80
568.66	52025.43
568.83	51966.91
568.99	51852.23
569.15	51763.29
569.32	51929.47
569.48	51676.69
569.64	51835.84
569.81	51962.23
569.97	51803.08
570.13	51971.60
570.30	51819.46
570.46	51751.59
570.62	51777.33
570.78	51980.96
570.95	51793.71
571.11	51885.00
571.27	51639.24
571.43	51796.06
571.60	52095.64
571.76	51810.10
571.92	52144.80
572.09	52121.39
572.25	51934.15
572.41	52170.54
572.57	52144.80
572.74	52348.42
572.90	51849.89
573.06	52069.90
573.22	52016.07
573.38	52285.23
573.55	52144.80
573.71	52095.64
573.87	52259.48
574.03	52196.29
574.20	52128.41
574.36	51690.73
574.52	52114.37
574.68	51571.36
574.84	52207.99
575.01	52306.29
575.17	52243.10
575.33	51983.30
575.49	52060.54
575.65	52037.13
575.82	52280.55
575.98	51877.97
576.14	52273.52
576.30	52392.89
576.46	52144.80
576.62	51950.53
576.79	52102.67
576.95	51737.54
577.11	52231.40
577.27	52378.85
577.43	52282.89
577.59	52325.02
577.75	52236.08
577.92	52119.05
578.08	52168.20
578.24	51861.59
578.40	52144.80
578.56	52193.95
578.72	51971.60
578.88	52650.35
579.04	52428.00
579.21	52009.04
579.37	52303.95
579.53	52376.51
579.69	52186.92
579.85	52521.62
580.01	52336.72
580.17	52207.99
580.33	52411.62
580.49	52322.68
580.65	52226.71
580.82	52308.63
580.98	52203.31
581.14	52179.90
581.30	52601.20
581.46	52170.54
581.62	52306.29
581.78	52306.29
581.94	52577.79
582.10	52168.20
582.26	52465.45
582.42	52683.12
582.58	52495.88
582.74	52360.12
582.90	52872.70
583.06	52158.84
583.22	52285.23
583.38	52582.48
583.54	52264.16
583.70	52629.29
583.86	52339.06
584.02	52317.99
584.18	52526.30
584.34	52392.89
584.50	52598.86
584.66	52495.88
584.82	52271.18
584.98	52402.25
585.14	52458.43
585.30	52395.23
585.46	52580.13
585.62	52343.74
585.78	52657.37
585.94	52308.63
586.10	52652.69
586.26	52435.02
586.42	52313.31
586.58	52587.16
586.74	52200.97
586.90	52411.62
587.06	52215.01
587.22	52406.94
587.38	52463.11
587.54	52378.85
587.70	52678.44
587.86	52500.56
588.02	52608.22
588.18	52643.33
588.34	52453.75
588.49	52472.47
588.65	52402.25
588.81	52420.98
588.97	52530.98
589.13	52484.17
589.29	52523.96
589.45	52811.85
589.61	52931.22
589.77	52774.40
589.93	52966.32
590.08	52797.80
590.24	52680.78
