SpectraSuite Data File
++++++++++++++++++++++++++++++++++++
Date: Fri Oct 04 11:48:48 GMT-05:00 2013
User: price-jones
Dark Spectrum Present: No
Reference Spectrum Present: No
Number of Sampled Component Spectra: 1
Spectrometers: USB2+H05261
Integration Time (usec): 100000 (USB2+H05261)
Spectra Averaged: 1 (USB2+H05261)
Boxcar Smoothing: 0 (USB2+H05261)
Correct for Electrical Dark: No (USB2+H05261)
Strobe/Lamp Enabled: No (USB2+H05261)
Correct for Detector Non-linearity: No (USB2+H05261)
Correct for Stray Light: No (USB2+H05261)
Number of Pixels in Processed Spectrum: 2048
>>>>>Begin Processed Spectral Data<<<<<
365.73	119.37
365.92	119.37
366.12	119.37
366.32	0.00
366.52	0.00
366.72	0.00
366.91	0.00
367.11	0.00
367.31	0.00
367.51	0.00
367.70	0.00
367.90	11.70
368.10	0.00
368.30	0.00
368.49	0.00
368.69	0.00
368.89	0.00
369.09	0.00
369.28	0.00
369.48	0.00
369.68	0.00
369.87	21.06
370.07	0.00
370.27	9.36
370.47	60.85
370.66	138.09
370.86	131.07
371.06	215.33
371.25	304.27
371.45	140.43
371.65	313.63
371.84	229.37
372.04	243.42
372.24	229.37
372.44	266.82
372.63	348.74
372.83	315.97
373.03	344.06
373.22	287.89
373.42	318.31
373.62	372.15
373.81	285.55
374.01	311.29
374.21	315.97
374.40	388.53
374.60	404.91
374.79	337.04
374.99	266.82
375.19	330.02
375.38	390.87
375.58	362.78
375.78	379.17
375.97	273.84
376.17	440.02
376.37	381.51
376.56	362.78
376.76	379.17
376.95	388.53
377.15	388.53
377.35	337.04
377.54	383.85
377.74	299.59
377.93	322.99
378.13	332.36
378.33	383.85
378.52	344.06
378.72	322.99
378.91	386.19
379.11	358.10
379.31	402.57
379.50	423.64
379.70	383.85
379.89	358.10
380.09	332.36
380.28	402.57
380.48	435.34
380.68	372.15
380.87	440.02
381.07	418.96
381.26	425.98
381.46	411.93
381.65	381.51
381.85	383.85
382.04	435.34
382.24	400.23
382.43	390.87
382.63	404.91
382.83	386.19
383.02	421.30
383.22	440.02
383.41	425.98
383.61	402.57
383.80	428.32
384.00	458.74
384.19	470.45
384.39	479.81
384.58	470.45
384.78	444.70
384.97	442.36
385.17	493.85
385.36	465.77
385.56	500.87
385.75	428.32
385.95	500.87
386.14	468.11
386.34	472.79
386.53	491.51
386.72	475.13
386.92	571.09
387.11	514.92
387.31	547.69
387.50	535.98
387.70	397.89
387.89	517.26
388.09	458.74
388.28	528.96
388.48	470.45
388.67	629.60
388.86	554.71
389.06	554.71
389.25	550.03
389.45	528.96
389.64	554.71
389.84	587.47
390.03	566.41
390.22	578.11
390.42	533.64
390.61	594.50
390.81	571.09
391.00	608.54
391.19	573.43
391.39	627.26
391.58	566.41
391.78	566.41
391.97	624.92
392.16	599.18
392.36	669.39
392.55	610.88
392.75	624.92
392.94	610.88
393.13	727.91
393.33	653.01
393.52	671.73
393.71	671.73
393.91	688.12
394.10	702.16
394.29	587.47
394.49	643.65
394.68	599.18
394.88	688.12
395.07	653.01
395.26	709.18
395.46	704.50
395.65	798.12
395.84	734.93
396.04	751.31
396.23	812.17
396.42	723.23
396.62	660.03
396.81	741.95
397.00	784.08
397.19	861.32
397.39	732.59
397.58	751.31
397.77	805.14
397.97	807.48
398.16	812.17
398.35	912.81
398.55	844.93
398.74	795.78
398.93	950.26
399.12	870.68
399.32	835.57
399.51	910.47
399.70	910.47
399.90	922.17
400.09	952.60
400.28	983.02
400.47	976.00
400.67	919.83
400.86	940.90
401.05	992.39
401.24	1032.18
401.44	1020.47
401.63	1008.77
401.82	1062.60
402.01	926.85
402.21	980.68
402.40	992.39
402.59	1018.13
402.78	1036.86
402.97	978.34
403.17	947.92
403.36	1102.39
403.55	1144.52
403.74	1095.37
403.93	1074.31
404.13	1181.97
404.32	1153.88
404.51	1184.31
404.70	1268.57
404.89	1095.37
405.09	1324.74
405.28	1214.74
405.47	1256.87
405.66	1249.85
405.85	1203.04
406.05	1205.38
406.24	1235.80
406.43	1301.34
406.62	1364.53
406.81	1448.79
407.00	1313.04
407.20	1390.28
407.39	1303.68
407.58	1350.49
407.77	1420.71
407.96	1467.52
408.15	1502.62
408.34	1437.09
408.54	1465.18
408.73	1549.43
408.92	1483.90
409.11	1605.61
409.30	1511.99
409.49	1483.90
409.68	1516.67
409.87	1586.88
410.07	1629.01
410.26	1692.21
410.45	1575.18
410.64	1640.72
410.83	1598.59
411.02	1636.03
411.21	1638.38
411.40	1748.38
411.59	1739.02
411.78	1813.92
411.98	1715.61
412.17	1823.28
412.36	1764.76
412.55	1858.39
412.74	1916.90
412.93	1916.90
413.12	1825.62
413.31	1940.30
413.50	1881.79
413.69	1923.92
413.88	2026.90
414.07	2136.91
414.26	2047.97
414.45	2064.35
414.64	2122.87
414.83	2143.93
415.02	2143.93
415.22	2073.71
415.41	2174.36
415.60	2176.70
415.79	2186.06
415.98	2314.79
416.17	2263.30
416.36	2237.55
416.55	2382.67
416.74	2415.43
416.93	2305.43
417.12	2340.54
417.31	2473.95
417.50	2368.62
417.69	2593.31
417.88	2518.42
418.07	2445.86
418.26	2368.62
418.45	2551.18
418.64	2499.69
418.83	2581.61
419.02	2541.82
419.21	2616.72
419.39	2647.15
419.58	2572.25
419.77	2623.74
419.96	2722.04
420.15	2686.94
420.34	2736.09
420.53	2841.41
420.72	2782.90
420.91	2818.00
421.10	2761.83
421.29	2810.98
421.48	2794.60
421.67	2710.34
421.86	2743.11
422.05	2745.45
422.24	2780.56
422.43	2878.86
422.61	2949.08
422.80	2841.41
422.99	2878.86
423.18	2899.92
423.37	2949.08
423.56	2967.80
423.75	2902.26
423.94	2899.92
424.13	2658.85
424.32	2801.62
424.50	3122.27
424.69	3052.06
424.88	3002.91
425.07	2871.84
425.26	2864.82
425.45	3016.95
425.64	2843.75
425.83	2986.52
426.01	2979.50
426.20	3014.61
426.39	2909.29
426.58	2965.46
426.77	2956.10
426.96	3103.55
427.15	2993.55
427.33	3021.63
427.52	3070.78
427.71	3164.40
427.90	3155.04
428.09	3138.66
428.28	3129.30
428.46	3150.36
428.65	3159.72
428.84	3222.92
429.03	3260.37
429.22	3150.36
429.40	3227.60
429.59	3337.60
429.78	3157.38
429.97	3220.58
430.16	3133.98
430.34	3286.11
430.53	3435.91
430.72	3243.98
430.91	3288.45
431.10	3365.69
431.28	3494.42
431.47	3372.71
431.66	3499.10
431.85	3456.97
432.03	3459.31
432.22	3562.30
432.41	3417.18
432.60	3648.90
432.79	3463.99
432.97	3541.23
433.16	3590.38
433.35	3606.77
433.54	3557.61
433.72	3571.66
433.91	3609.11
434.10	3588.04
434.28	3775.28
434.47	3672.30
434.66	3712.09
434.85	3831.46
435.03	3648.90
435.22	3754.22
435.41	3920.40
435.59	3861.88
435.78	3716.77
435.97	3794.01
436.16	3779.97
436.34	3859.54
436.53	3803.37
436.72	3976.57
436.90	3892.31
437.09	4051.47
437.28	3761.24
437.46	3894.65
437.65	3976.57
437.84	4112.32
438.02	4067.85
438.21	4095.94
438.40	4063.17
438.58	4236.37
438.77	4091.26
438.96	4086.58
439.14	4229.35
439.33	4175.52
439.52	4255.09
439.70	4182.54
439.89	4369.78
440.08	4306.59
440.26	4472.76
440.45	4454.04
440.63	4435.32
440.82	4610.86
441.01	4517.23
441.19	4599.15
441.38	4566.39
441.57	4470.42
441.75	4683.41
441.94	4709.16
442.12	4671.71
442.31	4802.78
442.50	4800.44
442.68	4858.95
442.87	4919.81
443.05	4795.76
443.24	4894.06
443.43	4760.65
443.61	4938.53
443.80	5090.67
443.98	4664.69
444.17	4573.41
444.35	4870.65
444.54	4990.02
444.73	4943.21
444.91	5015.77
445.10	5036.83
445.28	4952.57
445.47	4875.34
445.65	4835.55
445.84	4903.42
446.02	5116.41
446.21	5069.60
446.39	4931.51
446.58	4971.30
446.77	4891.72
446.95	5025.13
447.14	4947.89
447.32	5074.28
447.51	5093.01
447.69	5060.24
447.88	4917.47
448.06	5214.71
448.25	4968.96
448.43	4917.47
448.62	5078.96
448.80	5128.11
448.99	5102.37
449.17	5210.03
449.36	5088.32
449.54	5308.34
449.73	5313.02
449.91	5186.63
450.10	5231.10
450.28	5317.70
450.46	5376.21
450.65	5275.57
450.83	5418.34
451.02	5462.81
451.20	5614.95
451.39	5451.11
451.57	5383.23
451.76	5460.47
451.94	5582.18
452.13	5633.67
452.31	5558.77
452.49	5460.47
452.68	5678.14
452.86	5540.05
453.05	5706.23
453.23	5558.77
453.42	5563.45
453.60	5614.95
453.78	5598.56
453.97	5633.67
454.15	5551.75
454.34	5621.97
454.52	5689.84
454.70	5746.02
454.89	5867.72
455.07	5743.67
455.26	5774.10
455.44	5914.53
455.62	5891.13
455.81	5867.72
455.99	5893.47
456.17	5970.71
456.36	5961.34
456.54	5902.83
456.73	6026.88
456.91	6193.06
457.09	6179.01
457.28	6162.63
457.46	6169.65
457.64	6171.99
457.83	6331.15
458.01	6136.88
458.19	6303.06
458.38	6218.80
458.56	6363.92
458.74	6291.36
458.93	6363.92
459.11	6321.79
459.29	6382.64
459.48	6504.35
459.66	6373.28
459.84	6471.58
460.03	6516.05
460.21	6317.11
460.39	6574.56
460.57	6434.13
460.76	6635.42
460.94	6651.80
461.12	6511.37
461.31	6581.59
461.49	6569.88
461.67	6565.20
461.85	6841.39
462.04	6628.40
462.22	7169.06
462.40	6925.65
462.59	6867.13
462.77	6836.70
462.95	6836.70
463.13	6846.07
463.32	6885.86
463.50	6771.17
463.68	6993.52
463.86	7098.84
464.05	6899.90
464.23	6984.16
464.41	6817.98
464.59	6848.41
464.78	7136.29
464.96	7005.22
465.14	7000.54
465.32	7037.99
465.50	7098.84
465.69	7194.81
465.87	7063.74
466.05	7033.31
466.23	7021.61
466.41	7276.73
466.60	7356.30
466.78	7302.47
466.96	7087.14
467.14	7042.67
467.32	7187.79
467.51	7410.14
467.69	7096.50
467.87	7272.04
468.05	7307.15
468.23	7375.03
468.41	7438.22
468.60	7246.30
468.78	7384.39
468.96	7412.48
469.14	7599.72
469.32	7487.37
469.50	7485.03
469.69	7641.85
469.87	7602.06
470.05	7744.83
470.23	7693.34
470.41	7559.93
470.59	7756.54
470.77	7571.63
470.95	7709.72
471.14	7772.92
471.32	7676.96
471.50	8084.21
471.68	7988.25
471.86	8133.36
472.04	7793.98
472.22	8065.49
472.40	7815.05
472.58	8128.68
472.77	7948.46
472.95	8091.23
473.13	8461.04
473.31	8339.33
473.49	8348.69
473.67	8327.63
473.85	8187.19
474.03	8320.60
474.21	8393.16
474.39	8727.86
474.57	8697.43
474.75	8746.58
474.93	8709.13
475.12	8805.10
475.30	8854.25
475.48	8758.28
475.66	8833.18
475.84	8865.95
476.02	8954.89
476.20	8908.08
476.38	9123.41
476.56	9114.05
476.74	9062.55
476.92	9301.29
477.10	9235.75
477.28	9474.49
477.46	9343.42
477.64	9626.62
477.82	9500.23
478.00	9764.72
478.18	9692.16
478.36	9755.35
478.54	9881.74
478.72	9916.85
478.90	10223.46
479.08	10071.33
479.26	10258.57
479.44	10399.00
479.62	10497.30
479.80	10312.40
479.98	10537.09
480.16	10490.28
480.34	10817.96
480.52	10827.32
480.70	10953.71
480.88	10698.59
481.06	10766.46
481.24	10939.66
481.41	11206.48
481.59	11152.65
481.77	11328.19
481.95	11433.52
482.13	11349.26
482.31	11375.00
482.49	11609.06
482.67	11798.64
482.85	11983.54
483.03	12011.63
483.21	12109.93
483.39	12395.48
483.57	12098.23
483.74	12170.79
483.92	12175.47
484.10	12119.29
484.28	12603.78
484.46	12800.39
484.64	12844.86
484.82	12362.71
485.00	12938.48
485.18	12940.82
485.35	13362.12
485.53	13128.06
485.71	13516.59
485.89	13446.38
486.07	13366.80
486.25	13411.27
486.43	13554.04
486.61	13710.86
486.78	13958.96
486.96	13968.32
487.14	14143.86
487.32	14097.05
487.50	14176.62
487.68	14127.47
487.85	14593.24
488.03	14518.34
488.21	15131.56
488.39	14714.95
488.57	14965.39
488.75	14993.47
488.92	15323.49
489.10	15269.66
489.28	15590.31
489.46	15700.31
489.64	15676.91
489.81	15995.22
489.99	15971.82
490.17	16252.68
490.35	16259.70
490.53	16444.60
490.70	16697.38
490.88	16243.32
491.06	16624.83
491.24	16322.90
491.41	16821.43
491.59	16840.15
491.77	17003.99
491.95	17029.74
492.13	17193.58
492.30	17048.46
492.48	17441.67
492.66	17186.55
492.84	17570.40
493.01	17809.14
493.19	17554.02
493.37	17867.65
493.54	17949.57
493.72	18335.76
493.90	18223.41
494.08	18050.21
494.25	18389.59
494.43	18483.21
494.61	18427.04
494.79	18628.32
494.96	18771.10
495.14	18981.74
495.32	18920.89
495.49	19101.11
495.67	19131.54
495.85	19597.31
496.02	19133.88
496.20	19480.28
496.38	19580.92
496.55	19564.54
496.73	19763.48
496.91	19737.74
497.09	20053.71
497.26	20095.84
497.44	20086.48
497.62	20020.94
497.79	20283.08
497.97	20475.01
498.14	20690.34
498.32	20727.78
498.50	20835.45
498.67	20585.01
498.85	21008.65
499.03	20900.98
499.20	21282.49
499.38	21106.95
499.56	21113.97
499.73	21874.65
499.91	21341.00
500.08	21635.91
500.26	21315.26
500.44	21844.22
500.61	21539.95
500.79	21771.66
500.97	22022.10
501.14	22136.79
501.32	22361.48
501.49	22438.72
501.67	22139.13
501.84	22373.18
502.02	22370.84
502.20	22593.19
502.37	22986.40
502.55	22656.39
502.72	22740.64
502.90	22775.75
503.07	22497.23
503.25	23026.19
503.43	22998.10
503.60	23175.98
503.78	23384.29
503.95	23250.88
504.13	23344.50
504.30	23386.63
504.48	23330.46
504.65	23857.08
504.83	23723.67
505.01	23718.99
505.18	23779.84
505.36	23686.22
505.53	23723.67
505.71	24123.90
505.88	24002.19
506.06	23875.80
506.23	24276.04
506.41	24229.23
506.58	24685.63
506.76	24442.21
506.93	23941.34
507.11	24372.00
507.28	24547.54
507.46	24573.28
507.63	24971.18
507.81	25310.55
507.98	24666.91
508.16	25055.43
508.33	25408.86
508.50	24900.96
508.68	25216.93
508.85	25448.64
509.03	25439.28
509.20	25617.16
509.38	25647.59
509.55	25832.49
509.73	25617.16
509.90	25757.60
510.08	25837.17
510.25	26178.89
510.42	26183.57
510.60	26405.92
510.77	26342.73
510.95	26394.22
511.12	26167.19
511.30	26368.48
511.47	26225.70
511.64	26099.31
511.82	26817.86
511.99	26958.29
512.17	26927.86
512.34	27122.13
512.51	27213.41
512.69	27103.40
512.86	27285.97
513.04	27173.62
513.21	27466.19
513.38	27222.77
513.56	27395.97
513.73	27278.94
513.90	27672.15
514.08	27513.00
514.25	27480.23
514.43	27810.25
514.60	27964.72
514.77	27885.14
514.95	28222.18
515.12	27814.93
515.29	27812.59
515.47	28072.39
515.64	28711.35
515.81	28463.25
515.99	28425.81
516.16	28589.64
516.33	28414.10
516.51	28746.46
516.68	28439.85
516.85	28395.38
517.03	28748.80
517.20	28573.26
517.37	28828.38
517.54	29013.28
517.72	28975.83
517.89	29167.76
518.06	28685.61
518.24	29263.72
518.41	28980.51
518.58	29607.78
518.75	29284.78
518.93	29490.75
519.10	29855.87
519.27	29673.31
519.45	29406.49
519.62	29259.04
519.79	29783.32
519.96	29741.19
520.14	30183.55
520.31	29844.17
520.48	30302.92
520.65	30026.73
520.83	29844.17
521.00	30370.79
521.17	29970.56
521.34	30244.40
521.52	30450.37
521.69	30110.99
521.86	30583.78
522.03	30822.51
522.20	30457.39
522.38	30707.83
522.55	30614.21
522.72	30986.35
522.89	31241.47
523.07	31061.25
523.24	30836.56
523.41	31014.44
523.58	30740.60
523.75	31349.14
523.92	31234.45
524.10	31232.11
524.27	31065.93
524.44	31475.52
524.61	31519.99
524.78	31597.23
524.96	31428.71
525.13	31702.56
525.30	31597.23
525.47	32046.62
525.64	31952.99
525.81	31833.63
525.98	32135.56
526.16	31924.91
526.33	31644.04
526.50	32622.39
526.67	31934.27
526.84	32371.95
527.01	32004.49
527.18	32446.85
527.36	32545.15
527.53	32449.19
527.70	32840.06
527.87	32341.52
528.04	32524.08
528.21	32526.42
528.38	32407.06
528.55	32826.01
528.72	32774.52
528.89	32865.80
529.07	32615.37
529.24	32491.32
529.41	33111.56
529.58	32875.16
529.75	33036.66
529.92	32975.81
530.09	33202.84
530.26	32996.87
530.43	33406.47
530.60	32982.83
530.77	32615.37
530.94	33153.69
531.11	33230.93
531.28	33221.56
531.46	33209.86
531.63	33244.97
531.80	33542.22
531.97	33778.61
532.14	34019.69
532.31	33577.33
532.48	33500.09
532.65	33954.15
532.82	33790.31
532.99	33727.12
533.16	33773.93
533.33	33963.51
533.50	34136.71
533.67	34089.90
533.84	34007.98
534.01	33759.89
534.18	34148.42
534.35	34330.98
534.52	34178.84
534.69	34347.36
534.86	34651.63
535.03	34487.79
535.20	34508.86
535.37	34595.46
535.54	34691.42
535.71	34480.77
535.88	34602.48
536.05	34429.28
536.22	34820.15
536.38	34745.25
536.55	35086.97
536.72	34794.40
536.89	34426.94
537.06	35021.44
537.23	34653.97
537.40	34836.53
537.57	34677.38
537.74	35065.91
537.91	35278.89
538.08	35058.88
538.25	34876.32
538.42	34768.66
538.59	35627.63
538.75	35285.92
538.92	34855.26
539.09	35566.78
539.26	35398.26
539.43	35138.46
539.60	35819.56
539.77	35697.85
539.94	35889.77
540.11	35658.06
540.28	35880.41
540.44	35644.02
540.61	35821.90
540.78	35594.87
540.95	36236.17
541.12	35866.37
541.29	35658.06
541.46	35625.29
541.62	35880.41
541.79	35934.24
541.96	35992.76
542.13	35871.05
542.30	36048.93
542.47	36301.71
542.63	36392.99
542.80	35896.80
542.97	36395.33
543.14	36346.18
543.31	36048.93
543.48	36407.03
543.64	36793.22
543.81	37205.16
543.98	36744.07
544.15	36664.49
544.32	36875.14
544.48	37177.07
544.65	36758.11
544.82	36933.65
544.99	36804.92
545.16	37055.36
545.32	36919.61
545.49	37371.33
545.66	37219.20
545.83	37233.24
546.00	37120.90
546.16	37256.65
546.33	36921.95
546.50	36746.41
546.67	37024.93
546.83	36898.55
547.00	37387.72
547.17	36980.46
547.34	37394.74
547.50	37436.87
547.67	37628.79
547.84	37357.29
548.00	37811.35
548.17	37706.03
548.34	37361.97
548.51	37766.88
548.67	38190.52
548.84	37919.02
549.01	37558.58
549.18	37373.67
549.34	37624.11
549.51	37797.31
549.68	37516.45
549.84	37677.94
550.01	37614.75
550.18	37830.08
550.34	38033.71
550.51	38359.04
550.68	37860.51
550.84	37738.80
551.01	37762.20
551.18	38113.28
551.34	37766.88
551.51	38242.01
551.68	38244.35
551.84	38429.26
552.01	37930.72
552.18	38312.23
552.34	38192.86
552.51	38593.09
552.68	37715.39
552.84	38237.33
553.01	38440.96
553.18	38209.25
553.34	38590.75
553.51	38656.29
553.67	38932.47
553.84	38789.70
554.01	38483.09
554.17	38426.92
554.34	38520.54
554.51	38457.34
554.67	38735.87
554.84	38848.21
555.00	38885.66
555.17	38831.83
555.33	38981.62
555.50	38616.50
555.67	38216.27
555.83	38588.41
556.00	38724.16
556.16	39000.35
556.33	38806.08
556.50	38920.77
556.66	38689.06
556.83	38845.87
556.99	39065.88
557.16	39157.16
557.32	39337.38
557.49	39562.08
557.65	38675.01
557.82	39040.14
557.98	39276.53
558.15	39210.99
558.32	38913.75
558.48	39276.53
558.65	39180.57
558.81	39070.56
558.98	39473.13
559.14	39187.59
559.31	39077.58
559.47	39218.02
559.64	39026.09
559.80	39096.31
559.97	39445.05
560.13	39395.90
560.30	39503.56
560.46	39218.02
560.63	39672.08
560.79	39299.94
560.96	39564.42
561.12	39171.21
561.29	39042.48
561.45	39580.80
561.61	39739.96
561.78	39559.73
561.94	39585.48
562.11	39318.66
562.27	39896.77
562.44	39466.11
562.60	39695.49
562.77	39629.95
562.93	39594.84
563.10	39966.99
563.26	39407.60
563.42	39901.45
563.59	39908.47
563.75	39695.49
563.92	39845.28
564.08	39342.06
564.24	39758.68
564.41	39512.92
564.57	39550.37
564.74	39924.86
564.90	39868.69
565.07	39786.77
565.23	40114.44
565.39	39643.99
565.56	39962.31
565.72	39732.93
565.88	39992.73
566.05	39920.18
566.21	39496.54
566.38	39725.91
566.54	39718.89
566.70	40119.12
566.87	40322.75
567.03	39667.40
567.19	40542.76
567.36	40137.85
567.52	39538.67
567.68	39852.30
567.85	39665.06
568.01	40032.52
568.17	39941.24
568.34	40222.11
568.50	40098.06
568.66	40121.46
568.83	40102.74
568.99	39887.41
569.15	40112.10
569.32	39800.81
569.48	39683.78
569.64	39997.41
569.81	40149.55
569.97	39826.56
570.13	39779.74
570.30	39690.80
570.46	40222.11
570.62	39981.03
570.78	40140.19
570.95	39683.78
571.11	40079.33
571.27	40196.36
571.43	39477.82
571.60	40318.07
571.76	40133.17
571.92	40273.60
572.09	40102.74
572.25	40109.76
572.41	40215.08
572.57	40032.52
572.74	40568.51
572.90	40020.82
573.06	40016.14
573.22	40240.83
573.38	40486.59
573.55	40425.73
573.71	40744.05
573.87	40484.25
574.03	39810.17
574.20	40334.45
574.36	39934.22
574.52	40837.67
574.68	40446.80
574.84	39983.37
575.01	39985.71
575.17	40392.97
575.33	40402.33
575.49	40357.86
575.65	40294.66
575.82	40168.27
575.98	40217.43
576.14	40357.86
576.30	40135.51
576.46	40388.28
576.62	40341.47
576.79	40212.74
576.95	40191.68
577.11	40409.35
577.27	40275.94
577.43	40355.52
577.59	40535.74
577.75	40437.44
577.92	40507.65
578.08	40182.32
578.24	40264.24
578.40	40439.78
578.56	40755.75
578.72	40072.31
578.88	40701.92
579.04	40755.75
579.21	40168.27
579.37	39840.60
579.53	39772.72
579.69	39962.31
579.85	40308.71
580.01	40416.37
580.17	40172.96
580.33	40285.30
580.49	40849.37
580.65	40624.68
580.82	40233.81
580.98	40554.46
581.14	40222.11
581.30	40385.94
581.46	39964.65
581.62	40020.82
581.78	40219.77
581.94	40467.86
582.10	40414.03
582.26	40355.52
582.42	40437.44
582.58	40636.38
582.74	40596.59
582.90	40502.97
583.06	40566.16
583.22	40430.41
583.38	40587.23
583.54	40264.24
583.70	40650.42
583.86	40346.15
584.02	40594.25
584.18	41053.00
584.34	40542.76
584.50	41116.19
584.66	40587.23
584.82	40205.72
584.98	40411.69
585.14	40217.43
585.30	40348.50
585.46	40765.11
585.62	40205.72
585.78	40786.18
585.94	40006.78
586.10	40718.30
586.26	40416.37
586.42	40737.02
586.58	40985.12
586.74	40493.61
586.90	40676.17
587.06	40383.60
587.22	40453.82
587.38	40100.40
587.54	40418.71
587.70	40692.55
587.86	40884.48
588.02	40722.98
588.18	41170.02
588.34	40776.81
588.49	40421.05
588.65	40217.43
588.81	40271.26
588.97	40502.97
589.13	40285.30
589.29	40727.66
589.45	40959.38
589.61	40830.65
589.77	40985.12
589.93	41006.19
590.08	40856.39
590.24	40849.37
590.40	40751.07
590.56	40570.85
590.72	40622.34
590.88	40301.68
591.04	40332.11
