SpectraSuite Data File
++++++++++++++++++++++++++++++++++++
Date: Fri Oct 04 11:48:42 GMT-05:00 2013
User: price-jones
Dark Spectrum Present: No
Reference Spectrum Present: No
Number of Sampled Component Spectra: 1
Spectrometers: USB2+H05261
Integration Time (usec): 100000 (USB2+H05261)
Spectra Averaged: 1 (USB2+H05261)
Boxcar Smoothing: 0 (USB2+H05261)
Correct for Electrical Dark: No (USB2+H05261)
Strobe/Lamp Enabled: No (USB2+H05261)
Correct for Detector Non-linearity: No (USB2+H05261)
Correct for Stray Light: No (USB2+H05261)
Number of Pixels in Processed Spectrum: 2048
>>>>>Begin Processed Spectral Data<<<<<
365.73	39.79
365.92	39.79
366.12	39.79
366.32	0.00
366.52	0.00
366.72	0.00
366.91	0.00
367.11	0.00
367.31	0.00
367.51	0.00
367.70	0.00
367.90	0.00
368.10	0.00
368.30	0.00
368.49	0.00
368.69	0.00
368.89	0.00
369.09	0.00
369.28	0.00
369.48	0.00
369.68	0.00
369.87	0.00
370.07	0.00
370.27	67.88
370.47	21.06
370.66	124.05
370.86	72.56
371.06	159.16
371.25	191.92
371.45	110.01
371.65	121.71
371.84	102.98
372.04	46.81
372.24	180.22
372.44	138.09
372.63	131.07
372.83	145.11
373.03	184.90
373.22	91.28
373.42	166.18
373.62	191.92
373.81	159.16
374.01	163.84
374.21	147.45
374.40	117.03
374.60	212.99
374.79	170.86
374.99	191.92
375.19	184.90
375.38	212.99
375.58	217.67
375.78	182.56
375.97	201.29
376.17	248.10
376.37	156.82
376.56	198.95
376.76	138.09
376.95	191.92
377.15	142.77
377.35	128.73
377.54	156.82
377.74	201.29
377.93	210.65
378.13	234.05
378.33	205.97
378.52	86.60
378.72	168.52
378.91	203.63
379.11	198.95
379.31	124.05
379.50	142.77
379.70	184.90
379.89	163.84
380.09	203.63
380.28	170.86
380.48	210.65
380.68	243.42
380.87	217.67
381.07	198.95
381.26	210.65
381.46	159.16
381.65	215.33
381.85	208.31
382.04	217.67
382.24	243.42
382.43	243.42
382.63	205.97
382.83	117.03
383.02	227.03
383.22	215.33
383.41	177.88
383.61	257.46
383.80	203.63
384.00	154.48
384.19	198.95
384.39	292.57
384.58	222.35
384.78	222.35
384.97	238.73
385.17	318.31
385.36	189.58
385.56	231.71
385.75	210.65
385.95	215.33
386.14	278.52
386.34	205.97
386.53	255.12
386.72	198.95
386.92	292.57
387.11	210.65
387.31	208.31
387.50	212.99
387.70	255.12
387.89	229.37
388.09	222.35
388.28	215.33
388.48	327.68
388.67	269.16
388.86	220.01
389.06	187.24
389.25	198.95
389.45	315.97
389.64	248.10
389.84	259.80
390.03	283.20
390.22	313.63
390.42	308.95
390.61	252.78
390.81	187.24
391.00	231.71
391.19	283.20
391.39	227.03
391.58	393.21
391.78	257.46
391.97	348.74
392.16	297.25
392.36	320.65
392.55	325.33
392.75	318.31
392.94	220.01
393.13	322.99
393.33	334.70
393.52	320.65
393.71	344.06
393.91	322.99
394.10	290.23
394.29	266.82
394.49	304.27
394.68	341.72
394.88	374.49
395.07	306.61
395.26	362.78
395.46	351.08
395.65	423.64
395.84	425.98
396.04	393.21
396.23	334.70
396.42	322.99
396.62	444.70
396.81	360.44
397.00	365.12
397.19	257.46
397.39	442.36
397.58	425.98
397.77	395.55
397.97	390.87
398.16	388.53
398.35	472.79
398.55	454.06
398.74	442.36
398.93	468.11
399.12	444.70
399.32	505.56
399.51	449.38
399.70	514.92
399.90	456.40
400.09	505.56
400.28	470.45
400.47	465.77
400.67	585.13
400.86	437.68
401.05	526.62
401.24	498.53
401.44	491.51
401.63	521.94
401.82	617.90
402.01	475.13
402.21	629.60
402.40	540.66
402.59	582.79
402.78	615.56
402.97	608.54
403.17	629.60
403.36	547.69
403.55	674.07
403.74	613.22
403.93	636.63
404.13	624.92
404.32	683.44
404.51	685.78
404.70	627.26
404.89	725.57
405.09	767.70
405.28	669.39
405.47	786.42
405.66	648.33
405.85	702.16
406.05	690.46
406.24	716.20
406.43	777.06
406.62	800.46
406.81	856.64
407.00	833.23
407.20	739.61
407.39	856.64
407.58	875.36
407.77	933.87
407.96	875.36
408.15	891.74
408.34	891.74
408.54	861.32
408.73	912.81
408.92	887.06
409.11	950.26
409.30	922.17
409.49	940.90
409.68	978.34
409.87	938.55
410.07	1006.43
410.26	1043.88
410.45	1008.77
410.64	1057.92
410.83	1057.92
411.02	1100.05
411.21	1160.91
411.40	1060.26
411.59	1107.07
411.78	1151.54
411.98	1121.12
412.17	1151.54
412.36	1142.18
412.55	1109.41
412.74	1156.22
412.93	1268.57
413.12	1238.14
413.31	1313.04
413.50	1249.85
413.69	1212.40
413.88	1294.32
414.07	1299.00
414.26	1338.79
414.45	1399.64
414.64	1355.17
414.83	1409.00
415.02	1387.94
415.22	1427.73
415.41	1420.71
415.60	1437.09
415.79	1458.15
415.98	1465.18
416.17	1533.05
416.36	1425.39
416.55	1523.69
416.74	1528.37
416.93	1544.75
417.12	1561.14
417.31	1593.90
417.50	1617.31
417.69	1617.31
417.88	1533.05
418.07	1629.01
418.26	1598.59
418.45	1650.08
418.64	1778.81
418.83	1657.10
419.02	1659.44
419.21	1692.21
419.39	1638.38
419.58	1764.76
419.77	1713.27
419.96	1778.81
420.15	1614.97
420.34	1790.51
420.53	1750.72
420.72	1867.75
420.91	1830.30
421.10	1851.36
421.29	1874.77
421.48	1788.17
421.67	1998.82
421.86	1907.54
422.05	1877.11
422.24	1825.62
422.43	1888.81
422.61	1785.83
422.80	1900.52
422.99	1937.96
423.18	1963.71
423.37	1944.99
423.56	1961.37
423.75	1970.73
423.94	1912.22
424.13	1799.87
424.32	1839.66
424.50	1944.99
424.69	1968.39
424.88	1998.82
425.07	1912.22
425.26	2008.18
425.45	1926.26
425.64	1926.26
425.83	1973.07
426.01	2015.20
426.20	1963.71
426.39	2012.86
426.58	1937.96
426.77	2040.95
426.96	1907.54
427.15	2069.03
427.33	2139.25
427.52	2062.01
427.71	2120.53
427.90	2143.93
428.09	2200.10
428.28	2040.95
428.46	2080.74
428.65	2162.66
428.84	2225.85
429.03	2221.17
429.22	2092.44
429.40	2195.42
429.59	2076.06
429.78	2003.50
429.97	2139.25
430.16	2083.08
430.34	2193.08
430.53	2216.49
430.72	2195.42
430.91	2181.38
431.10	2150.95
431.28	2167.34
431.47	2242.23
431.66	2345.22
431.85	2253.94
432.03	2338.20
432.22	2478.63
432.41	2282.02
432.60	2345.22
432.79	2314.79
432.97	2333.51
433.16	2340.54
433.35	2399.05
433.54	2317.13
433.72	2480.97
433.91	2438.84
434.10	2338.20
434.28	2413.09
434.47	2471.61
434.66	2471.61
434.85	2471.61
435.03	2518.42
435.22	2616.72
435.41	2612.04
435.59	2572.25
435.78	2469.27
435.97	2382.67
436.16	2605.02
436.34	2602.68
436.53	2661.19
436.72	2619.06
436.90	2693.96
437.09	2621.40
437.28	2518.42
437.46	2583.95
437.65	2785.24
437.84	2621.40
438.02	2658.85
438.21	2799.28
438.40	2605.02
438.58	2693.96
438.77	2700.98
438.96	2789.92
439.14	2717.36
439.33	2780.56
439.52	2855.45
439.70	2848.43
439.89	2857.79
440.08	2836.73
440.26	2932.69
440.45	2848.43
440.63	2967.80
440.82	2935.03
441.01	2874.18
441.19	2925.67
441.38	3052.06
441.57	3164.40
441.75	3038.02
441.94	2995.89
442.12	3190.15
442.31	3265.05
442.50	3206.53
442.68	3089.51
442.87	3246.32
443.05	3138.66
443.24	3274.41
443.43	3283.77
443.61	3293.13
443.80	3328.24
443.98	3201.85
444.17	3028.65
444.35	3344.63
444.54	3386.76
444.73	3307.18
444.91	3330.58
445.10	3297.81
445.28	3368.03
445.47	3311.86
445.65	3375.05
445.84	3358.67
446.02	3405.48
446.21	3304.84
446.39	3400.80
446.58	3424.20
446.77	3286.11
446.95	3356.33
447.14	3332.92
447.32	3318.88
447.51	3377.39
447.69	3314.20
447.88	3391.44
448.06	3386.76
448.25	3293.13
448.43	3407.82
448.62	3309.52
448.80	3485.06
448.99	3595.06
449.17	3386.76
449.36	3398.46
449.54	3365.69
449.73	3440.59
449.91	3559.95
450.10	3438.25
450.28	3644.21
450.46	3623.15
450.65	3611.45
450.83	3550.59
451.02	3728.47
451.20	3698.05
451.39	3611.45
451.57	3625.49
451.76	3625.49
451.94	3686.34
452.13	3609.11
452.31	3707.41
452.49	3552.93
452.68	3660.60
452.86	3749.54
453.05	3789.33
453.23	3761.24
453.42	3665.28
453.60	3632.51
453.78	3801.03
453.97	3751.88
454.15	3709.75
454.34	3712.09
454.52	3791.67
454.70	3887.63
454.89	3906.35
455.07	3803.37
455.26	3873.59
455.44	3918.06
455.62	3885.29
455.81	3913.38
455.99	3950.82
456.17	3976.57
456.36	3988.27
456.54	4093.60
456.73	4166.15
456.91	4107.64
457.09	4177.86
457.28	4091.26
457.46	4124.02
457.64	4088.92
457.83	4135.73
458.01	4140.41
458.19	4266.80
458.38	4184.88
458.56	4236.37
458.74	4098.28
458.93	4149.77
459.11	4271.48
459.29	4322.97
459.48	4194.24
459.66	4248.07
459.84	4250.41
460.03	4542.98
460.21	4337.01
460.39	4372.12
460.57	4147.43
460.76	4243.39
460.94	4442.34
461.12	4306.59
461.31	4402.55
461.49	4320.63
461.67	4313.61
461.85	4521.92
462.04	4451.70
462.22	5135.14
462.40	4456.38
462.59	4524.26
462.77	4559.36
462.95	4440.00
463.13	4599.15
463.32	4521.92
463.50	4545.32
463.68	4533.62
463.86	4557.02
464.05	4645.96
464.23	4638.94
464.41	4496.17
464.59	4507.87
464.78	4720.86
464.96	4608.51
465.14	4592.13
465.32	4622.56
465.50	4772.35
465.69	4819.16
465.87	4704.48
466.05	4739.58
466.23	4720.86
466.41	4734.90
466.60	4940.87
466.78	4699.80
466.96	4699.80
467.14	4779.37
467.32	4894.06
467.51	4877.68
467.69	4830.87
467.87	4821.50
468.05	4772.35
468.23	4798.10
468.41	4816.82
468.60	4877.68
468.78	4828.53
468.96	5032.15
469.14	4779.37
469.32	4980.66
469.50	4954.91
469.69	5018.11
469.87	4922.15
470.05	5172.58
470.23	4980.66
470.41	4903.42
470.59	5240.46
470.77	5174.92
470.95	5181.95
471.14	5210.03
471.32	5282.59
471.50	5364.51
471.68	5383.23
471.86	5200.67
472.04	5289.61
472.22	5376.21
472.40	5277.91
472.58	5437.06
472.77	5401.96
472.95	5458.13
473.13	5544.73
473.31	5359.83
473.49	5547.07
473.67	5600.90
473.85	5425.36
474.03	5631.33
474.21	5612.60
474.39	5593.88
474.57	5657.07
474.75	5706.23
474.93	5699.20
475.12	5872.40
475.30	5893.47
475.48	5699.20
475.66	5715.59
475.84	5790.49
476.02	6083.05
476.20	6036.24
476.38	6129.86
476.56	6244.55
476.74	6181.35
476.92	6111.14
477.10	6113.48
477.28	6136.88
477.46	6256.25
477.64	6272.64
477.82	6413.07
478.00	6436.47
478.18	6612.01
478.36	6422.43
478.54	6551.16
478.72	6766.49
478.90	6649.46
479.08	6698.61
479.26	6787.55
479.44	6745.42
479.62	6946.71
479.80	6808.62
479.98	6970.12
480.16	6925.65
480.34	7047.35
480.52	7150.34
480.70	7232.26
480.88	7328.22
481.06	7105.87
481.24	7166.72
481.41	7396.09
481.59	7517.80
481.77	7412.48
481.95	7623.12
482.13	7529.50
482.31	7604.40
482.49	7449.93
482.67	7791.64
482.85	7873.56
483.03	7920.37
483.21	7999.95
483.39	8131.02
483.57	8138.04
483.74	8060.80
483.92	7992.93
484.10	8107.62
484.28	8344.01
484.46	8257.41
484.64	8580.40
484.82	8482.10
485.00	8449.33
485.18	8610.83
485.35	8702.11
485.53	8659.98
485.71	8678.71
485.89	8990.00
486.07	8791.05
486.25	8982.98
486.43	9107.02
486.61	9188.94
486.78	9270.86
486.96	9334.06
487.14	9341.08
487.32	9511.94
487.50	9312.99
487.68	9654.71
487.85	9523.64
488.03	9839.61
488.21	9860.68
488.39	9816.21
488.57	9811.53
488.75	9839.61
488.92	10246.87
489.10	10237.50
489.28	10141.54
489.46	10382.62
489.64	10333.47
489.81	10478.58
489.99	10602.63
490.17	10518.37
490.35	10506.66
490.53	10520.71
490.70	10705.61
490.88	10780.51
491.06	11007.54
491.24	10925.62
491.41	10916.26
491.59	11059.03
491.77	11049.67
491.95	11286.06
492.13	11255.64
492.30	11255.64
492.48	11405.43
492.66	11290.74
492.84	11412.45
493.01	11632.46
493.19	11517.78
493.37	11470.97
493.54	11674.59
493.72	11805.66
493.90	11789.28
494.08	11988.22
494.25	12198.87
494.43	12044.40
494.61	12341.64
494.79	12196.53
494.96	12470.37
495.14	12498.46
495.32	12189.51
495.49	12606.13
495.67	12631.87
495.85	12861.24
496.02	12823.80
496.20	12744.22
496.38	12877.63
496.55	12784.01
496.73	13116.36
496.91	12910.40
497.09	13202.96
497.26	13291.90
497.44	13085.94
497.62	13123.38
497.79	13429.99
497.97	13465.10
498.14	13568.09
498.32	13708.52
498.50	13638.30
498.67	13736.60
498.85	13556.38
499.03	14061.94
499.20	13778.73
499.38	13827.88
499.56	13921.51
499.73	14068.96
499.91	14324.08
500.08	14242.16
500.26	13982.36
500.44	14499.62
500.61	14340.46
500.79	14153.22
500.97	14649.41
501.14	14448.13
501.32	14530.05
501.49	14607.28
501.67	14485.58
501.84	14567.49
502.02	14623.67
502.20	14707.93
502.37	14939.64
502.55	14874.10
502.72	14885.81
502.90	14843.68
503.07	14768.78
503.25	14977.09
503.43	14970.07
503.60	15365.62
503.78	15026.24
503.95	15227.53
504.13	15342.21
504.30	15220.50
504.48	15229.87
504.65	15363.28
504.83	15480.30
505.01	15925.00
505.18	15793.94
505.36	15702.65
505.53	15704.99
505.71	15477.96
505.88	15620.74
506.06	15723.72
506.23	16009.26
506.41	15901.60
506.58	15868.83
506.76	16149.70
506.93	15925.00
507.11	16027.99
507.28	16184.80
507.46	15866.49
507.63	16372.05
507.81	16428.22
507.98	16252.68
508.16	16477.37
508.33	16463.33
508.50	16332.26
508.68	16414.18
508.85	16430.56
509.03	16533.54
509.20	16863.56
509.38	16884.62
509.55	16903.35
509.73	16655.25
509.90	17076.55
510.08	17158.47
510.25	17057.82
510.42	17411.25
510.60	17348.05
510.77	17355.07
510.95	17242.73
511.12	17020.38
511.30	17362.09
511.47	17511.89
511.64	17411.25
511.82	17668.70
511.99	17624.23
512.17	17535.29
512.34	17605.51
512.51	17528.27
512.69	17844.24
512.86	17888.71
513.04	17900.42
513.21	18085.32
513.38	17741.26
513.56	18097.02
513.73	18061.91
513.90	18178.94
514.08	18246.82
514.25	18401.29
514.43	18291.29
514.60	18244.48
514.77	18111.07
514.95	18455.12
515.12	18450.44
515.29	18485.55
515.47	18569.81
515.64	18710.24
515.81	18499.59
515.99	18590.88
516.16	18860.04
516.33	18970.04
516.51	19271.97
516.68	18656.41
516.85	18593.22
517.03	18611.94
517.20	19194.73
517.37	18932.59
517.54	19215.80
517.72	19314.10
517.89	18939.62
518.06	19243.88
518.24	19051.96
518.41	19126.86
518.58	19236.86
518.75	19232.18
518.93	19477.94
519.10	19248.57
519.27	19524.75
519.45	19094.09
519.62	19304.74
519.79	19697.95
519.96	19536.45
520.14	19901.58
520.31	19482.62
520.48	19922.64
520.65	19660.50
520.83	19847.74
521.00	20042.01
521.17	19936.68
521.34	19817.32
521.52	20037.33
521.69	19599.65
521.86	20219.89
522.03	20170.74
522.20	20247.97
522.38	20210.53
522.55	20102.86
522.72	20203.50
522.89	20109.88
523.07	20596.71
523.24	20542.88
523.41	20655.23
523.58	20418.83
523.75	20315.85
523.92	20369.68
524.10	20631.82
524.27	20416.49
524.44	20673.95
524.61	20788.64
524.78	21102.27
524.96	20636.50
525.13	20992.26
525.30	20758.21
525.47	20966.52
525.64	20875.24
525.81	20985.24
525.98	21235.68
526.16	21137.38
526.33	21109.29
526.50	21460.37
526.67	21179.51
526.84	21343.35
527.01	21092.91
527.18	21275.47
527.36	21310.58
527.53	21364.41
527.70	21530.59
527.87	21645.27
528.04	21495.48
528.21	21476.76
528.38	21743.58
528.55	21600.80
528.72	21305.90
528.89	22054.87
529.07	21837.20
529.24	21565.70
529.41	21752.94
529.58	21741.24
529.75	21539.95
529.92	21748.26
530.09	21682.72
530.26	21865.28
530.43	21923.80
530.60	21785.71
530.77	21671.02
530.94	21774.00
531.11	21942.52
531.28	22097.00
531.46	22155.51
531.63	22059.55
531.80	22562.76
531.97	22022.10
532.14	22094.66
532.31	22218.71
532.48	22064.23
532.65	22459.78
532.82	22150.83
532.99	22284.24
533.16	22345.09
533.33	22235.09
533.50	22604.89
533.67	22405.95
533.84	22309.99
534.01	22441.06
534.18	22506.59
534.35	22513.61
534.52	22806.18
534.69	22792.14
534.86	22640.00
535.03	22761.71
535.20	22548.72
535.37	22707.88
535.54	22831.93
535.71	22504.25
535.88	22649.36
536.05	22829.59
536.22	22555.74
536.38	22827.24
536.55	22981.72
536.72	23077.68
536.89	23056.62
537.06	22801.50
537.23	22970.02
537.40	22998.10
537.57	22941.93
537.74	23143.22
537.91	23594.94
538.08	23154.92
538.25	22970.02
538.42	22946.61
538.59	23679.20
538.75	23068.32
538.92	23283.65
539.09	23370.25
539.26	23662.82
539.43	23311.74
539.60	23501.32
539.77	23587.92
539.94	23454.51
540.11	23606.64
540.28	23508.34
540.44	23274.29
540.61	23623.03
540.78	23293.01
540.95	23969.43
541.12	23578.56
541.29	23693.24
541.46	23424.08
541.62	23786.86
541.79	23828.99
541.96	23756.44
542.13	23768.14
542.30	23866.44
542.47	23995.17
542.63	23941.34
542.80	24027.94
542.97	24109.86
543.14	23934.32
543.31	23901.55
543.48	23903.89
543.64	24240.93
543.81	24177.73
543.98	24245.61
544.15	24280.72
544.32	24292.42
544.48	24477.32
544.65	24259.65
544.82	24128.58
544.99	24329.87
545.16	24664.57
545.32	24364.98
545.49	24451.58
545.66	24800.32
545.83	24687.97
546.00	24477.32
546.16	24397.74
546.33	24407.11
546.50	24395.40
546.67	24318.17
546.83	24463.28
547.00	24362.64
547.17	24636.48
547.34	24842.45
547.50	24561.58
547.67	24702.01
547.84	24678.61
548.00	24240.93
548.17	24622.44
548.34	24828.40
548.51	24748.82
548.67	24676.27
548.84	25027.35
549.01	24826.06
549.18	24620.10
549.34	24879.89
549.51	24793.29
549.68	24840.11
549.84	24840.11
550.01	25067.14
550.18	25104.59
550.34	25104.59
550.51	24751.17
550.68	25238.00
550.84	24915.00
551.01	24994.58
551.18	25120.97
551.34	24807.34
551.51	25209.91
551.68	25078.84
551.84	25212.25
552.01	25518.86
552.18	25404.17
552.34	25102.25
552.51	25139.69
552.68	25039.05
552.84	25069.48
553.01	25350.34
553.18	25432.26
553.34	25383.11
553.51	25135.01
553.67	25331.62
553.84	25362.04
554.01	25736.53
554.17	25326.94
554.34	25287.15
554.51	25474.39
554.67	25827.81
554.84	25813.77
555.00	25628.87
555.17	25240.34
555.33	25507.16
555.50	25469.71
555.67	25429.92
555.83	25348.00
556.00	25221.61
556.16	25944.84
556.33	25411.20
556.50	25343.32
556.66	25708.44
556.83	25600.78
556.99	25525.88
557.16	25834.83
557.32	25956.54
557.49	25671.00
557.65	25104.59
557.82	25659.29
557.98	25649.93
558.15	25560.99
558.32	25996.33
558.48	25907.39
558.65	25682.70
558.81	25668.66
558.98	25844.20
559.14	25811.43
559.31	25521.20
559.47	25839.51
559.64	25532.90
559.80	25671.00
559.97	26377.84
560.13	25841.85
560.30	26050.16
560.46	25907.39
560.63	25612.48
560.79	26326.35
560.96	26293.58
561.12	25921.43
561.29	25872.28
561.45	25591.42
561.61	25839.51
561.78	25834.83
561.94	26005.69
562.11	26078.25
562.27	25598.44
562.44	25975.27
562.60	25844.20
562.77	25762.28
562.93	25916.75
563.10	26019.74
563.26	25865.26
563.42	26214.00
563.59	25851.22
563.75	26125.06
563.92	26242.09
564.08	26061.87
564.24	25963.56
564.41	26022.08
564.57	25963.56
564.74	25766.96
564.90	25940.16
565.07	26309.96
565.23	25954.20
565.39	26162.51
565.56	25825.47
565.72	26061.87
565.88	26347.41
566.05	26155.49
566.21	26038.46
566.38	25912.07
566.54	25724.83
566.70	26499.55
566.87	26068.89
567.03	26059.52
567.19	26225.70
567.36	26394.22
567.52	26237.41
567.68	26405.92
567.85	25979.95
568.01	26029.10
568.17	26103.99
568.34	26553.38
568.50	26391.88
568.66	26125.06
568.83	26649.34
568.99	26232.72
569.15	25965.90
569.32	25937.82
569.48	26195.28
569.64	25905.05
569.81	26366.13
569.97	25900.37
570.13	26412.95
570.30	26202.30
570.46	26443.37
570.62	26618.91
570.78	26204.64
570.95	25703.76
571.11	25909.73
571.27	26136.76
571.43	26265.49
571.60	26274.85
571.76	26122.72
571.92	26246.77
572.09	26347.41
572.25	26459.76
572.41	26136.76
572.57	26103.99
572.74	26412.95
572.90	26031.44
573.06	25998.67
573.22	26363.79
573.38	26445.71
573.55	25949.52
573.71	26532.31
573.87	26452.73
574.03	26291.24
574.20	26235.06
574.36	26001.01
574.52	26169.53
574.68	25996.33
574.84	26490.18
575.01	26590.83
575.17	26398.90
575.33	26265.49
575.49	26085.27
575.65	26473.80
575.82	26396.56
575.98	26080.59
576.14	26260.81
576.30	26181.23
576.46	26328.69
576.62	26401.24
576.79	26260.81
576.95	26022.08
577.11	26822.54
577.27	26251.45
577.43	26607.21
577.59	26080.59
577.75	26127.40
577.92	25900.37
578.08	26022.08
578.24	26167.19
578.40	26232.72
578.56	26569.76
578.72	26405.92
578.88	26731.26
579.04	26408.26
579.21	26637.64
579.37	26483.16
579.53	26546.36
579.69	26293.58
579.85	26422.31
580.01	26253.79
580.17	26160.17
580.33	26192.94
580.49	26426.99
580.65	26593.17
580.82	26480.82
580.98	26501.89
581.14	26373.16
581.30	26300.60
581.46	26305.28
581.62	26532.31
581.78	26319.32
581.94	26157.83
582.10	26494.86
582.26	26536.99
582.42	26281.88
582.58	26862.33
582.74	26214.00
582.90	26476.14
583.06	26639.98
583.22	26555.72
583.38	26410.60
583.54	26635.30
583.70	26607.21
583.86	26480.82
584.02	26656.36
584.18	26569.76
584.34	26251.45
584.50	26635.30
584.66	26611.89
584.82	26162.51
584.98	26469.12
585.14	26576.78
585.30	26024.42
585.46	26476.14
585.62	26361.45
585.78	26373.16
585.94	26520.61
586.10	26419.97
586.26	26408.26
586.42	26581.46
586.58	26546.36
586.74	26202.30
586.90	26300.60
587.06	26209.32
587.22	26178.89
587.38	26174.21
587.54	26616.57
587.70	26789.77
587.86	26855.31
588.02	26719.56
588.18	26377.84
588.34	26522.95
588.49	26307.62
588.65	26309.96
588.81	26352.09
588.97	26497.20
589.13	26361.45
589.29	26501.89
589.45	26525.29
589.61	26803.82
589.77	26298.26
589.93	26740.62
590.08	26719.56
590.24	26415.29
590.40	26171.87
590.56	26696.15
590.72	26494.86
590.88	26527.63
591.04	26319.32
591.20	26960.63
591.35	26944.25
591.51	26969.99
591.67	26677.43
591.83	26602.53
591.99	26511.25
592.15	26614.23
