SpectraSuite Data File
++++++++++++++++++++++++++++++++++++
Date: Fri Oct 04 11:48:40 GMT-05:00 2013
User: price-jones
Dark Spectrum Present: No
Reference Spectrum Present: No
Number of Sampled Component Spectra: 1
Spectrometers: USB2+H05261
Integration Time (usec): 100000 (USB2+H05261)
Spectra Averaged: 1 (USB2+H05261)
Boxcar Smoothing: 0 (USB2+H05261)
Correct for Electrical Dark: No (USB2+H05261)
Strobe/Lamp Enabled: No (USB2+H05261)
Correct for Detector Non-linearity: No (USB2+H05261)
Correct for Stray Light: No (USB2+H05261)
Number of Pixels in Processed Spectrum: 2048
>>>>>Begin Processed Spectral Data<<<<<
365.73	65.54
365.92	65.54
366.12	65.54
366.32	30.43
366.52	0.00
366.72	0.00
366.91	0.00
367.11	0.00
367.31	0.00
367.51	0.00
367.70	0.00
367.90	0.00
368.10	0.00
368.30	0.00
368.49	0.00
368.69	0.00
368.89	0.00
369.09	0.00
369.28	0.00
369.48	0.00
369.68	0.00
369.87	46.81
370.07	0.00
370.27	0.00
370.47	74.90
370.66	297.25
370.86	379.17
371.06	381.51
371.25	451.72
371.45	365.12
371.65	428.32
371.84	402.57
372.04	318.31
372.24	411.93
372.44	393.21
372.63	433.00
372.83	416.62
373.03	435.34
373.22	458.74
373.42	498.53
373.62	407.25
373.81	393.21
374.01	578.11
374.21	470.45
374.40	510.24
374.60	571.09
374.79	468.11
374.99	493.85
375.19	517.26
375.38	479.81
375.58	461.09
375.78	561.73
375.97	543.00
376.17	594.50
376.37	475.13
376.56	477.47
376.76	496.19
376.95	587.47
377.15	547.69
377.35	526.62
377.54	575.77
377.74	531.30
377.93	543.00
378.13	575.77
378.33	603.86
378.52	524.28
378.72	566.41
378.91	601.52
379.11	620.24
379.31	519.60
379.50	540.66
379.70	615.56
379.89	699.82
380.09	571.09
380.28	636.63
380.48	676.41
380.68	624.92
380.87	620.24
381.07	594.50
381.26	685.78
381.46	596.84
381.65	624.92
381.85	685.78
382.04	671.73
382.24	671.73
382.43	603.86
382.63	610.88
382.83	624.92
383.02	695.14
383.22	770.04
383.41	631.94
383.61	716.20
383.80	741.95
384.00	730.25
384.19	734.93
384.39	655.35
384.58	805.14
384.78	866.00
384.97	720.88
385.17	706.84
385.36	627.26
385.56	697.48
385.75	695.14
385.95	744.29
386.14	737.27
386.34	805.14
386.53	695.14
386.72	802.80
386.92	840.25
387.11	786.42
387.31	727.91
387.50	826.21
387.70	823.87
387.89	863.66
388.09	837.91
388.28	784.08
388.48	802.80
388.67	889.40
388.86	889.40
389.06	929.19
389.25	833.23
389.45	861.32
389.64	926.85
389.84	882.38
390.03	905.79
390.22	947.92
390.42	856.64
390.61	931.53
390.81	922.17
391.00	959.62
391.19	976.00
391.39	968.98
391.58	1069.62
391.78	940.90
391.97	983.02
392.16	980.68
392.36	1043.88
392.55	1004.09
392.75	1118.78
392.94	891.74
393.13	999.41
393.33	1022.81
393.52	1053.24
393.71	1060.26
393.91	997.07
394.10	1020.47
394.29	1041.54
394.49	1083.67
394.68	1109.41
394.88	1107.07
395.07	1233.46
395.26	1153.88
395.46	1104.73
395.65	1196.01
395.84	1191.33
396.04	1282.61
396.23	1308.36
396.42	1118.78
396.62	1296.66
396.81	1210.06
397.00	1188.99
397.19	1301.34
397.39	1259.21
397.58	1217.08
397.77	1287.29
397.97	1263.89
398.16	1324.74
398.35	1322.40
398.55	1275.59
398.74	1268.57
398.93	1334.11
399.12	1369.21
399.32	1352.83
399.51	1359.85
399.70	1483.90
399.90	1434.75
400.09	1458.15
400.28	1413.68
400.47	1540.07
400.67	1495.60
400.86	1483.90
401.05	1441.77
401.24	1465.18
401.44	1533.05
401.63	1509.65
401.82	1540.07
402.01	1511.99
402.21	1551.78
402.40	1551.78
402.59	1591.56
402.78	1629.01
402.97	1589.22
403.17	1516.67
403.36	1621.99
403.55	1533.05
403.74	1727.32
403.93	1699.23
404.13	1650.08
404.32	1659.44
404.51	1680.50
404.70	1717.95
404.89	1806.89
405.09	1762.42
405.28	1785.83
405.47	1685.19
405.66	1834.98
405.85	1823.28
406.05	1837.32
406.24	1802.21
406.43	1799.87
406.62	1895.83
406.81	1909.88
407.00	1891.15
407.20	1961.37
407.39	1980.09
407.58	2012.86
407.77	1984.77
407.96	2059.67
408.15	2001.16
408.34	2143.93
408.54	2139.25
408.73	2080.74
408.92	2139.25
409.11	2146.27
409.30	2169.68
409.49	2165.00
409.68	2167.34
409.87	2181.38
410.07	2282.02
410.26	2108.82
410.45	2251.60
410.64	2239.89
410.83	2230.53
411.02	2314.79
411.21	2434.16
411.40	2338.20
411.59	2394.37
411.78	2457.56
411.98	2462.24
412.17	2478.63
412.36	2462.24
412.55	2490.33
412.74	2466.92
412.93	2478.63
413.12	2614.38
413.31	2651.83
413.50	2581.61
413.69	2614.38
413.88	2696.30
414.07	2691.62
414.26	2698.64
414.45	2792.26
414.64	2761.83
414.83	2672.89
415.02	2848.43
415.22	2834.39
415.41	2778.22
415.60	2928.01
415.79	2920.99
415.98	3073.12
416.17	2988.86
416.36	2932.69
416.55	2993.55
416.74	3105.89
416.93	3012.27
417.12	3150.36
417.31	3241.64
417.50	3122.27
417.69	3213.56
417.88	3265.05
418.07	3234.62
418.26	3143.34
418.45	3489.74
418.64	3456.97
418.83	3330.58
419.02	3236.96
419.21	3515.48
419.39	3328.24
419.58	3466.33
419.77	3335.26
419.96	3508.46
420.15	3499.10
420.34	3342.28
420.53	3424.20
420.72	3588.04
420.91	3545.91
421.10	3508.46
421.29	3634.85
421.48	3644.21
421.67	3749.54
421.86	3676.98
422.05	3641.87
422.24	3625.49
422.43	3513.14
422.61	3740.18
422.80	3763.58
422.99	3786.99
423.18	3831.46
423.37	4011.68
423.56	3796.35
423.75	3756.56
423.94	3779.97
424.13	3599.74
424.32	3627.83
424.50	3779.97
424.69	3885.29
424.88	3948.48
425.07	3798.69
425.26	3880.61
425.45	3641.87
425.64	3779.97
425.83	3735.50
426.01	3936.78
426.20	3878.27
426.39	3913.38
426.58	3857.20
426.77	3950.82
426.96	3812.73
427.15	3822.09
427.33	3922.74
427.52	3948.48
427.71	3920.40
427.90	3957.85
428.09	4126.36
428.28	3988.27
428.46	4072.53
428.65	4182.54
428.84	4198.92
429.03	4109.98
429.22	3985.93
429.40	4098.28
429.59	4243.39
429.78	4007.00
429.97	4098.28
430.16	4138.07
430.34	4191.90
430.53	4437.66
430.72	4262.12
430.91	4248.07
431.10	4369.78
431.28	4505.53
431.47	4308.93
431.66	4528.94
431.85	4388.50
432.03	4566.39
432.22	4587.45
432.41	4383.82
432.60	4613.20
432.79	4526.60
432.97	4571.07
433.16	4648.30
433.35	4599.15
433.54	4695.11
433.72	4650.64
433.91	4634.26
434.10	4704.48
434.28	4645.96
434.47	4788.74
434.66	4737.24
434.85	4746.61
435.03	4880.02
435.22	4863.63
435.41	5104.71
435.59	4931.51
435.78	4856.61
435.97	4922.15
436.16	4891.72
436.34	4954.91
436.53	4912.78
436.72	5071.94
436.90	4964.28
437.09	5249.82
437.28	4975.98
437.46	5062.58
437.65	5071.94
437.84	5170.24
438.02	5046.20
438.21	5177.26
438.40	5156.20
438.58	5252.16
438.77	5371.53
438.96	5390.25
439.14	5401.96
439.33	5458.13
439.52	5556.43
439.70	5614.95
439.89	5736.65
440.08	5472.17
440.26	5584.52
440.45	5687.50
440.63	5680.48
440.82	5746.02
441.01	5755.38
441.19	5895.81
441.38	5942.62
441.57	5909.85
441.75	6010.50
441.94	6094.76
442.12	6244.55
442.31	6188.38
442.50	6176.67
442.68	6085.39
442.87	6455.20
443.05	6186.04
443.24	6331.15
443.43	6296.04
443.61	6260.93
443.80	6553.50
443.98	6317.11
444.17	6148.59
444.35	6438.81
444.54	6392.00
444.73	6429.45
444.91	6342.85
445.10	6368.60
445.28	6235.19
445.47	6403.71
445.65	6377.96
445.84	6497.33
446.02	6555.84
446.21	6476.26
446.39	6389.66
446.58	6335.83
446.77	6637.76
446.95	6555.84
447.14	6429.45
447.32	6602.65
447.51	6548.82
447.69	6455.20
447.88	6801.60
448.06	6513.71
448.25	6588.61
448.43	6541.80
448.62	6642.44
448.80	6630.74
448.99	6593.29
449.17	6672.87
449.36	6626.06
449.54	6916.28
449.73	6813.30
449.91	6932.67
450.10	6789.89
450.28	7023.95
450.46	6789.89
450.65	6993.52
450.83	6939.69
451.02	7016.93
451.20	7075.44
451.39	7274.38
451.57	7019.27
451.76	6944.37
451.94	7084.80
452.13	7136.29
452.31	7211.19
452.49	6920.96
452.68	7056.72
452.86	7115.23
453.05	7180.76
453.23	7253.32
453.42	7103.53
453.60	7000.54
453.78	7208.85
453.97	7328.22
454.15	7379.71
454.34	7183.10
454.52	7396.09
454.70	7531.84
454.89	7489.71
455.07	7433.54
455.26	7590.36
455.44	7618.44
455.62	7571.63
455.81	7669.94
455.99	7648.87
456.17	7721.43
456.36	7646.53
456.54	7737.81
456.73	7824.41
456.91	7988.25
457.09	8016.33
457.28	8006.97
457.46	8021.02
457.64	8032.72
457.83	8051.44
458.01	8081.87
458.19	8294.86
458.38	8016.33
458.56	8205.92
458.74	8383.80
458.93	8348.69
459.11	8280.82
459.29	8416.57
459.48	8367.42
459.66	8344.01
459.84	8414.23
460.03	8458.70
460.21	8446.99
460.39	8416.57
460.57	8360.39
460.76	8526.57
460.94	8650.62
461.12	8606.15
461.31	8718.50
461.49	8748.92
461.67	8458.70
461.85	8985.32
462.04	8695.09
462.22	9270.86
462.40	8912.76
462.59	8851.91
462.77	8982.98
462.95	9025.11
463.13	8879.99
463.32	9142.13
463.50	9020.42
463.68	9142.13
463.86	9071.92
464.05	8959.57
464.23	8936.17
464.41	9146.81
464.59	8973.61
464.78	9315.33
464.96	9092.98
465.14	9149.15
465.32	9355.12
465.50	9277.88
465.69	9469.81
465.87	9158.52
466.05	9174.90
466.23	9352.78
466.41	9254.48
466.60	9781.10
466.78	9490.87
466.96	9455.76
467.14	9535.34
467.32	9275.54
467.51	9898.13
467.69	9380.87
467.87	9544.70
468.05	9366.82
468.23	9668.75
468.41	9495.55
468.60	9788.12
468.78	9682.80
468.96	9750.67
469.14	9729.61
469.32	9966.00
469.50	9661.73
469.69	9921.53
469.87	10153.24
470.05	10031.54
470.23	10244.52
470.41	9996.43
470.59	10136.86
470.77	10253.89
470.95	10221.12
471.14	10073.67
471.32	10242.18
471.50	10633.05
471.68	10314.74
471.86	10448.15
472.04	10466.88
472.22	10841.36
472.40	10560.50
472.58	10581.56
472.77	10827.32
472.95	10899.87
473.13	10820.30
473.31	10942.00
473.49	10736.04
473.67	10726.68
473.85	10988.82
474.03	11183.08
474.21	11000.52
474.39	11250.96
474.57	11480.33
474.75	11367.98
474.93	11618.42
475.12	11555.22
475.30	11501.39
475.48	11761.19
475.66	11875.88
475.84	11747.15
476.02	11882.90
476.20	11908.65
476.38	12180.15
476.56	12243.34
476.74	12320.58
476.92	12238.66
477.10	12138.02
477.28	12498.46
477.46	12542.93
477.64	12542.93
477.82	12655.28
478.00	12765.28
478.18	13144.45
478.36	13097.64
478.54	13074.23
478.72	13329.35
478.90	13589.15
479.08	13205.30
479.26	13638.30
479.44	13734.26
479.62	13647.66
479.80	13738.94
479.98	13886.40
480.16	14244.50
480.34	14120.45
480.52	14604.94
480.70	14333.44
480.88	14270.25
481.06	14583.88
481.24	14263.22
481.41	14778.14
481.59	15035.60
481.77	15005.17
481.95	15274.34
482.13	15140.93
482.31	15016.88
482.49	15473.28
482.67	15396.04
482.85	15953.09
483.03	15922.66
483.21	16060.76
483.39	16456.31
483.57	16112.25
483.74	16498.44
483.92	16421.20
484.10	16362.69
484.28	16896.33
484.46	17146.76
484.64	17336.35
484.82	17034.42
485.00	17193.58
485.18	17177.19
485.35	17507.21
485.53	17776.37
485.71	17804.46
485.89	18015.10
486.07	17727.22
486.25	17795.09
486.43	18260.86
486.61	18242.14
486.78	18420.02
486.96	18932.59
487.14	19257.93
487.32	19005.15
487.50	18993.45
487.68	18977.06
487.85	19573.90
488.03	19826.68
488.21	19960.09
488.39	19775.19
488.57	20325.21
488.75	20311.17
488.92	20606.08
489.10	20781.62
489.28	20636.50
489.46	20896.30
489.64	20922.05
489.81	21268.45
489.99	21099.93
490.17	21324.62
490.35	21635.91
490.53	22047.85
490.70	21963.59
490.88	21944.86
491.06	22295.94
491.24	22347.44
491.41	22326.37
491.59	22436.38
491.77	22920.87
491.95	22761.71
492.13	23115.13
492.30	23073.00
492.48	23108.11
492.66	23178.33
492.84	23644.09
493.01	23931.98
493.19	23721.33
493.37	23922.62
493.54	23686.22
493.72	24154.33
493.90	24137.94
494.08	24329.87
494.25	25123.31
494.43	25118.63
494.61	25301.19
494.79	24973.52
494.96	25202.89
495.14	25394.81
495.32	25350.34
495.49	25722.49
495.67	25893.35
495.85	25825.47
496.02	26361.45
496.20	26185.91
496.38	26506.57
496.55	26724.24
496.73	26967.65
496.91	26906.80
497.09	27098.72
497.26	27065.96
497.44	27035.53
497.62	26782.75
497.79	27534.06
497.97	27454.48
498.14	27974.08
498.32	27917.91
498.50	28283.03
498.67	28074.73
498.85	28306.44
499.03	28638.80
499.20	28697.31
499.38	28568.58
499.56	28552.20
499.73	29020.30
499.91	28989.88
500.08	28975.83
500.26	28751.14
500.44	29551.60
500.61	29376.06
500.79	29359.68
500.97	29647.57
501.14	30223.34
501.32	29949.50
501.49	29930.77
501.67	29827.79
501.84	30195.25
502.02	30178.87
502.20	30494.84
502.37	30492.50
502.55	30562.72
502.72	30712.51
502.90	30733.57
503.07	30679.74
503.25	30930.18
503.43	30551.01
503.60	31131.47
503.78	31063.59
503.95	31194.66
504.13	31519.99
504.30	31534.04
504.48	31557.44
504.65	31365.52
504.83	32151.94
505.01	32299.39
505.18	31716.60
505.36	32407.06
505.53	31866.39
505.71	32334.50
505.88	32603.66
506.06	32526.42
506.23	32744.09
506.41	32687.92
506.58	32631.75
506.76	32840.06
506.93	33048.36
507.11	33289.44
507.28	33495.41
507.46	33268.37
507.63	33500.09
507.81	33586.69
507.98	33457.96
508.16	33558.60
508.33	33804.36
508.50	34195.23
508.68	33874.57
508.85	33816.06
509.03	34267.78
509.20	34169.48
509.38	35019.10
509.55	34834.19
509.73	34780.36
509.90	34541.63
510.08	34529.92
510.25	35033.14
510.42	35075.27
510.60	35192.30
510.77	35269.53
510.95	35571.46
511.12	35250.81
511.30	35283.58
511.47	35952.97
511.64	35913.18
511.82	36044.25
511.99	36128.51
512.17	35786.79
512.34	35857.01
512.51	36205.75
512.69	36627.04
512.86	36554.49
513.04	36851.73
513.21	36917.27
513.38	36933.65
513.56	37041.32
513.73	36825.99
513.90	37254.31
514.08	37191.11
514.25	36971.10
514.43	37368.99
514.60	37319.84
514.77	37392.40
514.95	37844.12
515.12	37614.75
515.29	37368.99
515.47	38012.64
515.64	37818.38
515.81	38007.96
515.99	38019.66
516.16	38384.79
516.33	38817.78
516.51	38625.86
516.68	38490.11
516.85	38333.29
517.03	38649.27
517.20	38700.76
517.37	38946.51
517.54	39093.97
517.72	38792.04
517.89	39227.38
518.06	39299.94
518.24	39009.71
518.41	39077.58
518.58	39229.72
518.75	39115.03
518.93	39732.93
519.10	39538.67
519.27	39903.79
519.45	39536.33
519.62	39613.57
519.79	39992.73
519.96	40238.49
520.14	40299.34
520.31	40086.36
520.48	40182.32
520.65	40072.31
520.83	40297.00
521.00	40612.98
521.17	40568.51
521.34	40671.49
521.52	40631.70
521.69	40437.44
521.86	41184.07
522.03	41113.85
522.20	41177.04
522.38	41439.18
522.55	41265.99
522.72	41301.09
522.89	41794.95
523.07	42181.13
523.24	41572.60
523.41	41324.50
523.58	41567.91
523.75	41935.38
523.92	42087.51
524.10	42073.47
524.27	41881.55
524.44	41933.04
524.61	42380.08
524.78	41928.36
524.96	42492.43
525.13	42600.09
525.30	42602.43
525.47	42562.64
525.64	42745.20
525.81	42550.94
525.98	42789.67
526.16	43007.34
526.33	42770.95
526.50	43229.69
526.67	42866.91
526.84	43330.34
527.01	43257.78
527.18	43391.19
527.36	43533.96
527.53	43622.90
527.70	43576.09
527.87	43634.61
528.04	43524.60
528.21	43973.98
528.38	43838.23
528.55	43718.87
528.72	43599.50
528.89	44254.85
529.07	44018.46
529.24	44184.63
529.41	43915.47
529.58	43728.23
529.75	43973.98
529.92	44318.04
530.09	44484.22
530.26	44425.71
530.43	44528.69
530.60	44626.99
530.77	44299.32
530.94	44765.09
531.11	44687.85
531.28	44318.04
531.46	45064.67
531.63	44954.67
531.80	44952.33
531.97	45240.21
532.14	45474.27
532.31	45181.70
532.48	45113.83
532.65	45010.84
532.82	45041.27
532.99	45656.83
533.16	45401.71
533.33	45923.65
533.50	45556.19
533.67	45457.88
533.84	46005.57
534.01	45965.78
534.18	45497.67
534.35	46347.29
534.52	45785.56
534.69	46031.32
534.86	46366.01
535.03	45818.33
535.20	45998.55
535.37	46239.62
535.54	46216.22
535.71	46333.24
535.88	46611.77
536.05	46588.36
536.22	47016.68
536.38	46848.16
536.55	46508.79
536.72	46918.38
536.89	46426.87
537.06	46684.33
537.23	46997.96
537.40	46693.69
537.57	47072.85
537.74	46541.55
537.91	47255.42
538.08	47416.91
538.25	47454.36
538.42	47351.38
538.59	46841.14
538.75	46925.40
538.92	47075.19
539.09	47414.57
539.26	47386.49
539.43	47739.91
539.60	48009.07
539.77	47629.90
539.94	47938.85
540.11	47611.18
540.28	47782.04
540.44	47924.81
540.61	47866.30
540.78	47374.78
540.95	48100.35
541.12	47833.53
541.29	48208.01
541.46	48212.70
541.62	47753.95
541.79	48060.56
541.96	47702.46
542.13	48521.65
542.30	48273.55
542.47	48633.99
542.63	48786.13
542.80	48729.95
542.97	48793.15
543.14	48655.06
543.31	48626.97
543.48	48491.22
543.64	48849.32
543.81	48938.26
543.98	49188.70
544.15	49055.29
544.32	49359.56
544.48	49343.17
544.65	48643.35
544.82	48751.02
544.99	49076.35
545.16	49499.99
545.32	49233.17
545.49	49607.65
545.66	49815.96
545.83	49600.63
546.00	49443.82
546.16	49579.57
546.33	49256.57
546.50	48795.49
546.67	49521.05
546.83	49382.96
547.00	49382.96
547.17	49322.11
547.34	49478.92
547.50	49535.10
547.67	49954.05
547.84	49771.49
548.00	49820.64
548.17	49918.95
548.34	49844.05
548.51	50457.27
548.67	50693.66
548.84	50145.98
549.01	49822.98
549.18	49724.68
549.34	50085.12
549.51	50272.37
549.68	50101.51
549.84	49858.09
550.01	50365.99
550.18	50305.13
550.34	50333.22
550.51	50340.24
550.68	50686.64
550.84	50143.64
551.01	50199.81
551.18	50232.58
551.34	50218.53
551.51	50663.24
551.68	50471.31
551.84	50593.02
552.01	50342.58
552.18	50831.75
552.34	51164.11
552.51	50791.97
552.68	50543.87
552.84	50745.15
553.01	50925.38
553.18	50894.95
553.34	51154.75
553.51	51227.31
553.67	51229.65
553.84	51377.10
554.01	51098.58
554.17	51082.19
554.34	51023.68
554.51	51182.84
554.67	51126.66
554.84	51381.78
555.00	51131.34
555.17	51114.96
555.33	51126.66
555.50	51657.96
555.67	51255.39
555.83	51154.75
556.00	51363.06
556.16	51625.20
556.33	51634.56
556.50	51662.64
556.66	51536.26
556.83	51510.51
556.99	51629.88
557.16	51866.27
557.32	51739.88
557.49	51831.16
557.65	51433.27
557.82	51229.65
557.98	51859.25
558.15	51863.93
558.32	51672.01
558.48	51700.09
558.65	52175.22
558.81	51796.06
558.98	51877.97
559.14	51817.12
559.31	52198.63
559.47	51866.27
559.64	52119.05
559.80	52168.20
559.97	52112.03
560.13	51868.61
560.30	52179.90
560.46	51966.91
560.63	51718.82
560.79	51887.34
560.96	52280.55
561.12	52367.15
561.29	51964.57
561.45	52196.29
561.61	52198.63
561.78	52390.55
561.94	52114.37
562.11	51990.32
562.27	52086.28
562.44	51997.34
562.60	52226.71
562.77	52142.45
562.93	52336.72
563.10	52481.83
563.26	52271.18
563.42	52753.33
563.59	52371.83
563.75	52465.45
563.92	52362.46
564.08	52020.75
564.24	52332.04
564.41	52079.26
564.57	52357.78
564.74	52362.46
564.90	52346.08
565.07	52432.68
565.23	52577.79
565.39	52732.27
565.56	52837.59
565.72	52341.40
565.88	52409.28
566.05	52186.92
566.21	52423.32
566.38	52523.96
566.54	52481.83
566.70	52582.48
566.87	52849.30
567.03	52741.63
567.19	52821.21
567.36	52566.09
567.52	52640.99
567.68	52673.76
567.85	52390.55
568.01	52484.17
568.17	52549.71
568.34	53127.82
568.50	52652.69
568.66	52671.42
568.83	52765.04
568.99	52442.04
569.15	52720.57
569.32	53008.45
569.48	52788.44
569.64	52587.16
569.81	52769.72
569.97	52832.91
570.13	53048.24
570.30	52727.59
570.46	52896.11
570.62	52856.32
570.78	52769.72
570.95	52643.33
571.11	52996.75
571.27	52521.62
571.43	52638.65
571.60	53404.00
571.76	53102.07
571.92	53226.12
572.09	52931.22
572.25	53057.60
572.41	52542.69
572.57	52971.00
572.74	53116.12
572.90	52598.86
573.06	52959.30
573.22	52996.75
573.38	53261.23
573.55	53116.12
573.71	53275.27
573.87	53411.02
574.03	53104.41
574.20	53193.36
574.36	53038.88
574.52	53034.20
574.68	53024.84
574.84	53233.14
575.01	53396.98
575.17	53298.68
575.33	53045.90
575.49	53099.73
575.65	53432.09
575.82	53460.18
575.98	53427.41
576.14	53116.12
576.30	53160.59
576.46	53195.70
576.62	53223.78
576.79	53038.88
576.95	53099.73
577.11	53216.76
577.27	53289.32
577.43	53490.60
577.59	53418.05
577.75	53024.84
577.92	53118.46
578.08	52978.03
578.24	53169.95
578.40	53090.37
578.56	53113.78
578.72	53296.34
578.88	53584.22
579.04	53331.45
579.21	53343.15
579.37	53326.77
579.53	53275.27
579.69	53181.65
579.85	53443.79
580.01	53310.38
580.17	53235.48
580.33	53518.69
580.49	53230.80
580.65	53471.88
580.82	53614.65
580.98	53432.09
581.14	53268.25
581.30	53551.46
581.46	53343.15
581.62	53256.55
581.78	53205.06
581.94	53340.81
582.10	53502.31
582.26	53373.58
582.42	53710.61
582.58	53581.88
582.74	53668.48
582.90	53549.12
583.06	53375.92
583.22	53378.26
583.38	53839.34
583.54	53228.46
583.70	53333.79
583.86	53492.94
584.02	53366.55
584.18	53371.24
584.34	53687.21
584.50	53834.66
584.66	53443.79
584.82	53418.05
584.98	53579.54
585.14	53453.15
585.30	53331.45
585.46	53258.89
585.62	53399.32
585.78	53673.16
585.94	53125.48
586.10	53399.32
586.26	53635.72
586.42	53771.47
586.58	53869.77
586.74	53333.79
586.90	53586.57
587.06	53305.70
587.22	53633.38
587.38	53434.43
587.54	53673.16
587.70	53790.19
587.86	53595.93
588.02	53572.52
588.18	53883.81
588.34	53579.54
588.49	53312.72
588.65	53146.54
588.81	53305.70
588.97	53591.25
589.13	53364.21
589.29	53811.26
589.45	53832.32
589.61	53609.97
589.77	54073.40
589.93	53783.17
590.08	53977.43
590.24	53771.47
