SpectraSuite Data File
++++++++++++++++++++++++++++++++++++
Date: Fri Oct 04 11:48:33 GMT-05:00 2013
User: price-jones
Dark Spectrum Present: No
Reference Spectrum Present: No
Number of Sampled Component Spectra: 1
Spectrometers: USB2+H05261
Integration Time (usec): 100000 (USB2+H05261)
Spectra Averaged: 1 (USB2+H05261)
Boxcar Smoothing: 0 (USB2+H05261)
Correct for Electrical Dark: No (USB2+H05261)
Strobe/Lamp Enabled: No (USB2+H05261)
Correct for Detector Non-linearity: No (USB2+H05261)
Correct for Stray Light: No (USB2+H05261)
Number of Pixels in Processed Spectrum: 2048
>>>>>Begin Processed Spectral Data<<<<<
365.73	0.00
365.92	0.00
366.12	0.00
366.32	0.00
366.52	0.00
366.72	0.00
366.91	0.00
367.11	0.00
367.31	0.00
367.51	0.00
367.70	0.00
367.90	0.00
368.10	0.00
368.30	0.00
368.49	0.00
368.69	0.00
368.89	0.00
369.09	0.00
369.28	0.00
369.48	16.38
369.68	0.00
369.87	0.00
370.07	77.24
370.27	7.02
370.47	44.47
370.66	306.61
370.86	327.68
371.06	379.17
371.25	386.19
371.45	334.70
371.65	348.74
371.84	353.42
372.04	348.74
372.24	360.44
372.44	407.25
372.63	470.45
372.83	421.30
373.03	428.32
373.22	390.87
373.42	421.30
373.62	447.04
373.81	505.56
374.01	381.51
374.21	465.77
374.40	477.47
374.60	465.77
374.79	503.22
374.99	437.68
375.19	505.56
375.38	470.45
375.58	437.68
375.78	554.71
375.97	482.15
376.17	477.47
376.37	596.84
376.56	517.26
376.76	500.87
376.95	461.09
377.15	528.96
377.35	561.73
377.54	573.43
377.74	535.98
377.93	535.98
378.13	540.66
378.33	587.47
378.52	615.56
378.72	620.24
378.91	622.58
379.11	547.69
379.31	533.64
379.50	500.87
379.70	669.39
379.89	594.50
380.09	674.07
380.28	627.26
380.48	641.31
380.68	587.47
380.87	676.41
381.07	603.86
381.26	650.67
381.46	578.11
381.65	603.86
381.85	596.84
382.04	620.24
382.24	657.69
382.43	587.47
382.63	786.42
382.83	610.88
383.02	641.31
383.22	669.39
383.41	660.03
383.61	697.48
383.80	641.31
384.00	788.76
384.19	720.88
384.39	683.44
384.58	800.46
384.78	779.40
384.97	634.29
385.17	765.36
385.36	784.08
385.56	802.80
385.75	835.57
385.95	777.06
386.14	814.51
386.34	763.01
386.53	793.44
386.72	755.99
386.92	849.61
387.11	793.44
387.31	812.17
387.50	847.27
387.70	772.38
387.89	739.61
388.09	793.44
388.28	866.00
388.48	793.44
388.67	788.76
388.86	765.36
389.06	837.91
389.25	940.90
389.45	917.49
389.64	922.17
389.84	915.15
390.03	882.38
390.22	919.83
390.42	931.53
390.61	912.81
390.81	896.43
391.00	844.93
391.19	936.21
391.39	978.34
391.58	976.00
391.78	894.08
391.97	1034.52
392.16	964.30
392.36	971.32
392.55	999.41
392.75	1015.79
392.94	1018.13
393.13	992.39
393.33	999.41
393.52	1025.15
393.71	1156.22
393.91	1064.94
394.10	1034.52
394.29	1062.60
394.49	1123.46
394.68	1116.44
394.88	1097.71
395.07	1102.39
395.26	1235.80
395.46	1151.54
395.65	1163.25
395.84	1095.37
396.04	1137.50
396.23	1231.12
396.42	1235.80
396.62	1228.78
396.81	1245.16
397.00	1214.74
397.19	1315.38
397.39	1207.72
397.58	1322.40
397.77	1245.16
397.97	1263.89
398.16	1432.41
398.35	1324.74
398.55	1313.04
398.74	1317.72
398.93	1280.27
399.12	1338.79
399.32	1350.49
399.51	1282.61
399.70	1460.49
399.90	1427.73
400.09	1451.13
400.28	1474.54
400.47	1432.41
400.67	1537.73
400.86	1537.73
401.05	1427.73
401.24	1465.18
401.44	1591.56
401.63	1584.54
401.82	1474.54
402.01	1472.20
402.21	1617.31
402.40	1607.95
402.59	1640.72
402.78	1596.25
402.97	1671.14
403.17	1629.01
403.36	1629.01
403.55	1636.03
403.74	1713.27
403.93	1724.97
404.13	1755.40
404.32	1739.02
404.51	1757.74
404.70	1851.36
404.89	1823.28
405.09	1853.70
405.28	1781.15
405.47	1886.47
405.66	1952.01
405.85	1935.62
406.05	1893.49
406.24	2003.50
406.43	2024.56
406.62	2003.50
406.81	1956.69
407.00	1893.49
407.20	2005.84
407.39	1980.09
407.58	2228.19
407.77	2125.21
407.96	2143.93
408.15	2050.31
408.34	2071.37
408.54	2221.17
408.73	2202.44
408.92	2230.53
409.11	2223.51
409.30	2265.64
409.49	2155.63
409.68	2300.75
409.87	2345.22
410.07	2265.64
410.26	2450.54
410.45	2387.35
410.64	2363.94
410.83	2399.05
411.02	2518.42
411.21	2380.32
411.40	2518.42
411.59	2597.99
411.78	2548.84
411.98	2565.23
412.17	2579.27
412.36	2736.09
412.55	2597.99
412.74	2708.00
412.93	2684.59
413.12	2621.40
413.31	2827.37
413.50	2810.98
413.69	2888.22
413.88	2892.90
414.07	3035.67
414.26	2944.39
414.45	2988.86
414.64	2972.48
414.83	3136.32
415.02	3119.93
415.22	3103.55
415.41	3091.85
415.60	2981.84
415.79	3204.19
415.98	3222.92
416.17	3243.98
416.36	3229.94
416.55	3321.22
416.74	3358.67
416.93	3386.76
417.12	3332.92
417.31	3389.10
417.50	3515.48
417.69	3595.06
417.88	3492.08
418.07	3543.57
418.26	3433.57
418.45	3609.11
418.64	3684.00
418.83	3662.94
419.02	3648.90
419.21	3583.36
419.39	3681.66
419.58	3658.26
419.77	3859.54
419.96	3786.99
420.15	3770.60
420.34	3740.18
420.53	3873.59
420.72	3925.08
420.91	3873.59
421.10	3857.20
421.29	3974.23
421.48	3857.20
421.67	3927.42
421.86	3971.89
422.05	4009.34
422.24	3985.93
422.43	4039.76
422.61	3995.29
422.80	4060.83
422.99	4189.56
423.18	4109.98
423.37	4222.33
423.56	4189.56
423.75	4014.02
423.94	4112.32
424.13	3854.86
424.32	3936.78
424.50	4140.41
424.69	4161.47
424.88	4161.47
425.07	4039.76
425.26	4009.34
425.45	4077.21
425.64	4152.11
425.83	4149.77
426.01	4325.31
426.20	4095.94
426.39	4194.24
426.58	4184.88
426.77	4212.96
426.96	4332.33
427.15	4379.14
427.33	4337.01
427.52	4294.88
427.71	4334.67
427.90	4346.37
428.09	4411.91
428.28	4463.40
428.46	4390.84
428.65	4538.30
428.84	4578.09
429.03	4540.64
429.22	4322.97
429.40	4587.45
429.59	4547.66
429.78	4486.81
429.97	4505.53
430.16	4503.19
430.34	4706.82
430.53	4617.88
430.72	4699.80
430.91	4702.14
431.10	4690.43
431.28	4725.54
431.47	4774.69
431.66	4767.67
431.85	4819.16
432.03	4915.12
432.22	4856.61
432.41	4844.91
432.60	4931.51
432.79	4777.03
432.97	4849.59
433.16	5076.62
433.35	4929.17
433.54	5188.97
433.72	5104.71
433.91	4971.30
434.10	4980.66
434.28	5032.15
434.47	5149.18
434.66	5114.07
434.85	5170.24
435.03	5214.71
435.22	5116.41
435.41	5329.40
435.59	5289.61
435.78	5259.18
435.97	5338.76
436.16	5563.45
436.34	5263.86
436.53	5521.32
436.72	5621.97
436.90	5446.43
437.09	5334.08
437.28	5373.87
437.46	5490.90
437.65	5640.69
437.84	5589.20
438.02	5563.45
438.21	5778.78
438.40	5446.43
438.58	5743.67
438.77	5731.97
438.96	5825.59
439.14	5755.38
439.33	5966.03
439.52	5933.26
439.70	6099.44
439.89	5888.79
440.08	6010.50
440.26	6209.44
440.45	6132.20
440.63	6193.06
440.82	6324.13
441.01	6127.52
441.19	6296.04
441.38	6469.24
441.57	6328.81
441.75	6441.15
441.94	6736.06
442.12	6677.55
442.31	6719.68
442.50	6876.49
442.68	6483.28
442.87	6794.58
443.05	6785.21
443.24	6775.85
443.43	6986.50
443.61	6834.36
443.80	7075.44
443.98	6787.55
444.17	6588.61
444.35	6960.75
444.54	7061.40
444.73	6794.58
444.91	6972.46
445.10	6925.65
445.28	6883.52
445.47	6979.48
445.65	6855.43
445.84	6932.67
446.02	7063.74
446.21	7087.14
446.39	7087.14
446.58	7148.00
446.77	7148.00
446.95	6806.28
447.14	7089.48
447.32	7155.02
447.51	7112.89
447.69	7126.93
447.88	7103.53
448.06	7300.13
448.25	7152.68
448.43	7101.19
448.62	7274.38
448.80	7089.48
448.99	7321.20
449.17	7255.66
449.36	7234.60
449.54	7527.16
449.73	7555.25
449.91	7407.80
450.10	7571.63
450.28	7705.04
450.46	7452.27
450.65	7599.72
450.83	7606.74
451.02	7702.70
451.20	7634.83
451.39	7536.52
451.57	7482.69
451.76	7573.97
451.94	7693.34
452.13	7744.83
452.31	7866.54
452.49	7627.81
452.68	7803.35
452.86	7840.79
453.05	7913.35
453.23	7918.03
453.42	7749.51
453.60	8037.40
453.78	7845.48
453.97	7777.60
454.15	8006.97
454.34	7920.37
454.52	8114.64
454.70	8011.65
454.89	8163.79
455.07	8245.71
455.26	8140.38
455.44	8243.37
455.62	8287.84
455.81	8355.71
455.99	8163.79
456.17	8292.52
456.36	8116.98
456.54	8346.35
456.73	8402.52
456.91	8697.43
457.09	8842.54
457.28	8798.07
457.46	8643.60
457.64	8767.65
457.83	8655.30
458.01	8655.30
458.19	8786.37
458.38	8772.33
458.56	9041.49
458.74	8908.08
458.93	8786.37
459.11	8896.38
459.29	8769.99
459.48	9111.71
459.66	9287.25
459.84	9226.39
460.03	9167.88
460.21	9158.52
460.39	9226.39
460.57	9060.21
460.76	9238.09
460.94	9151.49
461.12	9210.01
461.31	9338.74
461.49	9186.60
461.67	9376.19
461.85	9427.68
462.04	9561.09
462.22	9951.96
462.40	9631.30
462.59	9570.45
462.77	9610.24
462.95	9680.46
463.13	9846.63
463.32	9549.39
463.50	9764.72
463.68	9767.06
463.86	9771.74
464.05	9785.78
464.23	9818.55
464.41	9813.87
464.59	9748.33
464.78	9907.49
464.96	9727.27
465.14	9734.29
465.32	9865.36
465.50	10045.58
465.69	10036.22
465.87	10010.47
466.05	10040.90
466.23	10040.90
466.41	10076.01
466.60	10298.36
466.78	10181.33
466.96	10216.44
467.14	10050.26
467.32	10289.00
467.51	10277.29
467.69	10139.20
467.87	10504.32
468.05	10399.00
468.23	10101.75
468.41	10291.34
468.60	10249.21
468.78	10679.86
468.96	10307.72
469.14	10595.61
469.32	10934.98
469.50	10644.76
469.69	10761.78
469.87	10932.64
470.05	11023.92
470.23	10766.46
470.41	10869.45
470.59	10963.07
470.77	10679.86
470.95	11000.52
471.14	11248.61
471.32	10853.06
471.50	11454.58
471.68	11197.12
471.86	11449.90
472.04	11389.05
472.22	11541.18
472.40	11412.45
472.58	11747.15
472.77	11454.58
472.95	11412.45
473.13	11934.39
473.31	11524.80
473.49	11534.16
473.67	11925.03
473.85	11810.34
474.03	11936.73
474.21	11751.83
474.39	12135.68
474.57	12273.77
474.75	12269.09
474.93	12435.27
475.12	12233.98
475.30	12372.07
475.48	12479.74
475.66	12676.34
475.84	12505.48
476.02	12812.09
476.20	12837.84
476.38	12994.65
476.56	13165.51
476.74	13406.59
476.92	13184.24
477.10	13095.30
477.28	13329.35
477.46	13610.22
477.64	13748.31
477.82	13741.29
478.00	13921.51
478.18	13991.72
478.36	14267.91
478.54	14129.81
478.72	14132.15
478.90	14443.45
479.08	14614.30
479.26	14389.61
479.44	14836.66
479.62	14726.65
479.80	14885.81
479.98	14780.48
480.16	15281.36
480.34	15499.03
480.52	15272.00
480.70	15239.23
480.88	15272.00
481.06	15393.70
481.24	15456.90
481.41	15651.16
481.59	15997.56
481.77	16215.23
481.95	15910.96
482.13	16388.43
482.31	16236.30
482.49	16542.91
482.67	16732.49
482.85	16980.59
483.03	17385.50
483.21	17219.32
483.39	17359.75
483.57	17130.38
483.74	17436.99
483.92	17666.36
484.10	17710.83
484.28	17972.97
484.46	18043.19
484.64	18422.36
484.82	18106.38
485.00	18574.49
485.18	18677.48
485.35	19225.16
485.53	19105.79
485.71	18677.48
485.89	19264.95
486.07	19164.31
486.25	19412.40
486.43	19529.43
486.61	19939.02
486.78	19917.96
486.96	20292.44
487.14	20430.54
487.32	20250.32
487.50	20409.47
487.68	20662.25
487.85	20865.88
488.03	21137.38
488.21	21212.28
488.39	21186.53
488.57	21308.24
488.75	21561.02
488.92	21783.37
489.10	22066.57
489.28	22185.94
489.46	22391.91
489.64	22291.26
489.81	22855.33
489.99	22656.39
490.17	22953.63
490.35	23204.07
490.53	23126.83
490.70	23440.47
490.88	23726.01
491.06	23686.22
491.24	23931.98
491.41	24112.20
491.59	24238.59
491.77	24386.04
491.95	24762.87
492.13	24730.10
492.30	24851.81
492.48	25277.79
492.66	25025.01
492.84	24975.86
493.01	25355.02
493.19	25422.90
493.37	25362.04
493.54	25769.30
493.72	26022.08
493.90	25977.61
494.08	26291.24
494.25	26579.12
494.43	26424.65
494.61	26773.39
494.79	26740.62
494.96	26885.73
495.14	26747.64
495.32	27222.77
495.49	27241.50
495.67	27704.92
495.85	27473.21
496.02	27934.29
496.20	28175.37
496.38	28058.34
496.55	27981.10
496.73	28467.94
496.91	28608.37
497.09	29132.65
497.26	29132.65
497.44	28493.68
497.62	29125.63
497.79	29502.45
497.97	29467.34
498.14	29472.03
498.32	29886.30
498.50	30005.67
498.67	30237.38
498.85	29909.71
499.03	30307.60
499.20	30206.95
499.38	30295.89
499.56	30555.69
499.73	31131.47
499.91	30710.17
500.08	30913.80
500.26	30780.39
500.44	31040.18
500.61	31402.97
500.79	31225.09
500.97	31662.77
501.14	31880.44
501.32	31676.81
501.49	31955.33
501.67	31709.58
501.84	32245.56
502.02	32226.84
502.20	32816.65
502.37	32350.88
502.55	32114.49
502.72	32505.36
502.90	32624.73
503.07	32669.20
503.25	32840.06
503.43	32821.33
503.60	33277.74
503.78	33242.63
503.95	33031.98
504.13	33687.33
504.30	33359.66
504.48	33357.32
504.65	33692.01
504.83	34003.30
505.01	34213.95
505.18	34181.18
505.36	33998.62
505.53	33897.98
505.71	34621.20
505.88	34632.91
506.06	34370.77
506.23	34625.89
506.41	34913.77
506.58	34937.18
506.76	34939.52
506.93	35101.01
507.11	34934.84
507.28	35564.44
507.46	35009.73
507.63	35725.94
507.81	35789.13
507.98	35889.77
508.16	35641.68
508.33	35510.61
508.50	36027.87
508.68	35887.43
508.85	36694.92
509.03	36027.87
509.20	36734.71
509.38	36498.31
509.55	36821.31
509.73	36748.75
509.90	36938.33
510.08	36774.50
510.25	36793.22
510.42	37324.52
510.60	37581.98
510.77	37546.87
510.95	37949.45
511.12	37256.65
511.30	38040.73
511.47	38337.98
511.64	38143.71
511.82	38101.58
511.99	38136.69
512.17	38373.08
512.34	38384.79
512.51	38443.30
512.69	38735.87
512.86	38632.88
513.04	39072.90
513.21	39126.74
513.38	38873.96
513.56	39423.98
513.73	38876.30
513.90	39180.57
514.08	38679.69
514.25	39548.03
514.43	39590.16
514.60	39651.02
514.77	39620.59
514.95	40020.82
515.12	39695.49
515.29	39700.17
515.47	40573.19
515.64	40041.88
515.81	39693.15
515.99	40481.91
516.16	40671.49
516.33	40727.66
516.51	40648.08
516.68	40334.45
516.85	40437.44
517.03	40863.41
517.20	40992.14
517.37	41078.74
517.54	41198.11
517.72	41123.21
517.89	41067.04
518.06	41036.61
518.24	41404.08
518.41	41207.47
518.58	41844.10
518.75	41495.36
518.93	41916.65
519.10	41614.72
519.27	41832.39
519.45	41448.55
519.62	42155.39
519.79	42033.68
519.96	42426.89
520.14	42363.70
520.31	42094.53
520.48	42635.20
520.65	42824.78
520.83	42925.42
521.00	42789.67
521.17	42607.11
521.34	43316.29
521.52	43302.25
521.69	42763.93
521.86	43077.56
522.03	43611.20
522.20	43374.81
522.38	44032.50
522.55	43629.93
522.72	43662.69
522.89	43723.55
523.07	43770.36
523.24	43693.12
523.41	44079.31
523.58	43480.13
523.75	44009.09
523.92	44292.30
524.10	44222.08
524.27	44444.43
524.44	44580.18
524.61	44964.03
524.78	44739.34
524.96	44444.43
525.13	44519.33
525.30	45045.95
525.47	44673.81
525.64	44678.49
525.81	45249.58
525.98	45624.06
526.16	45141.91
526.33	45027.23
526.50	45036.59
526.67	44868.07
526.84	45485.97
527.01	45088.08
527.18	45736.41
527.36	45591.30
527.53	45867.48
527.70	46174.09
527.87	45928.33
528.04	45785.56
528.21	45738.75
528.38	46199.83
528.55	46073.45
528.72	45986.85
528.89	46183.45
529.07	46071.10
529.24	46003.23
529.41	46146.00
529.58	46660.92
529.75	46106.21
529.92	46237.28
530.09	46459.63
530.26	46579.00
530.43	46689.01
530.60	46632.83
530.77	46447.93
530.94	46522.83
531.11	46515.81
531.28	46681.98
531.46	47054.13
531.63	47082.22
531.80	47349.04
531.97	47522.24
532.14	47510.53
532.31	47072.85
532.48	47433.30
532.65	47512.88
532.82	47290.52
532.99	47459.04
533.16	47353.72
533.33	47819.49
533.50	47962.26
533.67	47770.33
533.84	47426.28
534.01	47690.76
534.18	47587.77
534.35	47711.82
534.52	47622.88
534.69	47922.47
534.86	48219.72
535.03	48030.13
535.20	47906.08
535.37	48271.21
535.54	48280.57
535.71	47800.76
535.88	48240.78
536.05	48177.59
536.22	48858.68
536.38	48671.44
536.55	48559.09
536.72	48781.45
536.89	48648.03
537.06	48694.85
537.23	48809.53
537.40	48381.21
537.57	48786.13
537.74	48388.24
537.91	48704.21
538.08	48931.24
538.25	48807.19
538.42	49235.51
538.59	49205.08
538.75	48949.96
538.92	48926.56
539.09	49118.48
539.26	49413.39
539.43	49647.44
539.60	49565.52
539.77	49209.76
539.94	49408.71
540.11	49249.55
540.28	49525.74
540.44	49574.89
540.61	49565.52
540.78	49422.75
540.95	49684.89
541.12	49935.33
541.29	50061.72
541.46	49977.46
541.62	49720.00
541.79	49598.29
541.96	49511.69
542.13	49867.45
542.30	50028.95
542.47	50202.15
542.63	50433.86
542.80	50337.90
542.97	50375.35
543.14	50464.29
543.31	50174.06
543.48	50401.10
543.64	50452.59
543.81	50457.27
543.98	50932.40
544.15	50684.30
544.32	50820.05
544.48	50691.32
544.65	50410.46
544.82	50618.77
544.99	50677.28
545.16	50871.54
545.32	50848.14
545.49	51281.14
545.66	51157.09
545.83	51253.05
546.00	51426.25
546.16	51224.96
546.33	50766.22
546.50	50761.54
546.67	51309.22
546.83	50918.35
547.00	51281.14
547.17	51178.15
547.34	51435.61
547.50	51405.19
547.67	51669.67
547.84	51388.80
548.00	51826.48
548.17	51690.73
548.34	51416.89
548.51	51962.23
548.67	51580.73
548.84	51592.43
549.01	51641.58
549.18	51599.45
549.34	52058.20
549.51	51819.46
549.68	51767.97
549.84	52013.73
550.01	51995.00
550.18	51543.28
550.34	52081.60
550.51	52081.60
550.68	51962.23
550.84	51782.01
551.01	52002.02
551.18	51735.20
551.34	51971.60
551.51	52023.09
551.68	52254.80
551.84	52512.26
552.01	52069.90
552.18	52648.01
552.34	52317.99
552.51	52196.29
552.68	52044.15
552.84	52395.23
553.01	52273.52
553.18	52516.94
553.34	52741.63
553.51	52528.64
553.67	52580.13
553.84	52877.38
554.01	52608.22
554.17	52643.33
554.34	52594.18
554.51	52900.79
554.67	52626.95
554.84	52741.63
555.00	52540.35
555.17	52605.88
555.33	52823.55
555.50	52444.38
555.67	52563.75
555.83	52662.05
556.00	52739.29
556.16	52884.40
556.33	52568.43
556.50	52743.97
556.66	52837.59
556.83	52671.42
556.99	53249.53
557.16	53050.58
557.32	52875.04
557.49	52846.96
557.65	52828.23
557.82	52790.78
557.98	52919.51
558.15	52971.00
558.32	53357.19
558.48	53148.88
558.65	53193.36
558.81	53200.38
558.98	53474.22
559.14	53045.90
559.31	53181.65
559.47	53118.46
559.64	53310.38
559.80	53305.70
559.97	53305.70
560.13	53205.06
560.30	53291.66
560.46	53392.30
560.63	53612.31
560.79	53191.01
560.96	53640.40
561.12	53645.08
561.29	52940.58
561.45	53373.58
561.61	53467.20
561.78	53659.12
561.94	53443.79
562.11	53378.26
562.27	53888.49
562.44	53364.21
562.60	53418.05
562.77	53401.66
562.93	53413.37
563.10	53698.91
563.26	53614.65
563.42	53624.01
563.59	53612.31
563.75	53521.03
563.92	53656.78
564.08	53698.91
564.24	53792.53
564.41	53514.01
564.57	53801.89
564.74	53380.60
564.90	53624.01
565.07	53764.45
565.23	53719.98
565.39	53656.78
565.56	53532.73
565.72	53418.05
565.88	53579.54
566.05	53448.47
566.21	53661.46
566.38	53759.76
566.54	53666.14
566.70	53881.47
566.87	53893.18
567.03	53731.68
567.19	54003.18
567.36	53947.01
567.52	53811.26
567.68	53710.61
567.85	53455.50
568.01	53705.93
568.17	53801.89
568.34	54003.18
568.50	53663.80
568.66	53745.72
568.83	54021.90
568.99	53478.90
569.15	53797.21
569.32	53872.11
569.48	53579.54
569.64	53918.92
569.81	53855.73
569.97	53855.73
570.13	53986.80
570.30	53743.38
570.46	54026.59
570.62	53944.67
570.78	53705.93
570.95	53773.81
571.11	54049.99
571.27	53790.19
571.43	53972.75
571.60	54124.89
571.76	53902.54
571.92	54218.51
572.09	54150.63
572.25	53893.18
572.41	53925.94
572.57	53799.55
572.74	54078.08
572.90	53837.00
573.06	54115.53
573.22	53911.90
573.38	54047.65
573.55	54035.95
573.71	54319.15
573.87	54148.29
574.03	54138.93
574.20	54075.74
574.36	53923.60
574.52	54375.33
574.68	54225.53
574.84	54087.44
575.01	54494.69
575.17	54085.10
575.33	54110.85
575.49	54094.46
575.65	54316.81
575.82	54312.13
575.98	54284.04
576.14	54464.27
576.30	54239.57
576.46	54279.36
576.62	54024.25
576.79	54178.72
576.95	53921.26
577.11	54047.65
577.27	54277.02
577.43	54237.23
577.59	54134.25
577.75	53998.50
577.92	54012.54
578.08	53965.73
578.24	53719.98
578.40	54197.44
578.56	54000.84
578.72	54035.95
578.88	54426.82
579.04	54330.86
579.21	54293.41
579.37	54110.85
579.53	54370.64
579.69	54150.63
579.85	53886.15
580.01	54333.20
580.17	54089.78
580.33	54101.48
580.49	54281.70
580.65	54487.67
580.82	54213.83
580.98	54122.55
581.14	54096.80
581.30	54527.46
581.46	54000.84
581.62	54267.66
581.78	54213.83
581.94	54251.28
582.10	53984.46
582.26	54213.83
582.42	54279.36
582.58	54426.82
582.74	54482.99
582.90	54422.14
583.06	54382.35
583.22	54181.06
583.38	54564.91
583.54	54316.81
583.70	54234.89
583.86	54220.85
584.02	54225.53
584.18	54272.34
584.34	54372.99
584.50	54295.75
584.66	54328.52
584.82	54543.84
584.98	54623.42
585.14	54150.63
585.30	54115.53
585.46	54162.34
585.62	54316.81
585.78	54291.07
585.94	54010.20
586.10	54365.96
586.26	54185.74
586.42	54454.90
586.58	54492.35
586.74	54260.64
586.90	54223.19
587.06	54241.92
587.22	54213.83
587.38	54237.23
587.54	54588.31
587.70	54539.16
587.86	54588.31
588.02	54550.87
588.18	54726.41
588.34	54543.84
588.49	54124.89
588.65	54349.58
588.81	54354.26
588.97	54330.86
589.13	54164.68
589.29	54710.02
589.45	54628.10
589.61	54422.14
589.77	54513.42
589.93	54658.53
