SpectraSuite Data File
++++++++++++++++++++++++++++++++++++
Date: Fri Oct 04 11:46:57 GMT-05:00 2013
User: price-jones
Dark Spectrum Present: No
Reference Spectrum Present: No
Number of Sampled Component Spectra: 1
Spectrometers: USB2+H05261
Integration Time (usec): 100000 (USB2+H05261)
Spectra Averaged: 1 (USB2+H05261)
Boxcar Smoothing: 0 (USB2+H05261)
Correct for Electrical Dark: No (USB2+H05261)
Strobe/Lamp Enabled: No (USB2+H05261)
Correct for Detector Non-linearity: No (USB2+H05261)
Correct for Stray Light: No (USB2+H05261)
Number of Pixels in Processed Spectrum: 2048
>>>>>Begin Processed Spectral Data<<<<<
365.73	18.72
365.92	18.72
366.12	18.72
366.32	0.00
366.52	0.00
366.72	0.00
366.91	0.00
367.11	0.00
367.31	0.00
367.51	0.00
367.70	0.00
367.90	0.00
368.10	0.00
368.30	0.00
368.49	0.00
368.69	32.77
368.89	0.00
369.09	0.00
369.28	0.00
369.48	0.00
369.68	0.00
369.87	0.00
370.07	0.00
370.27	49.15
370.47	0.00
370.66	0.00
370.86	14.04
371.06	0.00
371.25	58.51
371.45	46.81
371.65	51.49
371.84	0.00
372.04	67.88
372.24	67.88
372.44	53.83
372.63	102.98
372.83	100.64
373.03	93.62
373.22	65.54
373.42	91.28
373.62	140.43
373.81	124.05
374.01	117.03
374.21	77.24
374.40	166.18
374.60	198.95
374.79	131.07
374.99	32.77
375.19	46.81
375.38	147.45
375.58	110.01
375.78	145.11
375.97	142.77
376.17	198.95
376.37	93.62
376.56	126.39
376.76	86.60
376.95	63.19
377.15	112.35
377.35	124.05
377.54	77.24
377.74	18.72
377.93	51.49
378.13	81.92
378.33	84.26
378.52	140.43
378.72	121.71
378.91	114.69
379.11	131.07
379.31	28.09
379.50	25.75
379.70	30.43
379.89	79.58
380.09	63.19
380.28	72.56
380.48	95.96
380.68	79.58
380.87	102.98
381.07	98.30
381.26	140.43
381.46	147.45
381.65	119.37
381.85	124.05
382.04	95.96
382.24	173.20
382.43	32.77
382.63	74.90
382.83	124.05
383.02	114.69
383.22	86.60
383.41	4.68
383.61	58.51
383.80	112.35
384.00	88.94
384.19	7.02
384.39	110.01
384.58	2.34
384.78	107.66
384.97	135.75
385.17	126.39
385.36	74.90
385.56	35.11
385.75	44.47
385.95	28.09
386.14	37.45
386.34	84.26
386.53	145.11
386.72	63.19
386.92	117.03
387.11	91.28
387.31	128.73
387.50	39.79
387.70	93.62
387.89	133.41
388.09	53.83
388.28	58.51
388.48	65.54
388.67	98.30
388.86	81.92
389.06	128.73
389.25	156.82
389.45	102.98
389.64	180.22
389.84	142.77
390.03	133.41
390.22	135.75
390.42	42.13
390.61	84.26
390.81	112.35
391.00	46.81
391.19	117.03
391.39	98.30
391.58	147.45
391.78	95.96
391.97	86.60
392.16	18.72
392.36	131.07
392.55	112.35
392.75	35.11
392.94	49.15
393.13	58.51
393.33	44.47
393.52	84.26
393.71	124.05
393.91	149.79
394.10	74.90
394.29	112.35
394.49	46.81
394.68	133.41
394.88	166.18
395.07	81.92
395.26	77.24
395.46	98.30
395.65	161.50
395.84	147.45
396.04	180.22
396.23	72.56
396.42	117.03
396.62	177.88
396.81	117.03
397.00	128.73
397.19	126.39
397.39	44.47
397.58	105.32
397.77	126.39
397.97	58.51
398.16	149.79
398.35	149.79
398.55	152.13
398.74	128.73
398.93	107.66
399.12	105.32
399.32	117.03
399.51	58.51
399.70	102.98
399.90	110.01
400.09	114.69
400.28	56.17
400.47	91.28
400.67	138.09
400.86	135.75
401.05	133.41
401.24	98.30
401.44	124.05
401.63	102.98
401.82	138.09
402.01	110.01
402.21	194.26
402.40	175.54
402.59	56.17
402.78	133.41
402.97	93.62
403.17	147.45
403.36	131.07
403.55	67.88
403.74	110.01
403.93	140.43
404.13	133.41
404.32	147.45
404.51	182.56
404.70	107.66
404.89	105.32
405.09	135.75
405.28	35.11
405.47	105.32
405.66	53.83
405.85	58.51
406.05	126.39
406.24	107.66
406.43	79.58
406.62	95.96
406.81	131.07
407.00	28.09
407.20	117.03
407.39	112.35
407.58	124.05
407.77	110.01
407.96	161.50
408.15	128.73
408.34	124.05
408.54	138.09
408.73	84.26
408.92	191.92
409.11	124.05
409.30	124.05
409.49	117.03
409.68	180.22
409.87	159.16
410.07	91.28
410.26	105.32
410.45	198.95
410.64	67.88
410.83	88.94
411.02	105.32
411.21	112.35
411.40	145.11
411.59	117.03
411.78	117.03
411.98	124.05
412.17	60.85
412.36	72.56
412.55	142.77
412.74	177.88
412.93	105.32
413.12	180.22
413.31	112.35
413.50	145.11
413.69	77.24
413.88	142.77
414.07	18.72
414.26	149.79
414.45	86.60
414.64	110.01
414.83	112.35
415.02	126.39
415.22	91.28
415.41	100.64
415.60	142.77
415.79	196.60
415.98	187.24
416.17	170.86
416.36	107.66
416.55	117.03
416.74	107.66
416.93	194.26
417.12	74.90
417.31	140.43
417.50	180.22
417.69	194.26
417.88	215.33
418.07	124.05
418.26	166.18
418.45	128.73
418.64	184.90
418.83	238.73
419.02	131.07
419.21	203.63
419.39	159.16
419.58	182.56
419.77	177.88
419.96	159.16
420.15	147.45
420.34	152.13
420.53	133.41
420.72	173.20
420.91	112.35
421.10	175.54
421.29	177.88
421.48	138.09
421.67	117.03
421.86	81.92
422.05	79.58
422.24	60.85
422.43	145.11
422.61	114.69
422.80	142.77
422.99	173.20
423.18	168.52
423.37	159.16
423.56	126.39
423.75	112.35
423.94	114.69
424.13	140.43
424.32	145.11
424.50	152.13
424.69	140.43
424.88	184.90
425.07	156.82
425.26	133.41
425.45	243.42
425.64	205.97
425.83	175.54
426.01	166.18
426.20	198.95
426.39	203.63
426.58	60.85
426.77	194.26
426.96	159.16
427.15	149.79
427.33	114.69
427.52	124.05
427.71	112.35
427.90	65.54
428.09	86.60
428.28	93.62
428.46	177.88
428.65	201.29
428.84	187.24
429.03	215.33
429.22	77.24
429.40	124.05
429.59	91.28
429.78	168.52
429.97	105.32
430.16	70.22
430.34	44.47
430.53	156.82
430.72	117.03
430.91	212.99
431.10	70.22
431.28	95.96
431.47	124.05
431.66	110.01
431.85	110.01
432.03	131.07
432.22	210.65
432.41	166.18
432.60	198.95
432.79	210.65
432.97	248.10
433.16	238.73
433.35	248.10
433.54	201.29
433.72	105.32
433.91	128.73
434.10	168.52
434.28	238.73
434.47	142.77
434.66	175.54
434.85	107.66
435.03	84.26
435.22	180.22
435.41	105.32
435.59	140.43
435.78	112.35
435.97	124.05
436.16	84.26
436.34	133.41
436.53	126.39
436.72	152.13
436.90	170.86
437.09	102.98
437.28	110.01
437.46	145.11
437.65	102.98
437.84	107.66
438.02	107.66
438.21	142.77
438.40	65.54
438.58	70.22
438.77	163.84
438.96	98.30
439.14	154.48
439.33	135.75
439.52	142.77
439.70	149.79
439.89	173.20
440.08	81.92
440.26	93.62
440.45	168.52
440.63	110.01
440.82	135.75
441.01	149.79
441.19	128.73
441.38	124.05
441.57	121.71
441.75	147.45
441.94	161.50
442.12	236.39
442.31	72.56
442.50	39.79
442.68	161.50
442.87	124.05
443.05	156.82
443.24	173.20
443.43	93.62
443.61	117.03
443.80	138.09
443.98	182.56
444.17	88.94
444.35	147.45
444.54	142.77
444.73	105.32
444.91	145.11
445.10	79.58
445.28	95.96
445.47	138.09
445.65	128.73
445.84	117.03
446.02	84.26
446.21	107.66
446.39	63.19
446.58	135.75
446.77	128.73
446.95	110.01
447.14	117.03
447.32	128.73
447.51	163.84
447.69	147.45
447.88	138.09
448.06	79.58
448.25	161.50
448.43	161.50
448.62	180.22
448.80	149.79
448.99	145.11
449.17	67.88
449.36	163.84
449.54	88.94
449.73	126.39
449.91	184.90
450.10	114.69
450.28	203.63
450.46	173.20
450.65	161.50
450.83	152.13
451.02	210.65
451.20	159.16
451.39	145.11
451.57	152.13
451.76	187.24
451.94	53.83
452.13	201.29
452.31	168.52
452.49	49.15
452.68	121.71
452.86	212.99
453.05	168.52
453.23	131.07
453.42	163.84
453.60	112.35
453.78	91.28
453.97	142.77
454.15	119.37
454.34	142.77
454.52	126.39
454.70	91.28
454.89	117.03
455.07	142.77
455.26	135.75
455.44	126.39
455.62	114.69
455.81	102.98
455.99	138.09
456.17	170.86
456.36	152.13
456.54	100.64
456.73	156.82
456.91	166.18
457.09	105.32
457.28	194.26
457.46	119.37
457.64	152.13
457.83	121.71
458.01	156.82
458.19	149.79
458.38	119.37
458.56	152.13
458.74	170.86
458.93	93.62
459.11	163.84
459.29	142.77
459.48	154.48
459.66	201.29
459.84	191.92
460.03	112.35
460.21	159.16
460.39	180.22
460.57	126.39
460.76	147.45
460.94	140.43
461.12	117.03
461.31	166.18
461.49	159.16
461.67	72.56
461.85	79.58
462.04	182.56
462.22	603.86
462.40	189.58
462.59	142.77
462.77	208.31
462.95	156.82
463.13	163.84
463.32	149.79
463.50	121.71
463.68	215.33
463.86	117.03
464.05	126.39
464.23	170.86
464.41	166.18
464.59	145.11
464.78	79.58
464.96	84.26
465.14	117.03
465.32	159.16
465.50	159.16
465.69	84.26
465.87	121.71
466.05	131.07
466.23	163.84
466.41	117.03
466.60	156.82
466.78	152.13
466.96	117.03
467.14	187.24
467.32	138.09
467.51	135.75
467.69	98.30
467.87	154.48
468.05	110.01
468.23	156.82
468.41	131.07
468.60	124.05
468.78	198.95
468.96	149.79
469.14	67.88
469.32	86.60
469.50	163.84
469.69	133.41
469.87	184.90
470.05	154.48
470.23	205.97
470.41	77.24
470.59	149.79
470.77	114.69
470.95	142.77
471.14	163.84
471.32	121.71
471.50	182.56
471.68	154.48
471.86	205.97
472.04	93.62
472.22	149.79
472.40	128.73
472.58	100.64
472.77	86.60
472.95	128.73
473.13	227.03
473.31	241.08
473.49	154.48
473.67	168.52
473.85	180.22
474.03	241.08
474.21	124.05
474.39	163.84
474.57	170.86
474.75	168.52
474.93	203.63
475.12	114.69
475.30	241.08
475.48	91.28
475.66	156.82
475.84	131.07
476.02	166.18
476.20	198.95
476.38	198.95
476.56	147.45
476.74	177.88
476.92	173.20
477.10	128.73
477.28	191.92
477.46	156.82
477.64	149.79
477.82	168.52
478.00	117.03
478.18	166.18
478.36	196.60
478.54	138.09
478.72	154.48
478.90	145.11
479.08	142.77
479.26	198.95
479.44	124.05
479.62	177.88
479.80	154.48
479.98	145.11
480.16	98.30
480.34	173.20
480.52	131.07
480.70	194.26
480.88	159.16
481.06	168.52
481.24	189.58
481.41	133.41
481.59	156.82
481.77	133.41
481.95	110.01
482.13	210.65
482.31	161.50
482.49	147.45
482.67	65.54
482.85	220.01
483.03	140.43
483.21	140.43
483.39	128.73
483.57	98.30
483.74	215.33
483.92	110.01
484.10	145.11
484.28	124.05
484.46	201.29
484.64	196.60
484.82	175.54
485.00	147.45
485.18	163.84
485.35	147.45
485.53	112.35
485.71	110.01
485.89	114.69
486.07	95.96
486.25	208.31
486.43	173.20
486.61	117.03
486.78	145.11
486.96	95.96
487.14	124.05
487.32	133.41
487.50	168.52
487.68	205.97
487.85	224.69
488.03	194.26
488.21	201.29
488.39	180.22
488.57	145.11
488.75	201.29
488.92	435.34
489.10	180.22
489.28	184.90
489.46	100.64
489.64	184.90
489.81	222.35
489.99	196.60
490.17	168.52
490.35	264.48
490.53	142.77
490.70	154.48
490.88	212.99
491.06	138.09
491.24	259.80
491.41	159.16
491.59	220.01
491.77	170.86
491.95	194.26
492.13	124.05
492.30	198.95
492.48	177.88
492.66	156.82
492.84	124.05
493.01	147.45
493.19	154.48
493.37	220.01
493.54	180.22
493.72	168.52
493.90	159.16
494.08	161.50
494.25	259.80
494.43	187.24
494.61	152.13
494.79	140.43
494.96	203.63
495.14	245.76
495.32	191.92
495.49	241.08
495.67	264.48
495.85	156.82
496.02	189.58
496.20	215.33
496.38	112.35
496.55	170.86
496.73	156.82
496.91	170.86
497.09	149.79
497.26	142.77
497.44	147.45
497.62	138.09
497.79	224.69
497.97	245.76
498.14	175.54
498.32	252.78
498.50	147.45
498.67	243.42
498.85	227.03
499.03	205.97
499.20	273.84
499.38	205.97
499.56	156.82
499.73	156.82
499.91	128.73
500.08	212.99
500.26	217.67
500.44	177.88
500.61	173.20
500.79	245.76
500.97	222.35
501.14	217.67
501.32	198.95
501.49	163.84
501.67	182.56
501.84	191.92
502.02	210.65
502.20	262.14
502.37	234.05
502.55	161.50
502.72	212.99
502.90	220.01
503.07	173.20
503.25	231.71
503.43	163.84
503.60	180.22
503.78	220.01
503.95	177.88
504.13	191.92
504.30	205.97
504.48	220.01
504.65	227.03
504.83	198.95
505.01	166.18
505.18	201.29
505.36	189.58
505.53	156.82
505.71	236.39
505.88	208.31
506.06	215.33
506.23	121.71
506.41	241.08
506.58	138.09
506.76	126.39
506.93	170.86
507.11	145.11
507.28	283.20
507.46	180.22
507.63	177.88
507.81	138.09
507.98	163.84
508.16	166.18
508.33	283.20
508.50	231.71
508.68	159.16
508.85	166.18
509.03	161.50
509.20	255.12
509.38	234.05
509.55	252.78
509.73	217.67
509.90	198.95
510.08	170.86
510.25	248.10
510.42	175.54
510.60	126.39
510.77	177.88
510.95	245.76
511.12	217.67
511.30	222.35
511.47	231.71
511.64	276.18
511.82	231.71
511.99	184.90
512.17	142.77
512.34	175.54
512.51	227.03
512.69	215.33
512.86	227.03
513.04	119.37
513.21	212.99
513.38	156.82
513.56	166.18
513.73	248.10
513.90	198.95
514.08	166.18
514.25	138.09
514.43	222.35
514.60	201.29
514.77	243.42
514.95	222.35
515.12	147.45
515.29	173.20
515.47	205.97
515.64	182.56
515.81	194.26
515.99	266.82
516.16	217.67
516.33	264.48
516.51	210.65
516.68	163.84
516.85	177.88
517.03	168.52
517.20	159.16
517.37	154.48
517.54	203.63
517.72	198.95
517.89	112.35
518.06	203.63
518.24	191.92
518.41	231.71
518.58	201.29
518.75	259.80
518.93	252.78
519.10	245.76
519.27	217.67
519.45	163.84
519.62	131.07
519.79	121.71
519.96	133.41
520.14	161.50
520.31	255.12
520.48	177.88
520.65	208.31
520.83	173.20
521.00	224.69
521.17	224.69
521.34	166.18
521.52	205.97
521.69	196.60
521.86	257.46
522.03	241.08
522.20	259.80
522.38	224.69
522.55	273.84
522.72	117.03
522.89	241.08
523.07	224.69
523.24	182.56
523.41	198.95
523.58	234.05
523.75	227.03
523.92	201.29
524.10	114.69
524.27	262.14
524.44	203.63
524.61	290.23
524.78	227.03
524.96	220.01
525.13	222.35
525.30	224.69
525.47	133.41
525.64	135.75
525.81	255.12
525.98	156.82
526.16	198.95
526.33	203.63
526.50	189.58
526.67	203.63
526.84	98.30
527.01	149.79
527.18	201.29
527.36	229.37
527.53	131.07
527.70	163.84
527.87	203.63
528.04	222.35
528.21	187.24
528.38	285.55
528.55	259.80
528.72	229.37
528.89	255.12
529.07	191.92
529.24	177.88
529.41	229.37
529.58	222.35
529.75	140.43
529.92	215.33
530.09	177.88
530.26	177.88
530.43	212.99
530.60	255.12
530.77	229.37
530.94	262.14
531.11	250.44
531.28	229.37
531.46	166.18
531.63	257.46
531.80	227.03
531.97	269.16
532.14	236.39
532.31	191.92
532.48	245.76
532.65	308.95
532.82	362.78
532.99	379.17
533.16	327.68
533.33	194.26
533.50	276.18
533.67	330.02
533.84	381.51
534.01	346.40
534.18	395.55
534.35	311.29
534.52	259.80
534.69	294.91
534.86	276.18
535.03	205.97
535.20	222.35
535.37	273.84
535.54	236.39
535.71	173.20
535.88	266.82
536.05	203.63
536.22	245.76
536.38	222.35
536.55	259.80
536.72	227.03
536.89	210.65
537.06	205.97
537.23	180.22
537.40	224.69
537.57	215.33
537.74	212.99
537.91	135.75
538.08	231.71
538.25	220.01
538.42	217.67
538.59	245.76
538.75	215.33
538.92	236.39
539.09	255.12
539.26	205.97
539.43	475.13
539.60	957.28
539.77	1458.15
539.94	1324.74
540.11	884.72
540.28	648.33
540.44	418.96
540.61	320.65
540.78	203.63
540.95	187.24
541.12	248.10
541.29	212.99
541.46	259.80
541.62	205.97
541.79	198.95
541.96	177.88
542.13	241.08
542.30	227.03
542.47	259.80
542.63	180.22
542.80	222.35
542.97	196.60
543.14	243.42
543.31	227.03
543.48	184.90
543.64	208.31
543.81	184.90
543.98	154.48
544.15	205.97
544.32	135.75
544.48	154.48
544.65	250.44
544.82	266.82
544.99	217.67
545.16	191.92
545.32	238.73
545.49	224.69
545.66	212.99
545.83	163.84
546.00	201.29
546.16	173.20
546.33	222.35
546.50	234.05
546.67	229.37
546.83	245.76
547.00	170.86
547.17	184.90
547.34	215.33
547.50	234.05
547.67	217.67
547.84	168.52
548.00	283.20
548.17	264.48
548.34	142.77
548.51	210.65
548.67	170.86
548.84	234.05
549.01	245.76
549.18	236.39
549.34	215.33
549.51	238.73
549.68	241.08
549.84	173.20
550.01	182.56
550.18	313.63
550.34	194.26
550.51	187.24
550.68	287.89
550.84	236.39
551.01	210.65
551.18	189.58
551.34	208.31
551.51	224.69
551.68	163.84
551.84	245.76
552.01	159.16
552.18	177.88
552.34	191.92
552.51	255.12
552.68	234.05
552.84	180.22
553.01	191.92
553.18	222.35
553.34	220.01
553.51	173.20
553.67	248.10
553.84	184.90
554.01	168.52
554.17	229.37
554.34	222.35
554.51	145.11
554.67	210.65
554.84	198.95
555.00	175.54
555.17	187.24
555.33	196.60
555.50	166.18
555.67	236.39
555.83	259.80
556.00	231.71
556.16	470.45
556.33	276.18
556.50	163.84
556.66	142.77
556.83	238.73
556.99	252.78
557.16	177.88
557.32	156.82
557.49	182.56
557.65	201.29
557.82	210.65
557.98	142.77
558.15	229.37
558.32	229.37
558.48	245.76
558.65	215.33
558.81	124.05
558.98	215.33
559.14	210.65
559.31	234.05
559.47	276.18
559.64	194.26
559.80	215.33
559.97	135.75
560.13	208.31
560.30	159.16
560.46	217.67
560.63	184.90
560.79	177.88
560.96	252.78
561.12	184.90
561.29	238.73
561.45	198.95
561.61	215.33
561.78	280.86
561.94	252.78
562.11	149.79
562.27	168.52
562.44	170.86
562.60	224.69
562.77	198.95
562.93	241.08
563.10	227.03
563.26	208.31
563.42	196.60
563.59	215.33
563.75	234.05
563.92	243.42
564.08	168.52
564.24	234.05
564.41	180.22
564.57	227.03
564.74	224.69
564.90	210.65
565.07	287.89
565.23	227.03
565.39	220.01
565.56	313.63
565.72	271.50
565.88	198.95
566.05	170.86
566.21	231.71
566.38	201.29
566.54	227.03
566.70	217.67
566.87	152.13
567.03	198.95
567.19	234.05
567.36	224.69
567.52	196.60
567.68	177.88
567.85	126.39
568.01	100.64
568.17	163.84
568.34	243.42
568.50	222.35
568.66	182.56
568.83	313.63
568.99	229.37
569.15	348.74
569.32	210.65
569.48	257.46
569.64	147.45
569.81	189.58
569.97	140.43
570.13	220.01
570.30	184.90
570.46	236.39
570.62	163.84
570.78	166.18
570.95	189.58
571.11	231.71
571.27	283.20
571.43	222.35
571.60	250.44
571.76	208.31
571.92	248.10
572.09	175.54
572.25	180.22
572.41	280.86
572.57	177.88
572.74	168.52
572.90	117.03
573.06	273.84
573.22	212.99
573.38	227.03
573.55	238.73
573.71	259.80
573.87	180.22
574.03	163.84
574.20	222.35
574.36	308.95
574.52	266.82
574.68	287.89
574.84	264.48
575.01	285.55
575.17	306.61
575.33	182.56
575.49	159.16
575.65	264.48
575.82	276.18
575.98	440.02
576.14	641.31
576.30	685.78
576.46	528.96
576.62	456.40
576.79	304.27
576.95	222.35
577.11	198.95
577.27	203.63
577.43	217.67
577.59	257.46
577.75	159.16
577.92	224.69
578.08	234.05
578.24	191.92
578.40	238.73
578.56	339.38
578.72	269.16
578.88	264.48
579.04	287.89
579.21	276.18
579.37	222.35
579.53	266.82
579.69	259.80
579.85	259.80
580.01	280.86
580.17	311.29
580.33	280.86
580.49	339.38
580.65	330.02
580.82	276.18
580.98	304.27
581.14	315.97
581.30	355.76
581.46	369.80
581.62	465.77
581.78	493.85
581.94	507.90
582.10	369.80
582.26	411.93
582.42	437.68
582.58	381.51
582.74	311.29
582.90	325.33
583.06	454.06
583.22	397.89
583.38	407.25
583.54	472.79
583.70	587.47
583.86	641.31
584.02	748.97
584.18	898.77
584.34	1139.84
584.50	2916.31
584.66	22808.52
584.82	54284.04
584.98	64027.70
585.14	61003.72
585.30	45579.59
585.46	27571.51
585.62	16685.68
585.78	7779.94
585.94	3133.98
586.10	1387.94
586.26	940.90
586.42	667.05
586.58	671.73
586.74	505.56
586.90	601.52
587.06	440.02
587.22	418.96
587.38	468.11
587.54	999.41
587.70	3187.81
587.86	5479.19
588.02	6092.41
588.18	4138.07
588.34	2656.51
588.49	1799.87
588.65	1029.84
588.81	617.90
588.97	337.04
589.13	348.74
589.29	266.82
589.45	285.55
589.61	308.95
589.77	339.38
589.93	332.36
590.08	395.55
590.24	388.53
590.40	369.80
590.56	404.91
590.72	292.57
590.88	266.82
591.04	330.02
591.20	257.46
591.35	332.36
591.51	285.55
591.67	269.16
591.83	271.50
591.99	308.95
592.15	276.18
592.31	217.67
592.46	177.88
592.62	243.42
592.78	234.05
592.94	175.54
593.10	234.05
593.26	294.91
593.41	283.20
593.57	325.33
593.73	543.00
593.89	2682.25
594.05	7021.61
594.20	10314.74
594.36	9652.37
594.52	6403.71
594.68	4018.70
594.84	2745.45
594.99	1528.37
595.15	706.84
595.31	489.17
595.47	311.29
595.62	348.74
595.78	259.80
595.94	299.59
596.10	332.36
596.25	290.23
596.41	280.86
596.57	264.48
596.73	238.73
596.88	512.58
597.04	1357.51
597.20	2214.15
597.36	2621.40
597.51	1891.15
597.67	1317.72
597.83	952.60
597.99	667.05
598.14	482.15
598.30	346.40
598.46	292.57
598.61	301.93
598.77	362.78
598.93	325.33
599.09	257.46
599.24	271.50
599.40	182.56
599.56	313.63
599.71	227.03
599.87	203.63
600.03	208.31
600.18	252.78
600.34	257.46
600.50	229.37
600.65	166.18
600.81	224.69
600.97	189.58
601.12	271.50
601.28	182.56
601.44	117.03
601.59	149.79
601.75	322.99
601.91	224.69
602.06	241.08
602.22	304.27
602.37	662.37
602.53	1701.57
602.69	2574.59
602.84	2607.36
603.00	1853.70
603.16	1334.11
603.31	1018.13
603.47	594.50
603.62	330.02
603.78	308.95
603.94	287.89
604.09	245.76
604.25	262.14
604.40	337.04
604.56	170.86
604.71	198.95
604.87	222.35
605.03	184.90
605.18	217.67
605.34	299.59
605.49	198.95
605.65	332.36
605.80	212.99
605.96	238.73
606.12	231.71
606.27	339.38
606.43	264.48
606.58	362.78
606.74	793.44
606.89	3297.81
607.05	6623.72
607.20	8755.94
607.36	7229.91
607.51	4938.53
607.67	3183.13
607.82	2057.33
607.98	1167.93
608.13	589.82
608.29	440.02
608.44	472.79
608.60	402.57
608.75	458.74
608.91	1116.44
609.06	5205.35
609.22	11290.74
609.37	15229.87
609.53	13172.54
609.68	8936.17
609.84	5778.78
609.99	3786.99
610.15	1959.03
610.30	919.83
610.46	545.34
610.61	372.15
610.76	393.21
610.92	374.49
611.07	266.82
611.23	257.46
611.38	278.52
611.54	278.52
611.69	292.57
