SpectraSuite Data File
++++++++++++++++++++++++++++++++++++
Date: Fri Oct 04 11:48:27 GMT-05:00 2013
User: price-jones
Dark Spectrum Present: No
Reference Spectrum Present: No
Number of Sampled Component Spectra: 1
Spectrometers: USB2+H05261
Integration Time (usec): 100000 (USB2+H05261)
Spectra Averaged: 1 (USB2+H05261)
Boxcar Smoothing: 0 (USB2+H05261)
Correct for Electrical Dark: No (USB2+H05261)
Strobe/Lamp Enabled: No (USB2+H05261)
Correct for Detector Non-linearity: No (USB2+H05261)
Correct for Stray Light: No (USB2+H05261)
Number of Pixels in Processed Spectrum: 2048
>>>>>Begin Processed Spectral Data<<<<<
365.73	0.00
365.92	0.00
366.12	0.00
366.32	0.00
366.52	0.00
366.72	25.75
366.91	0.00
367.11	0.00
367.31	0.00
367.51	0.00
367.70	0.00
367.90	0.00
368.10	0.00
368.30	0.00
368.49	0.00
368.69	0.00
368.89	0.00
369.09	0.00
369.28	0.00
369.48	0.00
369.68	0.00
369.87	0.00
370.07	0.00
370.27	0.00
370.47	70.22
370.66	131.07
370.86	220.01
371.06	278.52
371.25	255.12
371.45	273.84
371.65	210.65
371.84	201.29
372.04	243.42
372.24	227.03
372.44	212.99
372.63	205.97
372.83	315.97
373.03	194.26
373.22	290.23
373.42	259.80
373.62	234.05
373.81	287.89
374.01	287.89
374.21	248.10
374.40	273.84
374.60	229.37
374.79	297.25
374.99	299.59
375.19	304.27
375.38	238.73
375.58	264.48
375.78	306.61
375.97	341.72
376.17	318.31
376.37	299.59
376.56	292.57
376.76	231.71
376.95	287.89
377.15	255.12
377.35	355.76
377.54	320.65
377.74	332.36
377.93	320.65
378.13	367.46
378.33	346.40
378.52	332.36
378.72	313.63
378.91	332.36
379.11	297.25
379.31	358.10
379.50	327.68
379.70	344.06
379.89	341.72
380.09	308.95
380.28	255.12
380.48	271.50
380.68	376.83
380.87	229.37
381.07	315.97
381.26	283.20
381.46	318.31
381.65	318.31
381.85	411.93
382.04	353.42
382.24	311.29
382.43	393.21
382.63	435.34
382.83	299.59
383.02	353.42
383.22	395.55
383.41	383.85
383.61	409.59
383.80	287.89
384.00	351.08
384.19	423.64
384.39	383.85
384.58	341.72
384.78	421.30
384.97	425.98
385.17	383.85
385.36	449.38
385.56	451.72
385.75	423.64
385.95	444.70
386.14	421.30
386.34	433.00
386.53	372.15
386.72	407.25
386.92	351.08
387.11	407.25
387.31	465.77
387.50	470.45
387.70	456.40
387.89	507.90
388.09	454.06
388.28	421.30
388.48	433.00
388.67	442.36
388.86	493.85
389.06	437.68
389.25	456.40
389.45	440.02
389.64	517.26
389.84	533.64
390.03	486.83
390.22	531.30
390.42	372.15
390.61	484.49
390.81	538.32
391.00	498.53
391.19	550.03
391.39	547.69
391.58	496.19
391.78	510.24
391.97	519.60
392.16	486.83
392.36	545.34
392.55	615.56
392.75	519.60
392.94	547.69
393.13	507.90
393.33	510.24
393.52	533.64
393.71	571.09
393.91	587.47
394.10	528.96
394.29	550.03
394.49	517.26
394.68	589.82
394.88	526.62
395.07	486.83
395.26	545.34
395.46	617.90
395.65	624.92
395.84	599.18
396.04	695.14
396.23	589.82
396.42	564.07
396.62	550.03
396.81	697.48
397.00	706.84
397.19	629.60
397.39	667.05
397.58	629.60
397.77	662.37
397.97	664.71
398.16	711.52
398.35	718.54
398.55	648.33
398.74	702.16
398.93	690.46
399.12	739.61
399.32	713.86
399.51	744.29
399.70	781.74
399.90	758.33
400.09	744.29
400.28	744.29
400.47	833.23
400.67	758.33
400.86	793.44
401.05	812.17
401.24	819.19
401.44	798.12
401.63	772.38
401.82	830.89
402.01	856.64
402.21	770.04
402.40	826.21
402.59	854.30
402.78	908.13
402.97	823.87
403.17	917.49
403.36	901.11
403.55	875.36
403.74	929.19
403.93	910.47
404.13	905.79
404.32	952.60
404.51	882.38
404.70	868.34
404.89	959.62
405.09	1060.26
405.28	1008.77
405.47	1022.81
405.66	959.62
405.85	1100.05
406.05	999.41
406.24	1036.86
406.43	1060.26
406.62	1043.88
406.81	1074.31
407.00	1102.39
407.20	987.71
407.39	1078.99
407.58	1121.12
407.77	1039.20
407.96	1205.38
408.15	1109.41
408.34	1177.29
408.54	1196.01
408.73	1090.69
408.92	1191.33
409.11	1193.67
409.30	1252.19
409.49	1289.64
409.68	1207.72
409.87	1228.78
410.07	1228.78
410.26	1259.21
410.45	1432.41
410.64	1334.11
410.83	1380.92
411.02	1380.92
411.21	1366.87
411.40	1261.55
411.59	1373.89
411.78	1350.49
411.98	1315.38
412.17	1406.66
412.36	1406.66
412.55	1441.77
412.74	1467.52
412.93	1516.67
413.12	1359.85
413.31	1570.50
413.50	1453.47
413.69	1519.01
413.88	1610.29
414.07	1589.22
414.26	1607.95
414.45	1638.38
414.64	1645.40
414.83	1605.61
415.02	1682.85
415.22	1741.36
415.41	1687.53
415.60	1678.16
415.79	1717.95
415.98	1748.38
416.17	1682.85
416.36	1750.72
416.55	1827.96
416.74	1722.63
416.93	1902.86
417.12	1818.60
417.31	1846.68
417.50	1802.21
417.69	1818.60
417.88	1937.96
418.07	1893.49
418.26	1994.14
418.45	1984.77
418.64	2008.18
418.83	2017.54
419.02	2026.90
419.21	2003.50
419.39	2064.35
419.58	1989.46
419.77	2026.90
419.96	2036.27
420.15	2270.32
420.34	2003.50
420.53	2134.57
420.72	2209.47
420.91	2179.04
421.10	2094.78
421.29	2125.21
421.48	2157.97
421.67	2277.34
421.86	2057.33
422.05	2120.53
422.24	2282.02
422.43	2181.38
422.61	2193.08
422.80	2120.53
422.99	2275.00
423.18	2195.42
423.37	2326.49
423.56	2197.76
423.75	2230.53
423.94	2214.15
424.13	2022.22
424.32	2183.72
424.50	2284.36
424.69	2307.77
424.88	2291.38
425.07	2310.11
425.26	2216.49
425.45	2338.20
425.64	2120.53
425.83	2333.51
426.01	2321.81
426.20	2277.34
426.39	2326.49
426.58	2258.62
426.77	2223.51
426.96	2200.10
427.15	2246.91
427.33	2319.47
427.52	2410.75
427.71	2307.77
427.90	2319.47
428.09	2298.41
428.28	2480.97
428.46	2422.45
428.65	2513.74
428.84	2509.05
429.03	2513.74
429.22	2328.83
429.40	2478.63
429.59	2480.97
429.78	2286.70
429.97	2321.81
430.16	2502.03
430.34	2523.10
430.53	2588.63
430.72	2597.99
430.91	2553.52
431.10	2623.74
431.28	2698.64
431.47	2600.34
431.66	2679.91
431.85	2576.93
432.03	2675.23
432.22	2679.91
432.41	2602.68
432.60	2696.30
432.79	2637.78
432.97	2689.28
433.16	2766.51
433.35	2633.10
433.54	2684.59
433.72	2818.00
433.91	2782.90
434.10	2761.83
434.28	2801.62
434.47	2803.96
434.66	2899.92
434.85	2780.56
435.03	2841.41
435.22	2923.33
435.41	3030.99
435.59	2913.97
435.78	2820.35
435.97	3000.57
436.16	2904.60
436.34	2897.58
436.53	2888.22
436.72	3049.72
436.90	3000.57
437.09	2988.86
437.28	2953.76
437.46	2942.05
437.65	3059.08
437.84	3042.70
438.02	3117.59
438.21	3171.43
438.40	3089.51
438.58	3246.32
438.77	3176.11
438.96	3178.45
439.14	3276.75
439.33	3243.98
439.52	3283.77
439.70	3239.30
439.89	3342.28
440.08	3361.01
440.26	3461.65
440.45	3307.18
440.63	3332.92
440.82	3419.52
441.01	3545.91
441.19	3431.23
441.38	3508.46
441.57	3475.70
441.75	3433.57
441.94	3522.51
442.12	3576.34
442.31	3517.83
442.50	3613.79
442.68	3627.83
442.87	3620.81
443.05	3749.54
443.24	3688.68
443.43	3723.79
443.61	3801.03
443.80	3691.02
443.98	3667.62
444.17	3648.90
444.35	3824.44
444.54	3693.37
444.73	3836.14
444.91	3705.07
445.10	3620.81
445.28	3667.62
445.47	3819.75
445.65	3770.60
445.84	3679.32
446.02	3550.59
446.21	3702.73
446.39	3868.91
446.58	3798.69
446.77	3838.48
446.95	3730.81
447.14	3840.82
447.32	3810.39
447.51	3892.31
447.69	3728.47
447.88	3868.91
448.06	3922.74
448.25	3779.97
448.43	3934.44
448.62	3918.06
448.80	3908.69
448.99	3981.25
449.17	3885.29
449.36	3836.14
449.54	3941.46
449.73	3974.23
449.91	4149.77
450.10	4128.70
450.28	4145.09
450.46	4002.32
450.65	4189.56
450.83	4079.55
451.02	4016.36
451.20	4156.79
451.39	4004.66
451.57	4168.49
451.76	4138.07
451.94	4182.54
452.13	4168.49
452.31	4203.60
452.49	4065.51
452.68	4255.09
452.86	4201.26
453.05	4376.80
453.23	4234.03
453.42	4142.75
453.60	4344.03
453.78	4189.56
453.97	4248.07
454.15	4318.29
454.34	4222.33
454.52	4411.91
454.70	4465.74
454.89	4428.29
455.07	4311.27
455.26	4442.34
455.44	4440.00
455.62	4435.32
455.81	4447.02
455.99	4571.07
456.17	4477.44
456.36	4376.80
456.54	4678.73
456.73	4526.60
456.91	4531.28
457.09	4587.45
457.28	4823.84
457.46	4720.86
457.64	4690.43
457.83	4671.71
458.01	4608.51
458.19	4816.82
458.38	4655.33
458.56	4702.14
458.74	4870.65
458.93	4678.73
459.11	4973.64
459.29	4809.80
459.48	4765.33
459.66	4821.50
459.84	5018.11
460.03	5027.47
460.21	4971.30
460.39	4945.55
460.57	4788.74
460.76	4952.57
460.94	5057.90
461.12	5004.07
461.31	4987.68
461.49	4964.28
461.67	5011.09
461.85	5200.67
462.04	5064.92
462.22	5500.26
462.40	5212.37
462.59	5111.73
462.77	5135.14
462.95	5015.77
463.13	5116.41
463.32	5242.80
463.50	5219.39
463.68	5165.56
463.86	5263.86
464.05	5287.27
464.23	5191.31
464.41	5303.65
464.59	5191.31
464.78	5287.27
464.96	5256.84
465.14	5217.05
465.32	5455.79
465.50	5420.68
465.69	5509.62
465.87	5355.15
466.05	5310.68
466.23	5387.91
466.41	5413.66
466.60	5511.96
466.78	5404.30
466.96	5523.66
467.14	5521.32
467.32	5423.02
467.51	5579.84
467.69	5488.56
467.87	5675.80
468.05	5671.12
468.23	5458.13
468.41	5612.60
468.60	5643.03
468.78	5666.44
468.96	5568.13
469.14	5722.61
469.32	5696.86
469.50	5582.18
469.69	5818.57
469.87	5947.30
470.05	5858.36
470.23	5902.83
470.41	5872.40
470.59	5797.51
470.77	5818.57
470.95	5884.11
471.14	6005.81
471.32	5799.85
471.50	6059.65
471.68	6150.93
471.86	6061.99
472.04	5975.39
472.22	6195.40
472.40	6155.61
472.58	6064.33
472.77	6193.06
472.95	6181.35
473.13	6476.26
473.31	6164.97
473.49	6204.76
473.67	6277.32
473.85	6317.11
474.03	6403.71
474.21	6415.41
474.39	6544.14
474.57	6539.46
474.75	6574.56
474.93	6581.59
475.12	6562.86
475.30	6607.33
475.48	6586.27
475.66	6684.57
475.84	6644.78
476.02	6773.51
476.20	6899.90
476.38	6792.23
476.56	7026.29
476.74	6862.45
476.92	7148.00
477.10	7047.35
477.28	7096.50
477.46	7056.72
477.64	7180.76
477.82	7456.95
478.00	7351.62
478.18	7365.67
478.36	7304.81
478.54	7564.61
478.72	7557.59
478.90	7754.19
479.08	7630.15
479.26	7588.02
479.44	7838.45
479.62	7892.29
479.80	7990.59
479.98	7988.25
480.16	8060.80
480.34	8051.44
480.52	8093.57
480.70	8262.09
480.88	8081.87
481.06	8161.45
481.24	8063.15
481.41	8451.67
481.59	8568.70
481.77	8367.42
481.95	8547.64
482.13	8610.83
482.31	8779.35
482.49	8884.67
482.67	8716.16
482.85	9039.15
483.03	9085.96
483.21	9195.96
483.39	9062.55
483.57	9055.53
483.74	9434.70
483.92	9369.16
484.10	9259.16
484.28	9635.99
484.46	9572.79
484.64	9570.45
484.82	9701.52
485.00	9954.30
485.18	9982.38
485.35	10068.98
485.53	9956.64
485.71	10022.17
485.89	10195.37
486.07	9996.43
486.25	10171.97
486.43	10279.63
486.61	10256.23
486.78	10665.82
486.96	10562.84
487.14	10862.43
487.32	10630.71
487.50	10813.28
487.68	10773.49
487.85	10848.38
488.03	11101.16
488.21	11262.66
488.39	11023.92
488.57	11393.73
488.75	11597.35
488.92	11871.20
489.10	11700.34
489.28	11485.01
489.46	11709.70
489.64	11889.92
489.81	11747.15
489.99	11913.33
490.17	12070.14
490.35	12400.16
490.53	12336.96
490.70	12379.09
490.88	12224.62
491.06	12203.55
491.24	12603.78
491.41	12369.73
491.59	12587.40
491.77	12615.49
491.95	12840.18
492.13	12915.08
492.30	13060.19
492.48	13067.21
492.66	13217.01
492.84	13432.33
493.01	13109.34
493.19	13413.61
493.37	13575.11
493.54	13425.31
493.72	13547.02
493.90	13638.30
494.08	13795.12
494.25	14097.05
494.43	14129.81
494.61	14045.55
494.79	13980.02
494.96	13965.98
495.14	13926.19
495.32	14431.74
495.49	14445.79
495.67	14368.55
495.85	14661.12
496.02	14747.72
496.20	14731.33
496.38	14773.46
496.55	14953.68
496.73	14906.87
496.91	14956.02
497.09	15187.74
497.26	15169.01
497.44	15232.21
497.62	14932.62
497.79	15599.67
497.97	15435.83
498.14	15690.95
498.32	15955.43
498.50	15803.30
498.67	15882.88
498.85	15807.98
499.03	16013.95
499.20	15995.22
499.38	16273.74
499.56	16128.63
499.73	16336.94
499.91	16315.87
500.08	16135.65
500.26	16215.23
500.44	16486.73
500.61	16271.40
500.79	16503.12
500.97	16744.19
501.14	16800.37
501.32	16748.87
501.49	16517.16
501.67	16774.62
501.84	16992.29
502.02	16657.59
502.20	17240.39
502.37	17062.51
502.55	17212.30
502.72	16748.87
502.90	16973.56
503.07	17015.69
503.25	17032.08
503.43	17142.08
503.60	17186.55
503.78	17596.15
503.95	17397.20
504.13	17362.09
504.30	17547.00
504.48	17689.77
504.65	17781.05
504.83	17902.76
505.01	18101.70
505.18	17926.16
505.36	18073.62
505.53	18005.74
505.71	18396.61
505.88	17942.55
506.06	18136.81
506.23	18235.11
506.41	18164.90
506.58	18333.42
506.76	18483.21
506.93	18445.76
507.11	18504.28
507.28	18487.89
507.46	18541.72
507.63	18689.18
507.81	18813.23
507.98	19096.43
508.16	18747.69
508.33	18869.40
508.50	18789.82
508.68	19063.66
508.85	19449.85
509.03	19073.03
509.20	19288.35
509.38	19407.72
509.55	19665.18
509.73	19260.27
509.90	19482.62
510.08	19405.38
510.25	19377.30
510.42	19536.45
510.60	19779.87
510.77	19871.15
510.95	19995.20
511.12	19735.40
511.30	19878.17
511.47	20189.46
511.64	20156.69
511.82	20339.26
511.99	20128.61
512.17	20252.66
512.34	20229.25
512.51	20624.80
512.69	20418.83
512.86	20395.43
513.04	20666.93
513.21	20816.72
513.38	20580.33
513.56	20716.08
513.73	20451.60
513.90	20636.50
514.08	20966.52
514.25	20589.69
514.43	21167.80
514.60	20884.60
514.77	21228.66
514.95	21373.77
515.12	21074.18
515.29	21095.25
515.47	20842.47
515.64	21671.02
515.81	21301.22
515.99	21252.06
516.16	21378.45
516.33	21439.31
516.51	21579.74
516.68	21476.76
516.85	21493.14
517.03	21706.13
517.20	21757.62
517.37	21521.23
517.54	21734.21
517.72	21682.72
517.89	21682.72
518.06	21888.69
518.24	21809.11
518.41	21797.41
518.58	22087.64
518.75	22104.02
518.93	22139.13
519.10	22228.07
519.27	22218.71
519.45	22099.34
519.62	22253.81
519.79	22192.96
519.96	22595.53
520.14	22616.60
520.31	22326.37
520.48	23119.81
520.65	22480.85
520.83	22590.85
521.00	22895.12
521.17	22719.58
521.34	22448.08
521.52	22852.99
521.69	23005.13
521.86	23058.96
522.03	23014.49
522.20	23264.92
522.38	23257.90
522.55	23091.73
522.72	22902.14
522.89	23332.80
523.07	23529.41
523.24	23358.55
523.41	23316.42
523.58	23388.97
523.75	23730.69
523.92	23058.96
524.10	23498.98
524.27	23828.99
524.44	23531.75
524.61	23506.00
524.78	23365.57
524.96	24039.64
525.13	24049.00
525.30	23836.02
525.47	23625.37
525.64	23810.27
525.81	24025.60
525.98	24081.77
526.16	23950.70
526.33	24027.94
526.50	24077.09
526.67	23936.66
526.84	24240.93
527.01	24086.45
527.18	24350.93
527.36	24222.20
527.53	24507.75
527.70	24636.48
527.87	24212.84
528.04	24533.50
528.21	24826.06
528.38	24924.36
528.55	24659.88
528.72	24620.10
528.89	24774.57
529.07	24755.85
529.24	24758.19
529.41	25151.40
529.58	24713.72
529.75	24594.35
529.92	24814.36
530.09	24826.06
530.26	24622.44
530.43	25015.65
530.60	24957.13
530.77	24858.83
530.94	25039.05
531.11	25216.93
531.28	24933.73
531.46	25216.93
531.63	25406.52
531.80	25811.43
531.97	25544.61
532.14	25443.96
532.31	25113.95
532.48	25488.43
532.65	25474.39
532.82	25240.34
532.99	25537.59
533.16	25399.49
533.33	25802.07
533.50	25635.89
533.67	26010.37
533.84	25460.35
534.01	25556.31
534.18	25713.13
534.35	25731.85
534.52	25792.70
534.69	26204.64
534.86	26078.25
535.03	25930.80
535.20	25855.90
535.37	26253.79
535.54	26195.28
535.71	25898.03
535.88	26178.89
536.05	25839.51
536.22	25972.92
536.38	25891.01
536.55	26281.88
536.72	26394.22
536.89	25879.30
537.06	26012.71
537.23	26253.79
537.40	25865.26
537.57	26618.91
537.74	26726.58
537.91	26909.14
538.08	26630.62
538.25	26380.18
538.42	26539.33
538.59	26632.96
538.75	26412.95
538.92	26487.84
539.09	26862.33
539.26	26906.80
539.43	26663.38
539.60	27105.74
539.77	26733.60
539.94	26979.36
540.11	26700.83
540.28	26857.65
540.44	26827.22
540.61	26874.03
540.78	27080.00
540.95	27072.98
541.12	27075.32
541.29	26611.89
541.46	26953.61
541.62	27405.33
541.79	26960.63
541.96	26918.50
542.13	27042.55
542.30	27056.59
542.47	27459.16
542.63	27255.54
542.80	27166.60
542.97	27356.18
543.14	27637.05
543.31	27147.87
543.48	27426.40
543.64	27651.09
543.81	27693.22
543.98	27639.39
544.15	27758.75
544.32	27864.08
544.48	28149.62
544.65	28039.62
544.82	27960.04
544.99	27672.15
545.16	28032.60
545.32	27702.58
545.49	28060.68
545.66	28297.08
545.83	28252.61
546.00	27843.01
546.16	27922.59
546.33	27866.42
546.50	28140.26
546.67	28018.55
546.83	28100.47
547.00	27885.14
547.17	28254.95
547.34	28383.68
547.50	28240.90
547.67	28500.70
547.84	28659.86
548.00	28313.46
548.17	28009.19
548.34	28048.98
548.51	28926.68
548.67	28521.77
548.84	28362.61
549.01	28636.45
549.18	28570.92
549.34	28290.06
549.51	28720.71
549.68	28664.54
549.84	28350.91
550.01	28395.38
550.18	28287.71
550.34	28343.89
550.51	28699.65
550.68	28451.55
550.84	28407.08
551.01	28868.17
551.18	28418.78
551.34	28514.75
551.51	28886.89
551.68	28575.60
551.84	29289.46
552.01	28648.16
552.18	28732.42
552.34	28704.33
552.51	29163.08
552.68	28727.74
552.84	28772.21
553.01	29146.69
553.18	29060.09
553.34	29156.05
553.51	29163.08
553.67	29144.35
553.84	29146.69
554.01	29085.84
554.17	29563.31
554.34	28945.41
554.51	29223.93
554.67	29495.43
554.84	29359.68
555.00	29048.39
555.17	29273.08
555.33	29097.54
555.50	28945.41
555.67	29392.45
555.83	29226.27
556.00	29338.62
556.16	29677.99
556.33	29387.77
556.50	29422.87
556.66	29668.63
556.83	29551.60
556.99	29507.13
557.16	29390.11
557.32	29619.48
557.49	29682.67
557.65	29347.98
557.82	29268.40
557.98	29507.13
558.15	29493.09
558.32	29305.85
558.48	29235.63
558.65	29312.87
558.81	29266.06
558.98	29603.10
559.14	29888.64
559.31	29551.60
559.47	29469.69
559.64	29640.54
559.80	29975.24
559.97	29942.47
560.13	29830.13
560.30	29666.29
560.46	29738.85
560.63	29933.11
560.79	29479.05
560.96	29663.95
561.12	29879.28
561.29	29804.38
561.45	29628.84
561.61	30078.22
561.78	29963.54
561.94	29752.89
562.11	29867.58
562.27	29633.52
562.44	30012.69
562.60	29642.88
562.77	30057.16
562.93	30377.81
563.10	30005.67
563.26	30043.12
563.42	30284.19
563.59	30232.70
563.75	29998.65
563.92	29942.47
564.08	29898.00
564.24	30040.78
564.41	29933.11
564.57	29830.13
564.74	30045.46
564.90	30099.29
565.07	30307.60
565.23	30078.22
565.39	30132.06
565.56	30206.95
565.72	29919.07
565.88	30148.44
566.05	30008.01
566.21	30022.05
566.38	29851.19
566.54	30396.54
566.70	30553.35
566.87	30134.40
567.03	30237.38
567.19	30270.15
567.36	29820.77
567.52	30036.09
567.68	30015.03
567.85	30059.50
568.01	30237.38
568.17	30370.79
568.34	30129.72
568.50	30429.30
568.66	30249.08
568.83	30321.64
568.99	30178.87
569.15	30438.67
569.32	30057.16
569.48	30202.27
569.64	30417.60
569.81	30558.03
569.97	30574.42
570.13	30256.11
570.30	30609.53
570.46	29942.47
570.62	30340.36
570.78	30284.19
570.95	30113.33
571.11	30249.08
571.27	30129.72
571.43	30321.64
571.60	30415.26
571.76	30366.11
571.92	30614.21
572.09	30607.19
572.25	30361.43
572.41	30167.16
572.57	30419.94
572.74	30235.04
572.90	30253.76
573.06	30284.19
573.22	30263.13
573.38	30527.61
573.55	30462.07
573.71	30616.55
573.87	30644.63
574.03	29979.92
574.20	30270.15
574.36	30216.32
574.52	30352.07
574.68	30110.99
574.84	30370.79
575.01	30485.48
575.17	30785.07
575.33	30796.77
575.49	30473.78
575.65	30433.99
575.82	30162.48
575.98	30043.12
576.14	30567.40
576.30	30319.30
576.46	30216.32
576.62	30281.85
576.79	30279.51
576.95	30176.53
577.11	30244.40
577.27	30443.35
577.43	30749.96
577.59	30480.80
577.75	30836.56
577.92	30015.03
578.08	30235.04
578.24	30405.90
578.40	29989.28
578.56	30541.65
578.72	30293.55
578.88	30469.09
579.04	30899.75
579.21	30878.69
579.37	30408.24
579.53	30782.73
579.69	30307.60
579.85	30515.90
580.01	30567.40
580.17	30258.45
580.33	30728.89
580.49	30913.80
580.65	30553.35
580.82	30717.19
580.98	30735.92
581.14	30429.30
581.30	30759.32
581.46	30110.99
581.62	30321.64
581.78	30401.22
581.94	30565.06
582.10	30572.08
582.26	30417.60
582.42	30417.60
582.58	30551.01
582.74	30562.72
582.90	30567.40
583.06	30541.65
583.22	30132.06
583.38	30080.56
583.54	30614.21
583.70	30689.10
583.86	30644.63
584.02	30642.29
584.18	30904.43
584.34	30834.22
584.50	30787.41
584.66	30555.69
584.82	30635.27
584.98	30857.62
585.14	30359.09
585.30	30221.00
585.46	30125.04
585.62	30127.38
585.78	30288.87
585.94	30331.00
586.10	30604.84
586.26	30288.87
586.42	30700.81
586.58	30639.95
586.74	30331.00
586.90	30366.11
587.06	30487.82
587.22	30349.73
587.38	30328.66
587.54	30794.43
587.70	31070.61
587.86	31021.46
588.02	30366.11
588.18	30724.21
588.34	30761.66
588.49	30417.60
588.65	30455.05
588.81	30611.87
588.97	30696.13
589.13	30761.66
589.29	30927.84
589.45	30862.30
589.61	30855.28
589.77	31166.57
589.93	31077.63
590.08	30911.46
590.24	30731.23
590.40	30478.46
590.56	31009.76
590.72	30464.41
590.88	30370.79
591.04	30497.18
591.20	30754.64
591.35	30747.62
591.51	30707.83
591.67	30628.25
