SpectraSuite Data File
++++++++++++++++++++++++++++++++++++
Date: Fri Oct 04 11:48:43 GMT-05:00 2013
User: price-jones
Dark Spectrum Present: No
Reference Spectrum Present: No
Number of Sampled Component Spectra: 1
Spectrometers: USB2+H05261
Integration Time (usec): 100000 (USB2+H05261)
Spectra Averaged: 1 (USB2+H05261)
Boxcar Smoothing: 0 (USB2+H05261)
Correct for Electrical Dark: No (USB2+H05261)
Strobe/Lamp Enabled: No (USB2+H05261)
Correct for Detector Non-linearity: No (USB2+H05261)
Correct for Stray Light: No (USB2+H05261)
Number of Pixels in Processed Spectrum: 2048
>>>>>Begin Processed Spectral Data<<<<<
365.73	30.43
365.92	30.43
366.12	30.43
366.32	0.00
366.52	0.00
366.72	0.00
366.91	0.00
367.11	0.00
367.31	0.00
367.51	0.00
367.70	0.00
367.90	0.00
368.10	0.00
368.30	0.00
368.49	0.00
368.69	0.00
368.89	0.00
369.09	0.00
369.28	0.00
369.48	0.00
369.68	0.00
369.87	0.00
370.07	58.51
370.27	65.54
370.47	142.77
370.66	285.55
370.86	346.40
371.06	325.33
371.25	402.57
371.45	266.82
371.65	311.29
371.84	304.27
372.04	299.59
372.24	437.68
372.44	379.17
372.63	400.23
372.83	461.09
373.03	416.62
373.22	397.89
373.42	430.66
373.62	484.49
373.81	344.06
374.01	414.27
374.21	379.17
374.40	425.98
374.60	449.38
374.79	535.98
374.99	425.98
375.19	442.36
375.38	482.15
375.58	444.70
375.78	517.26
375.97	528.96
376.17	425.98
376.37	491.51
376.56	561.73
376.76	447.04
376.95	514.92
377.15	442.36
377.35	465.77
377.54	545.34
377.74	456.40
377.93	538.32
378.13	521.94
378.33	430.66
378.52	500.87
378.72	545.34
378.91	512.58
379.11	498.53
379.31	566.41
379.50	543.00
379.70	533.64
379.89	592.16
380.09	465.77
380.28	475.13
380.48	510.24
380.68	547.69
380.87	566.41
381.07	559.39
381.26	571.09
381.46	472.79
381.65	573.43
381.85	531.30
382.04	554.71
382.24	535.98
382.43	674.07
382.63	606.20
382.83	599.18
383.02	629.60
383.22	678.76
383.41	617.90
383.61	615.56
383.80	678.76
384.00	571.09
384.19	498.53
384.39	648.33
384.58	582.79
384.78	645.99
384.97	617.90
385.17	631.94
385.36	638.97
385.56	678.76
385.75	683.44
385.95	613.22
386.14	716.20
386.34	660.03
386.53	653.01
386.72	657.69
386.92	688.12
387.11	669.39
387.31	681.10
387.50	690.46
387.70	681.10
387.89	744.29
388.09	763.01
388.28	657.69
388.48	716.20
388.67	816.85
388.86	744.29
389.06	795.78
389.25	755.99
389.45	767.70
389.64	723.23
389.84	725.57
390.03	798.12
390.22	758.33
390.42	814.51
390.61	849.61
390.81	744.29
391.00	753.65
391.19	835.57
391.39	894.08
391.58	833.23
391.78	884.72
391.97	873.02
392.16	767.70
392.36	837.91
392.55	882.38
392.75	889.40
392.94	924.51
393.13	844.93
393.33	856.64
393.52	880.04
393.71	1069.62
393.91	966.64
394.10	924.51
394.29	933.87
394.49	950.26
394.68	931.53
394.88	964.30
395.07	999.41
395.26	1001.75
395.46	1001.75
395.65	1029.84
395.84	1013.45
396.04	1078.99
396.23	1027.50
396.42	1057.92
396.62	999.41
396.81	1064.94
397.00	1053.24
397.19	1102.39
397.39	990.05
397.58	1067.28
397.77	999.41
397.97	1088.35
398.16	1142.18
398.35	1139.84
398.55	1163.25
398.74	1196.01
398.93	1217.08
399.12	1158.57
399.32	1160.91
399.51	1184.31
399.70	1193.67
399.90	1280.27
400.09	1219.42
400.28	1263.89
400.47	1266.23
400.67	1331.76
400.86	1306.02
401.05	1406.66
401.24	1336.45
401.44	1413.68
401.63	1390.28
401.82	1369.21
402.01	1320.06
402.21	1348.15
402.40	1355.17
402.59	1343.47
402.78	1413.68
402.97	1430.07
403.17	1451.13
403.36	1483.90
403.55	1469.86
403.74	1533.05
403.93	1514.33
404.13	1493.26
404.32	1577.52
404.51	1516.67
404.70	1708.59
404.89	1537.73
405.09	1603.27
405.28	1661.78
405.47	1603.27
405.66	1692.21
405.85	1809.23
406.05	1671.14
406.24	1727.32
406.43	1741.36
406.62	1720.29
406.81	1788.17
407.00	1671.14
407.20	1762.42
407.39	1820.94
407.58	1790.51
407.77	1806.89
407.96	2001.16
408.15	1881.79
408.34	1825.62
408.54	1942.64
408.73	1959.03
408.92	1926.26
409.11	2017.54
409.30	1930.94
409.49	2024.56
409.68	1961.37
409.87	2003.50
410.07	2090.10
410.26	2019.88
410.45	2083.08
410.64	2120.53
410.83	2078.40
411.02	2267.98
411.21	2300.75
411.40	2193.08
411.59	2223.51
411.78	2328.83
411.98	2352.24
412.17	2324.15
412.36	2368.62
412.55	2413.09
412.74	2434.16
412.93	2530.12
413.12	2387.35
413.31	2530.12
413.50	2525.44
413.69	2658.85
413.88	2658.85
414.07	2574.59
414.26	2647.15
414.45	2668.21
414.64	2693.96
414.83	2731.41
415.02	2717.36
415.22	2937.37
415.41	2808.64
415.60	2876.52
415.79	2892.90
415.98	2932.69
416.17	2883.54
416.36	3016.95
416.55	2913.97
416.74	2920.99
416.93	2862.48
417.12	3000.57
417.31	3068.44
417.50	3019.29
417.69	3122.27
417.88	3075.46
418.07	3178.45
418.26	3213.56
418.45	3243.98
418.64	3286.11
418.83	3255.69
419.02	3323.56
419.21	3279.09
419.39	3339.94
419.58	3459.31
419.77	3328.24
419.96	3197.17
420.15	3372.71
420.34	3274.41
420.53	3419.52
420.72	3487.40
420.91	3531.87
421.10	3393.78
421.29	3515.48
421.48	3407.82
421.67	3595.06
421.86	3576.34
422.05	3538.89
422.24	3506.12
422.43	3538.89
422.61	3630.17
422.80	3559.95
422.99	3648.90
423.18	3627.83
423.37	3812.73
423.56	3660.60
423.75	3658.26
423.94	3620.81
424.13	3545.91
424.32	3578.68
424.50	3709.75
424.69	3852.52
424.88	3625.49
425.07	3723.79
425.26	3515.48
425.45	3735.50
425.64	3719.11
425.83	3702.73
426.01	3653.58
426.20	3700.39
426.39	3660.60
426.58	3716.77
426.77	3887.63
426.96	3840.82
427.15	3749.54
427.33	3892.31
427.52	3831.46
427.71	3878.27
427.90	3819.75
428.09	3845.50
428.28	3983.59
428.46	3894.65
428.65	3915.72
428.84	4088.92
429.03	4112.32
429.22	3791.67
429.40	4049.13
429.59	4175.52
429.78	4079.55
429.97	3969.55
430.16	3960.19
430.34	4079.55
430.53	4252.75
430.72	4175.52
430.91	4121.68
431.10	4205.94
431.28	4212.96
431.47	4374.46
431.66	4339.35
431.85	4109.98
432.03	4505.53
432.22	4440.00
432.41	4301.90
432.60	4482.13
432.79	4245.73
432.97	4409.57
433.16	4526.60
433.35	4603.83
433.54	4482.13
433.72	4535.96
433.91	4463.40
434.10	4643.62
434.28	4505.53
434.47	4624.90
434.66	4685.75
434.85	4685.75
435.03	4709.16
435.22	4664.69
435.41	4903.42
435.59	4685.75
435.78	4751.29
435.97	4854.27
436.16	4952.57
436.34	4772.35
436.53	4910.44
436.72	4922.15
436.90	4844.91
437.09	4947.89
437.28	4903.42
437.46	4912.78
437.65	5165.56
437.84	5153.86
438.02	4856.61
438.21	5163.22
438.40	4950.23
438.58	5149.18
438.77	5320.04
438.96	5111.73
439.14	5305.99
439.33	5350.46
439.52	5394.93
439.70	5430.04
439.89	5439.40
440.08	5444.09
440.26	5507.28
440.45	5364.51
440.63	5455.79
440.82	5657.07
441.01	5526.00
441.19	5703.89
441.38	5563.45
441.57	5895.81
441.75	5813.89
441.94	6010.50
442.12	6005.81
442.31	6083.05
442.50	5970.71
442.68	6012.84
442.87	5959.00
443.05	6024.54
443.24	6061.99
443.43	6183.70
443.61	6015.18
443.80	6160.29
443.98	6029.22
444.17	5942.62
444.35	6071.35
444.54	6160.29
444.73	6230.51
444.91	6146.25
445.10	6136.88
445.28	6265.61
445.47	6312.42
445.65	6115.82
445.84	6382.64
446.02	6232.85
446.21	6216.46
446.39	6129.86
446.58	6373.28
446.77	6267.95
446.95	6162.63
447.14	6363.92
447.32	6274.98
447.51	6314.77
447.69	6377.96
447.88	6523.07
448.06	6427.11
448.25	6312.42
448.43	6333.49
448.62	6502.01
448.80	6373.28
448.99	6548.82
449.17	6546.48
449.36	6417.75
449.54	6473.92
449.73	6623.72
449.91	6689.25
450.10	6600.31
450.28	6829.68
450.46	6745.42
450.65	6750.10
450.83	6707.98
451.02	6810.96
451.20	6780.53
451.39	6677.55
451.57	6752.45
451.76	6766.49
451.94	6836.70
452.13	6911.60
452.31	6946.71
452.49	6843.73
452.68	6899.90
452.86	6853.09
453.05	7105.87
453.23	6967.77
453.42	6963.09
453.60	6995.86
453.78	7122.25
453.97	6998.20
454.15	7115.23
454.34	7108.21
454.52	7283.75
454.70	7236.94
454.89	7140.97
455.07	7463.97
455.26	7634.83
455.44	7248.64
455.62	7435.88
455.81	7513.12
455.99	7552.91
456.17	7620.78
456.36	7452.27
456.54	7543.55
456.73	7616.10
456.91	7676.96
457.09	7592.70
457.28	7953.14
457.46	7812.71
457.64	8002.29
457.83	7915.69
458.01	7707.38
458.19	8102.93
458.38	7756.54
458.56	7936.76
458.74	8053.78
458.93	7903.99
459.11	7985.91
459.29	8021.02
459.48	7941.44
459.66	8180.17
459.84	8051.44
460.03	8554.66
460.21	8280.82
460.39	8112.30
460.57	8107.62
460.76	8187.19
460.94	8348.69
461.12	8327.63
461.31	8400.18
461.49	8285.50
461.67	8259.75
461.85	8606.15
462.04	8505.51
462.22	9135.11
462.40	8475.08
462.59	8603.81
462.77	8662.32
462.95	8695.09
463.13	8575.72
463.32	8674.03
463.50	8961.91
463.68	8622.53
463.86	8704.45
464.05	8816.80
464.23	8655.30
464.41	8767.65
464.59	8762.97
464.78	8910.42
464.96	8854.25
465.14	8800.41
465.32	8854.25
465.50	8919.78
465.69	9128.09
465.87	9057.87
466.05	8905.74
466.23	9004.04
466.41	9032.13
466.60	9268.52
466.78	9041.49
466.96	9128.09
467.14	8903.40
467.32	9177.24
467.51	9210.01
467.69	9184.26
467.87	9198.31
468.05	9359.80
468.23	9146.81
468.41	9167.88
468.60	9467.47
468.78	9362.14
468.96	9336.40
469.14	9413.63
469.32	9802.16
469.50	9282.56
469.69	9689.82
469.87	9783.44
470.05	9930.89
470.23	9893.44
470.41	9678.12
470.59	10012.81
470.77	9774.08
470.95	10003.45
471.14	9856.00
471.32	9799.82
471.50	10083.03
471.68	10136.86
471.86	9987.07
472.04	10047.92
472.22	10509.01
472.40	10143.88
472.58	10319.42
472.77	10377.94
472.95	10326.44
473.13	10834.34
473.31	10644.76
473.49	10078.35
473.67	10504.32
473.85	10677.52
474.03	10855.40
474.21	10855.40
474.39	10806.25
474.57	10906.90
474.75	10965.41
474.93	11173.72
475.12	10834.34
475.30	11080.10
475.48	11229.89
475.66	11026.26
475.84	11112.86
476.02	11309.47
476.20	11503.73
476.38	11506.07
476.56	11988.22
476.74	11784.60
476.92	11681.61
477.10	11800.98
477.28	11901.62
477.46	11978.86
477.64	11929.71
477.82	12081.85
478.00	12395.48
478.18	12482.08
478.36	12552.29
478.54	12613.15
478.72	12580.38
478.90	12666.98
479.08	13043.81
479.26	12961.89
479.44	13308.29
479.62	12989.97
479.80	13408.93
479.98	12891.67
480.16	13521.27
480.34	13439.36
480.52	13715.54
480.70	13944.91
480.88	13380.84
481.06	13743.63
481.24	13717.88
481.41	14127.47
481.59	14384.93
481.77	14394.29
481.95	14455.15
482.13	14532.39
482.31	14347.48
482.49	14839.00
482.67	14808.57
482.85	14963.04
483.03	15173.69
483.21	15473.28
483.39	15566.90
483.57	15541.16
483.74	15524.77
483.92	15688.61
484.10	15847.77
484.28	16072.46
484.46	16046.71
484.64	16379.07
484.82	16063.10
485.00	16524.18
485.18	16641.21
485.35	16961.86
485.53	16870.58
485.71	16891.65
485.89	17224.00
486.07	16971.22
486.25	17003.99
486.43	17432.31
486.61	17577.42
486.78	17795.09
486.96	17813.82
487.14	17991.70
487.32	18008.08
487.50	18424.70
487.68	18366.18
487.85	18899.83
488.03	18916.21
488.21	18988.77
488.39	18981.74
488.57	19358.57
488.75	19283.67
488.92	19393.68
489.10	19854.76
489.28	19648.80
489.46	19913.28
489.64	19892.21
489.81	20262.02
489.99	20341.60
490.17	20311.17
490.35	20568.63
490.53	20634.16
490.70	20711.40
490.88	20805.02
491.06	21177.17
491.24	21221.64
491.41	21486.12
491.59	21472.07
491.77	21614.85
491.95	21694.43
492.13	22052.53
492.30	21928.48
492.48	22132.11
492.66	22382.54
492.84	22499.57
493.01	22499.57
493.19	22703.20
493.37	22874.06
493.54	23087.04
493.72	22895.12
493.90	23096.41
494.08	23412.38
494.25	23637.07
494.43	23840.70
494.61	24013.90
494.79	23892.19
494.96	24142.63
495.14	24135.60
495.32	24559.24
495.49	24648.18
495.67	24833.08
495.85	24783.93
496.02	25153.74
496.20	24903.30
496.38	24999.26
496.55	25198.21
496.73	25642.91
496.91	25397.15
497.09	25490.77
497.26	25635.89
497.44	25532.90
497.62	25717.81
497.79	26136.76
497.97	26342.73
498.14	26216.34
498.32	26852.97
498.50	26553.38
498.67	27023.83
498.85	26731.26
499.03	26930.20
499.20	26871.69
499.38	27232.13
499.56	27419.38
499.73	27419.38
499.91	27613.64
500.08	27686.20
500.26	27440.44
500.44	27754.07
500.61	27936.63
500.79	27613.64
500.97	28025.57
501.14	28292.40
501.32	28229.20
501.49	28425.81
501.67	28369.63
501.84	28528.79
502.02	28561.56
502.20	28683.27
502.37	29237.97
502.55	28882.21
502.72	29237.97
502.90	29282.44
503.07	28992.22
503.25	29577.35
503.43	29813.74
503.60	29488.41
503.78	29837.15
503.95	29661.61
504.13	29593.73
504.30	30000.99
504.48	29806.72
504.65	30415.26
504.83	30340.36
505.01	30764.00
505.18	30618.89
505.36	30546.33
505.53	30682.08
505.71	30789.75
505.88	30756.98
506.06	30799.11
506.23	30866.98
506.41	30796.77
506.58	31438.08
506.76	31138.49
506.93	31386.58
507.11	31161.89
507.28	31414.67
507.46	31618.30
507.63	31714.26
507.81	32011.51
507.98	31892.14
508.16	31800.86
508.33	32119.17
508.50	31992.78
508.68	32496.00
508.85	32680.90
509.03	32802.61
509.20	32837.72
509.38	32929.00
509.55	32664.52
509.73	33537.54
509.90	32985.17
510.08	32865.80
510.25	33165.39
510.42	32959.42
510.60	33486.04
510.77	33668.61
510.95	33493.07
511.12	33598.39
511.30	33694.35
511.47	33633.50
511.64	34040.75
511.82	34277.15
511.99	34096.92
512.17	34298.21
512.34	33954.15
512.51	34658.65
512.69	34621.20
512.86	34518.22
513.04	34911.43
513.21	35077.61
513.38	35124.42
513.56	34981.65
513.73	34876.32
513.90	35276.55
514.08	35084.63
514.25	35452.09
514.43	35379.54
514.60	34998.03
514.77	35501.25
514.95	35681.47
515.12	35653.38
515.29	35496.56
515.47	35534.01
515.64	36566.19
515.81	36112.13
515.99	36189.36
516.16	36217.45
516.33	36273.62
516.51	36498.31
516.68	36041.91
516.85	36201.07
517.03	36397.67
517.20	36823.65
517.37	36605.98
517.54	37041.32
517.72	37027.28
517.89	36875.14
518.06	36671.51
518.24	37085.79
518.41	36835.35
518.58	37368.99
518.75	37610.07
518.93	37549.21
519.10	37371.33
519.27	37895.61
519.45	37640.50
519.62	37399.42
519.79	37982.21
519.96	37935.40
520.14	38113.28
520.31	37745.82
520.48	38370.74
520.65	37846.46
520.83	38277.12
521.00	38574.37
521.17	38396.49
521.34	38534.58
521.52	38782.68
521.69	38499.47
521.86	39056.52
522.03	38946.51
522.20	38663.31
522.38	38878.64
522.55	39140.78
522.72	39065.88
522.89	39096.31
523.07	39992.73
523.24	39461.43
523.41	39377.17
523.58	39597.18
523.75	39618.25
523.92	39494.20
524.10	39920.18
524.27	39620.59
524.44	40264.24
524.61	40086.36
524.78	39901.45
524.96	40182.32
525.13	40053.59
525.30	40229.13
525.47	40158.91
525.64	40313.39
525.81	40381.26
525.98	40664.47
526.16	40790.86
526.33	40662.13
526.50	40694.89
526.67	40715.96
526.84	40844.69
527.01	40477.22
527.18	40706.60
527.36	41024.91
527.53	41319.82
527.70	41556.21
527.87	41408.76
528.04	41357.27
528.21	41207.47
528.38	41329.18
528.55	41970.49
528.72	41375.99
528.89	41853.46
529.07	41832.39
529.24	41642.81
529.41	41956.44
529.58	41596.00
529.75	41399.40
529.92	41961.12
530.09	42347.31
530.26	42108.58
530.43	41926.02
530.60	42227.95
530.77	42443.27
530.94	42366.04
531.11	42216.24
531.28	41766.86
531.46	42347.31
531.63	42340.29
531.80	42396.46
531.97	42988.62
532.14	42831.80
532.31	43105.65
532.48	42595.41
532.65	42653.92
532.82	42604.77
532.99	42866.91
533.16	42665.63
533.33	43311.61
533.50	43466.09
533.67	43119.69
533.84	42986.28
534.01	43150.12
534.18	43276.51
534.35	43405.23
534.52	43503.54
534.69	43786.74
534.86	44109.74
535.03	43709.50
535.20	43882.70
535.37	43892.07
535.54	43772.70
535.71	43768.02
535.88	44186.97
536.05	43494.18
536.22	43950.58
536.38	44060.58
536.55	43950.58
536.72	44182.29
536.89	43859.30
537.06	44079.31
537.23	44140.16
537.40	43983.35
537.57	44051.22
537.74	44435.07
537.91	44680.83
538.08	44818.92
538.25	44313.36
538.42	44741.68
538.59	44839.98
538.75	43952.92
538.92	44928.92
539.09	44893.82
539.26	45184.04
539.43	45242.56
539.60	44971.05
539.77	44739.34
539.94	45258.94
540.11	45282.34
540.28	44945.31
540.44	45155.96
540.61	45191.06
540.78	44851.69
540.95	45085.74
541.12	45242.56
541.29	45141.91
541.46	45195.74
541.62	45055.31
541.79	45242.56
541.96	45228.51
542.13	45123.19
542.30	45839.39
542.47	45904.93
542.63	45567.89
542.80	45832.37
542.97	45944.72
543.14	46321.54
543.31	45933.01
543.48	46307.50
543.64	46202.18
543.81	46270.05
543.98	46717.09
544.15	46681.98
544.32	46679.64
544.48	46595.38
544.65	46511.13
544.82	46333.24
544.99	46445.59
545.16	46515.81
545.32	46623.47
545.49	46902.00
545.66	46932.42
545.83	47224.99
546.00	46794.33
546.16	46728.80
546.33	46841.14
546.50	46597.73
546.67	47103.28
546.83	46478.36
547.00	47119.66
547.17	47243.71
547.34	47414.57
547.50	47056.47
547.67	47309.25
547.84	47056.47
548.00	47309.25
548.17	47547.98
548.34	47334.99
548.51	47936.51
548.67	48016.09
548.84	47805.44
549.01	47459.04
549.18	47353.72
549.34	47255.42
549.51	47395.85
549.68	47477.77
549.84	47517.56
550.01	47723.52
550.18	47552.66
550.34	47849.91
550.51	47793.74
550.68	47683.73
550.84	47168.82
551.01	47641.60
551.18	47749.27
551.34	47629.90
551.51	47480.11
551.68	47819.49
551.84	48105.03
552.01	47852.25
552.18	48360.15
552.34	48018.43
552.51	48186.95
552.68	47957.58
552.84	47943.53
553.01	48296.95
553.18	48367.17
553.34	48341.42
553.51	48554.41
553.67	48182.27
553.84	48956.99
554.01	48711.23
554.17	48816.55
554.34	48678.46
554.51	48566.12
554.67	49134.87
554.84	48772.08
555.00	48383.55
555.17	48624.63
555.33	49008.48
555.50	48439.73
555.67	48776.76
555.83	48760.38
556.00	48734.63
556.16	48949.96
556.33	48746.34
556.50	48699.53
556.66	48725.27
556.83	48591.86
556.99	49099.76
557.16	48987.41
557.32	49448.50
557.49	49282.32
557.65	48872.73
557.82	48362.49
557.98	48903.15
558.15	49265.94
558.32	49462.54
558.48	48832.94
558.65	49270.62
558.81	49200.40
558.98	48968.69
559.14	49687.23
559.31	49251.89
559.47	49343.17
559.64	49195.72
559.80	49137.21
559.97	49432.11
560.13	49352.54
560.30	49411.05
560.46	49586.59
560.63	49532.76
560.79	49696.59
560.96	49261.26
561.12	49275.30
561.29	49499.99
561.45	49228.49
561.61	49813.62
561.78	49368.92
561.94	49684.89
562.11	49675.53
562.27	49467.22
562.44	49464.88
562.60	49495.31
562.77	49563.18
562.93	49577.23
563.10	49928.31
563.26	49345.51
563.42	49944.69
563.59	49830.01
563.75	49947.03
563.92	50143.64
564.08	49602.97
564.24	49624.04
564.41	49893.20
564.57	49804.26
564.74	49794.90
564.90	49867.45
565.07	50082.78
565.23	50108.53
565.39	50012.57
565.56	49841.71
565.72	49521.05
565.88	49790.22
566.05	49862.77
566.21	49654.47
566.38	50019.59
566.54	50190.45
566.70	50286.41
566.87	50080.44
567.03	50255.98
567.19	50274.71
567.36	50124.91
567.52	49780.85
567.68	50089.80
567.85	50075.76
568.01	50234.92
568.17	50211.51
568.34	50330.88
568.50	50225.56
568.66	50101.51
568.83	49811.28
568.99	49708.30
569.15	50073.42
569.32	49890.86
569.48	50127.25
569.64	50185.77
569.81	49827.66
569.97	50192.79
570.13	50323.86
570.30	50230.24
570.46	50211.51
570.62	50663.24
570.78	49890.86
570.95	50120.23
571.11	50344.92
571.27	49942.35
571.43	49956.39
571.60	50415.14
571.76	50288.75
571.92	50305.13
572.09	50302.79
572.25	50272.37
572.41	50466.63
572.57	50237.26
572.74	50468.97
572.90	50312.16
573.06	49605.31
573.22	50354.29
573.38	50417.48
573.55	50244.28
573.71	50852.82
573.87	50894.95
574.03	50527.48
574.20	50274.71
574.36	49858.09
574.52	50461.95
574.68	50373.01
574.84	50478.33
575.01	50611.74
575.17	50384.71
575.33	50143.64
575.49	50246.62
575.65	50684.30
575.82	50684.30
575.98	50665.58
576.14	50726.43
576.30	50220.87
576.46	50031.29
576.62	50483.01
576.79	50429.18
576.95	50452.59
577.11	50480.67
577.27	50333.22
577.43	50742.81
577.59	50468.97
577.75	50239.60
577.92	50206.83
578.08	50251.30
578.24	50330.88
578.40	50483.01
578.56	50337.90
578.72	50333.22
578.88	50855.16
579.04	50693.66
579.21	50361.31
579.37	50368.33
579.53	50578.98
579.69	50309.82
579.85	50351.94
580.01	50443.23
580.17	50567.27
580.33	50504.08
580.49	50454.93
580.65	50618.77
580.82	50890.27
580.98	50632.81
581.14	50508.76
581.30	50658.56
581.46	50569.61
581.62	50672.60
581.78	50429.18
581.94	50536.85
582.10	50581.32
582.26	50454.93
582.42	50263.00
582.58	50677.28
582.74	50843.46
582.90	51014.32
583.06	50663.24
583.22	50548.55
583.38	50298.11
583.54	50740.47
583.70	50988.57
583.86	50756.86
584.02	50630.47
584.18	50726.43
584.34	50658.56
584.50	50892.61
584.66	50803.67
584.82	50263.00
584.98	50454.93
585.14	50808.35
585.30	50501.74
585.46	50813.03
585.62	50705.37
585.78	50773.24
585.94	50387.05
586.10	50852.82
586.26	50768.56
586.42	50742.81
586.58	50946.44
586.74	50571.96
586.90	50389.39
587.06	50731.11
587.22	50674.94
587.38	50983.89
587.54	50553.23
587.70	50635.15
587.86	51234.33
588.02	50728.77
588.18	50981.55
588.34	50960.48
588.49	50822.39
588.65	50724.09
588.81	50848.14
588.97	50759.20
589.13	50653.87
589.29	50841.12
589.45	50766.22
589.61	51147.73
589.77	51117.30
589.93	51037.72
590.08	51239.01
590.24	51159.43
590.40	50916.01
