SpectraSuite Data File
++++++++++++++++++++++++++++++++++++
Date: Fri Oct 04 11:48:38 GMT-05:00 2013
User: price-jones
Dark Spectrum Present: No
Reference Spectrum Present: No
Number of Sampled Component Spectra: 1
Spectrometers: USB2+H05261
Integration Time (usec): 100000 (USB2+H05261)
Spectra Averaged: 1 (USB2+H05261)
Boxcar Smoothing: 0 (USB2+H05261)
Correct for Electrical Dark: No (USB2+H05261)
Strobe/Lamp Enabled: No (USB2+H05261)
Correct for Detector Non-linearity: No (USB2+H05261)
Correct for Stray Light: No (USB2+H05261)
Number of Pixels in Processed Spectrum: 2048
>>>>>Begin Processed Spectral Data<<<<<
365.73	95.96
365.92	95.96
366.12	95.96
366.32	0.00
366.52	0.00
366.72	0.00
366.91	0.00
367.11	0.00
367.31	0.00
367.51	0.00
367.70	0.00
367.90	0.00
368.10	0.00
368.30	0.00
368.49	0.00
368.69	0.00
368.89	0.00
369.09	0.00
369.28	0.00
369.48	0.00
369.68	0.00
369.87	0.00
370.07	0.00
370.27	0.00
370.47	35.11
370.66	42.13
370.86	112.35
371.06	175.54
371.25	229.37
371.45	128.73
371.65	198.95
371.84	168.52
372.04	93.62
372.24	297.25
372.44	227.03
372.63	163.84
372.83	210.65
373.03	224.69
373.22	215.33
373.42	187.24
373.62	287.89
373.81	201.29
374.01	227.03
374.21	217.67
374.40	220.01
374.60	313.63
374.79	241.08
374.99	222.35
375.19	220.01
375.38	294.91
375.58	212.99
375.78	271.50
375.97	238.73
376.17	290.23
376.37	224.69
376.56	208.31
376.76	205.97
376.95	215.33
377.15	189.58
377.35	217.67
377.54	241.08
377.74	238.73
377.93	250.44
378.13	222.35
378.33	255.12
378.52	250.44
378.72	299.59
378.91	222.35
379.11	243.42
379.31	203.63
379.50	231.71
379.70	287.89
379.89	220.01
380.09	234.05
380.28	276.18
380.48	182.56
380.68	184.90
380.87	243.42
381.07	306.61
381.26	330.02
381.46	236.39
381.65	257.46
381.85	245.76
382.04	220.01
382.24	259.80
382.43	269.16
382.63	248.10
382.83	276.18
383.02	250.44
383.22	259.80
383.41	259.80
383.61	224.69
383.80	278.52
384.00	304.27
384.19	315.97
384.39	346.40
384.58	222.35
384.78	304.27
384.97	255.12
385.17	327.68
385.36	250.44
385.56	348.74
385.75	301.93
385.95	313.63
386.14	348.74
386.34	294.91
386.53	337.04
386.72	292.57
386.92	367.46
387.11	306.61
387.31	358.10
387.50	355.76
387.70	337.04
387.89	332.36
388.09	353.42
388.28	346.40
388.48	362.78
388.67	397.89
388.86	325.33
389.06	390.87
389.25	325.33
389.45	376.83
389.64	351.08
389.84	407.25
390.03	402.57
390.22	325.33
390.42	395.55
390.61	322.99
390.81	348.74
391.00	334.70
391.19	355.76
391.39	372.15
391.58	376.83
391.78	470.45
391.97	400.23
392.16	315.97
392.36	418.96
392.55	416.62
392.75	437.68
392.94	402.57
393.13	440.02
393.33	440.02
393.52	437.68
393.71	475.13
393.91	397.89
394.10	379.17
394.29	379.17
394.49	482.15
394.68	468.11
394.88	486.83
395.07	538.32
395.26	482.15
395.46	440.02
395.65	496.19
395.84	491.51
396.04	615.56
396.23	444.70
396.42	596.84
396.62	535.98
396.81	580.45
397.00	437.68
397.19	519.60
397.39	489.17
397.58	540.66
397.77	606.20
397.97	554.71
398.16	547.69
398.35	629.60
398.55	617.90
398.74	599.18
398.93	655.35
399.12	664.71
399.32	540.66
399.51	587.47
399.70	617.90
399.90	688.12
400.09	676.41
400.28	758.33
400.47	702.16
400.67	657.69
400.86	655.35
401.05	746.63
401.24	741.95
401.44	697.48
401.63	751.31
401.82	763.01
402.01	716.20
402.21	741.95
402.40	774.72
402.59	692.80
402.78	840.25
402.97	786.42
403.17	802.80
403.36	858.98
403.55	875.36
403.74	849.61
403.93	732.59
404.13	833.23
404.32	929.19
404.51	851.96
404.70	866.00
404.89	854.30
405.09	961.96
405.28	940.90
405.47	985.37
405.66	997.07
405.85	950.26
406.05	952.60
406.24	959.62
406.43	1050.90
406.62	997.07
406.81	1100.05
407.00	1029.84
407.20	1020.47
407.39	964.30
407.58	1032.18
407.77	1128.14
407.96	1132.82
408.15	1179.63
408.34	1188.99
408.54	1146.86
408.73	1123.46
408.92	1153.88
409.11	1210.06
409.30	1277.93
409.49	1165.59
409.68	1184.31
409.87	1277.93
410.07	1296.66
410.26	1359.85
410.45	1174.95
410.64	1266.23
410.83	1416.02
411.02	1390.28
411.21	1390.28
411.40	1343.47
411.59	1392.62
411.78	1420.71
411.98	1320.06
412.17	1416.02
412.36	1493.26
412.55	1390.28
412.74	1504.96
412.93	1589.22
413.12	1540.07
413.31	1633.69
413.50	1561.14
413.69	1699.23
413.88	1680.50
414.07	1692.21
414.26	1706.25
414.45	1720.29
414.64	1760.08
414.83	1750.72
415.02	1722.63
415.22	1905.20
415.41	1881.79
415.60	1713.27
415.79	1746.04
415.98	1865.41
416.17	1778.81
416.36	1858.39
416.55	1891.15
416.74	1884.13
416.93	1956.69
417.12	1834.98
417.31	1973.07
417.50	1886.47
417.69	1987.11
417.88	2017.54
418.07	1996.48
418.26	1968.39
418.45	2043.29
418.64	2064.35
418.83	2045.63
419.02	2129.89
419.21	2160.31
419.39	2087.76
419.58	2179.04
419.77	2136.91
419.96	2207.13
420.15	2125.21
420.34	2225.85
420.53	2172.02
420.72	2162.66
420.91	2223.51
421.10	2324.15
421.29	2352.24
421.48	2214.15
421.67	2305.43
421.86	2218.83
422.05	2363.94
422.24	2368.62
422.43	2204.78
422.61	2275.00
422.80	2420.11
422.99	2300.75
423.18	2380.32
423.37	2434.16
423.56	2485.65
423.75	2389.69
423.94	2305.43
424.13	2214.15
424.32	2345.22
424.50	2408.41
424.69	2471.61
424.88	2436.50
425.07	2457.56
425.26	2380.32
425.45	2380.32
425.64	2317.13
425.83	2401.39
426.01	2495.01
426.20	2417.77
426.39	2459.90
426.58	2511.39
426.77	2443.52
426.96	2520.76
427.15	2513.74
427.33	2567.57
427.52	2530.12
427.71	2523.10
427.90	2562.89
428.09	2593.31
428.28	2506.71
428.46	2616.72
428.65	2562.89
428.84	2696.30
429.03	2782.90
429.22	2527.78
429.40	2689.28
429.59	2619.06
429.78	2628.42
429.97	2583.95
430.16	2626.08
430.34	2771.19
430.53	2658.85
430.72	2642.46
430.91	2759.49
431.10	2766.51
431.28	2874.18
431.47	2771.19
431.66	2789.92
431.85	2796.94
432.03	2825.03
432.22	3012.27
432.41	2897.58
432.60	2925.67
432.79	2836.73
432.97	2960.78
433.16	2869.50
433.35	2928.01
433.54	2853.11
433.72	3016.95
433.91	2876.52
434.10	2883.54
434.28	2967.80
434.47	2977.16
434.66	2909.29
434.85	3049.72
435.03	3136.32
435.22	3108.23
435.41	3215.90
435.59	3145.68
435.78	3173.77
435.97	3087.17
436.16	3098.87
436.34	3117.59
436.53	3075.46
436.72	3290.79
436.90	3115.25
437.09	3213.56
437.28	3131.64
437.46	3302.50
437.65	3164.40
437.84	3290.79
438.02	3368.03
438.21	3234.62
438.40	3342.28
438.58	3321.22
438.77	3482.72
438.96	3337.60
439.14	3482.72
439.33	3524.85
439.52	3468.67
439.70	3534.21
439.89	3620.81
440.08	3520.17
440.26	3459.31
440.45	3609.11
440.63	3674.64
440.82	3749.54
441.01	3623.15
441.19	3707.41
441.38	3859.54
441.57	3742.52
441.75	3770.60
441.94	3861.88
442.12	3896.99
442.31	3892.31
442.50	3840.82
442.68	3978.91
442.87	4002.32
443.05	3892.31
443.24	3915.72
443.43	3983.59
443.61	4023.38
443.80	4100.62
443.98	3920.40
444.17	3962.53
444.35	3971.89
444.54	4032.74
444.73	4018.70
444.91	3878.27
445.10	4114.66
445.28	4016.36
445.47	4023.38
445.65	4030.40
445.84	4046.79
446.02	3955.51
446.21	4049.13
446.39	3981.25
446.58	4257.43
446.77	4217.65
446.95	4170.83
447.14	4109.98
447.32	4145.09
447.51	4109.98
447.69	4191.90
447.88	4128.70
448.06	4222.33
448.25	4189.56
448.43	4138.07
448.62	4133.39
448.80	4011.68
448.99	4259.78
449.17	4273.82
449.36	4156.79
449.54	4299.56
449.73	4219.99
449.91	4381.48
450.10	4332.33
450.28	4587.45
450.46	4374.46
450.65	4367.44
450.83	4444.68
451.02	4325.31
451.20	4301.90
451.39	4580.43
451.57	4386.16
451.76	4636.60
451.94	4491.49
452.13	4458.72
452.31	4631.92
452.49	4409.57
452.68	4592.13
452.86	4636.60
453.05	4631.92
453.23	4606.17
453.42	4344.03
453.60	4566.39
453.78	4617.88
453.97	4603.83
454.15	4627.24
454.34	4571.07
454.52	4713.84
454.70	4730.22
454.89	4699.80
455.07	4662.35
455.26	4664.69
455.44	4739.58
455.62	4844.91
455.81	4791.08
455.99	4877.68
456.17	4910.44
456.36	4788.74
456.54	4882.36
456.73	4814.48
456.91	5207.69
457.09	5123.43
457.28	5193.65
457.46	5142.16
457.64	5177.26
457.83	5067.26
458.01	4880.02
458.19	5144.50
458.38	5055.56
458.56	5165.56
458.74	5097.69
458.93	5107.05
459.11	5139.82
459.29	5167.90
459.48	5198.33
459.66	5128.11
459.84	5207.69
460.03	5406.64
460.21	5320.04
460.39	5256.84
460.57	5214.71
460.76	5291.95
460.94	5483.88
461.12	5404.30
461.31	5383.23
461.49	5366.85
461.67	5282.59
461.85	5455.79
462.04	5432.38
462.22	6029.22
462.40	5528.35
462.59	5380.89
462.77	5495.58
462.95	5636.01
463.13	5540.05
463.32	5682.82
463.50	5645.37
463.68	5727.29
463.86	5640.69
464.05	5638.35
464.23	5607.92
464.41	5680.48
464.59	5516.64
464.78	5628.99
464.96	5720.27
465.14	5708.57
465.32	5846.66
465.50	5900.49
465.69	5973.05
465.87	5837.30
466.05	5792.83
466.23	5844.32
466.41	5870.06
466.60	5930.92
466.78	5858.36
466.96	5811.55
467.14	6050.28
467.32	5820.91
467.51	6136.88
467.69	5724.95
467.87	5902.83
468.05	6083.05
468.23	5921.56
468.41	5912.19
468.60	5895.81
468.78	6012.84
468.96	5959.00
469.14	6164.97
469.32	6108.80
469.50	6010.50
469.69	6333.49
469.87	6256.25
470.05	6368.60
470.23	6155.61
470.41	6174.33
470.59	6228.17
470.77	6551.16
470.95	6555.84
471.14	6413.07
471.32	6303.06
471.50	6583.93
471.68	6436.47
471.86	6356.90
472.04	6511.37
472.22	6794.58
472.40	6462.22
472.58	6696.27
472.77	6665.85
472.95	6644.78
473.13	6853.09
473.31	6623.72
473.49	6710.32
473.67	6663.51
473.85	6677.55
474.03	6944.37
474.21	6794.58
474.39	7124.59
474.57	6979.48
474.75	7000.54
474.93	7173.74
475.12	7126.93
475.30	7012.24
475.48	7201.83
475.66	7220.55
475.84	7112.89
476.02	7424.18
476.20	7438.22
476.38	7375.03
476.56	7522.48
476.74	7384.39
476.92	7592.70
477.10	7339.92
477.28	7623.12
477.46	7751.85
477.64	7831.43
477.82	7850.16
478.00	7999.95
478.18	8006.97
478.36	8152.09
478.54	8121.66
478.72	8112.30
478.90	8250.39
479.08	8217.62
479.26	8449.33
479.44	8301.88
479.62	8484.44
479.80	8425.93
479.98	8458.70
480.16	8599.13
480.34	8353.37
480.52	8540.61
480.70	8685.73
480.88	8681.05
481.06	8943.19
481.24	8652.96
481.41	9163.20
481.59	8917.44
481.77	9298.95
481.95	9071.92
482.13	9558.75
482.31	9373.85
482.49	9528.32
482.67	9383.21
482.85	9373.85
483.03	9778.76
483.21	9631.30
483.39	9848.97
483.57	9771.74
483.74	9813.87
483.92	9884.08
484.10	10022.17
484.28	10314.74
484.46	10399.00
484.64	10544.11
484.82	10303.04
485.00	10338.15
485.18	10546.45
485.35	10607.31
485.53	10490.28
485.71	10726.68
485.89	11002.86
486.07	10930.30
486.25	11103.50
486.43	10981.79
486.61	11180.74
486.78	11417.13
486.96	11110.52
487.14	11389.05
487.32	11316.49
487.50	11524.80
487.68	11410.11
487.85	11786.94
488.03	11882.90
488.21	11992.90
488.39	12145.04
488.57	11995.25
488.75	12388.46
488.92	12465.69
489.10	12236.32
489.28	12652.94
489.46	12655.28
489.64	12369.73
489.81	12718.47
489.99	12676.34
490.17	12959.55
490.35	13050.83
490.53	13128.06
490.70	13200.62
490.88	13156.15
491.06	13448.72
491.24	13259.13
491.41	13312.97
491.59	13570.43
491.77	13392.55
491.95	13610.22
492.13	13855.97
492.30	13848.95
492.48	13811.50
492.66	13867.67
492.84	13823.20
493.01	13877.04
493.19	14312.38
493.37	14349.82
493.54	14415.36
493.72	14363.87
493.90	14686.86
494.08	14799.21
494.25	14984.11
494.43	14618.99
494.61	15009.86
494.79	15037.94
494.96	15353.91
495.14	15115.18
495.32	15604.35
495.49	15288.38
495.67	15204.12
495.85	15686.27
496.02	15700.31
496.20	15440.51
496.38	15665.21
496.55	15658.18
496.73	16051.39
496.91	16245.66
497.09	16133.31
497.26	16301.83
497.44	16060.76
497.62	16128.63
497.79	16514.82
497.97	16273.74
498.14	16727.81
498.32	16783.98
498.50	16688.02
498.67	16968.88
498.85	16865.90
499.03	16739.51
499.20	17083.57
499.38	17128.04
499.56	17177.19
499.73	17071.87
499.91	17310.60
500.08	17165.49
500.26	17455.72
500.44	17043.78
500.61	17493.16
500.79	17624.23
500.97	17823.18
501.14	18078.30
501.32	17605.51
501.49	17813.82
501.67	17778.71
501.84	17977.65
502.02	17895.74
502.20	18553.43
502.37	17937.87
502.55	18483.21
502.72	18398.95
502.90	18155.54
503.07	18122.77
503.25	18214.05
503.43	18637.69
503.60	18698.54
503.78	18747.69
503.95	18827.27
504.13	18705.56
504.30	18778.12
504.48	18794.50
504.65	18911.53
504.83	19229.84
505.01	19213.46
505.18	19117.50
505.36	19346.87
505.53	18890.46
505.71	19405.38
505.88	19321.12
506.06	19267.29
506.23	19571.56
506.41	19796.25
506.58	19758.80
506.76	19662.84
506.93	19744.76
507.11	19632.41
507.28	19814.98
507.46	19892.21
507.63	20049.03
507.81	20355.64
507.98	19992.86
508.16	20009.24
508.33	19957.75
508.50	20294.79
508.68	20486.71
508.85	20929.07
509.03	20201.16
509.20	20489.05
509.38	20786.30
509.55	20819.07
509.73	20931.41
509.90	20702.04
510.08	20676.29
510.25	20964.18
510.42	21018.01
510.60	20992.26
510.77	21429.94
510.95	21287.17
511.12	21106.95
511.30	21247.38
511.47	21458.03
511.64	21326.96
511.82	21441.65
511.99	21411.22
512.17	21759.96
512.34	21355.05
512.51	21769.32
512.69	21673.36
512.86	21610.17
513.04	21926.14
513.21	21998.70
513.38	22024.44
513.56	21860.60
513.73	21525.91
513.90	22050.19
514.08	22317.01
514.25	22398.93
514.43	22504.25
514.60	22707.88
514.77	22609.58
514.95	22703.20
515.12	22476.16
515.29	22464.46
515.47	22614.26
515.64	22904.48
515.81	22890.44
515.99	22932.57
516.16	22967.68
516.33	22932.57
516.51	22820.22
516.68	22852.99
516.85	22824.90
517.03	23143.22
517.20	23536.43
517.37	23372.59
517.54	23143.22
517.72	23482.59
517.89	23405.36
518.06	23274.29
518.24	23314.08
518.41	23323.44
518.58	23747.08
518.75	23616.01
518.93	23836.02
519.10	23323.44
519.27	23817.29
519.45	23695.58
519.62	24044.32
519.79	23922.62
519.96	24126.24
520.14	24072.41
520.31	23969.43
520.48	24032.62
520.65	24100.50
520.83	24271.36
521.00	24151.99
521.17	24051.34
521.34	24245.61
521.52	24388.38
521.69	24538.18
521.86	24793.29
522.03	24184.76
522.20	24617.75
522.38	24545.20
522.55	24493.71
522.72	24692.65
522.89	24821.38
523.07	24954.79
523.24	24526.47
523.41	24987.56
523.58	24592.01
523.75	24863.51
523.92	24690.31
524.10	25333.96
524.27	25067.14
524.44	25034.37
524.61	25336.30
524.78	25504.82
524.96	25507.16
525.13	25495.46
525.30	25750.57
525.47	25303.53
525.64	25350.34
525.81	25663.97
525.98	25799.73
526.16	26005.69
526.33	25921.43
526.50	26024.42
526.67	25488.43
526.84	25940.16
527.01	25598.44
527.18	26022.08
527.36	25820.79
527.53	26066.55
527.70	26094.63
527.87	26169.53
528.04	26087.61
528.21	26031.44
528.38	26052.50
528.55	26380.18
528.72	26206.98
528.89	26473.80
529.07	26544.02
529.24	25963.56
529.41	26316.98
529.58	26471.46
529.75	26621.25
529.92	26511.25
530.09	26258.47
530.26	26822.54
530.43	27122.13
530.60	26480.82
530.77	26574.44
530.94	27105.74
531.11	26567.42
531.28	26623.59
531.46	26794.45
531.63	26859.99
531.80	27033.19
531.97	27002.76
532.14	27178.30
532.31	26602.53
532.48	27185.32
532.65	27192.34
532.82	26808.50
532.99	27253.20
533.16	27117.45
533.33	27117.45
533.50	27538.74
533.67	27412.35
533.84	27180.64
534.01	27283.62
534.18	27190.00
534.35	27513.00
534.52	27377.25
534.69	27756.41
534.86	27721.30
535.03	27585.55
535.20	27725.99
535.37	28041.96
535.54	27725.99
535.71	28034.94
535.88	27789.18
536.05	27850.03
536.22	28020.89
536.38	27812.59
536.55	28151.96
536.72	27924.93
536.89	27889.82
537.06	27718.96
537.23	28112.17
537.40	28091.11
537.57	27995.15
537.74	28290.06
537.91	28147.28
538.08	28364.95
538.25	28292.40
538.42	28109.83
538.59	28416.44
538.75	28114.52
538.92	28100.47
539.09	28479.64
539.26	28357.93
539.43	28418.78
539.60	28929.02
539.77	28435.17
539.94	28498.36
540.11	28629.43
540.28	28629.43
540.44	28985.19
540.61	28510.07
540.78	28477.30
540.95	28615.39
541.12	28500.70
541.29	28690.29
541.46	28650.50
541.62	28978.17
541.79	28938.38
541.96	28769.86
542.13	28826.04
542.30	28765.18
542.47	29242.65
542.63	29326.91
542.80	29078.82
542.97	29453.30
543.14	29577.35
543.31	29448.62
543.48	29488.41
543.64	29467.34
543.81	29853.53
543.98	29762.25
544.15	29556.28
544.32	29549.26
544.48	29364.36
544.65	29631.18
544.82	29647.57
544.99	29261.38
545.16	29296.49
545.32	29450.96
545.49	30073.54
545.66	29701.40
545.83	29680.33
546.00	30026.73
546.16	29544.58
546.33	29551.60
546.50	29254.36
546.67	29928.43
546.83	29820.77
547.00	30106.31
547.17	30068.86
547.34	29855.87
547.50	30139.08
547.67	29986.94
547.84	29886.30
548.00	29996.31
548.17	30307.60
548.34	30345.05
548.51	30366.11
548.67	30136.74
548.84	30211.64
549.01	30085.25
549.18	30305.26
549.34	30246.74
549.51	29830.13
549.68	30132.06
549.84	30415.26
550.01	30265.47
550.18	30518.25
550.34	30483.14
550.51	30595.48
550.68	30513.56
550.84	30312.28
551.01	30883.37
551.18	30338.02
551.34	30171.85
551.51	30396.54
551.68	30775.70
551.84	30682.08
552.01	30703.15
552.18	30284.19
552.34	30583.78
552.51	30541.65
552.68	30583.78
552.84	30719.53
553.01	30993.37
553.18	30618.89
553.34	30632.93
553.51	30759.32
553.67	31054.23
553.84	31159.55
554.01	31213.38
554.17	30771.02
554.34	30897.41
554.51	31339.77
554.67	31414.67
554.84	30951.24
555.00	30848.26
555.17	31075.29
555.33	30934.86
555.50	30878.69
555.67	31140.83
555.83	30871.67
556.00	31180.62
556.16	31281.26
556.33	31197.00
556.50	31082.31
556.66	31372.54
556.83	31218.07
556.99	31541.06
557.16	31065.93
557.32	31353.82
557.49	31407.65
557.65	31164.23
557.82	31314.03
557.98	31424.03
558.15	30974.65
558.32	31395.95
558.48	31335.09
558.65	31201.68
558.81	31660.43
558.98	31452.12
559.14	31234.45
559.31	31618.30
559.47	31119.76
559.64	31367.86
559.80	31683.83
559.97	30953.58
560.13	31482.55
560.30	31562.12
560.46	31615.96
560.63	31613.62
560.79	31704.90
560.96	31889.80
561.12	31510.63
561.29	31126.78
561.45	31417.01
561.61	31435.74
561.78	31665.11
561.94	31344.45
562.11	31372.54
562.27	31208.70
562.44	31201.68
562.60	30995.71
562.77	31374.88
562.93	31445.10
563.10	31861.71
563.26	31683.83
563.42	31632.34
563.59	31615.96
563.75	31761.07
563.92	31847.67
564.08	31653.40
564.24	31079.97
564.41	31742.35
564.57	31398.29
564.74	31491.91
564.90	31835.97
565.07	31487.23
565.23	31747.03
565.39	31613.62
565.56	31559.78
565.72	31342.11
565.88	31253.17
566.05	31948.31
566.21	31508.29
566.38	31239.13
566.54	31948.31
566.70	31803.20
566.87	31922.57
567.03	31489.57
567.19	32140.24
567.36	31468.50
567.52	31857.03
567.68	31761.07
567.85	31253.17
568.01	31775.11
568.17	31756.39
568.34	31793.84
568.50	32163.64
568.66	31852.35
568.83	32079.38
568.99	31503.61
569.15	31566.81
569.32	32063.00
569.48	31491.91
569.64	31976.40
569.81	31934.27
569.97	31878.10
570.13	31969.38
570.30	31630.00
570.46	32266.63
570.62	32142.58
570.78	31431.05
570.95	31828.95
571.11	31976.40
571.27	31730.64
571.43	31908.52
571.60	31857.03
571.76	31908.52
571.92	31948.31
572.09	31950.65
572.25	32060.66
572.41	31831.29
572.57	31981.08
572.74	31761.07
572.90	31800.86
573.06	31573.83
573.22	31807.88
573.38	31866.39
573.55	31941.29
573.71	32339.18
573.87	32271.31
574.03	31861.71
574.20	31976.40
574.36	32154.28
574.52	32182.37
574.68	31938.95
574.84	31913.20
575.01	31765.75
575.17	31730.64
575.33	31817.24
575.49	32006.83
575.65	32374.29
575.82	32229.18
575.98	32109.81
576.14	32051.30
576.30	31840.65
576.46	32025.55
576.62	31866.39
576.79	31885.12
576.95	31952.99
577.11	31988.10
577.27	31945.97
577.43	32095.77
577.59	32051.30
577.75	31861.71
577.92	31484.89
578.08	31812.56
578.24	32086.40
578.40	31835.97
578.56	32329.82
578.72	32067.68
578.88	32116.83
579.04	32154.28
579.21	32060.66
579.37	31938.95
579.53	31967.04
579.69	31882.78
579.85	31990.44
580.01	31988.10
580.17	31498.93
580.33	32055.98
580.49	32116.83
580.65	32140.24
580.82	32173.00
580.98	32023.21
581.14	32006.83
581.30	32119.17
581.46	32053.64
581.62	32121.51
581.78	31716.60
581.94	32079.38
582.10	32119.17
582.26	32261.94
582.42	32470.25
582.58	32240.88
582.74	32283.01
582.90	32479.61
583.06	31833.63
583.22	31964.70
583.38	31957.67
583.54	32254.92
583.70	31981.08
583.86	32416.42
584.02	31613.62
584.18	32236.20
584.34	32032.57
584.50	32196.41
584.66	32041.93
584.82	31873.42
584.98	32231.52
585.14	32304.07
585.30	31842.99
585.46	32081.72
585.62	31917.89
585.78	31707.24
585.94	31981.08
586.10	31899.16
586.26	31770.43
586.42	32208.11
586.58	31974.06
586.74	32273.65
586.90	32004.49
587.06	32144.92
587.22	32257.26
587.38	31871.07
587.54	32254.92
587.70	32329.82
587.86	32144.92
588.02	32273.65
588.18	32280.67
588.34	32135.56
588.49	31995.12
588.65	31997.46
588.81	32095.77
588.97	31936.61
589.13	32158.96
589.29	32488.98
589.45	32060.66
589.61	32196.41
589.77	32479.61
589.93	32004.49
590.08	32730.05
590.24	32416.42
590.40	32498.34
590.56	32194.07
590.72	32231.52
590.88	32018.53
591.04	31969.38
591.20	32519.40
591.35	32760.48
591.51	32720.69
591.67	32081.72
