SpectraSuite Data File
++++++++++++++++++++++++++++++++++++
Date: Fri Oct 04 11:48:46 GMT-05:00 2013
User: price-jones
Dark Spectrum Present: No
Reference Spectrum Present: No
Number of Sampled Component Spectra: 1
Spectrometers: USB2+H05261
Integration Time (usec): 100000 (USB2+H05261)
Spectra Averaged: 1 (USB2+H05261)
Boxcar Smoothing: 0 (USB2+H05261)
Correct for Electrical Dark: No (USB2+H05261)
Strobe/Lamp Enabled: No (USB2+H05261)
Correct for Detector Non-linearity: No (USB2+H05261)
Correct for Stray Light: No (USB2+H05261)
Number of Pixels in Processed Spectrum: 2048
>>>>>Begin Processed Spectral Data<<<<<
365.73	67.88
365.92	67.88
366.12	67.88
366.32	14.04
366.52	0.00
366.72	0.00
366.91	0.00
367.11	4.68
367.31	0.00
367.51	0.00
367.70	0.00
367.90	0.00
368.10	0.00
368.30	0.00
368.49	0.00
368.69	0.00
368.89	0.00
369.09	0.00
369.28	0.00
369.48	0.00
369.68	0.00
369.87	0.00
370.07	0.00
370.27	23.41
370.47	79.58
370.66	318.31
370.86	315.97
371.06	428.32
371.25	330.02
371.45	332.36
371.65	423.64
371.84	383.85
372.04	402.57
372.24	461.09
372.44	442.36
372.63	402.57
372.83	493.85
373.03	456.40
373.22	400.23
373.42	472.79
373.62	498.53
373.81	524.28
374.01	510.24
374.21	472.79
374.40	486.83
374.60	526.62
374.79	596.84
374.99	472.79
375.19	587.47
375.38	500.87
375.58	512.58
375.78	624.92
375.97	575.77
376.17	547.69
376.37	615.56
376.56	585.13
376.76	552.37
376.95	571.09
377.15	564.07
377.35	615.56
377.54	638.97
377.74	571.09
377.93	582.79
378.13	629.60
378.33	641.31
378.52	627.26
378.72	629.60
378.91	564.07
379.11	589.82
379.31	599.18
379.50	643.65
379.70	692.80
379.89	594.50
380.09	543.00
380.28	617.90
380.48	660.03
380.68	657.69
380.87	676.41
381.07	634.29
381.26	683.44
381.46	641.31
381.65	711.52
381.85	643.65
382.04	655.35
382.24	678.76
382.43	748.97
382.63	660.03
382.83	674.07
383.02	685.78
383.22	732.59
383.41	751.31
383.61	816.85
383.80	692.80
384.00	868.34
384.19	781.74
384.39	723.23
384.58	723.23
384.78	784.08
384.97	819.19
385.17	856.64
385.36	809.83
385.56	826.21
385.75	779.40
385.95	812.17
386.14	809.83
386.34	758.33
386.53	896.43
386.72	854.30
386.92	884.72
387.11	758.33
387.31	840.25
387.50	849.61
387.70	891.74
387.89	882.38
388.09	856.64
388.28	938.55
388.48	1011.11
388.67	950.26
388.86	919.83
389.06	837.91
389.25	973.66
389.45	915.15
389.64	1022.81
389.84	933.87
390.03	966.64
390.22	1032.18
390.42	987.71
390.61	971.32
390.81	940.90
391.00	992.39
391.19	1001.75
391.39	1069.62
391.58	1013.45
391.78	945.58
391.97	1034.52
392.16	1074.31
392.36	1111.75
392.55	1121.12
392.75	1006.43
392.94	1025.15
393.13	999.41
393.33	1034.52
393.52	1125.80
393.71	1130.48
393.91	1196.01
394.10	1060.26
394.29	1139.84
394.49	1074.31
394.68	1261.55
394.88	1191.33
395.07	1221.76
395.26	1186.65
395.46	1210.06
395.65	1329.42
395.84	1170.27
396.04	1380.92
396.23	1284.95
396.42	1334.11
396.62	1277.93
396.81	1252.19
397.00	1366.87
397.19	1268.57
397.39	1287.29
397.58	1334.11
397.77	1425.39
397.97	1427.73
398.16	1320.06
398.35	1427.73
398.55	1345.81
398.74	1420.71
398.93	1441.77
399.12	1448.79
399.32	1446.45
399.51	1376.24
399.70	1439.43
399.90	1448.79
400.09	1441.77
400.28	1610.29
400.47	1565.82
400.67	1504.96
400.86	1619.65
401.05	1486.24
401.24	1591.56
401.44	1565.82
401.63	1540.07
401.82	1654.76
402.01	1584.54
402.21	1675.82
402.40	1650.08
402.59	1696.89
402.78	1776.47
402.97	1739.02
403.17	1621.99
403.36	1783.49
403.55	1846.68
403.74	1643.06
403.93	1790.51
404.13	1736.68
404.32	1806.89
404.51	1818.60
404.70	1844.34
404.89	1888.81
405.09	1795.19
405.28	1930.94
405.47	1916.90
405.66	1977.75
405.85	2045.63
406.05	1886.47
406.24	2104.14
406.43	2050.31
406.62	1982.43
406.81	2090.10
407.00	2059.67
407.20	2141.59
407.39	2097.12
407.58	2115.84
407.77	2223.51
407.96	2195.42
408.15	2216.49
408.34	2235.21
408.54	2167.34
408.73	2279.68
408.92	2223.51
409.11	2300.75
409.30	2338.20
409.49	2345.22
409.68	2284.36
409.87	2361.60
410.07	2434.16
410.26	2408.41
410.45	2387.35
410.64	2478.63
410.83	2593.31
411.02	2471.61
411.21	2534.80
411.40	2473.95
411.59	2574.59
411.78	2532.46
411.98	2541.82
412.17	2605.02
412.36	2644.81
412.55	2672.89
412.74	2789.92
412.93	2787.58
413.12	2764.17
413.31	2855.45
413.50	2810.98
413.69	3016.95
413.88	2972.48
414.07	2942.05
414.26	3049.72
414.45	2993.55
414.64	2956.10
414.83	3101.21
415.02	3169.09
415.22	3052.06
415.41	3241.64
415.60	3243.98
415.79	3232.28
415.98	3225.26
416.17	3225.26
416.36	3328.24
416.55	3353.99
416.74	3370.37
416.93	3344.63
417.12	3447.61
417.31	3515.48
417.50	3435.91
417.69	3529.53
417.88	3618.47
418.07	3583.36
418.26	3618.47
418.45	3618.47
418.64	3709.75
418.83	3777.62
419.02	3651.24
419.21	3606.77
419.39	3873.59
419.58	3716.77
419.77	3716.77
419.96	3712.09
420.15	3691.02
420.34	3705.07
420.53	3808.05
420.72	3901.67
420.91	4028.06
421.10	3929.76
421.29	3875.93
421.48	3936.78
421.67	4021.04
421.86	4042.11
422.05	3988.27
422.24	4014.02
422.43	4070.19
422.61	4046.79
422.80	4138.07
422.99	4210.62
423.18	4140.41
423.37	4224.67
423.56	4189.56
423.75	4011.68
423.94	4077.21
424.13	4011.68
424.32	3854.86
424.50	4173.18
424.69	4142.75
424.88	4381.48
425.07	4067.85
425.26	4189.56
425.45	4044.45
425.64	4187.22
425.83	4128.70
426.01	4194.24
426.20	4154.45
426.39	4180.20
426.58	4257.43
426.77	4294.88
426.96	4322.97
427.15	4170.83
427.33	4423.61
427.52	4208.28
427.71	4353.40
427.90	4332.33
428.09	4379.14
428.28	4440.00
428.46	4344.03
428.65	4613.20
428.84	4755.97
429.03	4657.67
429.22	4538.30
429.40	4692.77
429.59	4692.77
429.78	4533.62
429.97	4425.95
430.16	4652.98
430.34	4837.89
430.53	4636.60
430.72	4671.71
430.91	4760.65
431.10	4739.58
431.28	4858.95
431.47	4770.01
431.66	4861.29
431.85	4753.63
432.03	4959.60
432.22	5067.26
432.41	4926.83
432.60	4992.36
432.79	4940.87
432.97	5107.05
433.16	5085.98
433.35	5076.62
433.54	5186.63
433.72	5158.54
433.91	5149.18
434.10	5184.29
434.28	5179.61
434.47	5188.97
434.66	5455.79
434.85	5247.48
435.03	5296.63
435.22	5270.89
435.41	5678.14
435.59	5280.25
435.78	5392.59
435.97	5460.47
436.16	5320.04
436.34	5310.68
436.53	5497.92
436.72	5530.69
436.90	5327.06
437.09	5643.03
437.28	5399.62
437.46	5528.35
437.65	5760.06
437.84	5703.89
438.02	5593.88
438.21	5743.67
438.40	5767.08
438.58	5949.64
438.77	5893.47
438.96	5909.85
439.14	5921.56
439.33	6040.92
439.52	6054.97
439.70	6113.48
439.89	6312.42
440.08	6356.90
440.26	6319.45
440.45	6300.72
440.63	6321.79
440.82	6506.69
441.01	6363.92
441.19	6487.96
441.38	6597.97
441.57	6459.88
441.75	6431.79
441.94	6541.80
442.12	6710.32
442.31	6904.58
442.50	6754.79
442.68	6803.94
442.87	6806.28
443.05	6829.68
443.24	6944.37
443.43	6958.41
443.61	6988.84
443.80	7265.02
443.98	6836.70
444.17	6747.76
444.35	6972.46
444.54	7131.61
444.73	7035.65
444.91	6988.84
445.10	7054.37
445.28	7012.24
445.47	7201.83
445.65	6911.60
445.84	7119.91
446.02	7138.63
446.21	7047.35
446.39	6916.28
446.58	7169.06
446.77	7129.27
446.95	7098.84
447.14	7070.76
447.32	7171.40
447.51	7140.97
447.69	7133.95
447.88	7386.73
448.06	7286.09
448.25	7215.87
448.43	7101.19
448.62	7250.98
448.80	7260.34
448.99	7211.19
449.17	7258.00
449.36	7375.03
449.54	7449.93
449.73	7536.52
449.91	7674.62
450.10	7707.38
450.28	7609.08
450.46	7576.31
450.65	7667.60
450.83	7744.83
451.02	7618.44
451.20	7829.09
451.39	7756.54
451.57	7653.55
451.76	7735.47
451.94	7962.50
452.13	7922.71
452.31	7779.94
452.49	7880.58
452.68	7887.61
452.86	7939.10
453.05	8016.33
453.23	8072.51
453.42	7941.44
453.60	7819.73
453.78	8229.32
453.97	7899.31
454.15	8002.29
454.34	8067.83
454.52	8248.05
454.70	8163.79
454.89	8140.38
455.07	8173.15
455.26	8482.10
455.44	8292.52
455.62	8519.55
455.81	8552.32
455.99	8351.03
456.17	8421.25
456.36	8409.54
456.54	8491.46
456.73	8592.11
456.91	8795.73
457.09	8650.62
457.28	9050.85
457.46	8741.90
457.64	8692.75
457.83	9046.17
458.01	8613.17
458.19	8997.02
458.38	9046.17
458.56	9259.16
458.74	9069.58
458.93	8999.36
459.11	9055.53
459.29	8929.14
459.48	9320.01
459.66	8868.29
459.84	9158.52
460.03	9467.47
460.21	9294.27
460.39	9167.88
460.57	9160.86
460.76	9343.42
460.94	9329.38
461.12	9507.26
461.31	9408.95
461.49	9280.22
461.67	9399.59
461.85	9717.90
462.04	9415.98
462.22	10235.16
462.40	9717.90
462.59	9432.36
462.77	9696.84
462.95	9664.07
463.13	9818.55
463.32	9680.46
463.50	10047.92
463.68	9813.87
463.86	9968.34
464.05	9914.51
464.23	9757.69
464.41	9998.77
464.59	9886.42
464.78	10090.05
464.96	10066.64
465.14	10029.20
465.32	10071.33
465.50	10434.11
465.69	10232.82
465.87	10244.52
466.05	10417.72
466.23	10478.58
466.41	10319.42
466.60	10462.19
466.78	10281.97
466.96	10391.98
467.14	10349.85
467.32	10373.25
467.51	10672.84
467.69	10326.44
467.87	10326.44
468.05	10342.83
468.23	10483.26
468.41	10335.81
468.60	10710.29
468.78	10714.97
468.96	10635.39
469.14	10988.82
469.32	10857.75
469.50	10693.91
469.69	10993.50
469.87	11110.52
470.05	11047.33
470.23	11070.73
470.41	11019.24
470.59	11098.82
470.77	10920.94
470.95	11276.70
471.14	11140.95
471.32	11407.77
471.50	11688.64
471.68	11550.54
471.86	11503.73
472.04	11721.40
472.22	11693.32
472.40	11597.35
472.58	11639.48
472.77	11953.12
472.95	12023.33
473.13	12212.92
473.31	11892.26
473.49	12081.85
473.67	12147.38
473.85	12168.45
474.03	12334.62
474.21	12145.04
474.39	12388.46
474.57	12472.71
474.75	12662.30
474.93	12657.62
475.12	12823.80
475.30	12697.41
475.48	12744.22
475.66	12931.46
475.84	12716.13
476.02	13202.96
476.20	12905.71
476.38	13179.56
476.56	13481.49
476.74	13612.56
476.92	13352.76
477.10	13462.76
477.28	13638.30
477.46	13673.41
477.64	13806.82
477.82	13984.70
478.00	14073.64
478.18	14370.89
478.36	14611.96
478.54	14382.59
478.72	14607.28
478.90	14621.33
479.08	14775.80
479.26	14747.72
479.44	15159.65
479.62	15028.58
479.80	15143.27
479.98	15241.57
480.16	15351.57
480.34	15419.45
480.52	15723.72
480.70	16011.60
480.88	15662.86
481.06	15925.00
481.24	16306.51
481.41	16123.95
481.59	16229.27
481.77	16556.95
481.95	16435.24
482.13	16809.73
482.31	16610.78
482.49	17071.87
482.67	16783.98
482.85	17062.51
483.03	17371.46
483.21	17612.53
483.39	17734.24
483.57	17722.54
483.74	17699.13
483.92	17928.50
484.10	17940.21
484.28	18331.08
484.46	18838.97
484.64	19033.24
484.82	18466.83
485.00	18906.85
485.18	19164.31
485.35	19286.01
485.53	19346.87
485.71	19365.59
485.89	19796.25
486.07	19662.84
486.25	19948.39
486.43	20065.41
486.61	20219.89
486.78	20613.10
486.96	20262.02
487.14	20879.92
487.32	21050.78
487.50	20910.35
487.68	21130.36
487.85	21535.27
488.03	21743.58
488.21	22125.08
488.39	21703.79
488.57	22045.51
488.75	22319.35
488.92	22565.10
489.10	22522.98
489.28	22518.29
489.46	22881.08
489.64	23035.55
489.81	23484.94
489.99	23545.79
490.17	23454.51
490.35	23833.68
490.53	23943.68
490.70	24058.37
490.88	23922.62
491.06	24577.97
491.24	24547.54
491.41	24002.19
491.59	24652.86
491.77	24915.00
491.95	25214.59
492.13	25069.48
492.30	25266.08
492.48	25525.88
492.66	25434.60
492.84	25406.52
493.01	25982.29
493.19	26181.23
493.37	26298.26
493.54	26249.11
493.72	26436.35
493.90	26817.86
494.08	27065.96
494.25	27080.00
494.43	27454.48
494.61	27555.13
494.79	27477.89
494.96	27398.31
495.14	27201.71
495.32	27793.86
495.49	27819.61
495.67	28554.54
495.85	28797.95
496.02	28683.27
496.20	29050.73
496.38	28758.16
496.55	28596.67
496.73	29436.92
496.91	29448.62
497.09	29483.73
497.26	29942.47
497.44	29486.07
497.62	30043.12
497.79	30202.27
497.97	30012.69
498.14	30817.83
498.32	30780.39
498.50	31049.55
498.67	30827.20
498.85	31016.78
499.03	31082.31
499.20	30993.37
499.38	31117.42
499.56	31351.48
499.73	31861.71
499.91	31878.10
500.08	31941.29
500.26	31716.60
500.44	32268.97
500.61	32135.56
500.79	32313.44
500.97	32786.22
501.14	32947.72
501.32	32870.48
501.49	32802.61
501.67	32945.38
501.84	33097.52
502.02	32402.38
502.20	33146.67
502.37	33275.40
502.55	33502.43
502.72	33425.19
502.90	33462.64
503.07	33296.46
503.25	33942.45
503.43	33797.34
503.60	34059.48
503.78	33970.54
503.95	34387.15
504.13	34448.00
504.30	34448.00
504.48	34085.22
504.65	34834.19
504.83	34850.58
505.01	35501.25
505.18	35035.48
505.36	35613.59
505.53	34991.01
505.71	35086.97
505.88	35405.28
506.06	35323.36
506.23	35878.07
506.41	35943.61
506.58	36453.84
506.76	35934.24
506.93	35896.80
507.11	36306.39
507.28	36037.23
507.46	36254.90
507.63	36608.32
507.81	36280.64
507.98	36278.30
508.16	36762.79
508.33	36907.91
508.50	36992.17
508.68	37081.11
508.85	37783.27
509.03	36921.95
509.20	37834.76
509.38	37659.22
509.55	38206.90
509.73	37951.79
509.90	37799.65
510.08	37731.78
510.25	37947.11
510.42	38279.46
510.60	38295.85
510.77	38174.14
510.95	38527.56
511.12	38508.83
511.30	38836.51
511.47	38969.92
511.64	39358.45
511.82	39342.06
511.99	39533.99
512.17	39494.20
512.34	39098.65
512.51	39285.89
512.69	39489.52
512.86	39445.05
513.04	39985.71
513.21	40238.49
513.38	40374.24
513.56	40371.90
513.73	40322.75
513.90	40631.70
514.08	40165.93
514.25	40584.89
514.43	40252.53
514.60	40715.96
514.77	41184.07
514.95	41310.46
515.12	41125.55
515.29	40563.82
515.47	40987.46
515.64	41631.11
515.81	41832.39
515.99	41638.13
516.16	41656.85
516.33	41596.00
516.51	41930.70
516.68	40914.90
516.85	41467.27
517.03	42082.83
517.20	42878.61
517.37	42628.18
517.54	42836.48
517.72	42682.01
517.89	42054.75
518.06	42347.31
518.24	42445.62
518.41	42621.16
518.58	42583.71
518.75	42972.24
518.93	43283.53
519.10	42927.77
519.27	43185.22
519.45	43124.37
519.62	43152.46
519.79	43402.89
519.96	43239.06
520.14	43412.26
520.31	43756.32
520.48	44161.23
520.65	43812.49
520.83	43981.01
521.00	44107.40
521.17	43931.86
521.34	44264.21
521.52	44378.90
521.69	44002.07
521.86	44835.30
522.03	44498.26
522.20	44720.62
522.38	45041.27
522.55	44985.10
522.72	44945.31
522.89	45258.94
523.07	45425.12
523.24	45268.30
523.41	44900.84
523.58	45102.12
523.75	45523.42
523.92	45254.26
524.10	45408.73
524.27	45916.63
524.44	46216.22
524.61	46195.15
524.78	46113.23
524.96	45755.13
525.13	46057.06
525.30	46017.27
525.47	46167.07
525.64	46319.20
525.81	46415.16
525.98	46611.77
526.16	46986.25
526.33	46653.90
526.50	46403.46
526.67	46251.33
526.84	46780.29
527.01	46550.91
527.18	46813.05
527.36	47234.35
527.53	47405.21
527.70	47171.16
527.87	47215.63
528.04	47250.74
528.21	47021.36
528.38	47187.54
528.55	47309.25
528.72	47246.05
528.89	47267.12
529.07	47613.52
529.24	47297.55
529.41	47800.76
529.58	47700.12
529.75	47484.79
529.92	47903.74
530.09	48004.39
530.26	48177.59
530.43	47739.91
530.60	47962.26
530.77	47997.37
530.94	48203.33
531.11	47969.28
531.28	47835.87
531.46	47924.81
531.63	48095.67
531.80	48800.17
531.97	48549.73
532.14	48596.54
532.31	49001.46
532.48	48165.88
532.65	48715.91
532.82	48566.12
532.99	48673.78
533.16	48828.26
533.33	49045.93
533.50	49333.81
533.67	49090.40
533.84	49052.95
534.01	49277.64
534.18	48816.55
534.35	49336.15
534.52	49397.01
534.69	49710.64
534.86	49645.10
535.03	49577.23
535.20	49450.84
535.37	49825.32
535.54	49565.52
535.71	49443.82
535.88	49574.89
536.05	49900.22
536.22	49844.05
536.38	50169.38
536.55	49989.16
536.72	49916.61
536.89	49801.92
537.06	50019.59
537.23	50387.05
537.40	49745.75
537.57	50251.30
537.74	50131.93
537.91	50686.64
538.08	50471.31
538.25	50143.64
538.42	50616.43
538.59	50639.83
538.75	50525.14
538.92	50459.61
539.09	50883.25
539.26	50653.87
539.43	50536.85
539.60	50857.50
539.77	50791.97
539.94	51030.70
540.11	50742.81
540.28	50831.75
540.44	50880.91
540.61	51004.95
540.78	51302.20
540.95	50934.74
541.12	51283.48
541.29	50904.31
541.46	51239.01
541.62	50883.25
541.79	51213.26
541.96	51107.94
542.13	51454.34
542.30	51508.17
542.47	51716.48
542.63	51433.27
542.80	51660.30
542.97	51756.27
543.14	51810.10
543.31	51948.19
543.48	51966.91
543.64	52325.02
543.81	52023.09
543.98	52259.48
544.15	52346.08
544.32	52336.72
544.48	52313.31
544.65	52095.64
544.82	52121.39
544.99	52147.14
545.16	52308.63
545.32	52058.20
545.49	52538.01
545.66	52566.09
545.83	52617.58
546.00	52725.25
546.16	52563.75
546.33	52062.88
546.50	51924.78
546.67	52521.62
546.83	52142.45
547.00	52612.90
547.17	52519.28
547.34	52891.43
547.50	52547.37
547.67	52896.11
547.84	52729.93
548.00	52926.53
548.17	53228.46
548.34	52750.99
548.51	53212.08
548.67	53050.58
548.84	53228.46
549.01	53102.07
549.18	53081.01
549.34	53134.84
549.51	52823.55
549.68	53073.99
549.84	52914.83
550.01	53221.44
550.18	52980.37
550.34	53301.02
550.51	53380.60
550.68	53504.65
550.84	53118.46
551.01	53286.98
551.18	53006.11
551.34	53132.50
551.51	53656.78
551.68	53326.77
551.84	53642.74
552.01	53705.93
552.18	53907.22
552.34	53469.54
552.51	53820.62
552.68	53616.99
552.84	53682.53
553.01	53818.28
553.18	53750.40
553.34	53528.05
553.51	53701.25
553.67	53783.17
553.84	54223.19
554.01	54087.44
554.17	53673.16
554.34	53705.93
554.51	54057.01
554.67	54085.10
554.84	54382.35
555.00	54169.36
555.17	54138.93
555.33	53928.28
555.50	53888.49
555.67	54209.15
555.83	54066.38
556.00	54216.17
556.16	54415.11
556.33	54106.16
556.50	54326.17
556.66	54351.92
556.83	54291.07
556.99	54459.58
557.16	54375.33
557.32	54328.52
557.49	54494.69
557.65	54220.85
557.82	54295.75
557.98	54555.55
558.15	54391.71
558.32	54529.80
558.48	54490.01
558.65	54068.72
558.81	54845.77
558.98	54784.92
559.14	54611.72
559.31	54436.18
559.47	54480.65
559.64	54728.75
559.80	54499.37
559.97	54820.03
560.13	54358.94
560.30	54714.70
560.46	54768.54
560.63	54953.44
560.79	54883.22
560.96	54616.40
561.12	54644.49
561.29	54958.12
561.45	55004.93
561.61	54869.18
561.78	55030.68
561.94	54564.91
562.11	55072.81
562.27	55009.61
562.44	54621.08
562.60	54915.99
562.77	54981.52
562.93	54796.62
563.10	55182.81
563.26	54937.05
563.42	55285.79
563.59	54927.69
563.75	55049.40
563.92	55131.32
564.08	54866.84
564.24	55014.29
564.41	54857.48
564.57	54908.97
564.74	54871.52
564.90	55112.59
565.07	55136.00
565.23	55283.45
565.39	55229.62
565.56	55187.49
565.72	55079.83
565.88	55140.68
566.05	55185.15
566.21	54925.35
566.38	55049.40
566.54	55215.58
566.70	55271.75
566.87	55442.61
567.03	55150.04
567.19	55480.06
567.36	55311.54
567.52	55145.36
567.68	55508.14
567.85	55196.85
568.01	55292.82
568.17	55480.06
568.34	55653.26
568.50	55505.80
568.66	55316.22
568.83	55491.76
568.99	55536.23
569.15	55458.99
569.32	55276.43
569.48	55068.12
569.64	55533.89
569.81	55299.84
569.97	55339.63
570.13	55557.30
570.30	55283.45
570.46	55515.17
570.62	55505.80
570.78	55430.91
570.95	55379.42
571.11	55304.52
571.27	55327.92
571.43	55253.03
571.60	55742.20
571.76	55381.76
571.92	55552.62
572.09	55594.74
572.25	55494.10
572.41	55503.46
572.57	55538.57
572.74	55789.01
572.90	55571.34
573.06	55601.77
573.22	55613.47
573.38	55817.10
573.55	55576.02
573.71	55749.22
573.87	55793.69
574.03	55702.41
574.20	55737.52
574.36	55503.46
574.52	55501.12
574.68	55561.98
574.84	55777.31
575.01	55796.03
575.17	55735.18
575.33	55573.68
575.49	55505.80
575.65	56053.49
575.82	55744.54
575.98	55835.82
576.14	55664.96
576.30	55728.16
576.46	55767.94
576.62	55650.92
576.79	55601.77
576.95	55388.78
577.11	55838.16
577.27	55693.05
577.43	55842.84
577.59	55739.86
577.75	55718.79
577.92	55660.28
578.08	55662.62
578.24	55583.04
578.40	55704.75
578.56	55845.18
578.72	55590.06
578.88	55884.97
579.04	56095.62
579.21	55697.73
579.37	55772.63
579.53	56006.68
579.69	55702.41
579.85	55875.61
580.01	55772.63
580.17	55758.58
580.33	55861.57
580.49	55760.92
580.65	56172.86
580.82	55908.38
580.98	56100.30
581.14	55852.20
581.30	55714.11
581.46	55571.34
581.62	55758.58
581.78	55646.24
581.94	55863.91
582.10	56002.00
582.26	55973.91
582.42	55817.10
582.58	55957.53
582.74	56058.17
582.90	55962.21
583.06	55891.99
583.22	55765.60
583.38	55859.23
583.54	55948.17
583.70	56065.19
583.86	56006.68
584.02	55791.35
584.18	56055.83
584.34	56151.79
584.50	56093.28
584.66	56109.66
584.82	55622.83
584.98	55739.86
585.14	55884.97
585.30	55697.73
585.46	55695.39
585.62	55763.26
585.78	56048.81
585.94	56053.49
586.10	55927.10
586.26	55817.10
586.42	56081.58
586.58	55814.76
586.74	55667.30
586.90	55875.61
587.06	55924.76
587.22	55856.88
587.38	55765.60
587.54	56252.44
587.70	56233.71
587.86	56278.18
588.02	56165.84
588.18	56268.82
588.34	56222.01
588.49	56285.20
588.65	55966.89
588.81	55964.55
588.97	55884.97
589.13	56011.36
589.29	55971.57
589.45	56163.50
589.61	56165.84
589.77	56217.33
