SpectraSuite Data File
++++++++++++++++++++++++++++++++++++
Date: Fri Oct 04 11:47:07 GMT-05:00 2013
User: price-jones
Dark Spectrum Present: No
Reference Spectrum Present: No
Number of Sampled Component Spectra: 1
Spectrometers: USB2+H05261
Integration Time (usec): 100000 (USB2+H05261)
Spectra Averaged: 1 (USB2+H05261)
Boxcar Smoothing: 0 (USB2+H05261)
Correct for Electrical Dark: No (USB2+H05261)
Strobe/Lamp Enabled: No (USB2+H05261)
Correct for Detector Non-linearity: No (USB2+H05261)
Correct for Stray Light: No (USB2+H05261)
Number of Pixels in Processed Spectrum: 2048
>>>>>Begin Processed Spectral Data<<<<<
365.73	42.13
365.92	42.13
366.12	42.13
366.32	0.00
366.52	0.00
366.72	0.00
366.91	0.00
367.11	0.00
367.31	0.00
367.51	0.00
367.70	0.00
367.90	0.00
368.10	0.00
368.30	0.00
368.49	0.00
368.69	0.00
368.89	0.00
369.09	0.00
369.28	0.00
369.48	0.00
369.68	0.00
369.87	0.00
370.07	0.00
370.27	0.00
370.47	16.38
370.66	0.00
370.86	30.43
371.06	70.22
371.25	88.94
371.45	56.17
371.65	114.69
371.84	30.43
372.04	84.26
372.24	35.11
372.44	53.83
372.63	107.66
372.83	112.35
373.03	72.56
373.22	121.71
373.42	32.77
373.62	100.64
373.81	124.05
374.01	135.75
374.21	112.35
374.40	63.19
374.60	152.13
374.79	126.39
374.99	65.54
375.19	119.37
375.38	149.79
375.58	124.05
375.78	86.60
375.97	133.41
376.17	142.77
376.37	77.24
376.56	128.73
376.76	145.11
376.95	63.19
377.15	79.58
377.35	105.32
377.54	128.73
377.74	119.37
377.93	154.48
378.13	142.77
378.33	18.72
378.52	102.98
378.72	250.44
378.91	121.71
379.11	46.81
379.31	138.09
379.50	18.72
379.70	102.98
379.89	98.30
380.09	100.64
380.28	0.00
380.48	102.98
380.68	100.64
380.87	124.05
381.07	77.24
381.26	163.84
381.46	152.13
381.65	168.52
381.85	65.54
382.04	126.39
382.24	131.07
382.43	88.94
382.63	51.49
382.83	133.41
383.02	117.03
383.22	156.82
383.41	107.66
383.61	98.30
383.80	117.03
384.00	124.05
384.19	72.56
384.39	163.84
384.58	133.41
384.78	65.54
384.97	105.32
385.17	100.64
385.36	147.45
385.56	154.48
385.75	79.58
385.95	86.60
386.14	107.66
386.34	131.07
386.53	77.24
386.72	88.94
386.92	163.84
387.11	77.24
387.31	140.43
387.50	105.32
387.70	119.37
387.89	135.75
388.09	126.39
388.28	88.94
388.48	112.35
388.67	95.96
388.86	53.83
389.06	53.83
389.25	98.30
389.45	114.69
389.64	65.54
389.84	95.96
390.03	145.11
390.22	138.09
390.42	32.77
390.61	95.96
390.81	70.22
391.00	124.05
391.19	131.07
391.39	145.11
391.58	77.24
391.78	93.62
391.97	53.83
392.16	70.22
392.36	163.84
392.55	163.84
392.75	156.82
392.94	161.50
393.13	152.13
393.33	100.64
393.52	42.13
393.71	102.98
393.91	63.19
394.10	51.49
394.29	119.37
394.49	28.09
394.68	161.50
394.88	105.32
395.07	131.07
395.26	98.30
395.46	70.22
395.65	121.71
395.84	86.60
396.04	95.96
396.23	107.66
396.42	145.11
396.62	128.73
396.81	49.15
397.00	74.90
397.19	98.30
397.39	126.39
397.58	84.26
397.77	88.94
397.97	110.01
398.16	100.64
398.35	65.54
398.55	124.05
398.74	107.66
398.93	98.30
399.12	124.05
399.32	149.79
399.51	77.24
399.70	112.35
399.90	121.71
400.09	142.77
400.28	98.30
400.47	53.83
400.67	72.56
400.86	93.62
401.05	140.43
401.24	105.32
401.44	175.54
401.63	51.49
401.82	145.11
402.01	37.45
402.21	156.82
402.40	91.28
402.59	112.35
402.78	100.64
402.97	163.84
403.17	93.62
403.36	140.43
403.55	131.07
403.74	95.96
403.93	156.82
404.13	217.67
404.32	119.37
404.51	126.39
404.70	131.07
404.89	60.85
405.09	227.03
405.28	170.86
405.47	91.28
405.66	105.32
405.85	93.62
406.05	112.35
406.24	86.60
406.43	67.88
406.62	135.75
406.81	159.16
407.00	119.37
407.20	95.96
407.39	77.24
407.58	117.03
407.77	98.30
407.96	74.90
408.15	152.13
408.34	74.90
408.54	93.62
408.73	70.22
408.92	135.75
409.11	161.50
409.30	133.41
409.49	138.09
409.68	95.96
409.87	86.60
410.07	105.32
410.26	131.07
410.45	117.03
410.64	95.96
410.83	91.28
411.02	51.49
411.21	117.03
411.40	86.60
411.59	81.92
411.78	131.07
411.98	93.62
412.17	91.28
412.36	112.35
412.55	56.17
412.74	170.86
412.93	229.37
413.12	117.03
413.31	168.52
413.50	84.26
413.69	95.96
413.88	154.48
414.07	149.79
414.26	135.75
414.45	56.17
414.64	110.01
414.83	93.62
415.02	79.58
415.22	140.43
415.41	198.95
415.60	154.48
415.79	110.01
415.98	224.69
416.17	86.60
416.36	100.64
416.55	140.43
416.74	140.43
416.93	166.18
417.12	131.07
417.31	72.56
417.50	138.09
417.69	231.71
417.88	210.65
418.07	205.97
418.26	170.86
418.45	81.92
418.64	210.65
418.83	212.99
419.02	227.03
419.21	140.43
419.39	131.07
419.58	217.67
419.77	70.22
419.96	168.52
420.15	203.63
420.34	168.52
420.53	133.41
420.72	138.09
420.91	131.07
421.10	88.94
421.29	205.97
421.48	74.90
421.67	149.79
421.86	140.43
422.05	149.79
422.24	182.56
422.43	100.64
422.61	93.62
422.80	102.98
422.99	56.17
423.18	70.22
423.37	159.16
423.56	128.73
423.75	98.30
423.94	105.32
424.13	86.60
424.32	138.09
424.50	145.11
424.69	95.96
424.88	95.96
425.07	110.01
425.26	152.13
425.45	163.84
425.64	187.24
425.83	191.92
426.01	224.69
426.20	77.24
426.39	124.05
426.58	147.45
426.77	156.82
426.96	149.79
427.15	110.01
427.33	149.79
427.52	88.94
427.71	170.86
427.90	114.69
428.09	187.24
428.28	84.26
428.46	70.22
428.65	177.88
428.84	86.60
429.03	173.20
429.22	131.07
429.40	53.83
429.59	95.96
429.78	180.22
429.97	140.43
430.16	128.73
430.34	105.32
430.53	114.69
430.72	107.66
430.91	102.98
431.10	124.05
431.28	65.54
431.47	145.11
431.66	161.50
431.85	93.62
432.03	133.41
432.22	126.39
432.41	117.03
432.60	236.39
432.79	212.99
432.97	238.73
433.16	322.99
433.35	264.48
433.54	159.16
433.72	191.92
433.91	145.11
434.10	131.07
434.28	198.95
434.47	140.43
434.66	166.18
434.85	95.96
435.03	81.92
435.22	168.52
435.41	194.26
435.59	124.05
435.78	105.32
435.97	140.43
436.16	49.15
436.34	154.48
436.53	77.24
436.72	126.39
436.90	135.75
437.09	72.56
437.28	117.03
437.46	138.09
437.65	114.69
437.84	205.97
438.02	163.84
438.21	138.09
438.40	79.58
438.58	161.50
438.77	152.13
438.96	154.48
439.14	86.60
439.33	105.32
439.52	93.62
439.70	154.48
439.89	117.03
440.08	93.62
440.26	149.79
440.45	147.45
440.63	105.32
440.82	135.75
441.01	194.26
441.19	67.88
441.38	142.77
441.57	142.77
441.75	147.45
441.94	208.31
442.12	161.50
442.31	100.64
442.50	142.77
442.68	145.11
442.87	191.92
443.05	72.56
443.24	131.07
443.43	187.24
443.61	191.92
443.80	128.73
443.98	133.41
444.17	117.03
444.35	212.99
444.54	100.64
444.73	107.66
444.91	128.73
445.10	91.28
445.28	119.37
445.47	145.11
445.65	175.54
445.84	131.07
446.02	37.45
446.21	138.09
446.39	145.11
446.58	168.52
446.77	102.98
446.95	142.77
447.14	140.43
447.32	182.56
447.51	187.24
447.69	161.50
447.88	124.05
448.06	159.16
448.25	147.45
448.43	145.11
448.62	175.54
448.80	124.05
448.99	168.52
449.17	67.88
449.36	100.64
449.54	98.30
449.73	145.11
449.91	152.13
450.10	131.07
450.28	248.10
450.46	259.80
450.65	163.84
450.83	117.03
451.02	156.82
451.20	145.11
451.39	135.75
451.57	121.71
451.76	81.92
451.94	189.58
452.13	140.43
452.31	163.84
452.49	124.05
452.68	114.69
452.86	102.98
453.05	156.82
453.23	86.60
453.42	124.05
453.60	110.01
453.78	168.52
453.97	154.48
454.15	119.37
454.34	133.41
454.52	173.20
454.70	212.99
454.89	175.54
455.07	105.32
455.26	117.03
455.44	159.16
455.62	91.28
455.81	154.48
455.99	114.69
456.17	187.24
456.36	124.05
456.54	152.13
456.73	102.98
456.91	170.86
457.09	177.88
457.28	184.90
457.46	161.50
457.64	145.11
457.83	114.69
458.01	163.84
458.19	173.20
458.38	187.24
458.56	100.64
458.74	126.39
458.93	142.77
459.11	128.73
459.29	140.43
459.48	53.83
459.66	119.37
459.84	110.01
460.03	180.22
460.21	152.13
460.39	133.41
460.57	159.16
460.76	112.35
460.94	168.52
461.12	250.44
461.31	126.39
461.49	198.95
461.67	93.62
461.85	102.98
462.04	175.54
462.22	573.43
462.40	159.16
462.59	168.52
462.77	117.03
462.95	105.32
463.13	84.26
463.32	60.85
463.50	119.37
463.68	107.66
463.86	105.32
464.05	135.75
464.23	191.92
464.41	131.07
464.59	107.66
464.78	156.82
464.96	205.97
465.14	138.09
465.32	173.20
465.50	257.46
465.69	203.63
465.87	117.03
466.05	208.31
466.23	107.66
466.41	128.73
466.60	149.79
466.78	112.35
466.96	170.86
467.14	161.50
467.32	173.20
467.51	149.79
467.69	203.63
467.87	180.22
468.05	121.71
468.23	201.29
468.41	138.09
468.60	128.73
468.78	152.13
468.96	168.52
469.14	145.11
469.32	51.49
469.50	81.92
469.69	154.48
469.87	131.07
470.05	149.79
470.23	70.22
470.41	110.01
470.59	196.60
470.77	191.92
470.95	95.96
471.14	163.84
471.32	210.65
471.50	208.31
471.68	133.41
471.86	159.16
472.04	138.09
472.22	147.45
472.40	138.09
472.58	119.37
472.77	86.60
472.95	175.54
473.13	180.22
473.31	133.41
473.49	126.39
473.67	112.35
473.85	142.77
474.03	194.26
474.21	133.41
474.39	194.26
474.57	161.50
474.75	154.48
474.93	177.88
475.12	88.94
475.30	191.92
475.48	177.88
475.66	107.66
475.84	142.77
476.02	74.90
476.20	168.52
476.38	140.43
476.56	168.52
476.74	133.41
476.92	140.43
477.10	156.82
477.28	175.54
477.46	124.05
477.64	72.56
477.82	138.09
478.00	229.37
478.18	154.48
478.36	149.79
478.54	203.63
478.72	147.45
478.90	156.82
479.08	135.75
479.26	117.03
479.44	142.77
479.62	121.71
479.80	184.90
479.98	203.63
480.16	131.07
480.34	201.29
480.52	177.88
480.70	102.98
480.88	84.26
481.06	173.20
481.24	145.11
481.41	107.66
481.59	93.62
481.77	175.54
481.95	60.85
482.13	182.56
482.31	170.86
482.49	142.77
482.67	220.01
482.85	217.67
483.03	161.50
483.21	131.07
483.39	128.73
483.57	170.86
483.74	147.45
483.92	191.92
484.10	154.48
484.28	187.24
484.46	131.07
484.64	84.26
484.82	119.37
485.00	154.48
485.18	105.32
485.35	175.54
485.53	168.52
485.71	182.56
485.89	140.43
486.07	128.73
486.25	245.76
486.43	189.58
486.61	217.67
486.78	159.16
486.96	117.03
487.14	117.03
487.32	70.22
487.50	161.50
487.68	182.56
487.85	184.90
488.03	140.43
488.21	208.31
488.39	180.22
488.57	278.52
488.75	84.26
488.92	472.79
489.10	180.22
489.28	208.31
489.46	196.60
489.64	177.88
489.81	147.45
489.99	187.24
490.17	191.92
490.35	257.46
490.53	184.90
490.70	161.50
490.88	149.79
491.06	177.88
491.24	163.84
491.41	201.29
491.59	133.41
491.77	182.56
491.95	170.86
492.13	177.88
492.30	128.73
492.48	255.12
492.66	198.95
492.84	168.52
493.01	149.79
493.19	241.08
493.37	191.92
493.54	187.24
493.72	201.29
493.90	79.58
494.08	205.97
494.25	149.79
494.43	238.73
494.61	187.24
494.79	149.79
494.96	182.56
495.14	156.82
495.32	168.52
495.49	196.60
495.67	184.90
495.85	189.58
496.02	152.13
496.20	198.95
496.38	180.22
496.55	210.65
496.73	159.16
496.91	266.82
497.09	205.97
497.26	168.52
497.44	201.29
497.62	241.08
497.79	222.35
497.97	191.92
498.14	173.20
498.32	201.29
498.50	236.39
498.67	114.69
498.85	224.69
499.03	187.24
499.20	236.39
499.38	112.35
499.56	149.79
499.73	231.71
499.91	135.75
500.08	215.33
500.26	145.11
500.44	135.75
500.61	145.11
500.79	81.92
500.97	168.52
501.14	182.56
501.32	159.16
501.49	208.31
501.67	238.73
501.84	212.99
502.02	145.11
502.20	198.95
502.37	236.39
502.55	159.16
502.72	215.33
502.90	224.69
503.07	168.52
503.25	238.73
503.43	234.05
503.60	241.08
503.78	180.22
503.95	215.33
504.13	248.10
504.30	205.97
504.48	285.55
504.65	264.48
504.83	259.80
505.01	236.39
505.18	189.58
505.36	231.71
505.53	177.88
505.71	194.26
505.88	245.76
506.06	231.71
506.23	140.43
506.41	168.52
506.58	198.95
506.76	227.03
506.93	168.52
507.11	102.98
507.28	168.52
507.46	198.95
507.63	201.29
507.81	191.92
507.98	184.90
508.16	220.01
508.33	135.75
508.50	184.90
508.68	154.48
508.85	182.56
509.03	182.56
509.20	173.20
509.38	154.48
509.55	222.35
509.73	175.54
509.90	262.14
510.08	152.13
510.25	220.01
510.42	133.41
510.60	147.45
510.77	191.92
510.95	304.27
511.12	245.76
511.30	285.55
511.47	264.48
511.64	297.25
511.82	196.60
511.99	210.65
512.17	234.05
512.34	229.37
512.51	177.88
512.69	163.84
512.86	154.48
513.04	152.13
513.21	135.75
513.38	224.69
513.56	191.92
513.73	149.79
513.90	198.95
514.08	248.10
514.25	156.82
514.43	217.67
514.60	222.35
514.77	184.90
514.95	196.60
515.12	234.05
515.29	285.55
515.47	231.71
515.64	159.16
515.81	203.63
515.99	191.92
516.16	229.37
516.33	182.56
516.51	163.84
516.68	215.33
516.85	177.88
517.03	212.99
517.20	243.42
517.37	166.18
517.54	168.52
517.72	163.84
517.89	208.31
518.06	177.88
518.24	243.42
518.41	304.27
518.58	264.48
518.75	208.31
518.93	212.99
519.10	229.37
519.27	220.01
519.45	245.76
519.62	229.37
519.79	273.84
519.96	205.97
520.14	184.90
520.31	276.18
520.48	189.58
520.65	217.67
520.83	180.22
521.00	198.95
521.17	259.80
521.34	189.58
521.52	177.88
521.69	191.92
521.86	252.78
522.03	217.67
522.20	217.67
522.38	177.88
522.55	191.92
522.72	212.99
522.89	292.57
523.07	266.82
523.24	161.50
523.41	222.35
523.58	210.65
523.75	215.33
523.92	149.79
524.10	220.01
524.27	283.20
524.44	212.99
524.61	266.82
524.78	212.99
524.96	224.69
525.13	215.33
525.30	208.31
525.47	262.14
525.64	114.69
525.81	271.50
525.98	220.01
526.16	210.65
526.33	154.48
526.50	194.26
526.67	161.50
526.84	189.58
527.01	201.29
527.18	220.01
527.36	276.18
527.53	250.44
527.70	212.99
527.87	245.76
528.04	264.48
528.21	189.58
528.38	212.99
528.55	224.69
528.72	210.65
528.89	308.95
529.07	252.78
529.24	170.86
529.41	182.56
529.58	189.58
529.75	175.54
529.92	175.54
530.09	238.73
530.26	276.18
530.43	224.69
530.60	203.63
530.77	210.65
530.94	245.76
531.11	241.08
531.28	220.01
531.46	159.16
531.63	173.20
531.80	208.31
531.97	191.92
532.14	248.10
532.31	252.78
532.48	315.97
532.65	430.66
532.82	514.92
532.99	416.62
533.16	266.82
533.33	315.97
533.50	287.89
533.67	402.57
533.84	442.36
534.01	442.36
534.18	425.98
534.35	374.49
534.52	259.80
534.69	259.80
534.86	271.50
535.03	217.67
535.20	259.80
535.37	224.69
535.54	252.78
535.71	220.01
535.88	222.35
536.05	208.31
536.22	170.86
536.38	222.35
536.55	173.20
536.72	212.99
536.89	191.92
537.06	241.08
537.23	250.44
537.40	217.67
537.57	175.54
537.74	201.29
537.91	287.89
538.08	217.67
538.25	170.86
538.42	283.20
538.59	238.73
538.75	227.03
538.92	252.78
539.09	283.20
539.26	175.54
539.43	582.79
539.60	1493.26
539.77	2249.25
539.94	2258.62
540.11	1437.09
540.28	947.92
540.44	610.88
540.61	241.08
540.78	227.03
540.95	198.95
541.12	245.76
541.29	201.29
541.46	269.16
541.62	276.18
541.79	191.92
541.96	187.24
542.13	201.29
542.30	152.13
542.47	231.71
542.63	170.86
542.80	170.86
542.97	234.05
543.14	285.55
543.31	245.76
543.48	252.78
543.64	280.86
543.81	180.22
543.98	269.16
544.15	220.01
544.32	166.18
544.48	215.33
544.65	194.26
544.82	191.92
544.99	217.67
545.16	222.35
545.32	182.56
545.49	180.22
545.66	205.97
545.83	142.77
546.00	159.16
546.16	220.01
546.33	138.09
546.50	299.59
546.67	161.50
546.83	217.67
547.00	220.01
547.17	177.88
547.34	175.54
547.50	177.88
547.67	173.20
547.84	215.33
548.00	203.63
548.17	198.95
548.34	241.08
548.51	266.82
548.67	252.78
548.84	224.69
549.01	227.03
549.18	184.90
549.34	238.73
549.51	245.76
549.68	217.67
549.84	175.54
550.01	248.10
550.18	306.61
550.34	264.48
550.51	161.50
550.68	248.10
550.84	196.60
551.01	224.69
551.18	210.65
551.34	238.73
551.51	245.76
551.68	182.56
551.84	203.63
552.01	222.35
552.18	217.67
552.34	161.50
552.51	222.35
552.68	222.35
552.84	208.31
553.01	241.08
553.18	266.82
553.34	241.08
553.51	184.90
553.67	210.65
553.84	238.73
554.01	250.44
554.17	208.31
554.34	201.29
554.51	283.20
554.67	299.59
554.84	170.86
555.00	262.14
555.17	245.76
555.33	194.26
555.50	236.39
555.67	294.91
555.83	191.92
556.00	297.25
556.16	365.12
556.33	276.18
556.50	273.84
556.66	182.56
556.83	248.10
556.99	133.41
557.16	224.69
557.32	236.39
557.49	163.84
557.65	201.29
557.82	173.20
557.98	212.99
558.15	138.09
558.32	173.20
558.48	170.86
558.65	131.07
558.81	163.84
558.98	187.24
559.14	168.52
559.31	194.26
559.47	273.84
559.64	182.56
559.80	227.03
559.97	255.12
560.13	156.82
560.30	117.03
560.46	229.37
560.63	234.05
560.79	241.08
560.96	203.63
561.12	220.01
561.29	194.26
561.45	255.12
561.61	252.78
561.78	283.20
561.94	102.98
562.11	163.84
562.27	182.56
562.44	159.16
562.60	205.97
562.77	163.84
562.93	271.50
563.10	224.69
563.26	205.97
563.42	191.92
563.59	191.92
563.75	271.50
563.92	255.12
564.08	217.67
564.24	222.35
564.41	264.48
564.57	210.65
564.74	196.60
564.90	243.42
565.07	168.52
565.23	212.99
565.39	292.57
565.56	313.63
565.72	255.12
565.88	241.08
566.05	224.69
566.21	248.10
566.38	330.02
566.54	241.08
566.70	241.08
566.87	180.22
567.03	210.65
567.19	154.48
567.36	163.84
567.52	210.65
567.68	259.80
567.85	161.50
568.01	196.60
568.17	154.48
568.34	250.44
568.50	236.39
568.66	166.18
568.83	292.57
568.99	208.31
569.15	175.54
569.32	229.37
569.48	217.67
569.64	203.63
569.81	140.43
569.97	161.50
570.13	227.03
570.30	170.86
570.46	212.99
570.62	177.88
570.78	154.48
570.95	184.90
571.11	278.52
571.27	294.91
571.43	227.03
571.60	259.80
571.76	257.46
571.92	196.60
572.09	215.33
572.25	220.01
572.41	252.78
572.57	224.69
572.74	290.23
572.90	203.63
573.06	217.67
573.22	138.09
573.38	217.67
573.55	212.99
573.71	245.76
573.87	163.84
574.03	168.52
574.20	276.18
574.36	367.46
574.52	383.85
574.68	344.06
574.84	271.50
575.01	313.63
575.17	231.71
575.33	201.29
575.49	234.05
575.65	250.44
575.82	383.85
575.98	727.91
576.14	983.02
576.30	945.58
576.46	734.93
576.62	615.56
576.79	442.36
576.95	409.59
577.11	297.25
577.27	306.61
577.43	320.65
577.59	337.04
577.75	203.63
577.92	271.50
578.08	257.46
578.24	241.08
578.40	306.61
578.56	224.69
578.72	276.18
578.88	360.44
579.04	280.86
579.21	292.57
579.37	308.95
579.53	201.29
579.69	341.72
579.85	351.08
580.01	388.53
580.17	423.64
580.33	379.17
580.49	386.19
580.65	440.02
580.82	372.15
580.98	372.15
581.14	301.93
581.30	365.12
581.46	486.83
581.62	725.57
581.78	779.40
581.94	748.97
582.10	566.41
582.26	585.13
582.42	594.50
582.58	547.69
582.74	528.96
582.90	510.24
583.06	484.49
583.22	587.47
583.38	627.26
583.54	641.31
583.70	774.72
583.86	891.74
584.02	1057.92
584.18	1306.02
584.34	1853.70
584.50	4793.42
584.66	37675.60
584.82	65535.00
584.98	65535.00
585.14	65535.00
585.30	65535.00
585.46	48303.98
585.62	30099.29
585.78	13825.54
585.94	5210.03
586.10	2450.54
586.26	1647.74
586.42	1139.84
586.58	1020.47
586.74	812.17
586.90	798.12
587.06	751.31
587.22	678.76
587.38	732.59
587.54	1673.48
587.70	5254.50
587.86	9378.53
588.02	10443.47
588.18	7330.56
588.34	4648.30
588.49	2970.14
588.65	1736.68
588.81	915.15
588.97	503.22
589.13	416.62
589.29	400.23
589.45	379.17
589.61	472.79
589.77	477.47
589.93	505.56
590.08	550.03
590.24	540.66
590.40	559.39
590.56	475.13
590.72	416.62
590.88	477.47
591.04	430.66
591.20	330.02
591.35	428.32
591.51	315.97
591.67	402.57
591.83	330.02
591.99	367.46
592.15	311.29
592.31	306.61
592.46	311.29
592.62	388.53
592.78	280.86
592.94	292.57
593.10	337.04
593.26	362.78
593.41	311.29
593.57	465.77
593.73	723.23
593.89	4227.01
594.05	11995.25
594.20	17792.75
594.36	17495.50
594.52	11129.25
594.68	6750.10
594.84	4383.82
594.99	2363.94
595.15	1067.28
595.31	566.41
595.47	531.30
595.62	362.78
595.78	334.70
595.94	327.68
596.10	411.93
596.25	374.49
596.41	355.76
596.57	379.17
596.73	346.40
596.88	772.38
597.04	2120.53
597.20	3623.15
597.36	4404.89
597.51	3073.12
597.67	2099.46
597.83	1376.24
597.99	961.96
598.14	543.00
598.30	425.98
598.46	454.06
598.61	435.34
598.77	383.85
598.93	304.27
599.09	273.84
599.24	278.52
599.40	280.86
599.56	292.57
599.71	231.71
599.87	266.82
600.03	231.71
600.18	278.52
600.34	337.04
600.50	231.71
600.65	180.22
600.81	322.99
600.97	184.90
601.12	236.39
601.28	252.78
601.44	236.39
601.59	220.01
601.75	318.31
601.91	224.69
602.06	220.01
602.22	339.38
602.37	1001.75
602.53	2640.12
602.69	4219.99
602.84	4538.30
603.00	3236.96
603.16	2169.68
603.31	1392.62
603.47	952.60
603.62	482.15
603.78	325.33
603.94	353.42
604.09	264.48
604.25	255.12
604.40	315.97
604.56	194.26
604.71	318.31
604.87	273.84
605.03	299.59
605.18	325.33
605.34	273.84
605.49	304.27
605.65	287.89
605.80	301.93
605.96	325.33
606.12	299.59
606.27	402.57
606.43	358.10
606.58	496.19
606.74	1179.63
606.89	5320.04
607.05	11286.06
607.20	15323.49
607.36	12416.54
607.51	8346.35
607.67	5357.49
607.82	3578.68
607.98	1877.11
608.13	997.07
608.29	603.86
608.44	634.29
608.60	463.43
608.75	624.92
608.91	1795.19
609.06	8365.07
609.22	19435.81
609.37	26707.85
609.53	23309.40
609.68	15077.73
609.84	9720.24
609.99	6569.88
610.15	3396.12
610.30	1432.41
610.46	751.31
610.61	519.60
610.76	519.60
610.92	379.17
611.07	402.57
611.23	472.79
611.38	407.25
