SpectraSuite Data File
++++++++++++++++++++++++++++++++++++
Date: Fri Oct 04 11:48:28 GMT-05:00 2013
User: price-jones
Dark Spectrum Present: No
Reference Spectrum Present: No
Number of Sampled Component Spectra: 1
Spectrometers: USB2+H05261
Integration Time (usec): 100000 (USB2+H05261)
Spectra Averaged: 1 (USB2+H05261)
Boxcar Smoothing: 0 (USB2+H05261)
Correct for Electrical Dark: No (USB2+H05261)
Strobe/Lamp Enabled: No (USB2+H05261)
Correct for Detector Non-linearity: No (USB2+H05261)
Correct for Stray Light: No (USB2+H05261)
Number of Pixels in Processed Spectrum: 2048
>>>>>Begin Processed Spectral Data<<<<<
365.73	88.94
365.92	88.94
366.12	88.94
366.32	0.00
366.52	0.00
366.72	35.11
366.91	0.00
367.11	0.00
367.31	0.00
367.51	0.00
367.70	0.00
367.90	0.00
368.10	0.00
368.30	0.00
368.49	0.00
368.69	0.00
368.89	0.00
369.09	0.00
369.28	0.00
369.48	0.00
369.68	0.00
369.87	0.00
370.07	0.00
370.27	14.04
370.47	128.73
370.66	358.10
370.86	437.68
371.06	543.00
371.25	489.17
371.45	498.53
371.65	479.81
371.84	461.09
372.04	411.93
372.24	512.58
372.44	517.26
372.63	528.96
372.83	596.84
373.03	559.39
373.22	573.43
373.42	559.39
373.62	587.47
373.81	622.58
374.01	559.39
374.21	601.52
374.40	470.45
374.60	617.90
374.79	627.26
374.99	648.33
375.19	730.25
375.38	660.03
375.58	641.31
375.78	667.05
375.97	627.26
376.17	767.70
376.37	585.13
376.56	699.82
376.76	706.84
376.95	685.78
377.15	763.01
377.35	657.69
377.54	641.31
377.74	706.84
377.93	727.91
378.13	765.36
378.33	741.95
378.52	681.10
378.72	697.48
378.91	793.44
379.11	732.59
379.31	791.10
379.50	753.65
379.70	781.74
379.89	807.48
380.09	760.67
380.28	823.87
380.48	718.54
380.68	699.82
380.87	765.36
381.07	856.64
381.26	819.19
381.46	800.46
381.65	847.27
381.85	788.76
382.04	847.27
382.24	833.23
382.43	922.17
382.63	875.36
382.83	961.96
383.02	866.00
383.22	964.30
383.41	917.49
383.61	915.15
383.80	880.04
384.00	891.74
384.19	924.51
384.39	938.55
384.58	870.68
384.78	929.19
384.97	957.28
385.17	868.34
385.36	994.73
385.56	947.92
385.75	922.17
385.95	987.71
386.14	985.37
386.34	1071.97
386.53	1006.43
386.72	994.73
386.92	997.07
387.11	966.64
387.31	1039.20
387.50	1053.24
387.70	1039.20
387.89	968.98
388.09	1109.41
388.28	1081.33
388.48	1043.88
388.67	1151.54
388.86	1128.14
389.06	1167.93
389.25	1114.10
389.45	1132.82
389.64	1097.71
389.84	1139.84
390.03	1172.61
390.22	1188.99
390.42	1231.12
390.61	1193.67
390.81	1111.75
391.00	1200.69
391.19	1153.88
391.39	1163.25
391.58	1322.40
391.78	1203.04
391.97	1310.70
392.16	1268.57
392.36	1249.85
392.55	1191.33
392.75	1308.36
392.94	1207.72
393.13	1277.93
393.33	1306.02
393.52	1324.74
393.71	1350.49
393.91	1399.64
394.10	1380.92
394.29	1432.41
394.49	1352.83
394.68	1453.47
394.88	1453.47
395.07	1472.20
395.26	1430.07
395.46	1380.92
395.65	1486.24
395.84	1451.13
396.04	1549.43
396.23	1481.56
396.42	1497.94
396.62	1460.49
396.81	1528.37
397.00	1584.54
397.19	1526.03
397.39	1558.80
397.58	1643.06
397.77	1582.20
397.97	1621.99
398.16	1614.97
398.35	1675.82
398.55	1619.65
398.74	1605.61
398.93	1788.17
399.12	1715.61
399.32	1652.42
399.51	1671.14
399.70	1643.06
399.90	1720.29
400.09	1879.45
400.28	1846.68
400.47	1739.02
400.67	1867.75
400.86	1870.09
401.05	1900.52
401.24	1914.56
401.44	1877.11
401.63	1916.90
401.82	1900.52
402.01	1952.01
402.21	1919.24
402.40	1954.35
402.59	1980.09
402.78	1968.39
402.97	1893.49
403.17	2076.06
403.36	1937.96
403.55	2092.44
403.74	2143.93
403.93	2078.40
404.13	2148.61
404.32	2153.29
404.51	2139.25
404.70	2202.44
404.89	2054.99
405.09	2160.31
405.28	2190.74
405.47	2143.93
405.66	2317.13
405.85	2317.13
406.05	2197.76
406.24	2214.15
406.43	2333.51
406.62	2450.54
406.81	2415.43
407.00	2399.05
407.20	2319.47
407.39	2370.96
407.58	2523.10
407.77	2427.14
407.96	2410.75
408.15	2459.90
408.34	2457.56
408.54	2525.44
408.73	2485.65
408.92	2715.02
409.11	2630.76
409.30	2623.74
409.49	2614.38
409.68	2670.55
409.87	2644.81
410.07	2778.22
410.26	2710.34
410.45	2724.38
410.64	2686.94
410.83	2827.37
411.02	2827.37
411.21	2972.48
411.40	2874.18
411.59	2949.08
411.78	2925.67
411.98	2965.46
412.17	2965.46
412.36	2956.10
412.55	3059.08
412.74	3038.02
412.93	3054.40
413.12	3080.14
413.31	3255.69
413.50	3136.32
413.69	3213.56
413.88	3215.90
414.07	3220.58
414.26	3400.80
414.45	3328.24
414.64	3377.39
414.83	3344.63
415.02	3496.76
415.22	3520.17
415.41	3548.25
415.60	3536.55
415.79	3658.26
415.98	3592.72
416.17	3616.13
416.36	3686.34
416.55	3756.56
416.74	3726.13
416.93	3733.15
417.12	3831.46
417.31	3838.48
417.50	3698.05
417.69	4030.40
417.88	4016.36
418.07	3674.64
418.26	3981.25
418.45	3953.16
418.64	4140.41
418.83	4205.94
419.02	4056.15
419.21	4095.94
419.39	4002.32
419.58	4161.47
419.77	4037.42
419.96	4241.05
420.15	4236.37
420.34	4266.80
420.53	4161.47
420.72	4358.08
420.91	4245.73
421.10	4304.25
421.29	4435.32
421.48	4273.82
421.67	4519.57
421.86	4360.42
422.05	4475.10
422.24	4463.40
422.43	4437.66
422.61	4634.26
422.80	4608.51
422.99	4566.39
423.18	4456.38
423.37	4564.04
423.56	4554.68
423.75	4475.10
423.94	4568.73
424.13	4259.78
424.32	4348.72
424.50	4482.13
424.69	4587.45
424.88	4816.82
425.07	4507.87
425.26	4564.04
425.45	4615.54
425.64	4561.70
425.83	4535.96
426.01	4610.86
426.20	4585.11
426.39	4634.26
426.58	4561.70
426.77	4622.56
426.96	4737.24
427.15	4784.06
427.33	4793.42
427.52	4816.82
427.71	4950.23
427.90	4903.42
428.09	4865.97
428.28	4978.32
428.46	4805.12
428.65	4943.21
428.84	5118.75
429.03	5015.77
429.22	5022.79
429.40	5025.13
429.59	5111.73
429.78	4875.34
429.97	4809.80
430.16	4940.87
430.34	5214.71
430.53	5430.04
430.72	5287.27
430.91	5142.16
431.10	5336.42
431.28	5327.06
431.47	5352.81
431.66	5521.32
431.85	5282.59
432.03	5533.03
432.22	5746.02
432.41	5373.87
432.60	5537.71
432.79	5540.05
432.97	5558.77
433.16	5481.53
433.35	5703.89
433.54	5738.99
433.72	5647.71
433.91	5764.74
434.10	5636.01
434.28	5832.62
434.47	5849.00
434.66	5804.53
434.85	5764.74
435.03	5804.53
435.22	5783.46
435.41	5968.37
435.59	5841.98
435.78	5888.79
435.97	6026.88
436.16	5959.00
436.34	5977.73
436.53	6010.50
436.72	6078.37
436.90	5954.32
437.09	6366.26
437.28	6012.84
437.46	6155.61
437.65	6169.65
437.84	6223.48
438.02	6265.61
438.21	6335.83
438.40	6218.80
438.58	6532.44
438.77	6597.97
438.96	6558.18
439.14	6700.95
439.33	6778.19
439.52	6658.82
439.70	6576.91
439.89	6719.68
440.08	7049.69
440.26	6923.30
440.45	6766.49
440.63	6930.33
440.82	7180.76
441.01	6848.41
441.19	7183.10
441.38	7272.04
441.57	7262.68
441.75	7337.58
441.94	7311.83
442.12	7262.68
442.31	7623.12
442.50	7639.51
442.68	7410.14
442.87	7431.20
443.05	7637.17
443.24	7686.32
443.43	7691.00
443.61	7639.51
443.80	7765.90
443.98	7468.65
444.17	7548.23
444.35	7534.18
444.54	7735.47
444.73	7768.24
444.91	7812.71
445.10	7838.45
445.28	7716.75
445.47	7798.66
445.65	7754.19
445.84	7871.22
446.02	7801.01
446.21	7714.41
446.39	7808.03
446.58	7999.95
446.77	7822.07
446.95	7812.71
447.14	8016.33
447.32	8009.31
447.51	8084.21
447.69	8018.68
447.88	7981.23
448.06	8079.53
448.25	7880.58
448.43	8067.83
448.62	8002.29
448.80	8002.29
448.99	8180.17
449.17	8339.33
449.36	8119.32
449.54	8601.47
449.73	8271.45
449.91	8493.80
450.10	8458.70
450.28	8362.73
450.46	8435.29
450.65	8716.16
450.83	8557.00
451.02	8374.44
451.20	8641.26
451.39	8610.83
451.57	8601.47
451.76	8491.46
451.94	8564.02
452.13	8744.24
452.31	8725.52
452.49	8496.14
452.68	8716.16
452.86	8842.54
453.05	8924.46
453.23	8982.98
453.42	8737.22
453.60	8723.18
453.78	8947.87
453.97	8791.05
454.15	8982.98
454.34	9160.86
454.52	9341.08
454.70	8992.34
454.89	9303.63
455.07	9085.96
455.26	9195.96
455.44	9411.29
455.62	9259.16
455.81	9291.93
455.99	9488.53
456.17	9301.29
456.36	9336.40
456.54	9481.51
456.73	9540.02
456.91	9804.50
457.09	9675.77
457.28	10054.94
457.46	9865.36
457.64	9879.40
457.83	9884.08
458.01	9757.69
458.19	10132.18
458.38	9804.50
458.56	10090.05
458.74	10153.24
458.93	10092.39
459.11	9858.34
459.29	10120.48
459.48	10076.01
459.66	10186.01
459.84	10298.36
460.03	10450.49
460.21	10438.79
460.39	10345.17
460.57	10239.84
460.76	10443.47
460.94	10682.20
461.12	10436.45
461.31	10658.80
461.49	10583.90
461.67	10525.39
461.85	10850.72
462.04	10637.73
462.22	11253.30
462.40	10986.47
462.59	10740.72
462.77	10979.45
462.95	10832.00
463.13	10946.69
463.32	11042.65
463.50	11169.04
463.68	11173.72
463.86	10923.28
464.05	11084.78
464.23	11052.01
464.41	11087.12
464.59	10815.62
464.78	11363.30
464.96	11075.42
465.14	11002.86
465.32	11321.17
465.50	11435.86
465.69	11304.79
465.87	11157.33
466.05	11466.28
466.23	11414.79
466.41	11580.97
466.60	11854.81
466.78	11485.01
466.96	11456.92
467.14	11410.11
467.32	11812.68
467.51	11655.87
467.69	11475.65
467.87	11836.09
468.05	11714.38
468.23	11758.85
468.41	11597.35
468.60	11719.06
468.78	12140.36
468.96	11779.92
469.14	11910.99
469.32	12112.27
469.50	11885.24
469.69	12156.74
469.87	12203.55
470.05	12297.17
470.23	12271.43
470.41	12381.43
470.59	12758.26
470.77	12496.12
470.95	12432.93
471.14	12727.83
471.32	12465.69
471.50	12901.03
471.68	12891.67
471.86	12926.78
472.04	12987.63
472.22	13301.26
472.40	12940.82
472.58	13125.72
472.77	13067.21
472.95	13383.18
473.13	13530.64
473.31	13366.80
473.49	13453.40
473.67	13549.36
473.85	13392.55
474.03	13764.69
474.21	13603.19
474.39	13963.64
474.57	13872.36
474.75	14052.58
474.93	14157.90
475.12	14162.58
475.30	14483.24
475.48	14185.99
475.66	14092.37
475.84	14693.88
476.02	14850.70
476.20	14518.34
476.38	14967.73
476.56	15122.20
476.74	15073.05
476.92	14986.45
477.10	15087.09
477.28	15400.72
477.46	15363.28
477.64	15431.15
477.82	15709.68
478.00	15925.00
478.18	16168.42
478.36	16175.44
478.54	16379.07
478.72	16336.94
478.90	16290.13
479.08	16456.31
479.26	16819.09
479.44	16793.34
479.62	17071.87
479.80	17060.16
479.98	17097.61
480.16	17198.26
480.34	16938.46
480.52	17549.34
480.70	17575.08
480.88	17479.12
481.06	17668.70
481.24	17731.90
481.41	18017.44
481.59	18338.10
481.77	18431.72
481.95	18668.11
482.13	18565.13
482.31	19005.15
482.49	18953.66
482.67	18974.72
482.85	19517.73
483.03	19503.68
483.21	19625.39
483.39	20046.69
483.57	19735.40
483.74	20027.96
483.92	20428.20
484.10	20313.51
484.28	20746.51
484.46	20931.41
484.64	21397.18
484.82	20788.64
485.00	21387.82
485.18	21298.88
485.35	21811.45
485.53	21589.10
485.71	22017.42
485.89	22155.51
486.07	22218.71
486.25	21949.54
486.43	22274.88
486.61	22590.85
486.78	23194.71
486.96	23005.13
487.14	23559.83
487.32	23351.52
487.50	23470.89
487.68	23763.46
487.85	24074.75
488.03	24233.91
488.21	24311.14
488.39	25083.52
488.57	24819.04
488.75	24966.49
488.92	25535.24
489.10	25366.73
489.28	25649.93
489.46	25678.02
489.64	25448.64
489.81	26139.10
489.99	26047.82
490.17	26443.37
490.35	26710.19
490.53	26852.97
490.70	27199.37
490.88	26658.70
491.06	27531.72
491.24	27269.58
491.41	27772.80
491.59	27845.35
491.77	27740.03
491.95	28823.70
492.13	28500.70
492.30	28713.69
492.48	28727.74
492.66	28599.01
492.84	28863.49
493.01	29240.31
493.19	29085.84
493.37	29675.65
493.54	29968.22
493.72	30050.14
493.90	30005.67
494.08	30309.94
494.25	30852.94
494.43	30644.63
494.61	31145.51
494.79	31185.30
494.96	30932.52
495.14	31108.06
495.32	31711.92
495.49	31665.11
495.67	31634.68
495.85	32065.34
496.02	32142.58
496.20	32367.27
496.38	32528.77
496.55	32896.23
496.73	33317.53
496.91	32746.44
497.09	33074.11
497.26	33357.32
497.44	33504.77
497.62	33223.90
497.79	33869.89
497.97	34281.83
498.14	34499.50
498.32	34211.61
498.50	34698.44
498.67	34808.45
498.85	34859.94
499.03	34462.05
499.20	35196.98
499.38	35299.96
499.56	35267.19
499.73	35587.85
499.91	35775.09
500.08	35845.30
500.26	36074.68
500.44	35924.88
500.61	35873.39
500.79	36002.12
500.97	36409.37
501.14	36708.96
501.32	36400.01
501.49	36538.10
501.67	36823.65
501.84	37432.19
502.02	36985.15
502.20	37565.60
502.37	37757.52
502.55	37177.07
502.72	37989.24
502.90	38045.41
503.07	37834.76
503.25	37801.99
503.43	38237.33
503.60	38520.54
503.78	38359.04
503.95	38726.50
504.13	38721.82
504.30	38745.23
504.48	38834.17
504.65	38883.32
504.83	39416.96
505.01	39828.90
505.18	39538.67
505.36	39688.46
505.53	39590.16
505.71	39566.76
505.88	39618.25
506.06	39845.28
506.23	40039.54
506.41	40205.72
506.58	40411.69
506.76	40528.72
506.93	40517.01
507.11	40514.67
507.28	40687.87
507.46	40882.14
507.63	40989.80
507.81	41193.43
507.98	41277.69
508.16	41743.45
508.33	41273.01
508.50	41640.47
508.68	42188.16
508.85	42099.22
509.03	41825.37
509.20	42635.20
509.38	42326.25
509.55	42319.23
509.73	42494.77
509.90	42918.40
510.08	42909.04
510.25	42899.68
510.42	42735.84
510.60	43491.83
510.77	43515.24
510.95	43739.93
511.12	43409.92
511.30	43323.32
511.47	43700.14
511.64	43681.42
511.82	43929.51
511.99	44074.63
512.17	44301.66
512.34	44208.04
512.51	44505.29
512.69	44322.72
512.86	44657.42
513.04	44610.61
513.21	45153.62
513.38	44968.71
513.56	45083.40
513.73	45167.66
513.90	45375.97
514.08	45038.93
514.25	45303.41
514.43	45565.55
514.60	45724.71
514.77	45464.91
514.95	46232.60
515.12	45689.60
515.29	45631.08
515.47	46007.91
515.64	46209.20
515.81	46260.69
515.99	46672.62
516.16	46562.62
516.33	46667.94
516.51	46967.53
516.68	46616.45
516.85	46560.28
517.03	46845.82
517.20	47248.39
517.37	47267.12
517.54	47498.83
517.72	47049.45
517.89	46724.11
518.06	47054.13
518.24	47536.28
518.41	47363.08
518.58	47847.57
518.75	48208.01
518.93	48278.23
519.10	47711.82
519.27	48076.94
519.45	48023.11
519.62	48149.50
519.79	48205.67
519.96	48636.33
520.14	48839.96
520.31	48526.33
520.48	48900.81
520.65	48615.27
520.83	48949.96
521.00	48762.72
521.17	48907.83
521.34	49120.82
521.52	49085.72
521.69	49415.73
521.86	49495.31
522.03	49394.67
522.20	49492.97
522.38	49738.72
522.55	49741.06
522.72	49860.43
522.89	49565.52
523.07	50328.54
523.24	50494.72
523.41	50101.51
523.58	49801.92
523.75	50670.26
523.92	50042.99
524.10	50160.02
524.27	50237.26
524.44	50391.73
524.61	50693.66
524.78	50754.52
524.96	50735.79
525.13	50681.96
525.30	50684.30
525.47	50487.70
525.64	50962.82
525.81	51136.02
525.98	51056.45
526.16	51143.05
526.33	50796.65
526.50	51243.69
526.67	51143.05
526.84	51285.82
527.01	51255.39
527.18	51386.46
527.36	51639.24
527.53	51842.87
527.70	51959.89
527.87	51688.39
528.04	51615.83
528.21	51987.98
528.38	51971.60
528.55	52388.21
528.72	51803.08
528.89	51833.50
529.07	52116.71
529.24	51880.31
529.41	52465.45
529.58	52388.21
529.75	52027.77
529.92	51995.00
530.09	52835.25
530.26	52542.69
530.43	52530.98
530.60	52582.48
530.77	52294.59
530.94	52725.25
531.11	52538.01
531.28	52334.38
531.46	52633.97
531.63	52807.17
531.80	52914.83
531.97	53275.27
532.14	53085.69
532.31	52956.96
532.48	53034.20
532.65	53155.91
532.82	52479.49
532.99	53329.11
533.16	53216.76
533.33	53530.39
533.50	53883.81
533.67	53462.52
533.84	53602.95
534.01	53368.90
534.18	53422.73
534.35	53380.60
534.52	53518.69
534.69	53764.45
534.86	53675.51
535.03	53525.71
535.20	53923.60
535.37	54094.46
535.54	53958.71
535.71	53874.45
535.88	54045.31
536.05	53897.86
536.22	54377.67
536.38	54040.63
536.55	54021.90
536.72	54171.70
536.89	53947.01
537.06	54443.20
537.23	54176.38
537.40	54129.57
537.57	54349.58
537.74	54417.46
537.91	54684.28
538.08	54646.83
538.25	54667.89
538.42	54660.87
538.59	54501.71
538.75	54541.50
538.92	54422.14
539.09	54820.03
539.26	54934.71
539.43	54780.24
539.60	54997.91
539.77	55114.94
539.94	55208.56
540.11	55161.75
540.28	55227.28
540.44	55028.34
540.61	54946.42
540.78	54965.14
540.95	55150.04
541.12	55283.45
541.29	55269.41
541.46	55150.04
541.62	54845.77
541.79	55253.03
541.96	55199.19
542.13	55271.75
542.30	55515.17
542.47	55470.70
542.63	55578.36
542.80	55622.83
542.97	55711.77
543.14	55840.50
543.31	55669.64
543.48	55753.90
543.64	55983.27
543.81	56097.96
543.98	56062.85
544.15	56114.34
544.32	56168.18
544.48	56474.79
544.65	56076.90
544.82	55969.23
544.99	55964.55
545.16	56104.98
545.32	56116.68
545.49	56655.01
545.66	56390.53
545.83	56699.48
546.00	56596.49
546.16	56523.94
546.33	56048.81
546.50	56172.86
546.67	56645.65
546.83	56179.88
547.00	56481.81
547.17	56509.89
547.34	56568.41
547.50	56666.71
547.67	56863.32
547.84	56767.35
548.00	56872.68
548.17	56830.55
548.34	56669.05
548.51	57181.63
548.67	57080.98
548.84	56769.69
549.01	56809.48
549.18	56842.25
549.34	56708.84
549.51	57020.13
549.68	56905.44
549.84	56970.98
550.01	57324.40
550.18	57155.88
550.34	57062.26
550.51	57303.34
550.68	57401.64
550.84	56966.30
551.01	57104.39
551.18	57022.47
551.34	56924.17
551.51	57109.07
551.68	57392.28
551.84	57506.96
552.01	57247.16
552.18	57453.13
552.34	57469.51
552.51	57602.92
552.68	57389.94
552.84	57350.15
553.01	57595.90
553.18	57434.41
553.34	57588.88
553.51	57602.92
553.67	57525.69
553.84	57811.23
554.01	57893.15
554.17	57553.77
554.34	57476.54
554.51	57743.36
554.67	57881.45
554.84	57918.90
555.00	57984.43
555.17	57902.51
555.33	57797.19
555.50	58073.37
555.67	57663.78
555.83	57642.71
556.00	57825.28
556.16	57888.47
556.33	57806.55
556.50	57975.07
556.66	57989.11
556.83	57986.77
556.99	58342.53
557.16	58096.78
557.32	58071.03
557.49	58169.33
557.65	57869.75
557.82	58199.76
557.98	58192.74
558.15	58363.60
558.32	58075.71
558.48	58209.12
558.65	58253.59
558.81	58363.60
558.98	58363.60
559.14	58443.18
559.31	58237.21
559.47	58314.45
559.64	58422.11
559.80	58436.16
559.97	58536.80
560.13	58379.98
560.30	58431.47
560.46	58466.58
560.63	58548.50
560.79	58482.97
560.96	58630.42
561.12	58698.30
561.29	58466.58
561.45	58532.12
561.61	58679.57
561.78	58827.02
561.94	58775.53
562.11	58742.77
562.27	58482.97
562.44	58672.55
562.60	58787.24
562.77	58616.38
562.93	58752.13
563.10	58965.12
563.26	58735.74
563.42	58948.73
563.59	58670.21
563.75	58831.71
563.92	58749.79
564.08	58738.08
564.24	58946.39
564.41	58838.73
564.57	58710.00
564.74	58798.94
564.90	59117.25
565.07	58974.48
565.23	59065.76
565.39	58930.01
565.56	58733.40
565.72	58738.08
565.88	58871.49
566.05	58761.49
566.21	58908.94
566.38	58927.67
566.54	58962.78
566.70	59147.68
566.87	59313.86
567.03	59161.72
567.19	59213.21
567.36	59061.08
567.52	59126.61
567.68	59224.92
567.85	58955.75
568.01	59023.63
568.17	58986.18
568.34	58969.80
568.50	59245.98
568.66	59075.12
568.83	59224.92
568.99	59201.51
569.15	59159.38
569.32	59112.57
569.48	59068.10
569.64	59355.99
569.81	59054.06
569.97	59302.15
570.13	59086.82
570.30	59145.34
570.46	59384.07
570.62	59419.18
570.78	59299.81
570.95	59290.45
571.11	59295.13
571.27	58908.94
571.43	59374.71
571.60	59442.59
571.76	59501.10
571.92	59274.07
572.09	59538.55
572.25	59456.63
572.41	59121.93
572.57	59309.18
572.74	59334.92
572.90	59253.00
573.06	59435.56
573.22	59119.59
573.38	59426.20
573.55	59444.93
573.71	59693.02
573.87	59648.55
574.03	59402.80
574.20	59512.80
574.36	59276.41
574.52	59498.76
574.68	59381.73
574.84	59543.23
575.01	59592.38
575.17	59693.02
575.33	59510.46
575.49	59552.59
575.65	59664.94
575.82	59618.13
575.98	59482.37
576.14	59863.88
576.30	59545.57
576.46	59449.61
576.62	59309.18
576.79	59201.51
576.95	59180.45
577.11	59512.80
577.27	59435.56
577.43	59636.85
577.59	59650.89
577.75	59664.94
577.92	59379.39
578.08	59498.76
578.24	59405.14
578.40	59473.01
578.56	59618.13
578.72	59578.34
578.88	59765.58
579.04	59660.26
579.21	59515.14
579.37	59405.14
579.53	59604.08
579.69	59285.77
579.85	59318.54
580.01	59573.66
580.17	59627.49
580.33	59489.40
580.49	59711.75
580.65	59835.80
580.82	59480.03
580.98	59767.92
581.14	59770.26
581.30	59711.75
581.46	59615.79
581.62	59470.67
581.78	59601.74
581.94	59735.15
582.10	59765.58
582.26	59767.92
582.42	59648.55
582.58	59894.31
582.74	59922.40
582.90	59934.10
583.06	59650.89
583.22	59538.55
583.38	59660.26
583.54	59943.46
583.70	59786.64
583.86	59709.41
584.02	59711.75
584.18	59817.07
584.34	60210.28
584.50	59838.14
584.66	60013.68
584.82	59662.60
584.98	59910.69
585.14	59924.74
585.30	59554.93
585.46	59702.38
585.62	59695.36
585.78	59819.41
585.94	59695.36
586.10	59732.81
586.26	59805.37
586.42	59943.46
586.58	59943.46
586.74	59828.77
586.90	59788.98
587.06	60018.36
587.22	59704.73
587.38	59810.05
587.54	60018.36
587.70	59978.57
587.86	59838.14
588.02	59849.84
588.18	60027.72
588.34	59887.29
588.49	59943.46
588.65	59746.86
588.81	59746.86
588.97	59957.50
589.13	59725.79
589.29	60074.53
