SpectraSuite Data File
++++++++++++++++++++++++++++++++++++
Date: Fri Oct 04 11:46:58 GMT-05:00 2013
User: price-jones
Dark Spectrum Present: No
Reference Spectrum Present: No
Number of Sampled Component Spectra: 1
Spectrometers: USB2+H05261
Integration Time (usec): 100000 (USB2+H05261)
Spectra Averaged: 1 (USB2+H05261)
Boxcar Smoothing: 0 (USB2+H05261)
Correct for Electrical Dark: No (USB2+H05261)
Strobe/Lamp Enabled: No (USB2+H05261)
Correct for Detector Non-linearity: No (USB2+H05261)
Correct for Stray Light: No (USB2+H05261)
Number of Pixels in Processed Spectrum: 2048
>>>>>Begin Processed Spectral Data<<<<<
365.73	0.00
365.92	0.00
366.12	0.00
366.32	0.00
366.52	0.00
366.72	0.00
366.91	0.00
367.11	0.00
367.31	0.00
367.51	0.00
367.70	0.00
367.90	0.00
368.10	0.00
368.30	0.00
368.49	0.00
368.69	0.00
368.89	0.00
369.09	0.00
369.28	0.00
369.48	0.00
369.68	0.00
369.87	7.02
370.07	0.00
370.27	0.00
370.47	14.04
370.66	2.34
370.86	14.04
371.06	37.45
371.25	46.81
371.45	51.49
371.65	42.13
371.84	49.15
372.04	93.62
372.24	60.85
372.44	131.07
372.63	88.94
372.83	128.73
373.03	58.51
373.22	9.36
373.42	51.49
373.62	119.37
373.81	53.83
374.01	98.30
374.21	112.35
374.40	58.51
374.60	149.79
374.79	93.62
374.99	128.73
375.19	93.62
375.38	124.05
375.58	102.98
375.78	117.03
375.97	102.98
376.17	110.01
376.37	140.43
376.56	173.20
376.76	77.24
376.95	7.02
377.15	173.20
377.35	84.26
377.54	154.48
377.74	91.28
377.93	145.11
378.13	147.45
378.33	81.92
378.52	119.37
378.72	88.94
378.91	81.92
379.11	32.77
379.31	74.90
379.50	14.04
379.70	49.15
379.89	117.03
380.09	147.45
380.28	79.58
380.48	56.17
380.68	44.47
380.87	100.64
381.07	131.07
381.26	70.22
381.46	119.37
381.65	117.03
381.85	49.15
382.04	0.00
382.24	77.24
382.43	35.11
382.63	142.77
382.83	138.09
383.02	60.85
383.22	142.77
383.41	28.09
383.61	84.26
383.80	77.24
384.00	156.82
384.19	37.45
384.39	60.85
384.58	53.83
384.78	49.15
384.97	121.71
385.17	58.51
385.36	145.11
385.56	93.62
385.75	98.30
385.95	117.03
386.14	105.32
386.34	107.66
386.53	163.84
386.72	107.66
386.92	98.30
387.11	133.41
387.31	63.19
387.50	98.30
387.70	93.62
387.89	67.88
388.09	124.05
388.28	102.98
388.48	91.28
388.67	98.30
388.86	67.88
389.06	112.35
389.25	126.39
389.45	79.58
389.64	112.35
389.84	86.60
390.03	88.94
390.22	81.92
390.42	114.69
390.61	37.45
390.81	131.07
391.00	131.07
391.19	159.16
391.39	51.49
391.58	100.64
391.78	163.84
391.97	124.05
392.16	133.41
392.36	88.94
392.55	72.56
392.75	133.41
392.94	119.37
393.13	72.56
393.33	77.24
393.52	100.64
393.71	0.00
393.91	124.05
394.10	70.22
394.29	23.41
394.49	182.56
394.68	86.60
394.88	180.22
395.07	81.92
395.26	51.49
395.46	25.75
395.65	168.52
395.84	184.90
396.04	212.99
396.23	39.79
396.42	60.85
396.62	110.01
396.81	77.24
397.00	51.49
397.19	117.03
397.39	124.05
397.58	56.17
397.77	32.77
397.97	138.09
398.16	81.92
398.35	140.43
398.55	88.94
398.74	74.90
398.93	114.69
399.12	84.26
399.32	140.43
399.51	95.96
399.70	86.60
399.90	86.60
400.09	135.75
400.28	44.47
400.47	4.68
400.67	142.77
400.86	107.66
401.05	93.62
401.24	77.24
401.44	88.94
401.63	126.39
401.82	138.09
402.01	63.19
402.21	72.56
402.40	95.96
402.59	102.98
402.78	77.24
402.97	121.71
403.17	91.28
403.36	105.32
403.55	159.16
403.74	161.50
403.93	72.56
404.13	126.39
404.32	102.98
404.51	79.58
404.70	184.90
404.89	114.69
405.09	180.22
405.28	105.32
405.47	56.17
405.66	173.20
405.85	112.35
406.05	53.83
406.24	28.09
406.43	184.90
406.62	119.37
406.81	128.73
407.00	110.01
407.20	173.20
407.39	88.94
407.58	124.05
407.77	149.79
407.96	131.07
408.15	114.69
408.34	44.47
408.54	126.39
408.73	105.32
408.92	163.84
409.11	51.49
409.30	124.05
409.49	112.35
409.68	77.24
409.87	107.66
410.07	133.41
410.26	98.30
410.45	140.43
410.64	84.26
410.83	65.54
411.02	74.90
411.21	147.45
411.40	88.94
411.59	58.51
411.78	67.88
411.98	149.79
412.17	131.07
412.36	100.64
412.55	110.01
412.74	161.50
412.93	58.51
413.12	84.26
413.31	152.13
413.50	86.60
413.69	163.84
413.88	161.50
414.07	88.94
414.26	70.22
414.45	142.77
414.64	35.11
414.83	107.66
415.02	117.03
415.22	159.16
415.41	93.62
415.60	161.50
415.79	126.39
415.98	170.86
416.17	88.94
416.36	74.90
416.55	119.37
416.74	65.54
416.93	133.41
417.12	81.92
417.31	128.73
417.50	152.13
417.69	290.23
417.88	201.29
418.07	198.95
418.26	98.30
418.45	212.99
418.64	215.33
418.83	196.60
419.02	86.60
419.21	142.77
419.39	135.75
419.58	173.20
419.77	203.63
419.96	156.82
420.15	154.48
420.34	135.75
420.53	168.52
420.72	194.26
420.91	126.39
421.10	88.94
421.29	98.30
421.48	112.35
421.67	86.60
421.86	72.56
422.05	117.03
422.24	149.79
422.43	53.83
422.61	51.49
422.80	110.01
422.99	128.73
423.18	112.35
423.37	131.07
423.56	119.37
423.75	95.96
423.94	84.26
424.13	112.35
424.32	81.92
424.50	88.94
424.69	135.75
424.88	110.01
425.07	133.41
425.26	107.66
425.45	187.24
425.64	234.05
425.83	194.26
426.01	184.90
426.20	159.16
426.39	149.79
426.58	163.84
426.77	152.13
426.96	168.52
427.15	138.09
427.33	81.92
427.52	126.39
427.71	121.71
427.90	84.26
428.09	67.88
428.28	128.73
428.46	44.47
428.65	154.48
428.84	98.30
429.03	145.11
429.22	74.90
429.40	84.26
429.59	63.19
429.78	231.71
429.97	72.56
430.16	93.62
430.34	173.20
430.53	77.24
430.72	114.69
430.91	159.16
431.10	93.62
431.28	131.07
431.47	166.18
431.66	112.35
431.85	102.98
432.03	161.50
432.22	198.95
432.41	159.16
432.60	262.14
432.79	243.42
432.97	182.56
433.16	292.57
433.35	234.05
433.54	140.43
433.72	112.35
433.91	147.45
434.10	152.13
434.28	194.26
434.47	205.97
434.66	154.48
434.85	121.71
435.03	46.81
435.22	182.56
435.41	133.41
435.59	131.07
435.78	102.98
435.97	126.39
436.16	180.22
436.34	149.79
436.53	70.22
436.72	105.32
436.90	121.71
437.09	84.26
437.28	147.45
437.46	119.37
437.65	86.60
437.84	114.69
438.02	145.11
438.21	21.06
438.40	107.66
438.58	100.64
438.77	128.73
438.96	91.28
439.14	93.62
439.33	191.92
439.52	112.35
439.70	107.66
439.89	168.52
440.08	91.28
440.26	128.73
440.45	278.52
440.63	140.43
440.82	95.96
441.01	149.79
441.19	159.16
441.38	173.20
441.57	112.35
441.75	46.81
441.94	121.71
442.12	133.41
442.31	79.58
442.50	138.09
442.68	114.69
442.87	107.66
443.05	107.66
443.24	126.39
443.43	117.03
443.61	231.71
443.80	145.11
443.98	126.39
444.17	147.45
444.35	154.48
444.54	117.03
444.73	170.86
444.91	100.64
445.10	124.05
445.28	117.03
445.47	79.58
445.65	60.85
445.84	154.48
446.02	102.98
446.21	177.88
446.39	128.73
446.58	133.41
446.77	124.05
446.95	107.66
447.14	128.73
447.32	184.90
447.51	140.43
447.69	100.64
447.88	126.39
448.06	177.88
448.25	156.82
448.43	194.26
448.62	77.24
448.80	117.03
448.99	95.96
449.17	147.45
449.36	110.01
449.54	121.71
449.73	77.24
449.91	140.43
450.10	124.05
450.28	231.71
450.46	194.26
450.65	170.86
450.83	175.54
451.02	168.52
451.20	152.13
451.39	166.18
451.57	119.37
451.76	147.45
451.94	86.60
452.13	177.88
452.31	98.30
452.49	145.11
452.68	93.62
452.86	149.79
453.05	133.41
453.23	98.30
453.42	135.75
453.60	100.64
453.78	168.52
453.97	51.49
454.15	145.11
454.34	105.32
454.52	100.64
454.70	149.79
454.89	156.82
455.07	133.41
455.26	203.63
455.44	159.16
455.62	212.99
455.81	184.90
455.99	138.09
456.17	168.52
456.36	135.75
456.54	163.84
456.73	86.60
456.91	93.62
457.09	117.03
457.28	100.64
457.46	149.79
457.64	184.90
457.83	166.18
458.01	184.90
458.19	170.86
458.38	166.18
458.56	117.03
458.74	105.32
458.93	147.45
459.11	131.07
459.29	138.09
459.48	110.01
459.66	234.05
459.84	177.88
460.03	315.97
460.21	93.62
460.39	145.11
460.57	138.09
460.76	124.05
460.94	135.75
461.12	110.01
461.31	313.63
461.49	133.41
461.67	128.73
461.85	142.77
462.04	121.71
462.22	648.33
462.40	77.24
462.59	142.77
462.77	161.50
462.95	166.18
463.13	170.86
463.32	147.45
463.50	166.18
463.68	145.11
463.86	168.52
464.05	74.90
464.23	196.60
464.41	124.05
464.59	84.26
464.78	166.18
464.96	138.09
465.14	131.07
465.32	98.30
465.50	131.07
465.69	131.07
465.87	140.43
466.05	121.71
466.23	121.71
466.41	84.26
466.60	156.82
466.78	147.45
466.96	163.84
467.14	149.79
467.32	166.18
467.51	161.50
467.69	168.52
467.87	145.11
468.05	133.41
468.23	147.45
468.41	180.22
468.60	117.03
468.78	173.20
468.96	119.37
469.14	210.65
469.32	119.37
469.50	147.45
469.69	189.58
469.87	175.54
470.05	126.39
470.23	191.92
470.41	147.45
470.59	173.20
470.77	159.16
470.95	159.16
471.14	201.29
471.32	133.41
471.50	184.90
471.68	128.73
471.86	238.73
472.04	95.96
472.22	161.50
472.40	117.03
472.58	133.41
472.77	95.96
472.95	175.54
473.13	107.66
473.31	152.13
473.49	117.03
473.67	63.19
473.85	159.16
474.03	159.16
474.21	182.56
474.39	215.33
474.57	173.20
474.75	201.29
474.93	152.13
475.12	63.19
475.30	138.09
475.48	95.96
475.66	112.35
475.84	145.11
476.02	95.96
476.20	187.24
476.38	147.45
476.56	196.60
476.74	138.09
476.92	110.01
477.10	102.98
477.28	196.60
477.46	154.48
477.64	220.01
477.82	117.03
478.00	44.47
478.18	110.01
478.36	147.45
478.54	170.86
478.72	114.69
478.90	135.75
479.08	145.11
479.26	133.41
479.44	196.60
479.62	168.52
479.80	93.62
479.98	110.01
480.16	168.52
480.34	175.54
480.52	152.13
480.70	128.73
480.88	126.39
481.06	161.50
481.24	142.77
481.41	201.29
481.59	168.52
481.77	156.82
481.95	102.98
482.13	215.33
482.31	159.16
482.49	145.11
482.67	215.33
482.85	163.84
483.03	168.52
483.21	184.90
483.39	189.58
483.57	217.67
483.74	255.12
483.92	51.49
484.10	138.09
484.28	147.45
484.46	128.73
484.64	121.71
484.82	173.20
485.00	145.11
485.18	147.45
485.35	182.56
485.53	95.96
485.71	159.16
485.89	135.75
486.07	102.98
486.25	187.24
486.43	133.41
486.61	135.75
486.78	238.73
486.96	257.46
487.14	110.01
487.32	198.95
487.50	126.39
487.68	110.01
487.85	140.43
488.03	210.65
488.21	198.95
488.39	180.22
488.57	161.50
488.75	119.37
488.92	425.98
489.10	208.31
489.28	173.20
489.46	37.45
489.64	189.58
489.81	154.48
489.99	117.03
490.17	84.26
490.35	210.65
490.53	128.73
490.70	159.16
490.88	243.42
491.06	177.88
491.24	238.73
491.41	131.07
491.59	292.57
491.77	156.82
491.95	84.26
492.13	117.03
492.30	224.69
492.48	140.43
492.66	154.48
492.84	147.45
493.01	135.75
493.19	133.41
493.37	236.39
493.54	163.84
493.72	149.79
493.90	187.24
494.08	177.88
494.25	212.99
494.43	170.86
494.61	161.50
494.79	159.16
494.96	231.71
495.14	217.67
495.32	156.82
495.49	147.45
495.67	182.56
495.85	173.20
496.02	180.22
496.20	248.10
496.38	280.86
496.55	177.88
496.73	175.54
496.91	238.73
497.09	205.97
497.26	196.60
497.44	159.16
497.62	182.56
497.79	227.03
497.97	175.54
498.14	224.69
498.32	243.42
498.50	168.52
498.67	107.66
498.85	145.11
499.03	177.88
499.20	187.24
499.38	152.13
499.56	187.24
499.73	245.76
499.91	212.99
500.08	128.73
500.26	255.12
500.44	205.97
500.61	156.82
500.79	177.88
500.97	152.13
501.14	189.58
501.32	224.69
501.49	152.13
501.67	177.88
501.84	238.73
502.02	175.54
502.20	278.52
502.37	191.92
502.55	208.31
502.72	142.77
502.90	215.33
503.07	271.50
503.25	224.69
503.43	205.97
503.60	187.24
503.78	241.08
503.95	217.67
504.13	175.54
504.30	208.31
504.48	201.29
504.65	220.01
504.83	278.52
505.01	138.09
505.18	203.63
505.36	112.35
505.53	224.69
505.71	131.07
505.88	196.60
506.06	119.37
506.23	177.88
506.41	194.26
506.58	194.26
506.76	205.97
506.93	201.29
507.11	175.54
507.28	145.11
507.46	182.56
507.63	147.45
507.81	196.60
507.98	280.86
508.16	198.95
508.33	156.82
508.50	234.05
508.68	135.75
508.85	212.99
509.03	189.58
509.20	220.01
509.38	161.50
509.55	196.60
509.73	227.03
509.90	191.92
510.08	224.69
510.25	276.18
510.42	119.37
510.60	161.50
510.77	173.20
510.95	138.09
511.12	215.33
511.30	271.50
511.47	330.02
511.64	184.90
511.82	163.84
511.99	196.60
512.17	205.97
512.34	269.16
512.51	170.86
512.69	149.79
512.86	177.88
513.04	166.18
513.21	215.33
513.38	210.65
513.56	196.60
513.73	168.52
513.90	210.65
514.08	159.16
514.25	166.18
514.43	175.54
514.60	147.45
514.77	189.58
514.95	182.56
515.12	245.76
515.29	271.50
515.47	259.80
515.64	147.45
515.81	210.65
515.99	220.01
516.16	264.48
516.33	252.78
516.51	173.20
516.68	212.99
516.85	194.26
517.03	170.86
517.20	255.12
517.37	222.35
517.54	182.56
517.72	250.44
517.89	187.24
518.06	121.71
518.24	220.01
518.41	252.78
518.58	191.92
518.75	196.60
518.93	227.03
519.10	168.52
519.27	163.84
519.45	173.20
519.62	175.54
519.79	168.52
519.96	196.60
520.14	245.76
520.31	208.31
520.48	173.20
520.65	245.76
520.83	205.97
521.00	285.55
521.17	203.63
521.34	147.45
521.52	149.79
521.69	128.73
521.86	243.42
522.03	301.93
522.20	313.63
522.38	231.71
522.55	189.58
522.72	229.37
522.89	248.10
523.07	217.67
523.24	168.52
523.41	159.16
523.58	234.05
523.75	208.31
523.92	168.52
524.10	161.50
524.27	227.03
524.44	208.31
524.61	212.99
524.78	135.75
524.96	234.05
525.13	259.80
525.30	266.82
525.47	238.73
525.64	245.76
525.81	175.54
525.98	236.39
526.16	159.16
526.33	173.20
526.50	140.43
526.67	203.63
526.84	138.09
527.01	189.58
527.18	168.52
527.36	229.37
527.53	184.90
527.70	292.57
527.87	217.67
528.04	243.42
528.21	238.73
528.38	205.97
528.55	177.88
528.72	201.29
528.89	243.42
529.07	227.03
529.24	201.29
529.41	273.84
529.58	177.88
529.75	177.88
529.92	259.80
530.09	196.60
530.26	208.31
530.43	168.52
530.60	166.18
530.77	198.95
530.94	243.42
531.11	250.44
531.28	145.11
531.46	187.24
531.63	182.56
531.80	210.65
531.97	170.86
532.14	114.69
532.31	266.82
532.48	217.67
532.65	327.68
532.82	276.18
532.99	346.40
533.16	257.46
533.33	191.92
533.50	229.37
533.67	250.44
533.84	437.68
534.01	358.10
534.18	299.59
534.35	297.25
534.52	278.52
534.69	327.68
534.86	243.42
535.03	175.54
535.20	163.84
535.37	264.48
535.54	191.92
535.71	273.84
535.88	208.31
536.05	177.88
536.22	292.57
536.38	236.39
536.55	224.69
536.72	168.52
536.89	177.88
537.06	212.99
537.23	196.60
537.40	220.01
537.57	152.13
537.74	248.10
537.91	224.69
538.08	196.60
538.25	220.01
538.42	248.10
538.59	245.76
538.75	224.69
538.92	163.84
539.09	248.10
539.26	203.63
539.43	456.40
539.60	1036.86
539.77	1631.35
539.94	1610.29
540.11	997.07
540.28	734.93
540.44	416.62
540.61	229.37
540.78	217.67
540.95	227.03
541.12	201.29
541.29	182.56
541.46	187.24
541.62	203.63
541.79	189.58
541.96	205.97
542.13	128.73
542.30	163.84
542.47	222.35
542.63	170.86
542.80	255.12
542.97	241.08
543.14	177.88
543.31	191.92
543.48	208.31
543.64	276.18
543.81	208.31
543.98	159.16
544.15	191.92
544.32	180.22
544.48	135.75
544.65	234.05
544.82	168.52
544.99	217.67
545.16	184.90
545.32	198.95
545.49	142.77
545.66	238.73
545.83	217.67
546.00	126.39
546.16	308.95
546.33	198.95
546.50	121.71
546.67	203.63
546.83	292.57
547.00	271.50
547.17	243.42
547.34	182.56
547.50	217.67
547.67	93.62
547.84	220.01
548.00	177.88
548.17	182.56
548.34	191.92
548.51	248.10
548.67	276.18
548.84	133.41
549.01	173.20
549.18	271.50
549.34	262.14
549.51	238.73
549.68	201.29
549.84	248.10
550.01	236.39
550.18	320.65
550.34	245.76
550.51	182.56
550.68	287.89
550.84	231.71
551.01	198.95
551.18	156.82
551.34	191.92
551.51	194.26
551.68	220.01
551.84	259.80
552.01	142.77
552.18	231.71
552.34	149.79
552.51	184.90
552.68	203.63
552.84	135.75
553.01	215.33
553.18	133.41
553.34	243.42
553.51	262.14
553.67	266.82
553.84	287.89
554.01	276.18
554.17	266.82
554.34	196.60
554.51	217.67
554.67	259.80
554.84	175.54
555.00	234.05
555.17	241.08
555.33	220.01
555.50	259.80
555.67	280.86
555.83	229.37
556.00	224.69
556.16	395.55
556.33	182.56
556.50	198.95
556.66	229.37
556.83	180.22
556.99	191.92
557.16	250.44
557.32	156.82
557.49	243.42
557.65	262.14
557.82	182.56
557.98	203.63
558.15	234.05
558.32	159.16
558.48	210.65
558.65	154.48
558.81	215.33
558.98	212.99
559.14	220.01
559.31	205.97
559.47	170.86
559.64	257.46
559.80	194.26
559.97	175.54
560.13	255.12
560.30	133.41
560.46	194.26
560.63	166.18
560.79	198.95
560.96	173.20
561.12	173.20
561.29	180.22
561.45	107.66
561.61	182.56
561.78	332.36
561.94	173.20
562.11	117.03
562.27	227.03
562.44	234.05
562.60	203.63
562.77	145.11
562.93	266.82
563.10	227.03
563.26	278.52
563.42	252.78
563.59	252.78
563.75	201.29
563.92	330.02
564.08	182.56
564.24	236.39
564.41	264.48
564.57	201.29
564.74	184.90
564.90	138.09
565.07	142.77
565.23	276.18
565.39	250.44
565.56	341.72
565.72	229.37
565.88	234.05
566.05	212.99
566.21	222.35
566.38	177.88
566.54	170.86
566.70	238.73
566.87	227.03
567.03	189.58
567.19	203.63
567.36	135.75
567.52	149.79
567.68	201.29
567.85	210.65
568.01	217.67
568.17	210.65
568.34	201.29
568.50	201.29
568.66	257.46
568.83	255.12
568.99	208.31
569.15	259.80
569.32	227.03
569.48	184.90
569.64	173.20
569.81	238.73
569.97	152.13
570.13	212.99
570.30	163.84
570.46	257.46
570.62	180.22
570.78	135.75
570.95	159.16
571.11	220.01
571.27	262.14
571.43	250.44
571.60	255.12
571.76	236.39
571.92	215.33
572.09	152.13
572.25	280.86
572.41	266.82
572.57	241.08
572.74	290.23
572.90	198.95
573.06	194.26
573.22	234.05
573.38	196.60
573.55	215.33
573.71	182.56
573.87	311.29
574.03	234.05
574.20	248.10
574.36	322.99
574.52	339.38
574.68	308.95
574.84	248.10
575.01	215.33
575.17	273.84
575.33	175.54
575.49	301.93
575.65	250.44
575.82	339.38
575.98	524.28
576.14	650.67
576.30	674.07
576.46	559.39
576.62	400.23
576.79	365.12
576.95	264.48
577.11	220.01
577.27	241.08
577.43	308.95
577.59	243.42
577.75	273.84
577.92	238.73
578.08	276.18
578.24	238.73
578.40	276.18
578.56	243.42
578.72	255.12
578.88	205.97
579.04	250.44
579.21	297.25
579.37	227.03
579.53	327.68
579.69	290.23
579.85	205.97
580.01	351.08
580.17	287.89
580.33	339.38
580.49	358.10
580.65	332.36
580.82	358.10
580.98	276.18
581.14	273.84
581.30	327.68
581.46	442.36
581.62	498.53
581.78	596.84
581.94	641.31
582.10	505.56
582.26	486.83
582.42	421.30
582.58	423.64
582.74	395.55
582.90	395.55
583.06	454.06
583.22	458.74
583.38	440.02
583.54	500.87
583.70	580.45
583.86	716.20
584.02	812.17
584.18	1064.94
584.34	1226.44
584.50	3368.03
584.66	25404.17
584.82	57804.21
584.98	65535.00
585.14	65015.40
585.30	51437.95
585.46	31960.02
585.62	19396.02
585.78	9029.79
585.94	3496.76
586.10	1685.19
586.26	1057.92
586.42	781.74
586.58	748.97
586.74	650.67
586.90	606.20
587.06	526.62
587.22	550.03
587.38	547.69
587.54	1198.35
587.70	3775.28
587.86	6167.31
588.02	6803.94
588.18	4999.38
588.34	3054.40
588.49	2024.56
588.65	1242.82
588.81	620.24
588.97	437.68
589.13	278.52
589.29	327.68
589.45	301.93
589.61	299.59
589.77	414.27
589.93	470.45
590.08	440.02
590.24	383.85
590.40	367.46
590.56	409.59
590.72	297.25
590.88	400.23
591.04	334.70
591.20	292.57
591.35	362.78
591.51	313.63
591.67	273.84
591.83	259.80
591.99	264.48
592.15	257.46
592.31	269.16
592.46	294.91
592.62	245.76
592.78	194.26
592.94	273.84
593.10	257.46
593.26	259.80
593.41	390.87
593.57	365.12
593.73	587.47
593.89	3002.91
594.05	7836.11
594.20	11941.41
594.36	11485.01
594.52	7180.76
594.68	4690.43
594.84	3054.40
594.99	1652.42
595.15	746.63
595.31	465.77
595.47	416.62
595.62	393.21
595.78	280.86
595.94	224.69
596.10	372.15
596.25	374.49
596.41	322.99
596.57	365.12
596.73	334.70
596.88	568.75
597.04	1448.79
597.20	2420.11
597.36	2998.23
597.51	2176.70
597.67	1448.79
597.83	1095.37
597.99	695.14
598.14	456.40
598.30	397.89
598.46	287.89
598.61	341.72
598.77	308.95
598.93	290.23
599.09	215.33
599.24	278.52
599.40	290.23
599.56	196.60
599.71	301.93
599.87	250.44
600.03	252.78
600.18	227.03
600.34	255.12
600.50	236.39
600.65	245.76
600.81	273.84
600.97	119.37
601.12	222.35
601.28	250.44
601.44	184.90
601.59	177.88
601.75	287.89
601.91	215.33
602.06	299.59
602.22	332.36
602.37	706.84
602.53	1839.66
602.69	2913.97
602.84	3023.97
603.00	2277.34
603.16	1460.49
603.31	1020.47
603.47	629.60
603.62	348.74
603.78	266.82
603.94	297.25
604.09	245.76
604.25	278.52
604.40	264.48
604.56	234.05
604.71	259.80
604.87	217.67
605.03	196.60
605.18	276.18
605.34	264.48
605.49	287.89
605.65	159.16
605.80	248.10
605.96	304.27
606.12	198.95
606.27	292.57
606.43	283.20
606.58	351.08
606.74	882.38
606.89	3669.96
607.05	7557.59
607.20	10104.09
607.36	8341.67
607.51	5624.31
607.67	3578.68
607.82	2347.56
607.98	1387.94
608.13	688.12
608.29	519.60
608.44	423.64
608.60	451.72
608.75	524.28
608.91	1214.74
609.06	5689.84
609.22	13186.58
609.37	17923.82
609.53	15496.69
609.68	10270.27
609.84	6502.01
609.99	4339.35
610.15	2303.09
610.30	1114.10
610.46	645.99
610.61	327.68
610.76	423.64
610.92	341.72
611.07	292.57
611.23	374.49
611.38	294.91
611.54	299.59
611.69	205.97
611.84	280.86
612.00	285.55
