SpectraSuite Data File
++++++++++++++++++++++++++++++++++++
Date: Fri Oct 04 11:48:39 GMT-05:00 2013
User: price-jones
Dark Spectrum Present: No
Reference Spectrum Present: No
Number of Sampled Component Spectra: 1
Spectrometers: USB2+H05261
Integration Time (usec): 100000 (USB2+H05261)
Spectra Averaged: 1 (USB2+H05261)
Boxcar Smoothing: 0 (USB2+H05261)
Correct for Electrical Dark: No (USB2+H05261)
Strobe/Lamp Enabled: No (USB2+H05261)
Correct for Detector Non-linearity: No (USB2+H05261)
Correct for Stray Light: No (USB2+H05261)
Number of Pixels in Processed Spectrum: 2048
>>>>>Begin Processed Spectral Data<<<<<
365.73	67.88
365.92	67.88
366.12	67.88
366.32	0.00
366.52	0.00
366.72	0.00
366.91	0.00
367.11	0.00
367.31	2.34
367.51	0.00
367.70	0.00
367.90	0.00
368.10	0.00
368.30	0.00
368.49	0.00
368.69	0.00
368.89	0.00
369.09	0.00
369.28	0.00
369.48	0.00
369.68	0.00
369.87	0.00
370.07	0.00
370.27	42.13
370.47	142.77
370.66	421.30
370.86	503.22
371.06	458.74
371.25	573.43
371.45	524.28
371.65	566.41
371.84	650.67
372.04	582.79
372.24	645.99
372.44	648.33
372.63	676.41
372.83	751.31
373.03	709.18
373.22	592.16
373.42	695.14
373.62	709.18
373.81	751.31
374.01	695.14
374.21	791.10
374.40	795.78
374.60	821.53
374.79	716.20
374.99	767.70
375.19	828.55
375.38	863.66
375.58	821.53
375.78	819.19
375.97	851.96
376.17	842.59
376.37	870.68
376.56	819.19
376.76	826.21
376.95	891.74
377.15	849.61
377.35	870.68
377.54	950.26
377.74	880.04
377.93	821.53
378.13	987.71
378.33	901.11
378.52	901.11
378.72	903.45
378.91	978.34
379.11	933.87
379.31	968.98
379.50	938.55
379.70	1006.43
379.89	945.58
380.09	1001.75
380.28	994.73
380.48	1088.35
380.68	964.30
380.87	1018.13
381.07	999.41
381.26	978.34
381.46	1184.31
381.65	1128.14
381.85	1083.67
382.04	1111.75
382.24	1125.80
382.43	1123.46
382.63	1081.33
382.83	1146.86
383.02	1207.72
383.22	1149.20
383.41	1132.82
383.61	1151.54
383.80	1242.82
384.00	1167.93
384.19	1219.42
384.39	1167.93
384.58	1125.80
384.78	1212.40
384.97	1303.68
385.17	1198.35
385.36	1207.72
385.56	1203.04
385.75	1146.86
385.95	1352.83
386.14	1263.89
386.34	1273.25
386.53	1270.91
386.72	1313.04
386.92	1306.02
387.11	1364.53
387.31	1341.13
387.50	1273.25
387.70	1263.89
387.89	1327.08
388.09	1345.81
388.28	1430.07
388.48	1409.00
388.67	1324.74
388.86	1392.62
389.06	1523.69
389.25	1504.96
389.45	1495.60
389.64	1411.34
389.84	1357.51
390.03	1497.94
390.22	1605.61
390.42	1516.67
390.61	1406.66
390.81	1502.62
391.00	1542.41
391.19	1584.54
391.39	1614.97
391.58	1631.35
391.78	1507.30
391.97	1636.03
392.16	1589.22
392.36	1717.95
392.55	1734.34
392.75	1741.36
392.94	1673.48
393.13	1678.16
393.33	1668.80
393.52	1664.12
393.71	1818.60
393.91	1717.95
394.10	1675.82
394.29	1699.23
394.49	1863.07
394.68	1825.62
394.88	1783.49
395.07	1930.94
395.26	1764.76
395.46	1863.07
395.65	1916.90
395.84	1860.73
396.04	2024.56
396.23	1973.07
396.42	1930.94
396.62	1919.24
396.81	2064.35
397.00	1994.14
397.19	1991.80
397.39	2066.69
397.58	2057.33
397.77	2043.29
397.97	2169.68
398.16	2106.48
398.35	2284.36
398.55	2183.72
398.74	2179.04
398.93	2242.23
399.12	2087.76
399.32	2080.74
399.51	2244.57
399.70	2214.15
399.90	2204.78
400.09	2408.41
400.28	2324.15
400.47	2338.20
400.67	2396.71
400.86	2373.30
401.05	2347.56
401.24	2464.58
401.44	2487.99
401.63	2466.92
401.82	2480.97
402.01	2572.25
402.21	2539.48
402.40	2480.97
402.59	2537.14
402.78	2525.44
402.97	2703.32
403.17	2595.65
403.36	2520.76
403.55	2698.64
403.74	2759.49
403.93	2724.38
404.13	2743.11
404.32	2771.19
404.51	2663.53
404.70	2801.62
404.89	2876.52
405.09	2780.56
405.28	2733.75
405.47	2869.50
405.66	3002.91
405.85	2913.97
406.05	3023.97
406.24	2820.35
406.43	3014.61
406.62	2972.48
406.81	3253.34
407.00	3141.00
407.20	3042.70
407.39	3110.57
407.58	3143.34
407.77	3201.85
407.96	3356.33
408.15	3236.96
408.34	3225.26
408.54	3215.90
408.73	3307.18
408.92	3323.56
409.11	3368.03
409.30	3503.78
409.49	3384.41
409.68	3466.33
409.87	3522.51
410.07	3487.40
410.26	3499.10
410.45	3520.17
410.64	3665.28
410.83	3609.11
411.02	3616.13
411.21	3744.86
411.40	3681.66
411.59	3822.09
411.78	3798.69
411.98	3740.18
412.17	3946.14
412.36	3854.86
412.55	3826.78
412.74	4049.13
412.93	3967.21
413.12	3992.95
413.31	4198.92
413.50	4079.55
413.69	4236.37
413.88	4184.88
414.07	4236.37
414.26	4269.14
414.45	4311.27
414.64	4351.06
414.83	4299.56
415.02	4421.27
415.22	4524.26
415.41	4660.01
415.60	4683.41
415.79	4620.22
415.98	4638.94
416.17	4798.10
416.36	4795.76
416.55	4781.71
416.74	4596.81
416.93	4807.46
417.12	4847.25
417.31	4983.00
417.50	5004.07
417.69	5128.11
417.88	5078.96
418.07	5116.41
418.26	4961.94
418.45	5179.61
418.64	5329.40
418.83	5315.36
419.02	5184.29
419.21	5430.04
419.39	5394.93
419.58	5233.44
419.77	5270.89
419.96	5490.90
420.15	5430.04
420.34	5563.45
420.53	5537.71
420.72	5577.50
420.91	5687.50
421.10	5643.03
421.29	5755.38
421.48	5682.82
421.67	5593.88
421.86	5748.36
422.05	5858.36
422.24	5804.53
422.43	5696.86
422.61	5802.19
422.80	5832.62
422.99	5816.23
423.18	5975.39
423.37	5839.64
423.56	5963.68
423.75	5874.74
423.94	5853.68
424.13	5411.32
424.32	5717.93
424.50	5940.28
424.69	6136.88
424.88	6104.12
425.07	5947.30
425.26	5914.53
425.45	6031.56
425.64	5806.87
425.83	6071.35
426.01	6043.26
426.20	5930.92
426.39	6064.33
426.58	5937.94
426.77	6040.92
426.96	6174.33
427.15	6024.54
427.33	6057.31
427.52	6036.24
427.71	6298.38
427.90	6256.25
428.09	6300.72
428.28	6392.00
428.46	6417.75
428.65	6471.58
428.84	6661.16
429.03	6579.25
429.22	6319.45
429.40	6532.44
429.59	6656.48
429.78	6120.50
429.97	6366.26
430.16	6527.75
430.34	6693.93
430.53	6782.87
430.72	6876.49
430.91	6633.08
431.10	6780.53
431.28	6984.16
431.47	7075.44
431.66	6920.96
431.85	6892.88
432.03	7028.63
432.22	7166.72
432.41	7066.08
432.60	7073.10
432.79	7091.82
432.97	7255.66
433.16	7239.28
433.35	7180.76
433.54	7279.07
433.72	7258.00
433.91	7410.14
434.10	7304.81
434.28	7407.80
434.47	7576.31
434.66	7428.86
434.85	7548.23
435.03	7480.35
435.22	7583.34
435.41	7665.25
435.59	7489.71
435.78	7431.20
435.97	7772.92
436.16	7735.47
436.34	7564.61
436.53	7925.05
436.72	8016.33
436.90	7777.60
437.09	8102.93
437.28	7838.45
437.46	8013.99
437.65	7927.39
437.84	8046.76
438.02	8100.59
438.21	8180.17
438.40	8182.51
438.58	8510.19
438.77	8414.23
438.96	8507.85
439.14	8575.72
439.33	8603.81
439.52	8587.43
439.70	8557.00
439.89	8842.54
440.08	8870.63
440.26	8889.35
440.45	8809.78
440.63	9167.88
440.82	9097.66
441.01	9132.77
441.19	9221.71
441.38	9296.61
441.57	9324.69
441.75	9315.33
441.94	9699.18
442.12	9518.96
442.31	9745.99
442.50	9692.16
442.68	9717.90
442.87	9816.21
443.05	9748.33
443.24	10143.88
443.43	10001.11
443.61	10076.01
443.80	10230.48
443.98	9844.29
444.17	9385.55
444.35	9970.68
444.54	10242.18
444.73	10040.90
444.91	9893.44
445.10	10031.54
445.28	9921.53
445.47	10040.90
445.65	9987.07
445.84	10176.65
446.02	10183.67
446.21	10209.42
446.39	10071.33
446.58	10317.08
446.77	10300.70
446.95	10160.27
447.14	10244.52
447.32	10167.29
447.51	10342.83
447.69	10399.00
447.88	10485.60
448.06	10399.00
448.25	10153.24
448.43	10186.01
448.62	10146.22
448.80	10384.96
448.99	10298.36
449.17	10590.92
449.36	10623.69
449.54	10799.23
449.73	10906.90
449.91	10942.00
450.10	11009.88
450.28	11080.10
450.46	11063.71
450.65	11129.25
450.83	11119.89
451.02	10960.73
451.20	11393.73
451.39	11222.87
451.57	10972.43
451.76	11061.37
451.94	11000.52
452.13	11309.47
452.31	11239.25
452.49	11171.38
452.68	11133.93
452.86	11424.15
453.05	11321.17
453.23	11323.51
453.42	11274.36
453.60	11508.41
453.78	11557.57
453.97	11445.22
454.15	11522.46
454.34	11800.98
454.52	11899.28
454.70	11920.35
454.89	11941.41
455.07	11726.08
455.26	11882.90
455.44	11918.01
455.62	11866.52
455.81	12002.27
455.99	12100.57
456.17	12194.19
456.36	12280.79
456.54	12332.28
456.73	12334.62
456.91	12713.79
457.09	12821.45
457.28	12793.37
457.46	12828.48
457.64	13135.09
457.83	12781.67
458.01	12720.81
458.19	12947.84
458.38	12835.50
458.56	12849.54
458.74	13123.38
458.93	13128.06
459.11	13062.53
459.29	13193.60
459.48	13186.58
459.66	13207.64
459.84	13371.48
460.03	13343.39
460.21	13221.69
460.39	13577.45
460.57	13165.51
460.76	13549.36
460.94	13652.34
461.12	13214.66
461.31	13692.13
461.49	13628.94
461.67	13376.16
461.85	13834.91
462.04	13963.64
462.22	14361.53
462.40	14068.96
462.59	14085.34
462.77	14078.32
462.95	14387.27
463.13	14214.07
463.32	14181.31
463.50	14129.81
463.68	14382.59
463.86	14384.93
464.05	14331.10
464.23	14265.57
464.41	14539.41
464.59	14008.11
464.78	14466.85
464.96	14539.41
465.14	14492.60
465.32	14892.83
465.50	14738.35
465.69	14897.51
465.87	14534.73
466.05	14677.50
466.23	14686.86
466.41	14941.98
466.60	15281.36
466.78	14925.60
466.96	14780.48
467.14	14892.83
467.32	15302.42
467.51	15344.55
467.69	14897.51
467.87	15220.50
468.05	15260.29
468.23	15379.66
468.41	15211.14
468.60	15555.20
468.78	15618.39
468.96	15288.38
469.14	15690.95
469.32	15798.62
469.50	15236.89
469.69	15662.86
469.87	16002.24
470.05	16112.25
470.23	16145.02
470.41	16016.29
470.59	16318.22
470.77	16042.03
470.95	16313.53
471.14	16388.43
471.32	16093.52
471.50	16837.81
471.68	16695.04
471.86	16554.61
472.04	16812.07
472.22	16950.16
472.40	16776.96
472.58	16685.68
472.77	17378.48
472.95	17266.13
473.13	17715.51
473.31	17219.32
473.49	17338.69
473.67	17455.72
473.85	17530.61
474.03	17947.23
474.21	17853.61
474.39	18122.77
474.57	18197.67
474.75	18274.90
474.93	18366.18
475.12	18281.92
475.30	18476.19
475.48	18249.16
475.66	18675.13
475.84	18773.44
476.02	19037.92
476.20	19002.81
476.38	19274.31
476.56	19620.71
476.74	19555.18
476.92	19697.95
477.10	19435.81
477.28	19976.47
477.46	19693.27
477.64	20042.01
477.82	20379.04
478.00	20767.57
478.18	20730.12
478.36	21076.52
478.54	21090.57
478.72	21238.02
478.90	21413.56
479.08	21490.80
479.26	21556.33
479.44	21731.87
479.62	21996.35
479.80	21759.96
479.98	22342.75
480.16	22965.34
480.34	22441.06
480.52	22927.89
480.70	23248.54
480.88	22796.82
481.06	23346.84
481.24	23271.95
481.41	23494.30
481.59	23761.12
481.77	24299.44
481.95	24444.56
482.13	24414.13
482.31	24119.22
482.49	24758.19
482.67	24795.64
482.85	25362.04
483.03	25401.83
483.21	25661.63
483.39	25785.68
483.57	25727.17
483.74	25771.64
483.92	26445.71
484.10	26120.38
484.28	26930.20
484.46	26761.69
484.64	27777.48
484.82	27241.50
485.00	27213.41
485.18	27892.16
485.35	28332.18
485.53	28299.42
485.71	28348.57
485.89	29237.97
486.07	28779.23
486.25	29003.92
486.43	29240.31
486.61	29757.57
486.78	29544.58
486.96	29642.88
487.14	30654.00
487.32	30244.40
487.50	30607.19
487.68	30766.34
487.85	31484.89
488.03	31402.97
488.21	31936.61
488.39	31882.78
488.57	31985.76
488.75	31840.65
488.92	32821.33
489.10	32697.28
489.28	32959.42
489.46	33755.21
489.64	33294.12
489.81	34333.32
489.99	34359.06
490.17	34433.96
490.35	34810.79
490.53	34822.49
490.70	35143.14
490.88	35122.08
491.06	35072.93
491.24	36039.57
491.41	35658.06
491.59	35800.83
491.77	36058.29
491.95	36521.72
492.13	36685.56
492.30	37053.02
492.48	37287.07
492.66	37373.67
492.84	37043.66
493.01	37961.15
493.19	38010.30
493.37	37963.49
493.54	38279.46
493.72	38836.51
493.90	38649.27
494.08	39084.61
494.25	39541.01
494.43	39828.90
494.61	39934.22
494.79	40318.07
494.96	39995.07
495.14	40411.69
495.32	40774.47
495.49	40727.66
495.67	41158.32
495.85	41736.43
496.02	41656.85
496.20	41874.52
496.38	42131.98
496.55	41612.38
496.73	42913.72
496.91	42644.56
497.09	43077.56
497.26	43105.65
497.44	43072.88
497.62	43133.73
497.79	43543.33
497.97	43629.93
498.14	44037.18
498.32	44144.84
498.50	44587.21
498.67	44926.58
498.85	44453.79
499.03	44818.92
499.20	44720.62
499.38	44994.46
499.56	45303.41
499.73	45469.59
499.91	45553.85
500.08	45900.25
500.26	45483.63
500.44	45944.72
500.61	45738.75
500.79	46096.85
500.97	46899.65
501.14	46918.38
501.32	47136.05
501.49	47250.74
501.67	47100.94
501.84	47206.26
502.02	47494.15
502.20	48009.07
502.37	48243.12
502.55	47980.98
502.72	48025.45
502.90	48030.13
503.07	47641.60
503.25	48318.02
503.43	48231.42
503.60	48617.61
503.78	48718.25
503.95	48666.76
504.13	48938.26
504.30	48872.73
504.48	48884.43
504.65	49125.50
504.83	49930.65
505.01	49792.56
505.18	49645.10
505.36	50108.53
505.53	49710.64
505.71	49717.66
505.88	49734.04
506.06	49605.31
506.23	50679.62
506.41	50255.98
506.58	50401.10
506.76	50506.42
506.93	50976.87
507.11	50773.24
507.28	50679.62
507.46	50951.12
507.63	51140.71
507.81	51426.25
507.98	51168.79
508.16	51562.00
508.33	51662.64
508.50	51693.07
508.68	51826.48
508.85	51877.97
509.03	51894.36
509.20	52229.05
509.38	52729.93
509.55	52554.39
509.73	52481.83
509.90	52399.91
510.08	52339.06
510.25	52640.99
510.42	52818.87
510.60	53001.43
510.77	53064.63
510.95	53310.38
511.12	52921.85
511.30	53064.63
511.47	53296.34
511.64	53535.07
511.82	53712.95
511.99	53731.68
512.17	53680.19
512.34	53837.00
512.51	53837.00
512.69	53961.05
512.86	54042.97
513.04	54237.23
513.21	54248.94
513.38	54548.53
513.56	54358.94
513.73	54220.85
513.90	54398.73
514.08	54454.90
514.25	54724.07
514.43	54791.94
514.60	54981.52
514.77	54988.55
514.95	54817.69
515.12	54813.01
515.29	55030.68
515.47	55405.16
515.64	55372.39
515.81	55374.73
515.99	55503.46
516.16	55543.25
516.33	55667.30
516.51	55470.70
516.68	55496.44
516.85	55498.78
517.03	55613.47
517.20	55950.51
517.37	55838.16
517.54	56062.85
517.72	55945.83
517.89	56016.04
518.06	56149.45
518.24	56095.62
518.41	56214.99
518.58	56116.68
518.75	56257.12
518.93	56533.30
519.10	56512.23
519.27	56605.86
519.45	56409.25
519.62	56612.88
519.79	56727.56
519.96	56643.30
520.14	56781.40
520.31	56814.16
520.48	57097.37
520.65	56811.82
520.83	57167.58
521.00	57247.16
521.17	57109.07
521.34	57202.69
521.52	57286.95
521.69	57212.06
521.86	57513.98
522.03	57551.43
522.20	57748.04
522.38	57544.41
522.55	57668.46
522.72	57682.50
522.89	57738.68
523.07	58075.71
523.24	57769.10
523.41	58066.35
523.58	57801.87
523.75	58054.65
523.92	58024.22
524.10	57963.37
524.27	58131.89
524.44	58269.98
524.61	58534.46
524.78	58527.44
524.96	58440.84
525.13	58457.22
525.30	58412.75
525.47	58410.41
525.64	58637.44
525.81	58749.79
525.98	58712.34
526.16	58848.09
526.33	58763.83
526.50	58878.52
526.67	58862.13
526.84	58890.22
527.01	58876.18
527.18	59056.40
527.36	59238.96
527.53	59313.86
527.70	59341.94
527.87	59269.39
528.04	59037.67
528.21	59245.98
528.38	59203.85
528.55	59461.31
528.72	59213.21
528.89	59561.95
529.07	59482.37
529.24	59540.89
529.41	59632.17
529.58	59475.35
529.75	59629.83
529.92	59557.27
530.09	59671.96
530.26	59770.26
530.43	59849.84
530.60	59688.34
530.77	59882.61
530.94	59655.57
531.11	59936.44
531.28	59810.05
531.46	59943.46
531.63	60154.11
531.80	60149.43
531.97	60186.88
532.14	60083.89
532.31	60053.47
532.48	60212.62
532.65	60336.67
532.82	60229.01
532.99	60229.01
533.16	60460.72
533.33	60809.46
533.50	60727.54
533.67	60654.98
533.84	60509.87
534.01	60425.61
534.18	60327.31
534.35	60706.47
534.52	60582.43
534.69	60935.85
534.86	60762.65
535.03	60636.26
535.20	60891.38
535.37	60945.21
535.54	61041.17
535.71	60874.99
535.88	61083.30
536.05	61017.77
536.22	61158.20
536.38	61265.86
536.55	61219.05
536.72	61453.11
536.89	61151.18
537.06	61205.01
537.23	61057.56
537.40	61076.28
537.57	61202.67
537.74	61371.19
537.91	61429.70
538.08	61588.86
538.25	61347.78
538.42	61638.01
538.59	61556.09
538.75	61176.92
538.92	61422.68
539.09	61638.01
539.26	61801.85
539.43	61740.99
539.60	61872.06
539.77	61843.98
539.94	61986.75
540.11	61834.61
540.28	61851.00
540.44	61867.38
540.61	61832.27
540.78	61900.15
540.95	61965.68
541.12	61946.96
541.29	61925.89
541.46	61939.94
541.62	61928.23
541.79	61930.58
541.96	61778.44
542.13	62323.78
542.30	62136.54
542.47	62323.78
542.63	62351.87
542.80	62281.66
542.97	62499.33
543.14	62567.20
543.31	62504.01
543.48	62569.54
543.64	62707.63
543.81	62880.83
543.98	62651.46
544.15	62752.10
544.32	62864.45
544.48	62841.04
544.65	62742.74
544.82	62805.94
544.99	62461.88
545.16	62859.77
545.32	62827.00
545.49	63128.93
545.66	63103.18
545.83	63000.20
546.00	63098.50
546.16	63068.08
546.33	62681.89
546.50	62599.97
546.67	62951.05
546.83	62892.54
547.00	63079.78
547.17	63079.78
547.34	63037.65
547.50	63180.42
547.67	63306.81
547.84	63135.95
548.00	63194.46
548.17	63323.19
548.34	63245.96
548.51	63353.62
548.67	63348.94
548.84	63678.96
549.01	63400.43
549.18	63426.18
549.34	63325.53
549.51	63341.92
549.68	63451.92
549.84	63451.92
550.01	63381.71
550.18	63475.33
550.34	63669.59
550.51	63723.43
550.68	63725.77
550.84	63463.63
551.01	63676.61
551.18	63620.44
551.34	63522.14
551.51	63854.50
551.68	63798.32
551.84	63828.75
552.01	63639.17
552.18	64020.67
552.34	63831.09
552.51	63882.58
552.68	63831.09
552.84	63964.50
553.01	64032.38
553.18	63994.93
553.34	64182.17
553.51	63976.20
553.67	64130.68
553.84	64198.55
554.01	64158.76
554.17	64118.98
554.34	64221.96
554.51	64184.51
554.67	64219.62
554.84	64423.25
555.00	64151.74
555.17	64282.81
555.33	64346.01
555.50	64397.50
555.67	64177.49
555.83	64346.01
556.00	64205.58
556.16	64226.64
556.33	64601.13
556.50	64390.48
556.66	64474.74
556.83	64523.89
556.99	64566.02
557.16	64645.60
557.32	64626.87
557.49	64835.18
557.65	64348.35
557.82	64479.42
557.98	64657.30
558.15	64601.13
558.32	64507.50
558.48	64615.17
558.65	64764.96
558.81	64870.29
558.98	64650.28
559.14	64608.15
559.31	64636.23
559.47	64650.28
559.64	64790.71
559.80	64764.96
559.97	64713.47
560.13	64954.55
560.30	64942.84
560.46	64992.00
560.63	64872.63
560.79	64987.31
560.96	64809.43
561.12	64842.20
561.29	64823.48
561.45	64914.76
561.61	64956.89
561.78	65165.20
561.94	65078.60
562.11	65125.41
562.27	65073.91
562.44	65071.57
562.60	64898.37
562.77	65024.76
562.93	64823.48
563.10	65256.48
563.26	65116.04
563.42	65219.03
563.59	65284.56
563.75	65169.88
563.92	65270.52
564.08	65036.47
564.24	65165.20
564.41	65090.30
564.57	65078.60
564.74	65139.45
564.90	65233.07
565.07	65226.05
565.23	65469.46
565.39	65403.93
565.56	65310.31
565.72	65221.37
565.88	65427.34
566.05	65277.54
566.21	65406.27
566.38	65155.83
566.54	65272.86
566.70	65535.00
566.87	65502.23
567.03	65401.59
567.19	65535.00
567.36	65382.87
567.52	65223.71
567.68	65497.55
567.85	65436.70
568.01	65455.42
568.17	65401.59
568.34	65448.40
568.50	65535.00
568.66	65446.06
568.83	65471.81
568.99	65453.08
569.15	65527.98
569.32	65307.97
569.48	65329.03
569.64	65535.00
569.81	65453.08
569.97	65535.00
570.13	65513.94
570.30	65513.94
570.46	65535.00
570.62	65535.00
570.78	65535.00
570.95	65432.02
571.11	65513.94
571.27	65490.53
571.43	65350.10
571.60	65506.91
571.76	65535.00
571.92	65535.00
572.09	65535.00
572.25	65535.00
572.41	65535.00
572.57	65535.00
572.74	65535.00
572.90	65535.00
573.06	65535.00
573.22	65523.30
573.38	65535.00
573.55	65535.00
573.71	65535.00
573.87	65535.00
574.03	65535.00
574.20	65535.00
574.36	65535.00
574.52	65535.00
574.68	65535.00
574.84	65535.00
575.01	65535.00
575.17	65535.00
575.33	65535.00
575.49	65535.00
575.65	65535.00
575.82	65535.00
575.98	65535.00
576.14	65535.00
576.30	65535.00
576.46	65535.00
576.62	65535.00
576.79	65535.00
576.95	65535.00
577.11	65535.00
577.27	65535.00
577.43	65535.00
577.59	65535.00
577.75	65535.00
577.92	65535.00
578.08	65535.00
578.24	65535.00
578.40	65535.00
578.56	65535.00
578.72	65535.00
578.88	65535.00
579.04	65535.00
579.21	65535.00
579.37	65535.00
579.53	65535.00
579.69	65535.00
579.85	65535.00
580.01	65535.00
580.17	65535.00
580.33	65535.00
580.49	65535.00
580.65	65535.00
580.82	65535.00
580.98	65535.00
581.14	65535.00
581.30	65535.00
581.46	65535.00
581.62	65535.00
581.78	65535.00
581.94	65535.00
582.10	65535.00
582.26	65535.00
582.42	65535.00
582.58	65535.00
582.74	65535.00
582.90	65535.00
583.06	65535.00
583.22	65535.00
583.38	65535.00
583.54	65535.00
583.70	65535.00
583.86	65535.00
584.02	65535.00
584.18	65535.00
584.34	65535.00
584.50	65535.00
584.66	65535.00
584.82	65535.00
584.98	65535.00
585.14	65535.00
585.30	65535.00
585.46	65535.00
585.62	65535.00
585.78	65535.00
585.94	65535.00
586.10	65535.00
586.26	65535.00
586.42	65535.00
586.58	65535.00
586.74	65535.00
586.90	65535.00
587.06	65535.00
587.22	65535.00
587.38	65535.00
587.54	65535.00
587.70	65535.00
587.86	65535.00
588.02	65535.00
588.18	65535.00
