SpectraSuite Data File
++++++++++++++++++++++++++++++++++++
Date: Fri Oct 04 11:48:47 GMT-05:00 2013
User: price-jones
Dark Spectrum Present: No
Reference Spectrum Present: No
Number of Sampled Component Spectra: 1
Spectrometers: USB2+H05261
Integration Time (usec): 100000 (USB2+H05261)
Spectra Averaged: 1 (USB2+H05261)
Boxcar Smoothing: 0 (USB2+H05261)
Correct for Electrical Dark: No (USB2+H05261)
Strobe/Lamp Enabled: No (USB2+H05261)
Correct for Detector Non-linearity: No (USB2+H05261)
Correct for Stray Light: No (USB2+H05261)
Number of Pixels in Processed Spectrum: 2048
>>>>>Begin Processed Spectral Data<<<<<
365.73	98.30
365.92	98.30
366.12	98.30
366.32	0.00
366.52	0.00
366.72	0.00
366.91	0.00
367.11	0.00
367.31	0.00
367.51	0.00
367.70	0.00
367.90	0.00
368.10	0.00
368.30	0.00
368.49	0.00
368.69	0.00
368.89	25.75
369.09	0.00
369.28	0.00
369.48	0.00
369.68	0.00
369.87	0.00
370.07	0.00
370.27	51.49
370.47	93.62
370.66	444.70
370.86	454.06
371.06	447.04
371.25	449.38
371.45	533.64
371.65	409.59
371.84	454.06
372.04	423.64
372.24	519.60
372.44	507.90
372.63	475.13
372.83	585.13
373.03	599.18
373.22	575.77
373.42	596.84
373.62	519.60
373.81	510.24
374.01	545.34
374.21	627.26
374.40	716.20
374.60	617.90
374.79	645.99
374.99	709.18
375.19	608.54
375.38	662.37
375.58	641.31
375.78	629.60
375.97	690.46
376.17	734.93
376.37	594.50
376.56	683.44
376.76	629.60
376.95	655.35
377.15	744.29
377.35	711.52
377.54	763.01
377.74	695.14
377.93	784.08
378.13	685.78
378.33	734.93
378.52	720.88
378.72	744.29
378.91	716.20
379.11	709.18
379.31	791.10
379.50	688.12
379.70	741.95
379.89	763.01
380.09	835.57
380.28	868.34
380.48	795.78
380.68	739.61
380.87	791.10
381.07	763.01
381.26	828.55
381.46	802.80
381.65	910.47
381.85	823.87
382.04	887.06
382.24	821.53
382.43	894.08
382.63	884.72
382.83	833.23
383.02	828.55
383.22	959.62
383.41	847.27
383.61	875.36
383.80	875.36
384.00	891.74
384.19	985.37
384.39	957.28
384.58	922.17
384.78	905.79
384.97	945.58
385.17	999.41
385.36	919.83
385.56	1015.79
385.75	833.23
385.95	1025.15
386.14	987.71
386.34	1013.45
386.53	1006.43
386.72	903.45
386.92	976.00
387.11	1036.86
387.31	1139.84
387.50	1029.84
387.70	961.96
387.89	959.62
388.09	1020.47
388.28	1050.90
388.48	1004.09
388.67	1076.65
388.86	1048.56
389.06	1121.12
389.25	1118.78
389.45	1132.82
389.64	1067.28
389.84	1249.85
390.03	1217.08
390.22	1144.52
390.42	1200.69
390.61	1139.84
390.81	1217.08
391.00	1249.85
391.19	1242.82
391.39	1247.51
391.58	1170.27
391.78	1289.64
391.97	1219.42
392.16	1282.61
392.36	1430.07
392.55	1345.81
392.75	1331.76
392.94	1348.15
393.13	1390.28
393.33	1282.61
393.52	1336.45
393.71	1483.90
393.91	1273.25
394.10	1420.71
394.29	1308.36
394.49	1472.20
394.68	1460.49
394.88	1526.03
395.07	1514.33
395.26	1579.86
395.46	1504.96
395.65	1486.24
395.84	1469.86
396.04	1600.93
396.23	1589.22
396.42	1612.63
396.62	1558.80
396.81	1614.97
397.00	1673.48
397.19	1556.46
397.39	1535.39
397.58	1624.33
397.77	1650.08
397.97	1643.06
398.16	1614.97
398.35	1671.14
398.55	1713.27
398.74	1717.95
398.93	1713.27
399.12	1816.26
399.32	1748.38
399.51	1762.42
399.70	1797.53
399.90	1907.54
400.09	1795.19
400.28	1877.11
400.47	1788.17
400.67	1884.13
400.86	1909.88
401.05	1954.35
401.24	1799.87
401.44	2015.20
401.63	1984.77
401.82	1851.36
402.01	1872.43
402.21	2019.88
402.40	2050.31
402.59	2059.67
402.78	2033.93
402.97	2078.40
403.17	2062.01
403.36	2050.31
403.55	2115.84
403.74	2190.74
403.93	2169.68
404.13	2216.49
404.32	2209.47
404.51	2195.42
404.70	2275.00
404.89	2228.19
405.09	2228.19
405.28	2251.60
405.47	2485.65
405.66	2394.37
405.85	2408.41
406.05	2373.30
406.24	2375.64
406.43	2464.58
406.62	2459.90
406.81	2502.03
407.00	2462.24
407.20	2445.86
407.39	2431.82
407.58	2487.99
407.77	2541.82
407.96	2595.65
408.15	2597.99
408.34	2605.02
408.54	2738.43
408.73	2658.85
408.92	2813.32
409.11	2708.00
409.30	2717.36
409.49	2679.91
409.68	2719.70
409.87	2761.83
410.07	2834.39
410.26	2869.50
410.45	2902.26
410.64	2913.97
410.83	2853.11
411.02	2974.82
411.21	3066.10
411.40	3052.06
411.59	3103.55
411.78	2958.44
411.98	3094.19
412.17	3122.27
412.36	3112.91
412.55	3307.18
412.74	3251.00
412.93	3258.03
413.12	3133.98
413.31	3337.60
413.50	3227.60
413.69	3330.58
413.88	3463.99
414.07	3508.46
414.26	3461.65
414.45	3475.70
414.64	3597.40
414.83	3653.58
415.02	3632.51
415.22	3644.21
415.41	3775.28
415.60	3810.39
415.79	3866.56
415.98	3754.22
416.17	3744.86
416.36	3915.72
416.55	3920.40
416.74	3880.61
416.93	4011.68
417.12	3990.61
417.31	4140.41
417.50	4121.68
417.69	4126.36
417.88	4161.47
418.07	4166.15
418.26	4264.46
418.45	4259.78
418.64	4327.65
418.83	4369.78
419.02	4161.47
419.21	4332.33
419.39	4362.76
419.58	4367.44
419.77	4180.20
419.96	4552.34
420.15	4479.79
420.34	4512.55
420.53	4475.10
420.72	4580.43
420.91	4741.93
421.10	4664.69
421.29	4737.24
421.48	4550.00
421.67	4528.94
421.86	4624.90
422.05	4697.46
422.24	4629.58
422.43	4730.22
422.61	4809.80
422.80	4732.56
422.99	4784.06
423.18	4851.93
423.37	4819.16
423.56	4854.27
423.75	4849.59
423.94	4720.86
424.13	4594.47
424.32	4667.03
424.50	4905.76
424.69	5053.22
424.88	4905.76
425.07	4777.03
425.26	4807.46
425.45	4851.93
425.64	4943.21
425.83	5004.07
426.01	4837.89
426.20	4978.32
426.39	4999.38
426.58	4873.00
426.77	5076.62
426.96	4952.57
427.15	5085.98
427.33	5097.69
427.52	4943.21
427.71	5142.16
427.90	5130.45
428.09	5301.31
428.28	5270.89
428.46	5315.36
428.65	5210.03
428.84	5458.13
429.03	5533.03
429.22	5193.65
429.40	5387.91
429.59	5451.11
429.78	5132.79
429.97	5149.18
430.16	5170.24
430.34	5366.85
430.53	5558.77
430.72	5701.54
430.91	5514.30
431.10	5439.40
431.28	5689.84
431.47	5841.98
431.66	5912.19
431.85	5624.31
432.03	5944.96
432.22	5975.39
432.41	5975.39
432.60	5928.58
432.79	5750.70
432.97	5930.92
433.16	6019.86
433.35	5806.87
433.54	5919.21
433.72	6078.37
433.91	6129.86
434.10	5996.45
434.28	6015.18
434.47	6155.61
434.66	6202.42
434.85	6410.73
435.03	6146.25
435.22	6291.36
435.41	6317.11
435.59	6366.26
435.78	6244.55
435.97	6296.04
436.16	6284.34
436.34	6459.88
436.53	6335.83
436.72	6546.48
436.90	6232.85
437.09	6560.52
437.28	6487.96
437.46	6483.28
437.65	6462.22
437.84	6722.02
438.02	6497.33
438.21	6640.10
438.40	6607.33
438.58	6935.01
438.77	7124.59
438.96	6909.26
439.14	6974.80
439.33	7122.25
439.52	7206.51
439.70	7040.33
439.89	7386.73
440.08	7288.43
440.26	7293.11
440.45	7323.54
440.63	7342.26
440.82	7494.40
441.01	7452.27
441.19	7679.30
441.38	7702.70
441.57	7686.32
441.75	7672.28
441.94	7810.37
442.12	7892.29
442.31	8074.85
442.50	7868.88
442.68	7903.99
442.87	7962.50
443.05	8100.59
443.24	8175.49
443.43	8116.98
443.61	8201.24
443.80	8306.56
443.98	8119.32
444.17	7960.16
444.35	8133.36
444.54	8327.63
444.73	8241.03
444.91	8259.75
445.10	8255.07
445.28	8278.47
445.47	8313.58
445.65	8278.47
445.84	8425.93
446.02	8318.26
446.21	8496.14
446.39	8428.27
446.58	8465.72
446.77	8465.72
446.95	8388.48
447.14	8454.02
447.32	8418.91
447.51	8568.70
447.69	8528.91
447.88	8489.12
448.06	8479.76
448.25	8367.42
448.43	8376.78
448.62	8599.13
448.80	8798.07
448.99	8613.17
449.17	8809.78
449.36	8650.62
449.54	8720.84
449.73	8901.06
449.91	8908.08
450.10	8912.76
450.28	9210.01
450.46	8926.80
450.65	9015.74
450.83	9095.32
451.02	8968.93
451.20	9338.74
451.39	9135.11
451.57	9191.28
451.76	9132.77
451.94	9268.52
452.13	9259.16
452.31	9163.20
452.49	9132.77
452.68	9277.88
452.86	9434.70
453.05	9502.58
453.23	9479.17
453.42	9465.13
453.60	9488.53
453.78	9607.90
453.97	9504.92
454.15	9488.53
454.34	9437.04
454.52	9769.40
454.70	9671.09
454.89	9570.45
455.07	9781.10
455.26	9692.16
455.44	9809.19
455.62	9870.04
455.81	9832.59
455.99	9944.94
456.17	10054.94
456.36	10190.69
456.54	10314.74
456.73	10120.48
456.91	10251.55
457.09	10286.65
457.28	10537.09
457.46	10284.31
457.64	10476.24
457.83	10469.22
458.01	10349.85
458.19	10487.94
458.38	10424.75
458.56	10644.76
458.74	10766.46
458.93	10686.89
459.11	10668.16
459.29	10670.50
459.48	10841.36
459.66	10878.81
459.84	10998.18
460.03	10998.18
460.21	11042.65
460.39	11101.16
460.57	10888.17
460.76	10934.98
460.94	11255.64
461.12	11339.90
461.31	10927.96
461.49	11297.77
461.67	11239.25
461.85	11173.72
462.04	11506.07
462.22	12149.72
462.40	11630.12
462.59	11698.00
462.77	11763.53
462.95	11665.23
463.13	11763.53
463.32	11726.08
463.50	11492.03
463.68	11648.85
463.86	11800.98
464.05	11276.70
464.23	11578.63
464.41	11831.41
464.59	11604.38
464.78	11843.11
464.96	11817.36
465.14	11693.32
465.32	11992.90
465.50	12236.32
465.69	12182.49
465.87	12217.60
466.05	11969.50
466.23	12320.58
466.41	12114.61
466.60	12421.22
466.78	12226.96
466.96	12236.32
467.14	12161.42
467.32	12409.52
467.51	12734.85
467.69	12102.91
467.87	12341.64
468.05	12388.46
468.23	12346.33
468.41	12229.30
468.60	12748.90
468.78	12706.77
468.96	12608.47
469.14	12903.37
469.32	13209.98
469.50	12561.66
469.69	12833.16
469.87	13226.37
470.05	13095.30
470.23	13142.11
470.41	13231.05
470.59	13305.95
470.77	12996.99
470.95	13242.75
471.14	13490.85
471.32	13448.72
471.50	13703.84
471.68	13586.81
471.86	13408.93
472.04	13528.30
472.22	14122.79
472.40	13596.17
472.58	14033.85
472.77	14008.11
472.95	13940.23
473.13	14354.51
473.31	13844.27
473.49	14265.57
473.67	14352.16
473.85	13940.23
474.03	14565.15
474.21	14597.92
474.39	14637.71
474.57	14551.11
474.75	14977.09
474.93	14913.89
475.12	14743.03
475.30	15180.71
475.48	15019.22
475.66	15276.68
475.84	15288.38
476.02	15510.73
476.20	15576.27
476.38	15644.14
476.56	16067.78
476.74	15880.53
476.92	15784.57
477.10	16009.26
477.28	16278.43
477.46	16248.00
477.64	16116.93
477.82	16730.15
478.00	17137.40
478.18	16893.99
478.36	17099.95
478.54	17224.00
478.72	17334.01
478.90	17451.03
479.08	17607.85
479.26	17666.36
479.44	17408.90
479.62	18078.30
479.80	17970.63
479.98	18043.19
480.16	18286.61
480.34	18417.68
480.52	18675.13
480.70	18902.17
480.88	18885.78
481.06	18836.63
481.24	19105.79
481.41	19028.56
481.59	19555.18
481.77	19339.85
481.95	19569.22
482.13	19669.86
482.31	19845.40
482.49	19922.64
482.67	19882.85
482.85	20711.40
483.03	20814.38
483.21	20886.94
483.39	20959.50
483.57	21109.29
483.74	21113.97
483.92	21518.89
484.10	21151.42
484.28	22022.10
484.46	22160.19
484.64	22595.53
484.82	22085.30
485.00	22080.61
485.18	22843.63
485.35	23192.37
485.53	22834.27
485.71	23183.01
485.89	23672.18
486.07	23510.68
486.25	23805.59
486.43	23873.46
486.61	24315.83
486.78	24540.52
486.96	24704.35
487.14	24741.80
487.32	24685.63
487.50	25146.72
487.68	24706.70
487.85	25504.82
488.03	25860.58
488.21	25926.11
488.39	26190.59
488.57	26040.80
488.75	26321.66
488.92	26462.10
489.10	27002.76
489.28	27072.98
489.46	27639.39
489.64	27255.54
489.81	27843.01
489.99	27709.60
490.17	27838.33
490.35	28327.50
490.53	28236.22
490.70	28620.07
490.88	28945.41
491.06	29156.05
491.24	28884.55
491.41	29097.54
491.59	29490.75
491.77	29792.68
491.95	30024.39
492.13	29912.05
492.30	30321.64
492.48	30476.12
492.66	30398.88
492.84	30501.86
493.01	30448.03
493.19	30920.82
493.37	31213.38
493.54	31594.89
493.72	31758.73
493.90	31613.62
494.08	31885.12
494.25	32458.55
494.43	32512.38
494.61	32744.09
494.79	32945.38
494.96	32613.02
495.14	33053.05
495.32	33572.64
495.49	33144.33
495.67	33572.64
495.85	34323.96
496.02	34075.86
496.20	34094.58
496.38	34085.22
496.55	34361.40
496.73	35370.18
496.91	34778.02
497.09	34831.85
497.26	35545.72
497.44	35447.41
497.62	35473.16
497.79	36006.80
497.97	35849.99
498.14	36339.16
498.32	36526.40
498.50	36503.00
498.67	36617.68
498.85	37043.66
499.03	36868.12
499.20	37106.85
499.38	37174.73
499.56	37649.86
499.73	37762.20
499.91	37663.90
500.08	37816.04
500.26	37687.31
500.44	38354.36
500.61	37497.72
500.79	38377.76
500.97	38785.02
501.14	39070.56
501.32	38410.53
501.49	39152.48
501.67	38888.00
501.84	39117.37
502.02	39232.06
502.20	39723.57
502.37	39667.40
502.55	39545.69
502.72	39838.26
502.90	39765.70
503.07	39840.60
503.25	39840.60
503.43	40552.12
503.60	40547.44
503.78	40531.06
503.95	40690.21
504.13	40832.99
504.30	40786.18
504.48	40732.34
504.65	40957.03
504.83	41530.47
505.01	41581.96
505.18	41888.57
505.36	42082.83
505.53	41701.32
505.71	41670.90
505.88	41652.17
506.06	42127.30
506.23	42532.22
506.41	42487.74
506.58	42204.54
506.76	42436.25
506.93	42541.58
507.11	42265.39
507.28	42981.60
507.46	42918.40
507.63	43775.04
507.81	43674.40
507.98	43138.41
508.16	43686.10
508.33	43533.96
508.50	43545.67
508.68	43875.68
508.85	44369.54
509.03	44067.61
509.20	45146.59
509.38	44875.09
509.55	44884.45
509.73	44605.93
509.90	44992.12
510.08	45146.59
510.25	45132.55
510.42	45476.61
510.60	45258.94
510.77	45729.39
510.95	45359.58
511.12	45984.51
511.30	45998.55
511.47	45844.07
511.64	45790.24
511.82	45986.85
511.99	46153.02
512.17	46120.26
512.34	46539.21
512.51	46330.90
512.69	46618.79
512.86	46670.28
513.04	46948.81
513.21	47072.85
513.38	47077.54
513.56	47459.04
513.73	47103.28
513.90	47395.85
514.08	47365.42
514.25	47452.02
514.43	47906.08
514.60	47840.55
514.77	47753.95
514.95	48130.78
515.12	47899.06
515.29	48250.14
515.47	48137.80
515.64	48825.92
515.81	48168.22
515.99	48744.00
516.16	48851.66
516.33	49029.54
516.51	48931.24
516.68	48821.23
516.85	48734.63
517.03	49289.34
517.20	49357.22
517.37	49359.56
517.54	49499.99
517.72	49443.82
517.89	49443.82
518.06	49478.92
518.24	49509.35
518.41	49617.02
518.58	49757.45
518.75	49787.88
518.93	50094.49
519.10	49705.96
519.27	50330.88
519.45	49846.39
519.62	49996.18
519.79	50213.85
519.96	50263.00
520.14	50845.80
520.31	50557.91
520.48	50665.58
520.65	50646.85
520.83	50717.07
521.00	51297.52
521.17	50930.06
521.34	51042.40
521.52	50880.91
521.69	51077.51
521.86	51220.28
522.03	51416.89
522.20	51339.65
522.38	51861.59
522.55	51468.38
522.72	51510.51
522.89	51859.25
523.07	52240.76
523.24	52027.77
523.41	52069.90
523.58	51774.99
523.75	51924.78
523.92	51767.97
524.10	52238.42
524.27	52458.43
524.44	52371.83
524.61	52720.57
524.78	52673.76
524.96	52449.06
525.13	52378.85
525.30	52793.12
525.47	52945.26
525.64	52725.25
525.81	52828.23
525.98	53139.52
526.16	53038.88
526.33	52858.66
526.50	53399.32
526.67	52762.70
526.84	53132.50
527.01	52896.11
527.18	53392.30
527.36	53464.86
527.53	53406.34
527.70	53670.82
527.87	53659.12
528.04	53462.52
528.21	53703.59
528.38	53378.26
528.55	53675.51
528.72	53488.26
528.89	53780.83
529.07	53853.39
529.24	53668.48
529.41	53879.13
529.58	53738.70
529.75	53989.14
529.92	54195.10
530.09	53998.50
530.26	54375.33
530.43	54026.59
530.60	53799.55
530.77	53996.16
530.94	54356.60
531.11	54445.54
531.28	53986.80
531.46	54494.69
531.63	54536.82
531.80	54326.17
531.97	54642.15
532.14	54630.44
532.31	54695.98
532.48	54480.65
532.65	55011.95
532.82	54813.01
532.99	54813.01
533.16	54740.45
533.33	55330.26
533.50	55241.32
533.67	55121.96
533.84	54960.46
534.01	54876.20
534.18	54822.37
534.35	55348.99
534.52	55278.77
534.69	55454.31
534.86	55587.72
535.03	55297.50
535.20	55405.16
535.37	55449.63
535.54	55458.99
535.71	55454.31
535.88	55522.19
536.05	55566.66
536.22	55821.78
536.38	55671.98
536.55	55870.93
536.72	55950.51
536.89	55559.64
537.06	55805.39
537.23	55915.40
537.40	55765.60
537.57	55861.57
537.74	56086.26
537.91	56343.72
538.08	56198.60
538.25	55971.57
538.42	56128.39
538.59	56107.32
538.75	55938.80
538.92	56011.36
539.09	56203.28
539.26	56420.95
539.43	56324.99
539.60	56418.61
539.77	56397.55
539.94	56591.81
540.11	56498.19
540.28	56259.46
540.44	56486.49
540.61	56498.19
540.78	56647.99
540.95	56561.39
541.12	56633.94
541.29	56699.48
541.46	56743.95
541.62	56669.05
541.79	56575.43
541.96	56545.00
542.13	56823.53
542.30	57158.22
542.47	56893.74
542.63	56940.55
542.80	57127.80
542.97	57162.90
543.14	57275.25
543.31	57474.20
543.48	57088.01
543.64	57408.66
543.81	57509.30
543.98	57551.43
544.15	57668.46
544.32	57293.97
544.48	57794.85
544.65	57422.70
544.82	57631.01
544.99	57612.29
545.16	57631.01
545.32	57509.30
545.49	57773.78
545.66	57897.83
545.83	57895.49
546.00	58014.86
546.16	57684.84
546.33	57668.46
546.50	57392.28
546.67	57897.83
546.83	57577.18
547.00	57799.53
547.17	57851.02
547.34	58017.20
547.50	57977.41
547.67	58269.98
547.84	58110.82
548.00	58262.96
548.17	58117.84
548.34	57975.07
548.51	58288.70
548.67	58094.44
548.84	58281.68
549.01	58068.69
549.18	58082.73
549.34	58333.17
549.51	58019.54
549.68	58239.55
549.84	58082.73
550.01	58415.09
550.18	58281.68
550.34	58609.35
550.51	58745.11
550.68	58618.72
550.84	58244.23
551.01	58513.39
551.18	58454.88
551.34	58255.93
551.51	58485.31
551.68	58761.49
551.84	58642.12
552.01	58749.79
552.18	58934.69
552.34	58604.67
552.51	58871.49
552.68	58698.30
552.84	58742.77
553.01	58824.68
553.18	58618.72
553.34	59107.89
553.51	58742.77
553.67	59025.97
553.84	59208.53
554.01	59180.45
554.17	59032.99
554.34	59035.33
554.51	59152.36
554.67	59025.97
554.84	59243.64
555.00	59044.69
555.17	59065.76
555.33	59119.59
555.50	59086.82
555.67	59051.72
555.83	59056.40
556.00	59210.87
556.16	59257.68
556.33	59217.89
556.50	59194.49
556.66	59306.83
556.83	59245.98
556.99	59636.85
557.16	59653.23
557.32	59447.27
557.49	59475.35
557.65	59164.06
557.82	59426.20
557.98	59433.22
558.15	59576.00
558.32	59440.24
558.48	59480.03
558.65	59573.66
558.81	59707.07
558.98	59660.26
559.14	59386.41
559.31	59650.89
559.47	59634.51
559.64	59791.33
559.80	59664.94
559.97	59615.79
560.13	59655.57
560.30	59695.36
560.46	59922.40
560.63	59580.68
560.79	59807.71
560.96	59796.01
561.12	59629.83
561.29	59732.81
561.45	59744.51
561.61	59868.56
561.78	59812.39
561.94	59678.98
562.11	59964.52
562.27	59735.15
562.44	59756.22
562.60	59861.54
562.77	59714.09
562.93	59922.40
563.10	60114.32
563.26	59763.24
563.42	60322.63
563.59	60023.04
563.75	59903.67
563.92	60027.72
564.08	59884.95
564.24	60151.77
564.41	59725.79
564.57	60090.91
564.74	60147.09
564.90	60257.09
565.07	60055.81
565.23	60275.82
565.39	60224.32
565.56	60203.26
565.72	60041.76
565.88	60016.02
566.05	60168.15
566.21	60189.22
566.38	60147.09
566.54	60214.96
566.70	60418.59
566.87	60336.67
567.03	60278.16
567.19	60486.46
567.36	60205.60
567.52	60060.49
567.68	60055.81
567.85	60310.92
568.01	60278.16
568.17	60133.04
568.34	60591.79
568.50	60411.57
568.66	60329.65
568.83	60573.06
568.99	60404.55
569.15	60245.39
569.32	60425.61
569.48	60161.13
569.64	60509.87
569.81	60343.69
569.97	60280.50
570.13	60526.25
570.30	60453.70
570.46	60509.87
570.62	60179.85
570.78	60287.52
570.95	60156.45
571.11	60519.23
571.27	60224.32
571.43	60376.46
571.60	60561.36
571.76	60434.97
571.92	60533.28
572.09	60446.68
572.25	60640.94
572.41	60547.32
572.57	60680.73
572.74	60584.77
572.90	60516.89
573.06	60495.83
573.22	60729.88
573.38	60584.77
573.55	60420.93
573.71	60973.30
573.87	60640.94
574.03	60561.36
574.20	60701.79
574.36	60523.91
574.52	60477.10
574.68	60587.11
574.84	60559.02
575.01	60905.42
575.17	60643.28
575.33	60760.31
575.49	60673.71
575.65	60624.56
575.82	60549.66
575.98	60652.64
576.14	60835.20
576.30	60830.52
576.46	60650.30
576.62	60493.49
576.79	60537.96
576.95	60748.60
577.11	60629.24
577.27	60776.69
577.43	60690.09
577.59	60631.58
577.75	60804.78
577.92	60547.32
578.08	60486.46
578.24	60739.24
578.40	60612.85
578.56	60704.13
578.72	60629.24
578.88	60818.82
579.04	60825.84
579.21	60589.45
579.37	60636.26
579.53	60786.05
579.69	60734.56
579.85	60797.76
580.01	60910.10
580.17	60725.20
580.33	60654.98
580.49	60872.65
580.65	60884.36
580.82	60846.91
580.98	60849.25
581.14	60692.43
581.30	60945.21
581.46	60631.58
581.62	60781.37
581.78	60573.06
581.94	60706.47
582.10	60584.77
582.26	60872.65
582.42	60788.39
582.58	60968.61
582.74	60734.56
582.90	60823.50
583.06	60870.31
583.22	61038.83
583.38	60926.49
583.54	60914.78
583.70	60917.12
583.86	60800.10
584.02	60772.01
584.18	60968.61
584.34	61134.79
584.50	60940.53
584.66	60935.85
584.82	60645.62
584.98	60924.14
585.14	60907.76
585.30	60683.07
585.46	61022.45
585.62	60886.70
585.78	60996.70
585.94	60865.63
586.10	60837.54
586.26	61006.06
586.42	61073.94
586.58	61190.97
586.74	61066.92
586.90	60807.12
587.06	60970.96
587.22	60725.20
587.38	60947.55
587.54	61165.22
587.70	61071.60
587.86	60795.42
588.02	61052.87
588.18	61195.65
588.34	60992.02
588.49	61085.64
588.65	60870.31
588.81	60790.73
588.97	61106.71
589.13	61010.74
