SpectraSuite Data File
++++++++++++++++++++++++++++++++++++
Date: Fri Oct 04 11:48:28 GMT-05:00 2013
User: price-jones
Dark Spectrum Present: No
Reference Spectrum Present: No
Number of Sampled Component Spectra: 1
Spectrometers: USB2+H05261
Integration Time (usec): 100000 (USB2+H05261)
Spectra Averaged: 1 (USB2+H05261)
Boxcar Smoothing: 0 (USB2+H05261)
Correct for Electrical Dark: No (USB2+H05261)
Strobe/Lamp Enabled: No (USB2+H05261)
Correct for Detector Non-linearity: No (USB2+H05261)
Correct for Stray Light: No (USB2+H05261)
Number of Pixels in Processed Spectrum: 2048
>>>>>Begin Processed Spectral Data<<<<<
365.73	28.09
365.92	28.09
366.12	28.09
366.32	0.00
366.52	0.00
366.72	0.00
366.91	0.00
367.11	0.00
367.31	0.00
367.51	0.00
367.70	0.00
367.90	0.00
368.10	0.00
368.30	0.00
368.49	0.00
368.69	0.00
368.89	0.00
369.09	0.00
369.28	0.00
369.48	0.00
369.68	0.00
369.87	35.11
370.07	0.00
370.27	72.56
370.47	86.60
370.66	383.85
370.86	433.00
371.06	414.27
371.25	528.96
371.45	465.77
371.65	550.03
371.84	449.38
372.04	543.00
372.24	582.79
372.44	510.24
372.63	514.92
372.83	589.82
373.03	643.65
373.22	552.37
373.42	608.54
373.62	603.86
373.81	678.76
374.01	730.25
374.21	643.65
374.40	739.61
374.60	685.78
374.79	655.35
374.99	667.05
375.19	643.65
375.38	667.05
375.58	660.03
375.78	674.07
375.97	676.41
376.17	802.80
376.37	678.76
376.56	683.44
376.76	692.80
376.95	641.31
377.15	793.44
377.35	702.16
377.54	737.27
377.74	706.84
377.93	685.78
378.13	711.52
378.33	795.78
378.52	788.76
378.72	763.01
378.91	819.19
379.11	746.63
379.31	788.76
379.50	779.40
379.70	866.00
379.89	875.36
380.09	884.72
380.28	847.27
380.48	840.25
380.68	791.10
380.87	798.12
381.07	809.83
381.26	915.15
381.46	903.45
381.65	866.00
381.85	807.48
382.04	936.21
382.24	863.66
382.43	807.48
382.63	912.81
382.83	891.74
383.02	945.58
383.22	976.00
383.41	933.87
383.61	976.00
383.80	901.11
384.00	926.85
384.19	964.30
384.39	917.49
384.58	924.51
384.78	945.58
384.97	1039.20
385.17	1027.50
385.36	1029.84
385.56	992.39
385.75	1006.43
385.95	1015.79
386.14	999.41
386.34	1057.92
386.53	1011.11
386.72	999.41
386.92	1078.99
387.11	1039.20
387.31	1149.20
387.50	1029.84
387.70	978.34
387.89	1170.27
388.09	1053.24
388.28	1081.33
388.48	1146.86
388.67	1102.39
388.86	1214.74
389.06	1287.29
389.25	1203.04
389.45	1221.76
389.64	1252.19
389.84	1233.46
390.03	1291.98
390.22	1252.19
390.42	1275.59
390.61	1196.01
390.81	1275.59
391.00	1233.46
391.19	1284.95
391.39	1282.61
391.58	1313.04
391.78	1350.49
391.97	1277.93
392.16	1249.85
392.36	1432.41
392.55	1453.47
392.75	1287.29
392.94	1259.21
393.13	1364.53
393.33	1341.13
393.52	1348.15
393.71	1397.30
393.91	1542.41
394.10	1465.18
394.29	1458.15
394.49	1488.58
394.68	1554.12
394.88	1448.79
395.07	1551.78
395.26	1458.15
395.46	1586.88
395.65	1568.16
395.84	1502.62
396.04	1682.85
396.23	1582.20
396.42	1589.22
396.62	1701.57
396.81	1654.76
397.00	1652.42
397.19	1668.80
397.39	1507.30
397.58	1661.78
397.77	1722.63
397.97	1741.36
398.16	1724.97
398.35	1816.26
398.55	1750.72
398.74	1790.51
398.93	1870.09
399.12	1849.02
399.32	1769.44
399.51	1741.36
399.70	1937.96
399.90	1788.17
400.09	1837.32
400.28	1898.17
400.47	1921.58
400.67	1912.22
400.86	2024.56
401.05	1919.24
401.24	1930.94
401.44	1959.03
401.63	1970.73
401.82	2052.65
402.01	1989.46
402.21	2033.93
402.40	2146.27
402.59	2017.54
402.78	2148.61
402.97	2047.97
403.17	1994.14
403.36	2139.25
403.55	2160.31
403.74	2293.72
403.93	2101.80
404.13	2242.23
404.32	2176.70
404.51	2275.00
404.70	2204.78
404.89	2286.70
405.09	2331.17
405.28	2366.28
405.47	2354.58
405.66	2429.48
405.85	2389.69
406.05	2368.62
406.24	2436.50
406.43	2457.56
406.62	2516.08
406.81	2586.29
407.00	2513.74
407.20	2483.31
407.39	2534.80
407.58	2635.44
407.77	2607.36
407.96	2590.97
408.15	2719.70
408.34	2682.25
408.54	2640.12
408.73	2825.03
408.92	2808.64
409.11	2715.02
409.30	2764.17
409.49	2771.19
409.68	2778.22
409.87	2813.32
410.07	2862.48
410.26	2937.37
410.45	2911.63
410.64	2949.08
410.83	2988.86
411.02	2972.48
411.21	3148.02
411.40	3007.59
411.59	3012.27
411.78	3133.98
411.98	3124.62
412.17	3234.62
412.36	3103.55
412.55	3304.84
412.74	3288.45
412.93	3204.19
413.12	3351.65
413.31	3487.40
413.50	3410.16
413.69	3353.99
413.88	3445.27
414.07	3353.99
414.26	3468.67
414.45	3475.70
414.64	3473.36
414.83	3712.09
415.02	3604.42
415.22	3784.65
415.41	3712.09
415.60	3754.22
415.79	3854.86
415.98	3843.16
416.17	3880.61
416.36	3911.04
416.55	3927.42
416.74	4030.40
416.93	4042.11
417.12	4067.85
417.31	4212.96
417.50	4084.23
417.69	4198.92
417.88	4093.60
418.07	4058.49
418.26	4156.79
418.45	4119.34
418.64	4255.09
418.83	4227.01
419.02	4231.69
419.21	4337.01
419.39	4526.60
419.58	4234.03
419.77	4400.21
419.96	4451.70
420.15	4276.16
420.34	4304.25
420.53	4475.10
420.72	4578.09
420.91	4559.36
421.10	4596.81
421.29	4678.73
421.48	4608.51
421.67	4648.30
421.86	4568.73
422.05	4711.50
422.24	4629.58
422.43	4704.48
422.61	4849.59
422.80	4770.01
422.99	4711.50
423.18	4727.88
423.37	4758.31
423.56	4678.73
423.75	4723.20
423.94	4699.80
424.13	4568.73
424.32	4699.80
424.50	4816.82
424.69	5001.72
424.88	4990.02
425.07	4898.74
425.26	4985.34
425.45	4723.20
425.64	4802.78
425.83	4802.78
426.01	4898.74
426.20	4905.76
426.39	4950.23
426.58	5036.83
426.77	4999.38
426.96	5137.48
427.15	5001.72
427.33	4943.21
427.52	5184.29
427.71	5078.96
427.90	5224.08
428.09	5191.31
428.28	5170.24
428.46	5327.06
428.65	5170.24
428.84	5284.93
429.03	5441.75
429.22	5214.71
429.40	5439.40
429.59	5291.95
429.78	5085.98
429.97	5200.67
430.16	5132.79
430.34	5343.44
430.53	5526.00
430.72	5488.56
430.91	5397.28
431.10	5401.96
431.28	5851.34
431.47	5750.70
431.66	5834.96
431.85	5722.61
432.03	5731.97
432.22	5860.70
432.41	5837.30
432.60	5961.34
432.79	5724.95
432.97	5839.64
433.16	6043.26
433.35	5947.30
433.54	6012.84
433.72	6064.33
433.91	5907.51
434.10	5783.46
434.28	5905.17
434.47	6040.92
434.66	6057.31
434.85	6029.22
435.03	6193.06
435.22	6258.59
435.41	6361.58
435.59	6296.04
435.78	6071.35
435.97	6387.32
436.16	6256.25
436.34	6298.38
436.53	6436.47
436.72	6665.85
436.90	6354.55
437.09	6434.13
437.28	6415.41
437.46	6581.59
437.65	6602.65
437.84	6562.86
438.02	6581.59
438.21	6839.05
438.40	6541.80
438.58	6846.07
438.77	6883.52
438.96	6876.49
439.14	6899.90
439.33	7021.61
439.52	7169.06
439.70	7096.50
439.89	7194.81
440.08	7119.91
440.26	7325.88
440.45	7213.53
440.63	7157.36
440.82	7555.25
441.01	7279.07
441.19	7403.11
441.38	7641.85
441.57	7714.41
441.75	7698.02
441.94	7932.08
442.12	7641.85
442.31	7943.78
442.50	8016.33
442.68	7894.63
442.87	7854.84
443.05	8009.31
443.24	8021.02
443.43	8093.57
443.61	8142.72
443.80	8234.00
443.98	8065.49
444.17	7761.22
444.35	8180.17
444.54	8332.31
444.73	8224.64
444.91	8063.15
445.10	8262.09
445.28	8290.18
445.47	8187.19
445.65	8154.43
445.84	8334.65
446.02	8339.33
446.21	8348.69
446.39	8514.87
446.58	8407.20
446.77	8425.93
446.95	8229.32
447.14	8449.33
447.32	8547.64
447.51	8367.42
447.69	8250.39
447.88	8535.93
448.06	8423.59
448.25	8374.44
448.43	8444.65
448.62	8456.36
448.80	8315.92
448.99	8606.15
449.17	8627.21
449.36	8571.04
449.54	8931.48
449.73	8746.58
449.91	8905.74
450.10	8821.48
450.28	8879.99
450.46	8805.10
450.65	8980.64
450.83	8894.04
451.02	8947.87
451.20	9085.96
451.39	9125.75
451.57	9008.72
451.76	9179.58
451.94	9296.61
452.13	9240.44
452.31	9329.38
452.49	9027.45
452.68	9362.14
452.86	9214.69
453.05	9563.43
453.23	9460.45
453.42	9385.55
453.60	9322.35
453.78	9575.13
453.97	9317.67
454.15	9570.45
454.34	9530.66
454.52	9710.88
454.70	9556.41
454.89	9795.14
455.07	9701.52
455.26	9572.79
455.44	9671.09
455.62	9825.57
455.81	9802.16
455.99	9790.46
456.17	9909.83
456.36	9830.25
456.54	10197.71
456.73	10204.74
456.91	10312.40
457.09	10230.48
457.28	10410.70
457.46	10223.46
457.64	10588.58
457.83	10466.88
458.01	10408.36
458.19	10518.37
458.38	10368.57
458.56	10789.87
458.74	10593.26
458.93	10780.51
459.11	10677.52
459.29	10778.17
459.48	10958.39
459.66	10717.31
459.84	10981.79
460.03	10913.92
460.21	10857.75
460.39	10848.38
460.57	10813.28
460.76	10832.00
460.94	11082.44
461.12	11023.92
461.31	11190.10
461.49	11070.73
461.67	10871.79
461.85	11265.00
462.04	11176.06
462.22	11786.94
462.40	11382.03
462.59	11396.07
462.77	11515.44
462.95	11644.17
463.13	11569.27
463.32	11681.61
463.50	11796.30
463.68	11583.31
463.86	11609.06
464.05	11749.49
464.23	11564.59
464.41	11726.08
464.59	11513.10
464.78	11920.35
464.96	11702.68
465.14	11749.49
465.32	12056.10
465.50	12154.40
465.69	12065.46
465.87	11936.73
466.05	11861.84
466.23	12245.68
466.41	12138.02
466.60	12608.47
466.78	12018.65
466.96	12311.22
467.14	12304.20
467.32	12262.07
467.51	12432.93
467.69	12133.34
467.87	12425.90
468.05	12416.54
468.23	12336.96
468.41	12395.48
468.60	12402.50
468.78	12666.98
468.96	12479.74
469.14	12683.36
469.32	12922.10
469.50	12575.70
469.69	12975.93
469.87	12950.18
470.05	13163.17
470.23	13198.28
470.41	13310.63
470.59	13249.77
470.77	13062.53
470.95	13558.72
471.14	13441.70
471.32	13039.12
471.50	13549.36
471.68	13437.02
471.86	13813.84
472.04	13741.29
472.22	13767.03
472.40	13682.77
472.58	13930.87
472.77	13837.25
472.95	14066.62
473.13	14253.86
473.31	14010.45
473.49	14253.86
473.67	14052.58
473.85	14242.16
474.03	14508.98
474.21	14691.54
474.39	14487.92
474.57	14778.14
474.75	15028.58
474.93	14970.07
475.12	15000.49
475.30	14939.64
475.48	15056.67
475.66	15403.07
475.84	15370.30
476.02	15492.01
476.20	15475.62
476.38	15754.15
476.56	15915.64
476.74	15908.62
476.92	15772.87
477.10	16049.05
477.28	16332.26
477.46	16463.33
477.64	16634.19
477.82	16269.06
478.00	16889.31
478.18	16964.20
478.36	17060.16
478.54	17128.04
478.72	17092.93
478.90	17282.52
479.08	17579.76
479.26	17645.30
479.44	17980.00
479.62	17673.39
479.80	17846.58
479.98	18225.75
480.16	18539.38
480.34	18373.21
480.52	18738.33
480.70	18712.58
480.88	18457.46
481.06	18747.69
481.24	18902.17
481.41	18920.89
481.59	19323.46
481.77	19616.03
481.95	19932.00
482.13	19854.76
482.31	19627.73
482.49	20226.91
482.67	20423.51
482.85	20376.70
483.03	20952.48
483.21	21095.25
483.39	21097.59
483.57	20985.24
483.74	21474.42
483.92	21495.48
484.10	21310.58
484.28	21619.53
484.46	22097.00
484.64	22562.76
484.82	22263.18
485.00	22073.59
485.18	23019.17
485.35	23131.51
485.53	23063.64
485.71	23285.99
485.89	23679.20
486.07	23417.06
486.25	23288.33
486.43	23960.06
486.61	23939.00
486.78	24254.97
486.96	24498.39
487.14	24718.40
487.32	24727.76
487.50	24929.05
487.68	25275.45
487.85	25605.46
488.03	25692.06
488.21	26253.79
488.39	26214.00
488.57	26445.71
488.75	26382.52
488.92	26684.45
489.10	27040.21
489.28	26749.98
489.46	27676.83
489.64	27569.17
489.81	27985.79
489.99	27758.75
490.17	27868.76
490.35	28481.98
490.53	28517.09
490.70	28533.47
490.88	28428.15
491.06	29034.35
491.24	28580.28
491.41	28987.53
491.59	29399.47
491.77	29567.99
491.95	29841.83
492.13	30450.37
492.30	30445.69
492.48	30174.19
492.66	30445.69
492.84	30398.88
493.01	30892.73
493.19	31138.49
493.37	31365.52
493.54	31578.51
493.72	31601.91
493.90	31660.43
494.08	32477.27
494.25	32519.40
494.43	32306.41
494.61	32659.84
494.79	32388.33
494.96	32591.96
495.14	32627.07
495.32	33462.64
495.49	33598.39
495.67	33387.74
495.85	34220.97
496.02	33998.62
496.20	34515.88
496.38	34349.70
496.55	34316.93
496.73	34969.94
496.91	34660.99
497.09	35344.43
497.26	35562.10
497.44	35180.59
497.62	35555.08
497.79	36051.27
497.97	35988.08
498.14	36545.12
498.32	36334.48
498.50	36594.28
498.67	36882.16
498.85	36907.91
499.03	36772.16
499.20	36985.15
499.38	37116.22
499.56	37883.91
499.73	37563.26
499.91	38014.98
500.08	38160.09
500.26	37930.72
500.44	38120.31
500.61	38068.81
500.79	38249.03
500.97	38756.93
501.14	39056.52
501.32	38862.26
501.49	38838.85
501.67	38995.67
501.84	39152.48
502.02	39564.42
502.20	39831.24
502.37	39679.10
502.55	39751.66
502.72	40048.91
502.90	39688.46
503.07	39910.82
503.25	39941.24
503.43	39913.16
503.60	40062.95
503.78	40769.79
503.95	40865.75
504.13	40655.11
504.30	40741.71
504.48	40975.76
504.65	41188.75
504.83	41460.25
505.01	41890.91
505.18	41757.50
505.36	42597.75
505.53	41670.90
505.71	42646.90
505.88	42026.66
506.06	41755.16
506.23	42462.00
506.41	42328.59
506.58	42569.66
506.76	43084.58
506.93	42679.67
507.11	43189.91
507.28	43009.68
507.46	43805.47
507.63	43494.18
507.81	43515.24
507.98	43555.03
508.16	43543.33
508.33	43768.02
508.50	43936.54
508.68	44119.10
508.85	44465.50
509.03	44488.90
509.20	44580.18
509.38	44830.62
509.55	44690.19
509.73	44821.26
509.90	44959.35
510.08	45069.36
510.25	44619.97
510.42	45212.13
510.60	45523.42
510.77	45600.66
510.95	46005.57
511.12	45783.22
511.30	45783.22
511.47	46412.82
511.64	46309.84
511.82	46658.58
511.99	46607.09
512.17	46595.38
512.34	46419.84
512.51	46401.12
512.69	46878.59
512.86	46951.15
513.04	47168.82
513.21	47065.83
513.38	47760.97
513.56	47758.63
513.73	47297.55
513.90	47323.29
514.08	47253.08
514.25	47718.84
514.43	48002.05
514.60	47599.47
514.77	48013.75
514.95	48641.01
515.12	48055.88
515.29	48156.52
515.47	48690.16
515.64	48772.08
515.81	48348.45
515.99	48594.20
516.16	49191.04
516.33	48711.23
516.51	49429.77
516.68	48940.60
516.85	48807.19
517.03	49418.07
517.20	49467.22
517.37	49638.08
517.54	49921.29
517.72	49291.68
517.89	49272.96
518.06	49673.19
518.24	49890.86
518.41	49799.58
518.58	49722.34
518.75	49820.64
518.93	50038.31
519.10	50057.04
519.27	50452.59
519.45	50216.19
519.62	50078.10
519.79	50429.18
519.96	50464.29
520.14	51009.64
520.31	50674.94
520.48	51327.95
520.65	50885.59
520.83	51049.42
521.00	51068.15
521.17	50747.50
521.34	50869.20
521.52	51194.54
521.69	51264.75
521.86	51381.78
522.03	51571.36
522.20	51194.54
522.38	51594.77
522.55	51924.78
522.72	51618.17
522.89	51765.63
523.07	52310.97
523.24	52165.86
523.41	52308.63
523.58	51653.28
523.75	52163.52
523.92	51859.25
524.10	52163.52
524.27	52247.78
524.44	52626.95
524.61	52858.66
524.78	52692.48
524.96	52753.33
525.13	52722.91
525.30	52615.24
525.47	52388.21
525.64	52765.04
525.81	53034.20
525.98	53006.11
526.16	53052.92
526.33	53139.52
526.50	53387.62
526.67	53209.74
526.84	53298.68
527.01	53315.06
527.18	53329.11
527.36	53614.65
527.53	53216.76
527.70	53904.88
527.87	53574.86
528.04	53361.87
528.21	53914.24
528.38	53837.00
528.55	54129.57
528.72	53563.16
528.89	53993.82
529.07	53689.55
529.24	53989.14
529.41	54185.74
529.58	54096.80
529.75	53932.96
529.92	53911.90
530.09	54181.06
530.26	54351.92
530.43	54267.66
530.60	54218.51
530.77	54330.86
530.94	54291.07
531.11	54227.87
531.28	54319.15
531.46	54578.95
531.63	54635.13
531.80	54611.72
531.97	54941.74
532.14	54782.58
532.31	54546.18
532.48	54714.70
532.65	54752.15
532.82	54726.41
532.99	55103.23
533.16	54911.31
533.33	55269.41
533.50	55552.62
533.67	55215.58
533.84	55068.12
534.01	55421.55
534.18	54969.82
534.35	55796.03
534.52	55503.46
534.69	55695.39
534.86	55723.47
535.03	55348.99
535.20	55477.72
535.37	55662.62
535.54	55693.05
535.71	55852.20
535.88	55510.49
536.05	55585.38
536.22	55817.10
536.38	56020.72
536.55	55774.97
536.72	56025.40
536.89	55927.10
537.06	55847.52
537.23	56053.49
537.40	55814.76
537.57	56013.70
537.74	56034.77
537.91	56404.57
538.08	56313.29
538.25	56090.94
538.42	56128.39
538.59	56409.25
538.75	56168.18
538.92	56186.90
539.09	56437.34
539.26	56287.54
539.43	56594.15
539.60	56692.46
539.77	56598.83
539.94	56601.18
540.11	56638.62
540.28	56264.14
540.44	56463.08
540.61	56657.35
540.78	56512.23
540.95	56781.40
541.12	56853.95
541.29	56753.31
541.46	57041.20
541.62	56884.38
541.79	57001.41
541.96	56580.11
542.13	56973.32
542.30	57268.23
542.47	57322.06
542.63	57090.35
542.80	57139.50
542.97	57382.91
543.14	57347.81
543.31	57460.15
543.48	57303.34
543.64	57752.72
543.81	57748.04
543.98	57602.92
544.15	57780.81
544.32	57640.37
544.48	57703.57
544.65	57558.45
544.82	57535.05
544.99	57427.38
545.16	57654.42
545.32	57822.93
545.49	57900.17
545.66	57972.73
545.83	58080.39
546.00	58085.07
546.16	58122.52
546.33	57652.08
546.50	57677.82
546.67	58019.54
546.83	57654.42
547.00	58071.03
547.17	57939.96
547.34	58075.71
547.50	58333.17
547.67	58073.37
547.84	58307.43
548.00	58305.09
548.17	58408.07
548.34	58499.35
548.51	58609.35
548.67	58450.20
548.84	58478.28
549.01	58438.50
549.18	58536.80
549.34	58370.62
549.51	58403.39
549.68	58372.96
549.84	58482.97
550.01	58543.82
550.18	58541.48
550.34	58752.13
550.51	58742.77
550.68	58892.56
550.84	58539.14
551.01	58731.06
551.18	58574.25
551.34	58595.31
551.51	58618.72
551.68	58997.88
551.84	59128.95
552.01	58990.86
552.18	58866.81
552.34	58796.60
552.51	59047.04
552.68	58904.26
552.84	59096.19
553.01	59028.31
553.18	59089.16
553.34	59196.83
553.51	59379.39
553.67	59370.03
553.84	59283.43
554.01	59023.63
554.17	59185.13
554.34	59348.96
554.51	59199.17
554.67	59194.49
554.84	59463.65
555.00	59447.27
555.17	59456.63
555.33	59341.94
555.50	59381.73
555.67	59283.43
555.83	59281.09
556.00	59419.18
556.16	59718.77
556.33	59384.07
556.50	59641.53
556.66	59662.60
556.83	59384.07
556.99	59681.32
557.16	59814.73
557.32	59718.77
557.49	59690.68
557.65	59458.97
557.82	59536.21
557.98	59810.05
558.15	59512.80
558.32	59716.43
558.48	59669.62
558.65	59702.38
558.81	59854.52
558.98	59922.40
559.14	59723.45
559.31	59746.86
559.47	59842.82
559.64	59728.13
559.80	59943.46
559.97	59859.20
560.13	59959.84
560.30	59962.18
560.46	59999.63
560.63	59854.52
560.79	60046.44
560.96	60247.73
561.12	59800.69
561.29	59994.95
561.45	60177.51
561.61	60133.04
561.78	60207.94
561.94	60224.32
562.11	60224.32
562.27	59990.27
562.44	59887.29
562.60	60186.88
562.77	60229.01
562.93	60170.49
563.10	60566.04
563.26	60083.89
563.42	60432.63
563.59	60418.59
563.75	60458.38
563.92	60360.08
564.08	60196.24
564.24	60257.09
564.41	60039.42
564.57	60081.55
564.74	60285.18
564.90	60362.42
565.07	60336.67
565.23	60481.78
565.39	60509.87
565.56	60528.59
565.72	60137.72
565.88	60498.17
566.05	60493.49
566.21	60385.82
566.38	60514.55
566.54	60514.55
566.70	60638.60
566.87	60882.02
567.03	60853.93
567.19	60863.29
567.36	60589.45
567.52	60416.25
567.68	60741.58
567.85	60243.05
568.01	60596.47
568.17	60507.53
568.34	60477.10
568.50	60484.12
568.66	60385.82
568.83	60853.93
568.99	60549.66
569.15	60430.29
569.32	60472.42
569.48	60542.64
569.64	60790.73
569.81	60680.73
569.97	60809.46
570.13	60715.84
570.30	60662.00
570.46	60720.52
570.62	60919.46
570.78	60772.01
570.95	60676.05
571.11	60589.45
571.27	60437.31
571.43	60650.30
571.60	60837.54
571.76	60793.07
571.92	60992.02
572.09	60720.52
572.25	60994.36
572.41	60662.00
572.57	60664.35
572.74	60786.05
572.90	60736.90
573.06	60825.84
573.22	60687.75
573.38	60945.21
573.55	60727.54
573.71	61174.58
573.87	60977.98
574.03	60786.05
574.20	60877.33
574.36	61010.74
574.52	60858.61
574.68	60863.29
574.84	60952.23
575.01	61029.47
575.17	61062.24
575.33	61282.25
575.49	61006.06
575.65	61106.71
575.82	61064.58
575.98	61015.43
576.14	60945.21
576.30	61174.58
576.46	61020.11
576.62	60846.91
576.79	60830.52
576.95	60874.99
577.11	60842.23
577.27	60966.27
577.43	61317.35
577.59	61029.47
577.75	60973.30
577.92	60807.12
578.08	61036.49
578.24	60985.00
578.40	60938.19
578.56	61001.38
578.72	60985.00
578.88	61116.07
579.04	61373.53
579.21	61106.71
579.37	61050.53
579.53	61052.87
579.69	60931.17
579.85	60851.59
580.01	61127.77
580.17	61052.87
580.33	61106.71
580.49	61240.12
580.65	61331.40
580.82	61223.73
580.98	61221.39
581.14	61254.16
581.30	61371.19
581.46	61153.52
581.62	61153.52
581.78	60884.36
581.94	61041.17
582.10	61214.37
582.26	61183.94
582.42	61181.60
582.58	61300.97
582.74	61193.31
582.90	61420.34
583.06	61219.05
583.22	61324.38
583.38	61279.91
583.54	61307.99
583.70	61254.16
583.86	61031.81
584.02	61165.22
584.18	61324.38
584.34	61317.35
584.50	61455.45
584.66	61418.00
584.82	61137.13
584.98	61148.84
585.14	61247.14
585.30	61188.63
585.46	61230.75
585.62	61080.96
585.78	61415.66
585.94	61097.34
586.10	61307.99
586.26	61219.05
586.42	61530.34
586.58	61474.17
586.74	61408.64
586.90	61270.54
587.06	61338.42
587.22	61167.56
587.38	61284.59
587.54	61675.46
587.70	61591.20
587.86	61366.51
588.02	61488.21
588.18	61659.07
588.34	61483.53
588.49	61446.08
588.65	61392.25
588.81	61165.22
588.97	61523.32
589.13	61354.80
