SpectraSuite Data File
++++++++++++++++++++++++++++++++++++
Date: Fri Oct 04 11:48:32 GMT-05:00 2013
User: price-jones
Dark Spectrum Present: No
Reference Spectrum Present: No
Number of Sampled Component Spectra: 1
Spectrometers: USB2+H05261
Integration Time (usec): 100000 (USB2+H05261)
Spectra Averaged: 1 (USB2+H05261)
Boxcar Smoothing: 0 (USB2+H05261)
Correct for Electrical Dark: No (USB2+H05261)
Strobe/Lamp Enabled: No (USB2+H05261)
Correct for Detector Non-linearity: No (USB2+H05261)
Correct for Stray Light: No (USB2+H05261)
Number of Pixels in Processed Spectrum: 2048
>>>>>Begin Processed Spectral Data<<<<<
365.73	58.51
365.92	58.51
366.12	58.51
366.32	0.00
366.52	0.00
366.72	0.00
366.91	0.00
367.11	0.00
367.31	0.00
367.51	0.00
367.70	0.00
367.90	0.00
368.10	0.00
368.30	0.00
368.49	0.00
368.69	0.00
368.89	0.00
369.09	0.00
369.28	0.00
369.48	0.00
369.68	0.00
369.87	25.75
370.07	0.00
370.27	42.13
370.47	56.17
370.66	327.68
370.86	388.53
371.06	472.79
371.25	484.49
371.45	500.87
371.65	491.51
371.84	514.92
372.04	573.43
372.24	531.30
372.44	486.83
372.63	531.30
372.83	645.99
373.03	622.58
373.22	571.09
373.42	500.87
373.62	526.62
373.81	554.71
374.01	545.34
374.21	606.20
374.40	596.84
374.60	620.24
374.79	566.41
374.99	603.86
375.19	629.60
375.38	720.88
375.58	641.31
375.78	681.10
375.97	627.26
376.17	725.57
376.37	662.37
376.56	732.59
376.76	765.36
376.95	662.37
377.15	706.84
377.35	713.86
377.54	744.29
377.74	788.76
377.93	674.07
378.13	737.27
378.33	753.65
378.52	716.20
378.72	697.48
378.91	809.83
379.11	723.23
379.31	786.42
379.50	706.84
379.70	713.86
379.89	784.08
380.09	744.29
380.28	737.27
380.48	798.12
380.68	816.85
380.87	760.67
381.07	763.01
381.26	828.55
381.46	781.74
381.65	873.02
381.85	767.70
382.04	812.17
382.24	898.77
382.43	847.27
382.63	901.11
382.83	784.08
383.02	924.51
383.22	884.72
383.41	802.80
383.61	894.08
383.80	971.32
384.00	926.85
384.19	994.73
384.39	880.04
384.58	950.26
384.78	959.62
384.97	919.83
385.17	985.37
385.36	919.83
385.56	971.32
385.75	957.28
385.95	978.34
386.14	1008.77
386.34	964.30
386.53	1039.20
386.72	1013.45
386.92	1081.33
387.11	1081.33
387.31	1004.09
387.50	1004.09
387.70	1055.58
387.89	1074.31
388.09	1022.81
388.28	1111.75
388.48	1060.26
388.67	1053.24
388.86	1128.14
389.06	1013.45
389.25	1142.18
389.45	1228.78
389.64	1043.88
389.84	1053.24
390.03	1102.39
390.22	1132.82
390.42	1170.27
390.61	1170.27
390.81	1123.46
391.00	1165.59
391.19	1287.29
391.39	1217.08
391.58	1284.95
391.78	1268.57
391.97	1252.19
392.16	1259.21
392.36	1247.51
392.55	1338.79
392.75	1228.78
392.94	1198.35
393.13	1306.02
393.33	1336.45
393.52	1380.92
393.71	1345.81
393.91	1341.13
394.10	1376.24
394.29	1390.28
394.49	1284.95
394.68	1359.85
394.88	1409.00
395.07	1366.87
395.26	1474.54
395.46	1488.58
395.65	1519.01
395.84	1533.05
396.04	1596.25
396.23	1598.59
396.42	1633.69
396.62	1519.01
396.81	1497.94
397.00	1535.39
397.19	1556.46
397.39	1579.86
397.58	1586.88
397.77	1577.52
397.97	1650.08
398.16	1654.76
398.35	1633.69
398.55	1600.93
398.74	1664.12
398.93	1685.19
399.12	1680.50
399.32	1659.44
399.51	1640.72
399.70	1760.08
399.90	1732.00
400.09	1804.55
400.28	1739.02
400.47	1834.98
400.67	1834.98
400.86	1973.07
401.05	1912.22
401.24	1947.33
401.44	1874.77
401.63	1940.30
401.82	1991.80
402.01	1900.52
402.21	1888.81
402.40	2097.12
402.59	2008.18
402.78	1935.62
402.97	2085.42
403.17	2099.46
403.36	2033.93
403.55	2165.00
403.74	2045.63
403.93	2118.18
404.13	2204.78
404.32	2097.12
404.51	2150.95
404.70	2216.49
404.89	2078.40
405.09	2284.36
405.28	2260.96
405.47	2228.19
405.66	2211.81
405.85	2377.98
406.05	2448.20
406.24	2239.89
406.43	2296.07
406.62	2417.77
406.81	2387.35
407.00	2284.36
407.20	2312.45
407.39	2340.54
407.58	2502.03
407.77	2579.27
407.96	2525.44
408.15	2567.57
408.34	2544.16
408.54	2562.89
408.73	2623.74
408.92	2729.06
409.11	2593.31
409.30	2663.53
409.49	2757.15
409.68	2825.03
409.87	2663.53
410.07	2745.45
410.26	2801.62
410.45	2764.17
410.64	2691.62
410.83	2719.70
411.02	2768.85
411.21	2867.16
411.40	2967.80
411.59	2848.43
411.78	2843.75
411.98	3141.00
412.17	2972.48
412.36	2972.48
412.55	3094.19
412.74	3234.62
412.93	3119.93
413.12	3061.42
413.31	3227.60
413.50	3267.39
413.69	3332.92
413.88	3492.08
414.07	3180.79
414.26	3368.03
414.45	3375.05
414.64	3421.86
414.83	3562.30
415.02	3595.06
415.22	3524.85
415.41	3667.62
415.60	3599.74
415.79	3438.25
415.98	3754.22
416.17	3646.55
416.36	3618.47
416.55	3651.24
416.74	3744.86
416.93	3817.41
417.12	3918.06
417.31	3906.35
417.50	3763.58
417.69	3992.95
417.88	4028.06
418.07	3981.25
418.26	3946.14
418.45	3995.29
418.64	4107.64
418.83	4077.21
419.02	4114.66
419.21	4210.62
419.39	4184.88
419.58	4112.32
419.77	4170.83
419.96	4334.67
420.15	4409.57
420.34	4187.22
420.53	4205.94
420.72	4304.25
420.91	4332.33
421.10	4561.70
421.29	4533.62
421.48	4353.40
421.67	4627.24
421.86	4360.42
422.05	4463.40
422.24	4521.92
422.43	4582.77
422.61	4440.00
422.80	4603.83
422.99	4514.89
423.18	4582.77
423.37	4498.51
423.56	4596.81
423.75	4674.05
423.94	4472.76
424.13	4257.43
424.32	4468.08
424.50	4695.11
424.69	4624.90
424.88	4645.96
425.07	4650.64
425.26	4475.10
425.45	4624.90
425.64	4631.92
425.83	4678.73
426.01	4589.79
426.20	4528.94
426.39	4610.86
426.58	4770.01
426.77	4575.75
426.96	4870.65
427.15	4601.49
427.33	4695.11
427.52	5036.83
427.71	4950.23
427.90	4978.32
428.09	4896.40
428.28	4973.64
428.46	5109.39
428.65	5081.30
428.84	5032.15
429.03	5069.60
429.22	4966.62
429.40	5008.75
429.59	5078.96
429.78	4903.42
429.97	4887.04
430.16	5088.32
430.34	5203.01
430.53	5350.46
430.72	5277.91
430.91	5186.63
431.10	5280.25
431.28	5242.80
431.47	5458.13
431.66	5554.09
431.85	5284.93
432.03	5448.77
432.22	5619.63
432.41	5554.09
432.60	5640.69
432.79	5680.48
432.97	5490.90
433.16	5575.16
433.35	5748.36
433.54	5717.93
433.72	5872.40
433.91	5647.71
434.10	5706.23
434.28	5832.62
434.47	5804.53
434.66	5806.87
434.85	6017.52
435.03	5781.12
435.22	5827.93
435.41	6143.91
435.59	5961.34
435.78	5968.37
435.97	6015.18
436.16	6167.31
436.34	5956.66
436.53	6008.16
436.72	6221.14
436.90	6061.99
437.09	6228.17
437.28	6202.42
437.46	6003.47
437.65	6230.51
437.84	6326.47
438.02	6296.04
438.21	6354.55
438.40	6235.19
438.58	6305.40
438.77	6583.93
438.96	6509.03
439.14	6794.58
439.33	6712.66
439.52	6782.87
439.70	6658.82
439.89	6876.49
440.08	6820.32
440.26	6848.41
440.45	6977.14
440.63	6939.69
440.82	7173.74
441.01	7248.64
441.19	7000.54
441.38	7112.89
441.57	7040.33
441.75	7192.47
441.94	7222.89
442.12	7435.88
442.31	7517.80
442.50	7501.42
442.68	7588.02
442.87	7592.70
443.05	7588.02
443.24	7761.22
443.43	7866.54
443.61	7709.72
443.80	7922.71
443.98	7707.38
444.17	7611.42
444.35	7805.69
444.54	7908.67
444.73	7899.31
444.91	7833.77
445.10	7707.38
445.28	7801.01
445.47	7655.89
445.65	7831.43
445.84	7871.22
446.02	7843.14
446.21	7836.11
446.39	7852.50
446.58	8107.62
446.77	8021.02
446.95	7779.94
447.14	7901.65
447.32	7997.61
447.51	8006.97
447.69	8168.47
447.88	8084.21
448.06	8070.17
448.25	7985.91
448.43	8049.10
448.62	7929.74
448.80	7992.93
448.99	8021.02
449.17	8461.04
449.36	8175.49
449.54	8297.20
449.73	8301.88
449.91	8489.12
450.10	8702.11
450.28	8297.20
450.46	8662.32
450.65	8774.67
450.83	8482.10
451.02	8643.60
451.20	8706.79
451.39	8720.84
451.57	8699.77
451.76	8484.44
451.94	8800.41
452.13	8826.16
452.31	8741.90
452.49	8704.45
452.68	8875.31
452.86	8919.78
453.05	8861.27
453.23	8879.99
453.42	8753.60
453.60	8954.89
453.78	8842.54
453.97	8847.22
454.15	9172.56
454.34	8872.97
454.52	9107.02
454.70	9053.19
454.89	9177.24
455.07	8915.10
455.26	9261.50
455.44	9469.81
455.62	9301.29
455.81	9322.35
455.99	9310.65
456.17	9500.23
456.36	9305.97
456.54	9631.30
456.73	9654.71
456.91	9596.20
457.09	9795.14
457.28	9984.73
457.46	9813.87
457.64	9975.36
457.83	10045.58
458.01	9776.42
458.19	10090.05
458.38	9912.17
458.56	10267.93
458.74	10108.77
458.93	9998.77
459.11	10008.13
459.29	9994.09
459.48	10134.52
459.66	10059.62
459.84	10209.42
460.03	10448.15
460.21	10284.31
460.39	10417.72
460.57	10373.25
460.76	10321.76
460.94	10424.75
461.12	10553.48
461.31	10609.65
461.49	10520.71
461.67	10504.32
461.85	10885.83
462.04	10972.43
462.22	11477.99
462.40	10820.30
462.59	10827.32
462.77	10939.66
462.95	11000.52
463.13	10670.50
463.32	10843.70
463.50	11091.80
463.68	11143.29
463.86	11037.97
464.05	11171.38
464.23	10883.49
464.41	11286.06
464.59	10925.62
464.78	11339.90
464.96	11337.56
465.14	11176.06
465.32	11548.20
465.50	11667.57
465.69	11410.11
465.87	11398.41
466.05	11323.51
466.23	11407.77
466.41	11375.00
466.60	11646.51
466.78	11569.27
466.96	11819.71
467.14	11597.35
467.32	11681.61
467.51	11988.22
467.69	11463.94
467.87	11793.96
468.05	11939.07
468.23	11779.92
468.41	11939.07
468.60	12086.53
468.78	11992.90
468.96	11686.29
469.14	12119.29
469.32	12128.66
469.50	11939.07
469.69	12571.02
469.87	12306.54
470.05	12252.70
470.23	12390.80
470.41	12624.85
470.59	12692.73
470.77	12325.26
470.95	12573.36
471.14	12989.97
471.32	12535.91
471.50	13015.72
471.68	12699.75
471.86	12606.13
472.04	12772.30
472.22	13329.35
472.40	12798.05
472.58	13064.87
472.77	13036.78
472.95	13345.73
473.13	13825.54
473.31	13188.92
473.49	13296.58
473.67	13556.38
473.85	13757.67
474.03	13682.77
474.21	13727.24
474.39	13895.76
474.57	13874.70
474.75	14085.34
474.93	14150.88
475.12	14326.42
475.30	14281.95
475.48	13954.27
475.66	14473.87
475.84	14221.10
476.02	14422.38
476.20	14377.91
476.38	14750.06
476.56	15054.33
476.74	14946.66
476.92	14995.81
477.10	15005.17
477.28	15281.36
477.46	15419.45
477.64	15791.59
477.82	15688.61
478.00	15896.92
478.18	16170.76
478.36	16205.87
478.54	16287.79
478.72	16114.59
478.90	16418.86
479.08	16580.36
479.26	16690.36
479.44	16819.09
479.62	17043.78
479.80	16964.20
479.98	17198.26
480.16	17624.23
480.34	17366.78
480.52	17568.06
480.70	17781.05
480.88	17706.15
481.06	17811.48
481.24	18207.03
481.41	17916.80
481.59	18391.93
481.77	18342.78
481.95	18579.17
482.13	18717.26
482.31	18560.45
482.49	19122.18
482.67	19377.30
482.85	19374.95
483.03	19728.38
483.21	20032.65
483.39	20095.84
483.57	19999.88
483.74	20058.39
483.92	20329.89
484.10	20184.78
484.28	20589.69
484.46	21345.69
484.64	21617.19
484.82	20950.14
485.00	21214.62
485.18	21624.21
485.35	21984.65
485.53	22207.00
485.71	22132.11
485.89	22380.20
486.07	22115.72
486.25	22235.09
486.43	22539.36
486.61	22841.29
486.78	22855.33
486.96	23143.22
487.14	23501.32
487.32	23208.75
487.50	23726.01
487.68	23817.29
487.85	23887.51
488.03	24072.41
488.21	24577.97
488.39	24797.98
488.57	24882.24
488.75	25057.78
488.92	25298.85
489.10	25610.14
489.28	25640.57
489.46	25797.38
489.64	25640.57
489.81	26700.83
489.99	26562.74
490.17	26546.36
490.35	26869.35
490.53	26843.60
490.70	27147.87
490.88	27267.24
491.06	27538.74
491.24	27524.70
491.41	27463.85
491.59	27828.97
491.77	27990.47
491.95	28336.87
492.13	28496.02
492.30	28547.51
492.48	28701.99
492.66	29134.99
492.84	29252.02
493.01	29252.02
493.19	29729.48
493.37	29586.71
493.54	29853.53
493.72	30150.78
493.90	29883.96
494.08	30419.94
494.25	30665.70
494.43	30881.03
494.61	31222.75
494.79	30974.65
494.96	31335.09
495.14	30991.03
495.32	31489.57
495.49	31974.06
495.67	31740.00
495.85	32311.10
496.02	32496.00
496.20	32580.26
496.38	32591.96
496.55	32318.12
496.73	33207.52
496.91	33069.43
497.09	33322.21
497.26	34129.69
497.44	33500.09
497.62	33858.19
497.79	33907.34
497.97	33752.87
498.14	34333.32
498.32	34232.68
498.50	34642.27
498.67	35030.80
498.85	34801.43
499.03	35185.27
499.20	34845.90
499.38	35576.14
499.56	35159.53
499.73	35679.13
499.91	35646.36
500.08	36194.04
500.26	35770.41
500.44	36093.40
500.61	36091.06
500.79	36503.00
500.97	36706.62
501.14	36666.83
501.32	37373.67
501.49	36926.63
501.67	36849.39
501.84	37240.26
502.02	36945.36
502.20	37940.08
502.37	37996.26
502.55	37904.98
502.72	37703.69
502.90	37710.71
503.07	37949.45
503.25	37975.19
503.43	38157.75
503.60	38565.01
503.78	38438.62
503.95	39007.37
504.13	38513.52
504.30	39140.78
504.48	38443.30
504.65	39105.67
504.83	39164.18
505.01	39651.02
505.18	39398.24
505.36	39887.41
505.53	39414.62
505.71	39728.25
505.88	39793.79
506.06	39613.57
506.23	40542.76
506.41	40247.85
506.58	40509.99
506.76	40474.88
506.93	40966.40
507.11	40589.57
507.28	40587.23
507.46	40814.26
507.63	41624.09
507.81	41528.13
507.98	41457.91
508.16	41184.07
508.33	41240.24
508.50	41867.50
508.68	42120.28
508.85	42258.37
509.03	42717.12
509.20	42323.91
509.38	42742.86
509.55	42644.56
509.73	42639.88
509.90	42740.52
510.08	42876.27
510.25	43077.56
510.42	42909.04
510.60	43377.15
510.77	43594.82
510.95	43725.89
511.12	43264.80
511.30	43398.21
511.47	43952.92
511.64	43936.54
511.82	44563.80
511.99	44467.84
512.17	44334.43
512.34	44055.90
512.51	44404.64
512.69	44643.38
512.86	44729.98
513.04	45170.00
513.21	45340.86
513.38	45200.43
513.56	45308.09
513.73	45209.79
513.90	45111.49
514.08	45230.85
514.25	45940.04
514.43	45453.20
514.60	46073.45
514.77	46040.68
514.95	46162.39
515.12	46036.00
515.29	45759.81
515.47	46443.25
515.64	46560.28
515.81	46492.40
515.99	46595.38
516.16	46941.78
516.33	46597.73
516.51	47150.09
516.68	46923.06
516.85	46501.76
517.03	47440.32
517.20	47519.90
517.37	47489.47
517.54	47122.01
517.72	47435.64
517.89	47096.26
518.06	47552.66
518.24	47559.69
518.41	47980.98
518.58	47552.66
518.75	47915.45
518.93	48271.21
519.10	48156.52
519.27	48273.55
519.45	47985.66
519.62	48259.51
519.79	48608.25
519.96	48343.77
520.14	48865.70
520.31	48739.32
520.48	49214.44
520.65	48964.01
520.83	49034.22
521.00	48505.26
521.17	48769.74
521.34	49354.88
521.52	49387.64
521.69	49083.37
521.86	49764.47
522.03	49617.02
522.20	49530.42
522.38	49785.54
522.55	49799.58
522.72	49991.50
522.89	49610.00
523.07	50295.77
523.24	50281.73
523.41	50417.48
523.58	49612.34
523.75	50010.23
523.92	50005.55
524.10	50239.60
524.27	50653.87
524.44	50443.23
524.61	50901.97
524.78	51166.45
524.96	50890.27
525.13	50791.97
525.30	50525.14
525.47	51026.02
525.64	51112.62
525.81	51370.08
525.98	51196.88
526.16	51426.25
526.33	51414.55
526.50	51269.43
526.67	51110.28
526.84	51351.35
527.01	51643.92
527.18	51264.75
527.36	51363.06
527.53	51629.88
527.70	51793.71
527.87	52090.96
528.04	51817.12
528.21	51938.83
528.38	52100.32
528.55	52081.60
528.72	52116.71
528.89	51964.57
529.07	52090.96
529.24	52168.20
529.41	52516.94
529.58	52516.94
529.75	52175.22
529.92	52266.50
530.09	52184.58
530.26	52381.19
530.43	52727.59
530.60	52523.96
530.77	52509.92
530.94	52657.37
531.11	52591.84
531.28	52535.66
531.46	52872.70
531.63	53221.44
531.80	53043.56
531.97	53263.57
532.14	53212.08
532.31	53017.82
532.48	52891.43
532.65	53265.91
532.82	53132.50
532.99	53495.28
533.16	53294.00
533.33	53361.87
533.50	53638.06
533.67	53237.83
533.84	53427.41
534.01	53448.47
534.18	53282.30
534.35	53958.71
534.52	53558.48
534.69	53918.92
534.86	54129.57
535.03	53745.72
535.20	53900.20
535.37	54035.95
535.54	54288.73
535.71	54031.27
535.88	54169.36
536.05	53925.94
536.22	54017.22
536.38	54365.96
536.55	54368.30
536.72	54550.87
536.89	54192.76
537.06	54120.21
537.23	54499.37
537.40	54471.29
537.57	54403.41
537.74	54337.88
537.91	54735.77
538.08	54766.20
538.25	54361.28
538.42	54756.83
538.59	54770.88
538.75	54831.73
538.92	54365.96
539.09	54796.62
539.26	54878.54
539.43	54906.63
539.60	55082.17
539.77	55033.02
539.94	55246.00
540.11	55220.26
540.28	55077.49
540.44	55119.62
540.61	55143.02
540.78	55187.49
540.95	55304.52
541.12	55426.23
541.29	55475.38
541.46	55201.53
541.62	55061.10
541.79	55447.29
541.96	55159.41
542.13	55257.71
542.30	55639.22
542.47	55473.04
542.63	55688.37
542.80	55690.71
542.97	55756.24
543.14	55873.27
543.31	55725.81
543.48	55929.44
543.64	56336.69
543.81	56266.48
543.98	56088.60
544.15	56170.52
544.32	56051.15
544.48	56292.22
544.65	56184.56
544.82	56273.50
544.99	55786.67
545.16	56079.24
545.32	56133.07
545.49	56416.27
545.66	56577.77
545.83	56458.40
546.00	56662.03
546.16	56451.38
546.33	56184.56
546.50	56168.18
546.67	56456.06
546.83	56107.32
547.00	56500.53
547.17	56561.39
547.34	56465.42
547.50	56638.62
547.67	56865.66
547.84	56580.11
548.00	56662.03
548.17	56842.25
548.34	56872.68
548.51	56788.42
548.67	57020.13
548.84	56673.73
549.01	56886.72
549.18	56652.67
549.34	56837.57
549.51	56985.02
549.68	57088.01
549.84	56935.87
550.01	57305.68
550.18	56917.15
550.34	57247.16
550.51	57432.07
550.68	57403.98
550.84	57006.09
551.01	57226.10
551.18	57113.75
551.34	57219.08
551.51	57233.12
551.68	57600.58
551.84	57525.69
552.01	57528.03
552.18	57560.79
552.34	57588.88
552.51	57474.20
552.68	57497.60
552.84	57389.94
553.01	57469.51
553.18	57497.60
553.34	57462.49
553.51	57806.55
553.67	57834.64
553.84	57778.46
554.01	57844.00
554.17	57670.80
554.34	57687.18
554.51	57741.02
554.67	58024.22
554.84	57757.40
555.00	57776.12
555.17	57874.43
555.33	58073.37
555.50	57794.85
555.67	57886.13
555.83	57895.49
556.00	58010.18
556.16	58007.84
556.33	57904.85
556.50	58021.88
556.66	58049.97
556.83	57909.53
556.99	58501.69
557.16	58284.02
557.32	58225.51
557.49	58277.00
557.65	58206.78
557.82	58061.67
557.98	58314.45
558.15	58085.07
558.32	58248.91
558.48	58344.87
558.65	58335.51
558.81	58585.95
558.98	58326.15
559.14	58335.51
559.31	58375.30
559.47	58162.31
559.64	58202.10
559.80	58447.86
559.97	58394.03
560.13	58436.16
560.30	58592.97
560.46	58583.61
560.63	58145.93
560.79	58630.42
560.96	58866.81
561.12	58492.33
561.29	58452.54
561.45	58543.82
561.61	58621.06
561.78	58763.83
561.94	58717.02
562.11	58864.47
562.27	58553.18
562.44	58497.01
562.60	58614.04
562.77	58885.54
562.93	58562.54
563.10	58738.08
563.26	58880.86
563.42	58953.41
563.59	58705.32
563.75	58864.47
563.92	58951.07
564.08	58812.98
564.24	58988.52
564.41	58827.02
564.57	58838.73
564.74	58993.20
564.90	58906.60
565.07	59042.35
565.23	58965.12
565.39	59051.72
565.56	58969.80
565.72	58553.18
565.88	58899.58
566.05	58885.54
566.21	58965.12
566.38	58915.96
566.54	58932.35
566.70	59306.83
566.87	59124.27
567.03	58993.20
567.19	59267.05
567.36	59128.95
567.52	59007.25
567.68	59077.46
567.85	58932.35
568.01	59056.40
568.17	59145.34
568.34	59065.76
568.50	59313.86
568.66	59241.30
568.83	59444.93
568.99	59257.68
569.15	59250.66
569.32	59414.50
569.48	59187.47
569.64	59262.36
569.81	59194.49
569.97	59171.08
570.13	59325.56
570.30	59332.58
570.46	59171.08
570.62	59309.18
570.78	59231.94
570.95	59217.89
571.11	59255.34
571.27	59140.66
571.43	59400.46
571.60	59405.14
571.76	59316.20
571.92	59430.88
572.09	59339.60
572.25	59285.77
572.41	59213.21
572.57	59283.43
572.74	59351.30
572.90	59297.47
573.06	59428.54
573.22	59355.99
573.38	59358.33
573.55	59461.31
573.71	59725.79
573.87	59632.17
574.03	59304.49
574.20	59395.77
574.36	59367.69
574.52	59388.75
574.68	59295.13
574.84	59327.90
575.01	59753.88
575.17	59526.84
575.33	59428.54
575.49	59414.50
575.65	59852.18
575.82	59861.54
575.98	59370.03
576.14	59554.93
576.30	59700.04
576.46	59442.59
576.62	59276.41
576.79	59468.33
576.95	59468.33
577.11	59632.17
577.27	59615.79
577.43	59760.90
577.59	59604.08
577.75	59620.47
577.92	59341.94
578.08	59430.88
578.24	59384.07
578.40	59440.24
578.56	59671.96
578.72	59430.88
578.88	59847.50
579.04	59690.68
579.21	59533.87
579.37	59711.75
579.53	59819.41
579.69	59330.24
579.85	59477.69
580.01	59601.74
580.17	59583.02
580.33	59704.73
580.49	59711.75
580.65	59700.04
580.82	59664.94
580.98	59681.32
581.14	59641.53
581.30	59765.58
581.46	59419.18
581.62	59508.12
581.78	59447.27
581.94	59704.73
582.10	59735.15
582.26	59779.62
582.42	59873.24
582.58	59922.40
582.74	59859.20
582.90	59597.06
583.06	59875.58
583.22	59693.02
583.38	59620.47
583.54	59913.03
583.70	59756.22
583.86	59739.83
584.02	59751.54
584.18	59978.57
584.34	59800.69
584.50	59917.71
584.66	59711.75
584.82	59674.30
584.98	59896.65
585.14	59814.73
585.30	59725.79
585.46	59693.02
585.62	59601.74
585.78	59849.84
585.94	59475.35
586.10	59697.70
586.26	59884.95
586.42	59889.63
586.58	60006.65
586.74	59812.39
586.90	59803.03
587.06	59749.20
587.22	59791.33
587.38	59674.30
587.54	60231.35
587.70	59901.33
587.86	59971.55
588.02	59964.52
588.18	59994.95
588.34	59800.69
588.49	59714.09
588.65	60020.70
588.81	59730.47
588.97	59992.61
589.13	59901.33
589.29	59723.45
