SpectraSuite Data File
++++++++++++++++++++++++++++++++++++
Date: Fri Oct 04 11:47:16 GMT-05:00 2013
User: price-jones
Dark Spectrum Present: No
Reference Spectrum Present: No
Number of Sampled Component Spectra: 1
Spectrometers: USB2+H05261
Integration Time (usec): 100000 (USB2+H05261)
Spectra Averaged: 1 (USB2+H05261)
Boxcar Smoothing: 0 (USB2+H05261)
Correct for Electrical Dark: No (USB2+H05261)
Strobe/Lamp Enabled: No (USB2+H05261)
Correct for Detector Non-linearity: No (USB2+H05261)
Correct for Stray Light: No (USB2+H05261)
Number of Pixels in Processed Spectrum: 2048
>>>>>Begin Processed Spectral Data<<<<<
365.73	46.81
365.92	46.81
366.12	46.81
366.32	0.00
366.52	0.00
366.72	0.00
366.91	0.00
367.11	0.00
367.31	0.00
367.51	0.00
367.70	0.00
367.90	0.00
368.10	0.00
368.30	0.00
368.49	0.00
368.69	0.00
368.89	0.00
369.09	0.00
369.28	0.00
369.48	0.00
369.68	0.00
369.87	0.00
370.07	0.00
370.27	0.00
370.47	16.38
370.66	0.00
370.86	88.94
371.06	32.77
371.25	42.13
371.45	84.26
371.65	95.96
371.84	25.75
372.04	37.45
372.24	42.13
372.44	107.66
372.63	42.13
372.83	84.26
373.03	112.35
373.22	72.56
373.42	88.94
373.62	117.03
373.81	60.85
374.01	196.60
374.21	119.37
374.40	81.92
374.60	112.35
374.79	42.13
374.99	0.00
375.19	112.35
375.38	124.05
375.58	65.54
375.78	79.58
375.97	133.41
376.17	191.92
376.37	145.11
376.56	135.75
376.76	102.98
376.95	147.45
377.15	72.56
377.35	86.60
377.54	58.51
377.74	121.71
377.93	18.72
378.13	154.48
378.33	128.73
378.52	88.94
378.72	58.51
378.91	121.71
379.11	140.43
379.31	56.17
379.50	16.38
379.70	131.07
379.89	138.09
380.09	0.00
380.28	46.81
380.48	70.22
380.68	70.22
380.87	63.19
381.07	98.30
381.26	58.51
381.46	95.96
381.65	79.58
381.85	98.30
382.04	117.03
382.24	77.24
382.43	70.22
382.63	88.94
382.83	142.77
383.02	131.07
383.22	152.13
383.41	79.58
383.61	126.39
383.80	88.94
384.00	93.62
384.19	93.62
384.39	74.90
384.58	107.66
384.78	126.39
384.97	60.85
385.17	70.22
385.36	88.94
385.56	81.92
385.75	58.51
385.95	56.17
386.14	98.30
386.34	107.66
386.53	58.51
386.72	65.54
386.92	107.66
387.11	81.92
387.31	203.63
387.50	110.01
387.70	84.26
387.89	86.60
388.09	72.56
388.28	88.94
388.48	46.81
388.67	84.26
388.86	65.54
389.06	81.92
389.25	114.69
389.45	74.90
389.64	56.17
389.84	124.05
390.03	126.39
390.22	88.94
390.42	88.94
390.61	107.66
390.81	86.60
391.00	107.66
391.19	173.20
391.39	110.01
391.58	112.35
391.78	91.28
391.97	72.56
392.16	84.26
392.36	98.30
392.55	86.60
392.75	138.09
392.94	112.35
393.13	98.30
393.33	119.37
393.52	84.26
393.71	114.69
393.91	65.54
394.10	67.88
394.29	105.32
394.49	65.54
394.68	227.03
394.88	63.19
395.07	119.37
395.26	88.94
395.46	147.45
395.65	77.24
395.84	86.60
396.04	105.32
396.23	77.24
396.42	86.60
396.62	145.11
396.81	51.49
397.00	74.90
397.19	128.73
397.39	95.96
397.58	56.17
397.77	72.56
397.97	74.90
398.16	140.43
398.35	170.86
398.55	70.22
398.74	74.90
398.93	145.11
399.12	74.90
399.32	16.38
399.51	149.79
399.70	124.05
399.90	98.30
400.09	88.94
400.28	149.79
400.47	105.32
400.67	79.58
400.86	91.28
401.05	95.96
401.24	138.09
401.44	63.19
401.63	107.66
401.82	198.95
402.01	42.13
402.21	138.09
402.40	159.16
402.59	58.51
402.78	168.52
402.97	16.38
403.17	112.35
403.36	74.90
403.55	168.52
403.74	84.26
403.93	98.30
404.13	189.58
404.32	105.32
404.51	152.13
404.70	119.37
404.89	81.92
405.09	152.13
405.28	81.92
405.47	112.35
405.66	152.13
405.85	128.73
406.05	65.54
406.24	84.26
406.43	170.86
406.62	95.96
406.81	161.50
407.00	67.88
407.20	95.96
407.39	142.77
407.58	60.85
407.77	128.73
407.96	114.69
408.15	74.90
408.34	56.17
408.54	93.62
408.73	95.96
408.92	149.79
409.11	210.65
409.30	187.24
409.49	56.17
409.68	60.85
409.87	107.66
410.07	112.35
410.26	175.54
410.45	128.73
410.64	60.85
410.83	133.41
411.02	177.88
411.21	117.03
411.40	107.66
411.59	93.62
411.78	112.35
411.98	145.11
412.17	128.73
412.36	112.35
412.55	163.84
412.74	203.63
412.93	135.75
413.12	161.50
413.31	98.30
413.50	131.07
413.69	107.66
413.88	114.69
414.07	65.54
414.26	18.72
414.45	79.58
414.64	100.64
414.83	124.05
415.02	121.71
415.22	121.71
415.41	147.45
415.60	58.51
415.79	138.09
415.98	77.24
416.17	180.22
416.36	107.66
416.55	70.22
416.74	187.24
416.93	72.56
417.12	84.26
417.31	110.01
417.50	81.92
417.69	238.73
417.88	133.41
418.07	121.71
418.26	70.22
418.45	119.37
418.64	236.39
418.83	215.33
419.02	220.01
419.21	147.45
419.39	170.86
419.58	231.71
419.77	110.01
419.96	88.94
420.15	166.18
420.34	110.01
420.53	98.30
420.72	100.64
420.91	65.54
421.10	84.26
421.29	117.03
421.48	175.54
421.67	180.22
421.86	98.30
422.05	102.98
422.24	121.71
422.43	173.20
422.61	95.96
422.80	133.41
422.99	102.98
423.18	51.49
423.37	121.71
423.56	102.98
423.75	170.86
423.94	110.01
424.13	95.96
424.32	124.05
424.50	142.77
424.69	114.69
424.88	170.86
425.07	112.35
425.26	163.84
425.45	147.45
425.64	173.20
425.83	217.67
426.01	140.43
426.20	110.01
426.39	84.26
426.58	81.92
426.77	86.60
426.96	227.03
427.15	74.90
427.33	102.98
427.52	138.09
427.71	49.15
427.90	133.41
428.09	124.05
428.28	93.62
428.46	159.16
428.65	98.30
428.84	142.77
429.03	163.84
429.22	84.26
429.40	166.18
429.59	112.35
429.78	159.16
429.97	154.48
430.16	149.79
430.34	173.20
430.53	53.83
430.72	79.58
430.91	133.41
431.10	152.13
431.28	77.24
431.47	91.28
431.66	126.39
431.85	121.71
432.03	119.37
432.22	196.60
432.41	114.69
432.60	138.09
432.79	191.92
432.97	245.76
433.16	266.82
433.35	198.95
433.54	131.07
433.72	154.48
433.91	196.60
434.10	210.65
434.28	248.10
434.47	154.48
434.66	93.62
434.85	128.73
435.03	14.04
435.22	156.82
435.41	117.03
435.59	128.73
435.78	140.43
435.97	140.43
436.16	114.69
436.34	98.30
436.53	182.56
436.72	187.24
436.90	121.71
437.09	170.86
437.28	124.05
437.46	156.82
437.65	163.84
437.84	168.52
438.02	194.26
438.21	243.42
438.40	140.43
438.58	81.92
438.77	105.32
438.96	140.43
439.14	152.13
439.33	91.28
439.52	131.07
439.70	135.75
439.89	161.50
440.08	159.16
440.26	187.24
440.45	135.75
440.63	187.24
440.82	191.92
441.01	72.56
441.19	177.88
441.38	131.07
441.57	138.09
441.75	114.69
441.94	126.39
442.12	74.90
442.31	124.05
442.50	110.01
442.68	196.60
442.87	131.07
443.05	56.17
443.24	107.66
443.43	124.05
443.61	163.84
443.80	166.18
443.98	95.96
444.17	142.77
444.35	168.52
444.54	107.66
444.73	63.19
444.91	142.77
445.10	173.20
445.28	152.13
445.47	124.05
445.65	107.66
445.84	131.07
446.02	124.05
446.21	166.18
446.39	187.24
446.58	107.66
446.77	98.30
446.95	149.79
447.14	159.16
447.32	257.46
447.51	53.83
447.69	149.79
447.88	163.84
448.06	177.88
448.25	53.83
448.43	81.92
448.62	124.05
448.80	58.51
448.99	210.65
449.17	93.62
449.36	79.58
449.54	163.84
449.73	77.24
449.91	121.71
450.10	124.05
450.28	114.69
450.46	229.37
450.65	138.09
450.83	107.66
451.02	49.15
451.20	133.41
451.39	100.64
451.57	154.48
451.76	112.35
451.94	91.28
452.13	177.88
452.31	105.32
452.49	159.16
452.68	119.37
452.86	128.73
453.05	135.75
453.23	135.75
453.42	133.41
453.60	79.58
453.78	128.73
453.97	72.56
454.15	133.41
454.34	84.26
454.52	128.73
454.70	126.39
454.89	152.13
455.07	107.66
455.26	166.18
455.44	168.52
455.62	107.66
455.81	138.09
455.99	128.73
456.17	184.90
456.36	88.94
456.54	128.73
456.73	180.22
456.91	135.75
457.09	154.48
457.28	173.20
457.46	135.75
457.64	119.37
457.83	154.48
458.01	156.82
458.19	161.50
458.38	159.16
458.56	189.58
458.74	46.81
458.93	133.41
459.11	42.13
459.29	121.71
459.48	194.26
459.66	170.86
459.84	128.73
460.03	280.86
460.21	212.99
460.39	173.20
460.57	159.16
460.76	168.52
460.94	140.43
461.12	126.39
461.31	105.32
461.49	220.01
461.67	124.05
461.85	203.63
462.04	170.86
462.22	688.12
462.40	189.58
462.59	147.45
462.77	105.32
462.95	173.20
463.13	84.26
463.32	131.07
463.50	110.01
463.68	163.84
463.86	203.63
464.05	138.09
464.23	177.88
464.41	133.41
464.59	98.30
464.78	149.79
464.96	100.64
465.14	117.03
465.32	133.41
465.50	184.90
465.69	145.11
465.87	121.71
466.05	126.39
466.23	126.39
466.41	147.45
466.60	208.31
466.78	154.48
466.96	170.86
467.14	126.39
467.32	170.86
467.51	215.33
467.69	112.35
467.87	154.48
468.05	133.41
468.23	198.95
468.41	154.48
468.60	91.28
468.78	203.63
468.96	147.45
469.14	212.99
469.32	119.37
469.50	135.75
469.69	147.45
469.87	159.16
470.05	177.88
470.23	217.67
470.41	184.90
470.59	154.48
470.77	105.32
470.95	156.82
471.14	156.82
471.32	163.84
471.50	210.65
471.68	187.24
471.86	145.11
472.04	152.13
472.22	110.01
472.40	95.96
472.58	124.05
472.77	51.49
472.95	95.96
473.13	168.52
473.31	152.13
473.49	182.56
473.67	208.31
473.85	128.73
474.03	128.73
474.21	81.92
474.39	177.88
474.57	156.82
474.75	201.29
474.93	124.05
475.12	124.05
475.30	119.37
475.48	140.43
475.66	161.50
475.84	112.35
476.02	112.35
476.20	184.90
476.38	121.71
476.56	217.67
476.74	152.13
476.92	138.09
477.10	196.60
477.28	149.79
477.46	81.92
477.64	126.39
477.82	152.13
478.00	220.01
478.18	163.84
478.36	166.18
478.54	147.45
478.72	114.69
478.90	159.16
479.08	128.73
479.26	152.13
479.44	163.84
479.62	91.28
479.80	201.29
479.98	154.48
480.16	114.69
480.34	196.60
480.52	163.84
480.70	126.39
480.88	152.13
481.06	117.03
481.24	173.20
481.41	156.82
481.59	81.92
481.77	180.22
481.95	110.01
482.13	198.95
482.31	93.62
482.49	241.08
482.67	135.75
482.85	154.48
483.03	175.54
483.21	198.95
483.39	131.07
483.57	203.63
483.74	231.71
483.92	182.56
484.10	166.18
484.28	227.03
484.46	173.20
484.64	159.16
484.82	149.79
485.00	166.18
485.18	135.75
485.35	152.13
485.53	156.82
485.71	81.92
485.89	147.45
486.07	138.09
486.25	201.29
486.43	234.05
486.61	173.20
486.78	205.97
486.96	224.69
487.14	126.39
487.32	142.77
487.50	152.13
487.68	140.43
487.85	105.32
488.03	187.24
488.21	168.52
488.39	149.79
488.57	248.10
488.75	159.16
488.92	447.04
489.10	175.54
489.28	168.52
489.46	107.66
489.64	278.52
489.81	79.58
489.99	252.78
490.17	86.60
490.35	241.08
490.53	189.58
490.70	117.03
490.88	142.77
491.06	187.24
491.24	147.45
491.41	220.01
491.59	140.43
491.77	152.13
491.95	161.50
492.13	140.43
492.30	135.75
492.48	107.66
492.66	203.63
492.84	145.11
493.01	163.84
493.19	229.37
493.37	166.18
493.54	203.63
493.72	95.96
493.90	215.33
494.08	222.35
494.25	133.41
494.43	229.37
494.61	131.07
494.79	131.07
494.96	159.16
495.14	236.39
495.32	210.65
495.49	112.35
495.67	133.41
495.85	182.56
496.02	138.09
496.20	198.95
496.38	222.35
496.55	273.84
496.73	182.56
496.91	124.05
497.09	187.24
497.26	194.26
497.44	147.45
497.62	222.35
497.79	173.20
497.97	198.95
498.14	203.63
498.32	184.90
498.50	212.99
498.67	156.82
498.85	259.80
499.03	166.18
499.20	81.92
499.38	124.05
499.56	128.73
499.73	131.07
499.91	205.97
500.08	163.84
500.26	187.24
500.44	184.90
500.61	231.71
500.79	161.50
500.97	201.29
501.14	250.44
501.32	131.07
501.49	205.97
501.67	208.31
501.84	191.92
502.02	117.03
502.20	217.67
502.37	182.56
502.55	149.79
502.72	264.48
502.90	175.54
503.07	163.84
503.25	191.92
503.43	217.67
503.60	191.92
503.78	173.20
503.95	201.29
504.13	102.98
504.30	168.52
504.48	264.48
504.65	205.97
504.83	140.43
505.01	145.11
505.18	142.77
505.36	161.50
505.53	205.97
505.71	119.37
505.88	259.80
506.06	208.31
506.23	191.92
506.41	189.58
506.58	177.88
506.76	224.69
506.93	128.73
507.11	182.56
507.28	252.78
507.46	217.67
507.63	273.84
507.81	182.56
507.98	241.08
508.16	194.26
508.33	222.35
508.50	285.55
508.68	299.59
508.85	124.05
509.03	147.45
509.20	191.92
509.38	227.03
509.55	142.77
509.73	234.05
509.90	243.42
510.08	152.13
510.25	243.42
510.42	187.24
510.60	201.29
510.77	238.73
510.95	166.18
511.12	276.18
511.30	250.44
511.47	330.02
511.64	301.93
511.82	248.10
511.99	252.78
512.17	198.95
512.34	138.09
512.51	142.77
512.69	149.79
512.86	217.67
513.04	180.22
513.21	159.16
513.38	159.16
513.56	215.33
513.73	152.13
513.90	161.50
514.08	224.69
514.25	163.84
514.43	180.22
514.60	189.58
514.77	124.05
514.95	322.99
515.12	224.69
515.29	266.82
515.47	175.54
515.64	194.26
515.81	222.35
515.99	248.10
516.16	194.26
516.33	198.95
516.51	205.97
516.68	208.31
516.85	196.60
517.03	124.05
517.20	187.24
517.37	212.99
517.54	170.86
517.72	182.56
517.89	196.60
518.06	175.54
518.24	177.88
518.41	222.35
518.58	220.01
518.75	294.91
518.93	133.41
519.10	159.16
519.27	276.18
519.45	170.86
519.62	238.73
519.79	147.45
519.96	234.05
520.14	161.50
520.31	208.31
520.48	175.54
520.65	217.67
520.83	231.71
521.00	255.12
521.17	313.63
521.34	187.24
521.52	187.24
521.69	110.01
521.86	238.73
522.03	241.08
522.20	269.16
522.38	140.43
522.55	196.60
522.72	147.45
522.89	194.26
523.07	285.55
523.24	194.26
523.41	147.45
523.58	222.35
523.75	191.92
523.92	212.99
524.10	177.88
524.27	184.90
524.44	203.63
524.61	276.18
524.78	184.90
524.96	194.26
525.13	201.29
525.30	208.31
525.47	205.97
525.64	248.10
525.81	163.84
525.98	262.14
526.16	222.35
526.33	135.75
526.50	177.88
526.67	220.01
526.84	154.48
527.01	180.22
527.18	126.39
527.36	217.67
527.53	215.33
527.70	217.67
527.87	212.99
528.04	210.65
528.21	236.39
528.38	287.89
528.55	142.77
528.72	266.82
528.89	255.12
529.07	138.09
529.24	189.58
529.41	271.50
529.58	238.73
529.75	236.39
529.92	234.05
530.09	187.24
530.26	203.63
530.43	236.39
530.60	196.60
530.77	248.10
530.94	182.56
531.11	212.99
531.28	231.71
531.46	196.60
531.63	234.05
531.80	196.60
531.97	224.69
532.14	224.69
532.31	269.16
532.48	191.92
532.65	327.68
532.82	341.72
532.99	330.02
533.16	262.14
533.33	304.27
533.50	224.69
533.67	290.23
533.84	353.42
534.01	379.17
534.18	365.12
534.35	301.93
534.52	280.86
534.69	252.78
534.86	215.33
535.03	238.73
535.20	290.23
535.37	168.52
535.54	250.44
535.71	147.45
535.88	330.02
536.05	182.56
536.22	227.03
536.38	215.33
536.55	236.39
536.72	266.82
536.89	250.44
537.06	227.03
537.23	203.63
537.40	250.44
537.57	163.84
537.74	243.42
537.91	227.03
538.08	243.42
538.25	259.80
538.42	243.42
538.59	215.33
538.75	140.43
538.92	208.31
539.09	208.31
539.26	191.92
539.43	390.87
539.60	1081.33
539.77	1661.78
539.94	1696.89
540.11	1118.78
540.28	727.91
540.44	442.36
540.61	308.95
540.78	184.90
540.95	241.08
541.12	248.10
541.29	124.05
541.46	236.39
541.62	205.97
541.79	215.33
541.96	229.37
542.13	212.99
542.30	203.63
542.47	222.35
542.63	262.14
542.80	243.42
542.97	236.39
543.14	159.16
543.31	163.84
543.48	231.71
543.64	273.84
543.81	163.84
543.98	196.60
544.15	231.71
544.32	161.50
544.48	147.45
544.65	241.08
544.82	201.29
544.99	203.63
545.16	229.37
545.32	187.24
545.49	245.76
545.66	266.82
545.83	191.92
546.00	252.78
546.16	170.86
546.33	191.92
546.50	203.63
546.67	182.56
546.83	231.71
547.00	252.78
547.17	191.92
547.34	177.88
547.50	222.35
547.67	156.82
547.84	236.39
548.00	212.99
548.17	201.29
548.34	145.11
548.51	234.05
548.67	252.78
548.84	234.05
549.01	145.11
549.18	236.39
549.34	248.10
549.51	236.39
549.68	297.25
549.84	224.69
550.01	156.82
550.18	327.68
550.34	322.99
550.51	229.37
550.68	224.69
550.84	203.63
551.01	203.63
551.18	236.39
551.34	215.33
551.51	159.16
551.68	229.37
551.84	156.82
552.01	119.37
552.18	257.46
552.34	175.54
552.51	245.76
552.68	245.76
552.84	198.95
553.01	231.71
553.18	236.39
553.34	184.90
553.51	203.63
553.67	257.46
553.84	257.46
554.01	124.05
554.17	262.14
554.34	248.10
554.51	196.60
554.67	278.52
554.84	175.54
555.00	191.92
555.17	287.89
555.33	208.31
555.50	234.05
555.67	229.37
555.83	175.54
556.00	245.76
556.16	421.30
556.33	255.12
556.50	234.05
556.66	175.54
556.83	215.33
556.99	229.37
557.16	180.22
557.32	234.05
557.49	313.63
557.65	248.10
557.82	224.69
557.98	182.56
558.15	149.79
558.32	255.12
558.48	168.52
558.65	208.31
558.81	210.65
558.98	231.71
559.14	177.88
559.31	201.29
559.47	184.90
559.64	262.14
559.80	177.88
559.97	217.67
560.13	198.95
560.30	198.95
560.46	212.99
560.63	203.63
560.79	140.43
560.96	142.77
561.12	177.88
561.29	215.33
561.45	252.78
561.61	187.24
561.78	301.93
561.94	248.10
562.11	220.01
562.27	231.71
562.44	198.95
562.60	194.26
562.77	210.65
562.93	234.05
563.10	187.24
563.26	168.52
563.42	189.58
563.59	224.69
563.75	180.22
563.92	222.35
564.08	201.29
564.24	205.97
564.41	276.18
564.57	189.58
564.74	273.84
564.90	177.88
565.07	220.01
565.23	184.90
565.39	241.08
565.56	287.89
565.72	229.37
565.88	245.76
566.05	215.33
566.21	259.80
566.38	243.42
566.54	283.20
566.70	177.88
566.87	191.92
567.03	161.50
567.19	280.86
567.36	217.67
567.52	128.73
567.68	182.56
567.85	255.12
568.01	191.92
568.17	163.84
568.34	194.26
568.50	205.97
568.66	196.60
568.83	285.55
568.99	124.05
569.15	187.24
569.32	203.63
569.48	194.26
569.64	234.05
569.81	208.31
569.97	180.22
570.13	257.46
570.30	208.31
570.46	191.92
570.62	191.92
570.78	210.65
570.95	191.92
571.11	201.29
571.27	255.12
571.43	177.88
571.60	250.44
571.76	168.52
571.92	187.24
572.09	210.65
572.25	252.78
572.41	175.54
572.57	191.92
572.74	269.16
572.90	182.56
573.06	238.73
573.22	205.97
573.38	187.24
573.55	227.03
573.71	255.12
573.87	222.35
574.03	128.73
574.20	177.88
574.36	299.59
574.52	306.61
574.68	351.08
574.84	330.02
575.01	217.67
575.17	257.46
575.33	184.90
575.49	271.50
575.65	318.31
575.82	311.29
575.98	479.81
576.14	690.46
576.30	802.80
576.46	653.01
576.62	437.68
576.79	353.42
576.95	414.27
577.11	159.16
577.27	255.12
577.43	339.38
577.59	163.84
577.75	243.42
577.92	177.88
578.08	217.67
578.24	189.58
578.40	257.46
578.56	259.80
578.72	222.35
578.88	255.12
579.04	266.82
579.21	231.71
579.37	290.23
579.53	313.63
579.69	325.33
579.85	259.80
580.01	294.91
580.17	334.70
580.33	322.99
580.49	337.04
580.65	297.25
580.82	259.80
580.98	280.86
581.14	283.20
581.30	390.87
581.46	404.91
581.62	510.24
581.78	489.17
581.94	603.86
582.10	465.77
582.26	407.25
582.42	379.17
582.58	402.57
582.74	407.25
582.90	365.12
583.06	390.87
583.22	390.87
583.38	414.27
583.54	493.85
583.70	601.52
583.86	683.44
584.02	774.72
584.18	1046.22
584.34	1259.21
584.50	3002.91
584.66	23637.07
584.82	57106.73
584.98	65535.00
585.14	65535.00
585.30	52926.53
585.46	32121.51
585.62	19632.41
585.78	8830.84
585.94	3468.67
586.10	1598.59
586.26	1116.44
586.42	788.76
586.58	662.37
586.74	683.44
586.90	589.82
587.06	554.71
587.22	540.66
587.38	435.34
587.54	1160.91
587.70	3487.40
587.86	6237.53
588.02	7426.52
588.18	5118.75
588.34	3087.17
588.49	1989.46
588.65	1226.44
588.81	664.71
588.97	456.40
589.13	374.49
589.29	360.44
589.45	360.44
589.61	353.42
589.77	379.17
589.93	437.68
590.08	517.26
590.24	482.15
590.40	442.36
590.56	339.38
590.72	287.89
590.88	299.59
591.04	327.68
591.20	294.91
591.35	332.36
591.51	241.08
591.67	229.37
591.83	311.29
591.99	264.48
592.15	290.23
592.31	229.37
592.46	271.50
592.62	322.99
592.78	201.29
592.94	278.52
593.10	241.08
593.26	292.57
593.41	381.51
593.57	304.27
593.73	538.32
593.89	2780.56
594.05	7669.94
594.20	12191.85
594.36	11716.72
594.52	7730.79
594.68	4695.11
594.84	3103.55
594.99	1673.48
595.15	739.61
595.31	465.77
595.47	365.12
595.62	292.57
595.78	212.99
595.94	276.18
596.10	351.08
596.25	311.29
596.41	376.83
596.57	285.55
596.73	325.33
596.88	477.47
597.04	1455.81
597.20	2478.63
597.36	3070.78
597.51	2314.79
597.67	1430.07
597.83	1053.24
597.99	685.78
598.14	367.46
598.30	318.31
598.46	313.63
598.61	325.33
598.77	304.27
598.93	313.63
599.09	297.25
599.24	210.65
599.40	266.82
599.56	208.31
599.71	259.80
599.87	166.18
600.03	189.58
600.18	191.92
600.34	250.44
600.50	203.63
600.65	175.54
600.81	255.12
600.97	255.12
601.12	222.35
601.28	292.57
601.44	236.39
601.59	315.97
601.75	194.26
601.91	229.37
602.06	250.44
602.22	299.59
602.37	704.50
602.53	1792.85
602.69	2897.58
602.84	3267.39
603.00	2286.70
603.16	1542.41
603.31	1062.60
603.47	650.67
603.62	451.72
603.78	285.55
603.94	299.59
604.09	234.05
604.25	273.84
604.40	283.20
604.56	259.80
604.71	299.59
604.87	252.78
605.03	248.10
605.18	320.65
605.34	245.76
605.49	269.16
605.65	231.71
605.80	241.08
605.96	269.16
606.12	318.31
606.27	294.91
606.43	318.31
606.58	351.08
606.74	873.02
606.89	3588.04
607.05	7349.28
607.20	10239.84
607.36	8753.60
607.51	5598.56
607.67	3723.79
607.82	2462.24
607.98	1392.62
608.13	636.63
608.29	475.13
608.44	423.64
608.60	414.27
608.75	440.02
608.91	1186.65
609.06	5467.49
609.22	12678.68
609.37	18200.01
609.53	15985.86
609.68	10368.57
609.84	6607.33
609.99	4540.64
610.15	2289.04
610.30	1083.67
610.46	545.34
610.61	475.13
610.76	339.38
610.92	252.78
611.07	283.20
611.23	393.21
611.38	290.23
611.54	292.57
611.69	318.31
611.84	278.52
612.00	299.59
