SpectraSuite Data File
++++++++++++++++++++++++++++++++++++
Date: Fri Oct 04 11:48:27 GMT-05:00 2013
User: price-jones
Dark Spectrum Present: No
Reference Spectrum Present: No
Number of Sampled Component Spectra: 1
Spectrometers: USB2+H05261
Integration Time (usec): 100000 (USB2+H05261)
Spectra Averaged: 1 (USB2+H05261)
Boxcar Smoothing: 0 (USB2+H05261)
Correct for Electrical Dark: No (USB2+H05261)
Strobe/Lamp Enabled: No (USB2+H05261)
Correct for Detector Non-linearity: No (USB2+H05261)
Correct for Stray Light: No (USB2+H05261)
Number of Pixels in Processed Spectrum: 2048
>>>>>Begin Processed Spectral Data<<<<<
365.73	65.54
365.92	65.54
366.12	65.54
366.32	0.00
366.52	4.68
366.72	0.00
366.91	0.00
367.11	0.00
367.31	0.00
367.51	0.00
367.70	0.00
367.90	0.00
368.10	0.00
368.30	0.00
368.49	0.00
368.69	0.00
368.89	0.00
369.09	0.00
369.28	0.00
369.48	0.00
369.68	0.00
369.87	0.00
370.07	0.00
370.27	0.00
370.47	84.26
370.66	241.08
370.86	276.18
371.06	332.36
371.25	397.89
371.45	386.19
371.65	379.17
371.84	386.19
372.04	404.91
372.24	465.77
372.44	353.42
372.63	440.02
372.83	535.98
373.03	430.66
373.22	351.08
373.42	454.06
373.62	458.74
373.81	533.64
374.01	519.60
374.21	547.69
374.40	397.89
374.60	547.69
374.79	585.13
374.99	512.58
375.19	500.87
375.38	545.34
375.58	545.34
375.78	594.50
375.97	514.92
376.17	547.69
376.37	505.56
376.56	510.24
376.76	552.37
376.95	505.56
377.15	608.54
377.35	528.96
377.54	552.37
377.74	500.87
377.93	592.16
378.13	545.34
378.33	662.37
378.52	603.86
378.72	617.90
378.91	557.05
379.11	638.97
379.31	571.09
379.50	528.96
379.70	535.98
379.89	702.16
380.09	645.99
380.28	655.35
380.48	650.67
380.68	620.24
380.87	624.92
381.07	589.82
381.26	723.23
381.46	620.24
381.65	629.60
381.85	667.05
382.04	634.29
382.24	685.78
382.43	676.41
382.63	695.14
382.83	695.14
383.02	676.41
383.22	699.82
383.41	678.76
383.61	734.93
383.80	695.14
384.00	741.95
384.19	744.29
384.39	751.31
384.58	730.25
384.78	622.58
384.97	763.01
385.17	718.54
385.36	767.70
385.56	746.63
385.75	744.29
385.95	664.71
386.14	793.44
386.34	753.65
386.53	732.59
386.72	753.65
386.92	851.96
387.11	891.74
387.31	894.08
387.50	823.87
387.70	819.19
387.89	826.21
388.09	833.23
388.28	765.36
388.48	809.83
388.67	936.21
388.86	894.08
389.06	875.36
389.25	912.81
389.45	957.28
389.64	800.46
389.84	891.74
390.03	908.13
390.22	966.64
390.42	910.47
390.61	889.40
390.81	884.72
391.00	978.34
391.19	999.41
391.39	987.71
391.58	933.87
391.78	964.30
391.97	1067.28
392.16	957.28
392.36	1132.82
392.55	1025.15
392.75	1093.03
392.94	1064.94
393.13	976.00
393.33	987.71
393.52	997.07
393.71	1100.05
393.91	1069.62
394.10	1069.62
394.29	1093.03
394.49	1100.05
394.68	1212.40
394.88	1109.41
395.07	1177.29
395.26	1280.27
395.46	1135.16
395.65	1266.23
395.84	1261.55
396.04	1198.35
396.23	1165.59
396.42	1217.08
396.62	1203.04
396.81	1287.29
397.00	1245.16
397.19	1282.61
397.39	1284.95
397.58	1327.08
397.77	1249.85
397.97	1329.42
398.16	1357.51
398.35	1320.06
398.55	1446.45
398.74	1238.14
398.93	1327.08
399.12	1338.79
399.32	1345.81
399.51	1399.64
399.70	1434.75
399.90	1483.90
400.09	1519.01
400.28	1409.00
400.47	1439.43
400.67	1462.83
400.86	1495.60
401.05	1488.58
401.24	1516.67
401.44	1530.71
401.63	1572.84
401.82	1547.09
402.01	1603.27
402.21	1589.22
402.40	1561.14
402.59	1530.71
402.78	1650.08
402.97	1645.40
403.17	1696.89
403.36	1664.12
403.55	1748.38
403.74	1746.04
403.93	1708.59
404.13	1664.12
404.32	1593.90
404.51	1722.63
404.70	1844.34
404.89	1647.74
405.09	1809.23
405.28	1729.66
405.47	1797.53
405.66	1914.56
405.85	1771.79
406.05	1764.76
406.24	1902.86
406.43	1881.79
406.62	2015.20
406.81	1928.60
407.00	1893.49
407.20	1956.69
407.39	2010.52
407.58	1905.20
407.77	2057.33
407.96	2062.01
408.15	1984.77
408.34	2069.03
408.54	2118.18
408.73	2085.42
408.92	2094.78
409.11	2127.55
409.30	2118.18
409.49	2146.27
409.68	2218.83
409.87	2272.66
410.07	2296.07
410.26	2284.36
410.45	2246.91
410.64	2260.96
410.83	2420.11
411.02	2239.89
411.21	2366.28
411.40	2342.88
411.59	2417.77
411.78	2495.01
411.98	2387.35
412.17	2349.90
412.36	2534.80
412.55	2473.95
412.74	2569.91
412.93	2616.72
413.12	2492.67
413.31	2712.68
413.50	2565.23
413.69	2677.57
413.88	2705.66
414.07	2733.75
414.26	2773.53
414.45	2803.96
414.64	2764.17
414.83	2848.43
415.02	2796.94
415.22	2785.24
415.41	2932.69
415.60	2935.03
415.79	2864.82
415.98	2956.10
416.17	3131.64
416.36	3047.38
416.55	3152.70
416.74	3176.11
416.93	3162.06
417.12	3171.43
417.31	3218.24
417.50	3204.19
417.69	3255.69
417.88	3267.39
418.07	3218.24
418.26	3199.51
418.45	3265.05
418.64	3625.49
418.83	3391.44
419.02	3386.76
419.21	3382.07
419.39	3288.45
419.58	3405.48
419.77	3447.61
419.96	3445.27
420.15	3705.07
420.34	3435.91
420.53	3393.78
420.72	3559.95
420.91	3637.19
421.10	3662.94
421.29	3749.54
421.48	3545.91
421.67	3716.77
421.86	3904.01
422.05	3880.61
422.24	3623.15
422.43	3721.45
422.61	3744.86
422.80	3836.14
422.99	3784.65
423.18	3768.26
423.37	3784.65
423.56	3911.04
423.75	3824.44
423.94	3721.45
424.13	3555.27
424.32	3681.66
424.50	3976.57
424.69	3833.80
424.88	3826.78
425.07	3765.92
425.26	3770.60
425.45	3761.24
425.64	3861.88
425.83	3908.69
426.01	3934.44
426.20	3749.54
426.39	3971.89
426.58	3852.52
426.77	3833.80
426.96	3969.55
427.15	3915.72
427.33	4081.89
427.52	3992.95
427.71	4121.68
427.90	4046.79
428.09	4208.28
428.28	4109.98
428.46	4121.68
428.65	4280.84
428.84	4138.07
429.03	4255.09
429.22	4177.86
429.40	4126.36
429.59	4346.37
429.78	4058.49
429.97	4011.68
430.16	4091.26
430.34	4278.50
430.53	4285.52
430.72	4362.76
430.91	4292.54
431.10	4290.20
431.28	4322.97
431.47	4498.51
431.66	4463.40
431.85	4414.25
432.03	4592.13
432.22	4706.82
432.41	4503.19
432.60	4575.75
432.79	4568.73
432.97	4753.63
433.16	4695.11
433.35	4592.13
433.54	4578.09
433.72	4772.35
433.91	4648.30
434.10	4851.93
434.28	4685.75
434.47	4739.58
434.66	4875.34
434.85	4905.76
435.03	4835.55
435.22	4985.34
435.41	5074.28
435.59	5001.72
435.78	5060.24
435.97	5006.41
436.16	5067.26
436.34	5100.03
436.53	4851.93
436.72	5135.14
436.90	5055.56
437.09	5128.11
437.28	5212.37
437.46	5102.37
437.65	5102.37
437.84	5093.01
438.02	5158.54
438.21	5109.39
438.40	5097.69
438.58	5472.17
438.77	5507.28
438.96	5287.27
439.14	5404.30
439.33	5282.59
439.52	5626.65
439.70	5528.35
439.89	5640.69
440.08	5731.97
440.26	5722.61
440.45	5802.19
440.63	5865.38
440.82	5949.64
441.01	5928.58
441.19	5963.68
441.38	6057.31
441.57	5933.26
441.75	6029.22
441.94	6061.99
442.12	6298.38
442.31	6480.94
442.50	6127.52
442.68	6209.44
442.87	6253.91
443.05	6211.78
443.24	6389.66
443.43	6415.41
443.61	6492.65
443.80	6483.28
443.98	6188.38
444.17	6026.88
444.35	6427.11
444.54	6450.52
444.73	6490.31
444.91	6296.04
445.10	6338.17
445.28	6452.86
445.47	6483.28
445.65	6438.81
445.84	6394.34
446.02	6518.39
446.21	6574.56
446.39	6466.90
446.58	6555.84
446.77	6761.81
446.95	6597.97
447.14	6513.71
447.32	6597.97
447.51	6576.91
447.69	6623.72
447.88	6677.55
448.06	6583.93
448.25	6628.40
448.43	6705.63
448.62	6607.33
448.80	6576.91
448.99	6712.66
449.17	6764.15
449.36	6724.36
449.54	6974.80
449.73	7105.87
449.91	7021.61
450.10	6839.05
450.28	6974.80
450.46	7056.72
450.65	6906.92
450.83	7148.00
451.02	6949.05
451.20	7372.69
451.39	7215.87
451.57	7052.03
451.76	7054.37
451.94	7265.02
452.13	7253.32
452.31	7246.30
452.49	7054.37
452.68	7363.33
452.86	7150.34
453.05	7325.88
453.23	7178.42
453.42	7454.61
453.60	7229.91
453.78	7255.66
453.97	7398.43
454.15	7410.14
454.34	7358.64
454.52	7648.87
454.70	7468.65
454.89	7573.97
455.07	7723.77
455.26	7630.15
455.44	7744.83
455.62	7658.23
455.81	7733.13
455.99	7723.77
456.17	7791.64
456.36	7866.54
456.54	7929.74
456.73	8021.02
456.91	8109.96
457.09	8051.44
457.28	8224.64
457.46	8107.62
457.64	8226.98
457.83	8053.78
458.01	8067.83
458.19	8376.78
458.38	8439.97
458.56	8173.15
458.74	8229.32
458.93	8156.77
459.11	8348.69
459.29	8259.75
459.48	8404.86
459.66	8360.39
459.84	8519.55
460.03	8599.13
460.21	8444.65
460.39	8589.77
460.57	8573.38
460.76	8617.85
460.94	8585.08
461.12	8564.02
461.31	8889.35
461.49	8741.90
461.67	8475.08
461.85	8854.25
462.04	8638.92
462.22	9167.88
462.40	9015.74
462.59	8924.46
462.77	8971.27
462.95	8889.35
463.13	9090.64
463.32	9027.45
463.50	9146.81
463.68	9240.44
463.86	8999.36
464.05	9064.89
464.23	9144.47
464.41	9170.22
464.59	9273.20
464.78	9282.56
464.96	9305.97
465.14	9261.50
465.32	9624.28
465.50	9444.06
465.69	9320.01
465.87	9226.39
466.05	9345.76
466.23	9584.49
466.41	9549.39
466.60	9659.39
466.78	9259.16
466.96	9586.83
467.14	9685.14
467.32	9612.58
467.51	9816.21
467.69	9603.22
467.87	9694.50
468.05	9736.63
468.23	9664.07
468.41	9598.54
468.60	9577.47
468.78	10080.69
468.96	9844.29
469.14	9912.17
469.32	9984.73
469.50	9785.78
469.69	10052.60
469.87	10200.05
470.05	10139.20
470.23	10209.42
470.41	10204.74
470.59	10200.05
470.77	10211.76
470.95	10312.40
471.14	10445.81
471.32	10176.65
471.50	10628.37
471.68	10525.39
471.86	10693.91
472.04	10633.05
472.22	10705.61
472.40	10745.40
472.58	10834.34
472.77	10675.18
472.95	10871.79
473.13	11367.98
473.31	10874.13
473.49	11150.31
473.67	11066.05
473.85	10801.57
474.03	11335.21
474.21	11176.06
474.39	11559.91
474.57	11454.58
474.75	11611.40
474.93	11737.79
475.12	11618.42
475.30	11777.58
475.48	11613.74
475.66	11857.15
475.84	11882.90
476.02	11822.05
476.20	11777.58
476.38	12203.55
476.56	12269.09
476.74	12400.16
476.92	12255.04
477.10	12397.82
477.28	12634.21
477.46	12491.44
477.64	12760.60
477.82	13158.49
478.00	13132.75
478.18	13018.06
478.36	13266.16
478.54	13139.77
478.72	13462.76
478.90	13530.64
479.08	13760.01
479.26	13657.03
479.44	13626.60
479.62	13881.72
479.80	13891.08
479.98	14008.11
480.16	14274.93
480.34	14300.67
480.52	14417.70
480.70	14651.75
480.88	14284.29
481.06	14508.98
481.24	14714.95
481.41	14633.03
481.59	14909.21
481.77	15126.88
481.95	15276.68
482.13	15351.57
482.31	15311.78
482.49	15604.35
482.67	15456.90
482.85	16004.58
483.03	16252.68
483.21	16093.52
483.39	16266.72
483.57	15967.13
483.74	16418.86
483.92	16615.46
484.10	16704.40
484.28	17034.42
484.46	17039.10
484.64	17158.47
484.82	16961.86
485.00	17186.55
485.18	17937.87
485.35	17741.26
485.53	17589.13
485.71	17722.54
485.89	18005.74
486.07	17818.50
486.25	18237.45
486.43	17907.44
486.61	18583.85
486.78	18658.75
486.96	18754.71
487.14	18747.69
487.32	19253.25
487.50	19360.91
487.68	19487.30
487.85	19590.28
488.03	19510.71
488.21	20098.18
488.39	19978.81
488.57	20603.74
488.75	20201.16
488.92	20903.32
489.10	20552.24
489.28	20870.56
489.46	21039.08
489.64	20975.88
489.81	21476.76
489.99	21336.32
490.17	21394.84
490.35	22005.72
490.53	21996.35
490.70	21984.65
490.88	21715.49
491.06	22522.98
491.24	21996.35
491.41	22464.46
491.59	22930.23
491.77	22569.79
491.95	23204.07
492.13	23253.22
492.30	23669.84
492.48	23288.33
492.66	23475.57
492.84	23335.14
493.01	23679.20
493.19	23833.68
493.37	24107.52
493.54	24315.83
493.72	24503.07
493.90	24435.19
494.08	24489.03
494.25	24926.71
494.43	24947.77
494.61	24947.77
494.79	25249.70
494.96	25418.22
495.14	24985.22
495.32	25820.79
495.49	25769.30
495.67	25743.55
495.85	26548.70
496.02	26822.54
496.20	26291.24
496.38	26515.93
496.55	26611.89
496.73	27056.59
496.91	27091.70
497.09	27328.10
497.26	27508.32
497.44	27208.73
497.62	27498.95
497.79	27768.12
497.97	27620.66
498.14	27957.70
498.32	28243.24
498.50	28252.61
498.67	28673.90
498.85	28439.85
499.03	28252.61
499.20	28727.74
499.38	28840.08
499.56	29024.98
499.73	28690.29
499.91	29294.14
500.08	29289.46
500.26	29340.96
500.44	29565.65
500.61	29647.57
500.79	29439.26
500.97	29956.52
501.14	30195.25
501.32	30398.88
501.49	30106.31
501.67	30010.35
501.84	30352.07
502.02	30363.77
502.20	30841.24
502.37	30859.96
502.55	30794.43
502.72	30419.94
502.90	31007.42
503.07	31351.48
503.25	31241.47
503.43	31145.51
503.60	31667.45
503.78	31328.07
503.95	31674.47
504.13	31723.62
504.30	31323.39
504.48	31690.85
504.65	32093.43
504.83	32170.66
505.01	32322.80
505.18	32329.82
505.36	32573.24
505.53	32290.03
505.71	32549.83
505.88	32774.52
506.06	32603.66
506.23	32800.27
506.41	33113.90
506.58	33209.86
506.76	33081.13
506.93	33062.41
507.11	32929.00
507.28	33486.04
507.46	33764.57
507.63	33865.21
507.81	33907.34
507.98	33694.35
508.16	34057.14
508.33	33935.43
508.50	34078.20
508.68	34129.69
508.85	34403.53
509.03	34209.27
509.20	34611.84
509.38	35035.48
509.55	34909.09
509.73	34696.10
509.90	35204.00
510.08	34733.55
510.25	34789.72
510.42	35103.35
510.60	35590.19
510.77	35693.17
510.95	35447.41
511.12	35681.47
511.30	35157.19
511.47	36044.25
511.64	35892.12
511.82	36196.38
511.99	36133.19
512.17	36638.75
512.34	36046.59
512.51	36664.49
512.69	36631.72
512.86	37013.23
513.04	36797.90
513.21	37099.83
513.38	37088.13
513.56	37076.43
513.73	37134.94
513.90	37120.90
514.08	37167.71
514.25	37661.56
514.43	37495.38
514.60	37312.82
514.77	37745.82
514.95	37722.41
515.12	38218.61
515.29	37872.21
515.47	38483.09
515.64	38419.89
515.81	38321.59
515.99	38473.73
516.16	38637.56
516.33	38843.53
516.51	38686.71
516.68	38588.41
516.85	38651.61
517.03	39056.52
517.20	39250.78
517.37	39239.08
517.54	39007.37
517.72	39154.82
517.89	39309.30
518.06	39014.39
518.24	39061.20
518.41	39152.48
518.58	39793.79
518.75	39356.11
518.93	40098.06
519.10	39934.22
519.27	40201.04
519.45	39309.30
519.62	40011.46
519.79	40198.70
519.96	40259.55
520.14	40645.74
520.31	40058.27
520.48	40861.07
520.65	40568.51
520.83	40582.55
521.00	40596.59
521.17	40701.92
521.34	41055.34
521.52	41130.23
521.69	40842.35
521.86	41153.64
522.03	41165.34
522.20	41509.40
522.38	41619.41
522.55	41652.17
522.72	41542.17
522.89	41532.81
523.07	41759.84
523.24	41710.69
523.41	42064.11
523.58	41785.58
523.75	42157.73
523.92	42064.11
524.10	42120.28
524.27	42249.01
524.44	42333.27
524.61	42852.87
524.78	42384.76
524.96	42368.38
525.13	42679.67
525.30	42674.99
525.47	42719.46
525.64	42623.50
525.81	43662.69
525.98	42845.85
526.16	43126.71
526.33	42815.42
526.50	43199.27
526.67	43026.07
526.84	43143.09
527.01	43681.42
527.18	43236.72
527.36	43728.23
527.53	43093.94
527.70	43559.71
527.87	44030.16
528.04	43653.33
528.21	43929.51
528.38	44051.22
528.55	44039.52
528.72	43959.94
528.89	44231.44
529.07	44083.99
529.24	44032.50
529.41	44559.12
529.58	44435.07
529.75	44708.91
529.92	44205.70
530.09	44191.65
530.26	44406.98
530.43	44999.14
530.60	44891.48
530.77	44837.64
530.94	44882.11
531.11	44589.55
531.28	45078.72
531.46	44692.53
531.63	44985.10
531.80	45188.72
531.97	45642.79
532.14	45263.62
532.31	45315.11
532.48	45212.13
532.65	45518.74
532.82	45340.86
532.99	45677.90
533.16	45139.57
533.33	46064.08
533.50	45902.59
533.67	46284.09
533.84	45909.61
534.01	45670.87
534.18	45902.59
534.35	46064.08
534.52	45972.80
534.69	46335.59
534.86	46857.52
535.03	46199.83
535.20	46181.11
535.37	46092.17
535.54	46419.84
535.71	46136.64
535.88	46857.52
536.05	46410.48
536.22	46637.51
536.38	46880.93
536.55	46789.65
536.72	47007.32
536.89	46958.17
537.06	46876.25
537.23	46967.53
537.40	46876.25
537.57	46951.15
537.74	47114.98
537.91	47578.41
538.08	47288.18
538.25	47496.49
538.42	47175.84
538.59	47192.22
538.75	47370.10
538.92	47559.69
539.09	47693.10
539.26	47950.56
539.43	47297.55
539.60	47910.77
539.77	48381.21
539.94	47569.05
540.11	47973.96
540.28	47716.50
540.44	47775.02
540.61	47648.63
540.78	47779.70
540.95	48341.42
541.12	48116.73
541.29	48437.39
541.46	48402.28
541.62	48093.33
541.79	48378.87
541.96	47646.29
542.13	48343.77
542.30	48205.67
542.47	48629.31
542.63	48598.88
542.80	48336.74
542.97	48596.54
543.14	48945.28
543.31	48610.59
543.48	48940.60
543.64	48746.34
543.81	48971.03
543.98	48844.64
544.15	48959.33
544.32	49184.02
544.48	49223.81
544.65	49294.02
544.82	48973.37
544.99	48940.60
545.16	49113.80
545.32	49429.77
545.49	49727.02
545.66	49837.03
545.83	49673.19
546.00	49928.31
546.16	49621.70
546.33	49305.73
546.50	49127.84
546.67	49696.59
546.83	49296.36
547.00	49525.74
547.17	49724.68
547.34	49986.82
547.50	49790.22
547.67	50382.37
547.84	50012.57
548.00	49780.85
548.17	50064.06
548.34	49928.31
548.51	50155.34
548.67	50461.95
548.84	50178.75
549.01	50314.50
549.18	50108.53
549.34	50035.97
549.51	50396.42
549.68	50244.28
549.84	50410.46
550.01	50483.01
550.18	49996.18
550.34	50246.62
550.51	50602.38
550.68	50466.63
550.84	50157.68
551.01	50475.99
551.18	50277.05
551.34	50244.28
551.51	50553.23
551.68	50703.03
551.84	51098.58
552.01	50637.49
552.18	51016.66
552.34	50637.49
552.51	51112.62
552.68	50892.61
552.84	50946.44
553.01	50906.65
553.18	51168.79
553.34	51112.62
553.51	51180.49
553.67	51011.98
553.84	51477.74
554.01	51356.03
554.17	51281.14
554.34	51117.30
554.51	51505.83
554.67	51466.04
554.84	51381.78
555.00	51222.62
555.17	51580.73
555.33	51253.05
555.50	51349.01
555.67	51381.78
555.83	51264.75
556.00	51444.98
556.16	51618.17
556.33	51782.01
556.50	51679.03
556.66	51784.35
556.83	51559.66
556.99	52088.62
557.16	52109.69
557.32	51906.06
557.49	51707.12
557.65	51529.23
557.82	51655.62
557.98	51578.39
558.15	51779.67
558.32	51945.85
558.48	52062.88
558.65	51629.88
558.81	52083.94
558.98	51765.63
559.14	51711.80
559.31	51957.55
559.47	51952.87
559.64	51835.84
559.80	52275.87
559.97	52203.31
560.13	52322.68
560.30	52086.28
560.46	52294.59
560.63	52264.16
560.79	52442.04
560.96	52374.17
561.12	52058.20
561.29	52088.62
561.45	52067.56
561.61	52250.12
561.78	52184.58
561.94	52481.83
562.11	52161.18
562.27	52240.76
562.44	51826.48
562.60	52135.43
562.77	52463.11
562.93	52467.79
563.10	52648.01
563.26	52631.63
563.42	52498.22
563.59	52566.09
563.75	52411.62
563.92	52655.03
564.08	52243.10
564.24	52559.07
564.41	52271.18
564.57	52528.64
564.74	52680.78
564.90	52762.70
565.07	52931.22
565.23	52949.94
565.39	52999.09
565.56	52856.32
565.72	52350.76
565.88	52673.76
566.05	52402.25
566.21	52261.82
566.38	52680.78
566.54	52790.78
566.70	52999.09
566.87	53078.67
567.03	52713.55
567.19	52982.71
567.36	52828.23
567.52	52699.50
567.68	53071.65
567.85	52741.63
568.01	52748.65
568.17	52762.70
568.34	53017.82
568.50	53097.39
568.66	53205.06
568.83	53223.78
568.99	52896.11
569.15	52954.62
569.32	52650.35
569.48	52690.14
569.64	53003.77
569.81	52963.98
569.97	52912.49
570.13	53083.35
570.30	52746.31
570.46	52996.75
570.62	53165.27
570.78	52947.60
570.95	53198.04
571.11	53169.95
571.27	52790.78
571.43	52846.96
571.60	53399.32
571.76	53258.89
571.92	53052.92
572.09	53340.81
572.25	52992.07
572.41	53069.31
572.57	52987.39
572.74	53387.62
572.90	52889.09
573.06	52949.94
573.22	53258.89
573.38	53275.27
573.55	53153.57
573.71	53488.26
573.87	53411.02
574.03	53188.67
574.20	53399.32
574.36	53127.82
574.52	53336.13
574.68	52994.41
574.84	53137.18
575.01	53460.18
575.17	53235.48
575.33	53282.30
575.49	53069.31
575.65	53303.36
575.82	53329.11
575.98	53205.06
576.14	53509.33
576.30	53483.58
576.46	53338.47
576.62	53469.54
576.79	53113.78
576.95	53319.74
577.11	53425.07
577.27	53420.39
577.43	53584.22
577.59	53066.97
577.75	53483.58
577.92	53483.58
578.08	53345.49
578.24	53216.76
578.40	53450.81
578.56	53354.85
578.72	53563.16
578.88	53694.23
579.04	53485.92
579.21	53202.72
579.37	53418.05
579.53	53104.41
579.69	53478.90
579.85	53247.19
580.01	53436.77
580.17	53209.74
580.33	53385.28
580.49	53415.71
580.65	53455.50
580.82	53661.46
580.98	53396.98
581.14	53415.71
581.30	53546.78
581.46	53275.27
581.62	53345.49
581.78	53174.63
581.94	53813.60
582.10	53481.24
582.26	53621.67
582.42	53474.22
582.58	53677.85
582.74	53822.96
582.90	53584.22
583.06	53371.24
583.22	53329.11
583.38	53649.76
583.54	53778.49
583.70	53535.07
583.86	53659.12
584.02	53389.96
584.18	53741.04
584.34	53404.00
584.50	53858.07
584.66	53497.62
584.82	53298.68
584.98	53188.67
585.14	53422.73
585.30	53584.22
585.46	53705.93
585.62	53361.87
585.78	53682.53
585.94	53286.98
586.10	53385.28
586.26	53432.09
586.42	53872.11
586.58	53811.26
586.74	53743.38
586.90	53549.12
587.06	53516.35
587.22	53727.00
587.38	53354.85
587.54	53593.59
587.70	53712.95
587.86	53607.63
588.02	53705.93
588.18	54094.46
588.34	53609.97
588.49	53675.51
588.65	53586.57
588.81	53698.91
588.97	53708.27
589.13	53549.12
589.29	53497.62
589.45	53628.69
589.61	53855.73
589.77	53914.24
589.93	53736.36
590.08	53986.80
