SpectraSuite Data File
++++++++++++++++++++++++++++++++++++
Date: Fri Oct 04 11:47:02 GMT-05:00 2013
User: price-jones
Dark Spectrum Present: No
Reference Spectrum Present: No
Number of Sampled Component Spectra: 1
Spectrometers: USB2+H05261
Integration Time (usec): 100000 (USB2+H05261)
Spectra Averaged: 1 (USB2+H05261)
Boxcar Smoothing: 0 (USB2+H05261)
Correct for Electrical Dark: No (USB2+H05261)
Strobe/Lamp Enabled: No (USB2+H05261)
Correct for Detector Non-linearity: No (USB2+H05261)
Correct for Stray Light: No (USB2+H05261)
Number of Pixels in Processed Spectrum: 2048
>>>>>Begin Processed Spectral Data<<<<<
365.73	0.00
365.92	0.00
366.12	0.00
366.32	0.00
366.52	0.00
366.72	0.00
366.91	0.00
367.11	0.00
367.31	0.00
367.51	0.00
367.70	0.00
367.90	0.00
368.10	0.00
368.30	0.00
368.49	0.00
368.69	21.06
368.89	0.00
369.09	0.00
369.28	0.00
369.48	0.00
369.68	0.00
369.87	0.00
370.07	0.00
370.27	58.51
370.47	0.00
370.66	0.00
370.86	28.09
371.06	86.60
371.25	74.90
371.45	0.00
371.65	126.39
371.84	16.38
372.04	0.00
372.24	65.54
372.44	58.51
372.63	16.38
372.83	84.26
373.03	81.92
373.22	86.60
373.42	88.94
373.62	110.01
373.81	70.22
374.01	119.37
374.21	156.82
374.40	70.22
374.60	117.03
374.79	88.94
374.99	187.24
375.19	138.09
375.38	39.79
375.58	135.75
375.78	149.79
375.97	30.43
376.17	84.26
376.37	175.54
376.56	95.96
376.76	100.64
376.95	135.75
377.15	175.54
377.35	100.64
377.54	107.66
377.74	28.09
377.93	67.88
378.13	107.66
378.33	135.75
378.52	135.75
378.72	91.28
378.91	138.09
379.11	42.13
379.31	88.94
379.50	107.66
379.70	117.03
379.89	74.90
380.09	65.54
380.28	84.26
380.48	42.13
380.68	63.19
380.87	63.19
381.07	105.32
381.26	159.16
381.46	138.09
381.65	93.62
381.85	93.62
382.04	35.11
382.24	88.94
382.43	98.30
382.63	117.03
382.83	86.60
383.02	102.98
383.22	110.01
383.41	77.24
383.61	100.64
383.80	110.01
384.00	126.39
384.19	102.98
384.39	70.22
384.58	44.47
384.78	93.62
384.97	133.41
385.17	95.96
385.36	91.28
385.56	156.82
385.75	77.24
385.95	46.81
386.14	112.35
386.34	102.98
386.53	110.01
386.72	37.45
386.92	170.86
387.11	51.49
387.31	98.30
387.50	142.77
387.70	95.96
387.89	100.64
388.09	72.56
388.28	58.51
388.48	39.79
388.67	117.03
388.86	105.32
389.06	117.03
389.25	91.28
389.45	102.98
389.64	81.92
389.84	105.32
390.03	86.60
390.22	84.26
390.42	53.83
390.61	53.83
390.81	121.71
391.00	128.73
391.19	140.43
391.39	35.11
391.58	161.50
391.78	44.47
391.97	114.69
392.16	67.88
392.36	203.63
392.55	203.63
392.75	112.35
392.94	112.35
393.13	138.09
393.33	93.62
393.52	102.98
393.71	100.64
393.91	156.82
394.10	44.47
394.29	60.85
394.49	163.84
394.68	95.96
394.88	100.64
395.07	74.90
395.26	58.51
395.46	163.84
395.65	152.13
395.84	56.17
396.04	147.45
396.23	91.28
396.42	74.90
396.62	77.24
396.81	81.92
397.00	107.66
397.19	163.84
397.39	79.58
397.58	44.47
397.77	145.11
397.97	121.71
398.16	25.75
398.35	9.36
398.55	166.18
398.74	124.05
398.93	91.28
399.12	63.19
399.32	88.94
399.51	88.94
399.70	208.31
399.90	170.86
400.09	112.35
400.28	182.56
400.47	131.07
400.67	84.26
400.86	42.13
401.05	100.64
401.24	86.60
401.44	65.54
401.63	203.63
401.82	119.37
402.01	60.85
402.21	100.64
402.40	170.86
402.59	84.26
402.78	142.77
402.97	30.43
403.17	65.54
403.36	42.13
403.55	81.92
403.74	142.77
403.93	170.86
404.13	131.07
404.32	95.96
404.51	145.11
404.70	166.18
404.89	70.22
405.09	184.90
405.28	93.62
405.47	51.49
405.66	175.54
405.85	93.62
406.05	142.77
406.24	42.13
406.43	39.79
406.62	117.03
406.81	131.07
407.00	77.24
407.20	53.83
407.39	159.16
407.58	100.64
407.77	77.24
407.96	184.90
408.15	46.81
408.34	117.03
408.54	56.17
408.73	124.05
408.92	51.49
409.11	156.82
409.30	107.66
409.49	110.01
409.68	84.26
409.87	135.75
410.07	124.05
410.26	81.92
410.45	95.96
410.64	114.69
410.83	107.66
411.02	86.60
411.21	166.18
411.40	142.77
411.59	124.05
411.78	110.01
411.98	60.85
412.17	154.48
412.36	56.17
412.55	93.62
412.74	95.96
412.93	173.20
413.12	70.22
413.31	175.54
413.50	117.03
413.69	91.28
413.88	145.11
414.07	58.51
414.26	86.60
414.45	91.28
414.64	163.84
414.83	84.26
415.02	114.69
415.22	149.79
415.41	126.39
415.60	98.30
415.79	70.22
415.98	128.73
416.17	95.96
416.36	128.73
416.55	175.54
416.74	79.58
416.93	86.60
417.12	100.64
417.31	140.43
417.50	147.45
417.69	138.09
417.88	220.01
418.07	159.16
418.26	81.92
418.45	152.13
418.64	170.86
418.83	210.65
419.02	217.67
419.21	161.50
419.39	217.67
419.58	135.75
419.77	131.07
419.96	138.09
420.15	180.22
420.34	49.15
420.53	177.88
420.72	88.94
420.91	58.51
421.10	63.19
421.29	114.69
421.48	79.58
421.67	84.26
421.86	91.28
422.05	163.84
422.24	93.62
422.43	51.49
422.61	86.60
422.80	117.03
422.99	168.52
423.18	112.35
423.37	88.94
423.56	180.22
423.75	203.63
423.94	60.85
424.13	105.32
424.32	74.90
424.50	149.79
424.69	58.51
424.88	182.56
425.07	117.03
425.26	257.46
425.45	161.50
425.64	191.92
425.83	231.71
426.01	187.24
426.20	138.09
426.39	140.43
426.58	140.43
426.77	133.41
426.96	124.05
427.15	187.24
427.33	67.88
427.52	21.06
427.71	138.09
427.90	119.37
428.09	142.77
428.28	149.79
428.46	121.71
428.65	119.37
428.84	133.41
429.03	145.11
429.22	154.48
429.40	107.66
429.59	107.66
429.78	140.43
429.97	142.77
430.16	100.64
430.34	152.13
430.53	100.64
430.72	168.52
430.91	147.45
431.10	117.03
431.28	95.96
431.47	126.39
431.66	135.75
431.85	74.90
432.03	110.01
432.22	114.69
432.41	166.18
432.60	131.07
432.79	152.13
432.97	203.63
433.16	198.95
433.35	196.60
433.54	152.13
433.72	128.73
433.91	168.52
434.10	170.86
434.28	196.60
434.47	98.30
434.66	140.43
434.85	124.05
435.03	128.73
435.22	163.84
435.41	217.67
435.59	161.50
435.78	156.82
435.97	107.66
436.16	229.37
436.34	124.05
436.53	88.94
436.72	140.43
436.90	184.90
437.09	119.37
437.28	196.60
437.46	100.64
437.65	77.24
437.84	98.30
438.02	161.50
438.21	154.48
438.40	98.30
438.58	95.96
438.77	53.83
438.96	42.13
439.14	88.94
439.33	135.75
439.52	98.30
439.70	142.77
439.89	154.48
440.08	224.69
440.26	159.16
440.45	173.20
440.63	149.79
440.82	114.69
441.01	161.50
441.19	152.13
441.38	142.77
441.57	105.32
441.75	145.11
441.94	152.13
442.12	79.58
442.31	93.62
442.50	154.48
442.68	88.94
442.87	201.29
443.05	140.43
443.24	102.98
443.43	138.09
443.61	131.07
443.80	156.82
443.98	100.64
444.17	107.66
444.35	138.09
444.54	126.39
444.73	86.60
444.91	217.67
445.10	168.52
445.28	102.98
445.47	84.26
445.65	112.35
445.84	30.43
446.02	110.01
446.21	102.98
446.39	95.96
446.58	88.94
446.77	117.03
446.95	95.96
447.14	166.18
447.32	159.16
447.51	138.09
447.69	175.54
447.88	95.96
448.06	182.56
448.25	95.96
448.43	198.95
448.62	91.28
448.80	170.86
448.99	105.32
449.17	100.64
449.36	112.35
449.54	154.48
449.73	161.50
449.91	252.78
450.10	184.90
450.28	201.29
450.46	187.24
450.65	177.88
450.83	138.09
451.02	95.96
451.20	180.22
451.39	88.94
451.57	159.16
451.76	74.90
451.94	138.09
452.13	205.97
452.31	238.73
452.49	196.60
452.68	133.41
452.86	98.30
453.05	114.69
453.23	91.28
453.42	138.09
453.60	208.31
453.78	142.77
453.97	131.07
454.15	184.90
454.34	112.35
454.52	180.22
454.70	166.18
454.89	105.32
455.07	161.50
455.26	175.54
455.44	117.03
455.62	159.16
455.81	140.43
455.99	161.50
456.17	187.24
456.36	70.22
456.54	138.09
456.73	184.90
456.91	135.75
457.09	161.50
457.28	189.58
457.46	121.71
457.64	173.20
457.83	121.71
458.01	63.19
458.19	196.60
458.38	138.09
458.56	212.99
458.74	86.60
458.93	126.39
459.11	86.60
459.29	79.58
459.48	112.35
459.66	184.90
459.84	147.45
460.03	224.69
460.21	159.16
460.39	95.96
460.57	252.78
460.76	67.88
460.94	65.54
461.12	166.18
461.31	67.88
461.49	46.81
461.67	161.50
461.85	177.88
462.04	161.50
462.22	568.75
462.40	156.82
462.59	163.84
462.77	170.86
462.95	79.58
463.13	88.94
463.32	180.22
463.50	138.09
463.68	135.75
463.86	184.90
464.05	196.60
464.23	170.86
464.41	152.13
464.59	128.73
464.78	72.56
464.96	107.66
465.14	184.90
465.32	182.56
465.50	189.58
465.69	173.20
465.87	124.05
466.05	95.96
466.23	102.98
466.41	67.88
466.60	117.03
466.78	166.18
466.96	152.13
467.14	121.71
467.32	119.37
467.51	227.03
467.69	210.65
467.87	212.99
468.05	161.50
468.23	187.24
468.41	135.75
468.60	191.92
468.78	133.41
468.96	135.75
469.14	91.28
469.32	93.62
469.50	67.88
469.69	180.22
469.87	124.05
470.05	166.18
470.23	194.26
470.41	117.03
470.59	131.07
470.77	121.71
470.95	121.71
471.14	142.77
471.32	86.60
471.50	180.22
471.68	147.45
471.86	112.35
472.04	135.75
472.22	168.52
472.40	145.11
472.58	198.95
472.77	91.28
472.95	105.32
473.13	173.20
473.31	166.18
473.49	112.35
473.67	110.01
473.85	138.09
474.03	189.58
474.21	156.82
474.39	149.79
474.57	224.69
474.75	234.05
474.93	156.82
475.12	121.71
475.30	135.75
475.48	135.75
475.66	65.54
475.84	154.48
476.02	189.58
476.20	173.20
476.38	156.82
476.56	154.48
476.74	138.09
476.92	102.98
477.10	91.28
477.28	88.94
477.46	154.48
477.64	224.69
477.82	161.50
478.00	131.07
478.18	191.92
478.36	156.82
478.54	147.45
478.72	124.05
478.90	135.75
479.08	105.32
479.26	142.77
479.44	140.43
479.62	105.32
479.80	152.13
479.98	177.88
480.16	95.96
480.34	149.79
480.52	93.62
480.70	203.63
480.88	128.73
481.06	133.41
481.24	37.45
481.41	114.69
481.59	191.92
481.77	133.41
481.95	88.94
482.13	236.39
482.31	168.52
482.49	140.43
482.67	243.42
482.85	131.07
483.03	187.24
483.21	222.35
483.39	196.60
483.57	175.54
483.74	210.65
483.92	189.58
484.10	114.69
484.28	175.54
484.46	243.42
484.64	198.95
484.82	147.45
485.00	119.37
485.18	44.47
485.35	175.54
485.53	173.20
485.71	203.63
485.89	112.35
486.07	100.64
486.25	184.90
486.43	180.22
486.61	187.24
486.78	180.22
486.96	259.80
487.14	175.54
487.32	198.95
487.50	201.29
487.68	205.97
487.85	46.81
488.03	161.50
488.21	184.90
488.39	88.94
488.57	168.52
488.75	88.94
488.92	484.49
489.10	117.03
489.28	191.92
489.46	212.99
489.64	159.16
489.81	180.22
489.99	229.37
490.17	189.58
490.35	227.03
490.53	117.03
490.70	88.94
490.88	177.88
491.06	145.11
491.24	208.31
491.41	147.45
491.59	145.11
491.77	166.18
491.95	220.01
492.13	95.96
492.30	170.86
492.48	126.39
492.66	191.92
492.84	98.30
493.01	285.55
493.19	203.63
493.37	205.97
493.54	257.46
493.72	224.69
493.90	149.79
494.08	161.50
494.25	140.43
494.43	168.52
494.61	177.88
494.79	163.84
494.96	147.45
495.14	161.50
495.32	147.45
495.49	166.18
495.67	259.80
495.85	187.24
496.02	133.41
496.20	231.71
496.38	234.05
496.55	187.24
496.73	203.63
496.91	201.29
497.09	210.65
497.26	182.56
497.44	198.95
497.62	133.41
497.79	159.16
497.97	175.54
498.14	234.05
498.32	212.99
498.50	161.50
498.67	135.75
498.85	161.50
499.03	205.97
499.20	149.79
499.38	110.01
499.56	198.95
499.73	250.44
499.91	145.11
500.08	238.73
500.26	149.79
500.44	168.52
500.61	175.54
500.79	175.54
500.97	175.54
501.14	201.29
501.32	198.95
501.49	248.10
501.67	180.22
501.84	222.35
502.02	201.29
502.20	234.05
502.37	145.11
502.55	177.88
502.72	184.90
502.90	212.99
503.07	138.09
503.25	205.97
503.43	236.39
503.60	208.31
503.78	203.63
503.95	180.22
504.13	205.97
504.30	201.29
504.48	212.99
504.65	243.42
504.83	220.01
505.01	201.29
505.18	222.35
505.36	241.08
505.53	212.99
505.71	163.84
505.88	252.78
506.06	131.07
506.23	189.58
506.41	126.39
506.58	140.43
506.76	175.54
506.93	156.82
507.11	180.22
507.28	205.97
507.46	149.79
507.63	196.60
507.81	168.52
507.98	212.99
508.16	299.59
508.33	156.82
508.50	224.69
508.68	133.41
508.85	184.90
509.03	189.58
509.20	173.20
509.38	163.84
509.55	236.39
509.73	248.10
509.90	238.73
510.08	140.43
510.25	205.97
510.42	126.39
510.60	142.77
510.77	241.08
510.95	203.63
511.12	187.24
511.30	266.82
511.47	154.48
511.64	241.08
511.82	287.89
511.99	243.42
512.17	220.01
512.34	173.20
512.51	215.33
512.69	203.63
512.86	222.35
513.04	180.22
513.21	210.65
513.38	166.18
513.56	168.52
513.73	152.13
513.90	114.69
514.08	205.97
514.25	217.67
514.43	203.63
514.60	161.50
514.77	236.39
514.95	194.26
515.12	191.92
515.29	208.31
515.47	245.76
515.64	194.26
515.81	177.88
515.99	243.42
516.16	224.69
516.33	217.67
516.51	198.95
516.68	126.39
516.85	163.84
517.03	252.78
517.20	234.05
517.37	168.52
517.54	198.95
517.72	170.86
517.89	133.41
518.06	95.96
518.24	271.50
518.41	299.59
518.58	234.05
518.75	220.01
518.93	231.71
519.10	189.58
519.27	105.32
519.45	252.78
519.62	301.93
519.79	229.37
519.96	147.45
520.14	177.88
520.31	201.29
520.48	154.48
520.65	149.79
520.83	194.26
521.00	102.98
521.17	205.97
521.34	124.05
521.52	163.84
521.69	168.52
521.86	297.25
522.03	210.65
522.20	276.18
522.38	156.82
522.55	205.97
522.72	140.43
522.89	229.37
523.07	255.12
523.24	220.01
523.41	222.35
523.58	159.16
523.75	156.82
523.92	187.24
524.10	250.44
524.27	187.24
524.44	269.16
524.61	196.60
524.78	147.45
524.96	201.29
525.13	196.60
525.30	222.35
525.47	210.65
525.64	182.56
525.81	248.10
525.98	201.29
526.16	119.37
526.33	138.09
526.50	180.22
526.67	184.90
526.84	159.16
527.01	175.54
527.18	177.88
527.36	248.10
527.53	175.54
527.70	154.48
527.87	208.31
528.04	119.37
528.21	278.52
528.38	248.10
528.55	220.01
528.72	245.76
528.89	271.50
529.07	194.26
529.24	194.26
529.41	252.78
529.58	131.07
529.75	241.08
529.92	255.12
530.09	227.03
530.26	147.45
530.43	133.41
530.60	212.99
530.77	245.76
530.94	215.33
531.11	215.33
531.28	229.37
531.46	205.97
531.63	201.29
531.80	191.92
531.97	203.63
532.14	201.29
532.31	236.39
532.48	229.37
532.65	365.12
532.82	418.96
532.99	395.55
533.16	262.14
533.33	227.03
533.50	243.42
533.67	358.10
533.84	386.19
534.01	365.12
534.18	383.85
534.35	304.27
534.52	301.93
534.69	330.02
534.86	227.03
535.03	262.14
535.20	222.35
535.37	283.20
535.54	212.99
535.71	187.24
535.88	236.39
536.05	189.58
536.22	173.20
536.38	243.42
536.55	224.69
536.72	229.37
536.89	243.42
537.06	128.73
537.23	184.90
537.40	234.05
537.57	194.26
537.74	220.01
537.91	257.46
538.08	191.92
538.25	262.14
538.42	170.86
538.59	205.97
538.75	285.55
538.92	201.29
539.09	346.40
539.26	222.35
539.43	409.59
539.60	1212.40
539.77	1760.08
539.94	1795.19
540.11	1128.14
540.28	704.50
540.44	461.09
540.61	344.06
540.78	205.97
540.95	191.92
541.12	194.26
541.29	133.41
541.46	250.44
541.62	208.31
541.79	229.37
541.96	138.09
542.13	180.22
542.30	166.18
542.47	196.60
542.63	180.22
542.80	236.39
542.97	194.26
543.14	229.37
543.31	231.71
543.48	203.63
543.64	234.05
543.81	198.95
543.98	189.58
544.15	100.64
544.32	166.18
544.48	163.84
544.65	191.92
544.82	191.92
544.99	191.92
545.16	131.07
545.32	163.84
545.49	184.90
545.66	191.92
545.83	91.28
546.00	152.13
546.16	198.95
546.33	205.97
546.50	227.03
546.67	245.76
546.83	201.29
547.00	229.37
547.17	147.45
547.34	149.79
547.50	203.63
547.67	276.18
547.84	131.07
548.00	224.69
548.17	222.35
548.34	170.86
548.51	205.97
548.67	196.60
548.84	194.26
549.01	210.65
549.18	184.90
549.34	278.52
549.51	222.35
549.68	243.42
549.84	210.65
550.01	163.84
550.18	271.50
550.34	264.48
550.51	234.05
550.68	257.46
550.84	208.31
551.01	182.56
551.18	201.29
551.34	201.29
551.51	243.42
551.68	231.71
551.84	287.89
552.01	203.63
552.18	166.18
552.34	245.76
552.51	201.29
552.68	175.54
552.84	177.88
553.01	224.69
553.18	222.35
553.34	210.65
553.51	177.88
553.67	227.03
553.84	304.27
554.01	231.71
554.17	255.12
554.34	196.60
554.51	177.88
554.67	229.37
554.84	208.31
555.00	182.56
555.17	184.90
555.33	245.76
555.50	257.46
555.67	215.33
555.83	224.69
556.00	313.63
556.16	414.27
556.33	203.63
556.50	170.86
556.66	203.63
556.83	250.44
556.99	189.58
557.16	196.60
557.32	191.92
557.49	210.65
557.65	189.58
557.82	159.16
557.98	184.90
558.15	224.69
558.32	133.41
558.48	156.82
558.65	234.05
558.81	201.29
558.98	208.31
559.14	231.71
559.31	205.97
559.47	166.18
559.64	196.60
559.80	229.37
559.97	173.20
560.13	264.48
560.30	166.18
560.46	227.03
560.63	196.60
560.79	154.48
560.96	194.26
561.12	182.56
561.29	220.01
561.45	222.35
561.61	215.33
561.78	231.71
561.94	236.39
562.11	227.03
562.27	201.29
562.44	194.26
562.60	215.33
562.77	215.33
562.93	280.86
563.10	252.78
563.26	196.60
563.42	280.86
563.59	112.35
563.75	238.73
563.92	290.23
564.08	203.63
564.24	189.58
564.41	224.69
564.57	215.33
564.74	152.13
564.90	231.71
565.07	250.44
565.23	311.29
565.39	301.93
565.56	210.65
565.72	262.14
565.88	210.65
566.05	250.44
566.21	227.03
566.38	250.44
566.54	187.24
566.70	205.97
566.87	145.11
567.03	154.48
567.19	248.10
567.36	201.29
567.52	152.13
567.68	224.69
567.85	271.50
568.01	173.20
568.17	191.92
568.34	241.08
568.50	271.50
568.66	271.50
568.83	220.01
568.99	208.31
569.15	212.99
569.32	189.58
569.48	208.31
569.64	152.13
569.81	152.13
569.97	248.10
570.13	227.03
570.30	208.31
570.46	215.33
570.62	142.77
570.78	163.84
570.95	105.32
571.11	203.63
571.27	313.63
571.43	257.46
571.60	266.82
571.76	205.97
571.92	166.18
572.09	217.67
572.25	156.82
572.41	198.95
572.57	191.92
572.74	271.50
572.90	173.20
573.06	229.37
573.22	215.33
573.38	187.24
573.55	168.52
573.71	241.08
573.87	241.08
574.03	231.71
574.20	229.37
574.36	248.10
574.52	315.97
574.68	287.89
574.84	227.03
575.01	290.23
575.17	236.39
575.33	245.76
575.49	180.22
575.65	255.12
575.82	341.72
575.98	624.92
576.14	725.57
576.30	821.53
576.46	557.05
576.62	454.06
576.79	273.84
576.95	386.19
577.11	332.36
577.27	264.48
577.43	287.89
577.59	285.55
577.75	271.50
577.92	285.55
578.08	229.37
578.24	290.23
578.40	257.46
578.56	224.69
578.72	266.82
578.88	262.14
579.04	304.27
579.21	252.78
579.37	191.92
579.53	238.73
579.69	449.38
579.85	271.50
580.01	290.23
580.17	348.74
580.33	374.49
580.49	299.59
580.65	266.82
580.82	360.44
580.98	383.85
581.14	322.99
581.30	404.91
581.46	521.94
581.62	643.65
581.78	685.78
581.94	660.03
582.10	447.04
582.26	435.34
582.42	491.51
582.58	475.13
582.74	418.96
582.90	411.93
583.06	538.32
583.22	493.85
583.38	566.41
583.54	547.69
583.70	554.71
583.86	809.83
584.02	887.06
584.18	1071.97
584.34	1490.92
584.50	4014.02
584.66	31969.38
584.82	63016.58
584.98	65535.00
585.14	65535.00
585.30	60521.57
585.46	37947.11
585.62	23000.44
585.78	10415.38
585.94	4030.40
586.10	1998.82
586.26	1289.64
586.42	973.66
586.58	868.34
586.74	683.44
586.90	725.57
587.06	713.86
587.22	594.50
587.38	538.32
587.54	1465.18
587.70	4535.96
587.86	7410.14
588.02	8107.62
588.18	5645.37
588.34	3564.64
588.49	2342.88
588.65	1383.26
588.81	692.80
588.97	407.25
589.13	360.44
589.29	388.53
589.45	318.31
589.61	339.38
589.77	465.77
589.93	510.24
590.08	486.83
590.24	477.47
590.40	528.96
590.56	465.77
590.72	330.02
590.88	381.51
591.04	327.68
591.20	315.97
591.35	376.83
591.51	362.78
591.67	269.16
591.83	322.99
591.99	346.40
592.15	236.39
592.31	341.72
592.46	290.23
592.62	341.72
592.78	278.52
592.94	290.23
593.10	306.61
593.26	404.91
593.41	365.12
593.57	332.36
593.73	671.73
593.89	3646.55
594.05	9596.20
594.20	13834.91
594.36	13102.32
594.52	8454.02
594.68	5254.50
594.84	3393.78
594.99	1900.52
595.15	833.23
595.31	489.17
595.47	447.04
595.62	271.50
595.78	360.44
595.94	287.89
596.10	418.96
596.25	353.42
596.41	388.53
596.57	346.40
596.73	337.04
596.88	613.22
597.04	1643.06
597.20	2925.67
597.36	3239.30
597.51	2513.74
597.67	1647.74
597.83	1128.14
597.99	854.30
598.14	496.19
598.30	355.76
598.46	325.33
598.61	351.08
598.77	341.72
598.93	269.16
599.09	252.78
599.24	273.84
599.40	252.78
599.56	229.37
599.71	220.01
599.87	210.65
600.03	252.78
600.18	198.95
600.34	184.90
600.50	220.01
600.65	166.18
600.81	227.03
600.97	220.01
601.12	248.10
601.28	257.46
601.44	245.76
601.59	173.20
601.75	168.52
601.91	222.35
602.06	229.37
602.22	388.53
602.37	765.36
602.53	2134.57
602.69	3332.92
602.84	3442.93
603.00	2452.88
603.16	1746.04
603.31	1170.27
603.47	805.14
603.62	416.62
603.78	311.29
603.94	330.02
604.09	224.69
604.25	255.12
604.40	278.52
604.56	276.18
604.71	243.42
604.87	245.76
605.03	182.56
605.18	255.12
605.34	229.37
605.49	236.39
605.65	266.82
605.80	248.10
605.96	294.91
606.12	327.68
606.27	353.42
606.43	365.12
606.58	362.78
606.74	994.73
606.89	4512.55
607.05	8905.74
607.20	11840.77
607.36	9525.98
607.51	6396.68
607.67	4215.30
607.82	2768.85
607.98	1493.26
608.13	669.39
608.29	458.74
608.44	463.43
608.60	367.46
608.75	552.37
608.91	1359.85
609.06	6984.16
609.22	15541.16
609.37	20229.25
609.53	17593.81
609.68	11639.48
609.84	7496.74
609.99	5118.75
610.15	2551.18
610.30	1203.04
610.46	688.12
610.61	421.30
610.76	376.83
610.92	470.45
611.07	348.74
611.23	379.17
611.38	358.10
611.54	315.97
611.69	257.46
611.84	276.18
612.00	306.61
612.15	360.44
