SpectraSuite Data File
++++++++++++++++++++++++++++++++++++
Date: Fri Oct 04 11:48:43 GMT-05:00 2013
User: price-jones
Dark Spectrum Present: No
Reference Spectrum Present: No
Number of Sampled Component Spectra: 1
Spectrometers: USB2+H05261
Integration Time (usec): 100000 (USB2+H05261)
Spectra Averaged: 1 (USB2+H05261)
Boxcar Smoothing: 0 (USB2+H05261)
Correct for Electrical Dark: No (USB2+H05261)
Strobe/Lamp Enabled: No (USB2+H05261)
Correct for Detector Non-linearity: No (USB2+H05261)
Correct for Stray Light: No (USB2+H05261)
Number of Pixels in Processed Spectrum: 2048
>>>>>Begin Processed Spectral Data<<<<<
365.73	35.11
365.92	35.11
366.12	35.11
366.32	0.00
366.52	0.00
366.72	0.00
366.91	0.00
367.11	0.00
367.31	0.00
367.51	0.00
367.70	0.00
367.90	0.00
368.10	0.00
368.30	0.00
368.49	0.00
368.69	0.00
368.89	11.70
369.09	0.00
369.28	0.00
369.48	0.00
369.68	0.00
369.87	0.00
370.07	0.00
370.27	18.72
370.47	126.39
370.66	353.42
370.86	374.49
371.06	430.66
371.25	496.19
371.45	486.83
371.65	498.53
371.84	360.44
372.04	444.70
372.24	528.96
372.44	461.09
372.63	507.90
372.83	564.07
373.03	528.96
373.22	465.77
373.42	561.73
373.62	641.31
373.81	566.41
374.01	575.77
374.21	681.10
374.40	580.45
374.60	629.60
374.79	624.92
374.99	617.90
375.19	636.63
375.38	589.82
375.58	624.92
375.78	674.07
375.97	622.58
376.17	699.82
376.37	697.48
376.56	631.94
376.76	674.07
376.95	662.37
377.15	617.90
377.35	695.14
377.54	645.99
377.74	631.94
377.93	629.60
378.13	751.31
378.33	709.18
378.52	690.46
378.72	716.20
378.91	802.80
379.11	767.70
379.31	681.10
379.50	765.36
379.70	744.29
379.89	702.16
380.09	730.25
380.28	798.12
380.48	830.89
380.68	702.16
380.87	772.38
381.07	868.34
381.26	816.85
381.46	894.08
381.65	840.25
381.85	833.23
382.04	777.06
382.24	837.91
382.43	858.98
382.63	844.93
382.83	868.34
383.02	929.19
383.22	807.48
383.41	842.59
383.61	849.61
383.80	844.93
384.00	828.55
384.19	924.51
384.39	917.49
384.58	861.32
384.78	915.15
384.97	922.17
385.17	936.21
385.36	877.70
385.56	957.28
385.75	858.98
385.95	910.47
386.14	1027.50
386.34	858.98
386.53	987.71
386.72	1076.65
386.92	954.94
387.11	1034.52
387.31	1006.43
387.50	1027.50
387.70	1055.58
387.89	1041.54
388.09	1020.47
388.28	985.37
388.48	1078.99
388.67	1142.18
388.86	1027.50
389.06	1015.79
389.25	1083.67
389.45	1081.33
389.64	1088.35
389.84	1088.35
390.03	1203.04
390.22	1132.82
390.42	1111.75
390.61	1086.01
390.81	1174.95
391.00	1198.35
391.19	1203.04
391.39	1200.69
391.58	1196.01
391.78	1186.65
391.97	1245.16
392.16	1221.76
392.36	1214.74
392.55	1228.78
392.75	1226.44
392.94	1212.40
393.13	1327.08
393.33	1284.95
393.52	1366.87
393.71	1434.75
393.91	1369.21
394.10	1327.08
394.29	1401.98
394.49	1455.81
394.68	1371.55
394.88	1451.13
395.07	1453.47
395.26	1427.73
395.46	1287.29
395.65	1455.81
395.84	1380.92
396.04	1612.63
396.23	1544.75
396.42	1493.26
396.62	1579.86
396.81	1425.39
397.00	1462.83
397.19	1467.52
397.39	1565.82
397.58	1568.16
397.77	1654.76
397.97	1577.52
398.16	1621.99
398.35	1713.27
398.55	1713.27
398.74	1720.29
398.93	1715.61
399.12	1715.61
399.32	1614.97
399.51	1668.80
399.70	1722.63
399.90	1727.32
400.09	1797.53
400.28	1912.22
400.47	1720.29
400.67	1849.02
400.86	1849.02
401.05	1842.00
401.24	1750.72
401.44	1877.11
401.63	1954.35
401.82	1944.99
402.01	1928.60
402.21	1980.09
402.40	1916.90
402.59	1914.56
402.78	1966.05
402.97	1991.80
403.17	2139.25
403.36	1954.35
403.55	2008.18
403.74	2106.48
403.93	2113.50
404.13	2284.36
404.32	2094.78
404.51	2066.69
404.70	2195.42
404.89	2202.44
405.09	2232.87
405.28	2204.78
405.47	2275.00
405.66	2352.24
405.85	2275.00
406.05	2354.58
406.24	2328.83
406.43	2305.43
406.62	2389.69
406.81	2483.31
407.00	2286.70
407.20	2420.11
407.39	2441.18
407.58	2396.71
407.77	2485.65
407.96	2558.21
408.15	2607.36
408.34	2537.14
408.54	2621.40
408.73	2656.51
408.92	2672.89
409.11	2595.65
409.30	2705.66
409.49	2726.72
409.68	2696.30
409.87	2759.49
410.07	2860.13
410.26	2848.43
410.45	2935.03
410.64	2665.87
410.83	2897.58
411.02	3021.63
411.21	2953.76
411.40	2949.08
411.59	3164.40
411.78	3033.33
411.98	3052.06
412.17	3073.12
412.36	3054.40
412.55	2977.16
412.74	3225.26
412.93	3309.52
413.12	3035.67
413.31	3356.33
413.50	3342.28
413.69	3349.31
413.88	3332.92
414.07	3412.50
414.26	3487.40
414.45	3515.48
414.64	3590.38
414.83	3651.24
415.02	3578.68
415.22	3574.00
415.41	3623.15
415.60	3742.52
415.79	3833.80
415.98	3714.43
416.17	3911.04
416.36	3829.12
416.55	3974.23
416.74	3712.09
416.93	3831.46
417.12	3943.80
417.31	3939.12
417.50	4086.58
417.69	4088.92
417.88	4196.58
418.07	4117.00
418.26	4114.66
418.45	4173.18
418.64	4285.52
418.83	4308.93
419.02	4257.43
419.21	4212.96
419.39	4219.99
419.58	4280.84
419.77	4210.62
419.96	4376.80
420.15	4362.76
420.34	4351.06
420.53	4442.34
420.72	4631.92
420.91	4545.32
421.10	4564.04
421.29	4554.68
421.48	4524.26
421.67	4629.58
421.86	4688.09
422.05	4667.03
422.24	4629.58
422.43	4620.22
422.61	4711.50
422.80	4706.82
422.99	4732.56
423.18	4821.50
423.37	4720.86
423.56	4697.46
423.75	4748.95
423.94	4660.01
424.13	4447.02
424.32	4526.60
424.50	4652.98
424.69	4772.35
424.88	4858.95
425.07	4678.73
425.26	4842.57
425.45	4734.90
425.64	4695.11
425.83	4713.84
426.01	4938.53
426.20	4887.04
426.39	5011.09
426.58	4802.78
426.77	4849.59
426.96	4875.34
427.15	4936.19
427.33	4931.51
427.52	4938.53
427.71	5102.37
427.90	5186.63
428.09	5095.35
428.28	5167.90
428.46	5160.88
428.65	5158.54
428.84	5294.29
429.03	5242.80
429.22	5165.56
429.40	5287.27
429.59	5350.46
429.78	5200.67
429.97	5149.18
430.16	5240.46
430.34	5282.59
430.53	5490.90
430.72	5486.22
430.91	5320.04
431.10	5392.59
431.28	5504.94
431.47	5493.24
431.66	5500.26
431.85	5526.00
432.03	5675.80
432.22	5738.99
432.41	5568.13
432.60	5783.46
432.79	5755.38
432.97	5753.04
433.16	5731.97
433.35	5753.04
433.54	5818.57
433.72	5900.49
433.91	5834.96
434.10	5991.77
434.28	5877.09
434.47	5935.60
434.66	5935.60
434.85	6031.56
435.03	6022.20
435.22	6078.37
435.41	6284.34
435.59	6033.90
435.78	6246.89
435.97	6169.65
436.16	6251.57
436.34	6253.91
436.53	6300.72
436.72	6392.00
436.90	6380.30
437.09	6424.77
437.28	6298.38
437.46	6420.09
437.65	6342.85
437.84	6574.56
438.02	6597.97
438.21	6672.87
438.40	6537.12
438.58	6745.42
438.77	6745.42
438.96	6761.81
439.14	6892.88
439.33	6913.94
439.52	7005.22
439.70	6951.39
439.89	7166.72
440.08	7243.96
440.26	7295.45
440.45	7164.38
440.63	7281.41
440.82	7426.52
441.01	7169.06
441.19	7440.56
441.38	7517.80
441.57	7475.67
441.75	7456.95
441.94	7714.41
442.12	7843.14
442.31	7936.76
442.50	7627.81
442.68	7721.43
442.87	7932.08
443.05	7747.17
443.24	7915.69
443.43	8074.85
443.61	7971.86
443.80	8067.83
443.98	7927.39
444.17	7714.41
444.35	8152.09
444.54	8407.20
444.73	8013.99
444.91	7985.91
445.10	8116.98
445.28	8037.40
445.47	8219.96
445.65	7981.23
445.84	8187.19
446.02	8259.75
446.21	8018.68
446.39	8243.37
446.58	8374.44
446.77	8304.22
446.95	8184.85
447.14	8128.68
447.32	8585.08
447.51	8395.50
447.69	8215.28
447.88	8437.63
448.06	8336.99
448.25	8454.02
448.43	8451.67
448.62	8231.66
448.80	8461.04
448.99	8365.07
449.17	8470.40
449.36	8339.33
449.54	8697.43
449.73	8528.91
449.91	8465.72
450.10	8898.72
450.28	8924.46
450.46	8903.40
450.65	8947.87
450.83	9085.96
451.02	8903.40
451.20	8837.86
451.39	8917.44
451.57	8748.92
451.76	9137.45
451.94	9125.75
452.13	9036.81
452.31	9107.02
452.49	9001.70
452.68	9090.64
452.86	8884.67
453.05	9193.62
453.23	9219.37
453.42	9041.49
453.60	9205.33
453.78	9174.90
453.97	9247.46
454.15	9324.69
454.34	9179.58
454.52	9544.70
454.70	9474.49
454.89	9366.82
455.07	9533.00
455.26	9699.18
455.44	9729.61
455.62	9528.32
455.81	9764.72
455.99	9685.14
456.17	9886.42
456.36	9668.75
456.54	9912.17
456.73	9778.76
456.91	10258.57
457.09	10061.96
457.28	10314.74
457.46	10097.07
457.64	10399.00
457.83	10293.68
458.01	10120.48
458.19	10396.66
458.38	10200.05
458.56	10434.11
458.74	10270.27
458.93	10501.98
459.11	10569.86
459.29	10464.54
459.48	10387.30
459.66	10630.71
459.84	10789.87
460.03	10611.99
460.21	10595.61
460.39	10700.93
460.57	10663.48
460.76	11019.24
460.94	11005.20
461.12	10824.98
461.31	10778.17
461.49	11040.31
461.67	10963.07
461.85	11199.46
462.04	11267.34
462.22	11576.29
462.40	11351.60
462.59	11225.21
462.77	11318.83
462.95	11197.12
463.13	11307.13
463.32	11389.05
463.50	11269.68
463.68	11534.16
463.86	11489.69
464.05	11442.88
464.23	11314.15
464.41	11550.54
464.59	11295.43
464.78	11611.40
464.96	11482.67
465.14	11527.14
465.32	11758.85
465.50	11669.91
465.69	11955.46
465.87	11964.82
466.05	11686.29
466.23	11449.90
466.41	11899.28
466.60	12044.40
466.78	11910.99
466.96	11833.75
467.14	11889.92
467.32	11915.67
467.51	12175.47
467.69	11786.94
467.87	11915.67
468.05	12238.66
468.23	12109.93
468.41	11925.03
468.60	12212.92
468.78	12264.41
468.96	12264.41
469.14	12463.35
469.32	12435.27
469.50	12355.69
469.69	12861.24
469.87	12655.28
470.05	12814.43
470.23	12636.55
470.41	12556.97
470.59	13001.68
470.77	12968.91
470.95	13053.17
471.14	13235.73
471.32	12877.63
471.50	13280.20
471.68	13394.89
471.86	13682.77
472.04	13273.18
472.22	13734.26
472.40	13277.86
472.58	13495.53
472.77	13785.76
472.95	13755.33
473.13	13987.04
473.31	13706.18
473.49	13804.48
473.67	13954.27
473.85	13947.25
474.03	14195.35
474.21	14263.22
474.39	14417.70
474.57	14363.87
474.75	14431.74
474.93	14567.49
475.12	14487.92
475.30	14815.59
475.48	14820.27
475.66	15061.35
475.84	14956.02
476.02	15176.03
476.20	15166.67
476.38	15346.89
476.56	15585.63
476.74	15573.92
476.92	15470.94
477.10	15524.77
477.28	15807.98
477.46	15695.63
477.64	15847.77
477.82	16189.49
478.00	16627.17
478.18	16512.48
478.36	16542.91
478.54	16741.85
478.72	16971.22
478.90	17055.48
479.08	17137.40
479.26	17123.36
479.44	17137.40
479.62	17451.03
479.80	17647.64
479.98	17455.72
480.16	17905.10
480.34	18104.04
480.52	18494.91
480.70	18132.13
480.88	18380.23
481.06	18288.95
481.24	18251.50
481.41	18633.00
481.59	18848.33
481.77	18981.74
481.95	19049.62
482.13	19438.15
482.31	19370.27
482.49	19784.55
482.67	19922.64
482.85	19917.96
483.03	20336.91
483.21	20615.44
483.39	20692.68
483.57	20350.96
483.74	20556.93
483.92	20650.55
484.10	20886.94
484.28	21317.60
484.46	21516.54
484.64	21965.93
484.82	21371.43
485.00	21961.25
485.18	22471.48
485.35	22251.47
485.53	22558.08
485.71	22595.53
485.89	23183.01
486.07	22757.03
486.25	22560.42
486.43	23140.88
486.61	23438.12
486.78	23733.03
486.96	23985.81
487.14	24229.23
487.32	24011.56
487.50	24357.96
487.68	24332.21
487.85	24711.38
488.03	25127.99
488.21	25350.34
488.39	25568.01
488.57	25893.35
488.75	25729.51
488.92	26342.73
489.10	25958.88
489.28	26286.56
489.46	26560.40
489.64	26558.06
489.81	27124.47
489.99	27377.25
490.17	27197.02
490.35	27529.38
490.53	27721.30
490.70	27971.74
490.88	27981.10
491.06	28367.29
491.24	28259.63
491.41	28669.22
491.59	28837.74
491.77	29125.63
491.95	29509.47
492.13	29347.98
492.30	29439.26
492.48	29331.59
492.66	29071.79
492.84	29703.74
493.01	30445.69
493.19	30342.70
493.37	30197.59
493.54	30485.48
493.72	30937.20
493.90	30878.69
494.08	31026.14
494.25	31318.71
494.43	31658.09
494.61	31964.70
494.79	32194.07
494.96	31828.95
495.14	32327.48
495.32	32350.88
495.49	32811.97
495.67	32783.88
495.85	33195.82
496.02	33017.94
496.20	33303.48
496.38	33504.77
496.55	33453.28
496.73	34293.53
496.91	33731.80
497.09	34298.21
497.26	34506.52
497.44	34492.47
497.62	34511.20
497.79	34576.73
497.97	34897.39
498.14	35271.87
498.32	35658.06
498.50	35517.63
498.67	36072.34
498.85	35702.53
499.03	35871.05
499.20	36360.22
499.38	36297.03
499.56	36495.97
499.73	36301.71
499.91	36559.17
500.08	36952.38
500.26	36814.29
500.44	37144.30
500.61	36943.02
500.79	37579.64
500.97	37745.82
501.14	37790.29
501.32	38019.66
501.49	37298.78
501.67	38010.30
501.84	38366.06
502.02	38024.34
502.20	38368.40
502.37	38260.74
502.55	38632.88
502.72	38553.30
502.90	38913.75
503.07	38873.96
503.25	39353.77
503.43	39210.99
503.60	39360.79
503.78	39445.05
503.95	39356.11
504.13	39798.47
504.30	40224.45
504.48	39763.36
504.65	40170.61
504.83	40676.17
505.01	40840.01
505.18	40297.00
505.36	40362.54
505.53	40774.47
505.71	40643.40
505.88	41186.41
506.06	40882.14
506.23	41687.28
506.41	40917.25
506.58	41392.37
506.76	40882.14
506.93	41752.82
507.11	41467.27
507.28	41897.93
507.46	42319.23
507.63	42050.06
507.81	42494.77
507.98	42389.44
508.16	42630.52
508.33	42462.00
508.50	42817.76
508.68	43014.37
508.85	43250.76
509.03	42852.87
509.20	43119.69
509.38	43550.35
509.55	43648.65
509.73	43622.90
509.90	43875.68
510.08	43789.08
510.25	43992.71
510.42	44315.70
510.60	44334.43
510.77	44163.57
510.95	44933.60
511.12	44402.30
511.30	44313.36
511.47	44907.86
511.64	45076.38
511.82	45272.98
511.99	44949.99
512.17	45162.98
512.34	44996.80
512.51	45612.36
512.69	45900.25
512.86	45659.17
513.04	45921.31
513.21	45998.55
513.38	45954.08
513.56	45998.55
513.73	46092.17
513.90	46473.68
514.08	46171.75
514.25	46330.90
514.43	46642.20
514.60	46574.32
514.77	46724.11
514.95	47227.33
515.12	47093.92
515.29	46829.44
515.47	47004.98
515.64	47667.35
515.81	47320.95
515.99	47917.79
516.16	47405.21
516.33	47882.68
516.51	48252.48
516.68	47756.29
516.85	47721.18
517.03	48133.12
517.20	48346.11
517.37	48053.54
517.54	48383.55
517.72	47980.98
517.89	48044.18
518.06	48516.96
518.24	48245.46
518.41	48261.85
518.58	48942.94
518.75	48374.19
518.93	48964.01
519.10	48917.20
519.27	49123.16
519.45	48863.36
519.62	48889.11
519.79	48924.22
519.96	49469.56
520.14	49666.17
520.31	49450.84
520.48	49982.14
520.65	49556.16
520.83	49652.12
521.00	50162.36
521.17	49701.28
521.34	49731.70
521.52	50117.89
521.69	49935.33
521.86	50394.07
522.03	50094.49
522.20	50279.39
522.38	50426.84
522.55	50700.68
522.72	50721.75
522.89	50653.87
523.07	51306.88
523.24	50817.71
523.41	50696.00
523.58	50614.08
523.75	50967.51
523.92	50768.56
524.10	51159.43
524.27	51145.39
524.44	51374.76
524.61	51672.01
524.78	51576.04
524.96	51370.08
525.13	51372.42
525.30	51688.39
525.47	51704.77
525.64	51838.18
525.81	51707.12
525.98	51714.14
526.16	51901.38
526.33	52140.11
526.50	52458.43
526.67	51894.36
526.84	52334.38
527.01	52121.39
527.18	52397.57
527.36	52397.57
527.53	52734.61
527.70	52779.08
527.87	52669.08
528.04	52626.95
528.21	52610.56
528.38	52804.83
528.55	52711.20
528.72	53083.35
528.89	53036.54
529.07	52779.08
529.24	52982.71
529.41	53029.52
529.58	52743.97
529.75	52861.00
529.92	52949.94
530.09	53104.41
530.26	53209.74
530.43	53375.92
530.60	53179.31
530.77	53073.99
530.94	53244.85
531.11	53422.73
531.28	53146.54
531.46	53670.82
531.63	53593.59
531.80	53673.16
531.97	53745.72
532.14	54026.59
532.31	53818.28
532.48	53736.36
532.65	53860.41
532.82	53727.00
532.99	54302.77
533.16	53752.74
533.33	54073.40
533.50	54387.03
533.67	54635.13
533.84	54014.88
534.01	53968.07
534.18	54075.74
534.35	54429.16
534.52	54326.17
534.69	54534.48
534.86	54534.48
535.03	54513.42
535.20	54412.77
535.37	54653.85
535.54	54698.32
535.71	54609.38
535.88	54763.85
536.05	54850.45
536.22	54890.24
536.38	55063.44
536.55	55114.94
536.72	55035.36
536.89	54695.98
537.06	54983.86
537.23	55044.72
537.40	54993.23
537.57	54834.07
537.74	54939.39
537.91	55442.61
538.08	55246.00
538.25	55248.35
538.42	55152.38
538.59	55199.19
538.75	55047.06
538.92	55302.18
539.09	55627.51
539.26	55440.27
539.43	55655.60
539.60	55639.22
539.77	55693.05
539.94	55826.46
540.11	55590.06
540.28	55686.03
540.44	55613.47
540.61	55608.79
540.78	55763.26
540.95	55690.71
541.12	55683.69
541.29	55557.30
541.46	55870.93
541.62	55849.86
541.79	55859.23
541.96	55781.99
542.13	56002.00
542.30	55945.83
542.47	56081.58
542.63	56418.61
542.80	56296.91
542.97	56453.72
543.14	56545.00
543.31	56559.05
543.48	56254.78
543.64	56718.20
543.81	56704.16
543.98	56907.79
544.15	56561.39
544.32	56818.84
544.48	56743.95
544.65	56832.89
544.82	56540.32
544.99	56533.30
545.16	56905.44
545.32	56711.18
545.49	56816.50
545.66	57144.18
545.83	57010.77
546.00	56994.39
546.16	57050.56
546.33	56825.87
546.50	56690.12
546.67	57116.09
546.83	56795.44
547.00	57155.88
547.17	57141.84
547.34	57256.53
547.50	57270.57
547.67	57382.91
547.84	57141.84
548.00	57317.38
548.17	57359.51
548.34	57102.05
548.51	57322.06
548.67	57343.12
548.84	57396.96
549.01	57710.59
549.18	57446.11
549.34	57345.47
549.51	57427.38
549.68	57499.94
549.84	57289.29
550.01	57586.54
550.18	57471.85
550.34	57633.35
550.51	57900.17
550.68	57741.02
550.84	57485.90
551.01	57532.71
551.18	57717.61
551.34	57528.03
551.51	57869.75
551.68	57865.06
551.84	57846.34
552.01	57663.78
552.18	58115.50
552.34	57783.15
552.51	58007.84
552.68	57808.89
552.84	57932.94
553.01	57977.41
553.18	57890.81
553.34	58075.71
553.51	58246.57
553.67	58262.96
553.84	58450.20
554.01	58382.32
554.17	58035.92
554.34	58157.63
554.51	58241.89
554.67	58162.31
554.84	58328.49
555.00	58302.74
555.17	58166.99
555.33	58520.41
555.50	58241.89
555.67	58209.12
555.83	58356.58
556.00	58372.96
556.16	58555.52
556.33	58387.00
556.50	58564.88
556.66	58550.84
556.83	58368.28
556.99	58733.40
557.16	58571.91
557.32	58625.74
557.49	58773.19
557.65	58403.39
557.82	58595.31
557.98	58450.20
558.15	58646.80
558.32	58578.93
558.48	58644.46
558.65	58930.01
558.81	58780.21
558.98	58630.42
559.14	58677.23
559.31	58724.04
559.47	58782.55
559.64	58749.79
559.80	58892.56
559.97	58934.69
560.13	58817.66
560.30	58988.52
560.46	58770.85
560.63	59138.32
560.79	58930.01
560.96	58958.09
561.12	58766.17
561.29	59117.25
561.45	59063.42
561.61	59042.35
561.78	59112.57
561.94	58878.52
562.11	59047.04
562.27	58993.20
562.44	58864.47
562.60	58993.20
562.77	59138.32
562.93	59037.67
563.10	59199.17
563.26	59210.87
563.42	59346.62
563.59	59145.34
563.75	59096.19
563.92	59365.35
564.08	59068.10
564.24	59068.10
564.41	58969.80
564.57	59119.59
564.74	59217.89
564.90	59243.64
565.07	59437.90
565.23	59381.73
565.39	59407.48
565.56	59276.41
565.72	59203.85
565.88	59278.75
566.05	59384.07
566.21	59037.67
566.38	59143.00
566.54	59203.85
566.70	59557.27
566.87	59458.97
567.03	59503.44
567.19	59604.08
567.36	59517.48
567.52	59227.26
567.68	59435.56
567.85	59124.27
568.01	59337.26
568.17	59470.67
568.34	59760.90
568.50	59430.88
568.66	59377.05
568.83	59667.28
568.99	59559.61
569.15	59269.39
569.32	59248.32
569.48	59175.76
569.64	59395.77
569.81	59648.55
569.97	59529.19
570.13	59636.85
570.30	59686.00
570.46	59552.59
570.62	59480.03
570.78	59491.74
570.95	59601.74
571.11	59678.98
571.27	59482.37
571.43	59576.00
571.60	59613.44
571.76	59578.34
571.92	59580.68
572.09	59866.22
572.25	59611.10
572.41	59767.92
572.57	59728.13
572.74	60004.31
572.90	59456.63
573.06	59746.86
573.22	59700.04
573.38	59739.83
573.55	59456.63
573.71	59976.23
573.87	60023.04
574.03	59793.67
574.20	59852.18
574.36	59547.91
574.52	59779.62
574.68	59599.40
574.84	59964.52
575.01	59863.88
575.17	59833.46
575.33	59770.26
575.49	59683.66
575.65	59838.14
575.82	59891.97
575.98	59819.41
576.14	60025.38
576.30	59774.94
576.46	59634.51
576.62	59629.83
576.79	59746.86
576.95	59700.04
577.11	59966.87
577.27	59978.57
577.43	59929.42
577.59	59859.20
577.75	59884.95
577.92	59788.98
578.08	59931.76
578.24	59744.51
578.40	59779.62
578.56	59821.75
578.72	59901.33
578.88	59973.89
579.04	60193.90
579.21	59774.94
579.37	59772.60
579.53	59941.12
579.69	59877.93
579.85	59760.90
580.01	59999.63
580.17	59788.98
580.33	59793.67
580.49	59941.12
580.65	60041.76
580.82	60100.28
580.98	60149.43
581.14	59793.67
581.30	60184.54
581.46	59746.86
581.62	59962.18
581.78	59814.73
581.94	60051.12
582.10	59798.35
582.26	59810.05
582.42	59992.61
582.58	59943.46
582.74	59978.57
582.90	60111.98
583.06	60086.23
583.22	59817.07
583.38	59934.10
583.54	60046.44
583.70	59945.80
583.86	60095.60
584.02	60116.66
584.18	60102.62
584.34	60156.45
584.50	60137.72
584.66	60207.94
584.82	59826.43
584.98	60168.15
585.14	59866.22
585.30	60006.65
585.46	60119.00
585.62	60053.47
585.78	60114.32
585.94	59950.48
586.10	60027.72
586.26	60172.83
586.42	60088.57
586.58	60273.48
586.74	59973.89
586.90	59913.03
587.06	59873.24
587.22	60168.15
587.38	59751.54
587.54	60243.05
587.70	60303.90
587.86	60418.59
588.02	60128.36
588.18	60264.11
588.34	59955.16
588.49	60226.66
588.65	60168.15
588.81	60154.11
588.97	60198.58
589.13	60264.11
