SpectraSuite Data File
++++++++++++++++++++++++++++++++++++
Date: Fri Oct 04 11:48:43 GMT-05:00 2013
User: price-jones
Dark Spectrum Present: No
Reference Spectrum Present: No
Number of Sampled Component Spectra: 1
Spectrometers: USB2+H05261
Integration Time (usec): 100000 (USB2+H05261)
Spectra Averaged: 1 (USB2+H05261)
Boxcar Smoothing: 0 (USB2+H05261)
Correct for Electrical Dark: No (USB2+H05261)
Strobe/Lamp Enabled: No (USB2+H05261)
Correct for Detector Non-linearity: No (USB2+H05261)
Correct for Stray Light: No (USB2+H05261)
Number of Pixels in Processed Spectrum: 2048
>>>>>Begin Processed Spectral Data<<<<<
365.73	0.00
365.92	0.00
366.12	0.00
366.32	0.00
366.52	0.00
366.72	0.00
366.91	0.00
367.11	0.00
367.31	0.00
367.51	0.00
367.70	0.00
367.90	0.00
368.10	0.00
368.30	0.00
368.49	0.00
368.69	37.45
368.89	0.00
369.09	0.00
369.28	0.00
369.48	0.00
369.68	0.00
369.87	0.00
370.07	0.00
370.27	0.00
370.47	18.72
370.66	149.79
370.86	74.90
371.06	166.18
371.25	161.50
371.45	135.75
371.65	194.26
371.84	208.31
372.04	191.92
372.24	217.67
372.44	196.60
372.63	252.78
372.83	245.76
373.03	292.57
373.22	212.99
373.42	245.76
373.62	294.91
373.81	212.99
374.01	301.93
374.21	322.99
374.40	217.67
374.60	283.20
374.79	290.23
374.99	271.50
375.19	236.39
375.38	301.93
375.58	320.65
375.78	287.89
375.97	287.89
376.17	365.12
376.37	264.48
376.56	297.25
376.76	339.38
376.95	287.89
377.15	353.42
377.35	276.18
377.54	313.63
377.74	238.73
377.93	322.99
378.13	276.18
378.33	341.72
378.52	351.08
378.72	367.46
378.91	315.97
379.11	306.61
379.31	262.14
379.50	269.16
379.70	320.65
379.89	355.76
380.09	360.44
380.28	374.49
380.48	351.08
380.68	318.31
380.87	330.02
381.07	332.36
381.26	369.80
381.46	320.65
381.65	365.12
381.85	360.44
382.04	222.35
382.24	332.36
382.43	381.51
382.63	290.23
382.83	353.42
383.02	325.33
383.22	442.36
383.41	381.51
383.61	355.76
383.80	287.89
384.00	369.80
384.19	369.80
384.39	362.78
384.58	379.17
384.78	414.27
384.97	393.21
385.17	318.31
385.36	337.04
385.56	379.17
385.75	351.08
385.95	449.38
386.14	346.40
386.34	416.62
386.53	390.87
386.72	353.42
386.92	475.13
387.11	402.57
387.31	437.68
387.50	416.62
387.70	423.64
387.89	468.11
388.09	479.81
388.28	465.77
388.48	381.51
388.67	503.22
388.86	407.25
389.06	493.85
389.25	477.47
389.45	535.98
389.64	496.19
389.84	430.66
390.03	442.36
390.22	468.11
390.42	430.66
390.61	489.17
390.81	456.40
391.00	482.15
391.19	521.94
391.39	512.58
391.58	524.28
391.78	500.87
391.97	482.15
392.16	477.47
392.36	528.96
392.55	440.02
392.75	519.60
392.94	468.11
393.13	596.84
393.33	482.15
393.52	566.41
393.71	676.41
393.91	543.00
394.10	594.50
394.29	533.64
394.49	524.28
394.68	587.47
394.88	552.37
395.07	568.75
395.26	596.84
395.46	615.56
395.65	603.86
395.84	571.09
396.04	744.29
396.23	608.54
396.42	685.78
396.62	685.78
396.81	650.67
397.00	568.75
397.19	594.50
397.39	692.80
397.58	636.63
397.77	690.46
397.97	725.57
398.16	636.63
398.35	779.40
398.55	725.57
398.74	690.46
398.93	723.23
399.12	748.97
399.32	819.19
399.51	720.88
399.70	739.61
399.90	788.76
400.09	716.20
400.28	795.78
400.47	828.55
400.67	786.42
400.86	896.43
401.05	840.25
401.24	903.45
401.44	987.71
401.63	854.30
401.82	1013.45
402.01	880.04
402.21	858.98
402.40	861.32
402.59	954.94
402.78	973.66
402.97	945.58
403.17	985.37
403.36	961.96
403.55	884.72
403.74	983.02
403.93	1029.84
404.13	1006.43
404.32	1123.46
404.51	994.73
404.70	971.32
404.89	976.00
405.09	1114.10
405.28	997.07
405.47	973.66
405.66	1132.82
405.85	1196.01
406.05	1093.03
406.24	1081.33
406.43	1210.06
406.62	1146.86
406.81	1240.48
407.00	1186.65
407.20	1174.95
407.39	1205.38
407.58	1188.99
407.77	1306.02
407.96	1350.49
408.15	1317.72
408.34	1249.85
408.54	1313.04
408.73	1322.40
408.92	1404.32
409.11	1416.02
409.30	1411.34
409.49	1474.54
409.68	1266.23
409.87	1345.81
410.07	1331.76
410.26	1493.26
410.45	1397.30
410.64	1511.99
410.83	1474.54
411.02	1535.39
411.21	1535.39
411.40	1612.63
411.59	1509.65
411.78	1692.21
411.98	1544.75
412.17	1619.65
412.36	1603.27
412.55	1699.23
412.74	1675.82
412.93	1699.23
413.12	1673.48
413.31	1750.72
413.50	1739.02
413.69	1874.77
413.88	1877.11
414.07	1820.94
414.26	1884.13
414.45	1891.15
414.64	1914.56
414.83	2022.22
415.02	2071.37
415.22	1984.77
415.41	1982.43
415.60	1987.11
415.79	2001.16
415.98	2106.48
416.17	2033.93
416.36	2057.33
416.55	2017.54
416.74	2113.50
416.93	2115.84
417.12	2225.85
417.31	2129.89
417.50	2197.76
417.69	2148.61
417.88	2197.76
418.07	2265.64
418.26	2291.38
418.45	2431.82
418.64	2476.29
418.83	2410.75
419.02	2342.88
419.21	2392.03
419.39	2354.58
419.58	2272.66
419.77	2420.11
419.96	2410.75
420.15	2509.05
420.34	2469.27
420.53	2471.61
420.72	2541.82
420.91	2436.50
421.10	2473.95
421.29	2649.49
421.48	2513.74
421.67	2588.63
421.86	2518.42
422.05	2551.18
422.24	2579.27
422.43	2602.68
422.61	2630.76
422.80	2541.82
422.99	2614.38
423.18	2747.79
423.37	2712.68
423.56	2696.30
423.75	2614.38
423.94	2541.82
424.13	2509.05
424.32	2630.76
424.50	2609.70
424.69	2703.32
424.88	2771.19
425.07	2626.08
425.26	2649.49
425.45	2609.70
425.64	2579.27
425.83	2628.42
426.01	2761.83
426.20	2738.43
426.39	2775.88
426.58	2555.86
426.77	2654.17
426.96	2759.49
427.15	2752.47
427.33	2731.41
427.52	2881.20
427.71	2719.70
427.90	2834.39
428.09	2867.16
428.28	2862.48
428.46	2906.95
428.65	2803.96
428.84	3056.74
429.03	3063.76
429.22	2796.94
429.40	2935.03
429.59	3002.91
429.78	2818.00
429.97	2782.90
430.16	2892.90
430.34	2956.10
430.53	3066.10
430.72	2956.10
430.91	3028.65
431.10	2998.23
431.28	3192.49
431.47	3222.92
431.66	3166.74
431.85	3108.23
432.03	3243.98
432.22	3286.11
432.41	3164.40
432.60	3267.39
432.79	3330.58
432.97	3239.30
433.16	3269.73
433.35	3145.68
433.54	3248.66
433.72	3295.47
433.91	3375.05
434.10	3227.60
434.28	3300.16
434.47	3456.97
434.66	3447.61
434.85	3438.25
435.03	3384.41
435.22	3353.99
435.41	3482.72
435.59	3396.12
435.78	3585.70
435.97	3337.60
436.16	3431.23
436.34	3426.54
436.53	3506.12
436.72	3531.87
436.90	3492.08
437.09	3524.85
437.28	3466.33
437.46	3510.80
437.65	3534.21
437.84	3681.66
438.02	3740.18
438.21	3646.55
438.40	3627.83
438.58	3648.90
438.77	3712.09
438.96	3765.92
439.14	3784.65
439.33	3777.62
439.52	3880.61
439.70	3875.93
439.89	4072.53
440.08	3990.61
440.26	4004.66
440.45	3983.59
440.63	4131.05
440.82	4037.42
441.01	4175.52
441.19	4135.73
441.38	4018.70
441.57	4283.18
441.75	4175.52
441.94	4250.41
442.12	4285.52
442.31	4283.18
442.50	4376.80
442.68	4318.29
442.87	4285.52
443.05	4365.10
443.24	4479.79
443.43	4393.19
443.61	4404.89
443.80	4498.51
443.98	4383.82
444.17	4311.27
444.35	4479.79
444.54	4575.75
444.73	4472.76
444.91	4512.55
445.10	4554.68
445.28	4552.34
445.47	4381.48
445.65	4493.83
445.84	4482.13
446.02	4456.38
446.21	4545.32
446.39	4465.74
446.58	4676.39
446.77	4512.55
446.95	4524.26
447.14	4573.41
447.32	4664.69
447.51	4447.02
447.69	4547.66
447.88	4589.79
448.06	4573.41
448.25	4587.45
448.43	4482.13
448.62	4685.75
448.80	4550.00
448.99	4561.70
449.17	4493.83
449.36	4678.73
449.54	4688.09
449.73	4741.93
449.91	4770.01
450.10	4671.71
450.28	4655.33
450.46	4821.50
450.65	4919.81
450.83	5001.72
451.02	4767.67
451.20	4868.31
451.39	4903.42
451.57	4842.57
451.76	4816.82
451.94	4959.60
452.13	5006.41
452.31	4990.02
452.49	4971.30
452.68	5074.28
452.86	4952.57
453.05	5067.26
453.23	5156.20
453.42	4997.04
453.60	4870.65
453.78	5071.94
453.97	4973.64
454.15	4924.49
454.34	5029.81
454.52	5170.24
454.70	5247.48
454.89	5322.38
455.07	5205.35
455.26	5130.45
455.44	5420.68
455.62	5411.32
455.81	5170.24
455.99	5394.93
456.17	5259.18
456.36	5432.38
456.54	5369.19
456.73	5542.39
456.91	5657.07
457.09	5708.57
457.28	5650.05
457.46	5500.26
457.64	5486.22
457.83	5593.88
458.01	5544.73
458.19	5682.82
458.38	5696.86
458.56	5701.54
458.74	5776.44
458.93	5717.93
459.11	5575.16
459.29	5593.88
459.48	5727.29
459.66	5701.54
459.84	5919.21
460.03	5991.77
460.21	5757.72
460.39	5816.23
460.57	5706.23
460.76	5870.06
460.94	5858.36
461.12	5956.66
461.31	5863.04
461.49	5914.53
461.67	5863.04
461.85	6197.74
462.04	6022.20
462.22	6544.14
462.40	6115.82
462.59	6143.91
462.77	6045.60
462.95	6122.84
463.13	6080.71
463.32	6396.68
463.50	6284.34
463.68	6221.14
463.86	6263.27
464.05	6305.40
464.23	6171.99
464.41	6300.72
464.59	6218.80
464.78	6445.84
464.96	6338.17
465.14	6228.17
465.32	6403.71
465.50	6574.56
465.69	6450.52
465.87	6256.25
466.05	6441.15
466.23	6338.17
466.41	6464.56
466.60	6616.69
466.78	6511.37
466.96	6448.18
467.14	6363.92
467.32	6621.38
467.51	6499.67
467.69	6408.39
467.87	6562.86
468.05	6581.59
468.23	6590.95
468.41	6516.05
468.60	6502.01
468.78	6738.40
468.96	6623.72
469.14	6820.32
469.32	6832.02
469.50	6670.53
469.69	6883.52
469.87	6733.72
470.05	6794.58
470.23	6937.35
470.41	7122.25
470.59	6890.54
470.77	6949.05
470.95	7037.99
471.14	7108.21
471.32	6904.58
471.50	7346.94
471.68	7225.23
471.86	7250.98
472.04	7159.70
472.22	7447.58
472.40	7248.64
472.58	7166.72
472.77	7199.49
472.95	7499.08
473.13	7562.27
473.31	7363.33
473.49	7515.46
473.67	7463.97
473.85	7449.93
474.03	7595.04
474.21	7641.85
474.39	7555.25
474.57	7817.39
474.75	7911.01
474.93	7843.14
475.12	7892.29
475.30	8173.15
475.48	7995.27
475.66	7822.07
475.84	7981.23
476.02	8079.53
476.20	7852.50
476.38	8100.59
476.56	8238.69
476.74	8292.52
476.92	8264.43
477.10	8147.40
477.28	8451.67
477.46	8517.21
477.64	8589.77
477.82	8723.18
478.00	8849.57
478.18	8929.14
478.36	8957.23
478.54	9022.77
478.72	8926.80
478.90	9144.47
479.08	9104.68
479.26	9280.22
479.44	9317.67
479.62	9050.85
479.80	9518.96
479.98	9525.98
480.16	9540.02
480.34	9521.30
480.52	9757.69
480.70	9701.52
480.88	9586.83
481.06	9795.14
481.24	9846.63
481.41	9596.20
481.59	10181.33
481.77	10136.86
481.95	10174.31
482.13	10253.89
482.31	10242.18
482.49	10520.71
482.67	10602.63
482.85	10518.37
483.03	10874.13
483.21	10799.23
483.39	10640.08
483.57	11054.35
483.74	10913.92
483.92	10942.00
484.10	10993.50
484.28	11087.12
484.46	11349.26
484.64	11421.81
484.82	11468.62
485.00	11477.99
485.18	11538.84
485.35	11772.89
485.53	11950.78
485.71	11948.43
485.89	12006.95
486.07	11833.75
486.25	12049.08
486.43	12219.94
486.61	12353.35
486.78	12578.04
486.96	12664.64
487.14	12868.27
487.32	12638.89
487.50	12786.35
487.68	12968.91
487.85	13062.53
488.03	13156.15
488.21	13413.61
488.39	13476.80
488.57	13312.97
488.75	13507.23
488.92	13919.17
489.10	13673.41
489.28	14043.21
489.46	14090.02
489.64	13909.80
489.81	14214.07
489.99	14270.25
490.17	14352.16
490.35	14356.85
490.53	14628.35
490.70	14733.67
490.88	14551.11
491.06	14911.55
491.24	14965.39
491.41	14768.78
491.59	14824.95
491.77	15229.87
491.95	15274.34
492.13	15342.21
492.30	15384.34
492.48	15442.85
492.66	15571.58
492.84	15449.88
493.01	15908.62
493.19	15693.29
493.37	15733.08
493.54	16404.81
493.72	16255.02
493.90	16060.76
494.08	16325.24
494.25	16503.12
494.43	16346.30
494.61	16622.48
494.79	16840.15
494.96	16681.00
495.14	16816.75
495.32	17163.15
495.49	17270.81
495.67	17043.78
495.85	17348.05
496.02	17247.41
496.20	17593.81
496.38	17769.35
496.55	17481.46
496.73	18052.55
496.91	17879.35
497.09	17778.71
497.26	17806.80
497.44	18015.10
497.62	18064.25
497.79	18047.87
497.97	18354.48
498.14	18829.61
498.32	18696.20
498.50	18607.26
498.67	18750.03
498.85	18530.02
499.03	18902.17
499.20	18913.87
499.38	19000.47
499.56	19197.07
499.73	19365.59
499.91	19201.76
500.08	19344.53
500.26	19096.43
500.44	19405.38
500.61	19564.54
500.79	19597.31
500.97	19751.78
501.14	19953.07
501.32	19761.14
501.49	19889.87
501.67	19866.47
501.84	20353.30
502.02	20091.16
502.20	20020.94
502.37	20247.97
502.55	20278.40
502.72	20271.38
502.90	20294.79
503.07	20137.97
503.25	20304.15
503.43	20547.56
503.60	20781.62
503.78	20690.34
503.95	20484.37
504.13	20592.03
504.30	20957.16
504.48	20826.09
504.65	21303.56
504.83	21385.47
505.01	21245.04
505.18	21376.11
505.36	21715.49
505.53	21326.96
505.71	21495.48
505.88	21507.18
506.06	21472.07
506.23	21994.01
506.41	21738.90
506.58	21954.22
506.76	21596.12
506.93	21806.77
507.11	21731.87
507.28	21895.71
507.46	22361.48
507.63	22195.30
507.81	22211.68
507.98	21965.93
508.16	22338.07
508.33	22405.95
508.50	22829.59
508.68	22649.36
508.85	22565.10
509.03	22640.00
509.20	22885.76
509.38	22991.08
509.55	22955.97
509.73	22857.67
509.90	23049.60
510.08	22920.87
510.25	23358.55
510.42	23372.59
510.60	23510.68
510.77	23484.94
510.95	23566.85
511.12	23489.62
511.30	23592.60
511.47	24041.98
511.64	24032.62
511.82	23962.40
511.99	23646.43
512.17	24034.96
512.34	23707.29
512.51	23857.08
512.69	24257.31
512.86	24182.42
513.04	24229.23
513.21	24840.11
513.38	24245.61
513.56	24575.62
513.73	24004.53
513.90	24814.36
514.08	24631.80
514.25	24657.54
514.43	24671.59
514.60	24849.47
514.77	24966.49
514.95	24765.21
515.12	24826.06
515.29	24467.96
515.47	25209.91
515.64	25387.79
515.81	25390.13
515.99	25790.36
516.16	25425.24
516.33	25385.45
516.51	25493.12
516.68	25113.95
516.85	25390.13
517.03	26017.40
517.20	25848.88
517.37	25961.22
517.54	26075.91
517.72	25820.79
517.89	25951.86
518.06	25928.45
518.24	25986.97
518.41	25797.38
518.58	26022.08
518.75	25851.22
518.93	26242.09
519.10	26291.24
519.27	26480.82
519.45	26073.57
519.62	26260.81
519.79	26396.56
519.96	26625.93
520.14	26815.52
520.31	26518.27
520.48	26684.45
520.65	26728.92
520.83	27218.09
521.00	27204.05
521.17	26918.50
521.34	26993.40
521.52	27145.53
521.69	26806.16
521.86	27206.39
522.03	27388.95
522.20	27440.44
522.38	27330.44
522.55	27538.74
522.72	27318.73
522.89	27379.59
523.07	28081.75
523.24	27852.38
523.41	27707.26
523.58	27899.19
523.75	27571.51
523.92	27782.16
524.10	27768.12
524.27	27765.78
524.44	27611.30
524.61	28491.34
524.78	28444.53
524.96	28053.66
525.13	28308.78
525.30	28376.66
525.47	28374.31
525.64	28479.64
525.81	28456.23
525.98	28678.58
526.16	28409.42
526.33	28245.58
526.50	28809.65
526.67	28680.92
526.84	28610.71
527.01	28432.83
527.18	28685.61
527.36	28776.89
527.53	28758.16
527.70	29198.18
527.87	28989.88
528.04	29142.01
528.21	28940.72
528.38	28982.85
528.55	29216.91
528.72	29317.55
528.89	29181.80
529.07	29472.03
529.24	28933.70
529.41	29399.47
529.58	29284.78
529.75	29219.25
529.92	29081.16
530.09	29198.18
530.26	29383.09
530.43	29535.22
530.60	29481.39
530.77	29240.31
530.94	29476.71
531.11	29399.47
531.28	29888.64
531.46	29811.40
531.63	29876.94
531.80	29935.45
531.97	29834.81
532.14	30000.99
532.31	29905.02
532.48	30036.09
532.65	30209.29
532.82	29825.45
532.99	30061.84
533.16	29989.28
533.33	30099.29
533.50	30768.68
533.67	30359.09
533.84	30391.86
534.01	30139.08
534.18	30377.81
534.35	30462.07
534.52	30567.40
534.69	30728.89
534.86	30944.22
535.03	30686.76
535.20	30806.13
535.37	30883.37
535.54	30749.96
535.71	30342.70
535.88	30988.69
536.05	30712.51
536.22	31056.57
536.38	30850.60
536.55	30916.14
536.72	31187.64
536.89	30719.53
537.06	31115.08
537.23	31232.11
537.40	30672.72
537.57	31016.78
537.74	30888.05
537.91	31239.13
538.08	31201.68
538.25	30885.71
538.42	31101.04
538.59	31309.35
538.75	31318.71
538.92	31049.55
539.09	31859.37
539.26	31309.35
539.43	31880.44
539.60	31615.96
539.77	31529.36
539.94	31686.17
540.11	31524.68
540.28	31681.49
540.44	31871.07
540.61	31630.00
540.78	32004.49
540.95	31889.80
541.12	32144.92
541.29	31498.93
541.46	31700.22
541.62	31735.32
541.79	32210.45
541.96	31559.78
542.13	31971.72
542.30	32018.53
542.47	32364.93
542.63	32165.98
542.80	32458.55
542.97	32594.30
543.14	32362.59
543.31	32067.68
543.48	32886.87
543.64	32931.34
543.81	32725.37
543.98	32849.42
544.15	32692.60
544.32	32879.85
544.48	32669.20
544.65	32446.85
544.82	32472.59
544.99	32886.87
545.16	32421.10
545.32	33071.77
545.49	33120.92
545.66	33160.71
545.83	32879.85
546.00	32950.06
546.16	32797.93
546.33	32903.25
546.50	32491.32
546.67	33153.69
546.83	32833.04
547.00	33031.98
547.17	33254.33
547.34	32975.81
547.50	33088.15
547.67	32931.34
547.84	33251.99
548.00	33319.87
548.17	33720.10
548.34	33092.83
548.51	33792.65
548.67	33493.07
548.84	33909.68
549.01	33486.04
549.18	33345.61
549.34	33467.32
549.51	33329.23
549.68	33490.73
549.84	33591.37
550.01	33890.96
550.18	33560.94
550.34	33921.38
550.51	33867.55
550.68	33893.30
550.84	33193.48
551.01	33928.41
551.18	33692.01
551.34	33443.91
551.51	34005.64
551.68	33991.60
551.84	34330.98
552.01	33530.51
552.18	34057.14
552.34	34169.48
552.51	34366.09
552.68	33905.00
552.84	33900.32
553.01	34015.01
553.18	33909.68
553.34	34284.17
553.51	34658.65
553.67	34466.73
553.84	34485.45
554.01	34396.51
554.17	34431.62
554.34	34408.22
554.51	34389.49
554.67	34309.91
554.84	34457.37
555.00	34216.29
555.17	34534.60
555.33	34920.79
555.50	34429.28
555.67	34199.91
555.83	34487.79
556.00	34150.76
556.16	34803.77
556.33	34593.12
556.50	34651.63
556.66	34862.28
556.83	34752.27
556.99	34600.14
557.16	35044.84
557.32	34574.39
557.49	34569.71
557.65	34263.10
557.82	34705.46
557.98	34721.85
558.15	34541.63
558.32	34988.67
558.48	34307.57
558.65	34745.25
558.81	34548.65
558.98	34338.00
559.14	34909.09
559.31	35033.14
559.47	34789.72
559.64	34998.03
559.80	34962.92
559.97	35274.21
560.13	34295.87
560.30	34658.65
560.46	34637.59
560.63	35016.75
560.79	34738.23
560.96	34998.03
561.12	35161.87
561.29	34881.00
561.45	35171.23
561.61	35290.60
561.78	34960.58
561.94	34728.87
562.11	35585.50
562.27	34918.45
562.44	35044.84
562.60	34651.63
562.77	35152.51
562.93	35196.98
563.10	35353.79
563.26	35051.86
563.42	34995.69
563.59	35101.01
563.75	35194.64
563.92	35215.70
564.08	35075.27
564.24	35206.34
564.41	35147.82
564.57	34988.67
564.74	35164.21
564.90	35204.00
565.07	35356.13
565.23	35477.84
565.39	35395.92
565.56	35246.13
565.72	34939.52
565.88	34885.68
566.05	35288.26
566.21	34693.76
566.38	35189.95
566.54	34883.34
566.70	35517.63
566.87	35288.26
567.03	35133.78
567.19	35557.42
567.36	35229.74
567.52	35229.74
567.68	35424.01
567.85	34703.12
568.01	35529.33
568.17	35264.85
568.34	35571.46
568.50	35435.71
568.66	34958.24
568.83	35297.62
568.99	35112.72
569.15	35068.25
569.32	35065.91
569.48	34962.92
569.64	35662.74
569.81	35505.93
569.97	35695.51
570.13	35218.04
570.30	35260.17
570.46	35512.95
570.62	35346.77
570.78	35152.51
570.95	35061.22
571.11	35489.54
571.27	35351.45
571.43	35573.80
571.60	35552.74
571.76	35292.94
571.92	35714.23
572.09	35236.77
572.25	35690.83
572.41	35543.38
572.57	35704.87
572.74	35491.88
572.90	35503.59
573.06	35452.09
573.22	35700.19
573.38	35711.89
573.55	35440.39
573.71	35693.17
573.87	35798.49
574.03	35555.08
574.20	35297.62
574.36	35140.80
574.52	35810.20
574.68	35339.75
574.84	35622.95
575.01	35473.16
575.17	35732.96
575.33	35648.70
575.49	35711.89
575.65	35725.94
575.82	35590.19
575.98	35768.07
576.14	35267.19
576.30	35510.61
576.46	35372.52
576.62	35889.77
576.79	35463.80
576.95	35213.36
577.11	35494.22
577.27	35416.99
577.43	35807.86
577.59	35545.72
577.75	35887.43
577.92	35187.61
578.08	35248.47
578.24	35199.32
578.40	35512.95
578.56	35571.46
578.72	35910.84
578.88	35943.61
579.04	35735.30
579.21	36086.38
579.37	35475.50
579.53	35438.05
579.69	35519.97
579.85	35372.52
580.01	36123.83
580.17	35653.38
580.33	35433.37
580.49	35826.58
580.65	35758.70
580.82	35611.25
580.98	35587.85
581.14	35487.20
581.30	35882.75
581.46	35744.66
581.62	35660.40
581.78	35124.42
581.94	35566.78
582.10	35810.20
582.26	35871.05
582.42	35618.27
582.58	35459.12
582.74	35452.09
582.90	35552.74
583.06	35889.77
583.22	35955.31
583.38	35342.09
583.54	35637.00
583.70	35739.98
583.86	35784.45
584.02	35435.71
584.18	35849.99
584.34	35737.64
584.50	35924.88
584.66	36009.14
584.82	35910.84
584.98	35655.72
585.14	35821.90
585.30	35878.07
585.46	35681.47
585.62	35491.88
585.78	35641.68
585.94	35679.13
586.10	35728.28
586.26	35732.96
586.42	35655.72
586.58	35658.06
586.74	35491.88
586.90	35445.07
587.06	35459.12
587.22	35878.07
587.38	35601.89
587.54	35812.54
587.70	35945.95
587.86	35484.86
588.02	35779.77
588.18	35950.63
588.34	35482.52
588.49	35421.67
588.65	35620.61
588.81	35543.38
588.97	35676.79
589.13	35601.89
589.29	35356.13
589.45	35770.41
589.61	35857.01
589.77	36074.68
589.93	36070.00
590.08	36184.68
590.24	35985.74
590.40	35466.14
590.56	35697.85
590.72	35646.36
590.88	35833.60
591.04	35915.52
591.20	36004.46
591.35	36048.93
591.51	36222.13
