SpectraSuite Data File
++++++++++++++++++++++++++++++++++++
Date: Fri Oct 04 11:47:07 GMT-05:00 2013
User: price-jones
Dark Spectrum Present: No
Reference Spectrum Present: No
Number of Sampled Component Spectra: 1
Spectrometers: USB2+H05261
Integration Time (usec): 100000 (USB2+H05261)
Spectra Averaged: 1 (USB2+H05261)
Boxcar Smoothing: 0 (USB2+H05261)
Correct for Electrical Dark: No (USB2+H05261)
Strobe/Lamp Enabled: No (USB2+H05261)
Correct for Detector Non-linearity: No (USB2+H05261)
Correct for Stray Light: No (USB2+H05261)
Number of Pixels in Processed Spectrum: 2048
>>>>>Begin Processed Spectral Data<<<<<
365.73	14.04
365.92	14.04
366.12	14.04
366.32	0.00
366.52	0.00
366.72	0.00
366.91	0.00
367.11	0.00
367.31	0.00
367.51	0.00
367.70	0.00
367.90	0.00
368.10	0.00
368.30	0.00
368.49	0.00
368.69	0.00
368.89	0.00
369.09	0.00
369.28	0.00
369.48	0.00
369.68	25.75
369.87	0.00
370.07	0.00
370.27	32.77
370.47	0.00
370.66	0.00
370.86	81.92
371.06	95.96
371.25	65.54
371.45	0.00
371.65	88.94
371.84	23.41
372.04	65.54
372.24	2.34
372.44	35.11
372.63	77.24
372.83	81.92
373.03	98.30
373.22	91.28
373.42	86.60
373.62	84.26
373.81	98.30
374.01	124.05
374.21	161.50
374.40	37.45
374.60	149.79
374.79	110.01
374.99	140.43
375.19	63.19
375.38	102.98
375.58	100.64
375.78	180.22
375.97	173.20
376.17	189.58
376.37	166.18
376.56	44.47
376.76	72.56
376.95	72.56
377.15	100.64
377.35	187.24
377.54	114.69
377.74	67.88
377.93	93.62
378.13	86.60
378.33	81.92
378.52	79.58
378.72	114.69
378.91	154.48
379.11	58.51
379.31	58.51
379.50	119.37
379.70	39.79
379.89	135.75
380.09	88.94
380.28	70.22
380.48	156.82
380.68	58.51
380.87	53.83
381.07	95.96
381.26	184.90
381.46	112.35
381.65	133.41
381.85	58.51
382.04	91.28
382.24	112.35
382.43	60.85
382.63	60.85
382.83	91.28
383.02	152.13
383.22	124.05
383.41	70.22
383.61	23.41
383.80	107.66
384.00	63.19
384.19	114.69
384.39	58.51
384.58	0.00
384.78	53.83
384.97	95.96
385.17	39.79
385.36	140.43
385.56	107.66
385.75	14.04
385.95	28.09
386.14	135.75
386.34	74.90
386.53	133.41
386.72	161.50
386.92	170.86
387.11	114.69
387.31	70.22
387.50	46.81
387.70	39.79
387.89	114.69
388.09	81.92
388.28	63.19
388.48	102.98
388.67	81.92
388.86	65.54
389.06	30.43
389.25	107.66
389.45	173.20
389.64	105.32
389.84	177.88
390.03	100.64
390.22	107.66
390.42	49.15
390.61	37.45
390.81	112.35
391.00	60.85
391.19	156.82
391.39	72.56
391.58	149.79
391.78	131.07
391.97	110.01
392.16	107.66
392.36	114.69
392.55	91.28
392.75	60.85
392.94	128.73
393.13	184.90
393.33	49.15
393.52	86.60
393.71	100.64
393.91	84.26
394.10	98.30
394.29	131.07
394.49	119.37
394.68	131.07
394.88	105.32
395.07	93.62
395.26	138.09
395.46	135.75
395.65	77.24
395.84	168.52
396.04	159.16
396.23	67.88
396.42	100.64
396.62	138.09
396.81	65.54
397.00	65.54
397.19	140.43
397.39	77.24
397.58	60.85
397.77	37.45
397.97	126.39
398.16	67.88
398.35	119.37
398.55	131.07
398.74	86.60
398.93	112.35
399.12	98.30
399.32	117.03
399.51	135.75
399.70	131.07
399.90	147.45
400.09	74.90
400.28	98.30
400.47	119.37
400.67	70.22
400.86	81.92
401.05	166.18
401.24	117.03
401.44	159.16
401.63	105.32
401.82	107.66
402.01	138.09
402.21	107.66
402.40	102.98
402.59	135.75
402.78	100.64
402.97	135.75
403.17	168.52
403.36	133.41
403.55	163.84
403.74	107.66
403.93	168.52
404.13	236.39
404.32	110.01
404.51	128.73
404.70	135.75
404.89	91.28
405.09	156.82
405.28	102.98
405.47	25.75
405.66	95.96
405.85	128.73
406.05	114.69
406.24	79.58
406.43	135.75
406.62	74.90
406.81	131.07
407.00	84.26
407.20	156.82
407.39	175.54
407.58	105.32
407.77	70.22
407.96	91.28
408.15	168.52
408.34	100.64
408.54	42.13
408.73	114.69
408.92	147.45
409.11	168.52
409.30	156.82
409.49	114.69
409.68	98.30
409.87	88.94
410.07	93.62
410.26	100.64
410.45	74.90
410.64	121.71
410.83	91.28
411.02	81.92
411.21	95.96
411.40	117.03
411.59	70.22
411.78	93.62
411.98	114.69
412.17	44.47
412.36	84.26
412.55	124.05
412.74	140.43
412.93	107.66
413.12	131.07
413.31	63.19
413.50	205.97
413.69	142.77
413.88	128.73
414.07	72.56
414.26	102.98
414.45	88.94
414.64	147.45
414.83	110.01
415.02	110.01
415.22	117.03
415.41	121.71
415.60	166.18
415.79	114.69
415.98	72.56
416.17	65.54
416.36	105.32
416.55	84.26
416.74	95.96
416.93	39.79
417.12	79.58
417.31	67.88
417.50	135.75
417.69	222.35
417.88	250.44
418.07	154.48
418.26	46.81
418.45	236.39
418.64	191.92
418.83	243.42
419.02	227.03
419.21	182.56
419.39	105.32
419.58	236.39
419.77	133.41
419.96	236.39
420.15	241.08
420.34	117.03
420.53	95.96
420.72	128.73
420.91	128.73
421.10	112.35
421.29	149.79
421.48	145.11
421.67	124.05
421.86	128.73
422.05	107.66
422.24	128.73
422.43	138.09
422.61	166.18
422.80	84.26
422.99	91.28
423.18	79.58
423.37	145.11
423.56	138.09
423.75	135.75
423.94	81.92
424.13	119.37
424.32	98.30
424.50	124.05
424.69	140.43
424.88	217.67
425.07	145.11
425.26	112.35
425.45	156.82
425.64	250.44
425.83	245.76
426.01	187.24
426.20	194.26
426.39	215.33
426.58	42.13
426.77	161.50
426.96	180.22
427.15	161.50
427.33	39.79
427.52	91.28
427.71	86.60
427.90	49.15
428.09	145.11
428.28	203.63
428.46	67.88
428.65	114.69
428.84	93.62
429.03	138.09
429.22	124.05
429.40	166.18
429.59	49.15
429.78	180.22
429.97	184.90
430.16	102.98
430.34	189.58
430.53	98.30
430.72	114.69
430.91	119.37
431.10	114.69
431.28	159.16
431.47	100.64
431.66	110.01
431.85	168.52
432.03	65.54
432.22	173.20
432.41	138.09
432.60	126.39
432.79	194.26
432.97	325.33
433.16	262.14
433.35	238.73
433.54	142.77
433.72	74.90
433.91	159.16
434.10	217.67
434.28	262.14
434.47	166.18
434.66	100.64
434.85	95.96
435.03	121.71
435.22	154.48
435.41	147.45
435.59	154.48
435.78	93.62
435.97	138.09
436.16	74.90
436.34	124.05
436.53	51.49
436.72	166.18
436.90	107.66
437.09	131.07
437.28	131.07
437.46	86.60
437.65	140.43
437.84	170.86
438.02	133.41
438.21	133.41
438.40	138.09
438.58	138.09
438.77	124.05
438.96	95.96
439.14	149.79
439.33	175.54
439.52	110.01
439.70	140.43
439.89	210.65
440.08	107.66
440.26	170.86
440.45	191.92
440.63	86.60
440.82	184.90
441.01	140.43
441.19	105.32
441.38	98.30
441.57	56.17
441.75	168.52
441.94	95.96
442.12	86.60
442.31	196.60
442.50	152.13
442.68	124.05
442.87	70.22
443.05	114.69
443.24	245.76
443.43	166.18
443.61	198.95
443.80	175.54
443.98	166.18
444.17	133.41
444.35	170.86
444.54	70.22
444.73	105.32
444.91	203.63
445.10	77.24
445.28	119.37
445.47	142.77
445.65	95.96
445.84	145.11
446.02	140.43
446.21	70.22
446.39	121.71
446.58	135.75
446.77	100.64
446.95	119.37
447.14	110.01
447.32	166.18
447.51	95.96
447.69	152.13
447.88	147.45
448.06	196.60
448.25	121.71
448.43	124.05
448.62	149.79
448.80	184.90
448.99	102.98
449.17	0.00
449.36	128.73
449.54	149.79
449.73	236.39
449.91	173.20
450.10	70.22
450.28	177.88
450.46	182.56
450.65	147.45
450.83	166.18
451.02	112.35
451.20	191.92
451.39	72.56
451.57	145.11
451.76	77.24
451.94	191.92
452.13	145.11
452.31	110.01
452.49	98.30
452.68	121.71
452.86	74.90
453.05	168.52
453.23	88.94
453.42	145.11
453.60	159.16
453.78	170.86
453.97	138.09
454.15	16.38
454.34	95.96
454.52	138.09
454.70	175.54
454.89	205.97
455.07	86.60
455.26	149.79
455.44	133.41
455.62	149.79
455.81	149.79
455.99	145.11
456.17	191.92
456.36	131.07
456.54	145.11
456.73	145.11
456.91	81.92
457.09	163.84
457.28	180.22
457.46	140.43
457.64	145.11
457.83	133.41
458.01	86.60
458.19	170.86
458.38	74.90
458.56	156.82
458.74	135.75
458.93	126.39
459.11	63.19
459.29	112.35
459.48	86.60
459.66	201.29
459.84	203.63
460.03	220.01
460.21	205.97
460.39	91.28
460.57	168.52
460.76	124.05
460.94	180.22
461.12	135.75
461.31	173.20
461.49	152.13
461.67	114.69
461.85	107.66
462.04	147.45
462.22	587.47
462.40	201.29
462.59	67.88
462.77	175.54
462.95	142.77
463.13	98.30
463.32	121.71
463.50	91.28
463.68	170.86
463.86	159.16
464.05	65.54
464.23	152.13
464.41	177.88
464.59	117.03
464.78	168.52
464.96	63.19
465.14	175.54
465.32	126.39
465.50	142.77
465.69	110.01
465.87	154.48
466.05	220.01
466.23	135.75
466.41	16.38
466.60	95.96
466.78	156.82
466.96	156.82
467.14	238.73
467.32	220.01
467.51	255.12
467.69	227.03
467.87	168.52
468.05	175.54
468.23	142.77
468.41	166.18
468.60	147.45
468.78	81.92
468.96	170.86
469.14	154.48
469.32	191.92
469.50	159.16
469.69	140.43
469.87	159.16
470.05	147.45
470.23	168.52
470.41	170.86
470.59	140.43
470.77	154.48
470.95	173.20
471.14	196.60
471.32	140.43
471.50	138.09
471.68	110.01
471.86	170.86
472.04	93.62
472.22	208.31
472.40	224.69
472.58	177.88
472.77	119.37
472.95	110.01
473.13	187.24
473.31	93.62
473.49	201.29
473.67	212.99
473.85	250.44
474.03	124.05
474.21	203.63
474.39	142.77
474.57	145.11
474.75	142.77
474.93	93.62
475.12	93.62
475.30	121.71
475.48	168.52
475.66	135.75
475.84	187.24
476.02	133.41
476.20	168.52
476.38	100.64
476.56	128.73
476.74	128.73
476.92	135.75
477.10	126.39
477.28	194.26
477.46	191.92
477.64	152.13
477.82	154.48
478.00	140.43
478.18	208.31
478.36	138.09
478.54	184.90
478.72	149.79
478.90	159.16
479.08	187.24
479.26	46.81
479.44	110.01
479.62	166.18
479.80	128.73
479.98	173.20
480.16	110.01
480.34	175.54
480.52	208.31
480.70	128.73
480.88	131.07
481.06	154.48
481.24	117.03
481.41	156.82
481.59	236.39
481.77	140.43
481.95	133.41
482.13	177.88
482.31	224.69
482.49	191.92
482.67	107.66
482.85	203.63
483.03	175.54
483.21	220.01
483.39	173.20
483.57	156.82
483.74	220.01
483.92	208.31
484.10	147.45
484.28	208.31
484.46	255.12
484.64	128.73
484.82	140.43
485.00	145.11
485.18	93.62
485.35	191.92
485.53	152.13
485.71	131.07
485.89	154.48
486.07	145.11
486.25	273.84
486.43	182.56
486.61	173.20
486.78	196.60
486.96	154.48
487.14	112.35
487.32	124.05
487.50	161.50
487.68	212.99
487.85	126.39
488.03	180.22
488.21	238.73
488.39	231.71
488.57	168.52
488.75	124.05
488.92	369.80
489.10	252.78
489.28	212.99
489.46	166.18
489.64	149.79
489.81	166.18
489.99	241.08
490.17	128.73
490.35	198.95
490.53	145.11
490.70	117.03
490.88	198.95
491.06	142.77
491.24	210.65
491.41	161.50
491.59	224.69
491.77	131.07
491.95	128.73
492.13	124.05
492.30	168.52
492.48	156.82
492.66	205.97
492.84	88.94
493.01	135.75
493.19	128.73
493.37	184.90
493.54	147.45
493.72	131.07
493.90	135.75
494.08	201.29
494.25	182.56
494.43	177.88
494.61	163.84
494.79	203.63
494.96	184.90
495.14	126.39
495.32	163.84
495.49	198.95
495.67	224.69
495.85	180.22
496.02	128.73
496.20	212.99
496.38	220.01
496.55	215.33
496.73	224.69
496.91	203.63
497.09	198.95
497.26	184.90
497.44	184.90
497.62	175.54
497.79	173.20
497.97	149.79
498.14	138.09
498.32	194.26
498.50	231.71
498.67	173.20
498.85	131.07
499.03	177.88
499.20	266.82
499.38	88.94
499.56	147.45
499.73	248.10
499.91	166.18
500.08	252.78
500.26	191.92
500.44	248.10
500.61	128.73
500.79	182.56
500.97	124.05
501.14	198.95
501.32	168.52
501.49	210.65
501.67	121.71
501.84	208.31
502.02	187.24
502.20	217.67
502.37	203.63
502.55	138.09
502.72	133.41
502.90	152.13
503.07	227.03
503.25	248.10
503.43	299.59
503.60	203.63
503.78	252.78
503.95	198.95
504.13	205.97
504.30	210.65
504.48	220.01
504.65	175.54
504.83	198.95
505.01	124.05
505.18	147.45
505.36	205.97
505.53	145.11
505.71	220.01
505.88	224.69
506.06	189.58
506.23	215.33
506.41	145.11
506.58	208.31
506.76	121.71
506.93	182.56
507.11	255.12
507.28	159.16
507.46	154.48
507.63	220.01
507.81	217.67
507.98	205.97
508.16	224.69
508.33	180.22
508.50	227.03
508.68	224.69
508.85	215.33
509.03	227.03
509.20	184.90
509.38	166.18
509.55	161.50
509.73	161.50
509.90	243.42
510.08	128.73
510.25	203.63
510.42	205.97
510.60	147.45
510.77	201.29
510.95	236.39
511.12	234.05
511.30	227.03
511.47	276.18
511.64	346.40
511.82	234.05
511.99	229.37
512.17	191.92
512.34	217.67
512.51	236.39
512.69	173.20
512.86	294.91
513.04	220.01
513.21	159.16
513.38	166.18
513.56	187.24
513.73	147.45
513.90	161.50
514.08	187.24
514.25	201.29
514.43	271.50
514.60	189.58
514.77	154.48
514.95	264.48
515.12	210.65
515.29	243.42
515.47	142.77
515.64	175.54
515.81	191.92
515.99	194.26
516.16	243.42
516.33	306.61
516.51	149.79
516.68	231.71
516.85	126.39
517.03	180.22
517.20	147.45
517.37	208.31
517.54	210.65
517.72	191.92
517.89	238.73
518.06	166.18
518.24	236.39
518.41	180.22
518.58	241.08
518.75	245.76
518.93	215.33
519.10	222.35
519.27	231.71
519.45	131.07
519.62	149.79
519.79	250.44
519.96	156.82
520.14	173.20
520.31	184.90
520.48	152.13
520.65	243.42
520.83	264.48
521.00	205.97
521.17	201.29
521.34	163.84
521.52	212.99
521.69	205.97
521.86	191.92
522.03	208.31
522.20	262.14
522.38	262.14
522.55	243.42
522.72	191.92
522.89	208.31
523.07	227.03
523.24	294.91
523.41	194.26
523.58	229.37
523.75	238.73
523.92	210.65
524.10	173.20
524.27	170.86
524.44	187.24
524.61	222.35
524.78	177.88
524.96	208.31
525.13	170.86
525.30	210.65
525.47	220.01
525.64	248.10
525.81	297.25
525.98	184.90
526.16	217.67
526.33	149.79
526.50	168.52
526.67	138.09
526.84	196.60
527.01	184.90
527.18	175.54
527.36	161.50
527.53	191.92
527.70	245.76
527.87	250.44
528.04	248.10
528.21	196.60
528.38	189.58
528.55	248.10
528.72	269.16
528.89	273.84
529.07	271.50
529.24	191.92
529.41	250.44
529.58	205.97
529.75	152.13
529.92	271.50
530.09	271.50
530.26	222.35
530.43	170.86
530.60	224.69
530.77	212.99
530.94	203.63
531.11	238.73
531.28	159.16
531.46	145.11
531.63	175.54
531.80	194.26
531.97	220.01
532.14	187.24
532.31	238.73
532.48	250.44
532.65	276.18
532.82	379.17
532.99	400.23
533.16	290.23
533.33	290.23
533.50	297.25
533.67	416.62
533.84	479.81
534.01	550.03
534.18	444.70
534.35	369.80
534.52	341.72
534.69	339.38
534.86	177.88
535.03	222.35
535.20	196.60
535.37	161.50
535.54	248.10
535.71	208.31
535.88	238.73
536.05	212.99
536.22	231.71
536.38	290.23
536.55	238.73
536.72	166.18
536.89	280.86
537.06	224.69
537.23	170.86
537.40	220.01
537.57	229.37
537.74	215.33
537.91	198.95
538.08	252.78
538.25	234.05
538.42	271.50
538.59	217.67
538.75	166.18
538.92	194.26
539.09	262.14
539.26	269.16
539.43	587.47
539.60	1404.32
539.77	2181.38
539.94	2148.61
540.11	1383.26
540.28	926.85
540.44	662.37
540.61	351.08
540.78	215.33
540.95	205.97
541.12	217.67
541.29	201.29
541.46	217.67
541.62	262.14
541.79	182.56
541.96	187.24
542.13	222.35
542.30	212.99
542.47	304.27
542.63	210.65
542.80	210.65
542.97	250.44
543.14	238.73
543.31	257.46
543.48	236.39
543.64	276.18
543.81	276.18
543.98	182.56
544.15	107.66
544.32	119.37
544.48	184.90
544.65	210.65
544.82	227.03
544.99	236.39
545.16	208.31
545.32	138.09
545.49	184.90
545.66	243.42
545.83	241.08
546.00	217.67
546.16	187.24
546.33	191.92
546.50	156.82
546.67	257.46
546.83	212.99
547.00	245.76
547.17	138.09
547.34	198.95
547.50	191.92
547.67	276.18
547.84	170.86
548.00	262.14
548.17	194.26
548.34	198.95
548.51	278.52
548.67	269.16
548.84	229.37
549.01	255.12
549.18	276.18
549.34	250.44
549.51	208.31
549.68	198.95
549.84	201.29
550.01	290.23
550.18	353.42
550.34	252.78
550.51	177.88
550.68	203.63
550.84	238.73
551.01	250.44
551.18	215.33
551.34	220.01
551.51	227.03
551.68	182.56
551.84	238.73
552.01	224.69
552.18	201.29
552.34	196.60
552.51	215.33
552.68	180.22
552.84	168.52
553.01	124.05
553.18	215.33
553.34	159.16
553.51	203.63
553.67	159.16
553.84	285.55
554.01	217.67
554.17	248.10
554.34	196.60
554.51	210.65
554.67	177.88
554.84	234.05
555.00	208.31
555.17	250.44
555.33	234.05
555.50	142.77
555.67	238.73
555.83	177.88
556.00	311.29
556.16	374.49
556.33	184.90
556.50	180.22
556.66	201.29
556.83	177.88
556.99	273.84
557.16	273.84
557.32	159.16
557.49	243.42
557.65	259.80
557.82	205.97
557.98	212.99
558.15	198.95
558.32	187.24
558.48	212.99
558.65	212.99
558.81	205.97
558.98	222.35
559.14	231.71
559.31	217.67
559.47	187.24
559.64	208.31
559.80	187.24
559.97	142.77
560.13	259.80
560.30	203.63
560.46	201.29
560.63	191.92
560.79	198.95
560.96	234.05
561.12	177.88
561.29	191.92
561.45	191.92
561.61	149.79
561.78	304.27
561.94	234.05
562.11	149.79
562.27	196.60
562.44	182.56
562.60	205.97
562.77	212.99
562.93	276.18
563.10	208.31
563.26	234.05
563.42	234.05
563.59	243.42
563.75	220.01
563.92	224.69
564.08	173.20
564.24	212.99
564.41	278.52
564.57	184.90
564.74	262.14
564.90	189.58
565.07	344.06
565.23	201.29
565.39	243.42
565.56	313.63
565.72	245.76
565.88	241.08
566.05	257.46
566.21	280.86
566.38	229.37
566.54	278.52
566.70	156.82
566.87	175.54
567.03	220.01
567.19	245.76
567.36	163.84
567.52	208.31
567.68	269.16
567.85	210.65
568.01	170.86
568.17	208.31
568.34	133.41
568.50	217.67
568.66	191.92
568.83	285.55
568.99	203.63
569.15	269.16
569.32	229.37
569.48	196.60
569.64	180.22
569.81	168.52
569.97	159.16
570.13	229.37
570.30	152.13
570.46	208.31
570.62	170.86
570.78	147.45
570.95	217.67
571.11	173.20
571.27	243.42
571.43	217.67
571.60	222.35
571.76	217.67
571.92	205.97
572.09	159.16
572.25	196.60
572.41	196.60
572.57	191.92
572.74	168.52
572.90	299.59
573.06	308.95
573.22	252.78
573.38	189.58
573.55	325.33
573.71	238.73
573.87	196.60
574.03	269.16
574.20	210.65
574.36	280.86
574.52	306.61
574.68	451.72
574.84	337.04
575.01	351.08
575.17	360.44
575.33	215.33
575.49	234.05
575.65	252.78
575.82	400.23
575.98	667.05
576.14	978.34
576.30	926.85
576.46	704.50
576.62	507.90
576.79	449.38
576.95	411.93
577.11	264.48
577.27	276.18
577.43	266.82
577.59	266.82
577.75	271.50
577.92	287.89
578.08	369.80
578.24	285.55
578.40	285.55
578.56	301.93
578.72	346.40
578.88	318.31
579.04	248.10
579.21	294.91
579.37	320.65
579.53	297.25
579.69	351.08
579.85	215.33
580.01	393.21
580.17	390.87
580.33	430.66
580.49	379.17
580.65	365.12
580.82	355.76
580.98	353.42
581.14	299.59
581.30	395.55
581.46	475.13
581.62	699.82
581.78	781.74
581.94	830.89
582.10	664.71
582.26	601.52
582.42	564.07
582.58	498.53
582.74	554.71
582.90	489.17
583.06	547.69
583.22	580.45
583.38	587.47
583.54	669.39
583.70	744.29
583.86	875.36
584.02	1050.90
584.18	1270.91
584.34	1717.95
584.50	4755.97
584.66	36184.68
584.82	65535.00
584.98	65535.00
585.14	65535.00
585.30	65535.00
585.46	46220.90
585.62	28666.88
585.78	12821.45
585.94	5032.15
586.10	2270.32
586.26	1383.26
586.42	1121.12
586.58	940.90
586.74	823.87
586.90	805.14
587.06	758.33
587.22	711.52
587.38	613.22
587.54	1629.01
587.70	5139.82
587.86	8835.52
588.02	9916.85
588.18	6960.75
588.34	4297.22
588.49	2789.92
588.65	1708.59
588.81	896.43
588.97	547.69
589.13	423.64
589.29	353.42
589.45	425.98
589.61	322.99
589.77	449.38
589.93	524.28
590.08	615.56
590.24	568.75
590.40	603.86
590.56	543.00
590.72	386.19
590.88	348.74
591.04	395.55
591.20	353.42
591.35	325.33
591.51	318.31
591.67	334.70
591.83	280.86
591.99	341.72
592.15	322.99
592.31	301.93
592.46	327.68
592.62	339.38
592.78	325.33
592.94	365.12
593.10	330.02
593.26	365.12
593.41	386.19
593.57	512.58
593.73	692.80
593.89	4037.42
594.05	11428.84
594.20	17612.53
594.36	16788.66
594.52	10607.31
594.68	6448.18
594.84	4388.50
594.99	2165.00
595.15	1006.43
595.31	580.45
595.47	463.43
595.62	383.85
595.78	290.23
595.94	358.10
596.10	376.83
596.25	390.87
596.41	360.44
596.57	374.49
596.73	327.68
596.88	678.76
597.04	2040.95
597.20	3337.60
597.36	4262.12
597.51	3098.87
597.67	1942.64
597.83	1394.96
597.99	905.79
598.14	510.24
598.30	393.21
598.46	332.36
598.61	463.43
598.77	339.38
598.93	351.08
599.09	245.76
599.24	379.17
599.40	243.42
599.56	126.39
599.71	222.35
599.87	257.46
600.03	290.23
600.18	205.97
600.34	166.18
600.50	177.88
600.65	177.88
600.81	184.90
600.97	224.69
601.12	243.42
601.28	238.73
601.44	161.50
601.59	250.44
601.75	262.14
601.91	205.97
602.06	264.48
602.22	367.46
602.37	959.62
602.53	2523.10
602.69	4091.26
602.84	4325.31
603.00	3136.32
603.16	2054.99
603.31	1441.77
603.47	964.30
603.62	531.30
603.78	330.02
603.94	308.95
604.09	273.84
604.25	292.57
604.40	271.50
604.56	212.99
604.71	245.76
604.87	280.86
605.03	297.25
605.18	196.60
605.34	348.74
605.49	320.65
605.65	266.82
605.80	311.29
605.96	346.40
606.12	372.15
606.27	390.87
606.43	414.27
606.58	486.83
606.74	1116.44
606.89	5172.58
607.05	10881.15
607.20	14658.78
607.36	12273.77
607.51	8060.80
607.67	5284.93
607.82	3304.84
607.98	1809.23
608.13	882.38
608.29	627.26
608.44	468.11
608.60	505.56
608.75	603.86
608.91	1568.16
609.06	7981.23
609.22	18801.52
609.37	25968.24
609.53	22572.13
609.68	14834.32
609.84	9362.14
609.99	6218.80
610.15	3293.13
610.30	1472.20
610.46	777.06
610.61	498.53
610.76	482.15
610.92	390.87
611.07	327.68
611.23	461.09
611.38	367.46
611.54	304.27
611.69	379.17
