SpectraSuite Data File
++++++++++++++++++++++++++++++++++++
Date: Fri Oct 04 11:48:34 GMT-05:00 2013
User: price-jones
Dark Spectrum Present: No
Reference Spectrum Present: No
Number of Sampled Component Spectra: 1
Spectrometers: USB2+H05261
Integration Time (usec): 100000 (USB2+H05261)
Spectra Averaged: 1 (USB2+H05261)
Boxcar Smoothing: 0 (USB2+H05261)
Correct for Electrical Dark: No (USB2+H05261)
Strobe/Lamp Enabled: No (USB2+H05261)
Correct for Detector Non-linearity: No (USB2+H05261)
Correct for Stray Light: No (USB2+H05261)
Number of Pixels in Processed Spectrum: 2048
>>>>>Begin Processed Spectral Data<<<<<
365.73	56.17
365.92	56.17
366.12	56.17
366.32	0.00
366.52	0.00
366.72	0.00
366.91	0.00
367.11	0.00
367.31	0.00
367.51	0.00
367.70	0.00
367.90	0.00
368.10	0.00
368.30	0.00
368.49	0.00
368.69	0.00
368.89	0.00
369.09	0.00
369.28	0.00
369.48	0.00
369.68	0.00
369.87	0.00
370.07	23.41
370.27	23.41
370.47	88.94
370.66	304.27
370.86	273.84
371.06	390.87
371.25	304.27
371.45	360.44
371.65	433.00
371.84	339.38
372.04	334.70
372.24	365.12
372.44	388.53
372.63	400.23
372.83	449.38
373.03	393.21
373.22	339.38
373.42	470.45
373.62	489.17
373.81	465.77
374.01	472.79
374.21	477.47
374.40	491.51
374.60	512.58
374.79	512.58
374.99	496.19
375.19	519.60
375.38	496.19
375.58	561.73
375.78	564.07
375.97	489.17
376.17	482.15
376.37	416.62
376.56	458.74
376.76	503.22
376.95	461.09
377.15	489.17
377.35	491.51
377.54	493.85
377.74	491.51
377.93	491.51
378.13	545.34
378.33	592.16
378.52	613.22
378.72	662.37
378.91	608.54
379.11	510.24
379.31	557.05
379.50	500.87
379.70	594.50
379.89	608.54
380.09	575.77
380.28	477.47
380.48	554.71
380.68	573.43
380.87	592.16
381.07	638.97
381.26	599.18
381.46	589.82
381.65	585.13
381.85	592.16
382.04	662.37
382.24	636.63
382.43	578.11
382.63	601.52
382.83	606.20
383.02	711.52
383.22	655.35
383.41	615.56
383.61	627.26
383.80	629.60
384.00	636.63
384.19	681.10
384.39	697.48
384.58	732.59
384.78	753.65
384.97	704.50
385.17	629.60
385.36	688.12
385.56	823.87
385.75	711.52
385.95	596.84
386.14	753.65
386.34	676.41
386.53	603.86
386.72	671.73
386.92	720.88
387.11	741.95
387.31	763.01
387.50	723.23
387.70	791.10
387.89	730.25
388.09	767.70
388.28	812.17
388.48	826.21
388.67	744.29
388.86	844.93
389.06	774.72
389.25	807.48
389.45	858.98
389.64	887.06
389.84	901.11
390.03	844.93
390.22	961.96
390.42	842.59
390.61	786.42
390.81	812.17
391.00	814.51
391.19	830.89
391.39	908.13
391.58	870.68
391.78	891.74
391.97	908.13
392.16	957.28
392.36	945.58
392.55	875.36
392.75	919.83
392.94	1039.20
393.13	947.92
393.33	1011.11
393.52	884.72
393.71	992.39
393.91	1160.91
394.10	971.32
394.29	1001.75
394.49	1022.81
394.68	1116.44
394.88	957.28
395.07	1088.35
395.26	1170.27
395.46	1078.99
395.65	1102.39
395.84	1060.26
396.04	1203.04
396.23	1149.20
396.42	1137.50
396.62	1144.52
396.81	1078.99
397.00	1123.46
397.19	1132.82
397.39	1130.48
397.58	1121.12
397.77	1125.80
397.97	1153.88
398.16	1254.53
398.35	1416.02
398.55	1249.85
398.74	1273.25
398.93	1270.91
399.12	1282.61
399.32	1207.72
399.51	1249.85
399.70	1282.61
399.90	1291.98
400.09	1366.87
400.28	1334.11
400.47	1355.17
400.67	1352.83
400.86	1462.83
401.05	1338.79
401.24	1296.66
401.44	1425.39
401.63	1451.13
401.82	1432.41
402.01	1362.19
402.21	1519.01
402.40	1472.20
402.59	1570.50
402.78	1563.48
402.97	1394.96
403.17	1593.90
403.36	1577.52
403.55	1607.95
403.74	1563.48
403.93	1631.35
404.13	1640.72
404.32	1629.01
404.51	1636.03
404.70	1729.66
404.89	1682.85
405.09	1860.73
405.28	1673.48
405.47	1685.19
405.66	1760.08
405.85	1818.60
406.05	1811.57
406.24	1739.02
406.43	1849.02
406.62	1825.62
406.81	1935.62
407.00	1778.81
407.20	1809.23
407.39	1888.81
407.58	1839.66
407.77	1914.56
407.96	1989.46
408.15	2059.67
408.34	1937.96
408.54	1996.48
408.73	1994.14
408.92	2031.58
409.11	2062.01
409.30	1987.11
409.49	2106.48
409.68	2150.95
409.87	2120.53
410.07	2120.53
410.26	2132.23
410.45	2183.72
410.64	2242.23
410.83	2244.57
411.02	2342.88
411.21	2331.17
411.40	2298.41
411.59	2310.11
411.78	2429.48
411.98	2359.26
412.17	2497.35
412.36	2443.52
412.55	2518.42
412.74	2424.80
412.93	2506.71
413.12	2455.22
413.31	2661.19
413.50	2586.29
413.69	2696.30
413.88	2672.89
414.07	2698.64
414.26	2759.49
414.45	2686.94
414.64	2710.34
414.83	2710.34
415.02	2822.69
415.22	2874.18
415.41	2867.16
415.60	2836.73
415.79	2963.12
415.98	2988.86
416.17	3112.91
416.36	3005.25
416.55	3026.31
416.74	3129.30
416.93	3000.57
417.12	3014.61
417.31	3246.32
417.50	3105.89
417.69	3246.32
417.88	3225.26
418.07	3236.96
418.26	3302.50
418.45	3356.33
418.64	3391.44
418.83	3370.37
419.02	3344.63
419.21	3440.59
419.39	3391.44
419.58	3426.54
419.77	3426.54
419.96	3545.91
420.15	3576.34
420.34	3463.99
420.53	3506.12
420.72	3574.00
420.91	3644.21
421.10	3599.74
421.29	3726.13
421.48	3494.42
421.67	3684.00
421.86	3620.81
422.05	3492.08
422.24	3496.76
422.43	3723.79
422.61	3871.25
422.80	3737.84
422.99	3796.35
423.18	3662.94
423.37	3714.43
423.56	3873.59
423.75	3768.26
423.94	3646.55
424.13	3534.21
424.32	3552.93
424.50	3770.60
424.69	3882.95
424.88	3782.31
425.07	3833.80
425.26	3889.97
425.45	3726.13
425.64	3772.94
425.83	3892.31
426.01	3955.51
426.20	3810.39
426.39	3920.40
426.58	3948.48
426.77	3840.82
426.96	3852.52
427.15	3805.71
427.33	3967.21
427.52	3824.44
427.71	4011.68
427.90	3960.19
428.09	4002.32
428.28	4035.08
428.46	3936.78
428.65	4133.39
428.84	4028.06
429.03	4063.17
429.22	4308.93
429.40	4140.41
429.59	4311.27
429.78	3946.14
429.97	4032.74
430.16	4227.01
430.34	4126.36
430.53	4402.55
430.72	4409.57
430.91	4189.56
431.10	4166.15
431.28	4430.63
431.47	4337.01
431.66	4444.68
431.85	4306.59
432.03	4542.98
432.22	4540.64
432.41	4500.85
432.60	4470.42
432.79	4592.13
432.97	4507.87
433.16	4727.88
433.35	4531.28
433.54	4531.28
433.72	4727.88
433.91	4744.27
434.10	4784.06
434.28	4634.26
434.47	4725.54
434.66	4854.27
434.85	4671.71
435.03	4870.65
435.22	4772.35
435.41	5013.43
435.59	4994.70
435.78	4840.23
435.97	4908.10
436.16	5050.88
436.34	5001.72
436.53	4952.57
436.72	5046.20
436.90	5076.62
437.09	5018.11
437.28	5062.58
437.46	4898.74
437.65	5132.79
437.84	5193.65
438.02	5291.95
438.21	5179.61
438.40	5090.67
438.58	5406.64
438.77	5373.87
438.96	5259.18
439.14	5497.92
439.33	5418.34
439.52	5521.32
439.70	5710.91
439.89	5806.87
440.08	5547.07
440.26	5661.76
440.45	5720.27
440.63	5584.52
440.82	5776.44
441.01	5877.09
441.19	5769.42
441.38	5996.45
441.57	6008.16
441.75	5984.75
441.94	5973.05
442.12	6108.80
442.31	6148.59
442.50	6202.42
442.68	6218.80
442.87	6047.94
443.05	6160.29
443.24	6422.43
443.43	6392.00
443.61	6193.06
443.80	6366.26
443.98	6377.96
444.17	5977.73
444.35	6282.00
444.54	6476.26
444.73	6345.19
444.91	6466.90
445.10	6487.96
445.28	6417.75
445.47	6256.25
445.65	6307.74
445.84	6424.77
446.02	6375.62
446.21	6408.39
446.39	6291.36
446.58	6532.44
446.77	6544.14
446.95	6410.73
447.14	6497.33
447.32	6502.01
447.51	6553.50
447.69	6464.56
447.88	6604.99
448.06	6649.46
448.25	6403.71
448.43	6642.44
448.62	6494.99
448.80	6572.22
448.99	6663.51
449.17	6670.53
449.36	6724.36
449.54	6663.51
449.73	6829.68
449.91	6993.52
450.10	6857.77
450.28	7002.88
450.46	6927.99
450.65	7061.40
450.83	6904.58
451.02	6888.20
451.20	6927.99
451.39	7101.19
451.57	7126.93
451.76	6988.84
451.94	7026.29
452.13	7105.87
452.31	7218.21
452.49	7059.06
452.68	7171.40
452.86	7133.95
453.05	7253.32
453.23	7293.11
453.42	7225.23
453.60	7166.72
453.78	7358.64
453.97	7302.47
454.15	7438.22
454.34	7260.34
454.52	7545.89
454.70	7379.71
454.89	7445.24
455.07	7363.33
455.26	7400.77
455.44	7840.79
455.62	7466.31
455.81	7517.80
455.99	7719.09
456.17	7747.17
456.36	7618.44
456.54	7969.52
456.73	7941.44
456.91	7878.24
457.09	8128.68
457.28	8219.96
457.46	8049.10
457.64	8166.13
457.83	8194.22
458.01	7868.88
458.19	8196.56
458.38	8018.68
458.56	8201.24
458.74	8287.84
458.93	8184.85
459.11	8196.56
459.29	8107.62
459.48	8313.58
459.66	8346.35
459.84	8608.49
460.03	8692.75
460.21	8390.82
460.39	8601.47
460.57	8234.00
460.76	8269.11
460.94	8571.04
461.12	8486.78
461.31	8557.00
461.49	8732.54
461.67	8613.17
461.85	8741.90
462.04	8910.42
462.22	9280.22
462.40	8877.65
462.59	8645.94
462.77	8894.04
462.95	8922.12
463.13	8854.25
463.32	9032.13
463.50	8940.85
463.68	8987.66
463.86	8950.21
464.05	8915.10
464.23	9027.45
464.41	9228.73
464.59	8943.19
464.78	9153.84
464.96	9160.86
465.14	9165.54
465.32	9224.05
465.50	9352.78
465.69	9472.15
465.87	9266.18
466.05	9263.84
466.23	9207.67
466.41	9369.16
466.60	9547.05
466.78	9451.08
466.96	9462.79
467.14	9324.69
467.32	9430.02
467.51	9465.13
467.69	9394.91
467.87	9696.84
468.05	9706.20
468.23	9334.06
468.41	9476.83
468.60	9525.98
468.78	9680.46
468.96	9596.20
469.14	9671.09
469.32	9973.02
469.50	9549.39
469.69	9984.73
469.87	10139.20
470.05	9848.97
470.23	9907.49
470.41	9956.64
470.59	10281.97
470.77	10064.30
470.95	10188.35
471.14	10246.87
471.32	10132.18
471.50	10565.18
471.68	10597.95
471.86	10310.06
472.04	10635.39
472.22	10736.04
472.40	10581.56
472.58	10471.56
472.77	10785.19
472.95	10824.98
473.13	10972.43
473.31	10827.32
473.49	10640.08
473.67	11002.86
473.85	11082.44
474.03	11108.18
474.21	11077.76
474.39	11513.10
474.57	11243.93
474.75	11513.10
474.93	11613.74
475.12	11456.92
475.30	11707.36
475.48	11548.20
475.66	11765.87
475.84	11660.55
476.02	11918.01
476.20	11868.86
476.38	11878.22
476.56	12112.27
476.74	12170.79
476.92	11927.37
477.10	11995.25
477.28	12318.24
477.46	12049.08
477.64	12400.16
477.82	12425.90
478.00	12872.95
478.18	12908.05
478.36	12795.71
478.54	13125.72
478.72	13240.41
478.90	13160.83
479.08	13277.86
479.26	13348.08
479.44	13511.91
479.62	13444.04
479.80	13788.10
479.98	13757.67
480.16	14153.22
480.34	13947.25
480.52	14132.15
480.70	14202.37
480.88	14134.50
481.06	14490.26
481.24	14211.73
481.41	14597.92
481.59	14747.72
481.77	14897.51
481.95	14855.38
482.13	15279.02
482.31	14977.09
482.49	15550.52
482.67	15190.08
482.85	15627.76
483.03	15819.68
483.21	15721.38
483.39	16189.49
483.57	15686.27
483.74	16280.77
483.92	16016.29
484.10	16161.40
484.28	16589.72
484.46	16732.49
484.64	17090.59
484.82	16486.73
485.00	17128.04
485.18	17118.68
485.35	17343.37
485.53	17399.54
485.71	17378.48
485.89	17944.89
486.07	17776.37
486.25	18031.49
486.43	17848.93
486.61	18284.26
486.78	18272.56
486.96	18537.04
487.14	19105.79
487.32	18792.16
487.50	19117.50
487.68	19054.30
487.85	19131.54
488.03	19658.16
488.21	19719.01
488.39	19644.12
488.57	19658.16
488.75	19976.47
488.92	20575.65
489.10	20423.51
489.28	20975.88
489.46	20636.50
489.64	20896.30
489.81	21174.83
489.99	20922.05
490.17	21008.65
490.35	21369.09
490.53	21352.71
490.70	21785.71
490.88	21535.27
491.06	22148.49
491.24	22160.19
491.41	22291.26
491.59	22405.95
491.77	22628.30
491.95	22539.36
492.13	22654.05
492.30	22916.19
492.48	23087.04
492.66	23070.66
492.84	23152.58
493.01	23571.54
493.19	23414.72
493.37	23796.23
493.54	23669.84
493.72	24067.73
493.90	23896.87
494.08	24144.97
494.25	24643.50
494.43	24484.34
494.61	24535.84
494.79	24872.87
494.96	25104.59
495.14	24608.39
495.32	25305.87
495.49	25209.91
495.67	25633.55
495.85	25867.60
496.02	26139.10
496.20	25949.52
496.38	25846.54
496.55	26101.65
496.73	26827.22
496.91	26614.23
497.09	26670.40
497.26	26677.43
497.44	27147.87
497.62	26534.65
497.79	27590.24
497.97	27115.11
498.14	27470.87
498.32	27871.10
498.50	27807.90
498.67	27946.00
498.85	27845.35
499.03	27943.66
499.20	28158.99
499.38	28039.62
499.56	28374.31
499.73	28582.62
499.91	28371.97
500.08	29099.88
500.26	28858.81
500.44	28694.97
500.61	29233.29
500.79	28748.80
500.97	29111.58
501.14	29661.61
501.32	29546.92
501.49	29493.09
501.67	29500.11
501.84	29577.35
502.02	29862.90
502.20	29832.47
502.37	30228.02
502.55	30103.97
502.72	30293.55
502.90	30354.41
503.07	30171.85
503.25	30202.27
503.43	30426.96
503.60	30829.54
503.78	30906.77
503.95	30874.01
504.13	30967.63
504.30	31007.42
504.48	31159.55
504.65	31079.97
504.83	31606.59
505.01	31398.29
505.18	31960.02
505.36	32020.87
505.53	31559.78
505.71	31945.97
505.88	31957.67
506.06	31943.63
506.23	32055.98
506.41	32247.90
506.58	32657.49
506.76	32322.80
506.93	32655.15
507.11	32201.09
507.28	32655.15
507.46	32865.80
507.63	33127.94
507.81	33464.98
507.98	33144.33
508.16	33083.47
508.33	33188.80
508.50	33060.07
508.68	33202.84
508.85	33893.30
509.03	33806.70
509.20	33998.62
509.38	34195.23
509.55	34361.40
509.73	34251.40
509.90	34569.71
510.08	34256.08
510.25	34309.91
510.42	34466.73
510.60	34958.24
510.77	34525.24
510.95	34967.60
511.12	34747.59
511.30	35098.67
511.47	35534.01
511.64	35548.06
511.82	35456.78
511.99	35658.06
512.17	35749.34
512.34	35400.60
512.51	35688.49
512.69	35796.15
512.86	35936.59
513.04	36474.91
513.21	36620.02
513.38	36273.62
513.56	36776.84
513.73	36098.08
513.90	36210.43
514.08	36715.98
514.25	36765.14
514.43	36900.89
514.60	37020.25
514.77	36898.55
514.95	37275.37
515.12	36769.82
515.29	37244.94
515.47	37624.11
515.64	37270.69
515.81	37284.73
515.99	37785.61
516.16	37921.36
516.33	37748.16
516.51	38153.07
516.68	37607.73
516.85	38075.84
517.03	37984.55
517.20	38398.83
517.37	38408.19
517.54	38253.72
517.72	38316.91
517.89	37984.55
518.06	38459.68
518.24	38539.26
518.41	38445.64
518.58	38998.01
518.75	38831.83
518.93	39241.42
519.10	38806.08
519.27	39033.11
519.45	38850.55
519.62	39213.34
519.79	39299.94
519.96	39435.69
520.14	39737.62
520.31	39714.21
520.48	39674.42
520.65	39636.97
520.83	40016.14
521.00	40023.16
521.17	39611.23
521.34	39992.73
521.52	39861.66
521.69	40217.43
521.86	40865.75
522.03	40430.41
522.20	40570.85
522.38	40531.06
522.55	40786.18
522.72	40966.40
522.89	40935.97
523.07	41528.13
523.24	41003.85
523.41	41223.86
523.58	41053.00
523.75	41303.43
523.92	41034.27
524.10	41256.62
524.27	41378.33
524.44	41998.57
524.61	42094.53
524.78	41832.39
524.96	41902.61
525.13	42085.17
525.30	41841.76
525.47	41923.68
525.64	41970.49
525.81	42087.51
525.98	42087.51
526.16	42115.60
526.33	42054.75
526.50	42780.31
526.67	42295.82
526.84	42710.10
527.01	42321.57
527.18	42579.03
527.36	43056.50
527.53	42487.74
527.70	43409.92
527.87	43335.02
528.04	42653.92
528.21	43391.19
528.38	43248.42
528.55	43222.67
528.72	43026.07
528.89	43578.43
529.07	43461.41
529.24	42965.21
529.41	43566.73
529.58	43377.15
529.75	43587.80
529.92	43496.52
530.09	43627.59
530.26	43943.56
530.43	43871.00
530.60	43676.74
530.77	44034.84
530.94	43784.40
531.11	43985.69
531.28	43957.60
531.46	43798.44
531.63	44362.51
531.80	44491.24
531.97	44406.98
532.14	44479.54
532.31	44055.90
532.48	44481.88
532.65	44313.36
532.82	44322.72
532.99	44793.17
533.16	44254.85
533.33	44924.24
533.50	45137.23
533.67	44762.75
533.84	44947.65
534.01	44910.20
534.18	45106.80
534.35	45298.73
534.52	44980.42
534.69	45572.57
534.86	45776.20
535.03	45069.36
535.20	45310.43
535.37	45144.25
535.54	45982.16
535.71	45720.02
535.88	45518.74
536.05	45528.10
536.22	45764.49
536.38	46003.23
536.55	46075.79
536.72	46057.06
536.89	45897.91
537.06	46124.94
537.23	46127.28
537.40	46251.33
537.57	46246.65
537.74	45923.65
537.91	46904.34
538.08	46637.51
538.25	46321.54
538.42	46014.93
538.59	46679.64
538.75	46113.23
538.92	46190.47
539.09	47072.85
539.26	46899.65
539.43	46703.05
539.60	46670.28
539.77	46817.74
539.94	47089.24
540.11	46972.21
540.28	46660.92
540.44	46923.06
540.61	46679.64
540.78	47119.66
540.95	47079.88
541.12	47367.76
541.29	47215.63
541.46	46588.36
541.62	47224.99
541.79	47278.82
541.96	46724.11
542.13	47433.30
542.30	47349.04
542.47	48060.56
542.63	47688.42
542.80	47770.33
542.97	47419.25
543.14	47442.66
543.31	47622.88
543.48	47899.06
543.64	48133.12
543.81	48418.66
543.98	48287.59
544.15	48360.15
544.32	48531.01
544.48	48332.06
544.65	48306.32
544.82	48456.11
544.99	47906.08
545.16	48715.91
545.32	48360.15
545.49	48865.70
545.66	48624.63
545.83	49043.59
546.00	48919.54
546.16	48821.23
546.33	48435.05
546.50	48299.30
546.67	48694.85
546.83	48645.69
547.00	48870.39
547.17	48947.62
547.34	48811.87
547.50	48898.47
547.67	49167.63
547.84	48893.79
548.00	48949.96
548.17	49600.63
548.34	48835.28
548.51	49301.04
548.67	49242.53
548.84	49490.63
549.01	49453.18
549.18	49212.10
549.34	48917.20
549.51	49443.82
549.68	49565.52
549.84	49141.89
550.01	49846.39
550.18	49530.42
550.34	49818.30
550.51	49811.28
550.68	49923.63
550.84	49006.14
551.01	49614.68
551.18	49724.68
551.34	49675.53
551.51	49916.61
551.68	50073.42
551.84	50199.81
552.01	49813.62
552.18	50323.86
552.34	50113.21
552.51	50316.84
552.68	50082.78
552.84	50012.57
553.01	50468.97
553.18	50129.59
553.34	50328.54
553.51	50145.98
553.67	50380.03
553.84	50546.21
554.01	50365.99
554.17	50735.79
554.34	50298.11
554.51	49958.73
554.67	50401.10
554.84	50543.87
555.00	50136.62
555.17	50672.60
555.33	50763.88
555.50	50688.98
555.67	50656.21
555.83	50459.61
556.00	50602.38
556.16	50754.52
556.33	50749.84
556.50	50525.14
556.66	50990.91
556.83	50433.86
556.99	51072.83
557.16	51143.05
557.32	50859.84
557.49	50939.42
557.65	50569.61
557.82	50880.91
557.98	50897.29
558.15	51185.18
558.32	51019.00
558.48	50796.65
558.65	51007.29
558.81	51145.39
558.98	51026.02
559.14	51503.49
559.31	50962.82
559.47	50831.75
559.64	51079.85
559.80	51157.09
559.97	51412.21
560.13	51016.66
560.30	51222.62
560.46	51201.56
560.63	51309.22
560.79	51365.40
560.96	51388.80
561.12	51033.04
561.29	50869.20
561.45	51056.45
561.61	51639.24
561.78	51461.36
561.94	51325.61
562.11	51423.91
562.27	51543.28
562.44	51332.63
562.60	51526.89
562.77	51519.87
562.93	51400.50
563.10	51725.84
563.26	51540.94
563.42	51707.12
563.59	51585.41
563.75	51767.97
563.92	51653.28
564.08	51283.48
564.24	51344.33
564.41	51480.08
564.57	51501.15
564.74	51573.70
564.90	51611.15
565.07	51657.96
565.23	51943.51
565.39	51611.15
565.56	51622.86
565.72	51526.89
565.88	51793.71
566.05	51657.96
566.21	51849.89
566.38	51622.86
566.54	52023.09
566.70	51985.64
566.87	51934.15
567.03	52002.02
567.19	52193.95
567.36	51995.00
567.52	51475.40
567.68	51992.66
567.85	51746.90
568.01	52081.60
568.17	51681.37
568.34	51767.97
568.50	51723.50
568.66	51859.25
568.83	51929.47
568.99	51819.46
569.15	52004.36
569.32	52027.77
569.48	51601.79
569.64	51819.46
569.81	52060.54
569.97	52002.02
570.13	51817.12
570.30	51969.26
570.46	52027.77
570.62	52350.76
570.78	51819.46
570.95	52210.33
571.11	51980.96
571.27	51739.88
571.43	51997.34
571.60	52203.31
571.76	51990.32
571.92	52142.45
572.09	52062.88
572.25	52133.09
572.41	52109.69
572.57	51849.89
572.74	52425.66
572.90	52200.97
573.06	52135.43
573.22	51985.64
573.38	52156.50
573.55	52275.87
573.71	52516.94
573.87	52683.12
574.03	52112.03
574.20	52392.89
574.36	52076.92
574.52	52275.87
574.68	52303.95
574.84	52406.94
575.01	52521.62
575.17	52559.07
575.33	52210.33
575.49	52189.27
575.65	52346.08
575.82	52388.21
575.98	52144.80
576.14	52184.58
576.30	52336.72
576.46	52226.71
576.62	52151.82
576.79	52294.59
576.95	51999.68
577.11	52191.61
577.27	52296.93
577.43	52332.04
577.59	52530.98
577.75	52435.02
577.92	52175.22
578.08	52147.14
578.24	52362.46
578.40	52556.73
578.56	52444.38
578.72	52261.82
578.88	52676.10
579.04	52666.73
579.21	52481.83
579.37	52669.08
579.53	52325.02
579.69	52051.17
579.85	52463.11
580.01	52453.75
580.17	52327.36
580.33	52420.98
580.49	52348.42
580.65	52640.99
580.82	52765.04
580.98	52310.97
581.14	52493.54
581.30	52814.19
581.46	52545.03
581.62	52428.00
581.78	52243.10
581.94	52481.83
582.10	52355.44
582.26	52648.01
582.42	52685.46
582.58	52921.85
582.74	52603.54
582.90	52760.36
583.06	52797.80
583.22	52676.10
583.38	52748.65
583.54	52456.09
583.70	52425.66
583.86	52526.30
584.02	52374.17
584.18	52818.87
584.34	52851.64
584.50	52804.83
584.66	52369.49
584.82	52350.76
584.98	52282.89
585.14	52645.67
585.30	52423.32
585.46	52552.05
585.62	52381.19
585.78	52758.02
585.94	52341.40
586.10	52502.90
586.26	52884.40
586.42	52868.02
586.58	52942.92
586.74	52388.21
586.90	52505.24
587.06	52800.15
587.22	52669.08
587.38	52758.02
587.54	52685.46
587.70	52573.11
587.86	53041.22
588.02	52790.78
588.18	52959.30
588.34	52774.40
588.49	52765.04
588.65	52460.77
588.81	52488.85
588.97	52736.95
589.13	52516.94
589.29	52516.94
589.45	52788.44
589.61	52865.68
589.77	53106.76
589.93	53109.10
590.08	53254.21
590.24	53073.99
