SpectraSuite Data File
++++++++++++++++++++++++++++++++++++
Date: Fri Oct 04 11:46:59 GMT-05:00 2013
User: price-jones
Dark Spectrum Present: No
Reference Spectrum Present: No
Number of Sampled Component Spectra: 1
Spectrometers: USB2+H05261
Integration Time (usec): 100000 (USB2+H05261)
Spectra Averaged: 1 (USB2+H05261)
Boxcar Smoothing: 0 (USB2+H05261)
Correct for Electrical Dark: No (USB2+H05261)
Strobe/Lamp Enabled: No (USB2+H05261)
Correct for Detector Non-linearity: No (USB2+H05261)
Correct for Stray Light: No (USB2+H05261)
Number of Pixels in Processed Spectrum: 2048
>>>>>Begin Processed Spectral Data<<<<<
365.73	0.00
365.92	0.00
366.12	0.00
366.32	0.00
366.52	0.00
366.72	0.00
366.91	0.00
367.11	0.00
367.31	0.00
367.51	0.00
367.70	0.00
367.90	0.00
368.10	0.00
368.30	0.00
368.49	0.00
368.69	0.00
368.89	0.00
369.09	0.00
369.28	46.81
369.48	0.00
369.68	0.00
369.87	0.00
370.07	30.43
370.27	77.24
370.47	0.00
370.66	0.00
370.86	2.34
371.06	72.56
371.25	42.13
371.45	46.81
371.65	107.66
371.84	0.00
372.04	72.56
372.24	42.13
372.44	21.06
372.63	112.35
372.83	140.43
373.03	0.00
373.22	32.77
373.42	91.28
373.62	95.96
373.81	98.30
374.01	170.86
374.21	128.73
374.40	51.49
374.60	63.19
374.79	147.45
374.99	140.43
375.19	138.09
375.38	67.88
375.58	93.62
375.78	159.16
375.97	124.05
376.17	107.66
376.37	46.81
376.56	159.16
376.76	32.77
376.95	49.15
377.15	163.84
377.35	128.73
377.54	128.73
377.74	74.90
377.93	79.58
378.13	173.20
378.33	95.96
378.52	74.90
378.72	159.16
378.91	131.07
379.11	128.73
379.31	117.03
379.50	58.51
379.70	88.94
379.89	114.69
380.09	67.88
380.28	0.00
380.48	7.02
380.68	0.00
380.87	53.83
381.07	51.49
381.26	175.54
381.46	187.24
381.65	105.32
381.85	88.94
382.04	121.71
382.24	180.22
382.43	84.26
382.63	100.64
382.83	2.34
383.02	142.77
383.22	124.05
383.41	91.28
383.61	149.79
383.80	105.32
384.00	32.77
384.19	91.28
384.39	74.90
384.58	119.37
384.78	131.07
384.97	81.92
385.17	37.45
385.36	49.15
385.56	131.07
385.75	86.60
385.95	23.41
386.14	128.73
386.34	58.51
386.53	65.54
386.72	72.56
386.92	112.35
387.11	117.03
387.31	74.90
387.50	102.98
387.70	42.13
387.89	154.48
388.09	128.73
388.28	124.05
388.48	58.51
388.67	114.69
388.86	110.01
389.06	72.56
389.25	102.98
389.45	95.96
389.64	100.64
389.84	128.73
390.03	124.05
390.22	135.75
390.42	107.66
390.61	112.35
390.81	119.37
391.00	117.03
391.19	56.17
391.39	23.41
391.58	84.26
391.78	102.98
391.97	124.05
392.16	65.54
392.36	95.96
392.55	119.37
392.75	126.39
392.94	11.70
393.13	128.73
393.33	112.35
393.52	93.62
393.71	114.69
393.91	58.51
394.10	46.81
394.29	105.32
394.49	105.32
394.68	93.62
394.88	187.24
395.07	163.84
395.26	72.56
395.46	46.81
395.65	149.79
395.84	156.82
396.04	177.88
396.23	86.60
396.42	39.79
396.62	166.18
396.81	105.32
397.00	105.32
397.19	126.39
397.39	35.11
397.58	142.77
397.77	37.45
397.97	107.66
398.16	110.01
398.35	77.24
398.55	114.69
398.74	35.11
398.93	63.19
399.12	79.58
399.32	112.35
399.51	100.64
399.70	117.03
399.90	124.05
400.09	110.01
400.28	100.64
400.47	44.47
400.67	58.51
400.86	88.94
401.05	67.88
401.24	60.85
401.44	117.03
401.63	102.98
401.82	112.35
402.01	95.96
402.21	21.06
402.40	79.58
402.59	93.62
402.78	98.30
402.97	126.39
403.17	77.24
403.36	119.37
403.55	98.30
403.74	170.86
403.93	156.82
404.13	119.37
404.32	98.30
404.51	114.69
404.70	117.03
404.89	112.35
405.09	252.78
405.28	95.96
405.47	49.15
405.66	39.79
405.85	105.32
406.05	65.54
406.24	21.06
406.43	112.35
406.62	149.79
406.81	184.90
407.00	126.39
407.20	60.85
407.39	49.15
407.58	93.62
407.77	42.13
407.96	161.50
408.15	126.39
408.34	170.86
408.54	88.94
408.73	175.54
408.92	117.03
409.11	182.56
409.30	110.01
409.49	107.66
409.68	91.28
409.87	74.90
410.07	58.51
410.26	72.56
410.45	88.94
410.64	119.37
410.83	119.37
411.02	98.30
411.21	133.41
411.40	79.58
411.59	166.18
411.78	93.62
411.98	131.07
412.17	102.98
412.36	91.28
412.55	25.75
412.74	112.35
412.93	152.13
413.12	145.11
413.31	126.39
413.50	112.35
413.69	131.07
413.88	117.03
414.07	138.09
414.26	49.15
414.45	102.98
414.64	112.35
414.83	79.58
415.02	70.22
415.22	74.90
415.41	110.01
415.60	93.62
415.79	201.29
415.98	154.48
416.17	98.30
416.36	119.37
416.55	142.77
416.74	114.69
416.93	138.09
417.12	140.43
417.31	124.05
417.50	79.58
417.69	210.65
417.88	222.35
418.07	117.03
418.26	124.05
418.45	105.32
418.64	149.79
418.83	203.63
419.02	287.89
419.21	189.58
419.39	205.97
419.58	133.41
419.77	168.52
419.96	161.50
420.15	114.69
420.34	135.75
420.53	98.30
420.72	119.37
420.91	173.20
421.10	121.71
421.29	119.37
421.48	105.32
421.67	187.24
421.86	114.69
422.05	53.83
422.24	135.75
422.43	86.60
422.61	30.43
422.80	133.41
422.99	117.03
423.18	110.01
423.37	98.30
423.56	135.75
423.75	187.24
423.94	124.05
424.13	107.66
424.32	107.66
424.50	114.69
424.69	149.79
424.88	124.05
425.07	86.60
425.26	133.41
425.45	170.86
425.64	245.76
425.83	210.65
426.01	217.67
426.20	161.50
426.39	133.41
426.58	93.62
426.77	163.84
426.96	117.03
427.15	88.94
427.33	145.11
427.52	60.85
427.71	39.79
427.90	7.02
428.09	145.11
428.28	124.05
428.46	145.11
428.65	159.16
428.84	107.66
429.03	145.11
429.22	112.35
429.40	161.50
429.59	93.62
429.78	234.05
429.97	168.52
430.16	91.28
430.34	107.66
430.53	60.85
430.72	140.43
430.91	163.84
431.10	91.28
431.28	166.18
431.47	145.11
431.66	177.88
431.85	67.88
432.03	152.13
432.22	147.45
432.41	124.05
432.60	156.82
432.79	163.84
432.97	273.84
433.16	255.12
433.35	177.88
433.54	224.69
433.72	217.67
433.91	173.20
434.10	238.73
434.28	102.98
434.47	159.16
434.66	187.24
434.85	126.39
435.03	154.48
435.22	170.86
435.41	187.24
435.59	149.79
435.78	102.98
435.97	128.73
436.16	126.39
436.34	166.18
436.53	229.37
436.72	170.86
436.90	119.37
437.09	140.43
437.28	86.60
437.46	63.19
437.65	147.45
437.84	53.83
438.02	121.71
438.21	58.51
438.40	140.43
438.58	58.51
438.77	121.71
438.96	170.86
439.14	53.83
439.33	72.56
439.52	51.49
439.70	74.90
439.89	79.58
440.08	79.58
440.26	131.07
440.45	131.07
440.63	88.94
440.82	102.98
441.01	119.37
441.19	187.24
441.38	58.51
441.57	126.39
441.75	180.22
441.94	131.07
442.12	131.07
442.31	138.09
442.50	98.30
442.68	107.66
442.87	100.64
443.05	72.56
443.24	138.09
443.43	112.35
443.61	182.56
443.80	88.94
443.98	128.73
444.17	133.41
444.35	131.07
444.54	140.43
444.73	91.28
444.91	166.18
445.10	135.75
445.28	147.45
445.47	168.52
445.65	149.79
445.84	102.98
446.02	112.35
446.21	98.30
446.39	84.26
446.58	154.48
446.77	81.92
446.95	93.62
447.14	95.96
447.32	175.54
447.51	100.64
447.69	128.73
447.88	98.30
448.06	189.58
448.25	154.48
448.43	156.82
448.62	70.22
448.80	110.01
448.99	88.94
449.17	128.73
449.36	133.41
449.54	145.11
449.73	142.77
449.91	102.98
450.10	60.85
450.28	138.09
450.46	119.37
450.65	145.11
450.83	215.33
451.02	119.37
451.20	124.05
451.39	124.05
451.57	166.18
451.76	149.79
451.94	121.71
452.13	184.90
452.31	117.03
452.49	138.09
452.68	145.11
452.86	156.82
453.05	168.52
453.23	138.09
453.42	98.30
453.60	74.90
453.78	128.73
453.97	220.01
454.15	119.37
454.34	154.48
454.52	86.60
454.70	212.99
454.89	184.90
455.07	126.39
455.26	74.90
455.44	154.48
455.62	180.22
455.81	149.79
455.99	102.98
456.17	102.98
456.36	105.32
456.54	98.30
456.73	184.90
456.91	81.92
457.09	159.16
457.28	95.96
457.46	191.92
457.64	112.35
457.83	124.05
458.01	173.20
458.19	147.45
458.38	119.37
458.56	163.84
458.74	117.03
458.93	154.48
459.11	117.03
459.29	231.71
459.48	161.50
459.66	173.20
459.84	175.54
460.03	198.95
460.21	126.39
460.39	63.19
460.57	117.03
460.76	220.01
460.94	107.66
461.12	210.65
461.31	138.09
461.49	112.35
461.67	184.90
461.85	131.07
462.04	163.84
462.22	606.20
462.40	175.54
462.59	191.92
462.77	84.26
462.95	177.88
463.13	198.95
463.32	112.35
463.50	107.66
463.68	142.77
463.86	156.82
464.05	149.79
464.23	189.58
464.41	161.50
464.59	110.01
464.78	173.20
464.96	84.26
465.14	147.45
465.32	107.66
465.50	170.86
465.69	145.11
465.87	156.82
466.05	84.26
466.23	102.98
466.41	175.54
466.60	156.82
466.78	88.94
466.96	154.48
467.14	145.11
467.32	194.26
467.51	147.45
467.69	117.03
467.87	128.73
468.05	135.75
468.23	196.60
468.41	224.69
468.60	117.03
468.78	107.66
468.96	163.84
469.14	79.58
469.32	133.41
469.50	84.26
469.69	149.79
469.87	161.50
470.05	128.73
470.23	166.18
470.41	170.86
470.59	168.52
470.77	170.86
470.95	105.32
471.14	170.86
471.32	117.03
471.50	173.20
471.68	161.50
471.86	156.82
472.04	140.43
472.22	152.13
472.40	128.73
472.58	114.69
472.77	205.97
472.95	112.35
473.13	173.20
473.31	177.88
473.49	156.82
473.67	102.98
473.85	147.45
474.03	168.52
474.21	135.75
474.39	184.90
474.57	142.77
474.75	107.66
474.93	124.05
475.12	124.05
475.30	180.22
475.48	166.18
475.66	126.39
475.84	215.33
476.02	145.11
476.20	198.95
476.38	79.58
476.56	191.92
476.74	180.22
476.92	149.79
477.10	149.79
477.28	168.52
477.46	79.58
477.64	152.13
477.82	191.92
478.00	203.63
478.18	194.26
478.36	77.24
478.54	79.58
478.72	39.79
478.90	100.64
479.08	119.37
479.26	154.48
479.44	168.52
479.62	133.41
479.80	128.73
479.98	149.79
480.16	227.03
480.34	194.26
480.52	184.90
480.70	212.99
480.88	161.50
481.06	154.48
481.24	81.92
481.41	205.97
481.59	215.33
481.77	126.39
481.95	126.39
482.13	140.43
482.31	184.90
482.49	133.41
482.67	138.09
482.85	163.84
483.03	152.13
483.21	177.88
483.39	95.96
483.57	128.73
483.74	175.54
483.92	114.69
484.10	84.26
484.28	142.77
484.46	217.67
484.64	142.77
484.82	203.63
485.00	46.81
485.18	140.43
485.35	208.31
485.53	154.48
485.71	152.13
485.89	88.94
486.07	126.39
486.25	215.33
486.43	138.09
486.61	215.33
486.78	147.45
486.96	95.96
487.14	72.56
487.32	227.03
487.50	112.35
487.68	205.97
487.85	163.84
488.03	196.60
488.21	126.39
488.39	138.09
488.57	198.95
488.75	194.26
488.92	437.68
489.10	168.52
489.28	194.26
489.46	159.16
489.64	184.90
489.81	163.84
489.99	184.90
490.17	135.75
490.35	166.18
490.53	105.32
490.70	112.35
490.88	248.10
491.06	180.22
491.24	203.63
491.41	196.60
491.59	147.45
491.77	229.37
491.95	215.33
492.13	170.86
492.30	173.20
492.48	231.71
492.66	126.39
492.84	177.88
493.01	119.37
493.19	128.73
493.37	198.95
493.54	182.56
493.72	257.46
493.90	189.58
494.08	145.11
494.25	238.73
494.43	212.99
494.61	140.43
494.79	159.16
494.96	184.90
495.14	210.65
495.32	212.99
495.49	222.35
495.67	156.82
495.85	168.52
496.02	187.24
496.20	180.22
496.38	231.71
496.55	220.01
496.73	135.75
496.91	119.37
497.09	257.46
497.26	238.73
497.44	168.52
497.62	210.65
497.79	126.39
497.97	236.39
498.14	227.03
498.32	229.37
498.50	222.35
498.67	184.90
498.85	212.99
499.03	224.69
499.20	133.41
499.38	128.73
499.56	184.90
499.73	170.86
499.91	227.03
500.08	250.44
500.26	135.75
500.44	175.54
500.61	191.92
500.79	156.82
500.97	140.43
501.14	145.11
501.32	201.29
501.49	243.42
501.67	145.11
501.84	234.05
502.02	149.79
502.20	194.26
502.37	168.52
502.55	231.71
502.72	191.92
502.90	224.69
503.07	112.35
503.25	173.20
503.43	212.99
503.60	196.60
503.78	215.33
503.95	203.63
504.13	252.78
504.30	156.82
504.48	238.73
504.65	126.39
504.83	264.48
505.01	110.01
505.18	124.05
505.36	177.88
505.53	180.22
505.71	208.31
505.88	238.73
506.06	220.01
506.23	168.52
506.41	149.79
506.58	210.65
506.76	220.01
506.93	140.43
507.11	227.03
507.28	220.01
507.46	210.65
507.63	241.08
507.81	255.12
507.98	173.20
508.16	194.26
508.33	220.01
508.50	173.20
508.68	271.50
508.85	177.88
509.03	196.60
509.20	159.16
509.38	231.71
509.55	234.05
509.73	220.01
509.90	215.33
510.08	177.88
510.25	273.84
510.42	189.58
510.60	231.71
510.77	208.31
510.95	180.22
511.12	140.43
511.30	243.42
511.47	210.65
511.64	313.63
511.82	154.48
511.99	100.64
512.17	159.16
512.34	168.52
512.51	93.62
512.69	196.60
512.86	208.31
513.04	173.20
513.21	177.88
513.38	105.32
513.56	229.37
513.73	212.99
513.90	201.29
514.08	98.30
514.25	212.99
514.43	236.39
514.60	128.73
514.77	210.65
514.95	224.69
515.12	243.42
515.29	191.92
515.47	184.90
515.64	203.63
515.81	191.92
515.99	236.39
516.16	212.99
516.33	220.01
516.51	201.29
516.68	189.58
516.85	154.48
517.03	156.82
517.20	194.26
517.37	196.60
517.54	285.55
517.72	161.50
517.89	231.71
518.06	187.24
518.24	280.86
518.41	203.63
518.58	166.18
518.75	161.50
518.93	187.24
519.10	208.31
519.27	262.14
519.45	177.88
519.62	243.42
519.79	212.99
519.96	229.37
520.14	175.54
520.31	271.50
520.48	170.86
520.65	191.92
520.83	191.92
521.00	205.97
521.17	238.73
521.34	210.65
521.52	227.03
521.69	182.56
521.86	196.60
522.03	220.01
522.20	203.63
522.38	77.24
522.55	217.67
522.72	152.13
522.89	215.33
523.07	236.39
523.24	149.79
523.41	152.13
523.58	131.07
523.75	187.24
523.92	138.09
524.10	189.58
524.27	229.37
524.44	184.90
524.61	243.42
524.78	217.67
524.96	173.20
525.13	217.67
525.30	278.52
525.47	191.92
525.64	182.56
525.81	184.90
525.98	238.73
526.16	74.90
526.33	156.82
526.50	175.54
526.67	252.78
526.84	184.90
527.01	227.03
527.18	170.86
527.36	187.24
527.53	147.45
527.70	252.78
527.87	210.65
528.04	238.73
528.21	170.86
528.38	241.08
528.55	177.88
528.72	203.63
528.89	220.01
529.07	201.29
529.24	222.35
529.41	243.42
529.58	194.26
529.75	145.11
529.92	128.73
530.09	154.48
530.26	205.97
530.43	184.90
530.60	245.76
530.77	241.08
530.94	234.05
531.11	259.80
531.28	161.50
531.46	166.18
531.63	227.03
531.80	271.50
531.97	257.46
532.14	255.12
532.31	222.35
532.48	264.48
532.65	330.02
532.82	229.37
532.99	341.72
533.16	276.18
533.33	238.73
533.50	271.50
533.67	320.65
533.84	397.89
534.01	390.87
534.18	351.08
534.35	266.82
534.52	266.82
534.69	306.61
534.86	238.73
535.03	203.63
535.20	203.63
535.37	189.58
535.54	201.29
535.71	210.65
535.88	346.40
536.05	173.20
536.22	301.93
536.38	229.37
536.55	194.26
536.72	205.97
536.89	135.75
537.06	217.67
537.23	138.09
537.40	166.18
537.57	177.88
537.74	245.76
537.91	229.37
538.08	173.20
538.25	168.52
538.42	175.54
538.59	191.92
538.75	241.08
538.92	273.84
539.09	264.48
539.26	259.80
539.43	376.83
539.60	931.53
539.77	1514.33
539.94	1579.86
540.11	1032.18
540.28	643.65
540.44	421.30
540.61	243.42
540.78	175.54
540.95	194.26
541.12	140.43
541.29	184.90
541.46	257.46
541.62	177.88
541.79	142.77
541.96	173.20
542.13	205.97
542.30	180.22
542.47	222.35
542.63	152.13
542.80	159.16
542.97	290.23
543.14	177.88
543.31	259.80
543.48	252.78
543.64	243.42
543.81	163.84
543.98	196.60
544.15	117.03
544.32	154.48
544.48	189.58
544.65	215.33
544.82	177.88
544.99	234.05
545.16	299.59
545.32	264.48
545.49	173.20
545.66	276.18
545.83	189.58
546.00	156.82
546.16	184.90
546.33	266.82
546.50	259.80
546.67	201.29
546.83	297.25
547.00	166.18
547.17	184.90
547.34	140.43
547.50	257.46
547.67	166.18
547.84	177.88
548.00	259.80
548.17	273.84
548.34	187.24
548.51	220.01
548.67	231.71
548.84	227.03
549.01	220.01
549.18	259.80
549.34	161.50
549.51	238.73
549.68	173.20
549.84	149.79
550.01	215.33
550.18	330.02
550.34	318.31
550.51	203.63
550.68	243.42
550.84	159.16
551.01	243.42
551.18	198.95
551.34	145.11
551.51	182.56
551.68	196.60
551.84	241.08
552.01	245.76
552.18	227.03
552.34	175.54
552.51	184.90
552.68	191.92
552.84	173.20
553.01	271.50
553.18	208.31
553.34	170.86
553.51	156.82
553.67	175.54
553.84	271.50
554.01	229.37
554.17	191.92
554.34	180.22
554.51	180.22
554.67	196.60
554.84	182.56
555.00	189.58
555.17	222.35
555.33	262.14
555.50	222.35
555.67	259.80
555.83	156.82
556.00	187.24
556.16	379.17
556.33	287.89
556.50	234.05
556.66	262.14
556.83	147.45
556.99	182.56
557.16	238.73
557.32	252.78
557.49	177.88
557.65	105.32
557.82	217.67
557.98	196.60
558.15	152.13
558.32	170.86
558.48	156.82
558.65	245.76
558.81	217.67
558.98	91.28
559.14	161.50
559.31	161.50
559.47	243.42
559.64	110.01
559.80	180.22
559.97	152.13
560.13	175.54
560.30	142.77
560.46	238.73
560.63	201.29
560.79	187.24
560.96	166.18
561.12	212.99
561.29	205.97
561.45	175.54
561.61	231.71
561.78	327.68
561.94	184.90
562.11	128.73
562.27	266.82
562.44	245.76
562.60	201.29
562.77	182.56
562.93	339.38
563.10	189.58
563.26	222.35
563.42	138.09
563.59	124.05
563.75	138.09
563.92	299.59
564.08	198.95
564.24	175.54
564.41	229.37
564.57	189.58
564.74	189.58
564.90	234.05
565.07	278.52
565.23	262.14
565.39	229.37
565.56	210.65
565.72	255.12
565.88	252.78
566.05	231.71
566.21	222.35
566.38	273.84
566.54	229.37
566.70	273.84
566.87	191.92
567.03	196.60
567.19	177.88
567.36	205.97
567.52	224.69
567.68	220.01
567.85	259.80
568.01	201.29
568.17	194.26
568.34	173.20
568.50	266.82
568.66	159.16
568.83	304.27
568.99	191.92
569.15	208.31
569.32	236.39
569.48	198.95
569.64	196.60
569.81	220.01
569.97	231.71
570.13	180.22
570.30	205.97
570.46	208.31
570.62	119.37
570.78	189.58
570.95	166.18
571.11	187.24
571.27	264.48
571.43	154.48
571.60	222.35
571.76	217.67
571.92	203.63
572.09	203.63
572.25	149.79
572.41	212.99
572.57	210.65
572.74	220.01
572.90	117.03
573.06	187.24
573.22	259.80
573.38	210.65
573.55	231.71
573.71	287.89
573.87	196.60
574.03	168.52
574.20	177.88
574.36	250.44
574.52	248.10
574.68	271.50
574.84	271.50
575.01	257.46
575.17	194.26
575.33	231.71
575.49	224.69
575.65	205.97
575.82	269.16
575.98	482.15
576.14	603.86
576.30	688.12
576.46	535.98
576.62	414.27
576.79	360.44
576.95	339.38
577.11	201.29
577.27	236.39
577.43	262.14
577.59	257.46
577.75	252.78
577.92	280.86
578.08	285.55
578.24	257.46
578.40	231.71
578.56	215.33
578.72	301.93
578.88	245.76
579.04	243.42
579.21	271.50
579.37	208.31
579.53	208.31
579.69	297.25
579.85	215.33
580.01	334.70
580.17	372.15
580.33	351.08
580.49	358.10
580.65	304.27
580.82	229.37
580.98	250.44
581.14	339.38
581.30	390.87
581.46	397.89
581.62	545.34
581.78	547.69
581.94	531.30
582.10	468.11
582.26	444.70
582.42	369.80
582.58	404.91
582.74	393.21
582.90	386.19
583.06	411.93
583.22	395.55
583.38	447.04
583.54	411.93
583.70	566.41
583.86	662.37
584.02	706.84
584.18	880.04
584.34	1172.61
584.50	2881.20
584.66	21844.22
584.82	55458.99
584.98	65535.00
585.14	64718.15
585.30	51147.73
585.46	30955.93
585.62	18958.34
585.78	8610.83
585.94	3328.24
586.10	1621.99
586.26	1067.28
586.42	828.55
586.58	603.86
586.74	631.94
586.90	533.64
587.06	559.39
587.22	531.30
587.38	498.53
587.54	1069.62
587.70	3265.05
587.86	5951.98
588.02	6998.20
588.18	4833.21
588.34	2958.44
588.49	1984.77
588.65	1315.38
588.81	624.92
588.97	397.89
589.13	315.97
589.29	283.20
589.45	276.18
589.61	257.46
589.77	395.55
589.93	400.23
590.08	449.38
590.24	521.94
590.40	423.64
590.56	271.50
590.72	341.72
590.88	278.52
591.04	383.85
591.20	395.55
591.35	325.33
591.51	238.73
591.67	290.23
591.83	266.82
591.99	285.55
592.15	301.93
592.31	362.78
592.46	292.57
592.62	325.33
592.78	243.42
592.94	297.25
593.10	262.14
593.26	255.12
593.41	285.55
593.57	325.33
593.73	566.41
593.89	2757.15
594.05	7133.95
594.20	11492.03
594.36	11426.50
594.52	7194.81
594.68	4486.81
594.84	3002.91
594.99	1657.10
595.15	793.44
595.31	400.23
595.47	358.10
595.62	269.16
595.78	250.44
595.94	250.44
596.10	355.76
596.25	280.86
596.41	301.93
596.57	252.78
596.73	269.16
596.88	582.79
597.04	1341.13
597.20	2291.38
597.36	2759.49
597.51	2155.63
597.67	1343.47
597.83	987.71
597.99	645.99
598.14	381.51
598.30	325.33
598.46	311.29
598.61	313.63
598.77	292.57
598.93	201.29
599.09	266.82
599.24	280.86
599.40	229.37
599.56	191.92
599.71	205.97
599.87	163.84
600.03	189.58
600.18	306.61
600.34	294.91
600.50	236.39
600.65	159.16
600.81	259.80
600.97	168.52
601.12	229.37
601.28	210.65
601.44	212.99
601.59	205.97
601.75	196.60
601.91	159.16
602.06	245.76
602.22	332.36
602.37	648.33
602.53	1638.38
602.69	2771.19
602.84	3075.46
603.00	2141.59
603.16	1486.24
603.31	1109.41
603.47	699.82
603.62	318.31
603.78	271.50
603.94	318.31
604.09	276.18
604.25	273.84
604.40	215.33
604.56	205.97
604.71	243.42
604.87	215.33
605.03	159.16
605.18	217.67
605.34	264.48
605.49	330.02
605.65	236.39
605.80	262.14
605.96	231.71
606.12	250.44
606.27	276.18
606.43	290.23
606.58	362.78
606.74	737.27
606.89	3290.79
607.05	7089.48
607.20	9949.62
607.36	8222.30
607.51	5575.16
607.67	3442.93
607.82	2424.80
607.98	1235.80
608.13	718.54
608.29	433.00
608.44	440.02
608.60	475.13
608.75	376.83
608.91	1055.58
609.06	5100.03
609.22	11749.49
609.37	17436.99
609.53	15594.99
609.68	10157.92
609.84	6284.34
609.99	4119.34
610.15	2221.17
610.30	1071.97
610.46	538.32
610.61	348.74
610.76	411.93
610.92	397.89
611.07	358.10
611.23	395.55
611.38	341.72
611.54	292.57
611.69	271.50
611.84	212.99
612.00	250.44
