SpectraSuite Data File
++++++++++++++++++++++++++++++++++++
Date: Fri Oct 04 11:46:58 GMT-05:00 2013
User: price-jones
Dark Spectrum Present: No
Reference Spectrum Present: No
Number of Sampled Component Spectra: 1
Spectrometers: USB2+H05261
Integration Time (usec): 100000 (USB2+H05261)
Spectra Averaged: 1 (USB2+H05261)
Boxcar Smoothing: 0 (USB2+H05261)
Correct for Electrical Dark: No (USB2+H05261)
Strobe/Lamp Enabled: No (USB2+H05261)
Correct for Detector Non-linearity: No (USB2+H05261)
Correct for Stray Light: No (USB2+H05261)
Number of Pixels in Processed Spectrum: 2048
>>>>>Begin Processed Spectral Data<<<<<
365.73	0.00
365.92	0.00
366.12	0.00
366.32	0.00
366.52	0.00
366.72	0.00
366.91	0.00
367.11	0.00
367.31	0.00
367.51	0.00
367.70	0.00
367.90	0.00
368.10	0.00
368.30	0.00
368.49	0.00
368.69	0.00
368.89	0.00
369.09	0.00
369.28	0.00
369.48	0.00
369.68	0.00
369.87	0.00
370.07	0.00
370.27	0.00
370.47	0.00
370.66	72.56
370.86	0.00
371.06	77.24
371.25	58.51
371.45	18.72
371.65	107.66
371.84	39.79
372.04	88.94
372.24	138.09
372.44	98.30
372.63	30.43
372.83	163.84
373.03	93.62
373.22	114.69
373.42	77.24
373.62	124.05
373.81	37.45
374.01	159.16
374.21	138.09
374.40	81.92
374.60	156.82
374.79	114.69
374.99	65.54
375.19	140.43
375.38	70.22
375.58	105.32
375.78	126.39
375.97	124.05
376.17	163.84
376.37	131.07
376.56	187.24
376.76	23.41
376.95	86.60
377.15	154.48
377.35	93.62
377.54	124.05
377.74	91.28
377.93	112.35
378.13	140.43
378.33	105.32
378.52	105.32
378.72	18.72
378.91	110.01
379.11	23.41
379.31	117.03
379.50	60.85
379.70	72.56
379.89	161.50
380.09	30.43
380.28	100.64
380.48	88.94
380.68	86.60
380.87	49.15
381.07	102.98
381.26	133.41
381.46	182.56
381.65	110.01
381.85	67.88
382.04	107.66
382.24	93.62
382.43	77.24
382.63	77.24
382.83	77.24
383.02	56.17
383.22	86.60
383.41	91.28
383.61	63.19
383.80	77.24
384.00	159.16
384.19	112.35
384.39	98.30
384.58	131.07
384.78	86.60
384.97	81.92
385.17	107.66
385.36	88.94
385.56	46.81
385.75	56.17
385.95	77.24
386.14	53.83
386.34	105.32
386.53	67.88
386.72	105.32
386.92	198.95
387.11	142.77
387.31	79.58
387.50	131.07
387.70	2.34
387.89	88.94
388.09	60.85
388.28	0.00
388.48	95.96
388.67	184.90
388.86	56.17
389.06	67.88
389.25	128.73
389.45	98.30
389.64	117.03
389.84	79.58
390.03	70.22
390.22	42.13
390.42	63.19
390.61	112.35
390.81	119.37
391.00	84.26
391.19	140.43
391.39	152.13
391.58	114.69
391.78	147.45
391.97	114.69
392.16	79.58
392.36	107.66
392.55	74.90
392.75	72.56
392.94	154.48
393.13	102.98
393.33	93.62
393.52	11.70
393.71	98.30
393.91	67.88
394.10	65.54
394.29	72.56
394.49	128.73
394.68	245.76
394.88	79.58
395.07	180.22
395.26	86.60
395.46	154.48
395.65	91.28
395.84	112.35
396.04	191.92
396.23	91.28
396.42	79.58
396.62	63.19
396.81	88.94
397.00	53.83
397.19	117.03
397.39	152.13
397.58	93.62
397.77	81.92
397.97	23.41
398.16	53.83
398.35	105.32
398.55	11.70
398.74	140.43
398.93	166.18
399.12	58.51
399.32	77.24
399.51	44.47
399.70	110.01
399.90	128.73
400.09	98.30
400.28	131.07
400.47	63.19
400.67	107.66
400.86	93.62
401.05	107.66
401.24	114.69
401.44	128.73
401.63	166.18
401.82	126.39
402.01	28.09
402.21	114.69
402.40	42.13
402.59	91.28
402.78	65.54
402.97	105.32
403.17	117.03
403.36	91.28
403.55	35.11
403.74	67.88
403.93	177.88
404.13	220.01
404.32	107.66
404.51	86.60
404.70	145.11
404.89	121.71
405.09	133.41
405.28	126.39
405.47	51.49
405.66	135.75
405.85	135.75
406.05	88.94
406.24	42.13
406.43	86.60
406.62	81.92
406.81	114.69
407.00	98.30
407.20	70.22
407.39	112.35
407.58	133.41
407.77	121.71
407.96	147.45
408.15	163.84
408.34	93.62
408.54	198.95
408.73	107.66
408.92	70.22
409.11	117.03
409.30	138.09
409.49	98.30
409.68	81.92
409.87	105.32
410.07	81.92
410.26	105.32
410.45	119.37
410.64	84.26
410.83	145.11
411.02	37.45
411.21	166.18
411.40	95.96
411.59	105.32
411.78	91.28
411.98	145.11
412.17	23.41
412.36	110.01
412.55	105.32
412.74	117.03
412.93	149.79
413.12	56.17
413.31	112.35
413.50	107.66
413.69	152.13
413.88	180.22
414.07	107.66
414.26	107.66
414.45	60.85
414.64	121.71
414.83	74.90
415.02	86.60
415.22	156.82
415.41	128.73
415.60	191.92
415.79	138.09
415.98	196.60
416.17	170.86
416.36	117.03
416.55	135.75
416.74	126.39
416.93	145.11
417.12	95.96
417.31	72.56
417.50	135.75
417.69	93.62
417.88	161.50
418.07	133.41
418.26	74.90
418.45	159.16
418.64	189.58
418.83	250.44
419.02	152.13
419.21	126.39
419.39	236.39
419.58	93.62
419.77	105.32
419.96	135.75
420.15	203.63
420.34	147.45
420.53	105.32
420.72	117.03
420.91	105.32
421.10	100.64
421.29	126.39
421.48	112.35
421.67	119.37
421.86	166.18
422.05	72.56
422.24	72.56
422.43	121.71
422.61	77.24
422.80	110.01
422.99	105.32
423.18	128.73
423.37	163.84
423.56	107.66
423.75	166.18
423.94	53.83
424.13	88.94
424.32	147.45
424.50	177.88
424.69	173.20
424.88	110.01
425.07	107.66
425.26	170.86
425.45	217.67
425.64	234.05
425.83	229.37
426.01	196.60
426.20	117.03
426.39	74.90
426.58	53.83
426.77	154.48
426.96	100.64
427.15	114.69
427.33	117.03
427.52	147.45
427.71	107.66
427.90	124.05
428.09	156.82
428.28	107.66
428.46	156.82
428.65	105.32
428.84	102.98
429.03	133.41
429.22	133.41
429.40	119.37
429.59	114.69
429.78	201.29
429.97	156.82
430.16	138.09
430.34	70.22
430.53	107.66
430.72	84.26
430.91	42.13
431.10	88.94
431.28	145.11
431.47	142.77
431.66	110.01
431.85	7.02
432.03	175.54
432.22	215.33
432.41	110.01
432.60	145.11
432.79	140.43
432.97	292.57
433.16	220.01
433.35	210.65
433.54	168.52
433.72	166.18
433.91	159.16
434.10	91.28
434.28	126.39
434.47	135.75
434.66	102.98
434.85	93.62
435.03	74.90
435.22	182.56
435.41	180.22
435.59	110.01
435.78	135.75
435.97	124.05
436.16	166.18
436.34	100.64
436.53	88.94
436.72	100.64
436.90	91.28
437.09	91.28
437.28	105.32
437.46	84.26
437.65	128.73
437.84	25.75
438.02	152.13
438.21	117.03
438.40	135.75
438.58	44.47
438.77	170.86
438.96	168.52
439.14	79.58
439.33	119.37
439.52	124.05
439.70	74.90
439.89	184.90
440.08	124.05
440.26	114.69
440.45	91.28
440.63	161.50
440.82	100.64
441.01	149.79
441.19	163.84
441.38	189.58
441.57	168.52
441.75	147.45
441.94	117.03
442.12	131.07
442.31	147.45
442.50	77.24
442.68	163.84
442.87	100.64
443.05	107.66
443.24	95.96
443.43	121.71
443.61	154.48
443.80	121.71
443.98	88.94
444.17	117.03
444.35	133.41
444.54	121.71
444.73	149.79
444.91	131.07
445.10	119.37
445.28	95.96
445.47	74.90
445.65	100.64
445.84	93.62
446.02	142.77
446.21	131.07
446.39	142.77
446.58	117.03
446.77	107.66
446.95	112.35
447.14	124.05
447.32	191.92
447.51	170.86
447.69	93.62
447.88	173.20
448.06	149.79
448.25	131.07
448.43	149.79
448.62	107.66
448.80	81.92
448.99	128.73
449.17	161.50
449.36	117.03
449.54	147.45
449.73	112.35
449.91	105.32
450.10	72.56
450.28	138.09
450.46	72.56
450.65	212.99
450.83	175.54
451.02	133.41
451.20	133.41
451.39	156.82
451.57	147.45
451.76	107.66
451.94	166.18
452.13	149.79
452.31	156.82
452.49	166.18
452.68	140.43
452.86	124.05
453.05	191.92
453.23	177.88
453.42	112.35
453.60	88.94
453.78	187.24
453.97	128.73
454.15	105.32
454.34	102.98
454.52	198.95
454.70	126.39
454.89	140.43
455.07	142.77
455.26	91.28
455.44	140.43
455.62	138.09
455.81	140.43
455.99	138.09
456.17	119.37
456.36	79.58
456.54	156.82
456.73	86.60
456.91	112.35
457.09	102.98
457.28	93.62
457.46	126.39
457.64	196.60
457.83	170.86
458.01	175.54
458.19	133.41
458.38	170.86
458.56	133.41
458.74	79.58
458.93	105.32
459.11	44.47
459.29	133.41
459.48	238.73
459.66	117.03
459.84	131.07
460.03	241.08
460.21	175.54
460.39	102.98
460.57	140.43
460.76	173.20
460.94	154.48
461.12	124.05
461.31	152.13
461.49	159.16
461.67	112.35
461.85	100.64
462.04	105.32
462.22	603.86
462.40	175.54
462.59	142.77
462.77	114.69
462.95	182.56
463.13	88.94
463.32	131.07
463.50	114.69
463.68	117.03
463.86	142.77
464.05	177.88
464.23	168.52
464.41	156.82
464.59	142.77
464.78	152.13
464.96	121.71
465.14	189.58
465.32	140.43
465.50	159.16
465.69	135.75
465.87	110.01
466.05	79.58
466.23	63.19
466.41	191.92
466.60	166.18
466.78	86.60
466.96	189.58
467.14	196.60
467.32	175.54
467.51	182.56
467.69	170.86
467.87	170.86
468.05	177.88
468.23	222.35
468.41	163.84
468.60	133.41
468.78	210.65
468.96	142.77
469.14	215.33
469.32	67.88
469.50	142.77
469.69	112.35
469.87	159.16
470.05	159.16
470.23	112.35
470.41	163.84
470.59	135.75
470.77	119.37
470.95	138.09
471.14	138.09
471.32	121.71
471.50	147.45
471.68	166.18
471.86	138.09
472.04	79.58
472.22	102.98
472.40	121.71
472.58	95.96
472.77	149.79
472.95	147.45
473.13	255.12
473.31	124.05
473.49	128.73
473.67	119.37
473.85	124.05
474.03	114.69
474.21	117.03
474.39	119.37
474.57	142.77
474.75	220.01
474.93	126.39
475.12	161.50
475.30	191.92
475.48	145.11
475.66	131.07
475.84	175.54
476.02	154.48
476.20	135.75
476.38	147.45
476.56	229.37
476.74	110.01
476.92	119.37
477.10	170.86
477.28	126.39
477.46	187.24
477.64	184.90
477.82	114.69
478.00	124.05
478.18	102.98
478.36	117.03
478.54	126.39
478.72	182.56
478.90	126.39
479.08	74.90
479.26	177.88
479.44	154.48
479.62	135.75
479.80	112.35
479.98	88.94
480.16	131.07
480.34	107.66
480.52	110.01
480.70	227.03
480.88	161.50
481.06	119.37
481.24	135.75
481.41	102.98
481.59	124.05
481.77	81.92
481.95	154.48
482.13	191.92
482.31	175.54
482.49	135.75
482.67	227.03
482.85	131.07
483.03	84.26
483.21	105.32
483.39	98.30
483.57	81.92
483.74	184.90
483.92	114.69
484.10	177.88
484.28	177.88
484.46	252.78
484.64	166.18
484.82	117.03
485.00	147.45
485.18	170.86
485.35	224.69
485.53	135.75
485.71	154.48
485.89	112.35
486.07	152.13
486.25	320.65
486.43	208.31
486.61	140.43
486.78	159.16
486.96	126.39
487.14	149.79
487.32	201.29
487.50	191.92
487.68	187.24
487.85	152.13
488.03	241.08
488.21	229.37
488.39	154.48
488.57	126.39
488.75	140.43
488.92	435.34
489.10	131.07
489.28	210.65
489.46	210.65
489.64	170.86
489.81	212.99
489.99	220.01
490.17	187.24
490.35	252.78
490.53	149.79
490.70	142.77
490.88	196.60
491.06	140.43
491.24	173.20
491.41	142.77
491.59	163.84
491.77	201.29
491.95	126.39
492.13	100.64
492.30	236.39
492.48	166.18
492.66	201.29
492.84	159.16
493.01	175.54
493.19	152.13
493.37	201.29
493.54	159.16
493.72	175.54
493.90	159.16
494.08	124.05
494.25	191.92
494.43	217.67
494.61	203.63
494.79	177.88
494.96	198.95
495.14	126.39
495.32	133.41
495.49	163.84
495.67	198.95
495.85	262.14
496.02	135.75
496.20	177.88
496.38	166.18
496.55	194.26
496.73	220.01
496.91	184.90
497.09	152.13
497.26	175.54
497.44	184.90
497.62	168.52
497.79	191.92
497.97	170.86
498.14	163.84
498.32	196.60
498.50	227.03
498.67	166.18
498.85	142.77
499.03	168.52
499.20	210.65
499.38	170.86
499.56	220.01
499.73	166.18
499.91	196.60
500.08	191.92
500.26	236.39
500.44	173.20
500.61	126.39
500.79	149.79
500.97	159.16
501.14	203.63
501.32	180.22
501.49	196.60
501.67	112.35
501.84	140.43
502.02	234.05
502.20	205.97
502.37	196.60
502.55	173.20
502.72	154.48
502.90	166.18
503.07	168.52
503.25	278.52
503.43	191.92
503.60	262.14
503.78	180.22
503.95	203.63
504.13	149.79
504.30	163.84
504.48	177.88
504.65	152.13
504.83	133.41
505.01	147.45
505.18	231.71
505.36	173.20
505.53	234.05
505.71	154.48
505.88	205.97
506.06	166.18
506.23	187.24
506.41	205.97
506.58	203.63
506.76	180.22
506.93	159.16
507.11	147.45
507.28	205.97
507.46	210.65
507.63	248.10
507.81	152.13
507.98	217.67
508.16	227.03
508.33	140.43
508.50	187.24
508.68	149.79
508.85	222.35
509.03	154.48
509.20	152.13
509.38	173.20
509.55	191.92
509.73	154.48
509.90	177.88
510.08	205.97
510.25	210.65
510.42	86.60
510.60	173.20
510.77	224.69
510.95	191.92
511.12	191.92
511.30	231.71
511.47	203.63
511.64	278.52
511.82	217.67
511.99	201.29
512.17	184.90
512.34	236.39
512.51	212.99
512.69	189.58
512.86	248.10
513.04	168.52
513.21	259.80
513.38	194.26
513.56	203.63
513.73	159.16
513.90	152.13
514.08	177.88
514.25	205.97
514.43	196.60
514.60	229.37
514.77	142.77
514.95	308.95
515.12	252.78
515.29	147.45
515.47	196.60
515.64	210.65
515.81	117.03
515.99	220.01
516.16	222.35
516.33	238.73
516.51	212.99
516.68	175.54
516.85	154.48
517.03	149.79
517.20	152.13
517.37	229.37
517.54	259.80
517.72	201.29
517.89	152.13
518.06	180.22
518.24	238.73
518.41	234.05
518.58	255.12
518.75	198.95
518.93	262.14
519.10	229.37
519.27	126.39
519.45	131.07
519.62	194.26
519.79	201.29
519.96	180.22
520.14	217.67
520.31	241.08
520.48	198.95
520.65	220.01
520.83	191.92
521.00	245.76
521.17	259.80
521.34	217.67
521.52	194.26
521.69	208.31
521.86	241.08
522.03	278.52
522.20	212.99
522.38	250.44
522.55	191.92
522.72	191.92
522.89	194.26
523.07	182.56
523.24	205.97
523.41	212.99
523.58	245.76
523.75	177.88
523.92	187.24
524.10	135.75
524.27	215.33
524.44	220.01
524.61	294.91
524.78	173.20
524.96	95.96
525.13	149.79
525.30	236.39
525.47	184.90
525.64	205.97
525.81	220.01
525.98	170.86
526.16	138.09
526.33	119.37
526.50	133.41
526.67	86.60
526.84	133.41
527.01	166.18
527.18	264.48
527.36	215.33
527.53	245.76
527.70	299.59
527.87	182.56
528.04	227.03
528.21	243.42
528.38	217.67
528.55	238.73
528.72	159.16
528.89	259.80
529.07	156.82
529.24	184.90
529.41	259.80
529.58	250.44
529.75	187.24
529.92	215.33
530.09	163.84
530.26	241.08
530.43	248.10
530.60	166.18
530.77	180.22
530.94	170.86
531.11	212.99
531.28	187.24
531.46	187.24
531.63	187.24
531.80	222.35
531.97	159.16
532.14	201.29
532.31	212.99
532.48	212.99
532.65	292.57
532.82	344.06
532.99	362.78
533.16	294.91
533.33	257.46
533.50	252.78
533.67	294.91
533.84	397.89
534.01	442.36
534.18	301.93
534.35	290.23
534.52	259.80
534.69	196.60
534.86	208.31
535.03	212.99
535.20	276.18
535.37	220.01
535.54	264.48
535.71	220.01
535.88	210.65
536.05	234.05
536.22	166.18
536.38	224.69
536.55	173.20
536.72	269.16
536.89	236.39
537.06	215.33
537.23	189.58
537.40	241.08
537.57	234.05
537.74	220.01
537.91	262.14
538.08	203.63
538.25	220.01
538.42	189.58
538.59	177.88
538.75	217.67
538.92	234.05
539.09	205.97
539.26	182.56
539.43	409.59
539.60	1018.13
539.77	1624.33
539.94	1614.97
540.11	1067.28
540.28	699.82
540.44	510.24
540.61	285.55
540.78	145.11
540.95	135.75
541.12	173.20
541.29	154.48
541.46	203.63
541.62	227.03
541.79	252.78
541.96	105.32
542.13	229.37
542.30	173.20
542.47	163.84
542.63	269.16
542.80	220.01
542.97	252.78
543.14	152.13
543.31	241.08
543.48	170.86
543.64	229.37
543.81	177.88
543.98	262.14
544.15	222.35
544.32	264.48
544.48	205.97
544.65	227.03
544.82	191.92
544.99	210.65
545.16	271.50
545.32	173.20
545.49	229.37
545.66	203.63
545.83	222.35
546.00	145.11
546.16	210.65
546.33	208.31
546.50	175.54
546.67	210.65
546.83	241.08
547.00	220.01
547.17	170.86
547.34	191.92
547.50	210.65
547.67	234.05
547.84	212.99
548.00	152.13
548.17	159.16
548.34	135.75
548.51	252.78
548.67	191.92
548.84	168.52
549.01	243.42
549.18	203.63
549.34	168.52
549.51	285.55
549.68	180.22
549.84	152.13
550.01	182.56
550.18	245.76
550.34	266.82
550.51	208.31
550.68	234.05
550.84	259.80
551.01	245.76
551.18	152.13
551.34	273.84
551.51	217.67
551.68	184.90
551.84	201.29
552.01	220.01
552.18	175.54
552.34	243.42
552.51	194.26
552.68	215.33
552.84	168.52
553.01	248.10
553.18	257.46
553.34	182.56
553.51	177.88
553.67	217.67
553.84	198.95
554.01	224.69
554.17	208.31
554.34	210.65
554.51	276.18
554.67	220.01
554.84	255.12
555.00	212.99
555.17	212.99
555.33	257.46
555.50	252.78
555.67	196.60
555.83	210.65
556.00	294.91
556.16	351.08
556.33	231.71
556.50	168.52
556.66	201.29
556.83	245.76
556.99	126.39
557.16	241.08
557.32	210.65
557.49	231.71
557.65	175.54
557.82	182.56
557.98	210.65
558.15	135.75
558.32	198.95
558.48	147.45
558.65	170.86
558.81	196.60
558.98	243.42
559.14	154.48
559.31	287.89
559.47	224.69
559.64	220.01
559.80	196.60
559.97	135.75
560.13	255.12
560.30	222.35
560.46	212.99
560.63	189.58
560.79	236.39
560.96	208.31
561.12	194.26
561.29	234.05
561.45	182.56
561.61	215.33
561.78	283.20
561.94	222.35
562.11	252.78
562.27	212.99
562.44	189.58
562.60	138.09
562.77	119.37
562.93	276.18
563.10	205.97
563.26	117.03
563.42	241.08
563.59	227.03
563.75	110.01
563.92	194.26
564.08	241.08
564.24	189.58
564.41	236.39
564.57	210.65
564.74	220.01
564.90	262.14
565.07	222.35
565.23	262.14
565.39	353.42
565.56	276.18
565.72	262.14
565.88	182.56
566.05	245.76
566.21	159.16
566.38	283.20
566.54	220.01
566.70	187.24
566.87	208.31
567.03	205.97
567.19	191.92
567.36	166.18
567.52	128.73
567.68	205.97
567.85	173.20
568.01	110.01
568.17	133.41
568.34	210.65
568.50	273.84
568.66	271.50
568.83	327.68
568.99	255.12
569.15	241.08
569.32	187.24
569.48	187.24
569.64	201.29
569.81	241.08
569.97	259.80
570.13	131.07
570.30	166.18
570.46	266.82
570.62	217.67
570.78	201.29
570.95	203.63
571.11	215.33
571.27	276.18
571.43	241.08
571.60	276.18
571.76	196.60
571.92	168.52
572.09	198.95
572.25	114.69
572.41	154.48
572.57	173.20
572.74	196.60
572.90	236.39
573.06	205.97
573.22	238.73
573.38	217.67
573.55	252.78
573.71	152.13
573.87	210.65
574.03	245.76
574.20	217.67
574.36	255.12
574.52	250.44
574.68	379.17
574.84	308.95
575.01	224.69
575.17	271.50
575.33	227.03
575.49	224.69
575.65	236.39
575.82	341.72
575.98	594.50
576.14	725.57
576.30	732.59
576.46	550.03
576.62	407.25
576.79	425.98
576.95	294.91
577.11	271.50
577.27	212.99
577.43	227.03
577.59	292.57
577.75	259.80
577.92	227.03
578.08	238.73
578.24	217.67
578.40	306.61
578.56	311.29
578.72	290.23
578.88	217.67
579.04	212.99
579.21	318.31
579.37	220.01
579.53	257.46
579.69	266.82
579.85	250.44
580.01	320.65
580.17	334.70
580.33	337.04
580.49	337.04
580.65	332.36
580.82	311.29
580.98	297.25
581.14	318.31
581.30	421.30
581.46	456.40
581.62	528.96
581.78	599.18
581.94	587.47
582.10	461.09
582.26	444.70
582.42	330.02
582.58	362.78
582.74	372.15
582.90	372.15
583.06	411.93
583.22	416.62
583.38	400.23
583.54	517.26
583.70	564.07
583.86	784.08
584.02	767.70
584.18	912.81
584.34	1331.76
584.50	3255.69
584.66	25631.21
584.82	58372.96
584.98	65535.00
585.14	65535.00
585.30	52009.04
585.46	32514.72
585.62	19754.12
585.78	9165.54
585.94	3510.80
586.10	1720.29
586.26	1137.50
586.42	774.72
586.58	720.88
586.74	580.45
586.90	594.50
587.06	557.05
587.22	503.22
587.38	561.73
587.54	1167.93
587.70	3679.32
587.86	6155.61
588.02	7124.59
588.18	5179.61
588.34	3234.62
588.49	2052.65
588.65	1345.81
588.81	610.88
588.97	400.23
589.13	381.51
589.29	325.33
589.45	341.72
589.61	330.02
589.77	407.25
589.93	404.91
590.08	393.21
590.24	470.45
590.40	463.43
590.56	433.00
590.72	362.78
590.88	348.74
591.04	327.68
591.20	355.76
591.35	320.65
591.51	212.99
591.67	311.29
591.83	271.50
591.99	264.48
592.15	306.61
592.31	175.54
592.46	297.25
592.62	231.71
592.78	280.86
592.94	280.86
593.10	299.59
593.26	217.67
593.41	266.82
593.57	283.20
593.73	606.20
593.89	2986.52
594.05	7976.55
594.20	12105.25
594.36	11470.97
594.52	7557.59
594.68	4774.69
594.84	3117.59
594.99	1689.87
595.15	737.27
595.31	500.87
595.47	397.89
595.62	229.37
595.78	238.73
595.94	285.55
596.10	355.76
596.25	304.27
596.41	320.65
596.57	285.55
596.73	306.61
596.88	496.19
597.04	1479.22
597.20	2553.52
597.36	2988.86
597.51	2207.13
597.67	1488.58
597.83	1067.28
597.99	739.61
598.14	407.25
598.30	285.55
598.46	248.10
598.61	304.27
598.77	311.29
598.93	318.31
599.09	210.65
599.24	173.20
599.40	294.91
599.56	203.63
599.71	257.46
599.87	238.73
600.03	348.74
600.18	283.20
600.34	255.12
600.50	215.33
600.65	201.29
600.81	290.23
600.97	217.67
601.12	252.78
601.28	294.91
601.44	205.97
601.59	269.16
601.75	273.84
601.91	245.76
602.06	217.67
602.22	332.36
602.37	641.31
602.53	1795.19
602.69	2885.88
602.84	3119.93
603.00	2263.30
603.16	1502.62
603.31	1114.10
603.47	667.05
603.62	330.02
603.78	304.27
603.94	208.31
604.09	280.86
604.25	266.82
604.40	280.86
604.56	220.01
604.71	159.16
604.87	147.45
605.03	259.80
605.18	287.89
605.34	322.99
605.49	337.04
605.65	220.01
605.80	173.20
605.96	238.73
606.12	266.82
606.27	339.38
606.43	290.23
606.58	376.83
606.74	826.21
606.89	3763.58
607.05	7798.66
607.20	10136.86
607.36	8667.00
607.51	5734.31
607.67	3676.98
607.82	2431.82
607.98	1343.47
608.13	765.36
608.29	461.09
608.44	503.22
608.60	418.96
608.75	479.81
608.91	1188.99
609.06	5673.46
609.22	13324.67
609.37	18225.75
609.53	15482.64
609.68	10588.58
609.84	6684.57
609.99	4360.42
610.15	2277.34
610.30	987.71
610.46	638.97
610.61	388.53
610.76	395.55
610.92	355.76
611.07	327.68
611.23	393.21
611.38	313.63
611.54	276.18
611.69	308.95
611.84	320.65
