SpectraSuite Data File
++++++++++++++++++++++++++++++++++++
Date: Fri Oct 04 11:46:56 GMT-05:00 2013
User: price-jones
Dark Spectrum Present: No
Reference Spectrum Present: No
Number of Sampled Component Spectra: 1
Spectrometers: USB2+H05261
Integration Time (usec): 100000 (USB2+H05261)
Spectra Averaged: 1 (USB2+H05261)
Boxcar Smoothing: 0 (USB2+H05261)
Correct for Electrical Dark: No (USB2+H05261)
Strobe/Lamp Enabled: No (USB2+H05261)
Correct for Detector Non-linearity: No (USB2+H05261)
Correct for Stray Light: No (USB2+H05261)
Number of Pixels in Processed Spectrum: 2048
>>>>>Begin Processed Spectral Data<<<<<
365.73	46.81
365.92	46.81
366.12	46.81
366.32	0.00
366.52	0.00
366.72	0.00
366.91	18.72
367.11	0.00
367.31	0.00
367.51	0.00
367.70	0.00
367.90	0.00
368.10	0.00
368.30	0.00
368.49	0.00
368.69	0.00
368.89	0.00
369.09	0.00
369.28	0.00
369.48	0.00
369.68	0.00
369.87	0.00
370.07	0.00
370.27	0.00
370.47	0.00
370.66	16.38
370.86	0.00
371.06	0.00
371.25	32.77
371.45	53.83
371.65	79.58
371.84	100.64
372.04	86.60
372.24	105.32
372.44	102.98
372.63	70.22
372.83	145.11
373.03	21.06
373.22	37.45
373.42	28.09
373.62	107.66
373.81	140.43
374.01	119.37
374.21	128.73
374.40	91.28
374.60	105.32
374.79	23.41
374.99	88.94
375.19	138.09
375.38	53.83
375.58	126.39
375.78	140.43
375.97	212.99
376.17	234.05
376.37	63.19
376.56	84.26
376.76	145.11
376.95	63.19
377.15	142.77
377.35	88.94
377.54	91.28
377.74	107.66
377.93	124.05
378.13	131.07
378.33	91.28
378.52	23.41
378.72	147.45
378.91	180.22
379.11	152.13
379.31	166.18
379.50	107.66
379.70	53.83
379.89	131.07
380.09	42.13
380.28	63.19
380.48	86.60
380.68	46.81
380.87	147.45
381.07	98.30
381.26	112.35
381.46	88.94
381.65	140.43
381.85	67.88
382.04	67.88
382.24	28.09
382.43	131.07
382.63	110.01
382.83	114.69
383.02	145.11
383.22	114.69
383.41	67.88
383.61	156.82
383.80	95.96
384.00	86.60
384.19	70.22
384.39	98.30
384.58	95.96
384.78	35.11
384.97	110.01
385.17	154.48
385.36	37.45
385.56	74.90
385.75	110.01
385.95	88.94
386.14	102.98
386.34	117.03
386.53	65.54
386.72	74.90
386.92	173.20
387.11	74.90
387.31	86.60
387.50	114.69
387.70	32.77
387.89	56.17
388.09	105.32
388.28	105.32
388.48	28.09
388.67	140.43
388.86	65.54
389.06	117.03
389.25	84.26
389.45	95.96
389.64	84.26
389.84	135.75
390.03	86.60
390.22	93.62
390.42	67.88
390.61	46.81
390.81	44.47
391.00	100.64
391.19	117.03
391.39	114.69
391.58	189.58
391.78	93.62
391.97	210.65
392.16	114.69
392.36	81.92
392.55	135.75
392.75	107.66
392.94	98.30
393.13	93.62
393.33	46.81
393.52	110.01
393.71	119.37
393.91	159.16
394.10	56.17
394.29	63.19
394.49	84.26
394.68	110.01
394.88	102.98
395.07	168.52
395.26	93.62
395.46	37.45
395.65	72.56
395.84	72.56
396.04	177.88
396.23	107.66
396.42	39.79
396.62	124.05
396.81	53.83
397.00	138.09
397.19	121.71
397.39	32.77
397.58	105.32
397.77	161.50
397.97	91.28
398.16	138.09
398.35	79.58
398.55	91.28
398.74	117.03
398.93	102.98
399.12	126.39
399.32	145.11
399.51	168.52
399.70	67.88
399.90	124.05
400.09	60.85
400.28	77.24
400.47	124.05
400.67	128.73
400.86	149.79
401.05	119.37
401.24	177.88
401.44	49.15
401.63	107.66
401.82	124.05
402.01	102.98
402.21	138.09
402.40	105.32
402.59	88.94
402.78	74.90
402.97	124.05
403.17	184.90
403.36	126.39
403.55	175.54
403.74	114.69
403.93	114.69
404.13	168.52
404.32	175.54
404.51	196.60
404.70	110.01
404.89	126.39
405.09	149.79
405.28	145.11
405.47	168.52
405.66	145.11
405.85	72.56
406.05	79.58
406.24	166.18
406.43	138.09
406.62	156.82
406.81	217.67
407.00	175.54
407.20	138.09
407.39	32.77
407.58	126.39
407.77	198.95
407.96	194.26
408.15	84.26
408.34	107.66
408.54	70.22
408.73	84.26
408.92	44.47
409.11	131.07
409.30	124.05
409.49	93.62
409.68	63.19
409.87	28.09
410.07	67.88
410.26	91.28
410.45	84.26
410.64	102.98
410.83	84.26
411.02	67.88
411.21	196.60
411.40	163.84
411.59	152.13
411.78	72.56
411.98	39.79
412.17	152.13
412.36	81.92
412.55	67.88
412.74	67.88
412.93	147.45
413.12	88.94
413.31	149.79
413.50	56.17
413.69	124.05
413.88	145.11
414.07	147.45
414.26	91.28
414.45	128.73
414.64	105.32
414.83	187.24
415.02	177.88
415.22	201.29
415.41	121.71
415.60	119.37
415.79	105.32
415.98	175.54
416.17	182.56
416.36	93.62
416.55	86.60
416.74	114.69
416.93	121.71
417.12	117.03
417.31	98.30
417.50	91.28
417.69	210.65
417.88	138.09
418.07	84.26
418.26	93.62
418.45	156.82
418.64	231.71
418.83	201.29
419.02	224.69
419.21	142.77
419.39	114.69
419.58	189.58
419.77	194.26
419.96	117.03
420.15	114.69
420.34	102.98
420.53	117.03
420.72	175.54
420.91	140.43
421.10	95.96
421.29	39.79
421.48	107.66
421.67	180.22
421.86	107.66
422.05	184.90
422.24	110.01
422.43	72.56
422.61	114.69
422.80	112.35
422.99	145.11
423.18	88.94
423.37	163.84
423.56	147.45
423.75	121.71
423.94	51.49
424.13	107.66
424.32	100.64
424.50	44.47
424.69	119.37
424.88	161.50
425.07	32.77
425.26	128.73
425.45	149.79
425.64	229.37
425.83	203.63
426.01	220.01
426.20	93.62
426.39	161.50
426.58	32.77
426.77	180.22
426.96	175.54
427.15	117.03
427.33	187.24
427.52	131.07
427.71	117.03
427.90	138.09
428.09	152.13
428.28	114.69
428.46	170.86
428.65	86.60
428.84	112.35
429.03	110.01
429.22	121.71
429.40	154.48
429.59	98.30
429.78	224.69
429.97	131.07
430.16	110.01
430.34	63.19
430.53	72.56
430.72	100.64
430.91	159.16
431.10	70.22
431.28	102.98
431.47	35.11
431.66	154.48
431.85	117.03
432.03	88.94
432.22	149.79
432.41	110.01
432.60	135.75
432.79	205.97
432.97	177.88
433.16	243.42
433.35	194.26
433.54	220.01
433.72	121.71
433.91	119.37
434.10	133.41
434.28	182.56
434.47	212.99
434.66	168.52
434.85	112.35
435.03	133.41
435.22	149.79
435.41	84.26
435.59	149.79
435.78	147.45
435.97	149.79
436.16	142.77
436.34	93.62
436.53	86.60
436.72	168.52
436.90	159.16
437.09	224.69
437.28	131.07
437.46	152.13
437.65	124.05
437.84	60.85
438.02	72.56
438.21	119.37
438.40	121.71
438.58	93.62
438.77	119.37
438.96	100.64
439.14	121.71
439.33	110.01
439.52	44.47
439.70	131.07
439.89	117.03
440.08	128.73
440.26	142.77
440.45	152.13
440.63	105.32
440.82	119.37
441.01	152.13
441.19	145.11
441.38	88.94
441.57	107.66
441.75	273.84
441.94	126.39
442.12	170.86
442.31	100.64
442.50	100.64
442.68	65.54
442.87	131.07
443.05	84.26
443.24	112.35
443.43	168.52
443.61	145.11
443.80	112.35
443.98	117.03
444.17	95.96
444.35	196.60
444.54	110.01
444.73	175.54
444.91	147.45
445.10	121.71
445.28	107.66
445.47	117.03
445.65	79.58
445.84	114.69
446.02	138.09
446.21	159.16
446.39	88.94
446.58	194.26
446.77	63.19
446.95	117.03
447.14	114.69
447.32	121.71
447.51	98.30
447.69	159.16
447.88	215.33
448.06	142.77
448.25	152.13
448.43	102.98
448.62	173.20
448.80	149.79
448.99	131.07
449.17	196.60
449.36	166.18
449.54	112.35
449.73	156.82
449.91	135.75
450.10	119.37
450.28	152.13
450.46	159.16
450.65	177.88
450.83	189.58
451.02	166.18
451.20	142.77
451.39	152.13
451.57	124.05
451.76	67.88
451.94	126.39
452.13	205.97
452.31	147.45
452.49	119.37
452.68	138.09
452.86	145.11
453.05	163.84
453.23	49.15
453.42	117.03
453.60	95.96
453.78	121.71
453.97	107.66
454.15	119.37
454.34	166.18
454.52	159.16
454.70	187.24
454.89	229.37
455.07	67.88
455.26	142.77
455.44	117.03
455.62	159.16
455.81	112.35
455.99	72.56
456.17	168.52
456.36	95.96
456.54	131.07
456.73	91.28
456.91	168.52
457.09	140.43
457.28	180.22
457.46	142.77
457.64	145.11
457.83	74.90
458.01	128.73
458.19	189.58
458.38	105.32
458.56	168.52
458.74	159.16
458.93	98.30
459.11	135.75
459.29	35.11
459.48	140.43
459.66	149.79
459.84	170.86
460.03	222.35
460.21	145.11
460.39	84.26
460.57	126.39
460.76	180.22
460.94	133.41
461.12	184.90
461.31	149.79
461.49	81.92
461.67	154.48
461.85	161.50
462.04	114.69
462.22	627.26
462.40	149.79
462.59	173.20
462.77	70.22
462.95	114.69
463.13	114.69
463.32	241.08
463.50	152.13
463.68	189.58
463.86	145.11
464.05	133.41
464.23	163.84
464.41	166.18
464.59	117.03
464.78	77.24
464.96	102.98
465.14	98.30
465.32	107.66
465.50	224.69
465.69	170.86
465.87	102.98
466.05	147.45
466.23	140.43
466.41	91.28
466.60	100.64
466.78	147.45
466.96	126.39
467.14	163.84
467.32	201.29
467.51	145.11
467.69	105.32
467.87	198.95
468.05	58.51
468.23	173.20
468.41	205.97
468.60	163.84
468.78	152.13
468.96	105.32
469.14	128.73
469.32	208.31
469.50	119.37
469.69	238.73
469.87	133.41
470.05	114.69
470.23	135.75
470.41	128.73
470.59	145.11
470.77	135.75
470.95	154.48
471.14	248.10
471.32	166.18
471.50	175.54
471.68	180.22
471.86	166.18
472.04	124.05
472.22	126.39
472.40	163.84
472.58	126.39
472.77	98.30
472.95	138.09
473.13	205.97
473.31	227.03
473.49	98.30
473.67	112.35
473.85	147.45
474.03	105.32
474.21	124.05
474.39	72.56
474.57	163.84
474.75	264.48
474.93	184.90
475.12	154.48
475.30	154.48
475.48	131.07
475.66	86.60
475.84	121.71
476.02	107.66
476.20	175.54
476.38	145.11
476.56	194.26
476.74	147.45
476.92	163.84
477.10	110.01
477.28	126.39
477.46	196.60
477.64	95.96
477.82	191.92
478.00	51.49
478.18	147.45
478.36	112.35
478.54	161.50
478.72	131.07
478.90	133.41
479.08	154.48
479.26	149.79
479.44	124.05
479.62	114.69
479.80	119.37
479.98	110.01
480.16	142.77
480.34	135.75
480.52	102.98
480.70	72.56
480.88	212.99
481.06	121.71
481.24	128.73
481.41	182.56
481.59	170.86
481.77	147.45
481.95	173.20
482.13	257.46
482.31	135.75
482.49	114.69
482.67	205.97
482.85	149.79
483.03	159.16
483.21	138.09
483.39	102.98
483.57	182.56
483.74	264.48
483.92	166.18
484.10	145.11
484.28	156.82
484.46	229.37
484.64	124.05
484.82	133.41
485.00	112.35
485.18	119.37
485.35	187.24
485.53	74.90
485.71	182.56
485.89	168.52
486.07	140.43
486.25	173.20
486.43	161.50
486.61	280.86
486.78	93.62
486.96	88.94
487.14	201.29
487.32	121.71
487.50	152.13
487.68	170.86
487.85	81.92
488.03	184.90
488.21	217.67
488.39	222.35
488.57	191.92
488.75	147.45
488.92	463.43
489.10	187.24
489.28	205.97
489.46	133.41
489.64	248.10
489.81	210.65
489.99	205.97
490.17	142.77
490.35	264.48
490.53	124.05
490.70	142.77
490.88	222.35
491.06	154.48
491.24	170.86
491.41	241.08
491.59	145.11
491.77	156.82
491.95	147.45
492.13	163.84
492.30	168.52
492.48	177.88
492.66	156.82
492.84	152.13
493.01	177.88
493.19	182.56
493.37	292.57
493.54	166.18
493.72	210.65
493.90	198.95
494.08	168.52
494.25	191.92
494.43	224.69
494.61	138.09
494.79	135.75
494.96	147.45
495.14	198.95
495.32	212.99
495.49	145.11
495.67	124.05
495.85	152.13
496.02	149.79
496.20	184.90
496.38	191.92
496.55	180.22
496.73	173.20
496.91	222.35
497.09	198.95
497.26	229.37
497.44	100.64
497.62	205.97
497.79	184.90
497.97	217.67
498.14	252.78
498.32	205.97
498.50	187.24
498.67	173.20
498.85	163.84
499.03	182.56
499.20	105.32
499.38	154.48
499.56	243.42
499.73	191.92
499.91	170.86
500.08	177.88
500.26	168.52
500.44	154.48
500.61	234.05
500.79	187.24
500.97	138.09
501.14	196.60
501.32	224.69
501.49	250.44
501.67	177.88
501.84	166.18
502.02	177.88
502.20	252.78
502.37	198.95
502.55	238.73
502.72	203.63
502.90	184.90
503.07	180.22
503.25	269.16
503.43	175.54
503.60	280.86
503.78	191.92
503.95	208.31
504.13	168.52
504.30	187.24
504.48	222.35
504.65	182.56
504.83	189.58
505.01	159.16
505.18	161.50
505.36	191.92
505.53	117.03
505.71	154.48
505.88	189.58
506.06	217.67
506.23	201.29
506.41	147.45
506.58	243.42
506.76	224.69
506.93	168.52
507.11	224.69
507.28	117.03
507.46	170.86
507.63	220.01
507.81	189.58
507.98	203.63
508.16	215.33
508.33	168.52
508.50	170.86
508.68	161.50
508.85	215.33
509.03	170.86
509.20	182.56
509.38	250.44
509.55	168.52
509.73	210.65
509.90	184.90
510.08	102.98
510.25	241.08
510.42	201.29
510.60	180.22
510.77	135.75
510.95	217.67
511.12	243.42
511.30	182.56
511.47	304.27
511.64	266.82
511.82	180.22
511.99	184.90
512.17	250.44
512.34	133.41
512.51	236.39
512.69	238.73
512.86	276.18
513.04	201.29
513.21	110.01
513.38	175.54
513.56	220.01
513.73	210.65
513.90	182.56
514.08	180.22
514.25	156.82
514.43	173.20
514.60	252.78
514.77	201.29
514.95	205.97
515.12	149.79
515.29	203.63
515.47	198.95
515.64	231.71
515.81	161.50
515.99	229.37
516.16	168.52
516.33	180.22
516.51	184.90
516.68	133.41
516.85	255.12
517.03	187.24
517.20	159.16
517.37	203.63
517.54	280.86
517.72	210.65
517.89	173.20
518.06	203.63
518.24	290.23
518.41	210.65
518.58	203.63
518.75	152.13
518.93	248.10
519.10	294.91
519.27	154.48
519.45	170.86
519.62	224.69
519.79	163.84
519.96	201.29
520.14	205.97
520.31	229.37
520.48	147.45
520.65	210.65
520.83	243.42
521.00	245.76
521.17	180.22
521.34	198.95
521.52	175.54
521.69	175.54
521.86	229.37
522.03	138.09
522.20	217.67
522.38	210.65
522.55	142.77
522.72	184.90
522.89	238.73
523.07	224.69
523.24	189.58
523.41	170.86
523.58	182.56
523.75	140.43
523.92	145.11
524.10	156.82
524.27	234.05
524.44	227.03
524.61	245.76
524.78	198.95
524.96	168.52
525.13	205.97
525.30	140.43
525.47	198.95
525.64	159.16
525.81	145.11
525.98	194.26
526.16	170.86
526.33	196.60
526.50	145.11
526.67	276.18
526.84	184.90
527.01	175.54
527.18	220.01
527.36	191.92
527.53	248.10
527.70	180.22
527.87	198.95
528.04	276.18
528.21	152.13
528.38	198.95
528.55	245.76
528.72	227.03
528.89	189.58
529.07	154.48
529.24	170.86
529.41	283.20
529.58	201.29
529.75	243.42
529.92	201.29
530.09	194.26
530.26	194.26
530.43	220.01
530.60	231.71
530.77	220.01
530.94	156.82
531.11	227.03
531.28	212.99
531.46	231.71
531.63	196.60
531.80	229.37
531.97	170.86
532.14	222.35
532.31	259.80
532.48	252.78
532.65	287.89
532.82	266.82
532.99	301.93
533.16	276.18
533.33	222.35
533.50	276.18
533.67	252.78
533.84	341.72
534.01	374.49
534.18	301.93
534.35	287.89
534.52	252.78
534.69	306.61
534.86	140.43
535.03	198.95
535.20	182.56
535.37	215.33
535.54	212.99
535.71	168.52
535.88	145.11
536.05	189.58
536.22	227.03
536.38	201.29
536.55	229.37
536.72	161.50
536.89	236.39
537.06	243.42
537.23	236.39
537.40	189.58
537.57	196.60
537.74	175.54
537.91	177.88
538.08	227.03
538.25	196.60
538.42	131.07
538.59	198.95
538.75	135.75
538.92	196.60
539.09	320.65
539.26	264.48
539.43	369.80
539.60	971.32
539.77	1645.40
539.94	1631.35
540.11	1078.99
540.28	634.29
540.44	547.69
540.61	290.23
540.78	149.79
540.95	191.92
541.12	337.04
541.29	210.65
541.46	255.12
541.62	180.22
541.79	133.41
541.96	138.09
542.13	203.63
542.30	149.79
542.47	243.42
542.63	222.35
542.80	252.78
542.97	224.69
543.14	159.16
543.31	201.29
543.48	194.26
543.64	238.73
543.81	180.22
543.98	184.90
544.15	243.42
544.32	163.84
544.48	168.52
544.65	231.71
544.82	187.24
544.99	201.29
545.16	217.67
545.32	180.22
545.49	229.37
545.66	159.16
545.83	168.52
546.00	133.41
546.16	173.20
546.33	180.22
546.50	201.29
546.67	257.46
546.83	205.97
547.00	227.03
547.17	149.79
547.34	161.50
547.50	170.86
547.67	241.08
547.84	196.60
548.00	166.18
548.17	177.88
548.34	196.60
548.51	231.71
548.67	227.03
548.84	257.46
549.01	182.56
549.18	215.33
549.34	273.84
549.51	140.43
549.68	184.90
549.84	184.90
550.01	177.88
550.18	294.91
550.34	287.89
550.51	177.88
550.68	292.57
550.84	208.31
551.01	203.63
551.18	241.08
551.34	231.71
551.51	201.29
551.68	166.18
551.84	124.05
552.01	166.18
552.18	245.76
552.34	231.71
552.51	189.58
552.68	168.52
552.84	269.16
553.01	168.52
553.18	231.71
553.34	182.56
553.51	217.67
553.67	250.44
553.84	252.78
554.01	227.03
554.17	236.39
554.34	203.63
554.51	208.31
554.67	224.69
554.84	271.50
555.00	222.35
555.17	262.14
555.33	227.03
555.50	229.37
555.67	290.23
555.83	222.35
556.00	255.12
556.16	447.04
556.33	191.92
556.50	184.90
556.66	161.50
556.83	184.90
556.99	205.97
557.16	196.60
557.32	241.08
557.49	184.90
557.65	227.03
557.82	201.29
557.98	163.84
558.15	131.07
558.32	236.39
558.48	145.11
558.65	257.46
558.81	184.90
558.98	196.60
559.14	191.92
559.31	318.31
559.47	248.10
559.64	311.29
559.80	215.33
559.97	194.26
560.13	194.26
560.30	248.10
560.46	222.35
560.63	119.37
560.79	163.84
560.96	236.39
561.12	189.58
561.29	161.50
561.45	166.18
561.61	154.48
561.78	330.02
561.94	166.18
562.11	124.05
562.27	98.30
562.44	149.79
562.60	210.65
562.77	149.79
562.93	201.29
563.10	220.01
563.26	173.20
563.42	177.88
563.59	124.05
563.75	212.99
563.92	238.73
564.08	236.39
564.24	238.73
564.41	285.55
564.57	154.48
564.74	231.71
564.90	236.39
565.07	280.86
565.23	276.18
565.39	131.07
565.56	299.59
565.72	212.99
565.88	203.63
566.05	196.60
566.21	250.44
566.38	191.92
566.54	191.92
566.70	191.92
566.87	147.45
567.03	264.48
567.19	259.80
567.36	210.65
567.52	198.95
567.68	215.33
567.85	177.88
568.01	212.99
568.17	257.46
568.34	224.69
568.50	266.82
568.66	299.59
568.83	330.02
568.99	140.43
569.15	224.69
569.32	168.52
569.48	212.99
569.64	220.01
569.81	222.35
569.97	255.12
570.13	222.35
570.30	231.71
570.46	241.08
570.62	159.16
570.78	166.18
570.95	121.71
571.11	196.60
571.27	208.31
571.43	196.60
571.60	205.97
571.76	252.78
571.92	290.23
572.09	142.77
572.25	156.82
572.41	138.09
572.57	201.29
572.74	203.63
572.90	252.78
573.06	276.18
573.22	168.52
573.38	227.03
573.55	147.45
573.71	304.27
573.87	210.65
574.03	156.82
574.20	201.29
574.36	250.44
574.52	311.29
574.68	341.72
574.84	257.46
575.01	252.78
575.17	161.50
575.33	147.45
575.49	280.86
575.65	187.24
575.82	287.89
575.98	566.41
576.14	774.72
576.30	638.97
576.46	472.79
576.62	465.77
576.79	301.93
576.95	276.18
577.11	241.08
577.27	166.18
577.43	196.60
577.59	156.82
577.75	245.76
577.92	224.69
578.08	278.52
578.24	304.27
578.40	243.42
578.56	308.95
578.72	308.95
578.88	252.78
579.04	238.73
579.21	283.20
579.37	318.31
579.53	264.48
579.69	243.42
579.85	257.46
580.01	327.68
580.17	414.27
580.33	369.80
580.49	301.93
580.65	330.02
580.82	315.97
580.98	358.10
581.14	290.23
581.30	341.72
581.46	500.87
581.62	491.51
581.78	545.34
581.94	589.82
582.10	505.56
582.26	489.17
582.42	365.12
582.58	447.04
582.74	433.00
582.90	402.57
583.06	430.66
583.22	402.57
583.38	472.79
583.54	493.85
583.70	617.90
583.86	727.91
584.02	823.87
584.18	933.87
584.34	1217.08
584.50	3269.73
584.66	25626.53
584.82	58042.95
584.98	65535.00
585.14	65176.90
585.30	51681.37
585.46	32119.17
585.62	19309.42
585.78	9050.85
585.94	3499.10
586.10	1741.36
586.26	1081.33
586.42	905.79
586.58	636.63
586.74	638.97
586.90	615.56
587.06	573.43
587.22	500.87
587.38	564.07
587.54	1135.16
587.70	3637.19
587.86	6265.61
588.02	6918.62
588.18	5034.49
588.34	3211.22
588.49	2017.54
588.65	1123.46
588.81	657.69
588.97	395.55
589.13	266.82
589.29	294.91
589.45	297.25
589.61	252.78
589.77	374.49
589.93	393.21
590.08	461.09
590.24	409.59
590.40	484.49
590.56	407.25
590.72	430.66
590.88	374.49
591.04	334.70
591.20	283.20
591.35	315.97
591.51	337.04
591.67	355.76
591.83	337.04
591.99	236.39
592.15	262.14
592.31	229.37
592.46	227.03
592.62	236.39
592.78	318.31
592.94	271.50
593.10	297.25
593.26	280.86
593.41	332.36
593.57	299.59
593.73	557.05
593.89	3021.63
594.05	7929.74
594.20	12231.64
594.36	11449.90
594.52	7431.20
594.68	4692.77
594.84	2986.52
594.99	1666.46
595.15	798.12
595.31	447.04
595.47	358.10
595.62	308.95
595.78	248.10
595.94	245.76
596.10	266.82
596.25	355.76
596.41	311.29
596.57	262.14
596.73	327.68
596.88	519.60
597.04	1486.24
597.20	2389.69
597.36	3012.27
597.51	2225.85
597.67	1448.79
597.83	1043.88
597.99	741.95
598.14	404.91
598.30	404.91
598.46	276.18
598.61	358.10
598.77	346.40
598.93	234.05
599.09	344.06
599.24	231.71
599.40	156.82
599.56	262.14
599.71	259.80
599.87	252.78
600.03	259.80
600.18	252.78
600.34	238.73
600.50	273.84
600.65	159.16
600.81	161.50
600.97	191.92
601.12	276.18
601.28	325.33
601.44	224.69
601.59	156.82
601.75	194.26
601.91	259.80
602.06	269.16
602.22	402.57
602.37	664.71
602.53	1893.49
602.69	2960.78
602.84	3019.29
603.00	2162.66
603.16	1451.13
603.31	968.98
603.47	716.20
603.62	334.70
603.78	297.25
603.94	262.14
604.09	255.12
604.25	245.76
604.40	191.92
604.56	229.37
604.71	224.69
604.87	161.50
605.03	222.35
605.18	259.80
605.34	234.05
605.49	220.01
605.65	280.86
605.80	245.76
605.96	285.55
606.12	334.70
606.27	273.84
606.43	306.61
606.58	386.19
606.74	844.93
606.89	3599.74
607.05	7510.78
607.20	10132.18
607.36	8540.61
607.51	5514.30
607.67	3606.77
607.82	2445.86
607.98	1301.34
608.13	636.63
608.29	437.68
608.44	475.13
608.60	430.66
608.75	465.77
608.91	1167.93
609.06	5837.30
609.22	13144.45
609.37	18043.19
609.53	15421.79
609.68	10274.95
609.84	6616.69
609.99	4337.01
610.15	2237.55
610.30	1137.50
610.46	641.31
610.61	404.91
610.76	362.78
610.92	353.42
611.07	292.57
611.23	320.65
611.38	313.63
611.54	304.27
611.69	355.76
