SpectraSuite Data File
++++++++++++++++++++++++++++++++++++
Date: Fri Oct 04 11:48:25 GMT-05:00 2013
User: price-jones
Dark Spectrum Present: No
Reference Spectrum Present: No
Number of Sampled Component Spectra: 1
Spectrometers: USB2+H05261
Integration Time (usec): 100000 (USB2+H05261)
Spectra Averaged: 1 (USB2+H05261)
Boxcar Smoothing: 0 (USB2+H05261)
Correct for Electrical Dark: No (USB2+H05261)
Strobe/Lamp Enabled: No (USB2+H05261)
Correct for Detector Non-linearity: No (USB2+H05261)
Correct for Stray Light: No (USB2+H05261)
Number of Pixels in Processed Spectrum: 2048
>>>>>Begin Processed Spectral Data<<<<<
365.73	65.54
365.92	65.54
366.12	65.54
366.32	0.00
366.52	0.00
366.72	0.00
366.91	0.00
367.11	0.00
367.31	0.00
367.51	0.00
367.70	0.00
367.90	0.00
368.10	0.00
368.30	0.00
368.49	0.00
368.69	0.00
368.89	0.00
369.09	0.00
369.28	0.00
369.48	0.00
369.68	0.00
369.87	14.04
370.07	0.00
370.27	23.41
370.47	152.13
370.66	409.59
370.86	393.21
371.06	409.59
371.25	514.92
371.45	367.46
371.65	533.64
371.84	393.21
372.04	421.30
372.24	472.79
372.44	435.34
372.63	437.68
372.83	606.20
373.03	519.60
373.22	608.54
373.42	500.87
373.62	535.98
373.81	557.05
374.01	561.73
374.21	566.41
374.40	610.88
374.60	660.03
374.79	540.66
374.99	709.18
375.19	657.69
375.38	645.99
375.58	638.97
375.78	660.03
375.97	645.99
376.17	681.10
376.37	718.54
376.56	653.01
376.76	727.91
376.95	615.56
377.15	720.88
377.35	613.22
377.54	634.29
377.74	688.12
377.93	688.12
378.13	676.41
378.33	706.84
378.52	732.59
378.72	711.52
378.91	805.14
379.11	667.05
379.31	667.05
379.50	737.27
379.70	730.25
379.89	781.74
380.09	791.10
380.28	795.78
380.48	751.31
380.68	648.33
380.87	826.21
381.07	809.83
381.26	828.55
381.46	805.14
381.65	863.66
381.85	875.36
382.04	924.51
382.24	849.61
382.43	821.53
382.63	765.36
382.83	858.98
383.02	880.04
383.22	908.13
383.41	849.61
383.61	809.83
383.80	915.15
384.00	842.59
384.19	849.61
384.39	868.34
384.58	905.79
384.78	936.21
384.97	973.66
385.17	931.53
385.36	873.02
385.56	978.34
385.75	922.17
385.95	910.47
386.14	954.94
386.34	973.66
386.53	1055.58
386.72	947.92
386.92	1083.67
387.11	917.49
387.31	1043.88
387.50	1043.88
387.70	1013.45
387.89	1006.43
388.09	1050.90
388.28	968.98
388.48	987.71
388.67	1123.46
388.86	1067.28
389.06	1083.67
389.25	1111.75
389.45	1153.88
389.64	1116.44
389.84	1174.95
390.03	1118.78
390.22	1146.86
390.42	1142.18
390.61	1095.37
390.81	1128.14
391.00	1144.52
391.19	1188.99
391.39	1172.61
391.58	1306.02
391.78	1254.53
391.97	1268.57
392.16	1224.10
392.36	1188.99
392.55	1266.23
392.75	1273.25
392.94	1308.36
393.13	1324.74
393.33	1306.02
393.52	1240.48
393.71	1345.81
393.91	1306.02
394.10	1306.02
394.29	1359.85
394.49	1350.49
394.68	1509.65
394.88	1331.76
395.07	1404.32
395.26	1294.32
395.46	1453.47
395.65	1476.88
395.84	1444.11
396.04	1547.09
396.23	1483.90
396.42	1448.79
396.62	1540.07
396.81	1444.11
397.00	1521.35
397.19	1483.90
397.39	1610.29
397.58	1607.95
397.77	1650.08
397.97	1617.31
398.16	1631.35
398.35	1603.27
398.55	1643.06
398.74	1584.54
398.93	1792.85
399.12	1668.80
399.32	1736.68
399.51	1671.14
399.70	1820.94
399.90	1717.95
400.09	1764.76
400.28	1851.36
400.47	1757.74
400.67	1846.68
400.86	1682.85
401.05	1785.83
401.24	1923.92
401.44	1926.26
401.63	1959.03
401.82	2132.23
402.01	1956.69
402.21	2057.33
402.40	1902.86
402.59	2052.65
402.78	2050.31
402.97	2040.95
403.17	2024.56
403.36	1994.14
403.55	2099.46
403.74	2038.61
403.93	2047.97
404.13	2195.42
404.32	2148.61
404.51	1982.43
404.70	2368.62
404.89	2317.13
405.09	2347.56
405.28	2080.74
405.47	2279.68
405.66	2253.94
405.85	2275.00
406.05	2286.70
406.24	2399.05
406.43	2427.14
406.62	2410.75
406.81	2532.46
407.00	2457.56
407.20	2359.26
407.39	2394.37
407.58	2551.18
407.77	2544.16
407.96	2565.23
408.15	2562.89
408.34	2698.64
408.54	2590.97
408.73	2628.42
408.92	2581.61
409.11	2792.26
409.30	2703.32
409.49	2745.45
409.68	2782.90
409.87	2750.13
410.07	2846.09
410.26	2871.84
410.45	2874.18
410.64	2920.99
410.83	2883.54
411.02	2937.37
411.21	2956.10
411.40	3021.63
411.59	2974.82
411.78	3042.70
411.98	3103.55
412.17	3136.32
412.36	3143.34
412.55	3222.92
412.74	3262.71
412.93	3372.71
413.12	3180.79
413.31	3356.33
413.50	3346.97
413.69	3295.47
413.88	3475.70
414.07	3562.30
414.26	3566.98
414.45	3520.17
414.64	3529.53
414.83	3595.06
415.02	3597.40
415.22	3695.71
415.41	3812.73
415.60	3726.13
415.79	3882.95
415.98	3868.91
416.17	3761.24
416.36	3810.39
416.55	3957.85
416.74	3967.21
416.93	4037.42
417.12	4154.45
417.31	3960.19
417.50	3997.64
417.69	4128.70
417.88	4184.88
418.07	4297.22
418.26	4332.33
418.45	4198.92
418.64	4358.08
418.83	4294.88
419.02	4236.37
419.21	4339.35
419.39	4472.76
419.58	4327.65
419.77	4299.56
419.96	4498.51
420.15	4407.23
420.34	4493.83
420.53	4465.74
420.72	4624.90
420.91	4578.09
421.10	4601.49
421.29	4702.14
421.48	4585.11
421.67	4512.55
421.86	4568.73
422.05	4772.35
422.24	4704.48
422.43	4683.41
422.61	4762.99
422.80	4770.01
422.99	4926.83
423.18	4678.73
423.37	4828.53
423.56	4947.89
423.75	4585.11
423.94	4660.01
424.13	4575.75
424.32	4594.47
424.50	4772.35
424.69	4760.65
424.88	4847.25
425.07	4802.78
425.26	4723.20
425.45	4744.27
425.64	4865.97
425.83	4819.16
426.01	4950.23
426.20	4947.89
426.39	4887.04
426.58	4851.93
426.77	4840.23
426.96	5163.22
427.15	4926.83
427.33	5022.79
427.52	5001.72
427.71	5111.73
427.90	5104.71
428.09	5151.52
428.28	5121.09
428.46	5179.61
428.65	5231.10
428.84	5191.31
429.03	5350.46
429.22	5280.25
429.40	5331.74
429.59	5423.02
429.78	5263.86
429.97	5156.20
430.16	5221.74
430.34	5521.32
430.53	5551.75
430.72	5540.05
430.91	5425.36
431.10	5427.70
431.28	5523.66
431.47	5664.10
431.66	5636.01
431.85	5643.03
432.03	5722.61
432.22	5867.72
432.41	5753.04
432.60	5760.06
432.79	5743.67
432.97	5825.59
433.16	5898.15
433.35	5809.21
433.54	5898.15
433.72	5841.98
433.91	5832.62
434.10	6024.54
434.28	5942.62
434.47	5991.77
434.66	6143.91
434.85	6340.51
435.03	6057.31
435.22	6157.95
435.41	6207.10
435.59	6246.89
435.78	6251.57
435.97	6300.72
436.16	6232.85
436.34	6422.43
436.53	6375.62
436.72	6513.71
436.90	6345.19
437.09	6321.79
437.28	6523.07
437.46	6551.16
437.65	6321.79
437.84	6532.44
438.02	6431.79
438.21	6825.00
438.40	6679.89
438.58	6850.75
438.77	6885.86
438.96	6869.47
439.14	6909.26
439.33	7000.54
439.52	7033.31
439.70	6984.16
439.89	7056.72
440.08	7384.39
440.26	7229.91
440.45	7063.74
440.63	7346.94
440.82	7501.42
441.01	7349.28
441.19	7557.59
441.38	7295.45
441.57	7602.06
441.75	7522.48
441.94	7763.56
442.12	7623.12
442.31	8025.70
442.50	7847.82
442.68	7761.22
442.87	7721.43
443.05	7815.05
443.24	8182.51
443.43	7908.67
443.61	8290.18
443.80	8243.37
443.98	7854.84
444.17	7824.41
444.35	8042.08
444.54	8292.52
444.73	8100.59
444.91	8154.43
445.10	8201.24
445.28	8166.13
445.47	8215.28
445.65	8152.09
445.84	8226.98
446.02	8049.10
446.21	8280.82
446.39	8355.71
446.58	8278.47
446.77	8355.71
446.95	8287.84
447.14	8360.39
447.32	8280.82
447.51	8524.23
447.69	8383.80
447.88	8365.07
448.06	8355.71
448.25	8306.56
448.43	8592.11
448.62	8400.18
448.80	8510.19
448.99	8571.04
449.17	8568.70
449.36	8458.70
449.54	8592.11
449.73	8629.56
449.91	8767.65
450.10	8760.63
450.28	8809.78
450.46	8950.21
450.65	8908.08
450.83	9057.87
451.02	8830.84
451.20	8849.57
451.39	9062.55
451.57	8835.52
451.76	8884.67
451.94	8791.05
452.13	9088.30
452.31	9088.30
452.49	8929.14
452.68	9308.31
452.86	9317.67
453.05	9291.93
453.23	9317.67
453.42	9259.16
453.60	9018.08
453.78	9298.95
453.97	9427.68
454.15	9371.50
454.34	9181.92
454.52	9528.32
454.70	9458.10
454.89	9631.30
455.07	9703.86
455.26	9605.56
455.44	9813.87
455.62	9699.18
455.81	9687.48
455.99	9729.61
456.17	9860.68
456.36	9820.89
456.54	10064.30
456.73	10029.20
456.91	10211.76
457.09	10111.11
457.28	10291.34
457.46	10415.38
457.64	10380.28
457.83	10129.84
458.01	10242.18
458.19	10427.09
458.38	10291.34
458.56	10518.37
458.74	10560.50
458.93	10422.41
459.11	10654.12
459.29	10707.95
459.48	10602.63
459.66	10703.27
459.84	10911.58
460.03	10850.72
460.21	10509.01
460.39	10878.81
460.57	10520.71
460.76	10860.09
460.94	10883.49
461.12	10913.92
461.31	10913.92
461.49	10993.50
461.67	10965.41
461.85	11140.95
462.04	11185.42
462.22	11599.70
462.40	11407.77
462.59	11068.39
462.77	11206.48
462.95	11288.40
463.13	11147.97
463.32	11290.74
463.50	11386.71
463.68	11667.57
463.86	11630.12
464.05	11449.90
464.23	11332.87
464.41	11517.78
464.59	11454.58
464.78	11810.34
464.96	11506.07
465.14	11494.37
465.32	11918.01
465.50	11997.59
465.69	11845.45
465.87	12028.01
466.05	11962.48
466.23	11791.62
466.41	12119.29
466.60	12189.51
466.78	11709.70
466.96	11955.46
467.14	12191.85
467.32	12173.13
467.51	12278.45
467.69	11995.25
467.87	12035.03
468.05	12203.55
468.23	12119.29
468.41	12358.03
468.60	12294.83
468.78	12269.09
468.96	12353.35
469.14	12533.57
469.32	12847.20
469.50	12461.01
469.69	12971.25
469.87	12830.82
470.05	12861.24
470.23	12800.39
470.41	12769.96
470.59	12800.39
470.77	12879.97
470.95	13322.33
471.14	13104.66
471.32	12915.08
471.50	13610.22
471.68	13376.16
471.86	13502.55
472.04	13668.73
472.22	13914.48
472.40	13537.66
472.58	13748.31
472.77	13760.01
472.95	13848.95
473.13	14244.50
473.31	14024.49
473.49	13830.23
473.67	13717.88
473.85	13940.23
474.03	14211.73
474.21	14239.82
474.39	14621.33
474.57	14516.00
474.75	14345.14
474.93	14649.41
475.12	14768.78
475.30	14890.49
475.48	14623.67
475.66	14654.09
475.84	15159.65
476.02	15007.52
476.20	15187.74
476.38	15349.23
476.56	15517.75
476.74	15480.30
476.92	15728.40
477.10	16006.92
477.28	15943.73
477.46	15534.14
477.64	15882.88
477.82	16388.43
478.00	16561.63
478.18	16840.15
478.36	16489.07
478.54	16458.65
478.72	17022.72
478.90	16753.55
479.08	17205.28
479.26	17406.56
479.44	17172.51
479.62	17341.03
479.80	17675.73
479.98	18033.83
480.16	18265.54
480.34	18181.28
480.52	18387.25
480.70	18228.09
480.88	18052.55
481.06	18857.70
481.24	18473.85
481.41	18771.10
481.59	19098.77
481.77	19213.46
481.95	19115.16
482.13	19339.85
482.31	19744.76
482.49	20039.67
482.67	19470.92
482.85	20194.14
483.03	20374.36
483.21	20549.90
483.39	20554.58
483.57	20519.48
483.74	20697.36
483.92	20849.49
484.10	20865.88
484.28	21008.65
484.46	21518.89
484.64	21982.31
484.82	21315.26
485.00	22010.40
485.18	22473.82
485.35	22576.81
485.53	22424.67
485.71	22604.89
485.89	23110.45
486.07	23187.69
486.25	23185.35
486.43	23302.37
486.61	23616.01
486.78	23906.23
486.96	23967.09
487.14	24058.37
487.32	24514.77
487.50	24250.29
487.68	24355.61
487.85	24648.18
488.03	25238.00
488.21	25310.55
488.39	25406.52
488.57	25418.22
488.75	25542.27
488.92	25972.92
489.10	26228.04
489.28	26326.35
489.46	26869.35
489.64	26277.19
489.81	26965.31
489.99	27014.46
490.17	27484.91
490.35	27536.40
490.53	27707.26
490.70	27936.63
490.88	27747.05
491.06	28343.89
491.24	28151.96
491.41	28161.33
491.59	28828.38
491.77	28896.25
491.95	29083.50
492.13	29413.51
492.30	29237.97
492.48	29359.68
492.66	29834.81
492.84	29750.55
493.01	30476.12
493.19	30075.88
493.37	30778.04
493.54	30684.42
493.72	30941.88
493.90	30841.24
494.08	30993.37
494.25	31522.34
494.43	31461.48
494.61	31550.42
494.79	31950.65
494.96	31990.44
495.14	32088.74
495.32	32512.38
495.49	32830.69
495.67	32486.64
495.85	33017.94
496.02	33041.34
496.20	33270.72
496.38	32940.70
496.55	33954.15
496.73	34445.66
496.91	33820.74
497.09	34007.98
497.26	34756.96
497.44	34164.80
497.62	34572.05
497.79	35236.77
497.97	35098.67
498.14	35278.89
498.32	35501.25
498.50	35576.14
498.67	35873.39
498.85	35849.99
499.03	36177.66
499.20	36034.89
499.38	36250.22
499.56	36673.85
499.73	36762.79
499.91	36814.29
500.08	36978.12
500.26	36842.37
500.44	37282.39
500.61	37099.83
500.79	37799.65
500.97	37394.74
501.14	37851.14
501.32	37656.88
501.49	37811.35
501.67	37935.40
501.84	37947.11
502.02	38234.99
502.20	38506.49
502.37	38710.12
502.55	38665.65
502.72	38560.33
502.90	38651.61
503.07	38714.80
503.25	39316.32
503.43	38930.13
503.60	39477.82
503.78	39662.72
503.95	39683.78
504.13	39784.43
504.30	39311.64
504.48	39976.35
504.65	39903.79
504.83	40495.95
505.01	40409.35
505.18	40133.17
505.36	40481.91
505.53	40509.99
505.71	40701.92
505.88	40776.81
506.06	40673.83
506.23	41188.75
506.41	41263.64
506.58	41743.45
506.76	41560.89
506.93	41698.98
507.11	41551.53
507.28	42127.30
507.46	42312.20
507.63	42199.86
507.81	42426.89
507.98	42396.46
508.16	42525.19
508.33	42340.29
508.50	42555.62
508.68	42768.61
508.85	43274.16
509.03	42609.45
509.20	43438.00
509.38	43210.97
509.55	43784.40
509.73	43842.92
509.90	43999.73
510.08	44215.06
510.25	43789.08
510.42	44002.07
510.60	44533.37
510.77	44299.32
510.95	44615.29
511.12	44144.84
511.30	44488.90
511.47	44697.21
511.64	44924.24
511.82	45329.16
511.99	44971.05
512.17	45151.27
512.34	44935.95
512.51	45352.56
512.69	45640.45
512.86	45918.97
513.04	45961.10
513.21	45893.22
513.38	46265.37
513.56	46351.97
513.73	45813.65
513.90	46068.76
514.08	45883.86
514.25	46213.88
514.43	46562.62
514.60	46422.19
514.77	46508.79
514.95	46829.44
515.12	46557.94
515.29	46653.90
515.47	46965.19
515.64	47131.37
515.81	47248.39
515.99	47665.01
516.16	47372.44
516.33	47973.96
516.51	47452.02
516.68	47873.32
516.85	47941.19
517.03	47913.11
517.20	48289.93
517.37	48266.53
517.54	48200.99
517.72	48030.13
517.89	48184.61
518.06	48594.20
518.24	48467.81
518.41	48545.05
518.58	48367.17
518.75	48383.55
518.93	48835.28
519.10	48966.35
519.27	48849.32
519.45	48622.29
519.62	49289.34
519.79	49317.43
519.96	49158.27
520.14	49656.81
520.31	49251.89
520.48	49446.16
520.65	49801.92
520.83	49656.81
521.00	49914.26
521.17	49670.85
521.34	49656.81
521.52	50258.32
521.69	50000.86
521.86	50174.06
522.03	50192.79
522.20	50117.89
522.38	50450.25
522.55	50595.36
522.72	50255.98
522.89	50492.38
523.07	50960.48
523.24	50583.66
523.41	50789.62
523.58	50230.24
523.75	50883.25
523.92	50883.25
524.10	50927.72
524.27	51171.13
524.44	51100.92
524.61	51377.10
524.78	51519.87
524.96	51388.80
525.13	51416.89
525.30	51798.40
525.47	51707.12
525.64	51496.47
525.81	51852.23
525.98	51828.82
526.16	51796.06
526.33	51774.99
526.50	52182.24
526.67	51599.45
526.84	51999.68
527.01	51959.89
527.18	51957.55
527.36	52493.54
527.53	52568.43
527.70	52617.58
527.87	52619.92
528.04	52481.83
528.21	52612.90
528.38	52236.08
528.55	52762.70
528.72	52409.28
528.89	52697.16
529.07	52596.52
529.24	52575.45
529.41	52879.72
529.58	52589.50
529.75	52823.55
529.92	52739.29
530.09	52996.75
530.26	53235.48
530.43	53305.70
530.60	53020.16
530.77	53174.63
530.94	53235.48
531.11	53130.16
531.28	53113.78
531.46	53317.40
531.63	53340.81
531.80	53528.05
531.97	53624.01
532.14	53677.85
532.31	53593.59
532.48	53663.80
532.65	53813.60
532.82	53680.19
532.99	53808.92
533.16	53546.78
533.33	54286.39
533.50	54347.24
533.67	54291.07
533.84	53673.16
534.01	53888.49
534.18	53956.37
534.35	54347.24
534.52	54230.21
534.69	54656.19
534.86	54492.35
535.03	54333.20
535.20	54284.04
535.37	54571.93
535.54	54361.28
535.71	54342.56
535.88	54492.35
536.05	54590.66
536.22	54372.99
536.38	54925.35
536.55	54930.03
536.72	54527.46
536.89	54593.00
537.06	54447.88
537.23	54719.38
537.40	54649.17
537.57	55011.95
537.74	54955.78
537.91	55271.75
538.08	55248.35
538.25	54843.43
538.42	55140.68
538.59	55119.62
538.75	55121.96
538.92	55068.12
539.09	55021.31
539.26	55414.52
539.43	55522.19
539.60	55676.66
539.77	55447.29
539.94	55442.61
540.11	55407.50
540.28	55262.39
540.44	55332.60
540.61	55559.64
540.78	55618.15
540.95	55512.83
541.12	55807.73
541.29	55421.55
541.46	55468.36
541.62	55604.11
541.79	55707.09
541.96	55447.29
542.13	55550.27
542.30	56060.51
542.47	55669.64
542.63	55997.32
542.80	56245.41
542.97	56069.87
543.14	56144.77
543.31	56088.60
543.48	56011.36
543.64	56568.41
543.81	56474.79
543.98	56371.80
544.15	56339.04
544.32	56533.30
544.48	56652.67
544.65	56353.08
544.82	56395.21
544.99	56442.02
545.16	56573.09
545.32	56395.21
545.49	56601.18
545.66	56678.41
545.83	56809.48
546.00	56825.87
546.16	56821.19
546.33	56507.55
546.50	56388.19
546.67	56868.00
546.83	56486.49
547.00	56903.10
547.17	56875.02
547.34	56552.02
547.50	57106.73
547.67	57109.07
547.84	56938.21
548.00	57031.83
548.17	56945.23
548.34	56992.04
548.51	57057.58
548.67	57411.00
548.84	57202.69
549.01	57123.11
549.18	57017.79
549.34	56949.92
549.51	57078.64
549.68	57331.42
549.84	57158.22
550.01	57345.47
550.18	57382.91
550.34	57490.58
550.51	57542.07
550.68	57350.15
550.84	57406.32
551.01	57296.31
551.18	57228.44
551.34	57317.38
551.51	57380.57
551.68	57649.74
551.84	57396.96
552.01	57682.50
552.18	57745.70
552.34	57401.64
552.51	57748.04
552.68	57661.44
552.84	57600.58
553.01	57736.34
553.18	57797.19
553.34	57876.77
553.51	57872.09
553.67	57759.74
553.84	58066.35
554.01	57946.98
554.17	57965.71
554.34	57853.36
554.51	57872.09
554.67	57923.58
554.84	57846.34
555.00	58272.32
555.17	57923.58
555.33	58321.47
555.50	57996.13
555.67	57942.30
555.83	57853.36
556.00	58047.63
556.16	58408.07
556.33	57900.17
556.50	58071.03
556.66	58223.17
556.83	58174.02
556.99	58464.24
557.16	58277.00
557.32	58220.83
557.49	58262.96
557.65	58312.11
557.82	58218.49
557.98	58152.95
558.15	58354.24
558.32	58611.70
558.48	58396.37
558.65	58321.47
558.81	58319.13
558.98	58218.49
559.14	58499.35
559.31	58302.74
559.47	58663.19
559.64	58745.11
559.80	58550.84
559.97	58712.34
560.13	58300.40
560.30	58614.04
560.46	58688.93
560.63	58602.33
560.79	58529.78
560.96	58478.28
561.12	58564.88
561.29	58738.08
561.45	58639.78
561.61	58873.84
561.78	58784.90
561.94	58834.05
562.11	58855.11
562.27	58780.21
562.44	58798.94
562.60	58607.01
562.77	58796.60
562.93	58770.85
563.10	58841.07
563.26	58824.68
563.42	59135.98
563.59	58651.48
563.75	58995.54
563.92	59187.47
564.08	58780.21
564.24	58766.17
564.41	58908.94
564.57	58960.44
564.74	58890.22
564.90	59089.16
565.07	59206.19
565.23	59084.48
565.39	59107.89
565.56	58827.02
565.72	58831.71
565.88	58953.41
566.05	58808.30
566.21	58876.18
566.38	58913.62
566.54	59021.29
566.70	59180.45
566.87	59271.73
567.03	59131.29
567.19	59363.01
567.36	58981.50
567.52	59061.08
567.68	59002.56
567.85	58965.12
568.01	59325.56
568.17	58995.54
568.34	59442.59
568.50	59168.74
568.66	59154.70
568.83	59054.06
568.99	59150.02
569.15	59133.63
569.32	59086.82
569.48	59299.81
569.64	59208.53
569.81	59208.53
569.97	59231.94
570.13	59405.14
570.30	59093.85
570.46	59220.23
570.62	59054.06
570.78	59311.52
570.95	59157.04
571.11	58953.41
571.27	59168.74
571.43	59077.46
571.60	59210.87
571.76	59201.51
571.92	59236.62
572.09	59320.88
572.25	59554.93
572.41	59430.88
572.57	59480.03
572.74	59576.00
572.90	59276.41
573.06	59084.48
573.22	59217.89
573.38	59428.54
573.55	59683.66
573.71	59718.77
573.87	59543.23
574.03	59234.28
574.20	59515.14
574.36	59447.27
574.52	59241.30
574.68	59512.80
574.84	59341.94
575.01	59578.34
575.17	59379.39
575.33	59419.18
575.49	59395.77
575.65	59473.01
575.82	59540.89
575.98	59423.86
576.14	59538.55
576.30	59428.54
576.46	59285.77
576.62	59206.19
576.79	59313.86
576.95	59435.56
577.11	59419.18
577.27	59671.96
577.43	59568.97
577.59	59498.76
577.75	59554.93
577.92	59267.05
578.08	59257.68
578.24	59374.71
578.40	59288.11
578.56	59470.67
578.72	59400.46
578.88	59664.94
579.04	59730.47
579.21	59363.01
579.37	59494.08
579.53	59384.07
579.69	59405.14
579.85	59526.84
580.01	59217.89
580.17	59529.19
580.33	59526.84
580.49	59634.51
580.65	59690.68
580.82	59587.70
580.98	59423.86
581.14	59625.15
581.30	59543.23
581.46	59550.25
581.62	59655.57
581.78	59508.12
581.94	59608.76
582.10	59622.81
582.26	59798.35
582.42	59674.30
582.58	59547.91
582.74	59494.08
582.90	59730.47
583.06	59730.47
583.22	59440.24
583.38	59662.60
583.54	59571.32
583.70	59416.84
583.86	59716.43
584.02	59370.03
584.18	59739.83
584.34	59777.28
584.50	59767.92
584.66	59681.32
584.82	59426.20
584.98	59487.06
585.14	59653.23
585.30	59454.29
585.46	59536.21
585.62	59594.72
585.78	59859.20
585.94	59536.21
586.10	59632.17
586.26	59606.42
586.42	59859.20
586.58	59868.56
586.74	59547.91
586.90	59519.82
587.06	59388.75
587.22	59751.54
587.38	59650.89
587.54	59990.27
587.70	59887.29
587.86	59859.20
588.02	59800.69
588.18	59700.04
588.34	59655.57
588.49	59613.44
588.65	59693.02
588.81	59772.60
588.97	59976.23
589.13	59758.56
