SpectraSuite Data File
++++++++++++++++++++++++++++++++++++
Date: Fri Oct 04 11:48:32 GMT-05:00 2013
User: price-jones
Dark Spectrum Present: No
Reference Spectrum Present: No
Number of Sampled Component Spectra: 1
Spectrometers: USB2+H05261
Integration Time (usec): 100000 (USB2+H05261)
Spectra Averaged: 1 (USB2+H05261)
Boxcar Smoothing: 0 (USB2+H05261)
Correct for Electrical Dark: No (USB2+H05261)
Strobe/Lamp Enabled: No (USB2+H05261)
Correct for Detector Non-linearity: No (USB2+H05261)
Correct for Stray Light: No (USB2+H05261)
Number of Pixels in Processed Spectrum: 2048
>>>>>Begin Processed Spectral Data<<<<<
365.73	53.83
365.92	53.83
366.12	53.83
366.32	0.00
366.52	0.00
366.72	0.00
366.91	0.00
367.11	0.00
367.31	0.00
367.51	0.00
367.70	0.00
367.90	0.00
368.10	0.00
368.30	0.00
368.49	0.00
368.69	0.00
368.89	0.00
369.09	0.00
369.28	0.00
369.48	0.00
369.68	0.00
369.87	0.00
370.07	0.00
370.27	51.49
370.47	88.94
370.66	285.55
370.86	400.23
371.06	348.74
371.25	390.87
371.45	397.89
371.65	411.93
371.84	451.72
372.04	414.27
372.24	437.68
372.44	465.77
372.63	503.22
372.83	461.09
373.03	477.47
373.22	407.25
373.42	521.94
373.62	498.53
373.81	505.56
374.01	528.96
374.21	512.58
374.40	545.34
374.60	573.43
374.79	512.58
374.99	545.34
375.19	566.41
375.38	599.18
375.58	571.09
375.78	699.82
375.97	645.99
376.17	629.60
376.37	557.05
376.56	550.03
376.76	554.71
376.95	596.84
377.15	540.66
377.35	528.96
377.54	540.66
377.74	608.54
377.93	634.29
378.13	615.56
378.33	557.05
378.52	624.92
378.72	657.69
378.91	585.13
379.11	606.20
379.31	557.05
379.50	578.11
379.70	634.29
379.89	690.46
380.09	606.20
380.28	669.39
380.48	723.23
380.68	613.22
380.87	711.52
381.07	690.46
381.26	664.71
381.46	615.56
381.65	716.20
381.85	655.35
382.04	615.56
382.24	770.04
382.43	692.80
382.63	718.54
382.83	727.91
383.02	734.93
383.22	765.36
383.41	760.67
383.61	772.38
383.80	751.31
384.00	748.97
384.19	795.78
384.39	765.36
384.58	734.93
384.78	737.27
384.97	746.63
385.17	833.23
385.36	809.83
385.56	812.17
385.75	760.67
385.95	805.14
386.14	936.21
386.34	816.85
386.53	830.89
386.72	823.87
386.92	854.30
387.11	821.53
387.31	870.68
387.50	840.25
387.70	889.40
387.89	884.72
388.09	915.15
388.28	917.49
388.48	873.02
388.67	851.96
388.86	912.81
389.06	896.43
389.25	983.02
389.45	990.05
389.64	973.66
389.84	931.53
390.03	1029.84
390.22	915.15
390.42	901.11
390.61	985.37
390.81	1020.47
391.00	964.30
391.19	973.66
391.39	933.87
391.58	1081.33
391.78	1027.50
391.97	980.68
392.16	1132.82
392.36	1118.78
392.55	1097.71
392.75	1142.18
392.94	1097.71
393.13	1116.44
393.33	1114.10
393.52	1121.12
393.71	1172.61
393.91	1188.99
394.10	1277.93
394.29	1132.82
394.49	1142.18
394.68	1226.44
394.88	1284.95
395.07	1137.50
395.26	1100.05
395.46	1226.44
395.65	1291.98
395.84	1294.32
396.04	1313.04
396.23	1233.46
396.42	1268.57
396.62	1399.64
396.81	1357.51
397.00	1291.98
397.19	1320.06
397.39	1404.32
397.58	1275.59
397.77	1373.89
397.97	1371.55
398.16	1371.55
398.35	1401.98
398.55	1383.26
398.74	1430.07
398.93	1537.73
399.12	1373.89
399.32	1528.37
399.51	1460.49
399.70	1547.09
399.90	1554.12
400.09	1420.71
400.28	1523.69
400.47	1629.01
400.67	1633.69
400.86	1535.39
401.05	1657.10
401.24	1664.12
401.44	1591.56
401.63	1647.74
401.82	1605.61
402.01	1659.44
402.21	1575.18
402.40	1743.70
402.59	1666.46
402.78	1666.46
402.97	1753.06
403.17	1788.17
403.36	1771.79
403.55	1750.72
403.74	1799.87
403.93	1790.51
404.13	1987.11
404.32	1746.04
404.51	1809.23
404.70	1923.92
404.89	1799.87
405.09	1893.49
405.28	2024.56
405.47	1930.94
405.66	2031.58
405.85	2010.52
406.05	1970.73
406.24	2038.61
406.43	2003.50
406.62	2069.03
406.81	2221.17
407.00	2066.69
407.20	2005.84
407.39	2080.74
407.58	2083.08
407.77	2136.91
407.96	2162.66
408.15	2251.60
408.34	2115.84
408.54	2244.57
408.73	2165.00
408.92	2345.22
409.11	2345.22
409.30	2246.91
409.49	2310.11
409.68	2431.82
409.87	2406.07
410.07	2427.14
410.26	2431.82
410.45	2457.56
410.64	2499.69
410.83	2562.89
411.02	2483.31
411.21	2574.59
411.40	2635.44
411.59	2565.23
411.78	2626.08
411.98	2548.84
412.17	2675.23
412.36	2637.78
412.55	2712.68
412.74	2799.28
412.93	2761.83
413.12	2726.72
413.31	2843.75
413.50	2818.00
413.69	2916.31
413.88	2958.44
414.07	2944.39
414.26	3073.12
414.45	2988.86
414.64	2888.22
414.83	3110.57
415.02	3096.53
415.22	3119.93
415.41	3293.13
415.60	3169.09
415.79	3098.87
415.98	3215.90
416.17	3295.47
416.36	3309.52
416.55	3222.92
416.74	3229.94
416.93	3323.56
417.12	3400.80
417.31	3466.33
417.50	3468.67
417.69	3604.42
417.88	3646.55
418.07	3545.91
418.26	3510.80
418.45	3705.07
418.64	3770.60
418.83	3632.51
419.02	3574.00
419.21	3686.34
419.39	3653.58
419.58	3620.81
419.77	3550.59
419.96	3756.56
420.15	3751.88
420.34	3850.18
420.53	3871.25
420.72	3927.42
420.91	3801.03
421.10	4042.11
421.29	3978.91
421.48	3885.29
421.67	3950.82
421.86	4077.21
422.05	4007.00
422.24	3885.29
422.43	3997.64
422.61	4107.64
422.80	4007.00
422.99	3967.21
423.18	4119.34
423.37	4030.40
423.56	4084.23
423.75	4173.18
423.94	4042.11
424.13	3899.33
424.32	3943.80
424.50	4135.73
424.69	4234.03
424.88	4292.54
425.07	4109.98
425.26	3936.78
425.45	4173.18
425.64	4163.81
425.83	4245.73
426.01	4255.09
426.20	4222.33
426.39	4269.14
426.58	4196.58
426.77	4301.90
426.96	4393.19
427.15	4149.77
427.33	4339.35
427.52	4203.60
427.71	4283.18
427.90	4264.46
428.09	4381.48
428.28	4397.87
428.46	4470.42
428.65	4566.39
428.84	4622.56
429.03	4505.53
429.22	4479.79
429.40	4725.54
429.59	4739.58
429.78	4447.02
429.97	4344.03
430.16	4421.27
430.34	4510.21
430.53	4805.12
430.72	4720.86
430.91	4617.88
431.10	4816.82
431.28	4657.67
431.47	4912.78
431.66	4833.21
431.85	4734.90
432.03	5013.43
432.22	5074.28
432.41	4997.04
432.60	5069.60
432.79	4840.23
432.97	5043.85
433.16	5081.30
433.35	4903.42
433.54	4905.76
433.72	5032.15
433.91	5008.75
434.10	5114.07
434.28	4985.34
434.47	5277.91
434.66	5284.93
434.85	5369.19
435.03	5348.12
435.22	5238.12
435.41	5523.66
435.59	5277.91
435.78	5298.97
435.97	5444.09
436.16	5329.40
436.34	5437.06
436.53	5399.62
436.72	5621.97
436.90	5350.46
437.09	5542.39
437.28	5387.91
437.46	5427.70
437.65	5692.18
437.84	5767.08
438.02	5776.44
438.21	5724.95
438.40	5575.16
438.58	5900.49
438.77	5811.55
438.96	5877.09
439.14	5956.66
439.33	6024.54
439.52	6024.54
439.70	6197.74
439.89	6005.81
440.08	6022.20
440.26	6150.93
440.45	6179.01
440.63	6232.85
440.82	6188.38
441.01	6562.86
441.19	6251.57
441.38	6691.59
441.57	6462.22
441.75	6394.34
441.94	6693.93
442.12	6558.18
442.31	6644.78
442.50	6576.91
442.68	6672.87
442.87	6703.29
443.05	6743.08
443.24	6944.37
443.43	6834.36
443.61	6710.32
443.80	7140.97
443.98	7087.14
444.17	6562.86
444.35	6892.88
444.54	7007.56
444.73	7110.55
444.91	6956.07
445.10	6920.96
445.28	6794.58
445.47	6953.73
445.65	6916.28
445.84	6998.20
446.02	6984.16
446.21	7014.59
446.39	6827.34
446.58	7108.21
446.77	7108.21
446.95	7208.85
447.14	7208.85
447.32	7115.23
447.51	7030.97
447.69	7204.17
447.88	7232.26
448.06	7227.57
448.25	7316.51
448.43	7136.29
448.62	7265.02
448.80	7171.40
448.99	7183.10
449.17	7225.23
449.36	7442.90
449.54	7410.14
449.73	7583.34
449.91	7445.24
450.10	7590.36
450.28	7377.37
450.46	7520.14
450.65	7522.48
450.83	7571.63
451.02	7648.87
451.20	7723.77
451.39	7793.98
451.57	7466.31
451.76	7688.66
451.94	7777.60
452.13	7740.15
452.31	7698.02
452.49	7676.96
452.68	7789.30
452.86	7808.03
453.05	7868.88
453.23	7906.33
453.42	7693.34
453.60	7796.32
453.78	7948.46
453.97	7885.26
454.15	7861.86
454.34	7960.16
454.52	8191.88
454.70	8098.25
454.89	8116.98
455.07	8266.77
455.26	8140.38
455.44	8390.82
455.62	8280.82
455.81	8351.03
455.99	8262.09
456.17	8372.10
456.36	8430.61
456.54	8648.28
456.73	8688.07
456.91	8781.69
457.09	8538.27
457.28	9083.62
457.46	8781.69
457.64	8798.07
457.83	8847.22
458.01	8725.52
458.19	8997.02
458.38	8889.35
458.56	8868.29
458.74	8978.30
458.93	8908.08
459.11	9109.36
459.29	8957.23
459.48	9139.79
459.66	9081.28
459.84	9287.25
460.03	9261.50
460.21	9273.20
460.39	9184.26
460.57	9240.44
460.76	9226.39
460.94	9231.07
461.12	9254.48
461.31	9446.40
461.49	9245.12
461.67	9111.71
461.85	9621.94
462.04	9448.74
462.22	10092.39
462.40	9668.75
462.59	9802.16
462.77	9591.52
462.95	9734.29
463.13	9654.71
463.32	9666.41
463.50	9825.57
463.68	9729.61
463.86	9844.29
464.05	9797.48
464.23	9687.48
464.41	9877.06
464.59	9783.44
464.78	10157.92
464.96	9907.49
465.14	9764.72
465.32	10300.70
465.50	10204.74
465.69	10111.11
465.87	10293.68
466.05	10068.98
466.23	10176.65
466.41	10328.78
466.60	10541.77
466.78	10253.89
466.96	10277.29
467.14	10368.57
467.32	10164.95
467.51	10595.61
467.69	10104.09
467.87	10391.98
468.05	10483.26
468.23	10314.74
468.41	10239.84
468.60	10473.90
468.78	10672.84
468.96	10321.76
469.14	10647.10
469.32	10885.83
469.50	10457.51
469.69	11023.92
469.87	10906.90
470.05	10946.69
470.23	10923.28
470.41	10923.28
470.59	10949.03
470.77	10918.60
470.95	11080.10
471.14	11246.27
471.32	11028.60
471.50	11534.16
471.68	11442.88
471.86	11428.84
472.04	11555.22
472.22	11557.57
472.40	11349.26
472.58	11681.61
472.77	11517.78
472.95	11763.53
473.13	12030.35
473.31	11618.42
473.49	11775.24
473.67	11798.64
473.85	12046.74
474.03	12177.81
474.21	11946.09
474.39	12428.24
474.57	12081.85
474.75	12283.13
474.93	12678.68
475.12	12475.06
475.30	12500.80
475.48	12809.75
475.66	12662.30
475.84	12718.47
476.02	12798.05
476.20	12671.66
476.38	13181.90
476.56	13376.16
476.74	13172.54
476.92	13097.64
477.10	13275.52
477.28	13331.69
477.46	13383.18
477.64	13584.47
477.82	13975.34
478.00	13951.93
478.18	14319.40
478.36	14324.08
478.54	14113.43
478.72	14258.54
478.90	14534.73
479.08	14635.37
479.26	14693.88
479.44	14728.99
479.62	15124.54
479.80	15180.71
479.98	15190.08
480.16	15339.87
480.34	15510.73
480.52	15843.09
480.70	15627.76
480.88	15323.49
481.06	15854.79
481.24	15733.08
481.41	16020.97
481.59	16297.15
481.77	16318.22
481.95	16135.65
482.13	16503.12
482.31	16491.41
482.49	16741.85
482.67	17015.69
482.85	17165.49
483.03	17500.19
483.21	17549.34
483.39	17748.28
483.57	17209.96
483.74	17474.44
483.92	17877.01
484.10	17811.48
484.28	18181.28
484.46	18525.34
484.64	18651.73
484.82	18525.34
485.00	18724.29
485.18	18853.02
485.35	19248.57
485.53	19000.47
485.71	19417.08
485.89	19915.62
486.07	19421.77
486.25	19672.20
486.43	19681.56
486.61	20044.35
486.78	20194.14
486.96	20189.46
487.14	20594.37
487.32	20601.40
487.50	20828.43
487.68	20900.98
487.85	21394.84
488.03	21804.43
488.21	21404.20
488.39	21575.06
488.57	21935.50
488.75	21872.31
488.92	22293.60
489.10	22403.61
489.28	22143.81
489.46	22663.41
489.64	22752.35
489.81	23379.61
489.99	22934.91
490.17	23391.31
490.35	23157.26
490.53	23573.88
490.70	23782.18
490.88	23405.36
491.06	23983.47
491.24	23850.06
491.41	24006.87
491.59	24210.50
491.77	24570.94
491.95	25022.67
492.13	25001.60
492.30	24819.04
492.48	24769.89
492.66	25493.12
492.84	25263.74
493.01	25710.78
493.19	25820.79
493.37	26352.09
493.54	26335.71
493.72	26459.76
493.90	26553.38
494.08	26700.83
494.25	26529.97
494.43	26852.97
494.61	26824.88
494.79	27019.14
494.96	26855.31
495.14	27782.16
495.32	27772.80
495.49	27917.91
495.67	27679.18
495.85	28004.51
496.02	28341.55
496.20	27974.08
496.38	28463.25
496.55	28692.63
496.73	28847.10
496.91	28910.30
497.09	29352.66
497.26	29603.10
497.44	29109.24
497.62	29380.74
497.79	29296.49
497.97	30115.67
498.14	29809.06
498.32	30103.97
498.50	30431.65
498.67	30682.08
498.85	30682.08
499.03	30354.41
499.20	30663.36
499.38	30728.89
499.56	31105.72
499.73	31084.65
499.91	31693.19
500.08	31536.38
500.26	31440.42
500.44	31517.65
500.61	31943.63
500.79	31943.63
500.97	32294.71
501.14	32215.13
501.32	32210.45
501.49	32165.98
501.67	31880.44
501.84	32528.77
502.02	32233.86
502.20	32790.91
502.37	32921.98
502.55	32809.63
502.72	33369.02
502.90	33322.21
503.07	33160.71
503.25	33479.02
503.43	33413.49
503.60	33743.50
503.78	33993.94
503.95	33645.20
504.13	34139.05
504.30	34087.56
504.48	33874.57
504.65	34352.04
504.83	34649.29
505.01	34698.44
505.18	34450.35
505.36	34923.13
505.53	34525.24
505.71	35159.53
505.88	35276.55
506.06	34450.35
506.23	35299.96
506.41	35346.77
506.58	35370.18
506.76	35751.68
506.93	35728.28
507.11	35601.89
507.28	35868.71
507.46	35857.01
507.63	35952.97
507.81	36187.02
507.98	36210.43
508.16	36203.41
508.33	36481.93
508.50	36334.48
508.68	36388.31
508.85	36685.56
509.03	37280.05
509.20	37467.30
509.38	37326.86
509.55	37652.20
509.73	37876.89
509.90	37322.18
510.08	37404.10
510.25	37645.18
510.42	37649.86
510.60	37954.13
510.77	38265.42
510.95	38218.61
511.12	38363.72
511.30	38330.95
511.47	38197.54
511.64	38588.41
511.82	38920.77
511.99	38742.89
512.17	38948.85
512.34	38543.94
512.51	39124.40
512.69	39742.30
512.86	39199.29
513.04	39569.10
513.21	39473.13
513.38	39672.08
513.56	40399.99
513.73	39672.08
513.90	39775.06
514.08	39526.97
514.25	40100.40
514.43	40371.90
514.60	40521.69
514.77	40140.19
514.95	40524.04
515.12	40566.16
515.29	40226.79
515.47	40479.57
515.64	41406.42
515.81	41060.02
515.99	41188.75
516.16	41476.63
516.33	41123.21
516.51	40884.48
516.68	41244.92
516.85	41282.37
517.03	41769.20
517.20	42085.17
517.37	42082.83
517.54	41972.83
517.72	41603.02
517.89	41846.44
518.06	42272.42
518.24	41832.39
518.41	41834.74
518.58	42129.64
518.75	42359.02
518.93	42866.91
519.10	42438.59
519.27	42387.10
519.45	42361.36
519.62	42625.84
519.79	42859.89
519.96	43236.72
520.14	43461.41
520.31	43407.58
520.48	43454.39
520.65	43239.06
520.83	43679.08
521.00	43091.60
521.17	43360.76
521.34	43337.36
521.52	43955.26
521.69	44044.20
521.86	44041.86
522.03	44147.18
522.20	44406.98
522.38	44051.22
522.55	44526.35
522.72	44278.25
522.89	44385.92
523.07	44671.46
523.24	44406.98
523.41	44418.69
523.58	44238.47
523.75	44935.95
523.92	44378.90
524.10	44823.60
524.27	44814.24
524.44	45366.60
524.61	45308.09
524.78	45179.36
524.96	45055.31
525.13	45205.11
525.30	46040.68
525.47	45317.45
525.64	45832.37
525.81	45874.50
525.98	46157.70
526.16	46108.55
526.33	45698.96
526.50	46007.91
526.67	45567.89
526.84	45790.24
527.01	46005.57
527.18	45956.42
527.36	46443.25
527.53	46408.14
527.70	46719.43
527.87	46808.37
528.04	46864.55
528.21	46424.53
528.38	46485.38
528.55	47019.02
528.72	46492.40
528.89	46925.40
529.07	47103.28
529.24	46857.52
529.41	46815.40
529.58	47040.09
529.75	46997.96
529.92	46869.23
530.09	47072.85
530.26	47550.32
530.43	47070.51
530.60	47217.97
530.77	47442.66
530.94	47613.52
531.11	47655.65
531.28	47526.92
531.46	48055.88
531.63	47725.86
531.80	48135.46
531.97	48266.53
532.14	47908.43
532.31	47606.50
532.48	48037.16
532.65	48374.19
532.82	47889.70
532.99	48088.65
533.16	48208.01
533.33	48477.18
533.50	48662.08
533.67	48727.61
533.84	48236.10
534.01	48629.31
534.18	48622.29
534.35	48879.75
534.52	48423.34
534.69	49003.80
534.86	48921.88
535.03	48744.00
535.20	48893.79
535.37	49050.61
535.54	49155.93
535.71	48617.61
535.88	49256.57
536.05	49118.48
536.22	49621.70
536.38	49736.38
536.55	49289.34
536.72	49502.33
536.89	49439.14
537.06	49343.17
537.23	49455.52
537.40	49385.30
537.57	49462.54
537.74	49478.92
537.91	50061.72
538.08	49916.61
538.25	49258.91
538.42	49862.77
538.59	49813.62
538.75	49577.23
538.92	49497.65
539.09	50244.28
539.26	50038.31
539.43	49982.14
539.60	49902.56
539.77	49968.10
539.94	50436.20
540.11	50206.83
540.28	50258.32
540.44	50284.07
540.61	50370.67
540.78	50443.23
540.95	50618.77
541.12	50707.71
541.29	50738.13
541.46	50890.27
541.62	50305.13
541.79	50326.20
541.96	50066.40
542.13	50244.28
542.30	50876.22
542.47	50887.93
542.63	50913.67
542.80	51002.61
542.97	50946.44
543.14	51196.88
543.31	51096.24
543.48	51016.66
543.64	51386.46
543.81	51571.36
543.98	51466.04
544.15	51330.29
544.32	51714.14
544.48	51454.34
544.65	51246.03
544.82	51526.89
544.99	51517.53
545.16	51522.21
545.32	51356.03
545.49	51908.40
545.66	52250.12
545.83	51859.25
546.00	52332.04
546.16	51824.14
546.33	51531.57
546.50	51456.68
546.67	52002.02
546.83	51817.12
547.00	52020.75
547.17	52119.05
547.34	51945.85
547.50	52137.77
547.67	52367.15
547.84	52397.57
548.00	52065.22
548.17	52453.75
548.34	52271.18
548.51	52437.36
548.67	52402.25
548.84	52559.07
549.01	52423.32
549.18	52282.89
549.34	52519.28
549.51	52500.56
549.68	52608.22
549.84	52285.23
550.01	52491.19
550.18	52388.21
550.34	52729.93
550.51	52589.50
550.68	52629.29
550.84	52339.06
551.01	52898.45
551.18	52528.64
551.34	52535.66
551.51	52603.54
551.68	52786.10
551.84	52978.03
552.01	52893.77
552.18	52996.75
552.34	52767.38
552.51	52940.58
552.68	52788.44
552.84	53151.23
553.01	53001.43
553.18	53165.27
553.34	53324.43
553.51	53216.76
553.67	53382.94
553.84	53404.00
554.01	53616.99
554.17	53469.54
554.34	53305.70
554.51	53205.06
554.67	53586.57
554.84	53680.19
555.00	53488.26
555.17	53577.20
555.33	53326.77
555.50	53525.71
555.67	53558.48
555.83	53352.51
556.00	53425.07
556.16	53909.56
556.33	53492.94
556.50	53734.02
556.66	53485.92
556.83	53509.33
556.99	53989.14
557.16	53876.79
557.32	53858.07
557.49	54003.18
557.65	53581.88
557.82	53528.05
557.98	53776.15
558.15	53869.77
558.32	54068.72
558.48	54113.19
558.65	54138.93
558.81	54213.83
558.98	53890.83
559.14	54012.54
559.31	53930.62
559.47	53991.48
559.64	53867.43
559.80	54384.69
559.97	54358.94
560.13	54047.65
560.30	54124.89
560.46	54071.06
560.63	54033.61
560.79	54265.32
560.96	54192.76
561.12	54368.30
561.29	54014.88
561.45	54012.54
561.61	54157.66
561.78	54169.36
561.94	54461.93
562.11	54340.22
562.27	54199.79
562.44	54288.73
562.60	54316.81
562.77	54298.09
562.93	54045.31
563.10	54548.53
563.26	54347.24
563.42	54567.25
563.59	54506.40
563.75	54220.85
563.92	54490.01
564.08	54468.95
564.24	54490.01
564.41	54251.28
564.57	54305.11
564.74	54635.13
564.90	54447.88
565.07	54607.04
565.23	54710.02
565.39	54358.94
565.56	54843.43
565.72	54522.78
565.88	54564.91
566.05	54555.55
566.21	54450.22
566.38	54525.12
566.54	54490.01
566.70	54501.71
566.87	54763.85
567.03	54628.10
567.19	54944.08
567.36	54892.58
567.52	54534.48
567.68	54621.08
567.85	54377.67
568.01	54653.85
568.17	54506.40
568.34	54997.91
568.50	54614.06
568.66	54405.75
568.83	54850.45
568.99	54602.36
569.15	54440.86
569.32	54560.23
569.48	54621.08
569.64	54611.72
569.81	54761.51
569.97	54841.09
570.13	54876.20
570.30	54466.61
570.46	54707.68
570.62	54908.97
570.78	54782.58
570.95	54747.47
571.11	54873.86
571.27	54714.70
571.43	54761.51
571.60	55016.63
571.76	54810.67
571.92	54813.01
572.09	54761.51
572.25	54960.46
572.41	54976.84
572.57	54939.39
572.74	55220.26
572.90	54801.30
573.06	54796.62
573.22	54906.63
573.38	54855.14
573.55	55033.02
573.71	55309.20
573.87	55339.63
574.03	54815.35
574.20	54925.35
574.36	54555.55
574.52	54880.88
574.68	54948.76
574.84	54859.82
575.01	54951.10
575.17	55058.76
575.33	55014.29
575.49	54827.05
575.65	55213.24
575.82	55180.47
575.98	54878.54
576.14	54789.60
576.30	55016.63
576.46	54864.50
576.62	54880.88
576.79	55213.24
576.95	55171.11
577.11	55096.21
577.27	55138.34
577.43	55182.81
577.59	54988.55
577.75	54869.18
577.92	54756.83
578.08	55084.51
578.24	55234.30
578.40	54841.09
578.56	55117.28
578.72	55100.89
578.88	55353.67
579.04	55241.32
579.21	55098.55
579.37	55150.04
579.53	55295.16
579.69	54805.98
579.85	55133.66
580.01	55126.64
580.17	55000.25
580.33	55187.49
580.49	55220.26
580.65	55299.84
580.82	55379.42
580.98	55231.96
581.14	55208.56
581.30	55341.97
581.46	55033.02
581.62	54810.67
581.78	55075.15
581.94	55238.98
582.10	55114.94
582.26	55173.45
582.42	55374.73
582.58	55449.63
582.74	55482.40
582.90	55157.06
583.06	55297.50
583.22	55168.77
583.38	55114.94
583.54	55255.37
583.70	55018.97
583.86	55437.93
584.02	55187.49
584.18	55561.98
584.34	55454.31
584.50	55309.20
584.66	55386.44
584.82	55103.23
584.98	55386.44
585.14	55334.95
585.30	54993.23
585.46	55143.02
585.62	54808.32
585.78	55332.60
585.94	54976.84
586.10	55491.76
586.26	55283.45
586.42	55360.69
586.58	55398.14
586.74	55196.85
586.90	55131.32
587.06	54974.50
587.22	55302.18
587.38	55016.63
587.54	55323.24
587.70	55456.65
587.86	55320.90
588.02	55557.30
588.18	55583.04
588.34	55620.49
588.49	55044.72
588.65	55222.60
588.81	55341.97
588.97	55173.45
589.13	55365.37
589.29	55075.15
589.45	55536.23
589.61	55379.42
589.77	55786.67
