SpectraSuite Data File
++++++++++++++++++++++++++++++++++++
Date: Fri Oct 04 11:48:20 GMT-05:00 2013
User: price-jones
Dark Spectrum Present: No
Reference Spectrum Present: No
Number of Sampled Component Spectra: 1
Spectrometers: USB2+H05261
Integration Time (usec): 100000 (USB2+H05261)
Spectra Averaged: 1 (USB2+H05261)
Boxcar Smoothing: 0 (USB2+H05261)
Correct for Electrical Dark: No (USB2+H05261)
Strobe/Lamp Enabled: No (USB2+H05261)
Correct for Detector Non-linearity: No (USB2+H05261)
Correct for Stray Light: No (USB2+H05261)
Number of Pixels in Processed Spectrum: 2048
>>>>>Begin Processed Spectral Data<<<<<
365.73	21.06
365.92	21.06
366.12	21.06
366.32	0.00
366.52	0.00
366.72	0.00
366.91	0.00
367.11	0.00
367.31	0.00
367.51	0.00
367.70	0.00
367.90	0.00
368.10	0.00
368.30	0.00
368.49	0.00
368.69	0.00
368.89	0.00
369.09	0.00
369.28	0.00
369.48	0.00
369.68	0.00
369.87	0.00
370.07	9.36
370.27	0.00
370.47	4.68
370.66	187.24
370.86	37.45
371.06	154.48
371.25	105.32
371.45	131.07
371.65	145.11
371.84	133.41
372.04	149.79
372.24	161.50
372.44	119.37
372.63	147.45
372.83	205.97
373.03	128.73
373.22	182.56
373.42	182.56
373.62	163.84
373.81	117.03
374.01	255.12
374.21	212.99
374.40	173.20
374.60	189.58
374.79	224.69
374.99	198.95
375.19	177.88
375.38	182.56
375.58	187.24
375.78	266.82
375.97	224.69
376.17	180.22
376.37	208.31
376.56	173.20
376.76	149.79
376.95	227.03
377.15	163.84
377.35	262.14
377.54	215.33
377.74	224.69
377.93	170.86
378.13	182.56
378.33	201.29
378.52	138.09
378.72	189.58
378.91	154.48
379.11	142.77
379.31	229.37
379.50	133.41
379.70	170.86
379.89	140.43
380.09	220.01
380.28	177.88
380.48	173.20
380.68	229.37
380.87	187.24
381.07	205.97
381.26	187.24
381.46	187.24
381.65	177.88
381.85	180.22
382.04	243.42
382.24	201.29
382.43	266.82
382.63	205.97
382.83	196.60
383.02	180.22
383.22	231.71
383.41	194.26
383.61	163.84
383.80	187.24
384.00	231.71
384.19	212.99
384.39	255.12
384.58	212.99
384.78	189.58
384.97	248.10
385.17	196.60
385.36	243.42
385.56	257.46
385.75	168.52
385.95	191.92
386.14	248.10
386.34	297.25
386.53	231.71
386.72	189.58
386.92	280.86
387.11	255.12
387.31	224.69
387.50	191.92
387.70	231.71
387.89	231.71
388.09	126.39
388.28	224.69
388.48	250.44
388.67	290.23
388.86	271.50
389.06	222.35
389.25	285.55
389.45	234.05
389.64	252.78
389.84	215.33
390.03	311.29
390.22	280.86
390.42	229.37
390.61	266.82
390.81	187.24
391.00	271.50
391.19	304.27
391.39	250.44
391.58	353.42
391.78	262.14
391.97	325.33
392.16	301.93
392.36	332.36
392.55	315.97
392.75	252.78
392.94	290.23
393.13	311.29
393.33	285.55
393.52	224.69
393.71	301.93
393.91	404.91
394.10	355.76
394.29	369.80
394.49	320.65
394.68	383.85
394.88	348.74
395.07	365.12
395.26	283.20
395.46	304.27
395.65	259.80
395.84	379.17
396.04	505.56
396.23	355.76
396.42	353.42
396.62	351.08
396.81	381.51
397.00	421.30
397.19	418.96
397.39	418.96
397.58	461.09
397.77	367.46
397.97	390.87
398.16	355.76
398.35	430.66
398.55	355.76
398.74	461.09
398.93	425.98
399.12	383.85
399.32	383.85
399.51	451.72
399.70	496.19
399.90	451.72
400.09	489.17
400.28	472.79
400.47	442.36
400.67	521.94
400.86	458.74
401.05	496.19
401.24	540.66
401.44	552.37
401.63	491.51
401.82	517.26
402.01	538.32
402.21	531.30
402.40	507.90
402.59	482.15
402.78	531.30
402.97	543.00
403.17	660.03
403.36	582.79
403.55	636.63
403.74	629.60
403.93	561.73
404.13	683.44
404.32	606.20
404.51	610.88
404.70	676.41
404.89	606.20
405.09	655.35
405.28	660.03
405.47	685.78
405.66	711.52
405.85	702.16
406.05	720.88
406.24	709.18
406.43	737.27
406.62	737.27
406.81	709.18
407.00	734.93
407.20	692.80
407.39	695.14
407.58	770.04
407.77	709.18
407.96	844.93
408.15	840.25
408.34	798.12
408.54	755.99
408.73	816.85
408.92	870.68
409.11	924.51
409.30	903.45
409.49	826.21
409.68	837.91
409.87	898.77
410.07	908.13
410.26	875.36
410.45	966.64
410.64	966.64
410.83	973.66
411.02	968.98
411.21	1064.94
411.40	1151.54
411.59	983.02
411.78	999.41
411.98	1043.88
412.17	1004.09
412.36	1032.18
412.55	1067.28
412.74	1100.05
412.93	1130.48
413.12	1086.01
413.31	1137.50
413.50	1090.69
413.69	1200.69
413.88	1111.75
414.07	1240.48
414.26	1238.14
414.45	1226.44
414.64	1254.53
414.83	1348.15
415.02	1301.34
415.22	1350.49
415.41	1320.06
415.60	1226.44
415.79	1228.78
415.98	1282.61
416.17	1245.16
416.36	1277.93
416.55	1345.81
416.74	1418.36
416.93	1296.66
417.12	1432.41
417.31	1439.43
417.50	1399.64
417.69	1479.22
417.88	1558.80
418.07	1521.35
418.26	1430.07
418.45	1509.65
418.64	1528.37
418.83	1514.33
419.02	1420.71
419.21	1444.11
419.39	1483.90
419.58	1455.81
419.77	1561.14
419.96	1542.41
420.15	1591.56
420.34	1533.05
420.53	1652.42
420.72	1643.06
420.91	1607.95
421.10	1671.14
421.29	1673.48
421.48	1488.58
421.67	1687.53
421.86	1598.59
422.05	1607.95
422.24	1621.99
422.43	1598.59
422.61	1603.27
422.80	1699.23
422.99	1713.27
423.18	1659.44
423.37	1692.21
423.56	1699.23
423.75	1600.93
423.94	1624.33
424.13	1633.69
424.32	1591.56
424.50	1673.48
424.69	1722.63
424.88	1729.66
425.07	1575.18
425.26	1802.21
425.45	1692.21
425.64	1739.02
425.83	1678.16
426.01	1811.57
426.20	1746.04
426.39	1781.15
426.58	1727.32
426.77	1809.23
426.96	1849.02
427.15	1795.19
427.33	1844.34
427.52	1816.26
427.71	1818.60
427.90	1970.73
428.09	1783.49
428.28	1762.42
428.46	1856.04
428.65	1867.75
428.84	1863.07
429.03	1914.56
429.22	1886.47
429.40	1947.33
429.59	1851.36
429.78	1816.26
429.97	1813.92
430.16	1895.83
430.34	1865.41
430.53	2022.22
430.72	1884.13
430.91	1963.71
431.10	1984.77
431.28	2001.16
431.47	1959.03
431.66	2026.90
431.85	2010.52
432.03	2003.50
432.22	2190.74
432.41	2125.21
432.60	2155.63
432.79	2125.21
432.97	2108.82
433.16	2153.29
433.35	2169.68
433.54	2141.59
433.72	2136.91
433.91	2132.23
434.10	2083.08
434.28	2125.21
434.47	2139.25
434.66	2188.40
434.85	2190.74
435.03	2221.17
435.22	2143.93
435.41	2392.03
435.59	2324.15
435.78	2225.85
435.97	2139.25
436.16	2331.17
436.34	2314.79
436.53	2345.22
436.72	2382.67
436.90	2197.76
437.09	2377.98
437.28	2279.68
437.46	2335.85
437.65	2328.83
437.84	2352.24
438.02	2333.51
438.21	2387.35
438.40	2333.51
438.58	2389.69
438.77	2406.07
438.96	2422.45
439.14	2469.27
439.33	2464.58
439.52	2527.78
439.70	2480.97
439.89	2480.97
440.08	2574.59
440.26	2602.68
440.45	2553.52
440.63	2670.55
440.82	2614.38
441.01	2546.50
441.19	2663.53
441.38	2759.49
441.57	2635.44
441.75	2843.75
441.94	2761.83
442.12	2778.22
442.31	2789.92
442.50	2834.39
442.68	2724.38
442.87	2684.59
443.05	2855.45
443.24	2867.16
443.43	2944.39
443.61	2850.77
443.80	2972.48
443.98	2780.56
444.17	2869.50
444.35	2843.75
444.54	2993.55
444.73	2869.50
444.91	2911.63
445.10	2792.26
445.28	2930.35
445.47	2871.84
445.65	2841.41
445.84	2813.32
446.02	2967.80
446.21	2944.39
446.39	2906.95
446.58	2918.65
446.77	2918.65
446.95	2925.67
447.14	2928.01
447.32	2935.03
447.51	2782.90
447.69	2949.08
447.88	2981.84
448.06	2895.24
448.25	2916.31
448.43	2916.31
448.62	2972.48
448.80	3009.93
448.99	3047.38
449.17	3150.36
449.36	3019.29
449.54	3045.04
449.73	2979.50
449.91	3054.40
450.10	3084.83
450.28	3183.13
450.46	3087.17
450.65	2963.12
450.83	3129.30
451.02	3176.11
451.20	3194.83
451.39	2993.55
451.57	3166.74
451.76	3192.49
451.94	3183.13
452.13	3276.75
452.31	3155.04
452.49	3241.64
452.68	3300.16
452.86	3316.54
453.05	3243.98
453.23	3251.00
453.42	3234.62
453.60	3356.33
453.78	3361.01
453.97	3281.43
454.15	3265.05
454.34	3234.62
454.52	3407.82
454.70	3375.05
454.89	3215.90
455.07	3283.77
455.26	3302.50
455.44	3485.06
455.62	3382.07
455.81	3522.51
455.99	3552.93
456.17	3459.31
456.36	3550.59
456.54	3529.53
456.73	3478.04
456.91	3588.04
457.09	3468.67
457.28	3719.11
457.46	3531.87
457.64	3735.50
457.83	3557.61
458.01	3501.44
458.19	3728.47
458.38	3693.37
458.56	3712.09
458.74	3658.26
458.93	3803.37
459.11	3796.35
459.29	3676.98
459.48	3798.69
459.66	3758.90
459.84	3644.21
460.03	3899.33
460.21	3784.65
460.39	3744.86
460.57	3857.20
460.76	3878.27
460.94	3796.35
461.12	3836.14
461.31	3873.59
461.49	3847.84
461.67	3824.44
461.85	4067.85
462.04	3852.52
462.22	4358.08
462.40	3964.87
462.59	3932.10
462.77	4049.13
462.95	3992.95
463.13	3918.06
463.32	3894.65
463.50	4049.13
463.68	3964.87
463.86	4030.40
464.05	4014.02
464.23	4121.68
464.41	3962.53
464.59	4117.00
464.78	4180.20
464.96	4081.89
465.14	4030.40
465.32	4079.55
465.50	4227.01
465.69	4086.58
465.87	4035.08
466.05	4161.47
466.23	4107.64
466.41	4231.69
466.60	4322.97
466.78	4152.11
466.96	4131.05
467.14	4177.86
467.32	4269.14
467.51	4215.30
467.69	4142.75
467.87	4227.01
468.05	4367.44
468.23	4355.74
468.41	4138.07
468.60	4299.56
468.78	4423.61
468.96	4259.78
469.14	4285.52
469.32	4418.93
469.50	4301.90
469.69	4465.74
469.87	4484.47
470.05	4540.64
470.23	4514.89
470.41	4397.87
470.59	4498.51
470.77	4390.84
470.95	4337.01
471.14	4463.40
471.32	4479.79
471.50	4709.16
471.68	4730.22
471.86	4561.70
472.04	4624.90
472.22	4596.81
472.40	4599.15
472.58	4678.73
472.77	4681.07
472.95	4924.49
473.13	4954.91
473.31	4791.08
473.49	4802.78
473.67	4912.78
473.85	4854.27
474.03	5104.71
474.21	4877.68
474.39	5053.22
474.57	5018.11
474.75	5149.18
474.93	4966.62
475.12	5139.82
475.30	5137.48
475.48	5177.26
475.66	5245.14
475.84	5123.43
476.02	5259.18
476.20	5219.39
476.38	5284.93
476.56	5322.38
476.74	5345.78
476.92	5203.01
477.10	5416.00
477.28	5493.24
477.46	5509.62
477.64	5530.69
477.82	5392.59
478.00	5799.85
478.18	5678.14
478.36	5832.62
478.54	5806.87
478.72	5678.14
478.90	5753.04
479.08	5757.72
479.26	5706.23
479.44	6015.18
479.62	6214.12
479.80	5968.37
479.98	6087.73
480.16	6174.33
480.34	6228.17
480.52	6375.62
480.70	6338.17
480.88	6246.89
481.06	6328.81
481.24	6244.55
481.41	6417.75
481.59	6462.22
481.77	6478.60
481.95	6698.61
482.13	6595.63
482.31	6668.19
482.49	6712.66
482.67	6738.40
482.85	6717.34
483.03	6773.51
483.21	6946.71
483.39	7082.46
483.57	6967.77
483.74	7066.08
483.92	7063.74
484.10	6939.69
484.28	7190.13
484.46	7274.38
484.64	7562.27
484.82	7321.20
485.00	7452.27
485.18	7606.74
485.35	7672.28
485.53	7644.19
485.71	7749.51
485.89	7976.55
486.07	7798.66
486.25	7801.01
486.43	7789.30
486.61	7747.17
486.78	8009.31
486.96	8142.72
487.14	8205.92
487.32	8154.43
487.50	8243.37
487.68	8334.65
487.85	8535.93
488.03	8620.19
488.21	8582.74
488.39	8676.37
488.57	8659.98
488.75	8662.32
488.92	8980.64
489.10	9018.08
489.28	8968.93
489.46	8842.54
489.64	9071.92
489.81	8784.03
489.99	9015.74
490.17	8919.78
490.35	9118.73
490.53	9282.56
490.70	9355.12
490.88	9359.80
491.06	9621.94
491.24	9483.85
491.41	9500.23
491.59	9643.01
491.77	9654.71
491.95	9914.51
492.13	9734.29
492.30	9877.06
492.48	9935.57
492.66	10153.24
492.84	10043.24
493.01	10242.18
493.19	10127.50
493.37	10097.07
493.54	10319.42
493.72	10272.61
493.90	10324.10
494.08	10427.09
494.25	10644.76
494.43	10658.80
494.61	10623.69
494.79	10553.48
494.96	10675.18
495.14	10848.38
495.32	10829.66
495.49	10832.00
495.67	11061.37
495.85	11042.65
496.02	11199.46
496.20	11096.48
496.38	10965.41
496.55	11208.83
496.73	11410.11
496.91	11440.54
497.09	11433.52
497.26	11410.11
497.44	11351.60
497.62	11550.54
497.79	11651.19
497.97	11583.31
498.14	11623.10
498.32	12011.63
498.50	11805.66
498.67	11913.33
498.85	11859.49
499.03	12065.46
499.20	12093.55
499.38	12063.12
499.56	12402.50
499.73	12379.09
499.91	12278.45
500.08	12299.52
500.26	12355.69
500.44	12435.27
500.61	12346.33
500.79	12566.34
500.97	12594.42
501.14	12758.26
501.32	12828.48
501.49	12910.40
501.67	12444.63
501.84	12657.62
502.02	12571.02
502.20	12674.00
502.37	12938.48
502.55	13125.72
502.72	12957.21
502.90	12919.76
503.07	12929.12
503.25	12762.94
503.43	13036.78
503.60	13263.82
503.78	13263.82
503.95	13121.04
504.13	13081.25
504.30	13249.77
504.48	13305.95
504.65	13771.71
504.83	13572.77
505.01	13582.13
505.18	13565.74
505.36	13748.31
505.53	13731.92
505.71	13544.68
505.88	13593.83
506.06	13680.43
506.23	13973.00
506.41	13603.19
506.58	14216.41
506.76	14106.41
506.93	13982.36
507.11	14071.30
507.28	14209.39
507.46	14153.22
507.63	14281.95
507.81	14078.32
507.98	14185.99
508.16	14572.18
508.33	14239.82
508.50	14338.12
508.68	14335.78
508.85	14382.59
509.03	14572.18
509.20	14719.63
509.38	14782.82
509.55	14909.21
509.73	14658.78
509.90	15023.90
510.08	14719.63
510.25	14956.02
510.42	14850.70
510.60	15023.90
510.77	14965.39
510.95	15232.21
511.12	14902.19
511.30	15068.37
511.47	15346.89
511.64	15335.19
511.82	15602.01
511.99	15316.47
512.17	15283.70
512.34	15311.78
512.51	15302.42
512.69	15541.16
512.86	15700.31
513.04	15686.27
513.21	15580.95
513.38	15548.18
513.56	15676.91
513.73	15616.05
513.90	15824.36
514.08	15426.47
514.25	16042.03
514.43	15896.92
514.60	16142.67
514.77	15960.11
514.95	16114.59
515.12	15906.28
515.29	16063.10
515.47	16311.19
515.64	16137.99
515.81	16343.96
515.99	16346.30
516.16	16776.96
516.33	16147.36
516.51	16238.64
516.68	16245.66
516.85	16205.87
517.03	16465.67
517.20	16355.66
517.37	16692.70
517.54	16559.29
517.72	16582.70
517.89	16624.83
518.06	16482.05
518.24	16828.45
518.41	16791.00
518.58	16863.56
518.75	16636.53
518.93	16758.24
519.10	16713.77
519.27	16985.27
519.45	16931.44
519.62	16739.51
519.79	16929.09
519.96	16999.31
520.14	17364.43
520.31	17275.49
520.48	17247.41
520.65	16989.95
520.83	17195.92
521.00	17294.22
521.17	17336.35
521.34	17331.67
521.52	17418.27
521.69	17467.42
521.86	17603.17
522.03	17497.84
522.20	17617.21
522.38	17570.40
522.55	17905.10
522.72	17528.27
522.89	17839.56
523.07	17972.97
523.24	17731.90
523.41	17685.09
523.58	17776.37
523.75	17694.45
523.92	17750.62
524.10	18157.88
524.27	17916.80
524.44	18120.43
524.61	18033.83
524.78	18057.23
524.96	18108.72
525.13	18143.83
525.30	17970.63
525.47	18359.16
525.64	18141.49
525.81	18384.91
525.98	18504.28
526.16	18438.74
526.33	18274.90
526.50	18733.65
526.67	18185.96
526.84	18075.96
527.01	18483.21
527.18	18885.78
527.36	18588.53
527.53	18707.90
527.70	18752.37
527.87	18768.76
528.04	18640.03
528.21	18684.50
528.38	18654.07
528.55	18810.89
528.72	18621.30
528.89	18721.95
529.07	18853.02
529.24	18831.95
529.41	18789.82
529.58	18801.52
529.75	18862.38
529.92	18782.80
530.09	19007.49
530.26	19112.81
530.43	19190.05
530.60	19035.58
530.77	19194.73
530.94	18974.72
531.11	18951.32
531.28	19190.05
531.46	19534.11
531.63	19344.53
531.80	19496.66
531.97	19365.59
532.14	19204.10
532.31	19353.89
532.48	19290.70
532.65	19393.68
532.82	19159.63
532.99	19585.60
533.16	19110.47
533.33	19276.65
533.50	19836.04
533.67	19779.87
533.84	19672.20
534.01	19276.65
534.18	19487.30
534.35	19812.63
534.52	19506.02
534.69	19917.96
534.86	19545.81
535.03	19714.33
535.20	19655.82
535.37	19908.60
535.54	19772.85
535.71	19751.78
535.88	19800.93
536.05	19903.92
536.22	19784.55
536.38	19857.10
536.55	20067.75
536.72	20320.53
536.89	19597.31
537.06	19873.49
537.23	19920.30
537.40	19960.09
537.57	20128.61
537.74	20077.12
537.91	20397.77
538.08	20184.78
538.25	20231.59
538.42	20205.84
538.59	20589.69
538.75	19941.36
538.92	19822.00
539.09	20264.36
539.26	20484.37
539.43	20173.08
539.60	20304.15
539.77	20470.33
539.94	20231.59
540.11	20446.92
540.28	20414.15
540.44	20442.24
540.61	20369.68
540.78	20479.69
540.95	20650.55
541.12	20432.88
541.29	20498.41
541.46	20428.20
541.62	20498.41
541.79	21050.78
541.96	20533.52
542.13	20493.73
542.30	20926.73
542.47	20685.65
542.63	20641.18
542.80	20790.98
542.97	21158.44
543.14	20938.43
543.31	21137.38
543.48	20821.41
543.64	21193.55
543.81	21032.05
543.98	20919.71
544.15	20893.96
544.32	21319.94
544.48	21216.96
544.65	21259.09
544.82	21020.35
544.99	21116.31
545.16	21158.44
545.32	20828.43
545.49	21420.58
545.66	21326.96
545.83	21413.56
546.00	21429.94
546.16	21472.07
546.33	21273.13
546.50	21163.12
546.67	21312.92
546.83	21228.66
547.00	21542.29
547.17	21537.61
547.34	21228.66
547.50	21369.09
547.67	21617.19
547.84	21240.36
548.00	21233.34
548.17	21514.20
548.34	21640.59
548.51	21516.54
548.67	21923.80
548.84	21656.98
549.01	21790.39
549.18	21778.68
549.34	21645.27
549.51	21589.10
549.68	21413.56
549.84	21710.81
550.01	21909.75
550.18	21460.37
550.34	21621.87
550.51	21909.75
550.68	21788.05
550.84	21869.97
551.01	21951.88
551.18	21546.97
551.34	21509.52
551.51	22087.64
551.68	21874.65
551.84	21933.16
552.01	21759.96
552.18	22111.04
552.34	21521.23
552.51	22106.36
552.68	21884.01
552.84	22052.53
553.01	21867.63
553.18	21994.01
553.34	21884.01
553.51	21977.63
553.67	22017.42
553.84	22127.42
554.01	22368.50
554.17	22427.01
554.34	22132.11
554.51	22293.60
554.67	22487.87
554.84	22150.83
555.00	21991.67
555.17	22232.75
555.33	22700.86
555.50	22253.81
555.67	22125.08
555.83	22125.08
556.00	21888.69
556.16	22445.74
556.33	22361.48
556.50	22331.05
556.66	22230.41
556.83	22171.89
556.99	22682.13
557.16	22675.11
557.32	22614.26
557.49	22558.08
557.65	22204.66
557.82	22036.14
557.98	22281.90
558.15	22562.76
558.32	22263.18
558.48	22174.24
558.65	22616.60
558.81	22541.70
558.98	22597.87
559.14	22672.77
559.31	22265.52
559.47	22443.40
559.64	22204.66
559.80	22579.15
559.97	22600.21
560.13	22750.01
560.30	22654.05
560.46	22719.58
560.63	22705.54
560.79	22609.58
560.96	22614.26
561.12	22668.09
561.29	22380.20
561.45	22471.48
561.61	22616.60
561.78	22672.77
561.94	22551.06
562.11	22965.34
562.27	22548.72
562.44	22438.72
562.60	22906.82
562.77	22855.33
562.93	22698.52
563.10	22632.98
563.26	22478.50
563.42	23150.24
563.59	22452.76
563.75	22518.29
563.92	22668.09
564.08	22380.20
564.24	22661.07
564.41	22532.34
564.57	22623.62
564.74	22408.29
564.90	22951.29
565.07	22981.72
565.23	22562.76
565.39	22714.90
565.56	22661.07
565.72	22445.74
565.88	22728.94
566.05	22457.44
566.21	22471.48
566.38	22616.60
566.54	22930.23
566.70	22485.53
566.87	22876.40
567.03	22909.16
567.19	22845.97
567.36	22803.84
567.52	22728.94
567.68	23000.44
567.85	22530.00
568.01	22841.29
568.17	22647.02
568.34	23021.51
568.50	22750.01
568.66	22663.41
568.83	22841.29
568.99	22771.07
569.15	22855.33
569.32	22642.34
569.48	22569.79
569.64	23103.43
569.81	22988.74
569.97	22768.73
570.13	22911.50
570.30	22579.15
570.46	22918.53
570.62	22946.61
570.78	22506.59
570.95	22518.29
571.11	22515.95
571.27	22265.52
571.43	22703.20
571.60	22834.27
571.76	22955.97
571.92	23042.57
572.09	22960.66
572.25	23065.98
572.41	22710.22
572.57	22939.59
572.74	23040.23
572.90	22593.19
573.06	23168.96
573.22	23005.13
573.38	23456.85
573.55	23014.49
573.71	23133.86
573.87	23068.32
574.03	22939.59
574.20	22733.62
574.36	22693.83
574.52	22717.24
574.68	22977.04
574.84	22995.76
575.01	23239.18
575.17	23147.90
575.33	22761.71
575.49	22864.69
575.65	23161.94
575.82	23119.81
575.98	22689.15
576.14	23065.98
576.30	22871.72
576.46	22789.80
576.62	22761.71
576.79	23122.15
576.95	22897.46
577.11	22948.95
577.27	22593.19
577.43	23147.90
577.59	23094.07
577.75	22747.67
577.92	22665.75
578.08	23005.13
578.24	22937.25
578.40	22920.87
578.56	22710.22
578.72	22836.61
578.88	23147.90
579.04	22932.57
579.21	23143.22
579.37	23094.07
579.53	23293.01
579.69	22890.44
579.85	22918.53
580.01	22731.28
580.17	23124.49
580.33	22719.58
580.49	23122.15
580.65	23213.43
580.82	23117.47
580.98	22911.50
581.14	23042.57
581.30	23494.30
581.46	22824.90
581.62	22778.09
581.78	22792.14
581.94	23103.43
582.10	22764.05
582.26	23070.66
582.42	23077.68
582.58	23007.47
582.74	23117.47
582.90	22881.08
583.06	23026.19
583.22	22806.18
583.38	22937.25
583.54	23019.17
583.70	23140.88
583.86	22944.27
584.02	23051.94
584.18	23248.54
584.34	23211.09
584.50	23082.36
584.66	23065.98
584.82	22932.57
584.98	23012.15
585.14	22934.91
585.30	22799.16
585.46	23016.83
585.62	23019.17
585.78	22787.46
585.94	23103.43
586.10	23419.40
586.26	23257.90
586.42	23358.55
586.58	23229.82
586.74	23248.54
586.90	23065.98
587.06	22637.66
587.22	22916.19
587.38	22920.87
587.54	22843.63
587.70	23527.06
587.86	23276.63
588.02	22902.14
588.18	23307.05
588.34	23023.85
588.49	22998.10
588.65	23026.19
588.81	23098.75
588.97	23344.50
589.13	23147.90
589.29	22916.19
589.45	22960.66
589.61	23300.03
589.77	23234.50
589.93	23150.24
590.08	23236.84
590.24	23358.55
590.40	23157.26
590.56	23307.05
590.72	23506.00
590.88	23047.26
591.04	23049.60
591.20	23321.10
591.35	23513.02
591.51	23700.26
591.67	23271.95
591.83	23316.42
591.99	23435.78
592.15	23208.75
592.31	23218.11
592.46	23321.10
