SpectraSuite Data File
++++++++++++++++++++++++++++++++++++
Date: Fri Oct 04 11:48:38 GMT-05:00 2013
User: price-jones
Dark Spectrum Present: No
Reference Spectrum Present: No
Number of Sampled Component Spectra: 1
Spectrometers: USB2+H05261
Integration Time (usec): 100000 (USB2+H05261)
Spectra Averaged: 1 (USB2+H05261)
Boxcar Smoothing: 0 (USB2+H05261)
Correct for Electrical Dark: No (USB2+H05261)
Strobe/Lamp Enabled: No (USB2+H05261)
Correct for Detector Non-linearity: No (USB2+H05261)
Correct for Stray Light: No (USB2+H05261)
Number of Pixels in Processed Spectrum: 2048
>>>>>Begin Processed Spectral Data<<<<<
365.73	56.17
365.92	56.17
366.12	56.17
366.32	0.00
366.52	0.00
366.72	0.00
366.91	0.00
367.11	0.00
367.31	0.00
367.51	0.00
367.70	0.00
367.90	0.00
368.10	0.00
368.30	0.00
368.49	0.00
368.69	0.00
368.89	0.00
369.09	0.00
369.28	4.68
369.48	0.00
369.68	0.00
369.87	44.47
370.07	0.00
370.27	0.00
370.47	112.35
370.66	493.85
370.86	521.94
371.06	571.09
371.25	653.01
371.45	589.82
371.65	545.34
371.84	533.64
372.04	566.41
372.24	645.99
372.44	660.03
372.63	711.52
372.83	601.52
373.03	716.20
373.22	685.78
373.42	608.54
373.62	702.16
373.81	709.18
374.01	697.48
374.21	676.41
374.40	816.85
374.60	734.93
374.79	748.97
374.99	744.29
375.19	814.51
375.38	809.83
375.58	870.68
375.78	753.65
375.97	791.10
376.17	809.83
376.37	798.12
376.56	856.64
376.76	842.59
376.95	784.08
377.15	812.17
377.35	985.37
377.54	807.48
377.74	873.02
377.93	809.83
378.13	812.17
378.33	912.81
378.52	809.83
378.72	943.24
378.91	926.85
379.11	830.89
379.31	933.87
379.50	875.36
379.70	924.51
379.89	997.07
380.09	952.60
380.28	880.04
380.48	929.19
380.68	1001.75
380.87	987.71
381.07	1004.09
381.26	1057.92
381.46	938.55
381.65	961.96
381.85	983.02
382.04	1067.28
382.24	1018.13
382.43	1081.33
382.63	1036.86
382.83	1039.20
383.02	1186.65
383.22	1078.99
383.41	1027.50
383.61	1128.14
383.80	1104.73
384.00	1203.04
384.19	1135.16
384.39	1184.31
384.58	1158.57
384.78	1107.07
384.97	1142.18
385.17	1151.54
385.36	1198.35
385.56	1144.52
385.75	1170.27
385.95	1188.99
386.14	1156.22
386.34	1165.59
386.53	1249.85
386.72	1196.01
386.92	1308.36
387.11	1392.62
387.31	1289.64
387.50	1268.57
387.70	1156.22
387.89	1188.99
388.09	1231.12
388.28	1207.72
388.48	1291.98
388.67	1338.79
388.86	1327.08
389.06	1324.74
389.25	1493.26
389.45	1427.73
389.64	1425.39
389.84	1418.36
390.03	1526.03
390.22	1467.52
390.42	1425.39
390.61	1401.98
390.81	1418.36
391.00	1500.28
391.19	1502.62
391.39	1446.45
391.58	1448.79
391.78	1519.01
391.97	1582.20
392.16	1500.28
392.36	1629.01
392.55	1565.82
392.75	1586.88
392.94	1598.59
393.13	1572.84
393.33	1696.89
393.52	1591.56
393.71	1636.03
393.91	1612.63
394.10	1570.50
394.29	1771.79
394.49	1689.87
394.68	1680.50
394.88	1680.50
395.07	1727.32
395.26	1717.95
395.46	1741.36
395.65	1867.75
395.84	1895.83
396.04	1846.68
396.23	1853.70
396.42	1778.81
396.62	1792.85
396.81	1949.67
397.00	1949.67
397.19	1982.43
397.39	1933.28
397.58	1909.88
397.77	1954.35
397.97	1940.30
398.16	1888.81
398.35	2050.31
398.55	2150.95
398.74	2069.03
398.93	2132.23
399.12	1994.14
399.32	2069.03
399.51	2125.21
399.70	2186.06
399.90	2221.17
400.09	2186.06
400.28	2249.25
400.47	2218.83
400.67	2216.49
400.86	2272.66
401.05	2361.60
401.24	2385.01
401.44	2380.32
401.63	2401.39
401.82	2396.71
402.01	2363.94
402.21	2368.62
402.40	2420.11
402.59	2387.35
402.78	2401.39
402.97	2387.35
403.17	2525.44
403.36	2523.10
403.55	2478.63
403.74	2509.05
403.93	2689.28
404.13	2597.99
404.32	2626.08
404.51	2654.17
404.70	2642.46
404.89	2630.76
405.09	2834.39
405.28	2710.34
405.47	2759.49
405.66	2818.00
405.85	2722.04
406.05	2780.56
406.24	2867.16
406.43	2930.35
406.62	2892.90
406.81	2986.52
407.00	2860.13
407.20	2932.69
407.39	3021.63
407.58	3035.67
407.77	3038.02
407.96	3075.46
408.15	3070.78
408.34	3141.00
408.54	3098.87
408.73	3131.64
408.92	3162.06
409.11	3159.72
409.30	3211.22
409.49	3236.96
409.68	3251.00
409.87	3330.58
410.07	3461.65
410.26	3522.51
410.45	3300.16
410.64	3389.10
410.83	3562.30
411.02	3576.34
411.21	3646.55
411.40	3578.68
411.59	3653.58
411.78	3616.13
411.98	3693.37
412.17	3693.37
412.36	3655.92
412.55	3789.33
412.74	3803.37
412.93	3805.71
413.12	3826.78
413.31	4107.64
413.50	3885.29
413.69	3978.91
413.88	4091.26
414.07	4152.11
414.26	4243.39
414.45	4210.62
414.64	4283.18
414.83	4297.22
415.02	4414.25
415.22	4400.21
415.41	4423.61
415.60	4386.16
415.79	4472.76
415.98	4449.36
416.17	4542.98
416.36	4585.11
416.55	4699.80
416.74	4739.58
416.93	4657.67
417.12	4688.09
417.31	4821.50
417.50	4809.80
417.69	4924.49
417.88	4997.04
418.07	4894.06
418.26	4887.04
418.45	4844.91
418.64	5130.45
418.83	5184.29
419.02	4912.78
419.21	5165.56
419.39	5266.21
419.58	5128.11
419.77	5191.31
419.96	5125.77
420.15	5203.01
420.34	5214.71
420.53	5284.93
420.72	5387.91
420.91	5280.25
421.10	5561.11
421.29	5378.55
421.48	5376.21
421.67	5369.19
421.86	5490.90
422.05	5589.20
422.24	5472.17
422.43	5488.56
422.61	5675.80
422.80	5675.80
422.99	5589.20
423.18	5699.20
423.37	5659.42
423.56	5696.86
423.75	5504.94
423.94	5809.21
424.13	5291.95
424.32	5418.34
424.50	5856.02
424.69	5771.76
424.88	5827.93
425.07	5738.99
425.26	5736.65
425.45	5554.09
425.64	5713.25
425.83	5731.97
426.01	5944.96
426.20	5699.20
426.39	5891.13
426.58	5888.79
426.77	5820.91
426.96	5879.43
427.15	5886.45
427.33	6036.24
427.52	5963.68
427.71	5881.77
427.90	6094.76
428.09	6106.46
428.28	6015.18
428.46	6017.52
428.65	6291.36
428.84	6408.39
429.03	6445.84
429.22	6211.78
429.40	6216.46
429.59	6190.72
429.78	5998.79
429.97	5877.09
430.16	6239.87
430.34	6544.14
430.53	6525.41
430.72	6389.66
430.91	6349.87
431.10	6483.28
431.28	6665.85
431.47	6623.72
431.66	6782.87
431.85	6750.10
432.03	6825.00
432.22	6850.75
432.41	6726.70
432.60	6846.07
432.79	6890.54
432.97	6888.20
433.16	6792.23
433.35	6979.48
433.54	7026.29
433.72	7178.42
433.91	6899.90
434.10	7124.59
434.28	7056.72
434.47	7131.61
434.66	7220.55
434.85	7260.34
435.03	7309.49
435.22	7307.15
435.41	7339.92
435.59	7403.11
435.78	7550.57
435.97	7513.12
436.16	7449.93
436.34	7552.91
436.53	7478.01
436.72	7688.66
436.90	7564.61
437.09	7698.02
437.28	7676.96
437.46	7700.36
437.65	7754.19
437.84	7761.22
438.02	7817.39
438.21	7852.50
438.40	7789.30
438.58	8278.47
438.77	8140.38
438.96	7913.35
439.14	8285.50
439.33	8351.03
439.52	8329.97
439.70	8451.67
439.89	8468.06
440.08	8360.39
440.26	8760.63
440.45	8589.77
440.63	8788.71
440.82	8945.53
441.01	8858.93
441.19	8777.01
441.38	8922.12
441.57	8945.53
441.75	9048.51
441.94	9411.29
442.12	9092.98
442.31	9359.80
442.50	9521.30
442.68	9291.93
442.87	9371.50
443.05	9322.35
443.24	9469.81
443.43	9488.53
443.61	9638.33
443.80	9778.76
443.98	9479.17
444.17	9282.56
444.35	9437.04
444.54	9727.27
444.73	9813.87
444.91	9769.40
445.10	9823.23
445.28	9666.41
445.47	9643.01
445.65	9635.99
445.84	10005.79
446.02	9886.42
446.21	9848.97
446.39	9685.14
446.58	9755.35
446.77	9935.57
446.95	9731.95
447.14	9987.07
447.32	9970.68
447.51	9863.02
447.69	10031.54
447.88	9834.93
448.06	9996.43
448.25	9977.70
448.43	9886.42
448.62	9762.37
448.80	9975.36
448.99	9991.75
449.17	10310.06
449.36	10094.73
449.54	10527.73
449.73	10335.81
449.91	10342.83
450.10	10480.92
450.28	10576.88
450.46	10654.12
450.65	10466.88
450.83	10483.26
451.02	10504.32
451.20	10562.84
451.39	10586.24
451.57	10721.99
451.76	10663.48
451.94	10949.03
452.13	10956.05
452.31	10911.58
452.49	10590.92
452.68	10815.62
452.86	11040.31
453.05	10993.50
453.23	11243.93
453.42	11077.76
453.60	11028.60
453.78	11075.42
453.97	11000.52
454.15	10869.45
454.34	11281.38
454.52	11403.09
454.70	11178.40
454.89	11597.35
455.07	11398.41
455.26	11201.80
455.44	11524.80
455.62	11470.97
455.81	11616.08
455.99	11623.10
456.17	11800.98
456.36	11798.64
456.54	12135.68
456.73	11880.56
456.91	12285.47
457.09	12236.32
457.28	12461.01
457.46	12109.93
457.64	12446.97
457.83	12367.39
458.01	12264.41
458.19	12369.73
458.38	12339.30
458.56	12615.49
458.74	12505.48
458.93	12498.46
459.11	12666.98
459.29	12830.82
459.48	12606.13
459.66	12564.00
459.84	12734.85
460.03	13088.28
460.21	12765.28
460.39	12798.05
460.57	12847.20
460.76	12936.14
460.94	13212.32
461.12	13359.78
461.31	13181.90
461.49	13104.66
461.67	12954.87
461.85	13385.52
462.04	13252.11
462.22	13984.70
462.40	13493.19
462.59	13390.20
462.77	13652.34
462.95	13617.24
463.13	13694.47
463.32	13610.22
463.50	14001.08
463.68	13689.79
463.86	13755.33
464.05	13750.65
464.23	13853.63
464.41	14153.22
464.59	13493.19
464.78	14012.79
464.96	13881.72
465.14	13699.16
465.32	14310.04
465.50	14312.38
465.69	14466.85
465.87	14214.07
466.05	14277.27
466.23	14214.07
466.41	14420.04
466.60	14906.87
466.78	14326.42
466.96	14335.78
467.14	14377.91
467.32	14719.63
467.51	14689.20
467.69	14427.06
467.87	14597.92
468.05	14932.62
468.23	14747.72
468.41	14618.99
468.60	14974.75
468.78	15063.69
468.96	14782.82
469.14	15094.11
469.32	15108.16
469.50	14899.85
469.69	15332.85
469.87	15487.32
470.05	15410.09
470.23	15372.64
470.41	15527.11
470.59	15658.18
470.77	15372.64
470.95	15735.42
471.14	15751.81
471.32	15447.54
471.50	15892.24
471.68	16212.89
471.86	16074.80
472.04	16072.46
472.22	16631.85
472.40	16152.04
472.58	16320.56
472.77	16500.78
472.95	16390.77
473.13	17109.32
473.31	16411.84
473.49	16699.72
473.67	16652.91
473.85	16840.15
474.03	17015.69
474.21	17153.79
474.39	17348.05
474.57	17224.00
474.75	17338.69
474.93	17542.32
475.12	17474.44
475.30	17900.42
475.48	17535.29
475.66	17673.39
475.84	18157.88
476.02	18207.03
476.20	18129.79
476.38	18611.94
476.56	18981.74
476.74	18803.86
476.92	18408.31
477.10	18747.69
477.28	19051.96
477.46	19037.92
477.64	19042.60
477.82	19735.40
478.00	19784.55
478.18	19880.51
478.36	19974.13
478.54	20212.87
478.72	20435.22
478.90	20383.73
479.08	20723.10
479.26	20910.35
479.44	21062.48
479.62	21064.82
479.80	21350.37
479.98	21221.64
480.16	22050.19
480.34	22031.46
480.52	22003.38
480.70	22097.00
480.88	21839.54
481.06	22272.54
481.24	22279.56
481.41	22586.17
481.59	22740.64
481.77	23117.47
481.95	23101.09
482.13	23283.65
482.31	23318.76
482.49	23878.15
482.67	23552.81
482.85	24177.73
483.03	24482.00
483.21	24802.66
483.39	24622.44
483.57	24723.08
483.74	25254.38
483.92	25582.06
484.10	25069.48
484.28	25916.75
484.46	25930.80
484.64	26370.82
484.82	26143.78
485.00	26199.96
485.18	26691.47
485.35	26883.39
485.53	27072.98
485.71	26995.74
485.89	27943.66
486.07	27257.88
486.25	27637.05
486.43	28011.53
486.61	28128.56
486.78	28662.20
486.96	28634.11
487.14	29200.52
487.32	28907.96
487.50	29345.64
487.68	29326.91
487.85	29717.78
488.03	30405.90
488.21	30431.65
488.39	31246.15
488.57	30782.73
488.75	30913.80
488.92	31398.29
489.10	31622.98
489.28	31742.35
489.46	32123.85
489.64	31838.31
489.81	32924.32
489.99	32896.23
490.17	32842.40
490.35	33223.90
490.53	33453.28
490.70	33926.07
490.88	33546.90
491.06	34064.16
491.24	34129.69
491.41	34583.76
491.59	34635.25
491.77	34852.92
491.95	35192.30
492.13	35580.82
492.30	35274.21
492.48	35477.84
492.66	35976.37
492.84	35896.80
493.01	36444.48
493.19	36418.74
493.37	37298.78
493.54	36931.31
493.72	37429.85
493.90	37053.02
494.08	37736.46
494.25	37816.04
494.43	37928.38
494.61	38417.55
494.79	38345.00
494.96	38684.37
495.14	38988.64
495.32	39140.78
495.49	38883.32
495.67	39288.23
495.85	39777.40
496.02	39964.65
496.20	40219.77
496.38	40498.29
496.55	40355.52
496.73	41422.80
496.91	40980.44
497.09	41240.24
497.26	41331.52
497.44	41090.44
497.62	41371.31
497.79	41865.16
497.97	41855.80
498.14	42721.80
498.32	42897.34
498.50	42756.91
498.67	42911.38
498.85	42834.14
499.03	43150.12
499.20	43386.51
499.38	43372.47
499.56	43789.08
499.73	44259.53
499.91	44016.11
500.08	44619.97
500.26	43948.24
500.44	44425.71
500.61	44203.36
500.79	44390.60
500.97	44697.21
501.14	45443.84
501.32	45457.88
501.49	45429.80
501.67	45450.86
501.84	45783.22
502.02	45815.99
502.20	46141.32
502.37	46174.09
502.55	46307.50
502.72	46426.87
502.90	46382.40
503.07	46600.07
503.25	46579.00
503.43	46696.03
503.60	47178.18
503.78	46885.61
503.95	47199.24
504.13	47398.19
504.30	47386.49
504.48	47466.06
504.65	47866.30
504.83	47739.91
505.01	48538.03
505.18	48083.97
505.36	48491.22
505.53	48243.12
505.71	48350.79
505.88	48650.38
506.06	48217.38
506.23	49137.21
506.41	49099.76
506.58	49109.12
506.76	48952.30
506.93	49162.95
507.11	49003.80
507.28	49614.68
507.46	49804.26
507.63	50195.13
507.81	50328.54
507.98	49748.09
508.16	49954.05
508.33	50403.44
508.50	49970.44
508.68	50300.45
508.85	50838.78
509.03	50677.28
509.20	50564.93
509.38	50887.93
509.55	50925.38
509.73	51239.01
509.90	51047.08
510.08	50925.38
510.25	51007.29
510.42	51475.40
510.60	51721.16
510.77	51632.22
510.95	51470.72
511.12	51613.49
511.30	51882.66
511.47	52055.85
511.64	51800.74
511.82	52439.70
511.99	51805.42
512.17	52369.49
512.34	52282.89
512.51	52350.76
512.69	52526.30
512.86	52629.29
513.04	52835.25
513.21	52903.13
513.38	52935.90
513.56	53034.20
513.73	52907.81
513.90	53001.43
514.08	53001.43
514.25	53436.77
514.43	53528.05
514.60	53460.18
514.77	53418.05
514.95	53673.16
515.12	53551.46
515.29	53549.12
515.47	53876.79
515.64	54232.55
515.81	53680.19
515.99	54195.10
516.16	54466.61
516.33	54445.54
516.51	54403.41
516.68	54106.16
516.85	54227.87
517.03	54571.93
517.20	54436.18
517.37	54569.59
517.54	54908.97
517.72	54817.69
517.89	54735.77
518.06	54791.94
518.24	54703.00
518.41	54862.16
518.58	55105.57
518.75	55152.38
518.93	55224.94
519.10	55353.67
519.27	55512.83
519.45	55292.82
519.62	55686.03
519.79	55454.31
519.96	55318.56
520.14	55903.70
520.31	55707.09
520.48	55786.67
520.65	55936.46
520.83	55903.70
521.00	56018.38
521.17	55884.97
521.34	56018.38
521.52	56109.66
521.69	56179.88
521.86	56423.29
522.03	56392.87
522.20	56310.95
522.38	56446.70
522.55	56533.30
522.72	56498.19
522.89	56605.86
523.07	56800.12
523.24	56802.46
523.41	57031.83
523.58	56523.94
523.75	56947.57
523.92	56736.93
524.10	56966.30
524.27	57008.43
524.44	57085.67
524.61	57418.02
524.78	57272.91
524.96	57396.96
525.13	57343.12
525.30	57380.57
525.47	57499.94
525.64	57485.90
525.81	57673.14
525.98	57829.96
526.16	57673.14
526.33	57668.46
526.50	57895.49
526.67	57492.92
526.84	57586.54
527.01	57839.32
527.18	57829.96
527.36	57872.09
527.53	57998.48
527.70	58166.99
527.87	58183.38
528.04	57975.07
528.21	58120.18
528.38	58176.36
528.55	58195.08
528.72	58340.19
528.89	58422.11
529.07	58305.09
529.24	58305.09
529.41	58391.68
529.58	58513.39
529.75	58384.66
529.92	58513.39
530.09	58597.65
530.26	58866.81
530.43	58812.98
530.60	58705.32
530.77	58653.82
530.94	58997.88
531.11	58628.08
531.28	58784.90
531.46	58707.66
531.63	59032.99
531.80	59180.45
531.97	59124.27
532.14	59194.49
532.31	59093.85
532.48	59030.65
532.65	59276.41
532.82	58981.50
532.99	59348.96
533.16	59311.52
533.33	59613.44
533.50	59739.83
533.67	59526.84
533.84	59533.87
534.01	59412.16
534.18	59461.31
534.35	59449.61
534.52	59573.66
534.69	59866.22
534.86	59887.29
535.03	59674.30
535.20	59826.43
535.37	59718.77
535.54	60011.34
535.71	59894.31
535.88	59856.86
536.05	59994.95
536.22	59913.03
536.38	60079.21
536.55	60055.81
536.72	60020.70
536.89	59913.03
537.06	60065.17
537.23	60079.21
537.40	60067.51
537.57	60191.56
537.74	60156.45
537.91	60568.38
538.08	60364.76
538.25	60374.12
538.42	60376.46
538.59	60491.15
538.75	60172.83
538.92	60439.65
539.09	60612.85
539.26	60512.21
539.43	60575.40
539.60	60664.35
539.77	60591.79
539.94	60830.52
540.11	60814.14
540.28	60734.56
540.44	60711.16
540.61	60743.92
540.78	60935.85
540.95	60865.63
541.12	60949.89
541.29	60996.70
541.46	60807.12
541.62	60874.99
541.79	60898.40
541.96	60797.76
542.13	60790.73
542.30	61069.26
542.47	61148.84
542.63	61219.05
542.80	61298.63
542.97	61357.14
543.14	61537.36
543.31	61249.48
543.48	61495.24
543.64	61724.61
543.81	61499.92
543.98	61661.41
544.15	61638.01
544.32	61790.14
544.48	61750.35
544.65	61698.86
544.82	61619.28
544.99	61581.84
545.16	61843.98
545.32	61717.59
545.49	61928.23
545.66	61895.47
545.83	61867.38
546.00	62108.46
546.16	61827.59
546.33	61666.09
546.50	61539.71
546.67	61951.64
546.83	61558.43
547.00	62028.88
547.17	62024.20
547.34	61991.43
547.50	62106.12
547.67	62342.51
547.84	62176.33
548.00	62316.76
548.17	62401.02
548.34	62063.99
548.51	62365.91
548.67	62391.66
548.84	62326.13
549.01	62361.23
549.18	62436.13
549.34	62281.66
549.51	62244.21
549.68	62248.89
549.84	62370.60
550.01	62555.50
550.18	62433.79
550.34	62691.25
550.51	62644.44
550.68	62670.18
550.84	62358.89
551.01	62555.50
551.18	62424.43
551.34	62569.54
551.51	62630.40
551.68	62789.55
551.84	62822.32
552.01	62651.46
552.18	63014.24
552.34	62609.33
552.51	62986.16
552.68	62756.78
552.84	62768.49
553.01	62997.86
553.18	62925.30
553.34	62960.41
553.51	62948.71
553.67	63124.25
553.84	63056.37
554.01	63229.57
554.17	63201.49
554.34	63070.42
554.51	63058.71
554.67	63203.83
554.84	63182.76
555.00	63166.38
555.17	63049.35
555.33	63288.09
555.50	63124.25
555.67	63079.78
555.83	63231.91
556.00	63339.58
556.16	63309.15
556.33	63138.29
556.50	63250.64
556.66	63484.69
556.83	63196.80
556.99	63622.78
557.16	63463.63
557.32	63353.62
557.49	63496.39
557.65	63344.26
557.82	63449.58
557.98	63552.57
558.15	63362.98
558.32	63667.25
558.48	63627.46
558.65	63690.66
558.81	63751.51
558.98	63735.13
559.14	63606.40
559.31	63442.56
559.47	63660.23
559.64	63671.93
559.80	63695.34
559.97	63707.04
560.13	63601.72
560.30	63875.56
560.46	63786.62
560.63	63791.30
560.79	63831.09
560.96	63884.92
561.12	63945.78
561.29	63758.53
561.45	63840.45
561.61	63838.11
561.78	63950.46
561.94	63833.43
562.11	63976.20
562.27	63732.79
562.44	63662.57
562.60	63779.60
562.77	63821.73
562.93	63873.22
563.10	64228.98
563.26	63821.73
563.42	64062.80
563.59	64126.00
563.75	64018.33
563.92	64154.08
564.08	64027.70
564.24	64144.72
564.41	63950.46
564.57	64020.67
564.74	64065.14
564.90	64231.32
565.07	64015.99
565.23	64221.96
565.39	64065.14
565.56	64205.58
565.72	64032.38
565.88	64109.61
566.05	64165.79
566.21	64069.82
566.38	64144.72
566.54	64303.88
566.70	64357.71
566.87	64219.62
567.03	64079.19
567.19	64591.76
567.36	64221.96
567.52	64210.26
567.68	64264.09
567.85	64093.23
568.01	64081.53
568.17	64264.09
568.34	64551.98
568.50	64362.39
568.66	64502.82
568.83	64430.27
568.99	64306.22
569.15	64353.03
569.32	64193.87
569.48	64100.25
569.64	64413.88
569.81	64444.31
569.97	64458.35
570.13	64465.38
570.30	64383.46
570.46	64453.67
570.62	64266.43
570.78	64397.50
570.95	64268.77
571.11	64481.76
571.27	64278.13
571.43	64322.60
571.60	64474.74
571.76	64432.61
571.92	64699.43
572.09	64680.70
572.25	64486.44
572.41	64718.15
572.57	64399.84
572.74	64638.57
572.90	64512.19
573.06	64409.20
573.22	64575.38
573.38	64505.16
573.55	64521.55
573.71	64732.20
573.87	64851.56
574.03	64570.70
574.20	64514.53
574.36	64526.23
574.52	64598.79
574.68	64460.69
574.84	64640.92
575.01	64776.67
575.17	64704.11
575.33	64774.33
575.49	64626.87
575.65	64715.81
575.82	64722.83
575.98	64708.79
576.14	64704.11
576.30	64570.70
576.46	64547.29
576.62	64748.58
576.79	64493.46
576.95	64591.76
577.11	64598.79
577.27	64750.92
577.43	64736.88
577.59	64544.95
577.75	64706.45
577.92	64559.00
578.08	64561.34
578.24	64694.75
578.40	64718.15
578.56	64722.83
578.72	64842.20
578.88	64954.55
579.04	64910.08
579.21	64781.35
579.37	64722.83
579.53	64825.82
579.69	64734.54
579.85	64711.13
580.01	64687.73
580.17	64690.07
580.33	64821.14
580.49	64889.01
580.65	65041.15
580.82	64879.65
580.98	64797.73
581.14	64896.03
581.30	64996.68
581.46	64835.18
581.62	64837.52
581.78	64636.23
581.94	64638.57
582.10	64736.88
582.26	64837.52
582.42	64910.08
582.58	64919.44
582.74	64870.29
582.90	64849.22
583.06	65111.36
583.22	64647.94
583.38	64706.45
583.54	64870.29
583.70	64809.43
583.86	64835.18
584.02	64949.87
584.18	65003.70
584.34	64996.68
584.50	64865.61
584.66	64889.01
584.82	64713.47
584.98	64942.84
585.14	65045.83
585.30	64725.17
585.46	64879.65
585.62	64786.03
585.78	65162.85
585.94	64741.56
586.10	64961.57
586.26	65008.38
586.42	65034.13
586.58	65048.17
586.74	64839.86
586.90	64816.46
587.06	64825.82
587.22	64942.84
587.38	64760.28
587.54	65242.43
587.70	65104.34
587.86	65057.53
588.02	65020.08
588.18	65212.01
588.34	65027.10
588.49	65062.21
