SpectraSuite Data File
++++++++++++++++++++++++++++++++++++
Date: Fri Oct 04 11:48:36 GMT-05:00 2013
User: price-jones
Dark Spectrum Present: No
Reference Spectrum Present: No
Number of Sampled Component Spectra: 1
Spectrometers: USB2+H05261
Integration Time (usec): 100000 (USB2+H05261)
Spectra Averaged: 1 (USB2+H05261)
Boxcar Smoothing: 0 (USB2+H05261)
Correct for Electrical Dark: No (USB2+H05261)
Strobe/Lamp Enabled: No (USB2+H05261)
Correct for Detector Non-linearity: No (USB2+H05261)
Correct for Stray Light: No (USB2+H05261)
Number of Pixels in Processed Spectrum: 2048
>>>>>Begin Processed Spectral Data<<<<<
365.73	4.68
365.92	4.68
366.12	4.68
366.32	0.00
366.52	0.00
366.72	0.00
366.91	0.00
367.11	0.00
367.31	0.00
367.51	0.00
367.70	0.00
367.90	0.00
368.10	0.00
368.30	7.02
368.49	0.00
368.69	0.00
368.89	0.00
369.09	0.00
369.28	0.00
369.48	0.00
369.68	0.00
369.87	0.00
370.07	0.00
370.27	98.30
370.47	84.26
370.66	245.76
370.86	243.42
371.06	344.06
371.25	262.14
371.45	290.23
371.65	292.57
371.84	294.91
372.04	238.73
372.24	330.02
372.44	327.68
372.63	365.12
372.83	341.72
373.03	353.42
373.22	264.48
373.42	332.36
373.62	297.25
373.81	395.55
374.01	379.17
374.21	430.66
374.40	327.68
374.60	400.23
374.79	421.30
374.99	390.87
375.19	423.64
375.38	404.91
375.58	367.46
375.78	486.83
375.97	369.80
376.17	421.30
376.37	294.91
376.56	430.66
376.76	355.76
376.95	379.17
377.15	423.64
377.35	383.85
377.54	433.00
377.74	379.17
377.93	468.11
378.13	461.09
378.33	449.38
378.52	423.64
378.72	430.66
378.91	430.66
379.11	414.27
379.31	514.92
379.50	411.93
379.70	416.62
379.89	442.36
380.09	386.19
380.28	397.89
380.48	475.13
380.68	407.25
380.87	425.98
381.07	454.06
381.26	512.58
381.46	430.66
381.65	526.62
381.85	477.47
382.04	451.72
382.24	535.98
382.43	437.68
382.63	428.32
382.83	496.19
383.02	540.66
383.22	564.07
383.41	486.83
383.61	538.32
383.80	561.73
384.00	571.09
384.19	531.30
384.39	521.94
384.58	512.58
384.78	561.73
384.97	526.62
385.17	512.58
385.36	545.34
385.56	594.50
385.75	519.60
385.95	540.66
386.14	606.20
386.34	566.41
386.53	557.05
386.72	524.28
386.92	643.65
387.11	636.63
387.31	599.18
387.50	594.50
387.70	540.66
387.89	571.09
388.09	601.52
388.28	636.63
388.48	552.37
388.67	627.26
388.86	711.52
389.06	610.88
389.25	671.73
389.45	657.69
389.64	657.69
389.84	620.24
390.03	653.01
390.22	685.78
390.42	699.82
390.61	627.26
390.81	655.35
391.00	690.46
391.19	791.10
391.39	770.04
391.58	734.93
391.78	732.59
391.97	650.67
392.16	711.52
392.36	758.33
392.55	671.73
392.75	805.14
392.94	791.10
393.13	868.34
393.33	723.23
393.52	737.27
393.71	793.44
393.91	793.44
394.10	786.42
394.29	814.51
394.49	760.67
394.68	819.19
394.88	880.04
395.07	858.98
395.26	784.08
395.46	877.70
395.65	971.32
395.84	880.04
396.04	952.60
396.23	887.06
396.42	823.87
396.62	905.79
396.81	908.13
397.00	870.68
397.19	926.85
397.39	943.24
397.58	870.68
397.77	1029.84
397.97	976.00
398.16	961.96
398.35	978.34
398.55	983.02
398.74	875.36
398.93	1022.81
399.12	1022.81
399.32	894.08
399.51	1029.84
399.70	1071.97
399.90	1060.26
400.09	1053.24
400.28	1177.29
400.47	1100.05
400.67	1188.99
400.86	1123.46
401.05	1125.80
401.24	1196.01
401.44	1186.65
401.63	1200.69
401.82	1249.85
402.01	1158.57
402.21	1196.01
402.40	1196.01
402.59	1207.72
402.78	1249.85
402.97	1181.97
403.17	1221.76
403.36	1287.29
403.55	1348.15
403.74	1373.89
403.93	1306.02
404.13	1392.62
404.32	1301.34
404.51	1387.94
404.70	1376.24
404.89	1378.58
405.09	1359.85
405.28	1425.39
405.47	1481.56
405.66	1486.24
405.85	1390.28
406.05	1430.07
406.24	1507.30
406.43	1469.86
406.62	1619.65
406.81	1626.67
407.00	1638.38
407.20	1621.99
407.39	1575.18
407.58	1600.93
407.77	1666.46
407.96	1757.74
408.15	1750.72
408.34	1685.19
408.54	1755.40
408.73	1708.59
408.92	1713.27
409.11	1802.21
409.30	1870.09
409.49	1820.94
409.68	1856.04
409.87	1818.60
410.07	1879.45
410.26	1874.77
410.45	1928.60
410.64	1827.96
410.83	1954.35
411.02	1860.73
411.21	1902.86
411.40	1912.22
411.59	2010.52
411.78	2031.58
411.98	2120.53
412.17	2097.12
412.36	2066.69
412.55	2232.87
412.74	2207.13
412.93	2179.04
413.12	2029.24
413.31	2129.89
413.50	2228.19
413.69	2310.11
413.88	2389.69
414.07	2410.75
414.26	2289.04
414.45	2441.18
414.64	2441.18
414.83	2565.23
415.02	2497.35
415.22	2495.01
415.41	2597.99
415.60	2623.74
415.79	2509.05
415.98	2654.17
416.17	2689.28
416.36	2558.21
416.55	2576.93
416.74	2726.72
416.93	2672.89
417.12	2771.19
417.31	2759.49
417.50	2768.85
417.69	2883.54
417.88	2899.92
418.07	2977.16
418.26	2885.88
418.45	3002.91
418.64	3021.63
418.83	3000.57
419.02	2974.82
419.21	3077.80
419.39	2897.58
419.58	2951.42
419.77	3087.17
419.96	3131.64
420.15	3056.74
420.34	3206.53
420.53	3061.42
420.72	3183.13
420.91	3183.13
421.10	3227.60
421.29	3251.00
421.48	3358.67
421.67	3260.37
421.86	3351.65
422.05	3332.92
422.24	3375.05
422.43	3236.96
422.61	3375.05
422.80	3279.09
422.99	3379.73
423.18	3290.79
423.37	3393.78
423.56	3253.34
423.75	3279.09
423.94	3255.69
424.13	3068.44
424.32	3166.74
424.50	3281.43
424.69	3461.65
424.88	3482.72
425.07	3272.07
425.26	3405.48
425.45	3433.57
425.64	3375.05
425.83	3501.44
426.01	3552.93
426.20	3440.59
426.39	3529.53
426.58	3332.92
426.77	3513.14
426.96	3545.91
427.15	3494.42
427.33	3515.48
427.52	3487.40
427.71	3618.47
427.90	3562.30
428.09	3557.61
428.28	3693.37
428.46	3634.85
428.65	3756.56
428.84	3726.13
429.03	3798.69
429.22	3625.49
429.40	3847.84
429.59	3875.93
429.78	3562.30
429.97	3588.04
430.16	3705.07
430.34	3777.62
430.53	3889.97
430.72	3946.14
430.91	3854.86
431.10	3822.09
431.28	3978.91
431.47	4081.89
431.66	4011.68
431.85	3812.73
432.03	4049.13
432.22	4177.86
432.41	3904.01
432.60	4049.13
432.79	4126.36
432.97	4100.62
433.16	4107.64
433.35	4124.02
433.54	4133.39
433.72	4159.13
433.91	4175.52
434.10	4114.66
434.28	4243.39
434.47	4166.15
434.66	4285.52
434.85	4276.16
435.03	4287.86
435.22	4322.97
435.41	4535.96
435.59	4430.63
435.78	4344.03
435.97	4409.57
436.16	4428.29
436.34	4435.32
436.53	4470.42
436.72	4542.98
436.90	4538.30
437.09	4751.29
437.28	4519.57
437.46	4547.66
437.65	4580.43
437.84	4641.28
438.02	4650.64
438.21	4622.56
438.40	4601.49
438.58	4779.37
438.77	4725.54
438.96	4774.69
439.14	4952.57
439.33	4889.38
439.52	5008.75
439.70	5100.03
439.89	4877.68
440.08	4990.02
440.26	5018.11
440.45	5109.39
440.63	5090.67
440.82	5074.28
441.01	5322.38
441.19	5231.10
441.38	5107.05
441.57	5359.83
441.75	5329.40
441.94	5401.96
442.12	5350.46
442.31	5479.19
442.50	5497.92
442.68	5423.02
442.87	5479.19
443.05	5509.62
443.24	5757.72
443.43	5530.69
443.61	5577.50
443.80	5797.51
443.98	5490.90
444.17	5488.56
444.35	5699.20
444.54	5687.50
444.73	5659.42
444.91	5626.65
445.10	5727.29
445.28	5528.35
445.47	5650.05
445.65	5603.24
445.84	5572.82
446.02	5928.58
446.21	5652.39
446.39	5738.99
446.58	5753.04
446.77	5750.70
446.95	5703.89
447.14	5951.98
447.32	5860.70
447.51	5818.57
447.69	5757.72
447.88	5811.55
448.06	5858.36
448.25	5916.87
448.43	6054.97
448.62	5755.38
448.80	5844.32
448.99	5959.00
449.17	5914.53
449.36	5933.26
449.54	6043.26
449.73	5921.56
449.91	6211.78
450.10	6139.23
450.28	6197.74
450.46	6176.67
450.65	6204.76
450.83	6239.87
451.02	6197.74
451.20	6260.93
451.39	6202.42
451.57	6260.93
451.76	6076.03
451.94	6370.94
452.13	6345.19
452.31	6392.00
452.49	6347.53
452.68	6478.60
452.86	6406.05
453.05	6698.61
453.23	6520.73
453.42	6389.66
453.60	6633.08
453.78	6434.13
453.97	6413.07
454.15	6349.87
454.34	6530.09
454.52	6771.17
454.70	6647.12
454.89	6642.44
455.07	6590.95
455.26	6761.81
455.44	6752.45
455.62	6682.23
455.81	6703.29
455.99	6787.55
456.17	6902.24
456.36	6820.32
456.54	6963.09
456.73	6949.05
456.91	7084.80
457.09	7014.59
457.28	7054.37
457.46	6967.77
457.64	7311.83
457.83	7178.42
458.01	7178.42
458.19	7126.93
458.38	7150.34
458.56	7250.98
458.74	7220.55
458.93	7279.07
459.11	7337.58
459.29	7229.91
459.48	7330.56
459.66	7520.14
459.84	7543.55
460.03	7620.78
460.21	7386.73
460.39	7384.39
460.57	7426.52
460.76	7847.82
460.94	7611.42
461.12	7578.65
461.31	7541.21
461.49	7623.12
461.67	7660.57
461.85	7688.66
462.04	7733.13
462.22	8145.06
462.40	7754.19
462.59	7627.81
462.77	7957.82
462.95	7866.54
463.13	7698.02
463.32	7899.31
463.50	8009.31
463.68	7936.76
463.86	8044.42
464.05	7878.24
464.23	8161.45
464.41	8046.76
464.59	7974.21
464.78	8168.47
464.96	7960.16
465.14	8074.85
465.32	8189.53
465.50	8168.47
465.69	8294.86
465.87	8072.51
466.05	8252.73
466.23	8060.80
466.41	8313.58
466.60	8627.21
466.78	8248.05
466.96	8088.89
467.14	8479.76
467.32	8423.59
467.51	8456.36
467.69	8290.18
467.87	8383.80
468.05	8486.78
468.23	8442.31
468.41	8367.42
468.60	8549.98
468.78	8575.72
468.96	8781.69
469.14	8559.34
469.32	8683.39
469.50	8468.06
469.69	8667.00
469.87	8788.71
470.05	8711.47
470.23	8849.57
470.41	8922.12
470.59	8865.95
470.77	8933.82
470.95	8997.02
471.14	9043.83
471.32	9057.87
471.50	9123.41
471.68	9397.25
471.86	9338.74
472.04	9095.32
472.22	9408.95
472.40	9144.47
472.58	9387.89
472.77	9357.46
472.95	9647.69
473.13	9645.35
473.31	9444.06
473.49	9226.39
473.67	9753.01
473.85	9525.98
474.03	9621.94
474.21	9755.35
474.39	9886.42
474.57	9818.55
474.75	9877.06
474.93	10106.43
475.12	10045.58
475.30	10178.99
475.48	9928.55
475.66	10085.37
475.84	10087.71
476.02	10338.15
476.20	10296.02
476.38	10417.72
476.56	10626.03
476.74	10700.93
476.92	10361.55
477.10	10616.67
477.28	11133.93
477.46	10789.87
477.64	11054.35
477.82	11171.38
478.00	11398.41
478.18	11342.24
478.36	11365.64
478.54	11576.29
478.72	11751.83
478.90	11482.67
479.08	11728.42
479.26	11798.64
479.44	11810.34
479.62	12135.68
479.80	12088.87
479.98	11854.81
480.16	12163.76
480.34	12278.45
480.52	12329.94
480.70	12805.07
480.88	12290.15
481.06	12397.82
481.24	12395.48
481.41	12596.76
481.59	12826.14
481.77	12877.63
481.95	13020.40
482.13	13121.04
482.31	13275.52
482.49	13479.15
482.67	13383.18
482.85	13568.09
483.03	13909.80
483.21	13940.23
483.39	14101.73
483.57	13680.43
483.74	14057.26
483.92	14342.80
484.10	14211.73
484.28	14459.83
484.46	14637.71
484.64	15016.88
484.82	14621.33
485.00	14876.44
485.18	15000.49
485.35	15541.16
485.53	15384.34
485.71	15145.61
485.89	15784.57
486.07	15520.09
486.25	15459.24
486.43	15515.41
486.61	15960.11
486.78	15969.48
486.96	15831.38
487.14	16489.07
487.32	16510.14
487.50	16610.78
487.68	16793.34
487.85	16929.09
488.03	17191.23
488.21	17043.78
488.39	17118.68
488.57	17235.70
488.75	17476.78
488.92	17689.77
489.10	17771.69
489.28	17652.32
489.46	17914.46
489.64	18005.74
489.81	18291.29
489.99	18380.23
490.17	18560.45
490.35	18822.59
490.53	18766.42
490.70	19040.26
490.88	19021.53
491.06	19185.37
491.24	19314.10
491.41	19094.09
491.59	19470.92
491.77	19506.02
491.95	19562.20
492.13	20056.05
492.30	19822.00
492.48	19716.67
492.66	20051.37
492.84	20154.35
493.01	20362.66
493.19	20219.89
493.37	20608.42
493.54	20695.02
493.72	20973.54
493.90	20587.35
494.08	21057.80
494.25	21235.68
494.43	21610.17
494.61	21376.11
494.79	21612.51
494.96	21649.96
495.14	21935.50
495.32	21633.57
495.49	22120.40
495.67	22239.77
495.85	22459.78
496.02	22686.81
496.20	22686.81
496.38	22424.67
496.55	22459.78
496.73	23124.49
496.91	22963.00
497.09	22939.59
497.26	23398.34
497.44	23175.98
497.62	23278.97
497.79	23527.06
497.97	23325.78
498.14	23730.69
498.32	23957.72
498.50	23892.19
498.67	24327.53
498.85	24184.76
499.03	24191.78
499.20	24254.97
499.38	24486.68
499.56	24713.72
499.73	24936.07
499.91	24900.96
500.08	24819.04
500.26	24648.18
500.44	25123.31
500.61	25221.61
500.79	24973.52
500.97	25439.28
501.14	25401.83
501.32	25465.03
501.49	25675.68
501.67	25518.86
501.84	25785.68
502.02	25624.18
502.20	25834.83
502.37	26026.76
502.55	26052.50
502.72	26279.54
502.90	26206.98
503.07	25881.64
503.25	26331.03
503.43	26211.66
503.60	26988.72
503.78	26471.46
503.95	26405.92
504.13	26789.77
504.30	26871.69
504.48	26806.16
504.65	26988.72
504.83	27505.98
505.01	27592.58
505.18	27019.14
505.36	27435.76
505.53	27274.26
505.71	27552.79
505.88	28027.92
506.06	27597.26
506.23	28051.32
506.41	27812.59
506.58	28212.82
506.76	28222.18
506.93	28109.83
507.11	28208.14
507.28	27985.79
507.46	28470.28
507.63	28425.81
507.81	28339.21
507.98	28774.55
508.16	28439.85
508.33	28589.64
508.50	28671.56
508.68	29270.74
508.85	29301.17
509.03	29139.67
509.20	29397.13
509.38	29670.97
509.55	29668.63
509.73	29567.99
509.90	29834.81
510.08	29390.11
510.25	29898.00
510.42	29855.87
510.60	29839.49
510.77	30047.80
510.95	30237.38
511.12	30005.67
511.30	30450.37
511.47	30382.49
511.64	30782.73
511.82	30808.47
511.99	30799.11
512.17	30611.87
512.34	30515.90
512.51	30932.52
512.69	31218.07
512.86	30974.65
513.04	31185.30
513.21	31372.54
513.38	31487.23
513.56	31374.88
513.73	31164.23
513.90	31697.88
514.08	31321.05
514.25	31683.83
514.43	31981.08
514.60	31913.20
514.77	32055.98
514.95	31744.69
515.12	32004.49
515.29	32376.63
515.47	32385.99
515.64	32521.74
515.81	32542.81
515.99	32711.33
516.16	32912.61
516.33	32924.32
516.51	32697.28
516.68	32758.14
516.85	32467.91
517.03	33144.33
517.20	32950.06
517.37	32861.12
517.54	33298.80
517.72	33319.87
517.89	33102.20
518.06	33291.78
518.24	33371.36
518.41	33181.77
518.58	33352.63
518.75	33160.71
518.93	34054.79
519.10	33453.28
519.27	34005.64
519.45	33689.67
519.62	33811.38
519.79	34094.58
519.96	33666.27
520.14	34576.73
520.31	33724.78
520.48	34000.96
520.65	34260.76
520.83	34043.09
521.00	34768.66
521.17	34499.50
521.34	34494.82
521.52	34850.58
521.69	34998.03
521.86	34925.47
522.03	35047.18
522.20	35033.14
522.38	34948.88
522.55	35477.84
522.72	34916.11
522.89	35494.22
523.07	35306.98
523.24	35372.52
523.41	34864.62
523.58	35168.89
523.75	35709.55
523.92	35662.74
524.10	35243.79
524.27	35896.80
524.44	35840.62
524.61	36081.70
524.78	36224.47
524.96	35707.21
525.13	35473.16
525.30	36004.46
525.47	36804.92
525.64	36828.33
525.81	36313.41
525.98	36346.18
526.16	36580.23
526.33	36041.91
526.50	36884.50
526.67	36329.80
526.84	36463.21
527.01	36624.70
527.18	37202.82
527.36	36903.23
527.53	37181.75
527.70	37031.96
527.87	37312.82
528.04	37237.92
528.21	37368.99
528.38	37120.90
528.55	37336.23
528.72	37621.77
528.89	37385.38
529.07	37518.79
529.24	37106.85
529.41	37853.48
529.58	37500.06
529.75	37368.99
529.92	37860.51
530.09	37532.83
530.26	37895.61
530.43	38115.62
530.60	37696.67
530.77	37797.31
530.94	37869.87
531.11	37942.42
531.28	37963.49
531.46	38087.54
531.63	38022.00
531.80	38284.14
531.97	38281.80
532.14	38689.06
532.31	38452.66
532.48	38363.72
532.65	38810.76
532.82	38396.49
532.99	38281.80
533.16	38649.27
533.33	38986.30
533.50	39210.99
533.67	38604.80
533.84	38417.55
534.01	38539.26
534.18	38623.52
534.35	39344.41
534.52	39133.76
534.69	39248.44
534.86	38981.62
535.03	39159.50
535.20	39173.55
535.37	39669.74
535.54	39299.94
535.71	38965.24
535.88	39510.58
536.05	39611.23
536.22	39754.00
536.38	40076.99
536.55	39700.17
536.72	39651.02
536.89	39555.05
537.06	39601.86
537.23	39985.71
537.40	39161.84
537.57	39866.34
537.74	39744.64
537.91	40652.76
538.08	39985.71
538.25	39910.82
538.42	39875.71
538.59	40105.08
538.75	39779.74
538.92	40069.97
539.09	40591.91
539.26	40517.01
539.43	40004.44
539.60	40903.20
539.77	40292.32
539.94	40605.95
540.11	40177.64
540.28	40641.06
540.44	40547.44
540.61	40184.66
540.78	41104.49
540.95	40730.00
541.12	40505.31
541.29	40910.22
541.46	40575.53
541.62	40807.24
541.79	40509.99
541.96	40781.49
542.13	41050.66
542.30	41254.28
542.47	41324.50
542.63	41247.26
542.80	41631.11
542.97	40985.12
543.14	41275.35
543.31	41600.68
543.48	41432.16
543.64	41572.60
543.81	41879.21
543.98	41935.38
544.15	41937.72
544.32	41851.12
544.48	42033.68
544.65	41682.60
544.82	41808.99
544.99	41563.23
545.16	41689.62
545.32	41961.12
545.49	42279.44
545.66	42354.33
545.83	42391.78
546.00	42548.60
546.16	42066.45
546.33	41926.02
546.50	41890.91
546.67	42227.95
546.83	41827.71
547.00	42356.67
547.17	42197.52
547.34	42560.30
547.50	42742.86
547.67	42546.26
547.84	42646.90
548.00	42223.26
548.17	43037.77
548.34	42593.07
548.51	42836.48
548.67	43239.06
548.84	42965.21
549.01	42756.91
549.18	42930.11
549.34	42920.74
549.51	43269.48
549.68	43065.86
549.84	42838.83
550.01	43007.34
550.18	42747.54
550.34	42979.26
550.51	43379.49
550.68	43012.02
550.84	43332.68
551.01	43173.52
551.18	42508.81
551.34	42930.11
551.51	43112.67
551.68	43358.42
551.84	43524.60
552.01	43320.98
552.18	43639.29
552.34	43643.97
552.51	43309.27
552.68	43093.94
552.84	43189.91
553.01	43746.95
553.18	43728.23
553.34	43700.14
553.51	44128.46
553.67	43412.26
553.84	43646.31
554.01	43943.56
554.17	43910.79
554.34	43676.74
554.51	43730.57
554.67	43578.43
554.84	44037.18
555.00	43784.40
555.17	43868.66
555.33	43952.92
555.50	43749.29
555.67	43761.00
555.83	43484.81
556.00	43658.01
556.16	44374.22
556.33	43819.51
556.50	44151.87
556.66	43896.75
556.83	44182.29
556.99	44287.62
557.16	44055.90
557.32	44502.95
557.49	44219.74
557.65	44088.67
557.82	43718.87
557.98	44081.65
558.15	44397.62
558.32	44474.86
558.48	44069.95
558.65	44416.35
558.81	44041.86
558.98	44362.51
559.14	44545.08
559.31	44240.81
559.47	44261.87
559.64	44790.83
559.80	44446.77
559.97	44790.83
560.13	44186.97
560.30	44669.12
560.46	44652.74
560.63	44404.64
560.79	44708.91
560.96	44229.10
561.12	44418.69
561.29	44545.08
561.45	44877.43
561.61	44769.77
561.78	44589.55
561.94	44816.58
562.11	44781.47
562.27	44505.29
562.44	44851.69
562.60	44664.44
562.77	44285.28
562.93	44526.35
563.10	44949.99
563.26	44566.14
563.42	45139.57
563.59	45200.43
563.75	45013.18
563.92	44966.37
564.08	44978.07
564.24	44442.09
564.41	44631.68
564.57	45076.38
564.74	44701.89
564.90	45064.67
565.07	45284.68
565.23	45064.67
565.39	44975.73
565.56	45375.97
565.72	44905.52
565.88	44919.56
566.05	44648.06
566.21	44514.65
566.38	44685.51
566.54	45074.04
566.70	44994.46
566.87	45488.31
567.03	44746.36
567.19	45415.76
567.36	45605.34
567.52	44692.53
567.68	44666.78
567.85	44823.60
568.01	45450.86
568.17	45160.64
568.34	45207.45
568.50	45202.77
568.66	44985.10
568.83	45434.48
568.99	45085.74
569.15	44786.15
569.32	45354.90
569.48	44339.11
569.64	45289.37
569.81	45102.12
569.97	45390.01
570.13	45305.75
570.30	45179.36
570.46	45326.81
570.62	45446.18
570.78	45151.27
570.95	44980.42
571.11	45373.63
571.27	44641.04
571.43	44919.56
571.60	45006.16
571.76	45354.90
571.92	45605.34
572.09	45406.39
572.25	45385.33
572.41	45029.57
572.57	45429.80
572.74	45247.24
572.90	45478.95
573.06	45443.84
573.22	45340.86
573.38	45647.47
573.55	45251.92
573.71	45626.40
573.87	45766.84
574.03	45216.81
574.20	45160.64
574.36	45301.07
574.52	45336.18
574.68	45558.53
574.84	45600.66
575.01	45467.25
575.17	45570.23
575.33	45450.86
575.49	45268.30
575.65	45867.48
575.82	45298.73
575.98	45237.87
576.14	45415.76
576.30	45263.62
576.46	45432.14
576.62	45034.25
576.79	45361.92
576.95	45736.41
577.11	45659.17
577.27	45567.89
577.43	45525.76
577.59	45535.12
577.75	45420.44
577.92	45240.21
578.08	45027.23
578.24	45102.12
578.40	45464.91
578.56	45724.71
578.72	45478.95
578.88	45652.15
579.04	45670.87
579.21	45270.64
579.37	45731.73
579.53	45427.46
579.69	45572.57
579.85	44912.54
580.01	45357.24
580.17	45397.03
580.33	45492.99
580.49	45336.18
580.65	45862.80
580.82	45600.66
580.98	45633.42
581.14	45324.47
581.30	45771.52
581.46	45502.35
581.62	45617.04
581.78	45490.65
581.94	45930.67
582.10	45471.93
582.26	45565.55
582.42	45689.60
582.58	45684.92
582.74	45390.01
582.90	45659.17
583.06	45322.13
583.22	45174.68
583.38	45434.48
583.54	45448.52
583.70	45474.27
583.86	45820.67
584.02	45528.10
584.18	46038.34
584.34	45588.95
584.50	45677.90
584.66	45249.58
584.82	45045.95
584.98	45537.46
585.14	45291.71
585.30	45511.72
585.46	45684.92
585.62	45284.68
585.78	45762.15
585.94	45457.88
586.10	45787.90
586.26	45612.36
586.42	45567.89
586.58	45635.77
586.74	45724.71
586.90	45324.47
587.06	45233.19
587.22	45811.31
587.38	45516.40
587.54	45755.13
587.70	45570.23
587.86	45703.64
588.02	45902.59
588.18	45923.65
588.34	45682.58
588.49	45471.93
588.65	45703.64
588.81	45497.67
588.97	45801.94
589.13	45298.73
589.29	45319.79
589.45	46312.18
589.61	45986.85
589.77	45998.55
589.93	46131.96
590.08	46443.25
590.24	46197.49
590.40	45738.75
590.56	45832.37
590.72	45230.85
590.88	45769.18
