SpectraSuite Data File
++++++++++++++++++++++++++++++++++++
Date: Fri Oct 04 11:48:29 GMT-05:00 2013
User: price-jones
Dark Spectrum Present: No
Reference Spectrum Present: No
Number of Sampled Component Spectra: 1
Spectrometers: USB2+H05261
Integration Time (usec): 100000 (USB2+H05261)
Spectra Averaged: 1 (USB2+H05261)
Boxcar Smoothing: 0 (USB2+H05261)
Correct for Electrical Dark: No (USB2+H05261)
Strobe/Lamp Enabled: No (USB2+H05261)
Correct for Detector Non-linearity: No (USB2+H05261)
Correct for Stray Light: No (USB2+H05261)
Number of Pixels in Processed Spectrum: 2048
>>>>>Begin Processed Spectral Data<<<<<
365.73	56.17
365.92	56.17
366.12	56.17
366.32	0.00
366.52	0.00
366.72	0.00
366.91	0.00
367.11	0.00
367.31	0.00
367.51	0.00
367.70	0.00
367.90	0.00
368.10	0.00
368.30	0.00
368.49	0.00
368.69	0.00
368.89	0.00
369.09	0.00
369.28	0.00
369.48	0.00
369.68	0.00
369.87	0.00
370.07	0.00
370.27	7.02
370.47	126.39
370.66	379.17
370.86	421.30
371.06	393.21
371.25	573.43
371.45	454.06
371.65	479.81
371.84	526.62
372.04	486.83
372.24	514.92
372.44	526.62
372.63	578.11
372.83	559.39
373.03	550.03
373.22	552.37
373.42	559.39
373.62	538.32
373.81	638.97
374.01	587.47
374.21	660.03
374.40	564.07
374.60	650.67
374.79	613.22
374.99	643.65
375.19	627.26
375.38	636.63
375.58	669.39
375.78	648.33
375.97	716.20
376.17	737.27
376.37	601.52
376.56	732.59
376.76	720.88
376.95	763.01
377.15	725.57
377.35	678.76
377.54	676.41
377.74	709.18
377.93	763.01
378.13	727.91
378.33	819.19
378.52	767.70
378.72	713.86
378.91	819.19
379.11	784.08
379.31	826.21
379.50	699.82
379.70	763.01
379.89	798.12
380.09	800.46
380.28	753.65
380.48	767.70
380.68	807.48
380.87	821.53
381.07	826.21
381.26	917.49
381.46	842.59
381.65	868.34
381.85	887.06
382.04	912.81
382.24	875.36
382.43	889.40
382.63	1013.45
382.83	917.49
383.02	922.17
383.22	966.64
383.41	943.24
383.61	919.83
383.80	910.47
384.00	961.96
384.19	903.45
384.39	1022.81
384.58	978.34
384.78	933.87
384.97	987.71
385.17	999.41
385.36	933.87
385.56	961.96
385.75	933.87
385.95	999.41
386.14	1020.47
386.34	1034.52
386.53	1015.79
386.72	959.62
386.92	1123.46
387.11	1118.78
387.31	1046.22
387.50	1020.47
387.70	1081.33
387.89	1100.05
388.09	1198.35
388.28	1050.90
388.48	1095.37
388.67	1186.65
388.86	1224.10
389.06	1095.37
389.25	1125.80
389.45	1163.25
389.64	1193.67
389.84	1200.69
390.03	1252.19
390.22	1146.86
390.42	1160.91
390.61	1078.99
390.81	1179.63
391.00	1273.25
391.19	1226.44
391.39	1249.85
391.58	1277.93
391.78	1231.12
391.97	1287.29
392.16	1247.51
392.36	1280.27
392.55	1322.40
392.75	1350.49
392.94	1320.06
393.13	1303.68
393.33	1425.39
393.52	1359.85
393.71	1570.50
393.91	1458.15
394.10	1270.91
394.29	1432.41
394.49	1423.05
394.68	1493.26
394.88	1401.98
395.07	1502.62
395.26	1638.38
395.46	1577.52
395.65	1416.02
395.84	1600.93
396.04	1636.03
396.23	1488.58
396.42	1565.82
396.62	1612.63
396.81	1614.97
397.00	1570.50
397.19	1589.22
397.39	1664.12
397.58	1650.08
397.77	1596.25
397.97	1701.57
398.16	1678.16
398.35	1743.70
398.55	1584.54
398.74	1809.23
398.93	1856.04
399.12	1743.70
399.32	1764.76
399.51	1741.36
399.70	1842.00
399.90	1799.87
400.09	1944.99
400.28	2003.50
400.47	1804.55
400.67	1912.22
400.86	1921.58
401.05	1895.83
401.24	1891.15
401.44	1928.60
401.63	1937.96
401.82	2054.99
402.01	1926.26
402.21	2033.93
402.40	2080.74
402.59	2083.08
402.78	2057.33
402.97	2064.35
403.17	2078.40
403.36	2005.84
403.55	2134.57
403.74	2153.29
403.93	2157.97
404.13	2221.17
404.32	2296.07
404.51	2216.49
404.70	2326.49
404.89	2246.91
405.09	2272.66
405.28	2239.89
405.47	2293.72
405.66	2373.30
405.85	2258.62
406.05	2452.88
406.24	2368.62
406.43	2340.54
406.62	2422.45
406.81	2487.99
407.00	2438.84
407.20	2373.30
407.39	2473.95
407.58	2485.65
407.77	2523.10
407.96	2537.14
408.15	2574.59
408.34	2560.55
408.54	2626.08
408.73	2661.19
408.92	2686.94
409.11	2747.79
409.30	2623.74
409.49	2818.00
409.68	2794.60
409.87	2745.45
410.07	3023.97
410.26	2836.73
410.45	2794.60
410.64	2988.86
410.83	2881.20
411.02	2951.42
411.21	3009.93
411.40	3002.91
411.59	3157.38
411.78	3038.02
411.98	2979.50
412.17	3007.59
412.36	3115.25
412.55	3143.34
412.74	3190.15
412.93	3171.43
413.12	3169.09
413.31	3370.37
413.50	3265.05
413.69	3342.28
413.88	3377.39
414.07	3428.88
414.26	3499.10
414.45	3651.24
414.64	3599.74
414.83	3433.57
415.02	3550.59
415.22	3543.57
415.41	3698.05
415.60	3585.70
415.79	3777.62
415.98	3721.45
416.17	3719.11
416.36	3775.28
416.55	3808.05
416.74	3798.69
416.93	3906.35
417.12	3911.04
417.31	3946.14
417.50	3934.44
417.69	4166.15
417.88	4142.75
418.07	4063.17
418.26	4138.07
418.45	4114.66
418.64	4334.67
418.83	4304.25
419.02	4234.03
419.21	4332.33
419.39	4210.62
419.58	4243.39
419.77	4297.22
419.96	4402.55
420.15	4465.74
420.34	4278.50
420.53	4311.27
420.72	4535.96
420.91	4498.51
421.10	4386.16
421.29	4526.60
421.48	4456.38
421.67	4458.72
421.86	4507.87
422.05	4538.30
422.24	4610.86
422.43	4564.04
422.61	4592.13
422.80	4613.20
422.99	4723.20
423.18	4737.24
423.37	4751.29
423.56	4863.63
423.75	4690.43
423.94	4676.39
424.13	4519.57
424.32	4573.41
424.50	4807.46
424.69	4610.86
424.88	4739.58
425.07	4760.65
425.26	4645.96
425.45	4610.86
425.64	4816.82
425.83	4851.93
426.01	4770.01
426.20	4746.61
426.39	4798.10
426.58	4784.06
426.77	4793.42
426.96	4889.38
427.15	4940.87
427.33	5034.49
427.52	4961.94
427.71	4798.10
427.90	5006.41
428.09	4940.87
428.28	5074.28
428.46	5139.82
428.65	5076.62
428.84	5191.31
429.03	5219.39
429.22	5062.58
429.40	5373.87
429.59	5408.98
429.78	5125.77
429.97	5210.03
430.16	5341.10
430.34	5467.49
430.53	5476.85
430.72	5376.21
430.91	5249.82
431.10	5350.46
431.28	5397.28
431.47	5652.39
431.66	5687.50
431.85	5434.72
432.03	5701.54
432.22	5797.51
432.41	5659.42
432.60	5692.18
432.79	5626.65
432.97	5827.93
433.16	5675.80
433.35	5689.84
433.54	5879.43
433.72	5851.34
433.91	5774.10
434.10	5774.10
434.28	5860.70
434.47	5951.98
434.66	5963.68
434.85	6101.78
435.03	6010.50
435.22	5970.71
435.41	6333.49
435.59	6050.28
435.78	6132.20
435.97	6246.89
436.16	6090.07
436.34	6186.04
436.53	6408.39
436.72	6438.81
436.90	6171.99
437.09	6171.99
437.28	6017.52
437.46	6406.05
437.65	6370.94
437.84	6548.82
438.02	6356.90
438.21	6565.20
438.40	6546.48
438.58	6724.36
438.77	6672.87
438.96	6829.68
439.14	6782.87
439.33	6909.26
439.52	6860.11
439.70	6867.13
439.89	7021.61
440.08	6986.50
440.26	7222.89
440.45	7185.44
440.63	7239.28
440.82	7304.81
441.01	7269.70
441.19	7337.58
441.38	7389.07
441.57	7438.22
441.75	7623.12
441.94	7566.95
442.12	7691.00
442.31	7852.50
442.50	7723.77
442.68	7714.41
442.87	7662.91
443.05	7810.37
443.24	7913.35
443.43	7770.58
443.61	7906.33
443.80	8124.00
443.98	7822.07
444.17	7798.66
444.35	8028.04
444.54	8156.77
444.73	7974.21
444.91	8060.80
445.10	8053.78
445.28	8051.44
445.47	7906.33
445.65	8168.47
445.84	8116.98
446.02	8177.83
446.21	8152.09
446.39	7988.25
446.58	8135.70
446.77	8226.98
446.95	8161.45
447.14	8301.88
447.32	8163.79
447.51	8376.78
447.69	8397.84
447.88	8397.84
448.06	8304.22
448.25	8163.79
448.43	8234.00
448.62	8393.16
448.80	8196.56
448.99	8489.12
449.17	8526.57
449.36	8388.48
449.54	8552.32
449.73	8542.96
449.91	8723.18
450.10	8547.64
450.28	8863.61
450.46	8835.52
450.65	8671.68
450.83	8830.84
451.02	8793.39
451.20	9001.70
451.39	9004.04
451.57	8840.20
451.76	8760.63
451.94	8999.36
452.13	8990.00
452.31	8933.82
452.49	8905.74
452.68	9034.47
452.86	9041.49
453.05	9153.84
453.23	9205.33
453.42	8922.12
453.60	9188.94
453.78	9317.67
453.97	9107.02
454.15	9170.22
454.34	9231.07
454.52	9404.27
454.70	9603.22
454.89	9462.79
455.07	9415.98
455.26	9579.81
455.44	9708.54
455.62	9479.17
455.81	9565.77
455.99	9605.56
456.17	9650.03
456.36	9720.24
456.54	10031.54
456.73	9902.81
456.91	10155.58
457.09	9902.81
457.28	10083.03
457.46	10122.82
457.64	10289.00
457.83	10242.18
458.01	10047.92
458.19	10157.92
458.38	10148.56
458.56	10473.90
458.74	10352.19
458.93	10305.38
459.11	10574.54
459.29	10443.47
459.48	10583.90
459.66	10611.99
459.84	10532.41
460.03	10649.44
460.21	10518.37
460.39	10670.50
460.57	10710.29
460.76	10920.94
460.94	10981.79
461.12	10995.84
461.31	10871.79
461.49	10850.72
461.67	10906.90
461.85	11239.25
462.04	10949.03
462.22	11545.86
462.40	11248.61
462.59	10981.79
462.77	11363.30
462.95	11232.23
463.13	11452.24
463.32	11475.65
463.50	11328.19
463.68	11281.38
463.86	11337.56
464.05	11133.93
464.23	11274.36
464.41	11705.02
464.59	11428.84
464.78	11545.86
464.96	11903.96
465.14	11428.84
465.32	11733.11
465.50	11817.36
465.69	11974.18
465.87	11513.10
466.05	11566.93
466.23	11688.64
466.41	11920.35
466.60	12301.86
466.78	11845.45
466.96	11852.47
467.14	11901.62
467.32	11882.90
467.51	12463.35
467.69	12023.33
467.87	12133.34
468.05	12358.03
468.23	12203.55
468.41	12128.66
468.60	12507.82
468.78	12564.00
468.96	12241.00
469.14	12681.02
469.32	12556.97
469.50	12166.10
469.69	12596.76
469.87	12798.05
470.05	13015.72
470.23	12905.71
470.41	12699.75
470.59	13074.23
470.77	12884.65
470.95	12917.42
471.14	13186.58
471.32	12809.75
471.50	13434.68
471.68	13282.54
471.86	13296.58
472.04	13380.84
472.22	13661.71
472.40	13319.99
472.58	13678.09
472.77	13650.00
472.95	13916.83
473.13	14171.94
473.31	13521.27
473.49	13687.45
473.67	13841.93
473.85	14010.45
474.03	14218.75
474.21	13998.74
474.39	14415.36
474.57	14314.72
474.75	14555.79
474.93	15152.63
475.12	14459.83
475.30	14717.29
475.48	14810.91
475.66	15016.88
475.84	14853.04
476.02	14899.85
476.20	15159.65
476.38	15356.25
476.56	15279.02
476.74	15800.96
476.92	15482.64
477.10	15648.82
477.28	15730.74
477.46	15946.07
477.64	15955.43
477.82	15833.72
478.00	16245.66
478.18	16816.75
478.36	16826.11
478.54	16507.80
478.72	16945.48
478.90	17027.40
479.08	17228.68
479.26	17078.89
479.44	17490.82
479.62	17493.16
479.80	17535.29
479.98	18050.21
480.16	18047.87
480.34	17748.28
480.52	18207.03
480.70	18398.95
480.88	18146.17
481.06	18216.39
481.24	18307.67
481.41	18590.88
481.59	19007.49
481.77	18977.06
481.95	19386.66
482.13	19442.83
482.31	19344.53
482.49	19658.16
482.67	19824.34
482.85	20130.95
483.03	20332.23
483.21	20137.97
483.39	20493.73
483.57	20435.22
483.74	21018.01
483.92	21158.44
484.10	20599.05
484.28	21383.13
484.46	21589.10
484.64	22043.17
484.82	21493.14
485.00	21682.72
485.18	22181.26
485.35	22705.54
485.53	22551.06
485.71	22735.96
485.89	22965.34
486.07	23077.68
486.25	23246.20
486.43	22963.00
486.61	23555.15
486.78	23709.63
486.96	23929.64
487.14	24245.61
487.32	24105.18
487.50	24301.78
487.68	24465.62
487.85	25048.41
488.03	24980.54
488.21	25560.99
488.39	25216.93
488.57	25816.11
488.75	25659.29
488.92	25965.90
489.10	26391.88
489.28	26291.24
489.46	26789.77
489.64	26668.06
489.81	27072.98
489.99	27136.17
490.17	27309.37
490.35	27601.94
490.53	27407.67
490.70	28116.86
490.88	27819.61
491.06	28676.24
491.24	28332.18
491.41	28430.49
491.59	28922.00
491.77	28713.69
491.95	29385.43
492.13	29900.34
492.30	29759.91
492.48	29488.41
492.66	29851.19
492.84	29979.92
493.01	30012.69
493.19	30581.44
493.37	30600.16
493.54	30787.41
493.72	31042.53
493.90	31108.06
494.08	31377.22
494.25	32041.93
494.43	31477.86
494.61	32102.79
494.79	32189.39
494.96	32105.13
495.14	32404.72
495.32	32430.46
495.49	32648.13
495.67	32730.05
495.85	33443.91
496.02	33427.53
496.20	33362.00
496.38	33537.54
496.55	33427.53
496.73	34391.83
496.91	34438.64
497.09	34646.95
497.26	34873.98
497.44	34384.81
497.62	34469.07
497.79	35056.54
497.97	35587.85
498.14	35400.60
498.32	35775.09
498.50	35625.29
498.67	35999.78
498.85	35747.00
499.03	35967.01
499.20	36044.25
499.38	36439.80
499.56	36835.35
499.73	36542.78
499.91	36641.09
500.08	37186.43
500.26	36790.88
500.44	37139.62
500.61	37439.21
500.79	37422.83
500.97	37935.40
501.14	38103.92
501.32	37872.21
501.49	38014.98
501.67	38052.43
501.84	38164.78
502.02	38469.04
502.20	38909.07
502.37	39187.59
502.55	39133.76
502.72	39122.05
502.90	38981.62
503.07	39012.05
503.25	39461.43
503.43	39182.91
503.60	39552.71
503.78	39459.09
503.95	40095.72
504.13	39831.24
504.30	39810.17
504.48	39952.94
504.65	40222.11
504.83	40285.30
505.01	41043.63
505.18	41132.57
505.36	41064.70
505.53	40849.37
505.71	41139.60
505.88	40896.18
506.06	40818.94
506.23	41790.27
506.41	41392.37
506.58	41560.89
506.76	42043.04
506.93	42157.73
507.11	41628.77
507.28	42241.99
507.46	42148.37
507.63	42696.05
507.81	42616.47
507.98	42361.36
508.16	42607.11
508.33	43210.97
508.50	42862.23
508.68	42967.55
508.85	43854.62
509.03	43531.62
509.20	43878.02
509.38	44023.14
509.55	44072.29
509.73	43814.83
509.90	43894.41
510.08	43751.63
510.25	44201.02
510.42	44516.99
510.60	44399.96
510.77	44952.33
510.95	45102.12
511.12	44402.30
511.30	44659.76
511.47	44772.11
511.64	45158.30
511.82	45797.26
511.99	45277.66
512.17	45883.86
512.34	45249.58
512.51	46014.93
512.69	45918.97
512.86	45834.71
513.04	46569.64
513.21	46188.13
513.38	46419.84
513.56	46459.63
513.73	46663.26
513.90	46696.03
514.08	46803.69
514.25	46986.25
514.43	47009.66
514.60	47021.36
514.77	47147.75
514.95	46911.36
515.12	47215.63
515.29	47215.63
515.47	47777.36
515.64	47639.26
515.81	47377.12
515.99	47997.37
516.16	48088.65
516.33	48105.03
516.51	48371.85
516.68	48144.82
516.85	48062.90
517.03	48371.85
517.20	48226.74
517.37	48926.56
517.54	48814.21
517.72	48790.81
517.89	48470.15
518.06	48701.87
518.24	49265.94
518.41	48964.01
518.58	48910.17
518.75	48818.89
518.93	49350.20
519.10	49331.47
519.27	49242.53
519.45	49303.38
519.62	49478.92
519.79	49928.31
519.96	49621.70
520.14	50145.98
520.31	49612.34
520.48	50176.40
520.65	50333.22
520.83	49968.10
521.00	49785.54
521.17	50176.40
521.34	50328.54
521.52	50520.46
521.69	50569.61
521.86	50604.72
522.03	50815.37
522.20	50789.62
522.38	50946.44
522.55	50560.25
522.72	51061.13
522.89	51185.18
523.07	51339.65
523.24	51098.58
523.41	50937.08
523.58	50948.78
523.75	51583.07
523.92	51393.48
524.10	51510.51
524.27	51508.17
524.44	51189.86
524.61	52065.22
524.78	52207.99
524.96	51852.23
525.13	52130.75
525.30	51976.28
525.47	52025.43
525.64	51730.52
525.81	52334.38
525.98	52697.16
526.16	52074.58
526.33	52207.99
526.50	52566.09
526.67	52491.19
526.84	52556.73
527.01	52575.45
527.18	52851.64
527.36	52865.68
527.53	52884.40
527.70	53263.57
527.87	53120.80
528.04	52622.26
528.21	53020.16
528.38	53160.59
528.55	53207.40
528.72	53078.67
528.89	53214.42
529.07	53364.21
529.24	52947.60
529.41	53532.73
529.58	53366.55
529.75	53277.61
529.92	53113.78
530.09	53691.89
530.26	53492.94
530.43	53633.38
530.60	53453.15
530.77	53799.55
530.94	53916.58
531.11	53652.10
531.28	53418.05
531.46	53837.00
531.63	53984.46
531.80	53853.39
531.97	54309.79
532.14	54092.12
532.31	54176.38
532.48	54101.48
532.65	54370.64
532.82	53951.69
532.99	54169.36
533.16	54216.17
533.33	54719.38
533.50	54681.94
533.67	54433.84
533.84	54562.57
534.01	54747.47
534.18	54747.47
534.35	54866.84
534.52	54637.47
534.69	55089.19
534.86	54930.03
535.03	54532.14
535.20	54887.90
535.37	55011.95
535.54	55082.17
535.71	54948.76
535.88	55124.30
536.05	54972.16
536.22	55140.68
536.38	55133.66
536.55	55072.81
536.72	55210.90
536.89	55348.99
537.06	55377.08
537.23	55393.46
537.40	55398.14
537.57	55047.06
537.74	55449.63
537.91	55922.42
538.08	55564.32
538.25	55636.87
538.42	55908.38
538.59	55793.69
538.75	55622.83
538.92	55681.34
539.09	56009.02
539.26	56079.24
539.43	55917.74
539.60	56147.11
539.77	55831.14
539.94	56467.76
540.11	56128.39
540.28	55887.31
540.44	56147.11
540.61	56032.42
540.78	56034.77
540.95	56418.61
541.12	56252.44
541.29	56341.38
541.46	56306.27
541.62	56477.13
541.79	56285.20
541.96	55962.21
542.13	56315.63
542.30	56655.01
542.47	56559.05
542.63	56432.66
542.80	56535.64
542.97	56844.59
543.14	56760.33
543.31	56676.07
543.48	56884.38
543.64	57048.22
543.81	57006.09
543.98	57064.60
544.15	57034.17
544.32	56938.21
544.48	57256.53
544.65	57090.35
544.82	56952.26
544.99	56835.23
545.16	57233.12
545.32	57017.79
545.49	57434.41
545.66	57219.08
545.83	57666.12
546.00	57478.88
546.16	57364.19
546.33	57174.61
546.50	57078.64
546.67	57535.05
546.83	57088.01
547.00	57488.24
547.17	57396.96
547.34	57691.86
547.50	57605.26
547.67	57876.77
547.84	57591.22
548.00	57771.44
548.17	57631.01
548.34	57825.28
548.51	57855.70
548.67	58178.70
548.84	57865.06
549.01	58028.90
549.18	57703.57
549.34	57876.77
549.51	57963.37
549.68	58010.18
549.84	57811.23
550.01	58085.07
550.18	58049.97
550.34	58078.05
550.51	58138.91
550.68	58005.50
550.84	57928.26
551.01	58106.14
551.18	58251.25
551.34	58127.20
551.51	58202.10
551.68	58342.53
551.84	58398.71
552.01	58314.45
552.18	58438.50
552.34	58262.96
552.51	58401.05
552.68	58347.21
552.84	58396.37
553.01	58611.70
553.18	58450.20
553.34	58728.72
553.51	58595.31
553.67	58518.07
553.84	58899.58
554.01	58717.02
554.17	58515.73
554.34	58457.22
554.51	58546.16
554.67	58892.56
554.84	58681.91
555.00	58899.58
555.17	58712.34
555.33	58890.22
555.50	58768.51
555.67	58890.22
555.83	58801.28
556.00	58915.96
556.16	59274.07
556.33	58794.26
556.50	58997.88
556.66	59143.00
556.83	58892.56
556.99	59358.33
557.16	59150.02
557.32	59194.49
557.49	59058.74
557.65	58946.39
557.82	59107.89
557.98	59133.63
558.15	59178.10
558.32	59344.28
558.48	59112.57
558.65	59285.77
558.81	59152.36
558.98	59297.47
559.14	59372.37
559.31	59168.74
559.47	59217.89
559.64	59461.31
559.80	59386.41
559.97	59489.40
560.13	59311.52
560.30	59465.99
560.46	59360.67
560.63	59384.07
560.79	59456.63
560.96	59590.04
561.12	59615.79
561.29	59243.64
561.45	59585.36
561.61	59419.18
561.78	59566.63
561.94	59620.47
562.11	59557.27
562.27	59449.61
562.44	59737.49
562.60	59365.35
562.77	59707.07
562.93	59660.26
563.10	59971.55
563.26	59496.42
563.42	59779.62
563.59	59796.01
563.75	59990.27
563.92	59707.07
564.08	59767.92
564.24	59842.82
564.41	59753.88
564.57	59592.38
564.74	59543.23
564.90	59884.95
565.07	59966.87
565.23	59751.54
565.39	59835.80
565.56	59952.82
565.72	59788.98
565.88	60016.02
566.05	59884.95
566.21	59828.77
566.38	59730.47
566.54	59866.22
566.70	60315.61
566.87	60051.12
567.03	60006.65
567.19	60074.53
567.36	60097.94
567.52	59938.78
567.68	60093.25
567.85	59927.08
568.01	60053.47
568.17	59999.63
568.34	60032.40
568.50	60062.83
568.66	60009.00
568.83	60147.09
568.99	60067.51
569.15	59971.55
569.32	60137.72
569.48	59746.86
569.64	60257.09
569.81	60093.25
569.97	60004.31
570.13	60097.94
570.30	60306.24
570.46	60051.12
570.62	60294.54
570.78	60189.22
570.95	60119.00
571.11	60198.58
571.27	60130.70
571.43	60289.86
571.60	60339.01
571.76	60390.50
571.92	60451.36
572.09	60425.61
572.25	60069.85
572.41	60081.55
572.57	60144.75
572.74	60257.09
572.90	60369.44
573.06	60210.28
573.22	60385.82
573.38	60275.82
573.55	60493.49
573.71	60441.99
573.87	60369.44
574.03	60360.08
574.20	60156.45
574.36	60367.10
574.52	60264.11
574.68	60217.30
574.84	60331.99
575.01	60488.80
575.17	60472.42
575.33	60549.66
575.49	60505.19
575.65	60652.64
575.82	60488.80
575.98	60472.42
576.14	60678.39
576.30	60640.94
576.46	60278.16
576.62	60430.29
576.79	60259.43
576.95	60196.24
577.11	60486.46
577.27	60530.93
577.43	60493.49
577.59	60814.14
577.75	60542.64
577.92	60200.92
578.08	60451.36
578.24	60430.29
578.40	60540.30
578.56	60720.52
578.72	60259.43
578.88	60669.03
579.04	60853.93
579.21	60566.04
579.37	60549.66
579.53	60327.31
579.69	60214.96
579.85	60500.51
580.01	60317.95
580.17	60390.50
580.33	60633.92
580.49	60713.50
580.65	60629.24
580.82	60802.44
580.98	60598.81
581.14	60453.70
581.30	60849.25
581.46	60420.93
581.62	60315.61
581.78	60257.09
581.94	60748.60
582.10	60598.81
582.26	60816.48
582.42	60699.45
582.58	60849.25
582.74	60816.48
582.90	60664.35
583.06	60863.29
583.22	60727.54
583.38	60608.17
583.54	60734.56
583.70	60643.28
583.86	60575.40
584.02	60512.21
584.18	60722.86
584.34	60975.64
584.50	60975.64
584.66	60727.54
584.82	60577.75
584.98	60736.90
585.14	60699.45
585.30	60507.53
585.46	60528.59
585.62	60568.38
585.78	60704.13
585.94	60474.76
586.10	60860.95
586.26	60624.56
586.42	60842.23
586.58	60811.80
586.74	60762.65
586.90	60622.22
587.06	60626.90
587.22	60837.54
587.38	60795.42
587.54	60622.22
587.70	60973.30
587.86	60814.14
588.02	60877.33
588.18	60839.89
588.34	60832.86
588.49	60917.12
588.65	60729.88
588.81	60725.20
588.97	61010.74
589.13	60673.71
