SpectraSuite Data File
++++++++++++++++++++++++++++++++++++
Date: Fri Oct 04 11:48:22 GMT-05:00 2013
User: price-jones
Dark Spectrum Present: No
Reference Spectrum Present: No
Number of Sampled Component Spectra: 1
Spectrometers: USB2+H05261
Integration Time (usec): 100000 (USB2+H05261)
Spectra Averaged: 1 (USB2+H05261)
Boxcar Smoothing: 0 (USB2+H05261)
Correct for Electrical Dark: No (USB2+H05261)
Strobe/Lamp Enabled: No (USB2+H05261)
Correct for Detector Non-linearity: No (USB2+H05261)
Correct for Stray Light: No (USB2+H05261)
Number of Pixels in Processed Spectrum: 2048
>>>>>Begin Processed Spectral Data<<<<<
365.73	0.00
365.92	0.00
366.12	0.00
366.32	0.00
366.52	25.75
366.72	0.00
366.91	0.00
367.11	0.00
367.31	0.00
367.51	0.00
367.70	0.00
367.90	0.00
368.10	0.00
368.30	0.00
368.49	0.00
368.69	0.00
368.89	0.00
369.09	0.00
369.28	0.00
369.48	0.00
369.68	0.00
369.87	0.00
370.07	0.00
370.27	58.51
370.47	81.92
370.66	327.68
370.86	353.42
371.06	360.44
371.25	409.59
371.45	341.72
371.65	390.87
371.84	334.70
372.04	346.40
372.24	332.36
372.44	449.38
372.63	404.91
372.83	489.17
373.03	414.27
373.22	353.42
373.42	402.57
373.62	423.64
373.81	397.89
374.01	402.57
374.21	514.92
374.40	503.22
374.60	547.69
374.79	543.00
374.99	479.81
375.19	486.83
375.38	519.60
375.58	550.03
375.78	571.09
375.97	571.09
376.17	580.45
376.37	564.07
376.56	491.51
376.76	510.24
376.95	552.37
377.15	575.77
377.35	594.50
377.54	500.87
377.74	561.73
377.93	521.94
378.13	585.13
378.33	514.92
378.52	592.16
378.72	587.47
378.91	557.05
379.11	589.82
379.31	559.39
379.50	561.73
379.70	596.84
379.89	711.52
380.09	601.52
380.28	608.54
380.48	615.56
380.68	582.79
380.87	599.18
381.07	669.39
381.26	664.71
381.46	573.43
381.65	695.14
381.85	629.60
382.04	638.97
382.24	678.76
382.43	671.73
382.63	608.54
382.83	627.26
383.02	720.88
383.22	739.61
383.41	709.18
383.61	732.59
383.80	678.76
384.00	636.63
384.19	702.16
384.39	739.61
384.58	723.23
384.78	725.57
384.97	725.57
385.17	805.14
385.36	730.25
385.56	805.14
385.75	805.14
385.95	741.95
386.14	795.78
386.34	779.40
386.53	795.78
386.72	730.25
386.92	840.25
387.11	814.51
387.31	833.23
387.50	823.87
387.70	830.89
387.89	795.78
388.09	758.33
388.28	847.27
388.48	814.51
388.67	840.25
388.86	830.89
389.06	868.34
389.25	987.71
389.45	877.70
389.64	866.00
389.84	877.70
390.03	924.51
390.22	908.13
390.42	931.53
390.61	880.04
390.81	952.60
391.00	987.71
391.19	980.68
391.39	1011.11
391.58	987.71
391.78	959.62
391.97	992.39
392.16	1011.11
392.36	1146.86
392.55	980.68
392.75	1022.81
392.94	929.19
393.13	1114.10
393.33	1048.56
393.52	1027.50
393.71	1102.39
393.91	1067.28
394.10	1107.07
394.29	1078.99
394.49	1104.73
394.68	1128.14
394.88	1158.57
395.07	1212.40
395.26	1174.95
395.46	1146.86
395.65	1062.60
395.84	1219.42
396.04	1221.76
396.23	1210.06
396.42	1149.20
396.62	1263.89
396.81	1310.70
397.00	1235.80
397.19	1266.23
397.39	1242.82
397.58	1352.83
397.77	1252.19
397.97	1338.79
398.16	1284.95
398.35	1378.58
398.55	1448.79
398.74	1432.41
398.93	1401.98
399.12	1413.68
399.32	1439.43
399.51	1352.83
399.70	1420.71
399.90	1376.24
400.09	1432.41
400.28	1479.22
400.47	1519.01
400.67	1549.43
400.86	1500.28
401.05	1535.39
401.24	1476.88
401.44	1657.10
401.63	1591.56
401.82	1607.95
402.01	1636.03
402.21	1647.74
402.40	1664.12
402.59	1633.69
402.78	1687.53
402.97	1661.78
403.17	1811.57
403.36	1636.03
403.55	1720.29
403.74	1799.87
403.93	1790.51
404.13	1806.89
404.32	1781.15
404.51	1760.08
404.70	1849.02
404.89	1858.39
405.09	1994.14
405.28	1879.45
405.47	1980.09
405.66	1956.69
405.85	1895.83
406.05	1907.54
406.24	1912.22
406.43	2012.86
406.62	2125.21
406.81	2155.63
407.00	2076.06
407.20	2125.21
407.39	2029.24
407.58	2232.87
407.77	2078.40
407.96	2179.04
408.15	2312.45
408.34	2150.95
408.54	2319.47
408.73	2223.51
408.92	2293.72
409.11	2452.88
409.30	2518.42
409.49	2267.98
409.68	2429.48
409.87	2422.45
410.07	2464.58
410.26	2331.17
410.45	2499.69
410.64	2553.52
410.83	2525.44
411.02	2560.55
411.21	2548.84
411.40	2485.65
411.59	2710.34
411.78	2502.03
411.98	2832.05
412.17	2780.56
412.36	2693.96
412.55	2750.13
412.74	2705.66
412.93	2787.58
413.12	2825.03
413.31	3016.95
413.50	2916.31
413.69	2977.16
413.88	3038.02
414.07	2878.86
414.26	3141.00
414.45	2981.84
414.64	3115.25
414.83	3176.11
415.02	3180.79
415.22	3232.28
415.41	3166.74
415.60	3180.79
415.79	3185.47
415.98	3445.27
416.17	3314.20
416.36	3325.90
416.55	3365.69
416.74	3524.85
416.93	3459.31
417.12	3372.71
417.31	3623.15
417.50	3534.21
417.69	3641.87
417.88	3646.55
418.07	3681.66
418.26	3655.92
418.45	3815.07
418.64	3875.93
418.83	3772.94
419.02	3721.45
419.21	3794.01
419.39	3810.39
419.58	3794.01
419.77	3754.22
419.96	3955.51
420.15	3955.51
420.34	3859.54
420.53	4105.30
420.72	4046.79
420.91	4088.92
421.10	4070.19
421.29	3974.23
421.48	3904.01
421.67	4196.58
421.86	4002.32
422.05	4149.77
422.24	4088.92
422.43	4037.42
422.61	4182.54
422.80	4198.92
422.99	4243.39
423.18	4173.18
423.37	4177.86
423.56	4224.67
423.75	4152.11
423.94	4166.15
424.13	3873.59
424.32	3981.25
424.50	4255.09
424.69	4306.59
424.88	4358.08
425.07	4259.78
425.26	4215.30
425.45	4257.43
425.64	4215.30
425.83	4346.37
426.01	4468.08
426.20	4313.61
426.39	4386.16
426.58	4306.59
426.77	4440.00
426.96	4299.56
427.15	4423.61
427.33	4498.51
427.52	4374.46
427.71	4496.17
427.90	4458.72
428.09	4582.77
428.28	4664.69
428.46	4491.49
428.65	4702.14
428.84	4727.88
429.03	4746.61
429.22	4592.13
429.40	4638.94
429.59	4566.39
429.78	4486.81
429.97	4528.94
430.16	4610.86
430.34	4819.16
430.53	4798.10
430.72	4868.31
430.91	4786.40
431.10	4788.74
431.28	4884.70
431.47	4973.64
431.66	5132.79
431.85	4950.23
432.03	5160.88
432.22	5320.04
432.41	5055.56
432.60	5338.76
432.79	5046.20
432.97	5263.86
433.16	5195.99
433.35	5174.92
433.54	5287.27
433.72	5280.25
433.91	5156.20
434.10	5235.78
434.28	5170.24
434.47	5366.85
434.66	5355.15
434.85	5387.91
435.03	5437.06
435.22	5420.68
435.41	5526.00
435.59	5432.38
435.78	5469.83
435.97	5472.17
436.16	5596.22
436.34	5518.98
436.53	5614.95
436.72	5760.06
436.90	5600.90
437.09	5757.72
437.28	5521.32
437.46	5774.10
437.65	5774.10
437.84	5928.58
438.02	5909.85
438.21	5865.38
438.40	5769.42
438.58	6118.16
438.77	6167.31
438.96	6132.20
439.14	6181.35
439.33	6090.07
439.52	6108.80
439.70	6258.59
439.89	6310.08
440.08	6389.66
440.26	6464.56
440.45	6511.37
440.63	6504.35
440.82	6487.96
441.01	6649.46
441.19	6602.65
441.38	6665.85
441.57	6656.48
441.75	6604.99
441.94	6855.43
442.12	6897.56
442.31	6864.79
442.50	7068.42
442.68	6841.39
442.87	6825.00
443.05	6909.26
443.24	7014.59
443.43	6930.33
443.61	7260.34
443.80	7255.66
443.98	7070.76
444.17	6775.85
444.35	7192.47
444.54	7253.32
444.73	7150.34
444.91	7183.10
445.10	7173.74
445.28	7140.97
445.47	7206.51
445.65	7155.02
445.84	7274.38
446.02	7255.66
446.21	7236.94
446.39	7304.81
446.58	7323.54
446.77	7199.49
446.95	7197.15
447.14	7314.17
447.32	7370.35
447.51	7293.11
447.69	7335.24
447.88	7269.70
448.06	7412.48
448.25	7321.20
448.43	7478.01
448.62	7262.68
448.80	7435.88
448.99	7480.35
449.17	7590.36
449.36	7346.94
449.54	7705.04
449.73	7522.48
449.91	7592.70
450.10	7705.04
450.28	7665.25
450.46	7791.64
450.65	8046.76
450.83	7737.81
451.02	7744.83
451.20	7899.31
451.39	7999.95
451.57	7756.54
451.76	7894.63
451.94	7936.76
452.13	8107.62
452.31	8025.70
452.49	8042.08
452.68	8098.25
452.86	8166.13
453.05	8306.56
453.23	8224.64
453.42	7974.21
453.60	8226.98
453.78	8367.42
453.97	8116.98
454.15	8264.43
454.34	8149.75
454.52	8374.44
454.70	8393.16
454.89	8285.50
455.07	8418.91
455.26	8610.83
455.44	8690.41
455.62	8484.44
455.81	8374.44
455.99	8683.39
456.17	8823.82
456.36	8606.15
456.54	8821.48
456.73	8856.59
456.91	8884.67
457.09	9186.60
457.28	9329.38
457.46	8861.27
457.64	9249.80
457.83	9100.00
458.01	9088.30
458.19	9107.02
458.38	9036.81
458.56	9312.99
458.74	9128.09
458.93	9437.04
459.11	9193.62
459.29	9406.61
459.48	9083.62
459.66	9301.29
459.84	9418.32
460.03	9439.38
460.21	9521.30
460.39	9727.27
460.57	9497.89
460.76	9659.39
460.94	9823.23
461.12	9570.45
461.31	9638.33
461.49	9659.39
461.67	9652.37
461.85	9909.83
462.04	9888.76
462.22	10312.40
462.40	9769.40
462.59	10087.71
462.77	9914.51
462.95	10249.21
463.13	10003.45
463.32	10040.90
463.50	10431.77
463.68	9989.41
463.86	10246.87
464.05	10068.98
464.23	10113.45
464.41	10349.85
464.59	10153.24
464.78	10431.77
464.96	10265.59
465.14	10045.58
465.32	10436.45
465.50	10408.36
465.69	10574.54
465.87	10270.27
466.05	10415.38
466.23	10427.09
466.41	10387.30
466.60	10691.57
466.78	10595.61
466.96	10321.76
467.14	10445.81
467.32	10434.11
467.51	10972.43
467.69	10651.78
467.87	10747.74
468.05	10902.22
468.23	10726.68
468.41	10787.53
468.60	10829.66
468.78	10925.62
468.96	10761.78
469.14	11194.78
469.32	11164.36
469.50	10754.76
469.69	11101.16
469.87	11318.83
470.05	11241.59
470.23	11129.25
470.41	11311.81
470.59	11435.86
470.77	11379.68
470.95	11496.71
471.14	11351.60
471.32	11438.20
471.50	11798.64
471.68	11674.59
471.86	11721.40
472.04	11756.51
472.22	11896.94
472.40	11576.29
472.58	11875.88
472.77	12152.06
472.95	12421.22
473.13	12505.48
473.31	12044.40
473.49	12339.30
473.67	12521.87
473.85	12329.94
474.03	12540.59
474.21	12503.14
474.39	12791.03
474.57	12549.95
474.75	13018.06
474.93	12812.09
475.12	12966.57
475.30	13095.30
475.48	12957.21
475.66	13247.43
475.84	13069.55
476.02	13427.65
476.20	13111.68
476.38	13626.60
476.56	13820.86
476.74	13614.90
476.92	13582.13
477.10	13956.61
477.28	13916.83
477.46	13975.34
477.64	14157.90
477.82	14347.48
478.00	14417.70
478.18	14752.40
478.36	14738.35
478.54	14717.29
478.72	14721.97
478.90	14970.07
479.08	15190.08
479.26	15407.75
479.44	15159.65
479.62	15169.01
479.80	15662.86
479.98	15337.53
480.16	15985.86
480.34	15826.70
480.52	16137.99
480.70	16152.04
480.88	15985.86
481.06	16325.24
481.24	16093.52
481.41	16585.04
481.59	16570.99
481.77	16931.44
481.95	16732.49
482.13	17160.81
482.31	16533.54
482.49	17163.15
482.67	17331.67
482.85	17598.49
483.03	17994.04
483.21	18008.08
483.39	18373.21
483.57	17900.42
483.74	18361.50
483.92	18024.47
484.10	18448.10
484.28	18799.18
484.46	19293.04
484.64	19346.87
484.82	18934.93
485.00	19171.33
485.18	19405.38
485.35	19831.36
485.53	19800.93
485.71	19765.82
485.89	20144.99
486.07	20212.87
486.25	20184.78
486.43	20343.94
486.61	20383.73
486.78	20500.75
486.96	20680.97
487.14	21195.89
487.32	21415.90
487.50	21231.00
487.68	21605.49
487.85	21846.56
488.03	22015.08
488.21	22197.64
488.39	22338.07
488.57	22270.20
488.75	22824.90
488.92	22843.63
489.10	23183.01
489.28	22951.29
489.46	23288.33
489.64	23536.43
489.81	23917.93
489.99	23906.23
490.17	23597.28
490.35	24203.48
490.53	24231.57
490.70	24713.72
490.88	24517.11
491.06	24491.37
491.24	24627.12
491.41	25113.95
491.59	25535.24
491.77	25261.40
491.95	25610.14
492.13	25853.56
492.30	25745.89
492.48	25998.67
492.66	25909.73
492.84	26022.08
493.01	26593.17
493.19	26412.95
493.37	26508.91
493.54	26654.02
493.72	27049.57
493.90	27023.83
494.08	27311.71
494.25	27648.75
494.43	27819.61
494.61	28060.68
494.79	27981.10
494.96	28041.96
495.14	27903.87
495.32	28432.83
495.49	28755.82
495.67	28638.80
495.85	29036.69
496.02	28978.17
496.20	29811.40
496.38	29493.09
496.55	29291.80
496.73	29991.62
496.91	30022.05
497.09	30244.40
497.26	30270.15
497.44	30213.98
497.62	30146.10
497.79	30646.97
497.97	30492.50
498.14	31346.79
498.32	30967.63
498.50	31644.04
498.67	31424.03
498.85	31299.98
499.03	31192.32
499.20	31262.54
499.38	31618.30
499.56	32264.28
499.73	32229.18
499.91	32058.32
500.08	32496.00
500.26	31983.42
500.44	32374.29
500.61	32760.48
500.79	32687.92
500.97	32842.40
501.14	33170.07
501.32	33039.00
501.49	33113.90
501.67	33390.08
501.84	33516.47
502.02	33738.82
502.20	33790.31
502.37	33640.52
502.55	33443.91
502.72	34036.07
502.90	33968.19
503.07	34220.97
503.25	34520.56
503.43	34356.72
503.60	34387.15
503.78	35086.97
503.95	34735.89
504.13	35332.73
504.30	34333.32
504.48	34902.07
504.65	34969.94
504.83	35283.58
505.01	35358.47
505.18	35627.63
505.36	35613.59
505.53	35990.42
505.71	35583.16
505.88	35962.33
506.06	35412.31
506.23	36299.37
506.41	36070.00
506.58	36891.52
506.76	36634.06
506.93	36692.58
507.11	36156.60
507.28	37177.07
507.46	37120.90
507.63	37060.04
507.81	37237.92
507.98	37413.46
508.16	37289.42
508.33	37432.19
508.50	37628.79
508.68	37738.80
508.85	38192.86
509.03	38239.67
509.20	37954.13
509.38	38696.08
509.55	38401.17
509.73	38628.20
509.90	38244.35
510.08	38742.89
510.25	38782.68
510.42	38845.87
510.60	39428.66
510.77	39313.98
510.95	39140.78
511.12	39290.57
511.30	39475.48
511.47	39538.67
511.64	39716.55
511.82	39784.43
511.99	39798.47
512.17	40163.59
512.34	40055.93
512.51	40102.74
512.69	40563.82
512.86	40500.63
513.04	40641.06
513.21	40978.10
513.38	40655.11
513.56	40652.76
513.73	41071.72
513.90	40722.98
514.08	40545.10
514.25	41265.99
514.43	41457.91
514.60	41214.49
514.77	41544.51
514.95	41642.81
515.12	41727.07
515.29	41298.75
515.47	41862.82
515.64	42316.89
515.81	41979.85
515.99	42508.81
516.16	42616.47
516.33	42665.63
516.51	42684.35
516.68	42085.17
516.85	42501.79
517.03	42682.01
517.20	42817.76
517.37	42871.59
517.54	42698.39
517.72	43086.92
517.89	43136.07
518.06	43199.27
518.24	43098.62
518.41	43318.64
518.58	43559.71
518.75	43374.81
518.93	43882.70
519.10	43693.12
519.27	43672.06
519.45	43150.12
519.62	44069.95
519.79	43597.16
519.96	43903.77
520.14	44741.68
520.31	44238.47
520.48	44524.01
520.65	44165.91
520.83	44814.24
521.00	44559.12
521.17	44406.98
521.34	44776.79
521.52	44924.24
521.69	45055.31
521.86	45455.54
522.03	45249.58
522.20	45258.94
522.38	45326.81
522.55	45312.77
522.72	45251.92
522.89	45359.58
523.07	45900.25
523.24	45883.86
523.41	45991.53
523.58	45642.79
523.75	46230.26
523.92	45993.87
524.10	46028.98
524.27	46248.99
524.44	46527.51
524.61	46632.83
524.78	46248.99
524.96	46422.19
525.13	46672.62
525.30	46990.94
525.47	47110.30
525.64	46937.10
525.81	46834.12
525.98	46808.37
526.16	46925.40
526.33	47114.98
526.50	47370.10
526.67	47009.66
526.84	47065.83
527.01	46810.71
527.18	47370.10
527.36	47880.34
527.53	47505.85
527.70	47889.70
527.87	47943.53
528.04	47697.78
528.21	47964.60
528.38	47648.63
528.55	48069.92
528.72	47711.82
528.89	48334.40
529.07	47854.59
529.24	47973.96
529.41	48231.42
529.58	48020.77
529.75	48266.53
529.92	48133.12
530.09	48413.98
530.26	48067.58
530.43	48814.21
530.60	48336.74
530.77	48547.39
530.94	48442.07
531.11	48547.39
531.28	48790.81
531.46	48795.49
531.63	49064.65
531.80	49144.23
531.97	49256.57
532.14	48931.24
532.31	49036.56
532.48	49382.96
532.65	49483.61
532.82	49184.02
532.99	49612.34
533.16	49169.97
533.33	49490.63
533.50	50028.95
533.67	49572.55
533.84	49441.48
534.01	49474.24
534.18	49324.45
534.35	49982.14
534.52	49757.45
534.69	50251.30
534.86	50136.62
535.03	49797.24
535.20	49687.23
535.37	49923.63
535.54	50167.04
535.71	49731.70
535.88	50351.94
536.05	50071.08
536.22	50513.44
536.38	50590.68
536.55	50380.03
536.72	50389.39
536.89	50532.17
537.06	50574.30
537.23	50546.21
537.40	50312.16
537.57	50824.73
537.74	50789.62
537.91	51033.04
538.08	50944.10
538.25	50749.84
538.42	50845.80
538.59	50927.72
538.75	51086.87
538.92	50511.10
539.09	51100.92
539.26	50948.78
539.43	51091.55
539.60	51423.91
539.77	51140.71
539.94	51126.66
540.11	51299.86
540.28	51152.41
540.44	51363.06
540.61	51562.00
540.78	51236.67
540.95	51522.21
541.12	51442.63
541.29	51447.32
541.46	51594.77
541.62	51571.36
541.79	51599.45
541.96	51093.89
542.13	51510.51
542.30	51751.59
542.47	51875.63
542.63	52072.24
542.80	52018.41
542.97	52186.92
543.14	52203.31
543.31	51854.57
543.48	51976.28
543.64	52561.41
543.81	52226.71
543.98	52428.00
544.15	52739.29
544.32	52694.82
544.48	52413.96
544.65	52439.70
544.82	52285.23
544.99	52018.41
545.16	52598.86
545.32	52102.67
545.49	52790.78
545.66	52996.75
545.83	52961.64
546.00	52870.36
546.16	52846.96
546.33	52456.09
546.50	52645.67
546.67	52935.90
546.83	52357.78
547.00	52886.74
547.17	52800.15
547.34	52914.83
547.50	53366.55
547.67	53399.32
547.84	53261.23
548.00	53441.45
548.17	53113.78
548.34	53200.38
548.51	53296.34
548.67	53183.99
548.84	53492.94
549.01	53446.13
549.18	53062.29
549.34	53198.04
549.51	53244.85
549.68	53385.28
549.84	53322.08
550.01	53343.15
550.18	53455.50
550.34	53757.42
550.51	53752.74
550.68	53624.01
550.84	53462.52
551.01	53698.91
551.18	53176.97
551.34	53525.71
551.51	53446.13
551.68	53965.73
551.84	53806.58
552.01	53577.20
552.18	53881.47
552.34	53743.38
552.51	53993.82
552.68	53705.93
552.84	53635.72
553.01	54087.44
553.18	53736.36
553.34	54167.02
553.51	54106.16
553.67	54314.47
553.84	54054.67
554.01	54094.46
554.17	54216.17
554.34	54117.87
554.51	54124.89
554.67	54031.27
554.84	54372.99
555.00	54227.87
555.17	54351.92
555.33	54232.55
555.50	54300.43
555.67	54092.12
555.83	54419.80
556.00	54281.70
556.16	54679.60
556.33	54291.07
556.50	54607.04
556.66	54642.15
556.83	54267.66
556.99	54637.47
557.16	54548.53
557.32	54745.13
557.49	54707.68
557.65	54457.24
557.82	54569.59
557.98	54508.74
558.15	54672.57
558.32	54937.05
558.48	54728.75
558.65	54981.52
558.81	54684.28
558.98	54644.49
559.14	54569.59
559.31	54625.76
559.47	54703.00
559.64	54766.20
559.80	54803.64
559.97	54958.12
560.13	54841.09
560.30	54920.67
560.46	54993.23
560.63	54911.31
560.79	54838.75
560.96	54901.95
561.12	54838.75
561.29	54944.08
561.45	55224.94
561.61	55241.32
561.78	55025.99
561.94	55105.57
562.11	55145.36
562.27	54824.71
562.44	54981.52
562.60	55199.19
562.77	55084.51
562.93	55150.04
563.10	55316.22
563.26	54972.16
563.42	55529.21
563.59	55049.40
563.75	55079.83
563.92	55306.86
564.08	55166.43
564.24	54941.74
564.41	55016.63
564.57	55334.95
564.74	55220.26
564.90	55217.92
565.07	55255.37
565.23	55421.55
565.39	55267.07
565.56	55320.90
565.72	55320.90
565.88	55348.99
566.05	55309.20
566.21	55306.86
566.38	55407.50
566.54	55395.80
566.70	55517.51
566.87	55817.10
567.03	55463.67
567.19	55552.62
567.36	55433.25
567.52	55538.57
567.68	55828.80
567.85	55372.39
568.01	55409.84
568.17	55234.30
568.34	55599.43
568.50	55384.10
568.66	55728.16
568.83	55749.22
568.99	55669.64
569.15	55313.88
569.32	55468.36
569.48	55414.52
569.64	55323.24
569.81	55297.50
569.97	55774.97
570.13	55779.65
570.30	55536.23
570.46	55533.89
570.62	55817.10
570.78	55618.15
570.95	55227.28
571.11	55344.31
571.27	55334.95
571.43	55437.93
571.60	55545.59
571.76	55608.79
571.92	55487.08
572.09	55760.92
572.25	55929.44
572.41	55402.82
572.57	55683.69
572.74	55901.36
572.90	55690.71
573.06	55674.32
573.22	55501.12
573.38	55604.11
573.55	55627.51
573.71	55990.30
573.87	55774.97
574.03	55540.91
574.20	55763.26
574.36	55552.62
574.52	55723.47
574.68	55735.18
574.84	55604.11
575.01	55742.20
575.17	55779.65
575.33	55697.73
575.49	55461.33
575.65	55880.29
575.82	55725.81
575.98	55547.93
576.14	55664.96
576.30	55941.14
576.46	55711.77
576.62	55739.86
576.79	55746.88
576.95	55800.71
577.11	56137.75
577.27	55924.76
577.43	55774.97
577.59	55737.52
577.75	55723.47
577.92	55421.55
578.08	55547.93
578.24	55480.06
578.40	55496.44
578.56	56048.81
578.72	55739.86
578.88	55877.95
579.04	56104.98
579.21	56177.54
579.37	55992.64
579.53	55821.78
579.69	55412.18
579.85	55833.48
580.01	55676.66
580.17	55749.22
580.33	55805.39
580.49	55870.93
580.65	55976.25
580.82	55655.60
580.98	56011.36
581.14	55643.90
581.30	55833.48
581.46	55739.86
581.62	55842.84
581.78	55611.13
581.94	55800.71
582.10	55636.87
582.26	55798.37
582.42	55983.27
582.58	56023.06
582.74	56020.72
582.90	55695.39
583.06	55896.67
583.22	55831.14
583.38	55529.21
583.54	55803.05
583.70	56009.02
583.86	55817.10
584.02	56004.34
584.18	56023.06
584.34	55910.72
584.50	55887.31
584.66	56102.64
584.82	55849.86
584.98	55896.67
585.14	55894.33
585.30	55739.86
585.46	56102.64
585.62	55840.50
585.78	55908.38
585.94	55908.38
586.10	55880.29
586.26	55707.09
586.42	56044.13
586.58	56193.92
586.74	55852.20
586.90	55646.24
587.06	55657.94
587.22	55891.99
587.38	55723.47
587.54	56037.11
587.70	56095.62
587.86	56165.84
588.02	56156.47
588.18	56219.67
588.34	56236.05
588.49	55987.95
588.65	55964.55
588.81	56123.71
588.97	56222.01
589.13	55791.35
589.29	56081.58
589.45	56172.86
589.61	56072.21
589.77	56442.02
