SpectraSuite Data File
++++++++++++++++++++++++++++++++++++
Date: Fri Oct 04 11:46:57 GMT-05:00 2013
User: price-jones
Dark Spectrum Present: No
Reference Spectrum Present: No
Number of Sampled Component Spectra: 1
Spectrometers: USB2+H05261
Integration Time (usec): 100000 (USB2+H05261)
Spectra Averaged: 1 (USB2+H05261)
Boxcar Smoothing: 0 (USB2+H05261)
Correct for Electrical Dark: No (USB2+H05261)
Strobe/Lamp Enabled: No (USB2+H05261)
Correct for Detector Non-linearity: No (USB2+H05261)
Correct for Stray Light: No (USB2+H05261)
Number of Pixels in Processed Spectrum: 2048
>>>>>Begin Processed Spectral Data<<<<<
365.73	0.00
365.92	0.00
366.12	0.00
366.32	0.00
366.52	0.00
366.72	0.00
366.91	0.00
367.11	0.00
367.31	0.00
367.51	0.00
367.70	0.00
367.90	9.36
368.10	0.00
368.30	0.00
368.49	0.00
368.69	0.00
368.89	0.00
369.09	0.00
369.28	0.00
369.48	0.00
369.68	0.00
369.87	0.00
370.07	7.02
370.27	0.00
370.47	2.34
370.66	0.00
370.86	79.58
371.06	30.43
371.25	102.98
371.45	74.90
371.65	0.00
371.84	21.06
372.04	0.00
372.24	21.06
372.44	11.70
372.63	128.73
372.83	105.32
373.03	77.24
373.22	95.96
373.42	39.79
373.62	121.71
373.81	119.37
374.01	91.28
374.21	95.96
374.40	51.49
374.60	102.98
374.79	128.73
374.99	138.09
375.19	98.30
375.38	79.58
375.58	67.88
375.78	117.03
375.97	140.43
376.17	184.90
376.37	32.77
376.56	93.62
376.76	67.88
376.95	124.05
377.15	63.19
377.35	93.62
377.54	107.66
377.74	119.37
377.93	39.79
378.13	121.71
378.33	156.82
378.52	110.01
378.72	53.83
378.91	133.41
379.11	79.58
379.31	107.66
379.50	105.32
379.70	117.03
379.89	91.28
380.09	119.37
380.28	95.96
380.48	84.26
380.68	95.96
380.87	0.00
381.07	110.01
381.26	184.90
381.46	168.52
381.65	112.35
381.85	51.49
382.04	102.98
382.24	107.66
382.43	98.30
382.63	67.88
382.83	60.85
383.02	88.94
383.22	159.16
383.41	124.05
383.61	107.66
383.80	67.88
384.00	42.13
384.19	119.37
384.39	51.49
384.58	128.73
384.78	81.92
384.97	60.85
385.17	107.66
385.36	77.24
385.56	91.28
385.75	112.35
385.95	124.05
386.14	227.03
386.34	37.45
386.53	114.69
386.72	119.37
386.92	112.35
387.11	100.64
387.31	126.39
387.50	133.41
387.70	84.26
387.89	168.52
388.09	42.13
388.28	91.28
388.48	58.51
388.67	147.45
388.86	63.19
389.06	133.41
389.25	67.88
389.45	154.48
389.64	149.79
389.84	205.97
390.03	93.62
390.22	63.19
390.42	30.43
390.61	114.69
390.81	70.22
391.00	147.45
391.19	114.69
391.39	95.96
391.58	30.43
391.78	67.88
391.97	70.22
392.16	110.01
392.36	131.07
392.55	65.54
392.75	128.73
392.94	135.75
393.13	70.22
393.33	105.32
393.52	53.83
393.71	215.33
393.91	67.88
394.10	81.92
394.29	98.30
394.49	88.94
394.68	110.01
394.88	98.30
395.07	154.48
395.26	138.09
395.46	114.69
395.65	86.60
395.84	95.96
396.04	208.31
396.23	149.79
396.42	117.03
396.62	117.03
396.81	124.05
397.00	84.26
397.19	107.66
397.39	147.45
397.58	102.98
397.77	35.11
397.97	124.05
398.16	154.48
398.35	112.35
398.55	107.66
398.74	156.82
398.93	140.43
399.12	79.58
399.32	168.52
399.51	65.54
399.70	131.07
399.90	121.71
400.09	32.77
400.28	117.03
400.47	79.58
400.67	112.35
400.86	145.11
401.05	121.71
401.24	126.39
401.44	112.35
401.63	124.05
401.82	117.03
402.01	70.22
402.21	128.73
402.40	112.35
402.59	121.71
402.78	81.92
402.97	49.15
403.17	100.64
403.36	149.79
403.55	124.05
403.74	42.13
403.93	121.71
404.13	110.01
404.32	135.75
404.51	121.71
404.70	107.66
404.89	93.62
405.09	180.22
405.28	102.98
405.47	147.45
405.66	128.73
405.85	117.03
406.05	56.17
406.24	37.45
406.43	131.07
406.62	91.28
406.81	95.96
407.00	156.82
407.20	110.01
407.39	152.13
407.58	65.54
407.77	131.07
407.96	117.03
408.15	88.94
408.34	149.79
408.54	128.73
408.73	128.73
408.92	110.01
409.11	170.86
409.30	88.94
409.49	105.32
409.68	142.77
409.87	159.16
410.07	67.88
410.26	112.35
410.45	81.92
410.64	77.24
410.83	114.69
411.02	117.03
411.21	39.79
411.40	166.18
411.59	77.24
411.78	93.62
411.98	210.65
412.17	107.66
412.36	124.05
412.55	102.98
412.74	110.01
412.93	110.01
413.12	81.92
413.31	124.05
413.50	112.35
413.69	107.66
413.88	86.60
414.07	166.18
414.26	128.73
414.45	100.64
414.64	170.86
414.83	56.17
415.02	128.73
415.22	138.09
415.41	135.75
415.60	135.75
415.79	98.30
415.98	98.30
416.17	126.39
416.36	77.24
416.55	124.05
416.74	156.82
416.93	166.18
417.12	105.32
417.31	140.43
417.50	142.77
417.69	180.22
417.88	149.79
418.07	152.13
418.26	114.69
418.45	147.45
418.64	180.22
418.83	205.97
419.02	203.63
419.21	131.07
419.39	152.13
419.58	189.58
419.77	145.11
419.96	145.11
420.15	117.03
420.34	95.96
420.53	84.26
420.72	177.88
420.91	177.88
421.10	170.86
421.29	170.86
421.48	79.58
421.67	117.03
421.86	173.20
422.05	102.98
422.24	121.71
422.43	168.52
422.61	84.26
422.80	119.37
422.99	140.43
423.18	131.07
423.37	114.69
423.56	177.88
423.75	154.48
423.94	107.66
424.13	161.50
424.32	124.05
424.50	124.05
424.69	203.63
424.88	229.37
425.07	170.86
425.26	231.71
425.45	234.05
425.64	208.31
425.83	201.29
426.01	107.66
426.20	156.82
426.39	168.52
426.58	112.35
426.77	60.85
426.96	201.29
427.15	131.07
427.33	133.41
427.52	168.52
427.71	182.56
427.90	88.94
428.09	154.48
428.28	42.13
428.46	135.75
428.65	210.65
428.84	131.07
429.03	156.82
429.22	28.09
429.40	67.88
429.59	182.56
429.78	135.75
429.97	142.77
430.16	114.69
430.34	142.77
430.53	163.84
430.72	93.62
430.91	184.90
431.10	58.51
431.28	67.88
431.47	163.84
431.66	189.58
431.85	77.24
432.03	140.43
432.22	224.69
432.41	88.94
432.60	170.86
432.79	145.11
432.97	182.56
433.16	215.33
433.35	189.58
433.54	229.37
433.72	220.01
433.91	114.69
434.10	170.86
434.28	217.67
434.47	154.48
434.66	131.07
434.85	133.41
435.03	86.60
435.22	168.52
435.41	163.84
435.59	112.35
435.78	91.28
435.97	121.71
436.16	93.62
436.34	170.86
436.53	142.77
436.72	152.13
436.90	142.77
437.09	147.45
437.28	175.54
437.46	166.18
437.65	102.98
437.84	149.79
438.02	180.22
438.21	203.63
438.40	126.39
438.58	28.09
438.77	105.32
438.96	128.73
439.14	102.98
439.33	98.30
439.52	93.62
439.70	93.62
439.89	152.13
440.08	124.05
440.26	79.58
440.45	184.90
440.63	133.41
440.82	107.66
441.01	133.41
441.19	91.28
441.38	112.35
441.57	35.11
441.75	133.41
441.94	189.58
442.12	170.86
442.31	142.77
442.50	234.05
442.68	112.35
442.87	72.56
443.05	140.43
443.24	117.03
443.43	175.54
443.61	163.84
443.80	131.07
443.98	84.26
444.17	182.56
444.35	159.16
444.54	126.39
444.73	77.24
444.91	191.92
445.10	100.64
445.28	145.11
445.47	180.22
445.65	156.82
445.84	74.90
446.02	205.97
446.21	121.71
446.39	124.05
446.58	140.43
446.77	117.03
446.95	84.26
447.14	114.69
447.32	201.29
447.51	196.60
447.69	126.39
447.88	88.94
448.06	170.86
448.25	124.05
448.43	126.39
448.62	149.79
448.80	152.13
448.99	184.90
449.17	166.18
449.36	110.01
449.54	135.75
449.73	105.32
449.91	205.97
450.10	133.41
450.28	248.10
450.46	187.24
450.65	187.24
450.83	102.98
451.02	110.01
451.20	91.28
451.39	95.96
451.57	100.64
451.76	107.66
451.94	163.84
452.13	184.90
452.31	114.69
452.49	131.07
452.68	88.94
452.86	135.75
453.05	166.18
453.23	196.60
453.42	44.47
453.60	124.05
453.78	147.45
453.97	161.50
454.15	42.13
454.34	98.30
454.52	91.28
454.70	140.43
454.89	124.05
455.07	65.54
455.26	215.33
455.44	105.32
455.62	105.32
455.81	140.43
455.99	161.50
456.17	121.71
456.36	175.54
456.54	187.24
456.73	117.03
456.91	100.64
457.09	156.82
457.28	135.75
457.46	100.64
457.64	126.39
457.83	95.96
458.01	135.75
458.19	201.29
458.38	100.64
458.56	84.26
458.74	124.05
458.93	161.50
459.11	112.35
459.29	140.43
459.48	177.88
459.66	177.88
459.84	140.43
460.03	156.82
460.21	215.33
460.39	140.43
460.57	194.26
460.76	140.43
460.94	107.66
461.12	133.41
461.31	173.20
461.49	112.35
461.67	145.11
461.85	114.69
462.04	128.73
462.22	547.69
462.40	131.07
462.59	133.41
462.77	81.92
462.95	86.60
463.13	93.62
463.32	212.99
463.50	121.71
463.68	105.32
463.86	154.48
464.05	128.73
464.23	212.99
464.41	131.07
464.59	126.39
464.78	126.39
464.96	168.52
465.14	149.79
465.32	117.03
465.50	156.82
465.69	133.41
465.87	51.49
466.05	161.50
466.23	100.64
466.41	124.05
466.60	112.35
466.78	198.95
466.96	168.52
467.14	95.96
467.32	91.28
467.51	154.48
467.69	175.54
467.87	152.13
468.05	159.16
468.23	191.92
468.41	102.98
468.60	175.54
468.78	135.75
468.96	135.75
469.14	159.16
469.32	105.32
469.50	107.66
469.69	161.50
469.87	187.24
470.05	215.33
470.23	205.97
470.41	67.88
470.59	124.05
470.77	140.43
470.95	119.37
471.14	152.13
471.32	152.13
471.50	210.65
471.68	184.90
471.86	133.41
472.04	114.69
472.22	140.43
472.40	128.73
472.58	112.35
472.77	93.62
472.95	117.03
473.13	156.82
473.31	149.79
473.49	196.60
473.67	161.50
473.85	58.51
474.03	147.45
474.21	138.09
474.39	140.43
474.57	294.91
474.75	112.35
474.93	117.03
475.12	84.26
475.30	177.88
475.48	191.92
475.66	124.05
475.84	152.13
476.02	88.94
476.20	250.44
476.38	100.64
476.56	170.86
476.74	154.48
476.92	60.85
477.10	194.26
477.28	119.37
477.46	135.75
477.64	91.28
477.82	173.20
478.00	166.18
478.18	180.22
478.36	140.43
478.54	100.64
478.72	166.18
478.90	133.41
479.08	102.98
479.26	159.16
479.44	168.52
479.62	131.07
479.80	140.43
479.98	98.30
480.16	191.92
480.34	152.13
480.52	163.84
480.70	147.45
480.88	135.75
481.06	147.45
481.24	110.01
481.41	168.52
481.59	105.32
481.77	107.66
481.95	124.05
482.13	180.22
482.31	222.35
482.49	177.88
482.67	177.88
482.85	180.22
483.03	170.86
483.21	222.35
483.39	119.37
483.57	156.82
483.74	198.95
483.92	77.24
484.10	126.39
484.28	210.65
484.46	205.97
484.64	156.82
484.82	100.64
485.00	131.07
485.18	203.63
485.35	163.84
485.53	95.96
485.71	208.31
485.89	102.98
486.07	189.58
486.25	163.84
486.43	191.92
486.61	154.48
486.78	180.22
486.96	152.13
487.14	138.09
487.32	114.69
487.50	145.11
487.68	184.90
487.85	217.67
488.03	105.32
488.21	257.46
488.39	208.31
488.57	149.79
488.75	191.92
488.92	355.76
489.10	170.86
489.28	220.01
489.46	187.24
489.64	156.82
489.81	102.98
489.99	205.97
490.17	128.73
490.35	243.42
490.53	173.20
490.70	173.20
490.88	196.60
491.06	163.84
491.24	198.95
491.41	241.08
491.59	191.92
491.77	147.45
491.95	231.71
492.13	128.73
492.30	173.20
492.48	163.84
492.66	187.24
492.84	154.48
493.01	196.60
493.19	180.22
493.37	205.97
493.54	175.54
493.72	194.26
493.90	168.52
494.08	133.41
494.25	159.16
494.43	212.99
494.61	210.65
494.79	170.86
494.96	140.43
495.14	210.65
495.32	184.90
495.49	182.56
495.67	191.92
495.85	114.69
496.02	229.37
496.20	182.56
496.38	149.79
496.55	159.16
496.73	180.22
496.91	175.54
497.09	236.39
497.26	163.84
497.44	180.22
497.62	182.56
497.79	152.13
497.97	236.39
498.14	149.79
498.32	222.35
498.50	156.82
498.67	147.45
498.85	126.39
499.03	159.16
499.20	201.29
499.38	163.84
499.56	168.52
499.73	287.89
499.91	187.24
500.08	241.08
500.26	189.58
500.44	201.29
500.61	138.09
500.79	194.26
500.97	198.95
501.14	163.84
501.32	152.13
501.49	238.73
501.67	163.84
501.84	159.16
502.02	154.48
502.20	222.35
502.37	215.33
502.55	154.48
502.72	224.69
502.90	236.39
503.07	196.60
503.25	159.16
503.43	205.97
503.60	205.97
503.78	276.18
503.95	156.82
504.13	208.31
504.30	215.33
504.48	231.71
504.65	205.97
504.83	255.12
505.01	159.16
505.18	205.97
505.36	224.69
505.53	191.92
505.71	229.37
505.88	229.37
506.06	250.44
506.23	145.11
506.41	102.98
506.58	245.76
506.76	142.77
506.93	177.88
507.11	222.35
507.28	198.95
507.46	189.58
507.63	259.80
507.81	180.22
507.98	182.56
508.16	203.63
508.33	156.82
508.50	217.67
508.68	177.88
508.85	163.84
509.03	227.03
509.20	152.13
509.38	227.03
509.55	210.65
509.73	222.35
509.90	184.90
510.08	149.79
510.25	212.99
510.42	175.54
510.60	189.58
510.77	182.56
510.95	191.92
511.12	285.55
511.30	243.42
511.47	248.10
511.64	257.46
511.82	224.69
511.99	243.42
512.17	196.60
512.34	208.31
512.51	191.92
512.69	196.60
512.86	231.71
513.04	212.99
513.21	191.92
513.38	173.20
513.56	175.54
513.73	252.78
513.90	159.16
514.08	154.48
514.25	175.54
514.43	203.63
514.60	198.95
514.77	168.52
514.95	231.71
515.12	227.03
515.29	212.99
515.47	257.46
515.64	187.24
515.81	170.86
515.99	238.73
516.16	196.60
516.33	175.54
516.51	149.79
516.68	154.48
516.85	196.60
517.03	210.65
517.20	175.54
517.37	196.60
517.54	238.73
517.72	203.63
517.89	140.43
518.06	212.99
518.24	238.73
518.41	250.44
518.58	243.42
518.75	217.67
518.93	245.76
519.10	168.52
519.27	173.20
519.45	163.84
519.62	184.90
519.79	177.88
519.96	154.48
520.14	194.26
520.31	180.22
520.48	196.60
520.65	222.35
520.83	198.95
521.00	117.03
521.17	175.54
521.34	217.67
521.52	250.44
521.69	215.33
521.86	187.24
522.03	257.46
522.20	205.97
522.38	203.63
522.55	194.26
522.72	227.03
522.89	147.45
523.07	163.84
523.24	156.82
523.41	215.33
523.58	257.46
523.75	245.76
523.92	250.44
524.10	161.50
524.27	177.88
524.44	215.33
524.61	262.14
524.78	227.03
524.96	210.65
525.13	140.43
525.30	194.26
525.47	243.42
525.64	168.52
525.81	229.37
525.98	212.99
526.16	229.37
526.33	170.86
526.50	182.56
526.67	140.43
526.84	231.71
527.01	159.16
527.18	173.20
527.36	205.97
527.53	210.65
527.70	227.03
527.87	159.16
528.04	290.23
528.21	140.43
528.38	276.18
528.55	262.14
528.72	220.01
528.89	278.52
529.07	159.16
529.24	250.44
529.41	201.29
529.58	241.08
529.75	147.45
529.92	224.69
530.09	210.65
530.26	194.26
530.43	203.63
530.60	205.97
530.77	212.99
530.94	243.42
531.11	161.50
531.28	224.69
531.46	159.16
531.63	180.22
531.80	203.63
531.97	229.37
532.14	231.71
532.31	248.10
532.48	208.31
532.65	351.08
532.82	290.23
532.99	322.99
533.16	283.20
533.33	248.10
533.50	217.67
533.67	325.33
533.84	374.49
534.01	374.49
534.18	339.38
534.35	276.18
534.52	217.67
534.69	250.44
534.86	264.48
535.03	255.12
535.20	180.22
535.37	229.37
535.54	250.44
535.71	250.44
535.88	229.37
536.05	159.16
536.22	161.50
536.38	196.60
536.55	173.20
536.72	194.26
536.89	201.29
537.06	189.58
537.23	205.97
537.40	224.69
537.57	241.08
537.74	227.03
537.91	163.84
538.08	217.67
538.25	177.88
538.42	215.33
538.59	236.39
538.75	243.42
538.92	212.99
539.09	161.50
539.26	248.10
539.43	510.24
539.60	922.17
539.77	1458.15
539.94	1462.83
540.11	980.68
540.28	622.58
540.44	407.25
540.61	283.20
540.78	234.05
540.95	138.09
541.12	250.44
541.29	252.78
541.46	290.23
541.62	196.60
541.79	245.76
541.96	215.33
542.13	236.39
542.30	159.16
542.47	198.95
542.63	191.92
542.80	145.11
542.97	227.03
543.14	227.03
543.31	215.33
543.48	177.88
543.64	271.50
543.81	159.16
543.98	142.77
544.15	245.76
544.32	257.46
544.48	170.86
544.65	163.84
544.82	131.07
544.99	220.01
545.16	227.03
545.32	215.33
545.49	156.82
545.66	227.03
545.83	163.84
546.00	236.39
546.16	194.26
546.33	203.63
546.50	217.67
546.67	241.08
546.83	215.33
547.00	271.50
547.17	203.63
547.34	187.24
547.50	215.33
547.67	159.16
547.84	215.33
548.00	149.79
548.17	177.88
548.34	187.24
548.51	222.35
548.67	203.63
548.84	257.46
549.01	220.01
549.18	198.95
549.34	198.95
549.51	203.63
549.68	222.35
549.84	91.28
550.01	180.22
550.18	290.23
550.34	248.10
550.51	191.92
550.68	234.05
550.84	287.89
551.01	217.67
551.18	177.88
551.34	248.10
551.51	257.46
551.68	234.05
551.84	227.03
552.01	187.24
552.18	131.07
552.34	255.12
552.51	203.63
552.68	229.37
552.84	229.37
553.01	168.52
553.18	163.84
553.34	140.43
553.51	163.84
553.67	152.13
553.84	241.08
554.01	271.50
554.17	212.99
554.34	208.31
554.51	224.69
554.67	231.71
554.84	224.69
555.00	210.65
555.17	161.50
555.33	194.26
555.50	238.73
555.67	255.12
555.83	135.75
556.00	273.84
556.16	388.53
556.33	154.48
556.50	205.97
556.66	229.37
556.83	210.65
556.99	149.79
557.16	252.78
557.32	175.54
557.49	248.10
557.65	100.64
557.82	205.97
557.98	255.12
558.15	180.22
558.32	191.92
558.48	222.35
558.65	189.58
558.81	198.95
558.98	168.52
559.14	194.26
559.31	135.75
559.47	196.60
559.64	215.33
559.80	285.55
559.97	170.86
560.13	191.92
560.30	170.86
560.46	131.07
560.63	198.95
560.79	212.99
560.96	257.46
561.12	121.71
561.29	205.97
561.45	201.29
561.61	168.52
561.78	341.72
561.94	212.99
562.11	194.26
562.27	236.39
562.44	285.55
562.60	168.52
562.77	142.77
562.93	196.60
563.10	196.60
563.26	187.24
563.42	224.69
563.59	276.18
563.75	203.63
563.92	238.73
564.08	224.69
564.24	227.03
564.41	210.65
564.57	170.86
564.74	168.52
564.90	238.73
565.07	208.31
565.23	189.58
565.39	229.37
565.56	271.50
565.72	175.54
565.88	212.99
566.05	201.29
566.21	177.88
566.38	231.71
566.54	189.58
566.70	212.99
566.87	124.05
567.03	147.45
567.19	196.60
567.36	170.86
567.52	135.75
567.68	203.63
567.85	238.73
568.01	161.50
568.17	177.88
568.34	227.03
568.50	320.65
568.66	149.79
568.83	344.06
568.99	248.10
569.15	264.48
569.32	168.52
569.48	163.84
569.64	184.90
569.81	269.16
569.97	182.56
570.13	142.77
570.30	205.97
570.46	168.52
570.62	189.58
570.78	168.52
570.95	140.43
571.11	154.48
571.27	252.78
571.43	208.31
571.60	308.95
571.76	191.92
571.92	187.24
572.09	222.35
572.25	222.35
572.41	229.37
572.57	208.31
572.74	245.76
572.90	210.65
573.06	210.65
573.22	231.71
573.38	217.67
573.55	259.80
573.71	173.20
573.87	220.01
574.03	159.16
574.20	248.10
574.36	304.27
574.52	287.89
574.68	266.82
574.84	276.18
575.01	252.78
575.17	227.03
575.33	198.95
575.49	255.12
575.65	224.69
575.82	346.40
575.98	552.37
576.14	582.79
576.30	615.56
576.46	482.15
576.62	425.98
576.79	372.15
576.95	315.97
577.11	320.65
577.27	166.18
577.43	259.80
577.59	227.03
577.75	287.89
577.92	241.08
578.08	229.37
578.24	234.05
578.40	222.35
578.56	222.35
578.72	273.84
578.88	245.76
579.04	220.01
579.21	292.57
579.37	283.20
579.53	210.65
579.69	280.86
579.85	308.95
580.01	290.23
580.17	348.74
580.33	327.68
580.49	334.70
580.65	280.86
580.82	318.31
580.98	290.23
581.14	318.31
581.30	369.80
581.46	454.06
581.62	498.53
581.78	571.09
581.94	524.28
582.10	491.51
582.26	447.04
582.42	421.30
582.58	365.12
582.74	294.91
582.90	390.87
583.06	379.17
583.22	390.87
583.38	435.34
583.54	451.72
583.70	571.09
583.86	571.09
584.02	657.69
584.18	961.96
584.34	1170.27
584.50	3028.65
584.66	23623.03
584.82	55351.33
584.98	64956.89
585.14	62019.52
585.30	47325.63
585.46	28835.40
585.62	17436.99
585.78	7962.50
585.94	3131.64
586.10	1444.11
586.26	992.39
586.42	863.66
586.58	613.22
586.74	535.98
586.90	571.09
587.06	599.18
587.22	554.71
587.38	491.51
587.54	1188.99
587.70	3323.56
587.86	5600.90
588.02	6462.22
588.18	4360.42
588.34	2703.32
588.49	1834.98
588.65	1067.28
588.81	620.24
588.97	400.23
589.13	330.02
589.29	334.70
589.45	301.93
589.61	287.89
589.77	383.85
589.93	404.91
590.08	472.79
590.24	386.19
590.40	367.46
590.56	365.12
590.72	358.10
590.88	390.87
591.04	301.93
591.20	339.38
591.35	409.59
591.51	273.84
591.67	224.69
591.83	294.91
591.99	322.99
592.15	318.31
592.31	276.18
592.46	320.65
592.62	327.68
592.78	229.37
592.94	224.69
593.10	313.63
593.26	264.48
593.41	301.93
593.57	379.17
593.73	540.66
593.89	2850.77
594.05	7190.13
594.20	10771.15
594.36	10132.18
594.52	6628.40
594.68	4133.39
594.84	2768.85
594.99	1465.18
595.15	767.70
595.31	402.57
595.47	381.51
595.62	271.50
595.78	257.46
595.94	311.29
596.10	252.78
596.25	344.06
596.41	320.65
596.57	287.89
596.73	308.95
596.88	568.75
597.04	1359.85
597.20	2225.85
597.36	2588.63
597.51	2001.16
597.67	1310.70
597.83	947.92
597.99	648.33
598.14	414.27
598.30	355.76
598.46	250.44
598.61	299.59
598.77	252.78
598.93	311.29
599.09	243.42
599.24	222.35
599.40	189.58
599.56	278.52
599.71	210.65
599.87	238.73
600.03	280.86
600.18	285.55
600.34	224.69
600.50	238.73
600.65	184.90
600.81	168.52
600.97	175.54
601.12	147.45
601.28	257.46
601.44	175.54
601.59	198.95
601.75	283.20
601.91	243.42
602.06	191.92
602.22	285.55
602.37	697.48
602.53	1558.80
602.69	2670.55
602.84	2860.13
603.00	1935.62
603.16	1327.08
603.31	997.07
603.47	662.37
603.62	311.29
603.78	346.40
603.94	315.97
604.09	189.58
604.25	217.67
604.40	271.50
604.56	301.93
604.71	187.24
604.87	145.11
605.03	241.08
605.18	217.67
605.34	245.76
605.49	264.48
605.65	276.18
605.80	236.39
605.96	255.12
606.12	285.55
606.27	341.72
606.43	264.48
606.58	301.93
606.74	807.48
606.89	3438.25
607.05	6862.45
607.20	8980.64
607.36	7403.11
607.51	5067.26
607.67	3288.45
607.82	2064.35
607.98	1254.53
608.13	585.13
608.29	395.55
608.44	369.80
608.60	386.19
608.75	477.47
608.91	1128.14
609.06	5430.04
609.22	11829.07
609.37	16095.86
609.53	13916.83
609.68	9472.15
609.84	6104.12
609.99	3904.01
610.15	1989.46
610.30	987.71
610.46	521.94
610.61	409.59
610.76	344.06
610.92	285.55
611.07	248.10
611.23	393.21
611.38	304.27
611.54	250.44
611.69	299.59
