SpectraSuite Data File
++++++++++++++++++++++++++++++++++++
Date: Fri Oct 04 11:48:25 GMT-05:00 2013
User: price-jones
Dark Spectrum Present: No
Reference Spectrum Present: No
Number of Sampled Component Spectra: 1
Spectrometers: USB2+H05261
Integration Time (usec): 100000 (USB2+H05261)
Spectra Averaged: 1 (USB2+H05261)
Boxcar Smoothing: 0 (USB2+H05261)
Correct for Electrical Dark: No (USB2+H05261)
Strobe/Lamp Enabled: No (USB2+H05261)
Correct for Detector Non-linearity: No (USB2+H05261)
Correct for Stray Light: No (USB2+H05261)
Number of Pixels in Processed Spectrum: 2048
>>>>>Begin Processed Spectral Data<<<<<
365.73	0.00
365.92	0.00
366.12	0.00
366.32	0.00
366.52	0.00
366.72	0.00
366.91	0.00
367.11	0.00
367.31	0.00
367.51	0.00
367.70	0.00
367.90	0.00
368.10	0.00
368.30	0.00
368.49	0.00
368.69	0.00
368.89	0.00
369.09	0.00
369.28	0.00
369.48	0.00
369.68	21.06
369.87	60.85
370.07	0.00
370.27	37.45
370.47	95.96
370.66	550.03
370.86	664.71
371.06	578.11
371.25	634.29
371.45	629.60
371.65	791.10
371.84	648.33
372.04	624.92
372.24	760.67
372.44	655.35
372.63	650.67
372.83	683.44
373.03	802.80
373.22	727.91
373.42	788.76
373.62	791.10
373.81	760.67
374.01	767.70
374.21	760.67
374.40	849.61
374.60	880.04
374.79	840.25
374.99	840.25
375.19	924.51
375.38	978.34
375.58	823.87
375.78	837.91
375.97	830.89
376.17	947.92
376.37	877.70
376.56	898.77
376.76	833.23
376.95	866.00
377.15	966.64
377.35	971.32
377.54	926.85
377.74	980.68
377.93	1025.15
378.13	966.64
378.33	1057.92
378.52	1053.24
378.72	1029.84
378.91	954.94
379.11	1067.28
379.31	1069.62
379.50	997.07
379.70	1055.58
379.89	1043.88
380.09	1053.24
380.28	1018.13
380.48	1137.50
380.68	1121.12
380.87	1074.31
381.07	1097.71
381.26	1118.78
381.46	1128.14
381.65	1062.60
381.85	1156.22
382.04	1217.08
382.24	1174.95
382.43	1212.40
382.63	1118.78
382.83	1144.52
383.02	1329.42
383.22	1303.68
383.41	1151.54
383.61	1238.14
383.80	1275.59
384.00	1299.00
384.19	1303.68
384.39	1306.02
384.58	1210.06
384.78	1261.55
384.97	1329.42
385.17	1198.35
385.36	1338.79
385.56	1387.94
385.75	1261.55
385.95	1387.94
386.14	1394.96
386.34	1465.18
386.53	1345.81
386.72	1420.71
386.92	1462.83
387.11	1469.86
387.31	1420.71
387.50	1542.41
387.70	1397.30
387.89	1479.22
388.09	1533.05
388.28	1490.92
388.48	1465.18
388.67	1493.26
388.86	1507.30
389.06	1483.90
389.25	1593.90
389.45	1577.52
389.64	1516.67
389.84	1614.97
390.03	1621.99
390.22	1696.89
390.42	1694.55
390.61	1528.37
390.81	1614.97
391.00	1619.65
391.19	1685.19
391.39	1703.91
391.58	1729.66
391.78	1638.38
391.97	1778.81
392.16	1842.00
392.36	1827.96
392.55	1680.50
392.75	1795.19
392.94	1837.32
393.13	1785.83
393.33	1720.29
393.52	1816.26
393.71	1856.04
393.91	1928.60
394.10	1867.75
394.29	1973.07
394.49	1891.15
394.68	1942.64
394.88	1895.83
395.07	1942.64
395.26	2092.44
395.46	2071.37
395.65	2087.76
395.84	2087.76
396.04	2141.59
396.23	2115.84
396.42	2090.10
396.62	2211.81
396.81	2125.21
397.00	2162.66
397.19	2085.42
397.39	2228.19
397.58	2300.75
397.77	2242.23
397.97	2286.70
398.16	2335.85
398.35	2422.45
398.55	2272.66
398.74	2331.17
398.93	2345.22
399.12	2272.66
399.32	2359.26
399.51	2338.20
399.70	2518.42
399.90	2434.16
400.09	2469.27
400.28	2527.78
400.47	2483.31
400.67	2754.81
400.86	2719.70
401.05	2572.25
401.24	2548.84
401.44	2745.45
401.63	2637.78
401.82	2607.36
402.01	2628.42
402.21	2708.00
402.40	2663.53
402.59	2787.58
402.78	2764.17
402.97	2743.11
403.17	2808.64
403.36	2857.79
403.55	2902.26
403.74	3014.61
403.93	3030.99
404.13	2897.58
404.32	2792.26
404.51	2937.37
404.70	3038.02
404.89	3089.51
405.09	3026.31
405.28	3073.12
405.47	3199.51
405.66	3126.96
405.85	3105.89
406.05	3159.72
406.24	3171.43
406.43	3129.30
406.62	3239.30
406.81	3332.92
407.00	3173.77
407.20	3232.28
407.39	3323.56
407.58	3391.44
407.77	3349.31
407.96	3445.27
408.15	3496.76
408.34	3370.37
408.54	3506.12
408.73	3424.20
408.92	3506.12
409.11	3749.54
409.30	3660.60
409.49	3527.19
409.68	3597.40
409.87	3719.11
410.07	3719.11
410.26	3735.50
410.45	3836.14
410.64	3749.54
410.83	3749.54
411.02	3812.73
411.21	3981.25
411.40	3824.44
411.59	3939.12
411.78	4018.70
411.98	4056.15
412.17	4102.96
412.36	4070.19
412.55	4234.03
412.74	4198.92
412.93	4280.84
413.12	4187.22
413.31	4358.08
413.50	4299.56
413.69	4425.95
413.88	4423.61
414.07	4437.66
414.26	4573.41
414.45	4479.79
414.64	4685.75
414.83	4720.86
415.02	4702.14
415.22	4641.28
415.41	4943.21
415.60	4767.67
415.79	4894.06
415.98	4908.10
416.17	4933.85
416.36	4898.74
416.55	5006.41
416.74	5102.37
416.93	5146.84
417.12	5226.42
417.31	5181.95
417.50	5193.65
417.69	5401.96
417.88	5343.44
418.07	5287.27
418.26	5226.42
418.45	5327.06
418.64	5509.62
418.83	5612.60
419.02	5521.32
419.21	5746.02
419.39	5619.63
419.58	5338.76
419.77	5790.49
419.96	5666.44
420.15	5888.79
420.34	5591.54
420.53	5785.80
420.72	5788.14
420.91	5790.49
421.10	6001.13
421.29	6122.84
421.48	5879.43
421.67	5891.13
421.86	6008.16
422.05	5963.68
422.24	5933.26
422.43	6050.28
422.61	6127.52
422.80	6197.74
422.99	6265.61
423.18	6221.14
423.37	6359.24
423.56	6214.12
423.75	6064.33
423.94	6155.61
424.13	5731.97
424.32	5919.21
424.50	6230.51
424.69	6282.00
424.88	6363.92
425.07	6244.55
425.26	6157.95
425.45	6169.65
425.64	6169.65
425.83	6143.91
426.01	6188.38
426.20	6216.46
426.39	6300.72
426.58	6427.11
426.77	6326.47
426.96	6389.66
427.15	6310.08
427.33	6459.88
427.52	6429.45
427.71	6628.40
427.90	6551.16
428.09	6600.31
428.28	6628.40
428.46	6794.58
428.65	6616.69
428.84	7005.22
429.03	6855.43
429.22	6499.67
429.40	6906.92
429.59	7059.06
429.78	6544.14
429.97	6792.23
430.16	6839.05
430.34	7091.82
430.53	7173.74
430.72	7152.68
430.91	6960.75
431.10	7077.78
431.28	7155.02
431.47	7363.33
431.66	7386.73
431.85	7272.04
432.03	7330.56
432.22	7552.91
432.41	7564.61
432.60	7419.50
432.79	7618.44
432.97	7510.78
433.16	7489.71
433.35	7431.20
433.54	7681.64
433.72	7742.49
433.91	7698.02
434.10	7859.52
434.28	7583.34
434.47	7955.48
434.66	7744.83
434.85	7791.64
435.03	7777.60
435.22	7871.22
435.41	8072.51
435.59	8208.26
435.78	7978.89
435.97	8133.36
436.16	8205.92
436.34	8266.77
436.53	8077.19
436.72	8409.54
436.90	8236.35
437.09	8229.32
437.28	8259.75
437.46	8411.89
437.65	8355.71
437.84	8489.12
438.02	8503.17
438.21	8683.39
438.40	8507.85
438.58	8891.70
438.77	8814.46
438.96	8936.17
439.14	8898.72
439.33	9029.79
439.52	9174.90
439.70	9153.84
439.89	9394.91
440.08	9256.82
440.26	9193.62
440.45	9188.94
440.63	9446.40
440.82	9600.88
441.01	9652.37
441.19	9659.39
441.38	9568.11
441.57	9825.57
441.75	9942.60
441.94	10029.20
442.12	10134.52
442.31	10363.89
442.50	10136.86
442.68	10029.20
442.87	10162.61
443.05	10289.00
443.24	10408.36
443.43	10352.19
443.61	10406.02
443.80	10773.49
443.98	10186.01
444.17	10235.16
444.35	10541.77
444.54	10817.96
444.73	10621.35
444.91	10441.13
445.10	10541.77
445.28	10642.42
445.47	10532.41
445.65	10663.48
445.84	10647.10
446.02	10897.53
446.21	10586.24
446.39	10719.65
446.58	10956.05
446.77	10794.55
446.95	10839.02
447.14	10815.62
447.32	10721.99
447.51	10614.33
447.69	11105.84
447.88	10885.83
448.06	10710.29
448.25	10796.89
448.43	11019.24
448.62	10993.50
448.80	10960.73
448.99	11262.66
449.17	11082.44
449.36	11000.52
449.54	11274.36
449.73	11229.89
449.91	11213.51
450.10	11332.87
450.28	11625.44
450.46	11559.91
450.65	11438.20
450.83	11875.88
451.02	11683.95
451.20	11688.64
451.39	12049.08
451.57	11618.42
451.76	11749.49
451.94	11812.68
452.13	11934.39
452.31	12109.93
452.49	11660.55
452.68	11854.81
452.86	12046.74
453.05	12060.78
453.23	12301.86
453.42	12219.94
453.60	11960.14
453.78	12109.93
453.97	11978.86
454.15	12297.17
454.34	12250.36
454.52	12411.86
454.70	12341.64
454.89	12463.35
455.07	12608.47
455.26	12381.43
455.44	12739.54
455.62	12688.04
455.81	12826.14
455.99	12641.23
456.17	12856.56
456.36	13186.58
456.54	13116.36
456.73	13350.42
456.91	13214.66
457.09	13383.18
457.28	13736.60
457.46	13294.24
457.64	13493.19
457.83	13481.49
458.01	13184.24
458.19	13891.08
458.38	13486.17
458.56	13790.44
458.74	13685.11
458.93	13921.51
459.11	13734.26
459.29	14038.53
459.48	14075.98
459.66	14033.85
459.84	14328.76
460.03	14288.97
460.21	14113.43
460.39	14115.77
460.57	14146.20
460.76	14249.18
460.94	14398.98
461.12	14281.95
461.31	14459.83
461.49	14394.29
461.67	14420.04
461.85	14836.66
462.04	14602.60
462.22	15328.17
462.40	14895.17
462.59	15000.49
462.77	14773.46
462.95	15070.71
463.13	15138.58
463.32	15180.71
463.50	15360.94
463.68	15133.90
463.86	15445.20
464.05	14876.44
464.23	15236.89
464.41	15431.15
464.59	15136.24
464.78	15419.45
464.96	15517.75
465.14	15370.30
465.32	15686.27
465.50	15707.34
465.69	15812.66
465.87	15564.56
466.05	15625.42
466.23	15611.37
466.41	15791.59
466.60	16147.36
466.78	15850.11
466.96	15850.11
467.14	15878.19
467.32	15871.17
467.51	16217.57
467.69	15838.41
467.87	16163.74
468.05	16718.45
468.23	16149.70
468.41	15934.37
468.60	16137.99
468.78	16177.78
468.96	16437.58
469.14	16390.77
469.32	16648.23
469.50	16482.05
469.69	16882.28
469.87	16987.61
470.05	17090.59
470.23	17376.14
470.41	16882.28
470.59	17268.47
470.77	17104.64
470.95	17219.32
471.14	17324.65
471.32	17186.55
471.50	17781.05
471.68	17675.73
471.86	17987.02
472.04	17972.97
472.22	18022.12
472.40	17963.61
472.58	18211.71
472.77	17909.78
472.95	18438.74
473.13	18948.98
473.31	18118.09
473.49	18527.68
473.67	18586.19
473.85	18534.70
474.03	18661.09
474.21	18855.36
474.39	19381.98
474.57	19204.10
474.75	19730.72
474.93	19611.35
475.12	19676.88
475.30	19803.27
475.48	19410.06
475.66	19651.14
475.84	19819.66
476.02	19901.58
476.20	20004.56
476.38	20662.25
476.56	20751.19
476.74	20620.12
476.92	20741.83
477.10	20713.74
477.28	20989.92
477.46	21128.02
477.64	21458.03
477.82	21617.19
478.00	22045.51
478.18	22171.89
478.36	22317.01
478.54	22419.99
478.72	22370.84
478.90	22707.88
479.08	22773.41
479.26	23075.34
479.44	23037.89
479.62	23484.94
479.80	23309.40
479.98	23587.92
480.16	24133.26
480.34	23861.76
480.52	23931.98
480.70	24315.83
480.88	24350.93
481.06	24372.00
481.24	24554.56
481.41	24917.34
481.59	25481.41
481.77	25460.35
481.95	25888.67
482.13	25678.02
482.31	25687.38
482.49	26174.21
482.67	26424.65
482.85	26675.09
483.03	27309.37
483.21	27190.00
483.39	27351.50
483.57	27569.17
483.74	27545.76
483.92	28135.58
484.10	28158.99
484.28	28423.47
484.46	29050.73
484.64	29270.74
484.82	28849.44
485.00	29123.29
485.18	29783.32
485.35	29977.58
485.53	30054.82
485.71	30024.39
485.89	30675.06
486.07	30345.05
486.25	30693.79
486.43	31056.57
486.61	30948.90
486.78	31225.09
486.96	31798.52
487.14	32264.28
487.32	32264.28
487.50	32594.30
487.68	32264.28
487.85	33060.07
488.03	33209.86
488.21	33848.83
488.39	33897.98
488.57	34078.20
488.75	34171.82
488.92	34930.16
489.10	34951.22
489.28	35318.68
489.46	35395.92
489.64	35330.39
489.81	36205.75
489.99	36477.25
490.17	36404.69
490.35	36587.25
490.53	37010.89
490.70	37488.36
490.88	37240.26
491.06	37577.30
491.24	37596.03
491.41	37848.80
491.59	38583.73
491.77	38534.58
491.95	38979.28
492.13	38873.96
492.30	39482.50
492.48	39138.44
492.66	39313.98
492.84	39992.73
493.01	40158.91
493.19	40411.69
493.37	40383.60
493.54	40856.39
493.72	41219.17
493.90	41090.44
494.08	41326.84
494.25	41738.77
494.43	42309.86
494.61	42419.87
494.79	42508.81
494.96	42628.18
495.14	42590.73
495.32	43157.14
495.49	43012.02
495.67	43360.76
495.85	44069.95
496.02	44409.32
496.20	44519.33
496.38	43983.35
496.55	44732.32
496.73	45272.98
496.91	44486.56
497.09	45591.30
497.26	46014.93
497.44	45528.10
497.62	45607.68
497.79	46281.75
497.97	45958.76
498.14	46752.20
498.32	46813.05
498.50	47014.34
498.67	47009.66
498.85	47098.60
499.03	47564.37
499.20	47789.06
499.38	47665.01
499.56	48053.54
499.73	48252.48
499.91	48074.60
500.08	48687.82
500.26	48175.25
500.44	48509.94
500.61	48666.76
500.79	48753.36
500.97	48811.87
501.14	49628.72
501.32	49160.61
501.49	49703.62
501.67	49612.34
501.84	49511.69
502.02	49982.14
502.20	50113.21
502.37	50295.77
502.55	50485.36
502.72	50511.10
502.90	50291.09
503.07	50220.87
503.25	50499.40
503.43	50433.86
503.60	51077.51
503.78	50981.55
503.95	50836.44
504.13	51096.24
504.30	51098.58
504.48	51241.35
504.65	51533.92
504.83	51512.85
505.01	52240.76
505.18	52147.14
505.36	52236.08
505.53	52055.85
505.71	52484.17
505.88	52395.23
506.06	52446.72
506.23	52626.95
506.41	52519.28
506.58	52692.48
506.76	52917.17
506.93	53008.45
507.11	52758.02
507.28	52971.00
507.46	53111.44
507.63	53607.63
507.81	53502.31
507.98	53268.25
508.16	53130.16
508.33	53352.51
508.50	53584.22
508.68	53869.77
508.85	54342.56
509.03	54178.72
509.20	54202.13
509.38	54426.82
509.55	54202.13
509.73	54623.42
509.90	54527.46
510.08	54550.87
510.25	54553.21
510.42	54834.07
510.60	54787.26
510.77	55070.46
510.95	55049.40
511.12	54997.91
511.30	55194.51
511.47	55454.31
511.64	55444.95
511.82	55679.00
511.99	55435.59
512.17	55875.61
512.34	55671.98
512.51	55676.66
512.69	55952.85
512.86	55931.78
513.04	55980.93
513.21	56090.94
513.38	56149.45
513.56	56289.88
513.73	56343.72
513.90	56371.80
514.08	56268.82
514.25	56741.61
514.43	56804.80
514.60	56809.48
514.77	56502.87
514.95	56718.20
515.12	56395.21
515.29	56582.45
515.47	56853.95
515.64	57083.33
515.81	57095.03
515.99	57319.72
516.16	57268.23
516.33	57069.28
516.51	57415.68
516.68	57378.23
516.85	57450.79
517.03	57509.30
517.20	57820.59
517.37	57743.36
517.54	57846.34
517.72	57975.07
517.89	57921.24
518.06	57729.31
518.24	57858.04
518.41	57925.92
518.58	58075.71
518.75	58066.35
518.93	58024.22
519.10	58078.05
519.27	58298.06
519.45	58244.23
519.62	58284.02
519.79	58398.71
519.96	58485.31
520.14	58698.30
520.31	58576.59
520.48	58646.80
520.65	58791.92
520.83	58848.09
521.00	58820.00
521.17	58866.81
521.34	58824.68
521.52	58988.52
521.69	59054.06
521.86	59351.30
522.03	59388.75
522.20	59253.00
522.38	59419.18
522.55	59351.30
522.72	59494.08
522.89	59451.95
523.07	59632.17
523.24	59695.36
523.41	59866.22
523.58	59622.81
523.75	59559.61
523.92	59870.90
524.10	59873.24
524.27	59896.65
524.44	60027.72
524.61	60090.91
524.78	59898.99
524.96	60065.17
525.13	60114.32
525.30	60240.71
525.47	60350.71
525.64	60388.16
525.81	60350.71
525.98	60596.47
526.16	60381.14
526.33	60722.86
526.50	60645.62
526.67	60331.99
526.84	60603.49
527.01	60437.31
527.18	60577.75
527.36	60884.36
527.53	60790.73
527.70	61118.41
527.87	60956.91
528.04	60872.65
528.21	61069.26
528.38	60874.99
528.55	60949.89
528.72	61160.54
528.89	61275.22
529.07	61148.84
529.24	61071.60
529.41	61219.05
529.58	61045.85
529.75	61312.67
529.92	61357.14
530.09	61336.08
530.26	61436.72
530.43	61350.12
530.60	61389.91
530.77	61705.88
530.94	61680.14
531.11	61560.77
531.28	61574.81
531.46	61441.40
531.63	61755.03
531.80	61717.59
531.97	61977.39
532.14	61883.76
532.31	61855.68
532.48	61787.80
532.65	62049.94
532.82	61862.70
532.99	62124.84
533.16	61902.49
533.33	62127.18
533.50	62475.92
533.67	62227.82
533.84	62323.78
534.01	62136.54
534.18	62164.63
534.35	62363.57
534.52	62239.53
534.69	62614.01
534.86	62525.07
535.03	62504.01
535.20	62487.62
535.37	62496.98
535.54	62534.43
535.71	62578.90
535.88	62468.90
536.05	62794.23
536.22	62803.59
536.38	62777.85
536.55	62841.04
536.72	62967.43
536.89	62562.52
537.06	62855.09
537.23	62929.98
537.40	62714.65
537.57	62976.79
537.74	62922.96
537.91	63241.28
538.08	63068.08
538.25	63124.25
538.42	63032.97
538.59	63126.59
538.75	62815.30
538.92	63175.74
539.09	63203.83
539.26	63398.09
539.43	63543.20
539.60	63318.51
539.77	63271.70
539.94	63472.99
540.11	63480.01
540.28	63398.09
540.44	63260.00
540.61	63313.83
540.78	63498.73
540.95	63517.46
541.12	63613.42
541.29	63543.20
541.46	63571.29
541.62	63730.45
541.79	63744.49
541.96	63442.56
542.13	63669.59
542.30	63894.28
542.47	63999.61
542.63	63920.03
542.80	64018.33
542.97	64296.86
543.14	64095.57
543.31	64137.70
543.48	64135.36
543.64	64296.86
543.81	64245.36
543.98	64346.01
544.15	64154.08
544.32	64434.95
544.48	64533.25
544.65	64423.25
544.82	64308.56
544.99	64205.58
545.16	64519.21
545.32	64367.07
545.49	64678.36
545.66	64673.68
545.83	64750.92
546.00	64889.01
546.16	64521.55
546.33	64493.46
546.50	64413.88
546.67	64640.92
546.83	64390.48
547.00	64661.98
547.17	64706.45
547.34	64706.45
547.50	64963.91
547.67	64907.74
547.84	64968.59
548.00	65020.08
548.17	64956.89
548.34	64914.76
548.51	65106.68
548.67	65001.36
548.84	65197.96
549.01	64940.50
549.18	65024.76
549.34	65160.51
549.51	65134.77
549.68	65275.20
549.84	65132.43
550.01	65073.91
550.18	65169.88
550.34	65347.76
550.51	65235.41
550.68	65296.27
550.84	64910.08
551.01	65263.50
551.18	65244.77
551.34	65424.99
551.51	65396.91
551.68	65371.16
551.84	65535.00
552.01	65495.21
552.18	65535.00
552.34	65518.62
552.51	65488.19
552.68	65499.89
552.84	65535.00
553.01	65535.00
553.18	65535.00
553.34	65535.00
553.51	65535.00
553.67	65535.00
553.84	65535.00
554.01	65535.00
554.17	65535.00
554.34	65535.00
554.51	65535.00
554.67	65535.00
554.84	65535.00
555.00	65535.00
555.17	65535.00
555.33	65535.00
555.50	65535.00
555.67	65535.00
555.83	65535.00
556.00	65535.00
556.16	65535.00
556.33	65535.00
556.50	65535.00
556.66	65535.00
556.83	65535.00
556.99	65535.00
557.16	65535.00
557.32	65535.00
557.49	65535.00
557.65	65535.00
557.82	65535.00
557.98	65535.00
558.15	65535.00
558.32	65535.00
558.48	65535.00
558.65	65535.00
558.81	65535.00
558.98	65535.00
559.14	65535.00
559.31	65535.00
559.47	65535.00
559.64	65535.00
559.80	65535.00
559.97	65535.00
560.13	65535.00
560.30	65535.00
560.46	65535.00
560.63	65535.00
560.79	65535.00
560.96	65535.00
561.12	65535.00
561.29	65535.00
561.45	65535.00
561.61	65535.00
561.78	65535.00
561.94	65535.00
562.11	65535.00
562.27	65535.00
562.44	65535.00
562.60	65535.00
562.77	65535.00
562.93	65535.00
563.10	65535.00
563.26	65535.00
563.42	65535.00
563.59	65535.00
563.75	65535.00
563.92	65535.00
564.08	65535.00
564.24	65535.00
564.41	65535.00
564.57	65535.00
564.74	65535.00
564.90	65535.00
565.07	65535.00
565.23	65535.00
565.39	65535.00
565.56	65535.00
565.72	65535.00
565.88	65535.00
566.05	65535.00
566.21	65535.00
566.38	65535.00
566.54	65535.00
566.70	65535.00
566.87	65535.00
567.03	65535.00
567.19	65535.00
567.36	65535.00
567.52	65535.00
567.68	65535.00
567.85	65535.00
568.01	65535.00
568.17	65535.00
568.34	65535.00
568.50	65535.00
568.66	65535.00
568.83	65535.00
568.99	65535.00
569.15	65535.00
569.32	65535.00
569.48	65535.00
569.64	65535.00
569.81	65535.00
569.97	65535.00
570.13	65535.00
570.30	65535.00
570.46	65535.00
570.62	65535.00
570.78	65535.00
570.95	65535.00
571.11	65535.00
571.27	65535.00
571.43	65535.00
571.60	65535.00
571.76	65535.00
571.92	65535.00
572.09	65535.00
572.25	65535.00
572.41	65535.00
572.57	65535.00
572.74	65535.00
572.90	65535.00
573.06	65535.00
573.22	65535.00
573.38	65535.00
573.55	65535.00
573.71	65535.00
573.87	65535.00
574.03	65535.00
574.20	65535.00
574.36	65535.00
574.52	65535.00
574.68	65535.00
574.84	65535.00
575.01	65535.00
575.17	65535.00
575.33	65535.00
575.49	65535.00
575.65	65535.00
575.82	65535.00
575.98	65535.00
576.14	65535.00
576.30	65535.00
576.46	65535.00
576.62	65535.00
576.79	65535.00
576.95	65535.00
577.11	65535.00
577.27	65535.00
577.43	65535.00
577.59	65535.00
577.75	65535.00
577.92	65535.00
578.08	65535.00
578.24	65535.00
578.40	65535.00
578.56	65535.00
578.72	65535.00
578.88	65535.00
579.04	65535.00
579.21	65535.00
579.37	65535.00
579.53	65535.00
579.69	65535.00
579.85	65535.00
580.01	65535.00
580.17	65535.00
580.33	65535.00
580.49	65535.00
580.65	65535.00
580.82	65535.00
580.98	65535.00
581.14	65535.00
581.30	65535.00
581.46	65535.00
581.62	65535.00
581.78	65535.00
581.94	65535.00
582.10	65535.00
582.26	65535.00
582.42	65535.00
582.58	65535.00
582.74	65535.00
582.90	65535.00
583.06	65535.00
583.22	65535.00
583.38	65535.00
583.54	65535.00
583.70	65535.00
583.86	65535.00
584.02	65535.00
584.18	65535.00
584.34	65535.00
584.50	65535.00
584.66	65535.00
584.82	65535.00
584.98	65535.00
585.14	65535.00
585.30	65535.00
585.46	65535.00
585.62	65535.00
585.78	65535.00
585.94	65535.00
586.10	65535.00
586.26	65535.00
586.42	65535.00
586.58	65535.00
586.74	65535.00
586.90	65535.00
587.06	65535.00
587.22	65535.00
587.38	65535.00
587.54	65535.00
587.70	65535.00
587.86	65535.00
588.02	65535.00
