SpectraSuite Data File
++++++++++++++++++++++++++++++++++++
Date: Fri Oct 04 11:48:42 GMT-05:00 2013
User: price-jones
Dark Spectrum Present: No
Reference Spectrum Present: No
Number of Sampled Component Spectra: 1
Spectrometers: USB2+H05261
Integration Time (usec): 100000 (USB2+H05261)
Spectra Averaged: 1 (USB2+H05261)
Boxcar Smoothing: 0 (USB2+H05261)
Correct for Electrical Dark: No (USB2+H05261)
Strobe/Lamp Enabled: No (USB2+H05261)
Correct for Detector Non-linearity: No (USB2+H05261)
Correct for Stray Light: No (USB2+H05261)
Number of Pixels in Processed Spectrum: 2048
>>>>>Begin Processed Spectral Data<<<<<
365.73	30.43
365.92	30.43
366.12	30.43
366.32	0.00
366.52	0.00
366.72	0.00
366.91	0.00
367.11	0.00
367.31	0.00
367.51	0.00
367.70	0.00
367.90	0.00
368.10	0.00
368.30	0.00
368.49	0.00
368.69	14.04
368.89	0.00
369.09	0.00
369.28	0.00
369.48	0.00
369.68	0.00
369.87	0.00
370.07	0.00
370.27	0.00
370.47	18.72
370.66	79.58
370.86	114.69
371.06	114.69
371.25	140.43
371.45	107.66
371.65	105.32
371.84	39.79
372.04	112.35
372.24	142.77
372.44	140.43
372.63	93.62
372.83	152.13
373.03	81.92
373.22	182.56
373.42	173.20
373.62	119.37
373.81	112.35
374.01	191.92
374.21	201.29
374.40	168.52
374.60	212.99
374.79	77.24
374.99	135.75
375.19	133.41
375.38	159.16
375.58	217.67
375.78	208.31
375.97	79.58
376.17	156.82
376.37	175.54
376.56	135.75
376.76	166.18
376.95	121.71
377.15	166.18
377.35	224.69
377.54	205.97
377.74	252.78
377.93	201.29
378.13	245.76
378.33	163.84
378.52	201.29
378.72	177.88
378.91	248.10
379.11	93.62
379.31	187.24
379.50	114.69
379.70	266.82
379.89	126.39
380.09	142.77
380.28	184.90
380.48	234.05
380.68	210.65
380.87	152.13
381.07	154.48
381.26	212.99
381.46	140.43
381.65	189.58
381.85	215.33
382.04	163.84
382.24	220.01
382.43	175.54
382.63	149.79
382.83	205.97
383.02	184.90
383.22	231.71
383.41	187.24
383.61	257.46
383.80	168.52
384.00	224.69
384.19	217.67
384.39	191.92
384.58	156.82
384.78	227.03
384.97	187.24
385.17	208.31
385.36	205.97
385.56	135.75
385.75	152.13
385.95	196.60
386.14	184.90
386.34	217.67
386.53	203.63
386.72	168.52
386.92	166.18
387.11	170.86
387.31	227.03
387.50	201.29
387.70	229.37
387.89	283.20
388.09	184.90
388.28	208.31
388.48	243.42
388.67	198.95
388.86	196.60
389.06	215.33
389.25	145.11
389.45	163.84
389.64	231.71
389.84	271.50
390.03	241.08
390.22	208.31
390.42	145.11
390.61	262.14
390.81	215.33
391.00	203.63
391.19	327.68
391.39	236.39
391.58	243.42
391.78	224.69
391.97	245.76
392.16	203.63
392.36	241.08
392.55	334.70
392.75	264.48
392.94	231.71
393.13	259.80
393.33	283.20
393.52	273.84
393.71	301.93
393.91	231.71
394.10	252.78
394.29	236.39
394.49	315.97
394.68	355.76
394.88	280.86
395.07	341.72
395.26	313.63
395.46	299.59
395.65	322.99
395.84	402.57
396.04	365.12
396.23	299.59
396.42	341.72
396.62	313.63
396.81	327.68
397.00	386.19
397.19	407.25
397.39	334.70
397.58	369.80
397.77	358.10
397.97	339.38
398.16	386.19
398.35	341.72
398.55	365.12
398.74	369.80
398.93	404.91
399.12	351.08
399.32	376.83
399.51	416.62
399.70	416.62
399.90	348.74
400.09	482.15
400.28	423.64
400.47	458.74
400.67	421.30
400.86	458.74
401.05	454.06
401.24	447.04
401.44	498.53
401.63	498.53
401.82	526.62
402.01	519.60
402.21	486.83
402.40	514.92
402.59	559.39
402.78	493.85
402.97	557.05
403.17	505.56
403.36	573.43
403.55	528.96
403.74	603.86
403.93	500.87
404.13	599.18
404.32	571.09
404.51	531.30
404.70	615.56
404.89	498.53
405.09	608.54
405.28	585.13
405.47	608.54
405.66	709.18
405.85	655.35
406.05	582.79
406.24	660.03
406.43	657.69
406.62	737.27
406.81	746.63
407.00	702.16
407.20	791.10
407.39	674.07
407.58	678.76
407.77	730.25
407.96	814.51
408.15	786.42
408.34	844.93
408.54	877.70
408.73	823.87
408.92	755.99
409.11	814.51
409.30	849.61
409.49	870.68
409.68	835.57
409.87	1018.13
410.07	828.55
410.26	889.40
410.45	833.23
410.64	866.00
410.83	910.47
411.02	861.32
411.21	947.92
411.40	912.81
411.59	922.17
411.78	987.71
411.98	992.39
412.17	1060.26
412.36	959.62
412.55	1032.18
412.74	1090.69
412.93	1111.75
413.12	1057.92
413.31	1156.22
413.50	1104.73
413.69	1071.97
413.88	1228.78
414.07	1224.10
414.26	1259.21
414.45	1111.75
414.64	1294.32
414.83	1224.10
415.02	1263.89
415.22	1256.87
415.41	1273.25
415.60	1277.93
415.79	1228.78
415.98	1425.39
416.17	1366.87
416.36	1390.28
416.55	1350.49
416.74	1409.00
416.93	1385.60
417.12	1526.03
417.31	1519.01
417.50	1493.26
417.69	1359.85
417.88	1519.01
418.07	1441.77
418.26	1523.69
418.45	1364.53
418.64	1537.73
418.83	1495.60
419.02	1596.25
419.21	1486.24
419.39	1596.25
419.58	1523.69
419.77	1565.82
419.96	1540.07
420.15	1565.82
420.34	1603.27
420.53	1617.31
420.72	1617.31
420.91	1614.97
421.10	1675.82
421.29	1565.82
421.48	1713.27
421.67	1694.55
421.86	1666.46
422.05	1633.69
422.24	1666.46
422.43	1685.19
422.61	1746.04
422.80	1741.36
422.99	1764.76
423.18	1743.70
423.37	1839.66
423.56	1755.40
423.75	1736.68
423.94	1767.10
424.13	1596.25
424.32	1682.85
424.50	1764.76
424.69	1823.28
424.88	1856.04
425.07	1788.17
425.26	1668.80
425.45	1790.51
425.64	1839.66
425.83	1741.36
426.01	1844.34
426.20	1774.13
426.39	1827.96
426.58	1804.55
426.77	1732.00
426.96	1884.13
427.15	1806.89
427.33	1858.39
427.52	1837.32
427.71	1811.57
427.90	1827.96
428.09	1874.77
428.28	1863.07
428.46	1771.79
428.65	1893.49
428.84	1947.33
429.03	1975.41
429.22	1919.24
429.40	1919.24
429.59	2036.27
429.78	1755.40
429.97	1905.20
430.16	1916.90
430.34	1900.52
430.53	1949.67
430.72	2099.46
430.91	2045.63
431.10	1963.71
431.28	2120.53
431.47	2097.12
431.66	1970.73
431.85	2059.67
432.03	2165.00
432.22	2165.00
432.41	2080.74
432.60	2076.06
432.79	2038.61
432.97	2125.21
433.16	2094.78
433.35	2101.80
433.54	2052.65
433.72	2108.82
433.91	2101.80
434.10	2097.12
434.28	2242.23
434.47	2122.87
434.66	2282.02
434.85	2162.66
435.03	2239.89
435.22	2225.85
435.41	2347.56
435.59	2195.42
435.78	2380.32
435.97	2218.83
436.16	2370.96
436.34	2207.13
436.53	2319.47
436.72	2363.94
436.90	2303.09
437.09	2319.47
437.28	2328.83
437.46	2429.48
437.65	2431.82
437.84	2338.20
438.02	2385.01
438.21	2452.88
438.40	2289.04
438.58	2469.27
438.77	2429.48
438.96	2483.31
439.14	2530.12
439.33	2597.99
439.52	2572.25
439.70	2513.74
439.89	2626.08
440.08	2590.97
440.26	2621.40
440.45	2619.06
440.63	2708.00
440.82	2689.28
441.01	2630.76
441.19	2710.34
441.38	2827.37
441.57	2658.85
441.75	2808.64
441.94	2883.54
442.12	2848.43
442.31	2766.51
442.50	2745.45
442.68	2839.07
442.87	2799.28
443.05	2731.41
443.24	2796.94
443.43	2869.50
443.61	2928.01
443.80	2789.92
443.98	2848.43
444.17	2733.75
444.35	2911.63
444.54	2951.42
444.73	2878.86
444.91	2876.52
445.10	3033.33
445.28	2930.35
445.47	2864.82
445.65	2965.46
445.84	2928.01
446.02	2895.24
446.21	3000.57
446.39	3005.25
446.58	2942.05
446.77	3047.38
446.95	2885.88
447.14	3052.06
447.32	2972.48
447.51	2958.44
447.69	3012.27
447.88	2949.08
448.06	3098.87
448.25	3117.59
448.43	2918.65
448.62	3075.46
448.80	3014.61
448.99	2967.80
449.17	3103.55
449.36	3052.06
449.54	3084.83
449.73	3115.25
449.91	3136.32
450.10	3115.25
450.28	3169.09
450.46	3246.32
450.65	3187.81
450.83	3269.73
451.02	3225.26
451.20	3187.81
451.39	3243.98
451.57	3323.56
451.76	3267.39
451.94	3258.03
452.13	3241.64
452.31	3290.79
452.49	3246.32
452.68	3248.66
452.86	3342.28
453.05	3318.88
453.23	3204.19
453.42	3225.26
453.60	3321.22
453.78	3400.80
453.97	3346.97
454.15	3400.80
454.34	3337.60
454.52	3407.82
454.70	3344.63
454.89	3478.04
455.07	3410.16
455.26	3379.73
455.44	3440.59
455.62	3543.57
455.81	3517.83
455.99	3501.44
456.17	3501.44
456.36	3447.61
456.54	3625.49
456.73	3559.95
456.91	3538.89
457.09	3639.53
457.28	3611.45
457.46	3667.62
457.64	3651.24
457.83	3632.51
458.01	3529.53
458.19	3737.84
458.38	3641.87
458.56	3772.94
458.74	3672.30
458.93	3709.75
459.11	3817.41
459.29	3686.34
459.48	3784.65
459.66	3831.46
459.84	3833.80
460.03	3873.59
460.21	3857.20
460.39	3693.37
460.57	3840.82
460.76	3822.09
460.94	3941.46
461.12	3932.10
461.31	3794.01
461.49	3878.27
461.67	4030.40
461.85	4039.76
462.04	3878.27
462.22	4582.77
462.40	4161.47
462.59	4093.60
462.77	3974.23
462.95	4058.49
463.13	4030.40
463.32	4180.20
463.50	3946.14
463.68	4191.90
463.86	4070.19
464.05	4142.75
464.23	4098.28
464.41	4124.02
464.59	3906.35
464.78	4102.96
464.96	4290.20
465.14	4051.47
465.32	4203.60
465.50	4255.09
465.69	4299.56
465.87	4175.52
466.05	4187.22
466.23	4217.65
466.41	4222.33
466.60	4313.61
466.78	4257.43
466.96	4187.22
467.14	4236.37
467.32	4264.46
467.51	4397.87
467.69	4248.07
467.87	4318.29
468.05	4259.78
468.23	4376.80
468.41	4325.31
468.60	4276.16
468.78	4346.37
468.96	4411.91
469.14	4386.16
469.32	4472.76
469.50	4432.97
469.69	4582.77
469.87	4596.81
470.05	4561.70
470.23	4587.45
470.41	4517.23
470.59	4578.09
470.77	4645.96
470.95	4706.82
471.14	4770.01
471.32	4648.30
471.50	4842.57
471.68	4732.56
471.86	4664.69
472.04	4772.35
472.22	4816.82
472.40	4606.17
472.58	4905.76
472.77	4812.14
472.95	4856.61
473.13	5029.81
473.31	4943.21
473.49	4795.76
473.67	4910.44
473.85	4992.36
474.03	4983.00
474.21	5029.81
474.39	5195.99
474.57	5270.89
474.75	5212.37
474.93	5093.01
475.12	5097.69
475.30	5205.35
475.48	5233.44
475.66	5217.05
475.84	5249.82
476.02	5327.06
476.20	5327.06
476.38	5242.80
476.56	5481.53
476.74	5411.32
476.92	5394.93
477.10	5479.19
477.28	5703.89
477.46	5589.20
477.64	5561.11
477.82	5689.84
478.00	5769.42
478.18	5783.46
478.36	5872.40
478.54	5902.83
478.72	5912.19
478.90	5797.51
479.08	5886.45
479.26	6078.37
479.44	6129.86
479.62	6171.99
479.80	6129.86
479.98	6181.35
480.16	6225.82
480.34	6408.39
480.52	6359.24
480.70	6410.73
480.88	6258.59
481.06	6572.22
481.24	6394.34
481.41	6663.51
481.59	6506.69
481.77	6637.76
481.95	6682.23
482.13	6885.86
482.31	6848.41
482.49	6663.51
482.67	6942.03
482.85	6927.99
483.03	6888.20
483.21	7061.40
483.39	7201.83
483.57	7166.72
483.74	7206.51
483.92	7126.93
484.10	7431.20
484.28	7353.96
484.46	7592.70
484.64	7676.96
484.82	7573.97
485.00	7691.00
485.18	7702.70
485.35	8009.31
485.53	7782.28
485.71	7805.69
485.89	8035.06
486.07	7981.23
486.25	7995.27
486.43	8241.03
486.61	8044.42
486.78	8262.09
486.96	8229.32
487.14	8292.52
487.32	8517.21
487.50	8716.16
487.68	8341.67
487.85	8512.53
488.03	8716.16
488.21	8826.16
488.39	8685.73
488.57	8851.91
488.75	8826.16
488.92	9163.20
489.10	9111.71
489.28	9224.05
489.46	9095.32
489.64	9200.65
489.81	9348.10
489.99	9511.94
490.17	9387.89
490.35	9397.25
490.53	9383.21
490.70	9687.48
490.88	9839.61
491.06	9867.70
491.24	9659.39
491.41	9551.73
491.59	9802.16
491.77	9790.46
491.95	9874.72
492.13	9919.19
492.30	10061.96
492.48	10211.76
492.66	10043.24
492.84	10153.24
493.01	10473.90
493.19	10401.34
493.37	10609.65
493.54	10415.38
493.72	10672.84
493.90	10668.16
494.08	10824.98
494.25	10829.66
494.43	10803.91
494.61	10984.13
494.79	10832.00
494.96	10834.34
495.14	11007.54
495.32	11098.82
495.49	11124.57
495.67	11133.93
495.85	11201.80
496.02	11522.46
496.20	11314.15
496.38	11501.39
496.55	11698.00
496.73	11751.83
496.91	11503.73
497.09	11620.76
497.26	11866.52
497.44	11707.36
497.62	11992.90
497.79	12105.25
497.97	11822.05
498.14	12030.35
498.32	12018.65
498.50	11964.82
498.67	11999.93
498.85	12308.88
499.03	12306.54
499.20	12226.96
499.38	12421.22
499.56	12299.52
499.73	12608.47
499.91	12521.87
500.08	12634.21
500.26	12463.35
500.44	12683.36
500.61	12580.38
500.79	12690.38
500.97	12748.90
501.14	13001.68
501.32	13121.04
501.49	12807.41
501.67	12961.89
501.84	13146.79
502.02	13111.68
502.20	13137.43
502.37	13027.42
502.55	13029.76
502.72	13261.48
502.90	13334.03
503.07	13252.11
503.25	13266.16
503.43	13479.15
503.60	13605.53
503.78	13600.85
503.95	13687.45
504.13	13619.58
504.30	13542.34
504.48	13708.52
504.65	13729.58
504.83	13778.73
505.01	14127.47
505.18	13991.72
505.36	14043.21
505.53	13830.23
505.71	13984.70
505.88	14169.60
506.06	13951.93
506.23	14174.28
506.41	14052.58
506.58	14031.51
506.76	14153.22
506.93	14403.66
507.11	14207.05
507.28	14239.82
507.46	14597.92
507.63	14249.18
507.81	14466.85
507.98	14628.35
508.16	14483.24
508.33	14736.01
508.50	14644.73
508.68	14759.42
508.85	14829.63
509.03	14572.18
509.20	15124.54
509.38	15213.48
509.55	15054.33
509.73	15487.32
509.90	15192.42
510.08	15007.52
510.25	15152.63
510.42	15447.54
510.60	15150.29
510.77	15534.14
510.95	15391.36
511.12	15225.18
511.30	15637.12
511.47	15606.69
511.64	15878.19
511.82	15941.39
511.99	15882.88
512.17	15632.44
512.34	15786.91
512.51	16032.67
512.69	16002.24
512.86	15903.94
513.04	16077.14
513.21	16194.17
513.38	16163.74
513.56	16159.06
513.73	16297.15
513.90	16147.36
514.08	16091.18
514.25	16074.80
514.43	16430.56
514.60	16414.18
514.77	16297.15
514.95	16519.50
515.12	16453.97
515.29	16231.62
515.47	16386.09
515.64	16615.46
515.81	16664.61
515.99	16739.51
516.16	16737.17
516.33	16760.58
516.51	16814.41
516.68	16596.74
516.85	16718.45
517.03	17116.34
517.20	17198.26
517.37	16987.61
517.54	17027.40
517.72	17149.11
517.89	16954.84
518.06	17067.19
518.24	16840.15
518.41	17247.41
518.58	17645.30
518.75	17364.43
518.93	17273.15
519.10	17294.22
519.27	17600.83
519.45	17385.50
519.62	17525.93
519.79	17394.86
519.96	17378.48
520.14	17743.60
520.31	17483.80
520.48	17729.56
520.65	17612.53
520.83	17504.87
521.00	17694.45
521.17	18012.76
521.34	17617.21
521.52	18094.68
521.69	17935.53
521.86	17961.27
522.03	18075.96
522.20	17958.93
522.38	18155.54
522.55	18127.45
522.72	18155.54
522.89	18373.21
523.07	18530.02
523.24	18075.96
523.41	18471.51
523.58	17998.72
523.75	18726.63
523.92	18324.05
524.10	18497.25
524.27	18223.41
524.44	18394.27
524.61	18469.17
524.78	18733.65
524.96	18476.19
525.13	18780.46
525.30	18719.60
525.47	18651.73
525.64	18923.23
525.81	18544.06
525.98	18728.97
526.16	18560.45
526.33	18977.06
526.50	18836.63
526.67	18766.42
526.84	18885.78
527.01	18904.51
527.18	19087.07
527.36	18977.06
527.53	19159.63
527.70	19351.55
527.87	19173.67
528.04	19101.11
528.21	19262.61
528.38	18960.68
528.55	19075.37
528.72	18965.36
528.89	19496.66
529.07	19131.54
529.24	19051.96
529.41	19271.97
529.58	19318.78
529.75	19337.51
529.92	19297.72
530.09	19679.22
530.26	19349.21
530.43	19627.73
530.60	19091.75
530.77	19604.33
530.94	19527.09
531.11	19499.00
531.28	19524.75
531.46	19819.66
531.63	19630.07
531.80	19826.68
531.97	19953.07
532.14	20056.05
532.31	19957.75
532.48	19648.80
532.65	20002.22
532.82	19887.53
532.99	20191.80
533.16	19829.02
533.33	19953.07
533.50	20381.38
533.67	20329.89
533.84	20173.08
534.01	20056.05
534.18	20379.04
534.35	20273.72
534.52	20315.85
534.69	20386.07
534.86	20142.65
535.03	20343.94
535.20	20079.46
535.37	20294.79
535.54	20379.04
535.71	20315.85
535.88	20683.31
536.05	20489.05
536.22	20638.84
536.38	20737.15
536.55	20739.49
536.72	20283.08
536.89	20524.16
537.06	20552.24
537.23	20795.66
537.40	20711.40
537.57	20830.77
537.74	20636.50
537.91	20673.95
538.08	20905.66
538.25	20737.15
538.42	20826.09
538.59	20952.48
538.75	20865.88
538.92	20875.24
539.09	20879.92
539.26	21139.72
539.43	21156.10
539.60	21048.44
539.77	20851.83
539.94	21305.90
540.11	20922.05
540.28	21233.34
540.44	21212.28
540.61	21221.64
540.78	20929.07
540.95	21357.39
541.12	21231.00
541.29	21128.02
541.46	21266.11
541.62	21198.23
541.79	21067.16
541.96	20884.60
542.13	21193.55
542.30	21303.56
542.47	21474.42
542.63	21392.50
542.80	21376.11
542.97	21614.85
543.14	21743.58
543.31	21682.72
543.48	21708.47
543.64	21652.30
543.81	21965.93
543.98	21923.80
544.15	21846.56
544.32	21570.38
544.48	21951.88
544.65	21701.45
544.82	21575.06
544.99	21572.72
545.16	22001.04
545.32	21640.59
545.49	21902.73
545.66	22068.91
545.83	22274.88
546.00	21956.57
546.16	22120.40
546.33	21914.44
546.50	21848.90
546.67	21947.20
546.83	21500.16
547.00	21914.44
547.17	21645.27
547.34	22071.25
547.50	21846.56
547.67	22321.69
547.84	22256.15
548.00	22160.19
548.17	22232.75
548.34	21853.58
548.51	22642.34
548.67	22464.46
548.84	22309.99
549.01	22403.61
549.18	22237.43
549.34	22171.89
549.51	22267.86
549.68	22324.03
549.84	22246.79
550.01	22490.21
550.18	22375.52
550.34	22242.11
550.51	22508.93
550.68	22520.63
550.84	22347.44
551.01	22562.76
551.18	22422.33
551.34	22169.55
551.51	22445.74
551.68	22717.24
551.84	22719.58
552.01	22672.77
552.18	22527.66
552.34	22511.27
552.51	22693.83
552.68	22485.53
552.84	22345.09
553.01	22836.61
553.18	22380.20
553.34	22668.09
553.51	22597.87
553.67	23119.81
553.84	22981.72
554.01	22773.41
554.17	22607.23
554.34	22714.90
554.51	22576.81
554.67	22845.97
554.84	22630.64
555.00	22630.64
555.17	22506.59
555.33	22852.99
555.50	23070.66
555.67	22637.66
555.83	22679.79
556.00	22864.69
556.16	23517.70
556.33	22946.61
556.50	22934.91
556.66	23080.02
556.83	22775.75
556.99	23068.32
557.16	23101.09
557.32	23040.23
557.49	23012.15
557.65	22799.16
557.82	22778.09
557.98	22852.99
558.15	22941.93
558.32	22944.27
558.48	23019.17
558.65	23054.28
558.81	23091.73
558.98	22867.03
559.14	23080.02
559.31	23028.53
559.47	23084.70
559.64	22883.42
559.80	23363.23
559.97	23166.62
560.13	23271.95
560.30	22895.12
560.46	23419.40
560.63	23129.17
560.79	23405.36
560.96	23480.25
561.12	23002.78
561.29	23370.25
561.45	23061.30
561.61	23140.88
561.78	23356.21
561.94	23321.10
562.11	23208.75
562.27	23206.41
562.44	23000.44
562.60	22845.97
562.77	23311.74
562.93	23201.73
563.10	23321.10
563.26	23211.09
563.42	23501.32
563.59	23005.13
563.75	23351.52
563.92	23232.16
564.08	23283.65
564.24	23293.01
564.41	23236.84
564.57	23131.51
564.74	23236.84
564.90	23601.96
565.07	23246.20
565.23	23564.51
565.39	23433.44
565.56	23494.30
565.72	23332.80
565.88	23515.36
566.05	22965.34
566.21	23183.01
566.38	23758.78
566.54	23180.67
566.70	23576.22
566.87	23239.18
567.03	23592.60
567.19	23517.70
567.36	23250.88
567.52	23246.20
567.68	23407.70
567.85	23363.23
568.01	23405.36
568.17	23456.85
568.34	23344.50
568.50	24020.92
568.66	23424.08
568.83	23262.58
568.99	23491.96
569.15	23335.14
569.32	23433.44
569.48	23260.24
569.64	23758.78
569.81	23573.88
569.97	23431.10
570.13	23571.54
570.30	23442.81
570.46	23487.28
570.62	23623.03
570.78	23379.61
570.95	23449.83
571.11	23234.50
571.27	23386.63
571.43	23243.86
571.60	23587.92
571.76	23620.69
571.92	23501.32
572.09	23498.98
572.25	23571.54
572.41	23754.10
572.57	23360.89
572.74	23557.49
572.90	23463.87
573.06	23414.72
573.22	23410.04
573.38	24023.26
573.55	23632.39
573.71	23608.98
573.87	23592.60
574.03	23215.77
574.20	23543.45
574.36	23468.55
574.52	23648.77
574.68	23398.34
574.84	23449.83
575.01	23541.11
575.17	23653.45
575.33	23405.36
575.49	23704.95
575.65	23960.06
575.82	23882.83
575.98	23775.16
576.14	23702.61
576.30	23655.79
576.46	23473.23
576.62	23388.97
576.79	23796.23
576.95	23857.08
577.11	23646.43
577.27	23194.71
577.43	23475.57
577.59	23812.61
577.75	23623.03
577.92	23447.49
578.08	23293.01
578.24	23447.49
578.40	23854.74
578.56	23878.15
578.72	23543.45
578.88	23967.09
579.04	23714.31
579.21	23496.64
579.37	23737.71
579.53	23597.28
579.69	23644.09
579.85	23278.97
580.01	23363.23
580.17	23302.37
580.33	23730.69
580.49	23648.77
580.65	23903.89
580.82	23749.42
580.98	23623.03
581.14	23695.58
581.30	23510.68
581.46	23775.16
581.62	23335.14
581.78	23634.73
581.94	23721.33
582.10	23459.19
582.26	23608.98
582.42	23740.05
582.58	23843.04
582.74	23941.34
582.90	23749.42
583.06	23737.71
583.22	23599.62
583.38	23943.68
583.54	23494.30
583.70	23742.39
583.86	23442.81
584.02	23679.20
584.18	23747.08
584.34	23995.17
584.50	23733.03
584.66	23803.25
584.82	23634.73
584.98	23775.16
585.14	23868.78
585.30	23838.36
585.46	23611.32
585.62	23683.88
585.78	23407.70
585.94	23297.69
586.10	23573.88
586.26	23821.97
586.42	23704.95
586.58	23899.21
586.74	23711.97
586.90	23604.30
587.06	23447.49
587.22	23784.52
587.38	23800.91
587.54	23702.61
587.70	23894.53
587.86	23697.92
588.02	24020.92
588.18	23939.00
588.34	23393.65
588.49	23576.22
588.65	23367.91
588.81	24116.88
588.97	23857.08
589.13	23908.57
589.29	23447.49
589.45	23784.52
589.61	23812.61
589.77	24060.71
589.93	23960.06
590.08	23704.95
590.24	23789.20
590.40	23807.93
590.56	24027.94
590.72	23910.91
590.88	23541.11
591.04	23847.72
591.20	24168.37
591.35	23983.47
591.51	24196.46
591.67	24191.78
591.83	24133.26
591.99	23564.51
592.15	23908.57
592.31	24091.13
592.46	24063.05
