SpectraSuite Data File
++++++++++++++++++++++++++++++++++++
Date: Fri Oct 04 11:47:01 GMT-05:00 2013
User: price-jones
Dark Spectrum Present: No
Reference Spectrum Present: No
Number of Sampled Component Spectra: 1
Spectrometers: USB2+H05261
Integration Time (usec): 100000 (USB2+H05261)
Spectra Averaged: 1 (USB2+H05261)
Boxcar Smoothing: 0 (USB2+H05261)
Correct for Electrical Dark: No (USB2+H05261)
Strobe/Lamp Enabled: No (USB2+H05261)
Correct for Detector Non-linearity: No (USB2+H05261)
Correct for Stray Light: No (USB2+H05261)
Number of Pixels in Processed Spectrum: 2048
>>>>>Begin Processed Spectral Data<<<<<
365.73	32.77
365.92	32.77
366.12	32.77
366.32	58.51
366.52	0.00
366.72	0.00
366.91	0.00
367.11	0.00
367.31	0.00
367.51	0.00
367.70	0.00
367.90	0.00
368.10	0.00
368.30	0.00
368.49	0.00
368.69	0.00
368.89	0.00
369.09	0.00
369.28	0.00
369.48	0.00
369.68	0.00
369.87	0.00
370.07	0.00
370.27	37.45
370.47	0.00
370.66	74.90
370.86	70.22
371.06	72.56
371.25	84.26
371.45	100.64
371.65	105.32
371.84	65.54
372.04	117.03
372.24	88.94
372.44	65.54
372.63	0.00
372.83	86.60
373.03	215.33
373.22	51.49
373.42	126.39
373.62	70.22
373.81	67.88
374.01	119.37
374.21	121.71
374.40	154.48
374.60	117.03
374.79	161.50
374.99	117.03
375.19	114.69
375.38	119.37
375.58	67.88
375.78	138.09
375.97	79.58
376.17	194.26
376.37	112.35
376.56	166.18
376.76	58.51
376.95	131.07
377.15	95.96
377.35	149.79
377.54	110.01
377.74	81.92
377.93	56.17
378.13	63.19
378.33	107.66
378.52	173.20
378.72	154.48
378.91	86.60
379.11	84.26
379.31	147.45
379.50	74.90
379.70	140.43
379.89	135.75
380.09	81.92
380.28	133.41
380.48	135.75
380.68	126.39
380.87	49.15
381.07	142.77
381.26	117.03
381.46	100.64
381.65	46.81
381.85	112.35
382.04	114.69
382.24	88.94
382.43	156.82
382.63	107.66
382.83	60.85
383.02	175.54
383.22	147.45
383.41	51.49
383.61	91.28
383.80	49.15
384.00	98.30
384.19	67.88
384.39	102.98
384.58	46.81
384.78	105.32
384.97	72.56
385.17	91.28
385.36	88.94
385.56	56.17
385.75	35.11
385.95	100.64
386.14	131.07
386.34	128.73
386.53	147.45
386.72	88.94
386.92	91.28
387.11	67.88
387.31	44.47
387.50	74.90
387.70	51.49
387.89	51.49
388.09	60.85
388.28	67.88
388.48	49.15
388.67	131.07
388.86	14.04
389.06	70.22
389.25	74.90
389.45	63.19
389.64	105.32
389.84	154.48
390.03	102.98
390.22	119.37
390.42	49.15
390.61	100.64
390.81	0.00
391.00	95.96
391.19	131.07
391.39	95.96
391.58	135.75
391.78	79.58
391.97	102.98
392.16	72.56
392.36	142.77
392.55	126.39
392.75	128.73
392.94	88.94
393.13	81.92
393.33	100.64
393.52	114.69
393.71	145.11
393.91	112.35
394.10	86.60
394.29	100.64
394.49	86.60
394.68	124.05
394.88	168.52
395.07	114.69
395.26	133.41
395.46	65.54
395.65	25.75
395.84	110.01
396.04	110.01
396.23	49.15
396.42	88.94
396.62	117.03
396.81	140.43
397.00	93.62
397.19	11.70
397.39	58.51
397.58	107.66
397.77	135.75
397.97	77.24
398.16	0.00
398.35	119.37
398.55	117.03
398.74	105.32
398.93	121.71
399.12	79.58
399.32	126.39
399.51	128.73
399.70	102.98
399.90	84.26
400.09	58.51
400.28	77.24
400.47	161.50
400.67	84.26
400.86	147.45
401.05	119.37
401.24	152.13
401.44	119.37
401.63	91.28
401.82	107.66
402.01	72.56
402.21	145.11
402.40	133.41
402.59	105.32
402.78	86.60
402.97	65.54
403.17	63.19
403.36	79.58
403.55	72.56
403.74	147.45
403.93	121.71
404.13	166.18
404.32	145.11
404.51	124.05
404.70	100.64
404.89	72.56
405.09	124.05
405.28	154.48
405.47	154.48
405.66	65.54
405.85	60.85
406.05	46.81
406.24	46.81
406.43	154.48
406.62	60.85
406.81	128.73
407.00	191.92
407.20	93.62
407.39	60.85
407.58	149.79
407.77	128.73
407.96	154.48
408.15	112.35
408.34	63.19
408.54	98.30
408.73	67.88
408.92	56.17
409.11	161.50
409.30	56.17
409.49	124.05
409.68	145.11
409.87	114.69
410.07	56.17
410.26	60.85
410.45	86.60
410.64	124.05
410.83	121.71
411.02	44.47
411.21	124.05
411.40	72.56
411.59	124.05
411.78	124.05
411.98	72.56
412.17	65.54
412.36	63.19
412.55	124.05
412.74	121.71
412.93	88.94
413.12	70.22
413.31	105.32
413.50	189.58
413.69	107.66
413.88	84.26
414.07	128.73
414.26	128.73
414.45	154.48
414.64	166.18
414.83	114.69
415.02	51.49
415.22	51.49
415.41	114.69
415.60	163.84
415.79	98.30
415.98	102.98
416.17	112.35
416.36	126.39
416.55	149.79
416.74	236.39
416.93	114.69
417.12	196.60
417.31	91.28
417.50	37.45
417.69	203.63
417.88	224.69
418.07	170.86
418.26	124.05
418.45	163.84
418.64	255.12
418.83	306.61
419.02	243.42
419.21	191.92
419.39	205.97
419.58	163.84
419.77	149.79
419.96	273.84
420.15	191.92
420.34	126.39
420.53	147.45
420.72	102.98
420.91	133.41
421.10	128.73
421.29	131.07
421.48	154.48
421.67	117.03
421.86	84.26
422.05	126.39
422.24	145.11
422.43	117.03
422.61	79.58
422.80	65.54
422.99	58.51
423.18	110.01
423.37	187.24
423.56	128.73
423.75	191.92
423.94	149.79
424.13	131.07
424.32	184.90
424.50	187.24
424.69	117.03
424.88	112.35
425.07	39.79
425.26	138.09
425.45	191.92
425.64	234.05
425.83	196.60
426.01	187.24
426.20	227.03
426.39	133.41
426.58	124.05
426.77	175.54
426.96	159.16
427.15	117.03
427.33	77.24
427.52	140.43
427.71	173.20
427.90	119.37
428.09	105.32
428.28	112.35
428.46	114.69
428.65	131.07
428.84	124.05
429.03	131.07
429.22	114.69
429.40	161.50
429.59	98.30
429.78	196.60
429.97	119.37
430.16	37.45
430.34	105.32
430.53	166.18
430.72	121.71
430.91	189.58
431.10	72.56
431.28	72.56
431.47	74.90
431.66	86.60
431.85	135.75
432.03	142.77
432.22	166.18
432.41	107.66
432.60	154.48
432.79	163.84
432.97	236.39
433.16	304.27
433.35	196.60
433.54	220.01
433.72	194.26
433.91	220.01
434.10	91.28
434.28	170.86
434.47	175.54
434.66	147.45
434.85	140.43
435.03	70.22
435.22	196.60
435.41	154.48
435.59	112.35
435.78	180.22
435.97	152.13
436.16	117.03
436.34	142.77
436.53	114.69
436.72	105.32
436.90	191.92
437.09	79.58
437.28	173.20
437.46	121.71
437.65	145.11
437.84	100.64
438.02	86.60
438.21	170.86
438.40	154.48
438.58	124.05
438.77	140.43
438.96	161.50
439.14	100.64
439.33	147.45
439.52	121.71
439.70	147.45
439.89	189.58
440.08	117.03
440.26	159.16
440.45	234.05
440.63	145.11
440.82	88.94
441.01	124.05
441.19	56.17
441.38	102.98
441.57	149.79
441.75	201.29
441.94	182.56
442.12	84.26
442.31	154.48
442.50	126.39
442.68	114.69
442.87	107.66
443.05	46.81
443.24	119.37
443.43	196.60
443.61	173.20
443.80	84.26
443.98	79.58
444.17	196.60
444.35	166.18
444.54	112.35
444.73	81.92
444.91	161.50
445.10	117.03
445.28	163.84
445.47	154.48
445.65	173.20
445.84	98.30
446.02	107.66
446.21	56.17
446.39	147.45
446.58	210.65
446.77	182.56
446.95	107.66
447.14	100.64
447.32	133.41
447.51	194.26
447.69	133.41
447.88	140.43
448.06	156.82
448.25	177.88
448.43	110.01
448.62	44.47
448.80	88.94
448.99	112.35
449.17	154.48
449.36	81.92
449.54	163.84
449.73	180.22
449.91	131.07
450.10	138.09
450.28	175.54
450.46	142.77
450.65	135.75
450.83	131.07
451.02	124.05
451.20	142.77
451.39	93.62
451.57	81.92
451.76	74.90
451.94	180.22
452.13	173.20
452.31	156.82
452.49	156.82
452.68	124.05
452.86	98.30
453.05	194.26
453.23	117.03
453.42	98.30
453.60	60.85
453.78	166.18
453.97	117.03
454.15	142.77
454.34	140.43
454.52	119.37
454.70	147.45
454.89	133.41
455.07	124.05
455.26	65.54
455.44	128.73
455.62	124.05
455.81	126.39
455.99	46.81
456.17	159.16
456.36	152.13
456.54	86.60
456.73	138.09
456.91	117.03
457.09	117.03
457.28	149.79
457.46	110.01
457.64	173.20
457.83	95.96
458.01	128.73
458.19	84.26
458.38	67.88
458.56	124.05
458.74	152.13
458.93	135.75
459.11	159.16
459.29	74.90
459.48	236.39
459.66	166.18
459.84	187.24
460.03	189.58
460.21	154.48
460.39	110.01
460.57	145.11
460.76	81.92
460.94	70.22
461.12	173.20
461.31	173.20
461.49	95.96
461.67	126.39
461.85	159.16
462.04	124.05
462.22	587.47
462.40	161.50
462.59	112.35
462.77	56.17
462.95	138.09
463.13	131.07
463.32	131.07
463.50	152.13
463.68	105.32
463.86	110.01
464.05	131.07
464.23	166.18
464.41	156.82
464.59	86.60
464.78	210.65
464.96	166.18
465.14	65.54
465.32	140.43
465.50	182.56
465.69	102.98
465.87	117.03
466.05	124.05
466.23	119.37
466.41	128.73
466.60	114.69
466.78	196.60
466.96	166.18
467.14	105.32
467.32	184.90
467.51	128.73
467.69	135.75
467.87	255.12
468.05	65.54
468.23	152.13
468.41	180.22
468.60	149.79
468.78	196.60
468.96	126.39
469.14	126.39
469.32	152.13
469.50	191.92
469.69	191.92
469.87	217.67
470.05	154.48
470.23	187.24
470.41	161.50
470.59	133.41
470.77	121.71
470.95	121.71
471.14	234.05
471.32	114.69
471.50	177.88
471.68	168.52
471.86	147.45
472.04	159.16
472.22	124.05
472.40	74.90
472.58	110.01
472.77	114.69
472.95	142.77
473.13	159.16
473.31	168.52
473.49	105.32
473.67	0.00
473.85	126.39
474.03	231.71
474.21	184.90
474.39	194.26
474.57	177.88
474.75	147.45
474.93	98.30
475.12	84.26
475.30	159.16
475.48	117.03
475.66	119.37
475.84	149.79
476.02	184.90
476.20	182.56
476.38	117.03
476.56	166.18
476.74	152.13
476.92	107.66
477.10	79.58
477.28	107.66
477.46	175.54
477.64	161.50
477.82	102.98
478.00	91.28
478.18	173.20
478.36	152.13
478.54	126.39
478.72	180.22
478.90	159.16
479.08	133.41
479.26	119.37
479.44	100.64
479.62	124.05
479.80	156.82
479.98	182.56
480.16	159.16
480.34	273.84
480.52	170.86
480.70	124.05
480.88	168.52
481.06	156.82
481.24	128.73
481.41	208.31
481.59	220.01
481.77	180.22
481.95	156.82
482.13	180.22
482.31	135.75
482.49	126.39
482.67	124.05
482.85	180.22
483.03	182.56
483.21	145.11
483.39	163.84
483.57	220.01
483.74	184.90
483.92	100.64
484.10	124.05
484.28	159.16
484.46	128.73
484.64	77.24
484.82	175.54
485.00	110.01
485.18	163.84
485.35	189.58
485.53	93.62
485.71	168.52
485.89	126.39
486.07	189.58
486.25	238.73
486.43	215.33
486.61	208.31
486.78	166.18
486.96	140.43
487.14	100.64
487.32	184.90
487.50	187.24
487.68	138.09
487.85	170.86
488.03	184.90
488.21	110.01
488.39	215.33
488.57	191.92
488.75	208.31
488.92	428.32
489.10	215.33
489.28	159.16
489.46	149.79
489.64	184.90
489.81	72.56
489.99	175.54
490.17	241.08
490.35	212.99
490.53	145.11
490.70	149.79
490.88	168.52
491.06	222.35
491.24	170.86
491.41	238.73
491.59	173.20
491.77	121.71
491.95	70.22
492.13	198.95
492.30	142.77
492.48	229.37
492.66	170.86
492.84	138.09
493.01	145.11
493.19	166.18
493.37	187.24
493.54	187.24
493.72	196.60
493.90	180.22
494.08	229.37
494.25	184.90
494.43	147.45
494.61	187.24
494.79	128.73
494.96	177.88
495.14	175.54
495.32	187.24
495.49	170.86
495.67	203.63
495.85	161.50
496.02	152.13
496.20	170.86
496.38	187.24
496.55	159.16
496.73	250.44
496.91	180.22
497.09	191.92
497.26	161.50
497.44	184.90
497.62	215.33
497.79	217.67
497.97	196.60
498.14	182.56
498.32	203.63
498.50	180.22
498.67	126.39
498.85	248.10
499.03	208.31
499.20	107.66
499.38	166.18
499.56	234.05
499.73	175.54
499.91	220.01
500.08	243.42
500.26	205.97
500.44	215.33
500.61	124.05
500.79	93.62
500.97	98.30
501.14	175.54
501.32	156.82
501.49	222.35
501.67	248.10
501.84	215.33
502.02	184.90
502.20	156.82
502.37	191.92
502.55	184.90
502.72	149.79
502.90	180.22
503.07	215.33
503.25	231.71
503.43	245.76
503.60	250.44
503.78	222.35
503.95	210.65
504.13	238.73
504.30	229.37
504.48	205.97
504.65	210.65
504.83	229.37
505.01	159.16
505.18	166.18
505.36	152.13
505.53	189.58
505.71	156.82
505.88	238.73
506.06	196.60
506.23	205.97
506.41	229.37
506.58	166.18
506.76	266.82
506.93	224.69
507.11	196.60
507.28	231.71
507.46	241.08
507.63	241.08
507.81	203.63
507.98	194.26
508.16	189.58
508.33	194.26
508.50	252.78
508.68	210.65
508.85	264.48
509.03	159.16
509.20	163.84
509.38	273.84
509.55	184.90
509.73	161.50
509.90	234.05
510.08	145.11
510.25	140.43
510.42	142.77
510.60	138.09
510.77	236.39
510.95	217.67
511.12	243.42
511.30	304.27
511.47	245.76
511.64	208.31
511.82	220.01
511.99	224.69
512.17	212.99
512.34	173.20
512.51	168.52
512.69	166.18
512.86	273.84
513.04	191.92
513.21	196.60
513.38	182.56
513.56	245.76
513.73	231.71
513.90	168.52
514.08	229.37
514.25	262.14
514.43	257.46
514.60	126.39
514.77	255.12
514.95	142.77
515.12	234.05
515.29	231.71
515.47	126.39
515.64	203.63
515.81	201.29
515.99	285.55
516.16	159.16
516.33	177.88
516.51	180.22
516.68	198.95
516.85	196.60
517.03	257.46
517.20	187.24
517.37	187.24
517.54	252.78
517.72	112.35
517.89	114.69
518.06	177.88
518.24	205.97
518.41	301.93
518.58	266.82
518.75	217.67
518.93	255.12
519.10	173.20
519.27	201.29
519.45	166.18
519.62	222.35
519.79	280.86
519.96	131.07
520.14	243.42
520.31	201.29
520.48	126.39
520.65	222.35
520.83	227.03
521.00	215.33
521.17	175.54
521.34	222.35
521.52	294.91
521.69	126.39
521.86	292.57
522.03	224.69
522.20	257.46
522.38	189.58
522.55	205.97
522.72	234.05
522.89	161.50
523.07	180.22
523.24	184.90
523.41	210.65
523.58	168.52
523.75	166.18
523.92	238.73
524.10	220.01
524.27	175.54
524.44	212.99
524.61	196.60
524.78	201.29
524.96	128.73
525.13	238.73
525.30	212.99
525.47	194.26
525.64	182.56
525.81	175.54
525.98	203.63
526.16	234.05
526.33	198.95
526.50	196.60
526.67	229.37
526.84	212.99
527.01	205.97
527.18	208.31
527.36	184.90
527.53	175.54
527.70	220.01
527.87	231.71
528.04	339.38
528.21	250.44
528.38	205.97
528.55	255.12
528.72	196.60
528.89	154.48
529.07	170.86
529.24	201.29
529.41	173.20
529.58	227.03
529.75	203.63
529.92	266.82
530.09	184.90
530.26	271.50
530.43	208.31
530.60	304.27
530.77	140.43
530.94	196.60
531.11	243.42
531.28	224.69
531.46	191.92
531.63	184.90
531.80	220.01
531.97	135.75
532.14	229.37
532.31	163.84
532.48	255.12
532.65	362.78
532.82	376.83
532.99	491.51
533.16	369.80
533.33	334.70
533.50	241.08
533.67	465.77
533.84	402.57
534.01	472.79
534.18	428.32
534.35	318.31
534.52	255.12
534.69	255.12
534.86	231.71
535.03	128.73
535.20	173.20
535.37	252.78
535.54	217.67
535.71	173.20
535.88	227.03
536.05	196.60
536.22	287.89
536.38	114.69
536.55	215.33
536.72	184.90
536.89	227.03
537.06	269.16
537.23	166.18
537.40	224.69
537.57	163.84
537.74	252.78
537.91	194.26
538.08	140.43
538.25	147.45
538.42	201.29
538.59	187.24
538.75	173.20
538.92	191.92
539.09	243.42
539.26	278.52
539.43	573.43
539.60	1334.11
539.77	2258.62
539.94	2342.88
540.11	1394.96
540.28	856.64
540.44	552.37
540.61	369.80
540.78	212.99
540.95	287.89
541.12	287.89
541.29	161.50
541.46	287.89
541.62	217.67
541.79	198.95
541.96	180.22
542.13	198.95
542.30	152.13
542.47	208.31
542.63	220.01
542.80	182.56
542.97	196.60
543.14	238.73
543.31	220.01
543.48	210.65
543.64	208.31
543.81	205.97
543.98	166.18
544.15	152.13
544.32	175.54
544.48	255.12
544.65	175.54
544.82	229.37
544.99	180.22
545.16	264.48
545.32	187.24
545.49	255.12
545.66	212.99
545.83	231.71
546.00	173.20
546.16	227.03
546.33	215.33
546.50	166.18
546.67	175.54
546.83	222.35
547.00	196.60
547.17	173.20
547.34	156.82
547.50	140.43
547.67	198.95
547.84	194.26
548.00	262.14
548.17	210.65
548.34	184.90
548.51	220.01
548.67	287.89
548.84	215.33
549.01	234.05
549.18	215.33
549.34	208.31
549.51	177.88
549.68	142.77
549.84	227.03
550.01	201.29
550.18	276.18
550.34	231.71
550.51	238.73
550.68	241.08
550.84	224.69
551.01	250.44
551.18	194.26
551.34	220.01
551.51	259.80
551.68	229.37
551.84	217.67
552.01	269.16
552.18	301.93
552.34	189.58
552.51	152.13
552.68	259.80
552.84	224.69
553.01	255.12
553.18	262.14
553.34	163.84
553.51	159.16
553.67	255.12
553.84	276.18
554.01	203.63
554.17	198.95
554.34	194.26
554.51	227.03
554.67	238.73
554.84	170.86
555.00	212.99
555.17	152.13
555.33	234.05
555.50	308.95
555.67	234.05
555.83	189.58
556.00	227.03
556.16	449.38
556.33	273.84
556.50	220.01
556.66	182.56
556.83	175.54
556.99	191.92
557.16	180.22
557.32	196.60
557.49	205.97
557.65	205.97
557.82	135.75
557.98	163.84
558.15	138.09
558.32	264.48
558.48	234.05
558.65	131.07
558.81	304.27
558.98	168.52
559.14	205.97
559.31	266.82
559.47	285.55
559.64	208.31
559.80	234.05
559.97	196.60
560.13	194.26
560.30	187.24
560.46	198.95
560.63	156.82
560.79	149.79
560.96	184.90
561.12	131.07
561.29	262.14
561.45	175.54
561.61	138.09
561.78	299.59
561.94	175.54
562.11	208.31
562.27	212.99
562.44	187.24
562.60	205.97
562.77	234.05
562.93	227.03
563.10	194.26
563.26	215.33
563.42	196.60
563.59	259.80
563.75	152.13
563.92	292.57
564.08	243.42
564.24	304.27
564.41	297.25
564.57	241.08
564.74	166.18
564.90	156.82
565.07	224.69
565.23	341.72
565.39	322.99
565.56	280.86
565.72	301.93
565.88	154.48
566.05	198.95
566.21	245.76
566.38	301.93
566.54	170.86
566.70	257.46
566.87	245.76
567.03	194.26
567.19	196.60
567.36	297.25
567.52	264.48
567.68	224.69
567.85	189.58
568.01	191.92
568.17	241.08
568.34	285.55
568.50	238.73
568.66	245.76
568.83	341.72
568.99	227.03
569.15	285.55
569.32	227.03
569.48	250.44
569.64	163.84
569.81	269.16
569.97	128.73
570.13	182.56
570.30	234.05
570.46	173.20
570.62	210.65
570.78	191.92
570.95	159.16
571.11	332.36
571.27	297.25
571.43	227.03
571.60	212.99
571.76	358.10
571.92	222.35
572.09	198.95
572.25	128.73
572.41	227.03
572.57	205.97
572.74	224.69
572.90	187.24
573.06	194.26
573.22	161.50
573.38	201.29
573.55	266.82
573.71	252.78
573.87	245.76
574.03	208.31
574.20	166.18
574.36	285.55
574.52	374.49
574.68	449.38
574.84	362.78
575.01	290.23
575.17	229.37
575.33	212.99
575.49	257.46
575.65	339.38
575.82	397.89
575.98	622.58
576.14	992.39
576.30	1048.56
576.46	758.33
576.62	552.37
576.79	510.24
576.95	451.72
577.11	271.50
577.27	189.58
577.43	301.93
577.59	290.23
577.75	257.46
577.92	168.52
578.08	266.82
578.24	311.29
578.40	180.22
578.56	308.95
578.72	301.93
578.88	280.86
579.04	290.23
579.21	283.20
579.37	304.27
579.53	262.14
579.69	318.31
579.85	266.82
580.01	346.40
580.17	470.45
580.33	407.25
580.49	456.40
580.65	339.38
580.82	386.19
580.98	353.42
581.14	372.15
581.30	482.15
581.46	437.68
581.62	720.88
581.78	877.70
581.94	805.14
582.10	634.29
582.26	533.64
582.42	594.50
582.58	557.05
582.74	409.59
582.90	543.00
583.06	545.34
583.22	442.36
583.38	603.86
583.54	681.10
583.70	823.87
583.86	866.00
584.02	1018.13
584.18	1256.87
584.34	1668.80
584.50	4383.82
584.66	32961.76
584.82	65535.00
584.98	65535.00
585.14	65535.00
585.30	65535.00
585.46	47346.70
585.62	29488.41
585.78	13104.66
585.94	5093.01
586.10	2338.20
586.26	1509.65
586.42	1219.42
586.58	931.53
586.74	786.42
586.90	779.40
587.06	718.54
587.22	748.97
587.38	587.47
587.54	1607.95
587.70	4978.32
587.86	9064.89
588.02	10516.03
588.18	7218.21
588.34	4447.02
588.49	2792.26
588.65	1673.48
588.81	887.06
588.97	472.79
589.13	414.27
589.29	470.45
589.45	306.61
589.61	337.04
589.77	411.93
589.93	477.47
590.08	587.47
590.24	585.13
590.40	550.03
590.56	458.74
590.72	543.00
590.88	435.34
591.04	447.04
591.20	416.62
591.35	421.30
591.51	395.55
591.67	372.15
591.83	362.78
591.99	369.80
592.15	327.68
592.31	320.65
592.46	315.97
592.62	320.65
592.78	358.10
592.94	262.14
593.10	418.96
593.26	308.95
593.41	360.44
593.57	437.68
593.73	725.57
593.89	3868.91
594.05	10862.43
594.20	17841.90
594.36	17277.83
594.52	10944.34
594.68	6839.05
594.84	4528.94
594.99	2513.74
595.15	1036.86
595.31	540.66
595.47	425.98
595.62	351.08
595.78	358.10
595.94	339.38
596.10	444.70
596.25	369.80
596.41	433.00
596.57	365.12
596.73	283.20
596.88	723.23
597.04	1846.68
597.20	3433.57
597.36	4234.03
597.51	3199.51
597.67	2094.78
597.83	1390.28
597.99	983.02
598.14	615.56
598.30	381.51
598.46	383.85
598.61	409.59
598.77	444.70
598.93	322.99
599.09	227.03
599.24	285.55
599.40	280.86
599.56	259.80
599.71	250.44
599.87	299.59
600.03	283.20
600.18	177.88
600.34	198.95
600.50	250.44
600.65	224.69
600.81	250.44
600.97	215.33
601.12	255.12
601.28	217.67
601.44	243.42
601.59	243.42
601.75	273.84
601.91	325.33
602.06	266.82
602.22	404.91
602.37	875.36
602.53	2413.09
602.69	4060.83
602.84	4578.09
603.00	3169.09
603.16	2150.95
603.31	1481.56
603.47	922.17
603.62	519.60
603.78	400.23
603.94	325.33
604.09	402.57
604.25	313.63
604.40	327.68
604.56	313.63
604.71	264.48
604.87	264.48
605.03	262.14
605.18	266.82
605.34	320.65
605.49	290.23
605.65	341.72
605.80	297.25
605.96	278.52
606.12	383.85
606.27	461.09
606.43	318.31
606.58	390.87
606.74	1039.20
606.89	4718.52
607.05	10623.69
607.20	14813.25
607.36	12453.99
607.51	8229.32
607.67	5217.05
607.82	3595.06
607.98	1961.37
608.13	894.08
608.29	585.13
608.44	477.47
608.60	503.22
608.75	610.88
608.91	1554.12
609.06	7508.44
609.22	18604.92
609.37	26925.52
609.53	23154.92
609.68	14909.21
609.84	9533.00
609.99	6272.64
610.15	3356.33
610.30	1455.81
610.46	795.78
610.61	575.77
610.76	500.87
610.92	430.66
611.07	395.55
611.23	388.53
611.38	372.15
611.54	311.29
