SpectraSuite Data File
++++++++++++++++++++++++++++++++++++
Date: Fri Oct 04 11:48:44 GMT-05:00 2013
User: price-jones
Dark Spectrum Present: No
Reference Spectrum Present: No
Number of Sampled Component Spectra: 1
Spectrometers: USB2+H05261
Integration Time (usec): 100000 (USB2+H05261)
Spectra Averaged: 1 (USB2+H05261)
Boxcar Smoothing: 0 (USB2+H05261)
Correct for Electrical Dark: No (USB2+H05261)
Strobe/Lamp Enabled: No (USB2+H05261)
Correct for Detector Non-linearity: No (USB2+H05261)
Correct for Stray Light: No (USB2+H05261)
Number of Pixels in Processed Spectrum: 2048
>>>>>Begin Processed Spectral Data<<<<<
365.73	21.06
365.92	21.06
366.12	21.06
366.32	0.00
366.52	0.00
366.72	93.62
366.91	0.00
367.11	0.00
367.31	0.00
367.51	0.00
367.70	0.00
367.90	0.00
368.10	0.00
368.30	0.00
368.49	0.00
368.69	0.00
368.89	44.47
369.09	0.00
369.28	0.00
369.48	0.00
369.68	0.00
369.87	39.79
370.07	0.00
370.27	67.88
370.47	234.05
370.66	505.56
370.86	676.41
371.06	650.67
371.25	655.35
371.45	582.79
371.65	634.29
371.84	655.35
372.04	667.05
372.24	725.57
372.44	702.16
372.63	711.52
372.83	718.54
373.03	779.40
373.22	699.82
373.42	657.69
373.62	763.01
373.81	763.01
374.01	849.61
374.21	819.19
374.40	821.53
374.60	866.00
374.79	943.24
374.99	851.96
375.19	919.83
375.38	866.00
375.58	929.19
375.78	1008.77
375.97	931.53
376.17	957.28
376.37	875.36
376.56	968.98
376.76	828.55
376.95	933.87
377.15	912.81
377.35	1013.45
377.54	1069.62
377.74	940.90
377.93	983.02
378.13	1032.18
378.33	1121.12
378.52	1011.11
378.72	1057.92
378.91	1046.22
379.11	1111.75
379.31	1022.81
379.50	1032.18
379.70	1078.99
379.89	1046.22
380.09	1128.14
380.28	1074.31
380.48	1130.48
380.68	1022.81
380.87	1165.59
381.07	1104.73
381.26	1064.94
381.46	1170.27
381.65	1118.78
381.85	1207.72
382.04	1233.46
382.24	1200.69
382.43	1228.78
382.63	1228.78
382.83	1362.19
383.02	1203.04
383.22	1324.74
383.41	1123.46
383.61	1249.85
383.80	1219.42
384.00	1303.68
384.19	1357.51
384.39	1306.02
384.58	1348.15
384.78	1317.72
384.97	1242.82
385.17	1256.87
385.36	1327.08
385.56	1306.02
385.75	1268.57
385.95	1334.11
386.14	1423.05
386.34	1430.07
386.53	1401.98
386.72	1373.89
386.92	1425.39
387.11	1437.09
387.31	1472.20
387.50	1376.24
387.70	1521.35
387.89	1493.26
388.09	1544.75
388.28	1451.13
388.48	1600.93
388.67	1526.03
388.86	1511.99
389.06	1554.12
389.25	1558.80
389.45	1558.80
389.64	1514.33
389.84	1657.10
390.03	1659.44
390.22	1713.27
390.42	1659.44
390.61	1570.50
390.81	1657.10
391.00	1750.72
391.19	1734.34
391.39	1748.38
391.58	1748.38
391.78	1699.23
391.97	1753.06
392.16	1647.74
392.36	1907.54
392.55	1809.23
392.75	1884.13
392.94	1830.30
393.13	1982.43
393.33	1865.41
393.52	1909.88
393.71	1872.43
393.91	1937.96
394.10	1900.52
394.29	2026.90
394.49	1902.86
394.68	2029.24
394.88	1984.77
395.07	2076.06
395.26	2073.71
395.46	1994.14
395.65	2134.57
395.84	2190.74
396.04	2242.23
396.23	2209.47
396.42	2176.70
396.62	2176.70
396.81	2146.27
397.00	2223.51
397.19	2223.51
397.39	2155.63
397.58	2401.39
397.77	2293.72
397.97	2452.88
398.16	2207.13
398.35	2352.24
398.55	2279.68
398.74	2506.71
398.93	2492.67
399.12	2370.96
399.32	2239.89
399.51	2544.16
399.70	2602.68
399.90	2389.69
400.09	2555.86
400.28	2619.06
400.47	2532.46
400.67	2630.76
400.86	2565.23
401.05	2633.10
401.24	2609.70
401.44	2663.53
401.63	2541.82
401.82	2691.62
402.01	2621.40
402.21	2708.00
402.40	2818.00
402.59	2724.38
402.78	2808.64
402.97	2836.73
403.17	2939.71
403.36	2895.24
403.55	2967.80
403.74	2995.89
403.93	2953.76
404.13	2981.84
404.32	3002.91
404.51	2967.80
404.70	3136.32
404.89	2998.23
405.09	3105.89
405.28	3098.87
405.47	3141.00
405.66	3330.58
405.85	3068.44
406.05	3169.09
406.24	3314.20
406.43	3119.93
406.62	3222.92
406.81	3288.45
407.00	3372.71
407.20	3288.45
407.39	3445.27
407.58	3473.36
407.77	3368.03
407.96	3522.51
408.15	3538.89
408.34	3562.30
408.54	3623.15
408.73	3606.77
408.92	3566.98
409.11	3688.68
409.30	3768.26
409.49	3606.77
409.68	3707.41
409.87	3859.54
410.07	3843.16
410.26	3754.22
410.45	3735.50
410.64	3936.78
410.83	3927.42
411.02	3971.89
411.21	4084.23
411.40	4065.51
411.59	4079.55
411.78	4131.05
411.98	4107.64
412.17	4227.01
412.36	4161.47
412.55	4271.48
412.74	4269.14
412.93	4212.96
413.12	4313.61
413.31	4468.08
413.50	4374.46
413.69	4594.47
413.88	4538.30
414.07	4620.22
414.26	4720.86
414.45	4774.69
414.64	4613.20
414.83	4844.91
415.02	4697.46
415.22	4814.48
415.41	5067.26
415.60	4861.29
415.79	4994.70
415.98	5069.60
416.17	5022.79
416.36	4990.02
416.55	5226.42
416.74	5114.07
416.93	5228.76
417.12	5275.57
417.31	5411.32
417.50	5235.78
417.69	5486.22
417.88	5518.98
418.07	5420.68
418.26	5479.19
418.45	5490.90
418.64	5769.42
418.83	5710.91
419.02	5640.69
419.21	5919.21
419.39	5799.85
419.58	5659.42
419.77	5743.67
419.96	5790.49
420.15	5827.93
420.34	5891.13
420.53	6036.24
420.72	6015.18
420.91	6071.35
421.10	6120.50
421.29	6387.32
421.48	6078.37
421.67	6310.08
421.86	6155.61
422.05	6328.81
422.24	6361.58
422.43	6267.95
422.61	6324.13
422.80	6307.74
422.99	6148.59
423.18	6244.55
423.37	6417.75
423.56	6476.26
423.75	6136.88
423.94	6249.23
424.13	6024.54
424.32	6045.60
424.50	6403.71
424.69	6476.26
424.88	6366.26
425.07	6225.82
425.26	6403.71
425.45	6284.34
425.64	6614.35
425.83	6282.00
426.01	6476.26
426.20	6497.33
426.39	6319.45
426.58	6424.77
426.77	6602.65
426.96	6534.78
427.15	6579.25
427.33	6785.21
427.52	6612.01
427.71	6740.74
427.90	6771.17
428.09	6920.96
428.28	6750.10
428.46	7002.88
428.65	7002.88
428.84	7084.80
429.03	7140.97
429.22	6944.37
429.40	7101.19
429.59	7054.37
429.78	6857.77
429.97	6867.13
430.16	7045.01
430.34	7267.36
430.53	7307.15
430.72	7349.28
430.91	7157.36
431.10	7213.53
431.28	7557.59
431.47	7691.00
431.66	7719.09
431.85	7559.93
432.03	7758.88
432.22	7726.11
432.41	7644.19
432.60	7609.08
432.79	7578.65
432.97	7934.42
433.16	7716.75
433.35	7716.75
433.54	7850.16
433.72	8119.32
433.91	7775.26
434.10	7805.69
434.28	7939.10
434.47	8053.78
434.66	8105.28
434.85	8142.72
435.03	8189.53
435.22	8222.30
435.41	8393.16
435.59	8194.22
435.78	8381.46
435.97	8344.01
436.16	8280.82
436.34	8500.83
436.53	8365.07
436.72	8472.74
436.90	8304.22
437.09	8636.58
437.28	8437.63
437.46	8716.16
437.65	8547.64
437.84	8835.52
438.02	8739.56
438.21	8936.17
438.40	8807.44
438.58	8966.59
438.77	9273.20
438.96	9156.18
439.14	9291.93
439.33	9502.58
439.52	9228.73
439.70	9394.91
439.89	9584.49
440.08	9561.09
440.26	9731.95
440.45	9628.96
440.63	9624.28
440.82	9724.93
441.01	9860.68
441.19	9961.32
441.38	9956.64
441.57	10225.80
441.75	10286.65
441.94	10504.32
442.12	10408.36
442.31	10501.98
442.50	10417.72
442.68	10380.28
442.87	10401.34
443.05	10560.50
443.24	10726.68
443.43	10691.57
443.61	10916.26
443.80	11218.19
443.98	10773.49
444.17	10293.68
444.35	10792.21
444.54	11012.22
444.73	10876.47
444.91	10736.04
445.10	10871.79
445.28	11103.50
445.47	10839.02
445.65	10977.11
445.84	11068.39
446.02	11080.10
446.21	10878.81
446.39	11021.58
446.58	11075.42
446.77	11297.77
446.95	11052.01
447.14	11028.60
447.32	11314.15
447.51	11164.36
447.69	11023.92
447.88	11447.56
448.06	11056.69
448.25	11180.74
448.43	11243.93
448.62	11236.91
448.80	11281.38
448.99	11445.22
449.17	11580.97
449.36	11314.15
449.54	11698.00
449.73	11700.34
449.91	11913.33
450.10	11929.71
450.28	11915.67
450.46	11817.36
450.65	11798.64
450.83	11880.56
451.02	11817.36
451.20	12081.85
451.39	11948.43
451.57	12063.12
451.76	11899.28
451.94	12248.02
452.13	12365.05
452.31	12135.68
452.49	12128.66
452.68	12334.62
452.86	12437.61
453.05	12470.37
453.23	12451.65
453.42	12456.33
453.60	12397.82
453.78	12559.31
453.97	12407.18
454.15	12425.90
454.34	12451.65
454.52	12872.95
454.70	12599.10
454.89	12695.07
455.07	12870.61
455.26	12835.50
455.44	12994.65
455.62	12964.23
455.81	13064.87
455.99	13277.86
456.17	13284.88
456.36	13282.54
456.54	13277.86
456.73	13490.85
456.91	13809.16
457.09	13628.94
457.28	14026.83
457.46	13713.20
457.64	13809.16
457.83	13998.74
458.01	13635.96
458.19	14115.77
458.38	14026.83
458.56	14230.46
458.74	14052.58
458.93	14169.60
459.11	14202.37
459.29	14190.67
459.48	14094.71
459.66	14654.09
459.84	14450.47
460.03	14672.82
460.21	14546.43
460.39	14628.35
460.57	14455.15
460.76	14588.56
460.94	15066.03
461.12	14775.80
461.31	14904.53
461.49	14993.47
461.67	14944.32
461.85	15328.17
462.04	15208.80
462.22	15910.96
462.40	15400.72
462.59	15220.50
462.77	15257.95
462.95	15632.44
463.13	15501.37
463.32	15323.49
463.50	15709.68
463.68	15829.04
463.86	15676.91
464.05	15260.29
464.23	15679.25
464.41	15875.85
464.59	15412.43
464.78	16233.96
464.96	15807.98
465.14	15962.45
465.32	16163.74
465.50	16470.35
465.69	16093.52
465.87	16046.71
466.05	16037.35
466.23	16133.31
466.41	16198.85
466.60	16786.32
466.78	16437.58
466.96	16170.76
467.14	16126.29
467.32	16690.36
467.51	16645.89
467.69	16233.96
467.87	16634.19
468.05	16641.21
468.23	16460.99
468.41	16547.59
468.60	17097.61
468.78	17219.32
468.96	16624.83
469.14	17121.02
469.32	16908.03
469.50	16835.47
469.69	17525.93
469.87	17631.26
470.05	17568.06
470.23	17474.44
470.41	17586.79
470.59	17631.26
470.77	17682.75
470.95	17699.13
471.14	18113.41
471.32	17774.03
471.50	18185.96
471.68	18157.88
471.86	18408.31
472.04	18352.14
472.22	18904.51
472.40	18279.58
472.58	18670.45
472.77	18600.24
472.95	18927.91
473.13	19679.22
473.31	18593.22
473.49	18740.67
473.67	19154.94
473.85	19014.51
474.03	19410.06
474.21	19295.38
474.39	19772.85
474.57	19756.46
474.75	20046.69
474.93	20442.24
475.12	19920.30
475.30	20196.48
475.48	20311.17
475.66	20304.15
475.84	20409.47
476.02	20603.74
476.20	20594.37
476.38	21228.66
476.56	21242.70
476.74	21266.11
476.92	21223.98
477.10	21167.80
477.28	21867.63
477.46	21582.08
477.64	21879.33
477.82	22036.14
478.00	22923.21
478.18	22850.65
478.36	22782.77
478.54	22855.33
478.72	22597.87
478.90	23449.83
479.08	23550.47
479.26	23239.18
479.44	24088.79
479.62	24137.94
479.80	24191.78
479.98	24308.80
480.16	24592.01
480.34	24346.25
480.52	24840.11
480.70	24830.74
480.88	24535.84
481.06	25188.85
481.24	24727.76
481.41	25537.59
481.59	25965.90
481.77	26450.39
481.95	26389.54
482.13	26148.46
482.31	26235.06
482.49	27349.16
482.67	27019.14
482.85	27573.85
483.03	28208.14
483.21	28308.78
483.39	28222.18
483.57	27386.61
483.74	28437.51
483.92	28795.61
484.10	28568.58
484.28	29624.16
484.46	29413.51
484.64	30312.28
484.82	29839.49
485.00	29977.58
485.18	30721.87
485.35	30859.96
485.53	30944.22
485.71	31283.60
485.89	31922.57
486.07	31452.12
486.25	31742.35
486.43	32072.36
486.61	31988.10
486.78	32430.46
486.96	32584.94
487.14	33134.96
487.32	33141.99
487.50	33198.16
487.68	33677.97
487.85	33949.47
488.03	34646.95
488.21	34698.44
488.39	34960.58
488.57	35150.17
488.75	35442.73
488.92	35412.31
489.10	36320.43
489.28	36123.83
489.46	36608.32
489.64	36701.94
489.81	37780.93
489.99	36858.76
490.17	37656.88
490.35	37713.05
490.53	37647.52
490.70	38185.84
490.88	38412.87
491.06	38773.31
491.24	38733.53
491.41	38976.94
491.59	39388.88
491.77	39330.36
491.95	39941.24
492.13	40247.85
492.30	40437.44
492.48	40315.73
492.66	40842.35
492.84	40870.43
493.01	41500.04
493.19	41900.27
493.37	41497.70
493.54	42064.11
493.72	42014.96
493.90	42057.09
494.08	42670.31
494.25	43372.47
494.43	43103.31
494.61	43503.54
494.79	43817.17
494.96	43929.51
495.14	43955.26
495.32	44215.06
495.49	44236.12
495.67	44575.50
495.85	44861.05
496.02	45221.49
496.20	45500.01
496.38	45237.87
496.55	45525.76
496.73	46181.11
496.91	46476.02
497.09	46167.07
497.26	46852.84
497.44	46541.55
497.62	46583.68
497.79	47285.84
497.97	46899.65
498.14	47594.79
498.32	48406.96
498.50	47824.17
498.67	48516.96
498.85	48257.17
499.03	48821.23
499.20	48683.14
499.38	48858.68
499.56	48823.58
499.73	49137.21
499.91	49385.30
500.08	49858.09
500.26	49102.10
500.44	49724.68
500.61	49860.43
500.79	49984.48
500.97	50438.54
501.14	50363.65
501.32	50501.74
501.49	50246.62
501.67	50541.53
501.84	50555.57
502.02	50979.21
502.20	51119.64
502.37	51009.64
502.55	51311.56
502.72	51426.25
502.90	51199.22
503.07	51576.04
503.25	51676.69
503.43	51416.89
503.60	51742.22
503.78	51751.59
503.95	52030.11
504.13	52105.01
504.30	52034.79
504.48	52364.81
504.65	52465.45
504.83	52765.04
505.01	53174.63
505.18	52559.07
505.36	53050.58
505.53	52891.43
505.71	52947.60
505.88	53169.95
506.06	52781.42
506.23	53490.60
506.41	53570.18
506.58	53698.91
506.76	53570.18
506.93	53670.82
507.11	53497.62
507.28	53663.80
507.46	54014.88
507.63	54162.34
507.81	54564.91
507.98	54319.15
508.16	54377.67
508.33	54195.10
508.50	54401.07
508.68	54670.23
508.85	55072.81
509.03	55040.04
509.20	55042.38
509.38	55407.50
509.55	55330.26
509.73	55309.20
509.90	55217.92
510.08	55334.95
510.25	55269.41
510.42	55262.39
510.60	55641.56
510.77	55973.91
510.95	56051.15
511.12	55744.54
511.30	55828.80
511.47	55955.19
511.64	56245.41
511.82	56371.80
511.99	56322.65
512.17	56343.72
512.34	56460.74
512.51	56554.36
512.69	56456.06
512.86	56837.57
513.04	56839.91
513.21	57052.90
513.38	57125.46
513.56	56973.32
513.73	56722.88
513.90	57088.01
514.08	57141.84
514.25	57209.71
514.43	57389.94
514.60	57675.48
514.77	57670.80
514.95	57413.34
515.12	57600.58
515.29	57549.09
515.47	57680.16
515.64	57909.53
515.81	57808.89
515.99	58012.52
516.16	58040.60
516.33	58143.59
516.51	58209.12
516.68	57841.66
516.85	58129.54
517.03	58391.68
517.20	58272.32
517.37	58396.37
517.54	58450.20
517.72	58459.56
517.89	58611.70
518.06	58686.59
518.24	58440.84
518.41	58511.05
518.58	58897.24
518.75	58775.53
518.93	59171.08
519.10	59061.08
519.27	58953.41
519.45	58967.46
519.62	58754.47
519.79	59044.69
519.96	59297.47
520.14	59337.26
520.31	59145.34
520.48	59391.09
520.65	59423.86
520.83	59519.82
521.00	59526.84
521.17	59442.59
521.34	59641.53
521.52	59763.24
521.69	59648.55
521.86	59765.58
522.03	59934.10
522.20	60023.04
522.38	60020.70
522.55	60088.57
522.72	60210.28
522.89	60182.19
523.07	60502.85
523.24	60266.45
523.41	60427.95
523.58	60245.39
523.75	60367.10
523.92	60315.61
524.10	60463.06
524.27	60392.84
524.44	60757.97
524.61	60961.59
524.78	60807.12
524.96	60673.71
525.13	60793.07
525.30	60781.37
525.47	60963.93
525.64	60764.99
525.81	61087.98
525.98	61226.07
526.16	61071.60
526.33	61209.69
526.50	61345.44
526.67	61073.94
526.84	61305.65
527.01	61284.59
527.18	61429.70
527.36	61385.23
527.53	61556.09
527.70	61806.53
527.87	61633.33
528.04	61439.06
528.21	61560.77
528.38	61504.60
528.55	61759.72
528.72	61614.60
528.89	61703.54
529.07	61806.53
529.24	61689.50
529.41	62012.49
529.58	62033.56
529.75	61652.05
529.92	61867.38
530.09	62033.56
530.26	62183.35
530.43	62274.63
530.60	61984.41
530.77	62272.29
530.94	62192.72
531.11	62276.97
531.28	62204.42
531.46	62305.06
531.63	62447.83
531.80	62494.64
531.97	62628.05
532.14	62609.33
532.31	62461.88
532.48	62611.67
532.65	62747.42
532.82	62473.58
532.99	62588.27
533.16	62527.41
533.33	62700.61
533.50	63023.61
533.67	62777.85
533.84	62904.24
534.01	62843.38
534.18	62663.16
534.35	62855.09
534.52	63159.36
534.69	63117.23
534.86	63077.44
535.03	63100.84
535.20	63016.58
535.37	63220.21
535.54	63096.16
535.71	63217.87
535.88	63311.49
536.05	63409.79
536.22	63302.13
536.38	63407.45
536.55	63503.42
536.72	63559.59
536.89	63440.22
537.06	63723.43
537.23	63538.52
537.40	63501.07
537.57	63618.10
537.74	63791.30
537.91	63838.11
538.08	63957.48
538.25	63662.57
538.42	63788.96
538.59	63753.85
538.75	63678.96
538.92	63732.79
539.09	63990.25
539.26	63863.86
539.43	64046.42
539.60	64154.08
539.77	63997.27
539.94	64104.93
540.11	64154.08
540.28	64065.14
540.44	64004.29
540.61	64034.72
540.78	64053.44
540.95	64156.42
541.12	64172.81
541.29	64072.17
541.46	64168.13
541.62	64320.26
541.79	64163.45
541.96	64310.90
542.13	64360.05
542.30	64472.40
542.47	64631.55
542.63	64530.91
542.80	64573.04
542.97	64725.17
543.14	64767.30
543.31	64790.71
543.48	64774.33
543.64	65013.06
543.81	64966.25
543.98	64860.93
544.15	64874.97
544.32	65043.49
544.48	65076.26
544.65	64872.63
544.82	64968.59
544.99	64931.14
545.16	65066.89
545.32	65132.43
545.49	65450.74
545.66	65284.56
545.83	65310.31
546.00	65513.94
546.16	65352.44
546.33	64999.02
546.50	65092.64
546.67	65343.08
546.83	65055.19
547.00	65286.90
547.17	65317.33
547.34	65471.81
547.50	65443.72
547.67	65535.00
547.84	65488.19
548.00	65535.00
548.17	65535.00
548.34	65535.00
548.51	65535.00
548.67	65535.00
548.84	65535.00
549.01	65535.00
549.18	65535.00
549.34	65535.00
549.51	65535.00
549.68	65535.00
549.84	65535.00
550.01	65535.00
550.18	65535.00
550.34	65535.00
550.51	65535.00
550.68	65535.00
550.84	65535.00
551.01	65535.00
551.18	65535.00
551.34	65535.00
551.51	65535.00
551.68	65535.00
551.84	65535.00
552.01	65535.00
552.18	65535.00
552.34	65535.00
552.51	65535.00
552.68	65535.00
552.84	65535.00
553.01	65535.00
553.18	65535.00
553.34	65535.00
553.51	65535.00
553.67	65535.00
553.84	65535.00
554.01	65535.00
554.17	65535.00
554.34	65535.00
554.51	65535.00
554.67	65535.00
554.84	65535.00
555.00	65535.00
555.17	65535.00
555.33	65535.00
555.50	65535.00
555.67	65535.00
555.83	65535.00
556.00	65535.00
556.16	65535.00
556.33	65535.00
556.50	65535.00
556.66	65535.00
556.83	65535.00
556.99	65535.00
557.16	65535.00
557.32	65535.00
557.49	65535.00
557.65	65535.00
557.82	65535.00
557.98	65535.00
558.15	65535.00
558.32	65535.00
558.48	65535.00
558.65	65535.00
558.81	65535.00
558.98	65535.00
559.14	65535.00
559.31	65535.00
559.47	65535.00
559.64	65535.00
559.80	65535.00
559.97	65535.00
560.13	65535.00
560.30	65535.00
560.46	65535.00
560.63	65535.00
560.79	65535.00
560.96	65535.00
561.12	65535.00
561.29	65535.00
561.45	65535.00
561.61	65535.00
561.78	65535.00
561.94	65535.00
562.11	65535.00
562.27	65535.00
562.44	65535.00
562.60	65535.00
562.77	65535.00
562.93	65535.00
563.10	65535.00
563.26	65535.00
563.42	65535.00
563.59	65535.00
563.75	65535.00
563.92	65535.00
564.08	65535.00
564.24	65535.00
564.41	65535.00
564.57	65535.00
564.74	65535.00
564.90	65535.00
565.07	65535.00
565.23	65535.00
565.39	65535.00
565.56	65535.00
565.72	65535.00
565.88	65535.00
566.05	65535.00
566.21	65535.00
566.38	65535.00
566.54	65535.00
566.70	65535.00
566.87	65535.00
567.03	65535.00
567.19	65535.00
567.36	65535.00
567.52	65535.00
567.68	65535.00
567.85	65535.00
568.01	65535.00
568.17	65535.00
568.34	65535.00
568.50	65535.00
568.66	65535.00
568.83	65535.00
568.99	65535.00
569.15	65535.00
569.32	65535.00
569.48	65535.00
569.64	65535.00
569.81	65535.00
569.97	65535.00
570.13	65535.00
570.30	65535.00
570.46	65535.00
570.62	65535.00
570.78	65535.00
570.95	65535.00
571.11	65535.00
571.27	65535.00
571.43	65535.00
571.60	65535.00
571.76	65535.00
571.92	65535.00
572.09	65535.00
572.25	65535.00
572.41	65535.00
572.57	65535.00
572.74	65535.00
572.90	65535.00
573.06	65535.00
573.22	65535.00
573.38	65535.00
573.55	65535.00
573.71	65535.00
573.87	65535.00
574.03	65535.00
574.20	65535.00
574.36	65535.00
574.52	65535.00
574.68	65535.00
574.84	65535.00
575.01	65535.00
575.17	65535.00
575.33	65535.00
575.49	65535.00
575.65	65535.00
575.82	65535.00
575.98	65535.00
576.14	65535.00
576.30	65535.00
576.46	65535.00
576.62	65535.00
576.79	65535.00
576.95	65535.00
577.11	65535.00
577.27	65535.00
577.43	65535.00
577.59	65535.00
577.75	65535.00
577.92	65535.00
578.08	65535.00
578.24	65535.00
578.40	65535.00
578.56	65535.00
578.72	65535.00
578.88	65535.00
579.04	65535.00
579.21	65535.00
579.37	65535.00
579.53	65535.00
579.69	65535.00
579.85	65535.00
580.01	65535.00
580.17	65535.00
580.33	65535.00
580.49	65535.00
580.65	65535.00
580.82	65535.00
580.98	65535.00
581.14	65535.00
581.30	65535.00
581.46	65535.00
581.62	65535.00
581.78	65535.00
581.94	65535.00
582.10	65535.00
582.26	65535.00
582.42	65535.00
582.58	65535.00
582.74	65535.00
582.90	65535.00
583.06	65535.00
583.22	65535.00
583.38	65535.00
583.54	65535.00
583.70	65535.00
583.86	65535.00
584.02	65535.00
584.18	65535.00
584.34	65535.00
584.50	65535.00
584.66	65535.00
584.82	65535.00
584.98	65535.00
585.14	65535.00
585.30	65535.00
585.46	65535.00
585.62	65535.00
585.78	65535.00
585.94	65535.00
586.10	65535.00
586.26	65535.00
586.42	65535.00
586.58	65535.00
586.74	65535.00
586.90	65535.00
587.06	65535.00
587.22	65535.00
587.38	65535.00
587.54	65535.00
587.70	65535.00
587.86	65535.00
