SpectraSuite Data File
++++++++++++++++++++++++++++++++++++
Date: Fri Oct 04 11:48:20 GMT-05:00 2013
User: price-jones
Dark Spectrum Present: No
Reference Spectrum Present: No
Number of Sampled Component Spectra: 1
Spectrometers: USB2+H05261
Integration Time (usec): 100000 (USB2+H05261)
Spectra Averaged: 1 (USB2+H05261)
Boxcar Smoothing: 0 (USB2+H05261)
Correct for Electrical Dark: No (USB2+H05261)
Strobe/Lamp Enabled: No (USB2+H05261)
Correct for Detector Non-linearity: No (USB2+H05261)
Correct for Stray Light: No (USB2+H05261)
Number of Pixels in Processed Spectrum: 2048
>>>>>Begin Processed Spectral Data<<<<<
365.73	30.43
365.92	30.43
366.12	30.43
366.32	0.00
366.52	0.00
366.72	0.00
366.91	0.00
367.11	0.00
367.31	0.00
367.51	0.00
367.70	0.00
367.90	0.00
368.10	0.00
368.30	0.00
368.49	0.00
368.69	0.00
368.89	0.00
369.09	0.00
369.28	0.00
369.48	0.00
369.68	14.04
369.87	14.04
370.07	0.00
370.27	0.00
370.47	7.02
370.66	14.04
370.86	79.58
371.06	44.47
371.25	88.94
371.45	51.49
371.65	39.79
371.84	58.51
372.04	110.01
372.24	88.94
372.44	100.64
372.63	86.60
372.83	112.35
373.03	100.64
373.22	138.09
373.42	84.26
373.62	81.92
373.81	114.69
374.01	168.52
374.21	107.66
374.40	95.96
374.60	126.39
374.79	0.00
374.99	84.26
375.19	128.73
375.38	215.33
375.58	154.48
375.78	91.28
375.97	91.28
376.17	128.73
376.37	145.11
376.56	128.73
376.76	98.30
376.95	131.07
377.15	133.41
377.35	81.92
377.54	84.26
377.74	72.56
377.93	98.30
378.13	81.92
378.33	107.66
378.52	72.56
378.72	124.05
378.91	140.43
379.11	107.66
379.31	119.37
379.50	149.79
379.70	154.48
379.89	140.43
380.09	114.69
380.28	93.62
380.48	77.24
380.68	112.35
380.87	79.58
381.07	126.39
381.26	95.96
381.46	46.81
381.65	133.41
381.85	135.75
382.04	46.81
382.24	53.83
382.43	121.71
382.63	81.92
382.83	70.22
383.02	67.88
383.22	161.50
383.41	67.88
383.61	44.47
383.80	138.09
384.00	95.96
384.19	145.11
384.39	124.05
384.58	112.35
384.78	152.13
384.97	65.54
385.17	154.48
385.36	67.88
385.56	110.01
385.75	156.82
385.95	142.77
386.14	70.22
386.34	25.75
386.53	135.75
386.72	107.66
386.92	140.43
387.11	184.90
387.31	117.03
387.50	161.50
387.70	117.03
387.89	177.88
388.09	184.90
388.28	74.90
388.48	131.07
388.67	140.43
388.86	93.62
389.06	105.32
389.25	149.79
389.45	177.88
389.64	131.07
389.84	191.92
390.03	110.01
390.22	142.77
390.42	133.41
390.61	152.13
390.81	147.45
391.00	107.66
391.19	147.45
391.39	138.09
391.58	114.69
391.78	180.22
391.97	131.07
392.16	135.75
392.36	191.92
392.55	105.32
392.75	159.16
392.94	112.35
393.13	124.05
393.33	124.05
393.52	131.07
393.71	215.33
393.91	147.45
394.10	177.88
394.29	138.09
394.49	121.71
394.68	152.13
394.88	147.45
395.07	131.07
395.26	208.31
395.46	222.35
395.65	147.45
395.84	184.90
396.04	175.54
396.23	121.71
396.42	140.43
396.62	182.56
396.81	159.16
397.00	170.86
397.19	187.24
397.39	95.96
397.58	194.26
397.77	166.18
397.97	102.98
398.16	140.43
398.35	88.94
398.55	138.09
398.74	124.05
398.93	166.18
399.12	184.90
399.32	203.63
399.51	177.88
399.70	170.86
399.90	133.41
400.09	177.88
400.28	271.50
400.47	198.95
400.67	159.16
400.86	191.92
401.05	173.20
401.24	198.95
401.44	224.69
401.63	217.67
401.82	276.18
402.01	154.48
402.21	168.52
402.40	189.58
402.59	222.35
402.78	257.46
402.97	187.24
403.17	163.84
403.36	177.88
403.55	259.80
403.74	215.33
403.93	217.67
404.13	208.31
404.32	231.71
404.51	241.08
404.70	269.16
404.89	208.31
405.09	234.05
405.28	224.69
405.47	266.82
405.66	196.60
405.85	241.08
406.05	306.61
406.24	280.86
406.43	280.86
406.62	271.50
406.81	266.82
407.00	266.82
407.20	243.42
407.39	297.25
407.58	180.22
407.77	264.48
407.96	262.14
408.15	273.84
408.34	306.61
408.54	292.57
408.73	308.95
408.92	346.40
409.11	388.53
409.30	339.38
409.49	264.48
409.68	327.68
409.87	304.27
410.07	283.20
410.26	348.74
410.45	318.31
410.64	245.76
410.83	325.33
411.02	330.02
411.21	337.04
411.40	351.08
411.59	456.40
411.78	290.23
411.98	334.70
412.17	372.15
412.36	376.83
412.55	325.33
412.74	386.19
412.93	458.74
413.12	337.04
413.31	447.04
413.50	374.49
413.69	409.59
413.88	433.00
414.07	330.02
414.26	486.83
414.45	444.70
414.64	360.44
414.83	388.53
415.02	330.02
415.22	421.30
415.41	409.59
415.60	407.25
415.79	456.40
415.98	477.47
416.17	440.02
416.36	418.96
416.55	397.89
416.74	500.87
416.93	451.72
417.12	496.19
417.31	393.21
417.50	393.21
417.69	498.53
417.88	425.98
418.07	395.55
418.26	486.83
418.45	428.32
418.64	498.53
418.83	447.04
419.02	491.51
419.21	430.66
419.39	486.83
419.58	444.70
419.77	531.30
419.96	461.09
420.15	610.88
420.34	493.85
420.53	514.92
420.72	496.19
420.91	461.09
421.10	428.32
421.29	433.00
421.48	519.60
421.67	533.64
421.86	444.70
422.05	465.77
422.24	477.47
422.43	561.73
422.61	500.87
422.80	547.69
422.99	468.11
423.18	500.87
423.37	538.32
423.56	561.73
423.75	468.11
423.94	507.90
424.13	472.79
424.32	510.24
424.50	526.62
424.69	552.37
424.88	608.54
425.07	468.11
425.26	514.92
425.45	585.13
425.64	533.64
425.83	533.64
426.01	533.64
426.20	486.83
426.39	552.37
426.58	454.06
426.77	500.87
426.96	554.71
427.15	479.81
427.33	554.71
427.52	538.32
427.71	514.92
427.90	540.66
428.09	566.41
428.28	620.24
428.46	568.75
428.65	585.13
428.84	629.60
429.03	613.22
429.22	463.43
429.40	552.37
429.59	559.39
429.78	524.28
429.97	535.98
430.16	547.69
430.34	557.05
430.53	615.56
430.72	599.18
430.91	606.20
431.10	500.87
431.28	543.00
431.47	603.86
431.66	566.41
431.85	526.62
432.03	594.50
432.22	622.58
432.41	599.18
432.60	643.65
432.79	582.79
432.97	669.39
433.16	634.29
433.35	655.35
433.54	601.52
433.72	557.05
433.91	638.97
434.10	678.76
434.28	575.77
434.47	603.86
434.66	631.94
434.85	545.34
435.03	662.37
435.22	624.92
435.41	662.37
435.59	723.23
435.78	629.60
435.97	603.86
436.16	716.20
436.34	657.69
436.53	664.71
436.72	674.07
436.90	653.01
437.09	711.52
437.28	582.79
437.46	737.27
437.65	648.33
437.84	674.07
438.02	664.71
438.21	683.44
438.40	702.16
438.58	734.93
438.77	643.65
438.96	695.14
439.14	713.86
439.33	657.69
439.52	730.25
439.70	706.84
439.89	699.82
440.08	772.38
440.26	784.08
440.45	753.65
440.63	727.91
440.82	784.08
441.01	772.38
441.19	795.78
441.38	798.12
441.57	741.95
441.75	807.48
441.94	805.14
442.12	823.87
442.31	753.65
442.50	699.82
442.68	699.82
442.87	748.97
443.05	777.06
443.24	826.21
443.43	915.15
443.61	875.36
443.80	880.04
443.98	812.17
444.17	772.38
444.35	828.55
444.54	854.30
444.73	835.57
444.91	868.34
445.10	807.48
445.28	772.38
445.47	777.06
445.65	823.87
445.84	793.44
446.02	819.19
446.21	828.55
446.39	795.78
446.58	840.25
446.77	842.59
446.95	819.19
447.14	812.17
447.32	851.96
447.51	837.91
447.69	791.10
447.88	866.00
448.06	861.32
448.25	706.84
448.43	894.08
448.62	894.08
448.80	851.96
448.99	835.57
449.17	760.67
449.36	805.14
449.54	908.13
449.73	908.13
449.91	938.55
450.10	884.72
450.28	905.79
450.46	954.94
450.65	777.06
450.83	877.70
451.02	844.93
451.20	929.19
451.39	891.74
451.57	837.91
451.76	894.08
451.94	880.04
452.13	933.87
452.31	980.68
452.49	924.51
452.68	889.40
452.86	926.85
453.05	1008.77
453.23	887.06
453.42	898.77
453.60	933.87
453.78	924.51
453.97	812.17
454.15	891.74
454.34	933.87
454.52	990.05
454.70	987.71
454.89	985.37
455.07	983.02
455.26	1013.45
455.44	938.55
455.62	938.55
455.81	931.53
455.99	931.53
456.17	910.47
456.36	971.32
456.54	980.68
456.73	985.37
456.91	976.00
457.09	1032.18
457.28	1011.11
457.46	1032.18
457.64	1020.47
457.83	1008.77
458.01	1039.20
458.19	1100.05
458.38	1057.92
458.56	1027.50
458.74	1041.54
458.93	1043.88
459.11	959.62
459.29	1020.47
459.48	1121.12
459.66	1078.99
459.84	1029.84
460.03	1104.73
460.21	1100.05
460.39	1046.22
460.57	1149.20
460.76	966.64
460.94	1083.67
461.12	1090.69
461.31	1067.28
461.49	1125.80
461.67	1050.90
461.85	1146.86
462.04	1125.80
462.22	1607.95
462.40	1163.25
462.59	1121.12
462.77	1086.01
462.95	1039.20
463.13	1078.99
463.32	1057.92
463.50	1114.10
463.68	1067.28
463.86	1200.69
464.05	1057.92
464.23	1207.72
464.41	1130.48
464.59	1139.84
464.78	1125.80
464.96	1088.35
465.14	1130.48
465.32	1093.03
465.50	1193.67
465.69	1151.54
465.87	1219.42
466.05	1226.44
466.23	1086.01
466.41	1226.44
466.60	1163.25
466.78	1132.82
466.96	1128.14
467.14	1139.84
467.32	1156.22
467.51	1282.61
467.69	1163.25
467.87	1245.16
468.05	1121.12
468.23	1242.82
468.41	1259.21
468.60	1235.80
468.78	1231.12
468.96	1193.67
469.14	1111.75
469.32	1210.06
469.50	1146.86
469.69	1181.97
469.87	1245.16
470.05	1144.52
470.23	1191.33
470.41	1172.61
470.59	1219.42
470.77	1217.08
470.95	1205.38
471.14	1268.57
471.32	1245.16
471.50	1409.00
471.68	1266.23
471.86	1188.99
472.04	1207.72
472.22	1259.21
472.40	1233.46
472.58	1282.61
472.77	1256.87
472.95	1301.34
473.13	1369.21
473.31	1399.64
473.49	1329.42
473.67	1329.42
473.85	1376.24
474.03	1366.87
474.21	1324.74
474.39	1404.32
474.57	1359.85
474.75	1329.42
474.93	1289.64
475.12	1439.43
475.30	1441.77
475.48	1462.83
475.66	1526.03
475.84	1406.66
476.02	1411.34
476.20	1561.14
476.38	1516.67
476.56	1514.33
476.74	1322.40
476.92	1488.58
477.10	1488.58
477.28	1511.99
477.46	1488.58
477.64	1614.97
477.82	1593.90
478.00	1584.54
478.18	1621.99
478.36	1551.78
478.54	1495.60
478.72	1507.30
478.90	1621.99
479.08	1582.20
479.26	1561.14
479.44	1523.69
479.62	1689.87
479.80	1619.65
479.98	1523.69
480.16	1584.54
480.34	1706.25
480.52	1643.06
480.70	1771.79
480.88	1671.14
481.06	1724.97
481.24	1729.66
481.41	1827.96
481.59	1820.94
481.77	1694.55
481.95	1806.89
482.13	1755.40
482.31	1771.79
482.49	1846.68
482.67	1806.89
482.85	1944.99
483.03	1905.20
483.21	1879.45
483.39	1933.28
483.57	1823.28
483.74	2031.58
483.92	1989.46
484.10	1870.09
484.28	1888.81
484.46	2010.52
484.64	1926.26
484.82	1935.62
485.00	1940.30
485.18	1930.94
485.35	2076.06
485.53	1963.71
485.71	2017.54
485.89	2146.27
486.07	1980.09
486.25	2073.71
486.43	2024.56
486.61	2045.63
486.78	2204.78
486.96	2097.12
487.14	2083.08
487.32	2094.78
487.50	2174.36
487.68	2157.97
487.85	2249.25
488.03	2307.77
488.21	2279.68
488.39	2279.68
488.57	2354.58
488.75	2246.91
488.92	2597.99
489.10	2324.15
489.28	2200.10
489.46	2305.43
489.64	2300.75
489.81	2324.15
489.99	2422.45
490.17	2427.14
490.35	2635.44
490.53	2487.99
490.70	2382.67
490.88	2448.20
491.06	2424.80
491.24	2438.84
491.41	2450.54
491.59	2455.22
491.77	2548.84
491.95	2586.29
492.13	2555.86
492.30	2415.43
492.48	2689.28
492.66	2588.63
492.84	2605.02
493.01	2747.79
493.19	2558.21
493.37	2745.45
493.54	2679.91
493.72	2733.75
493.90	2710.34
494.08	2712.68
494.25	2829.71
494.43	2904.60
494.61	2679.91
494.79	2745.45
494.96	2719.70
495.14	2913.97
495.32	2864.82
495.49	2974.82
495.67	2918.65
495.85	2822.69
496.02	2829.71
496.20	2885.88
496.38	2958.44
496.55	2932.69
496.73	2993.55
496.91	3007.59
497.09	3012.27
497.26	2984.18
497.44	2899.92
497.62	2967.80
497.79	2967.80
497.97	3028.65
498.14	3021.63
498.32	2953.76
498.50	3169.09
498.67	3148.02
498.85	3082.49
499.03	3138.66
499.20	3059.08
499.38	3183.13
499.56	3068.44
499.73	3199.51
499.91	3152.70
500.08	3176.11
500.26	3112.91
500.44	3192.49
500.61	3136.32
500.79	3187.81
500.97	3248.66
501.14	3260.37
501.32	3323.56
501.49	3290.79
501.67	3253.34
501.84	3251.00
502.02	3286.11
502.20	3405.48
502.37	3400.80
502.55	3428.88
502.72	3372.71
502.90	3379.73
503.07	3389.10
503.25	3391.44
503.43	3302.50
503.60	3379.73
503.78	3456.97
503.95	3375.05
504.13	3393.78
504.30	3428.88
504.48	3370.37
504.65	3524.85
504.83	3613.79
505.01	3524.85
505.18	3566.98
505.36	3496.76
505.53	3574.00
505.71	3581.02
505.88	3508.46
506.06	3576.34
506.23	3576.34
506.41	3662.94
506.58	3510.80
506.76	3552.93
506.93	3574.00
507.11	3534.21
507.28	3634.85
507.46	3524.85
507.63	3653.58
507.81	3702.73
507.98	3473.36
508.16	3609.11
508.33	3735.50
508.50	3669.96
508.68	3630.17
508.85	3702.73
509.03	3632.51
509.20	3716.77
509.38	3815.07
509.55	3861.88
509.73	3840.82
509.90	3765.92
510.08	3812.73
510.25	3805.71
510.42	3901.67
510.60	3810.39
510.77	3871.25
510.95	3948.48
511.12	3892.31
511.30	3885.29
511.47	3957.85
511.64	3981.25
511.82	4025.72
511.99	3960.19
512.17	3950.82
512.34	3929.76
512.51	4021.04
512.69	3894.65
512.86	4014.02
513.04	4109.98
513.21	4051.47
513.38	3794.01
513.56	3967.21
513.73	3953.16
513.90	3896.99
514.08	4009.34
514.25	4063.17
514.43	3955.51
514.60	3929.76
514.77	4072.53
514.95	4278.50
515.12	3983.59
515.29	4161.47
515.47	4109.98
515.64	4194.24
515.81	4365.10
515.99	4072.53
516.16	4248.07
516.33	4161.47
516.51	4177.86
516.68	4086.58
516.85	4095.94
517.03	4102.96
517.20	4210.62
517.37	4198.92
517.54	4257.43
517.72	4283.18
517.89	4156.79
518.06	4161.47
518.24	4311.27
518.41	4269.14
518.58	4379.14
518.75	4280.84
518.93	4346.37
519.10	4276.16
519.27	4365.10
519.45	4276.16
519.62	4135.73
519.79	4311.27
519.96	4318.29
520.14	4290.20
520.31	4461.06
520.48	4538.30
520.65	4329.99
520.83	4311.27
521.00	4430.63
521.17	4353.40
521.34	4257.43
521.52	4346.37
521.69	4423.61
521.86	4498.51
522.03	4461.06
522.20	4367.44
522.38	4442.34
522.55	4400.21
522.72	4383.82
522.89	4526.60
523.07	4638.94
523.24	4554.68
523.41	4458.72
523.58	4421.27
523.75	4346.37
523.92	4613.20
524.10	4482.13
524.27	4468.08
524.44	4458.72
524.61	4587.45
524.78	4582.77
524.96	4585.11
525.13	4507.87
525.30	4519.57
525.47	4669.37
525.64	4596.81
525.81	4648.30
525.98	4702.14
526.16	4627.24
526.33	4692.77
526.50	4784.06
526.67	4622.56
526.84	4676.39
527.01	4667.03
527.18	4702.14
527.36	4587.45
527.53	4760.65
527.70	4788.74
527.87	4760.65
528.04	4847.25
528.21	4528.94
528.38	4755.97
528.55	4725.54
528.72	4814.48
528.89	4667.03
529.07	4732.56
529.24	4854.27
529.41	4851.93
529.58	4816.82
529.75	4669.37
529.92	4807.46
530.09	4791.08
530.26	4753.63
530.43	4854.27
530.60	4798.10
530.77	4865.97
530.94	5008.75
531.11	4870.65
531.28	4887.04
531.46	4800.44
531.63	4891.72
531.80	4894.06
531.97	5146.84
532.14	4997.04
532.31	4851.93
532.48	4875.34
532.65	4912.78
532.82	4931.51
532.99	4938.53
533.16	4910.44
533.33	4807.46
533.50	5111.73
533.67	5015.77
533.84	4870.65
534.01	4830.87
534.18	4837.89
534.35	4823.84
534.52	5027.47
534.69	5011.09
534.86	5069.60
535.03	5121.09
535.20	4840.23
535.37	5088.32
535.54	5076.62
535.71	5085.98
535.88	5025.13
536.05	5081.30
536.22	5160.88
536.38	5008.75
536.55	5151.52
536.72	5111.73
536.89	5069.60
537.06	4931.51
537.23	5118.75
537.40	5093.01
537.57	5125.77
537.74	5029.81
537.91	5144.50
538.08	5027.47
538.25	4957.25
538.42	5048.54
538.59	5114.07
538.75	5102.37
538.92	5165.56
539.09	5142.16
539.26	5146.84
539.43	5221.74
539.60	5247.48
539.77	5116.41
539.94	5125.77
540.11	5144.50
540.28	5109.39
540.44	5053.22
540.61	5245.14
540.78	5177.26
540.95	5146.84
541.12	5125.77
541.29	5252.16
541.46	5357.49
541.62	5331.74
541.79	5224.08
541.96	5074.28
542.13	5228.76
542.30	5331.74
542.47	5198.33
542.63	5116.41
542.80	5273.23
542.97	5291.95
543.14	5348.12
543.31	5207.69
543.48	5245.14
543.64	5270.89
543.81	5378.55
543.98	5359.83
544.15	5146.84
544.32	5401.96
544.48	5413.66
544.65	5324.72
544.82	5369.19
544.99	5425.36
545.16	5404.30
545.32	5284.93
545.49	5518.98
545.66	5373.87
545.83	5373.87
546.00	5350.46
546.16	5317.70
546.33	5219.39
546.50	5195.99
546.67	5322.38
546.83	5298.97
547.00	5313.02
547.17	5359.83
547.34	5446.43
547.50	5352.81
547.67	5408.98
547.84	5401.96
548.00	5387.91
548.17	5345.78
548.34	5380.89
548.51	5430.04
548.67	5610.26
548.84	5416.00
549.01	5586.86
549.18	5514.30
549.34	5518.98
549.51	5231.10
549.68	5556.43
549.84	5458.13
550.01	5465.15
550.18	5659.42
550.34	5643.03
550.51	5633.67
550.68	5593.88
550.84	5514.30
551.01	5549.41
551.18	5481.53
551.34	5521.32
551.51	5418.34
551.68	5404.30
551.84	5521.32
552.01	5469.83
552.18	5469.83
552.34	5317.70
552.51	5458.13
552.68	5406.64
552.84	5483.88
553.01	5455.79
553.18	5324.72
553.34	5565.79
553.51	5437.06
553.67	5533.03
553.84	5518.98
554.01	5605.58
554.17	5530.69
554.34	5479.19
554.51	5556.43
554.67	5535.37
554.84	5502.60
555.00	5540.05
555.17	5678.14
555.33	5699.20
555.50	5528.35
555.67	5366.85
555.83	5462.81
556.00	5507.28
556.16	5860.70
556.33	5542.39
556.50	5486.22
556.66	5654.73
556.83	5579.84
556.99	5509.62
557.16	5565.79
557.32	5621.97
557.49	5631.33
557.65	5692.18
557.82	5540.05
557.98	5755.38
558.15	5668.78
558.32	5575.16
558.48	5458.13
558.65	5689.84
558.81	5727.29
558.98	5652.39
559.14	5713.25
559.31	5659.42
559.47	5418.34
559.64	5706.23
559.80	5692.18
559.97	5720.27
560.13	5537.71
560.30	5584.52
560.46	5633.67
560.63	5558.77
560.79	5664.10
560.96	5621.97
561.12	5788.14
561.29	5767.08
561.45	5778.78
561.61	5621.97
561.78	5832.62
561.94	5762.40
562.11	5708.57
562.27	5738.99
562.44	5668.78
562.60	5724.95
562.77	5626.65
562.93	5818.57
563.10	5596.22
563.26	5678.14
563.42	5720.27
563.59	5636.01
563.75	5668.78
563.92	5797.51
564.08	5657.07
564.24	5731.97
564.41	5593.88
564.57	5600.90
564.74	5561.11
564.90	5680.48
565.07	5863.04
565.23	5647.71
565.39	5734.31
565.56	5647.71
565.72	5596.22
565.88	5687.50
566.05	5488.56
566.21	5706.23
566.38	5743.67
566.54	5701.54
566.70	5621.97
566.87	5720.27
567.03	5593.88
567.19	5806.87
567.36	5734.31
567.52	5565.79
567.68	5614.95
567.85	5738.99
568.01	5633.67
568.17	5664.10
568.34	5652.39
568.50	5753.04
568.66	5598.56
568.83	5687.50
568.99	5621.97
569.15	5694.52
569.32	5755.38
569.48	5664.10
569.64	5643.03
569.81	5547.07
569.97	5720.27
570.13	5657.07
570.30	5628.99
570.46	5750.70
570.62	5645.37
570.78	5582.18
570.95	5668.78
571.11	5778.78
571.27	5757.72
571.43	5596.22
571.60	5778.78
571.76	5659.42
571.92	5708.57
572.09	5703.89
572.25	5584.52
572.41	5476.85
572.57	5731.97
572.74	5921.56
572.90	5750.70
573.06	5715.59
573.22	5738.99
573.38	5671.12
573.55	5905.17
573.71	5874.74
573.87	5668.78
574.03	5682.82
574.20	5713.25
574.36	5951.98
574.52	5790.49
574.68	5750.70
574.84	5717.93
575.01	5874.74
575.17	5832.62
575.33	5813.89
575.49	5600.90
575.65	5729.63
575.82	5820.91
575.98	5757.72
576.14	5860.70
576.30	5614.95
576.46	5734.31
576.62	5750.70
576.79	5865.38
576.95	5706.23
577.11	5593.88
577.27	5720.27
577.43	5544.73
577.59	5806.87
577.75	5760.06
577.92	5661.76
578.08	5694.52
578.24	5809.21
578.40	5788.14
578.56	5856.02
578.72	5865.38
578.88	5811.55
579.04	5776.44
579.21	5666.44
579.37	5731.97
579.53	5778.78
579.69	5673.46
579.85	5678.14
580.01	5724.95
580.17	5682.82
580.33	5673.46
580.49	5865.38
580.65	5755.38
580.82	5783.46
580.98	5692.18
581.14	5731.97
581.30	5933.26
581.46	5809.21
581.62	5762.40
581.78	5554.09
581.94	5734.31
582.10	5685.16
582.26	5813.89
582.42	5837.30
582.58	5748.36
582.74	5867.72
582.90	6005.81
583.06	5806.87
583.22	5673.46
583.38	5818.57
583.54	5685.16
583.70	5722.61
583.86	5774.10
584.02	5657.07
584.18	5755.38
584.34	5788.14
584.50	5689.84
584.66	5832.62
584.82	5685.16
584.98	5919.21
585.14	5671.12
585.30	5643.03
585.46	5914.53
585.62	5923.90
585.78	5621.97
585.94	5591.54
586.10	5846.66
586.26	5678.14
586.42	5631.33
586.58	5884.11
586.74	5668.78
586.90	5694.52
587.06	5738.99
587.22	5699.20
587.38	5678.14
587.54	5858.36
587.70	5825.59
587.86	5846.66
588.02	5909.85
588.18	5870.06
588.34	5771.76
588.49	5753.04
588.65	5689.84
588.81	5647.71
588.97	5703.89
589.13	5748.36
589.29	5556.43
589.45	5846.66
589.61	5809.21
589.77	5750.70
589.93	5783.46
590.08	5930.92
590.24	5877.09
590.40	5757.72
590.56	5823.25
590.72	5682.82
590.88	5837.30
591.04	5696.86
591.20	5839.64
591.35	5570.48
591.51	5900.49
591.67	5760.06
591.83	5858.36
591.99	5636.01
592.15	5692.18
592.31	5790.49
592.46	5860.70
592.62	5774.10
592.78	5813.89
592.94	5790.49
593.10	5792.83
593.26	5818.57
593.41	5839.64
593.57	5785.80
593.73	5600.90
593.89	5799.85
594.05	5692.18
594.20	5792.83
594.36	6052.63
594.52	5696.86
594.68	5708.57
594.84	5790.49
594.99	5736.65
595.15	5678.14
595.31	5692.18
595.47	5706.23
595.62	5788.14
595.78	5860.70
595.94	5891.13
596.10	5799.85
596.25	5825.59
596.41	5783.46
596.57	5790.49
596.73	5851.34
596.88	5600.90
597.04	5783.46
597.20	5820.91
597.36	5764.74
597.51	5909.85
597.67	5825.59
597.83	5813.89
597.99	5942.62
598.14	5671.12
598.30	5905.17
598.46	5802.19
598.61	5870.06
598.77	5849.00
598.93	5753.04
599.09	5584.52
599.24	5891.13
599.40	5778.78
599.56	5806.87
599.71	5823.25
599.87	5933.26
600.03	5825.59
600.18	5720.27
600.34	5762.40
600.50	5905.17
600.65	5785.80
600.81	5846.66
600.97	5877.09
601.12	5851.34
601.28	5659.42
601.44	5820.91
601.59	5746.02
