SpectraSuite Data File
++++++++++++++++++++++++++++++++++++
Date: Fri Oct 04 11:46:56 GMT-05:00 2013
User: price-jones
Dark Spectrum Present: No
Reference Spectrum Present: No
Number of Sampled Component Spectra: 1
Spectrometers: USB2+H05261
Integration Time (usec): 100000 (USB2+H05261)
Spectra Averaged: 1 (USB2+H05261)
Boxcar Smoothing: 0 (USB2+H05261)
Correct for Electrical Dark: No (USB2+H05261)
Strobe/Lamp Enabled: No (USB2+H05261)
Correct for Detector Non-linearity: No (USB2+H05261)
Correct for Stray Light: No (USB2+H05261)
Number of Pixels in Processed Spectrum: 2048
>>>>>Begin Processed Spectral Data<<<<<
365.73	79.58
365.92	79.58
366.12	79.58
366.32	0.00
366.52	0.00
366.72	0.00
366.91	0.00
367.11	7.02
367.31	0.00
367.51	0.00
367.70	0.00
367.90	0.00
368.10	0.00
368.30	0.00
368.49	0.00
368.69	0.00
368.89	0.00
369.09	0.00
369.28	0.00
369.48	0.00
369.68	0.00
369.87	16.38
370.07	0.00
370.27	4.68
370.47	35.11
370.66	0.00
370.86	18.72
371.06	0.00
371.25	112.35
371.45	32.77
371.65	84.26
371.84	4.68
372.04	58.51
372.24	72.56
372.44	0.00
372.63	25.75
372.83	128.73
373.03	67.88
373.22	135.75
373.42	100.64
373.62	152.13
373.81	60.85
374.01	131.07
374.21	117.03
374.40	121.71
374.60	58.51
374.79	135.75
374.99	126.39
375.19	7.02
375.38	88.94
375.58	138.09
375.78	175.54
375.97	112.35
376.17	191.92
376.37	88.94
376.56	84.26
376.76	119.37
376.95	88.94
377.15	93.62
377.35	138.09
377.54	91.28
377.74	77.24
377.93	124.05
378.13	163.84
378.33	110.01
378.52	84.26
378.72	156.82
378.91	110.01
379.11	53.83
379.31	77.24
379.50	77.24
379.70	88.94
379.89	133.41
380.09	60.85
380.28	63.19
380.48	112.35
380.68	93.62
380.87	25.75
381.07	88.94
381.26	65.54
381.46	100.64
381.65	84.26
381.85	42.13
382.04	110.01
382.24	84.26
382.43	95.96
382.63	49.15
382.83	114.69
383.02	93.62
383.22	100.64
383.41	114.69
383.61	53.83
383.80	93.62
384.00	184.90
384.19	110.01
384.39	74.90
384.58	53.83
384.78	65.54
384.97	128.73
385.17	100.64
385.36	77.24
385.56	133.41
385.75	93.62
385.95	86.60
386.14	133.41
386.34	2.34
386.53	112.35
386.72	131.07
386.92	119.37
387.11	159.16
387.31	121.71
387.50	63.19
387.70	152.13
387.89	117.03
388.09	95.96
388.28	2.34
388.48	124.05
388.67	84.26
388.86	84.26
389.06	84.26
389.25	161.50
389.45	79.58
389.64	105.32
389.84	140.43
390.03	117.03
390.22	147.45
390.42	131.07
390.61	70.22
390.81	18.72
391.00	74.90
391.19	21.06
391.39	74.90
391.58	70.22
391.78	105.32
391.97	133.41
392.16	32.77
392.36	177.88
392.55	84.26
392.75	39.79
392.94	56.17
393.13	91.28
393.33	86.60
393.52	72.56
393.71	107.66
393.91	175.54
394.10	81.92
394.29	65.54
394.49	107.66
394.68	56.17
394.88	187.24
395.07	114.69
395.26	91.28
395.46	149.79
395.65	154.48
395.84	105.32
396.04	126.39
396.23	86.60
396.42	46.81
396.62	117.03
396.81	145.11
397.00	114.69
397.19	81.92
397.39	119.37
397.58	175.54
397.77	88.94
397.97	168.52
398.16	91.28
398.35	93.62
398.55	77.24
398.74	37.45
398.93	44.47
399.12	114.69
399.32	135.75
399.51	119.37
399.70	107.66
399.90	124.05
400.09	147.45
400.28	70.22
400.47	131.07
400.67	135.75
400.86	70.22
401.05	107.66
401.24	95.96
401.44	133.41
401.63	133.41
401.82	112.35
402.01	114.69
402.21	49.15
402.40	154.48
402.59	14.04
402.78	147.45
402.97	74.90
403.17	102.98
403.36	65.54
403.55	170.86
403.74	152.13
403.93	135.75
404.13	177.88
404.32	107.66
404.51	128.73
404.70	95.96
404.89	114.69
405.09	159.16
405.28	67.88
405.47	0.00
405.66	149.79
405.85	100.64
406.05	138.09
406.24	88.94
406.43	77.24
406.62	102.98
406.81	121.71
407.00	105.32
407.20	67.88
407.39	107.66
407.58	93.62
407.77	149.79
407.96	142.77
408.15	135.75
408.34	133.41
408.54	112.35
408.73	107.66
408.92	128.73
409.11	79.58
409.30	117.03
409.49	159.16
409.68	154.48
409.87	124.05
410.07	145.11
410.26	74.90
410.45	81.92
410.64	140.43
410.83	107.66
411.02	145.11
411.21	124.05
411.40	56.17
411.59	168.52
411.78	93.62
411.98	77.24
412.17	128.73
412.36	135.75
412.55	63.19
412.74	110.01
412.93	175.54
413.12	91.28
413.31	140.43
413.50	81.92
413.69	152.13
413.88	119.37
414.07	84.26
414.26	65.54
414.45	135.75
414.64	93.62
414.83	91.28
415.02	154.48
415.22	180.22
415.41	121.71
415.60	79.58
415.79	88.94
415.98	222.35
416.17	84.26
416.36	126.39
416.55	124.05
416.74	147.45
416.93	173.20
417.12	93.62
417.31	98.30
417.50	121.71
417.69	191.92
417.88	210.65
418.07	114.69
418.26	77.24
418.45	110.01
418.64	154.48
418.83	149.79
419.02	245.76
419.21	124.05
419.39	138.09
419.58	140.43
419.77	212.99
419.96	166.18
420.15	154.48
420.34	156.82
420.53	187.24
420.72	98.30
420.91	74.90
421.10	110.01
421.29	86.60
421.48	133.41
421.67	81.92
421.86	149.79
422.05	119.37
422.24	107.66
422.43	152.13
422.61	105.32
422.80	67.88
422.99	93.62
423.18	51.49
423.37	182.56
423.56	173.20
423.75	131.07
423.94	77.24
424.13	105.32
424.32	105.32
424.50	105.32
424.69	149.79
424.88	117.03
425.07	110.01
425.26	107.66
425.45	168.52
425.64	175.54
425.83	222.35
426.01	126.39
426.20	182.56
426.39	208.31
426.58	117.03
426.77	140.43
426.96	184.90
427.15	149.79
427.33	112.35
427.52	201.29
427.71	152.13
427.90	105.32
428.09	117.03
428.28	128.73
428.46	128.73
428.65	142.77
428.84	131.07
429.03	175.54
429.22	112.35
429.40	63.19
429.59	67.88
429.78	138.09
429.97	102.98
430.16	105.32
430.34	79.58
430.53	191.92
430.72	191.92
430.91	142.77
431.10	159.16
431.28	58.51
431.47	182.56
431.66	154.48
431.85	84.26
432.03	133.41
432.22	156.82
432.41	170.86
432.60	159.16
432.79	180.22
432.97	229.37
433.16	245.76
433.35	177.88
433.54	84.26
433.72	161.50
433.91	95.96
434.10	156.82
434.28	121.71
434.47	133.41
434.66	180.22
434.85	154.48
435.03	131.07
435.22	152.13
435.41	70.22
435.59	126.39
435.78	163.84
435.97	65.54
436.16	102.98
436.34	81.92
436.53	131.07
436.72	177.88
436.90	131.07
437.09	152.13
437.28	28.09
437.46	121.71
437.65	131.07
437.84	72.56
438.02	107.66
438.21	117.03
438.40	102.98
438.58	142.77
438.77	191.92
438.96	166.18
439.14	140.43
439.33	119.37
439.52	56.17
439.70	46.81
439.89	102.98
440.08	229.37
440.26	124.05
440.45	170.86
440.63	147.45
440.82	135.75
441.01	119.37
441.19	72.56
441.38	201.29
441.57	156.82
441.75	208.31
441.94	128.73
442.12	140.43
442.31	74.90
442.50	154.48
442.68	93.62
442.87	205.97
443.05	149.79
443.24	133.41
443.43	147.45
443.61	117.03
443.80	201.29
443.98	86.60
444.17	128.73
444.35	189.58
444.54	128.73
444.73	124.05
444.91	126.39
445.10	100.64
445.28	25.75
445.47	110.01
445.65	154.48
445.84	210.65
446.02	98.30
446.21	166.18
446.39	126.39
446.58	180.22
446.77	117.03
446.95	112.35
447.14	142.77
447.32	145.11
447.51	133.41
447.69	105.32
447.88	163.84
448.06	175.54
448.25	154.48
448.43	196.60
448.62	110.01
448.80	140.43
448.99	42.13
449.17	138.09
449.36	95.96
449.54	173.20
449.73	126.39
449.91	194.26
450.10	138.09
450.28	177.88
450.46	152.13
450.65	149.79
450.83	201.29
451.02	67.88
451.20	77.24
451.39	131.07
451.57	117.03
451.76	91.28
451.94	117.03
452.13	140.43
452.31	133.41
452.49	163.84
452.68	140.43
452.86	138.09
453.05	187.24
453.23	128.73
453.42	140.43
453.60	102.98
453.78	138.09
453.97	84.26
454.15	67.88
454.34	161.50
454.52	138.09
454.70	250.44
454.89	124.05
455.07	145.11
455.26	241.08
455.44	147.45
455.62	135.75
455.81	152.13
455.99	142.77
456.17	159.16
456.36	88.94
456.54	102.98
456.73	100.64
456.91	126.39
457.09	67.88
457.28	149.79
457.46	222.35
457.64	112.35
457.83	133.41
458.01	110.01
458.19	142.77
458.38	145.11
458.56	198.95
458.74	72.56
458.93	156.82
459.11	149.79
459.29	112.35
459.48	187.24
459.66	102.98
459.84	86.60
460.03	105.32
460.21	189.58
460.39	119.37
460.57	215.33
460.76	86.60
460.94	177.88
461.12	149.79
461.31	182.56
461.49	121.71
461.67	93.62
461.85	198.95
462.04	81.92
462.22	596.84
462.40	128.73
462.59	201.29
462.77	81.92
462.95	217.67
463.13	91.28
463.32	180.22
463.50	119.37
463.68	180.22
463.86	119.37
464.05	121.71
464.23	177.88
464.41	77.24
464.59	163.84
464.78	154.48
464.96	70.22
465.14	147.45
465.32	100.64
465.50	220.01
465.69	93.62
465.87	133.41
466.05	159.16
466.23	201.29
466.41	161.50
466.60	166.18
466.78	163.84
466.96	180.22
467.14	166.18
467.32	182.56
467.51	112.35
467.69	156.82
467.87	175.54
468.05	128.73
468.23	173.20
468.41	140.43
468.60	121.71
468.78	156.82
468.96	140.43
469.14	102.98
469.32	107.66
469.50	170.86
469.69	191.92
469.87	191.92
470.05	53.83
470.23	182.56
470.41	128.73
470.59	128.73
470.77	128.73
470.95	156.82
471.14	189.58
471.32	86.60
471.50	163.84
471.68	110.01
471.86	131.07
472.04	138.09
472.22	147.45
472.40	93.62
472.58	95.96
472.77	131.07
472.95	117.03
473.13	170.86
473.31	119.37
473.49	189.58
473.67	205.97
473.85	105.32
474.03	135.75
474.21	250.44
474.39	142.77
474.57	250.44
474.75	198.95
474.93	133.41
475.12	147.45
475.30	170.86
475.48	131.07
475.66	170.86
475.84	187.24
476.02	142.77
476.20	124.05
476.38	159.16
476.56	140.43
476.74	175.54
476.92	126.39
477.10	149.79
477.28	156.82
477.46	93.62
477.64	138.09
477.82	105.32
478.00	100.64
478.18	168.52
478.36	180.22
478.54	121.71
478.72	201.29
478.90	100.64
479.08	173.20
479.26	159.16
479.44	191.92
479.62	133.41
479.80	121.71
479.98	133.41
480.16	128.73
480.34	110.01
480.52	49.15
480.70	166.18
480.88	147.45
481.06	110.01
481.24	161.50
481.41	161.50
481.59	252.78
481.77	227.03
481.95	126.39
482.13	100.64
482.31	215.33
482.49	126.39
482.67	135.75
482.85	191.92
483.03	142.77
483.21	114.69
483.39	168.52
483.57	84.26
483.74	152.13
483.92	173.20
484.10	117.03
484.28	212.99
484.46	215.33
484.64	173.20
484.82	124.05
485.00	173.20
485.18	152.13
485.35	229.37
485.53	170.86
485.71	163.84
485.89	112.35
486.07	170.86
486.25	159.16
486.43	105.32
486.61	184.90
486.78	166.18
486.96	189.58
487.14	149.79
487.32	177.88
487.50	166.18
487.68	177.88
487.85	88.94
488.03	180.22
488.21	177.88
488.39	147.45
488.57	147.45
488.75	39.79
488.92	435.34
489.10	220.01
489.28	229.37
489.46	182.56
489.64	161.50
489.81	241.08
489.99	159.16
490.17	159.16
490.35	231.71
490.53	147.45
490.70	191.92
490.88	128.73
491.06	231.71
491.24	189.58
491.41	149.79
491.59	243.42
491.77	117.03
491.95	173.20
492.13	184.90
492.30	156.82
492.48	114.69
492.66	121.71
492.84	140.43
493.01	177.88
493.19	161.50
493.37	205.97
493.54	95.96
493.72	180.22
493.90	140.43
494.08	163.84
494.25	198.95
494.43	100.64
494.61	163.84
494.79	189.58
494.96	180.22
495.14	180.22
495.32	173.20
495.49	201.29
495.67	205.97
495.85	198.95
496.02	126.39
496.20	210.65
496.38	189.58
496.55	159.16
496.73	255.12
496.91	145.11
497.09	224.69
497.26	168.52
497.44	208.31
497.62	175.54
497.79	224.69
497.97	147.45
498.14	194.26
498.32	259.80
498.50	205.97
498.67	121.71
498.85	229.37
499.03	177.88
499.20	212.99
499.38	234.05
499.56	201.29
499.73	222.35
499.91	252.78
500.08	234.05
500.26	145.11
500.44	159.16
500.61	205.97
500.79	191.92
500.97	208.31
501.14	231.71
501.32	145.11
501.49	212.99
501.67	177.88
501.84	229.37
502.02	196.60
502.20	222.35
502.37	187.24
502.55	189.58
502.72	135.75
502.90	257.46
503.07	175.54
503.25	196.60
503.43	222.35
503.60	189.58
503.78	182.56
503.95	184.90
504.13	170.86
504.30	145.11
504.48	184.90
504.65	194.26
504.83	245.76
505.01	173.20
505.18	187.24
505.36	255.12
505.53	170.86
505.71	140.43
505.88	208.31
506.06	159.16
506.23	147.45
506.41	145.11
506.58	149.79
506.76	180.22
506.93	222.35
507.11	189.58
507.28	196.60
507.46	280.86
507.63	175.54
507.81	166.18
507.98	140.43
508.16	203.63
508.33	177.88
508.50	224.69
508.68	208.31
508.85	168.52
509.03	168.52
509.20	182.56
509.38	210.65
509.55	259.80
509.73	177.88
509.90	259.80
510.08	168.52
510.25	203.63
510.42	208.31
510.60	238.73
510.77	182.56
510.95	180.22
511.12	306.61
511.30	285.55
511.47	320.65
511.64	229.37
511.82	159.16
511.99	205.97
512.17	222.35
512.34	187.24
512.51	166.18
512.69	110.01
512.86	236.39
513.04	128.73
513.21	234.05
513.38	156.82
513.56	203.63
513.73	222.35
513.90	198.95
514.08	198.95
514.25	220.01
514.43	271.50
514.60	208.31
514.77	208.31
514.95	238.73
515.12	191.92
515.29	184.90
515.47	217.67
515.64	159.16
515.81	170.86
515.99	294.91
516.16	198.95
516.33	301.93
516.51	112.35
516.68	140.43
516.85	133.41
517.03	170.86
517.20	152.13
517.37	175.54
517.54	154.48
517.72	105.32
517.89	140.43
518.06	161.50
518.24	276.18
518.41	187.24
518.58	201.29
518.75	196.60
518.93	187.24
519.10	222.35
519.27	184.90
519.45	180.22
519.62	163.84
519.79	124.05
519.96	140.43
520.14	163.84
520.31	205.97
520.48	208.31
520.65	250.44
520.83	262.14
521.00	231.71
521.17	149.79
521.34	140.43
521.52	255.12
521.69	241.08
521.86	196.60
522.03	224.69
522.20	250.44
522.38	259.80
522.55	212.99
522.72	196.60
522.89	241.08
523.07	269.16
523.24	184.90
523.41	156.82
523.58	142.77
523.75	264.48
523.92	229.37
524.10	222.35
524.27	128.73
524.44	182.56
524.61	238.73
524.78	154.48
524.96	220.01
525.13	194.26
525.30	271.50
525.47	215.33
525.64	231.71
525.81	168.52
525.98	154.48
526.16	210.65
526.33	161.50
526.50	149.79
526.67	156.82
526.84	107.66
527.01	142.77
527.18	159.16
527.36	231.71
527.53	196.60
527.70	173.20
527.87	212.99
528.04	212.99
528.21	198.95
528.38	238.73
528.55	227.03
528.72	224.69
528.89	283.20
529.07	196.60
529.24	177.88
529.41	238.73
529.58	175.54
529.75	215.33
529.92	159.16
530.09	208.31
530.26	238.73
530.43	285.55
530.60	198.95
530.77	280.86
530.94	248.10
531.11	180.22
531.28	128.73
531.46	119.37
531.63	208.31
531.80	156.82
531.97	201.29
532.14	227.03
532.31	203.63
532.48	292.57
532.65	262.14
532.82	348.74
532.99	388.53
533.16	255.12
533.33	243.42
533.50	203.63
533.67	306.61
533.84	386.19
534.01	428.32
534.18	372.15
534.35	269.16
534.52	271.50
534.69	264.48
534.86	215.33
535.03	163.84
535.20	210.65
535.37	271.50
535.54	224.69
535.71	184.90
535.88	271.50
536.05	243.42
536.22	269.16
536.38	149.79
536.55	220.01
536.72	264.48
536.89	180.22
537.06	212.99
537.23	250.44
537.40	252.78
537.57	189.58
537.74	203.63
537.91	224.69
538.08	173.20
538.25	196.60
538.42	257.46
538.59	163.84
538.75	222.35
538.92	252.78
539.09	210.65
539.26	196.60
539.43	409.59
539.60	968.98
539.77	1460.49
539.94	1537.73
540.11	1022.81
540.28	634.29
540.44	463.43
540.61	355.76
540.78	131.07
540.95	117.03
541.12	234.05
541.29	220.01
541.46	287.89
541.62	182.56
541.79	196.60
541.96	212.99
542.13	135.75
542.30	201.29
542.47	187.24
542.63	175.54
542.80	182.56
542.97	255.12
543.14	187.24
543.31	234.05
543.48	189.58
543.64	210.65
543.81	238.73
543.98	217.67
544.15	227.03
544.32	138.09
544.48	271.50
544.65	229.37
544.82	177.88
544.99	215.33
545.16	210.65
545.32	252.78
545.49	215.33
545.66	194.26
545.83	224.69
546.00	189.58
546.16	234.05
546.33	201.29
546.50	194.26
546.67	191.92
546.83	222.35
547.00	175.54
547.17	175.54
547.34	168.52
547.50	243.42
547.67	201.29
547.84	182.56
548.00	224.69
548.17	238.73
548.34	264.48
548.51	252.78
548.67	182.56
548.84	203.63
549.01	224.69
549.18	163.84
549.34	231.71
549.51	252.78
549.68	220.01
549.84	276.18
550.01	205.97
550.18	379.17
550.34	304.27
550.51	198.95
550.68	273.84
550.84	210.65
551.01	229.37
551.18	257.46
551.34	266.82
551.51	161.50
551.68	140.43
551.84	215.33
552.01	161.50
552.18	217.67
552.34	217.67
552.51	234.05
552.68	180.22
552.84	142.77
553.01	173.20
553.18	245.76
553.34	222.35
553.51	198.95
553.67	205.97
553.84	238.73
554.01	238.73
554.17	163.84
554.34	131.07
554.51	145.11
554.67	203.63
554.84	187.24
555.00	175.54
555.17	205.97
555.33	271.50
555.50	205.97
555.67	229.37
555.83	243.42
556.00	215.33
556.16	393.21
556.33	290.23
556.50	250.44
556.66	198.95
556.83	224.69
556.99	210.65
557.16	187.24
557.32	191.92
557.49	227.03
557.65	280.86
557.82	201.29
557.98	271.50
558.15	163.84
558.32	236.39
558.48	140.43
558.65	203.63
558.81	245.76
558.98	215.33
559.14	245.76
559.31	138.09
559.47	163.84
559.64	168.52
559.80	210.65
559.97	170.86
560.13	212.99
560.30	215.33
560.46	154.48
560.63	203.63
560.79	196.60
560.96	191.92
561.12	205.97
561.29	196.60
561.45	168.52
561.61	149.79
561.78	280.86
561.94	152.13
562.11	184.90
562.27	210.65
562.44	215.33
562.60	187.24
562.77	215.33
562.93	208.31
563.10	182.56
563.26	212.99
563.42	241.08
563.59	212.99
563.75	135.75
563.92	264.48
564.08	205.97
564.24	257.46
564.41	220.01
564.57	182.56
564.74	231.71
564.90	212.99
565.07	264.48
565.23	248.10
565.39	266.82
565.56	297.25
565.72	203.63
565.88	266.82
566.05	163.84
566.21	154.48
566.38	177.88
566.54	145.11
566.70	212.99
566.87	248.10
567.03	173.20
567.19	163.84
567.36	194.26
567.52	201.29
567.68	198.95
567.85	152.13
568.01	210.65
568.17	248.10
568.34	187.24
568.50	236.39
568.66	187.24
568.83	322.99
568.99	180.22
569.15	280.86
569.32	138.09
569.48	271.50
569.64	114.69
569.81	163.84
569.97	222.35
570.13	243.42
570.30	175.54
570.46	173.20
570.62	205.97
570.78	245.76
570.95	196.60
571.11	264.48
571.27	205.97
571.43	166.18
571.60	264.48
571.76	271.50
571.92	159.16
572.09	250.44
572.25	198.95
572.41	203.63
572.57	173.20
572.74	299.59
572.90	229.37
573.06	266.82
573.22	184.90
573.38	203.63
573.55	236.39
573.71	250.44
573.87	180.22
574.03	222.35
574.20	271.50
574.36	252.78
574.52	330.02
574.68	315.97
574.84	264.48
575.01	266.82
575.17	269.16
575.33	222.35
575.49	191.92
575.65	273.84
575.82	245.76
575.98	503.22
576.14	573.43
576.30	697.48
576.46	531.30
576.62	365.12
576.79	425.98
576.95	304.27
577.11	229.37
577.27	250.44
577.43	184.90
577.59	236.39
577.75	184.90
577.92	241.08
578.08	224.69
578.24	250.44
578.40	269.16
578.56	301.93
578.72	262.14
578.88	238.73
579.04	259.80
579.21	245.76
579.37	194.26
579.53	301.93
579.69	208.31
579.85	301.93
580.01	294.91
580.17	337.04
580.33	341.72
580.49	273.84
580.65	322.99
580.82	304.27
580.98	299.59
581.14	297.25
581.30	365.12
581.46	388.53
581.62	552.37
581.78	594.50
581.94	482.15
582.10	418.96
582.26	409.59
582.42	425.98
582.58	369.80
582.74	355.76
582.90	358.10
583.06	423.64
583.22	416.62
583.38	437.68
583.54	463.43
583.70	552.37
583.86	697.48
584.02	741.95
584.18	877.70
584.34	1142.18
584.50	3222.92
584.66	24552.22
584.82	56940.55
584.98	65535.00
585.14	63786.62
585.30	49956.39
585.46	30424.62
585.62	18719.60
585.78	8524.23
585.94	3297.81
586.10	1521.35
586.26	1123.46
586.42	809.83
586.58	627.26
586.74	571.09
586.90	547.69
587.06	517.26
587.22	435.34
587.38	493.85
587.54	1139.84
587.70	3466.33
587.86	5977.73
588.02	6457.54
588.18	4636.60
588.34	2930.35
588.49	1968.39
588.65	1170.27
588.81	685.78
588.97	360.44
589.13	339.38
589.29	269.16
589.45	306.61
589.61	229.37
589.77	386.19
589.93	411.93
590.08	416.62
590.24	447.04
590.40	414.27
590.56	367.46
590.72	379.17
590.88	269.16
591.04	325.33
591.20	264.48
591.35	351.08
591.51	334.70
591.67	250.44
591.83	236.39
591.99	259.80
592.15	215.33
592.31	280.86
592.46	243.42
592.62	341.72
592.78	294.91
592.94	229.37
593.10	255.12
593.26	259.80
593.41	257.46
593.57	327.68
593.73	573.43
593.89	2925.67
594.05	7630.15
594.20	11604.38
594.36	10911.58
594.52	7117.57
594.68	4489.15
594.84	2949.08
594.99	1638.38
595.15	819.19
595.31	416.62
595.47	325.33
595.62	255.12
595.78	339.38
595.94	297.25
596.10	320.65
596.25	297.25
596.41	344.06
596.57	248.10
596.73	271.50
596.88	454.06
597.04	1462.83
597.20	2438.84
597.36	2899.92
597.51	2165.00
597.67	1425.39
597.83	905.79
597.99	711.52
598.14	411.93
598.30	269.16
598.46	334.70
598.61	257.46
598.77	255.12
598.93	287.89
599.09	264.48
599.24	170.86
599.40	264.48
599.56	222.35
599.71	194.26
599.87	222.35
600.03	196.60
600.18	243.42
600.34	250.44
600.50	210.65
600.65	208.31
600.81	194.26
600.97	203.63
601.12	229.37
601.28	248.10
601.44	266.82
601.59	147.45
601.75	243.42
601.91	217.67
602.06	243.42
602.22	320.65
602.37	741.95
602.53	1710.93
602.69	2808.64
602.84	2918.65
603.00	2106.48
603.16	1486.24
603.31	980.68
603.47	711.52
603.62	379.17
603.78	325.33
603.94	304.27
604.09	257.46
604.25	294.91
604.40	210.65
604.56	297.25
604.71	227.03
604.87	287.89
605.03	287.89
605.18	238.73
605.34	283.20
605.49	166.18
605.65	238.73
605.80	259.80
605.96	290.23
606.12	297.25
606.27	409.59
606.43	299.59
606.58	437.68
606.74	781.74
606.89	3424.20
607.05	7274.38
607.20	9570.45
607.36	7943.78
607.51	5350.46
607.67	3475.70
607.82	2359.26
607.98	1299.00
608.13	610.88
608.29	414.27
608.44	458.74
608.60	442.36
608.75	456.40
608.91	1179.63
609.06	5455.79
609.22	12709.11
609.37	17301.24
609.53	14778.14
609.68	10031.54
609.84	6244.55
609.99	4238.71
610.15	2172.02
610.30	1034.52
610.46	547.69
610.61	433.00
610.76	437.68
610.92	360.44
611.07	301.93
611.23	362.78
611.38	365.12
611.54	245.76
611.69	283.20
611.84	344.06
