SpectraSuite Data File
++++++++++++++++++++++++++++++++++++
Date: Fri Oct 04 11:48:22 GMT-05:00 2013
User: price-jones
Dark Spectrum Present: No
Reference Spectrum Present: No
Number of Sampled Component Spectra: 1
Spectrometers: USB2+H05261
Integration Time (usec): 100000 (USB2+H05261)
Spectra Averaged: 1 (USB2+H05261)
Boxcar Smoothing: 0 (USB2+H05261)
Correct for Electrical Dark: No (USB2+H05261)
Strobe/Lamp Enabled: No (USB2+H05261)
Correct for Detector Non-linearity: No (USB2+H05261)
Correct for Stray Light: No (USB2+H05261)
Number of Pixels in Processed Spectrum: 2048
>>>>>Begin Processed Spectral Data<<<<<
365.73	0.00
365.92	0.00
366.12	0.00
366.32	0.00
366.52	0.00
366.72	28.09
366.91	0.00
367.11	0.00
367.31	0.00
367.51	0.00
367.70	0.00
367.90	0.00
368.10	0.00
368.30	0.00
368.49	0.00
368.69	0.00
368.89	0.00
369.09	0.00
369.28	0.00
369.48	0.00
369.68	0.00
369.87	0.00
370.07	0.00
370.27	18.72
370.47	105.32
370.66	390.87
370.86	514.92
371.06	496.19
371.25	547.69
371.45	421.30
371.65	653.01
371.84	561.73
372.04	519.60
372.24	456.40
372.44	463.43
372.63	540.66
372.83	582.79
373.03	564.07
373.22	514.92
373.42	444.70
373.62	554.71
373.81	631.94
374.01	662.37
374.21	725.57
374.40	622.58
374.60	657.69
374.79	624.92
374.99	678.76
375.19	709.18
375.38	681.10
375.58	671.73
375.78	662.37
375.97	615.56
376.17	734.93
376.37	676.41
376.56	763.01
376.76	692.80
376.95	727.91
377.15	645.99
377.35	725.57
377.54	737.27
377.74	814.51
377.93	744.29
378.13	723.23
378.33	760.67
378.52	748.97
378.72	842.59
378.91	807.48
379.11	870.68
379.31	741.95
379.50	772.38
379.70	833.23
379.89	814.51
380.09	770.04
380.28	791.10
380.48	844.93
380.68	772.38
380.87	884.72
381.07	880.04
381.26	905.79
381.46	915.15
381.65	870.68
381.85	896.43
382.04	856.64
382.24	945.58
382.43	940.90
382.63	868.34
382.83	884.72
383.02	938.55
383.22	987.71
383.41	851.96
383.61	947.92
383.80	945.58
384.00	943.24
384.19	957.28
384.39	938.55
384.58	1128.14
384.78	1015.79
384.97	987.71
385.17	1041.54
385.36	1043.88
385.56	1034.52
385.75	1046.22
385.95	1041.54
386.14	1046.22
386.34	1039.20
386.53	980.68
386.72	980.68
386.92	1104.73
387.11	1053.24
387.31	1104.73
387.50	1123.46
387.70	1064.94
387.89	1104.73
388.09	1200.69
388.28	1132.82
388.48	1203.04
388.67	1231.12
388.86	1198.35
389.06	1172.61
389.25	1240.48
389.45	1228.78
389.64	1221.76
389.84	1242.82
390.03	1235.80
390.22	1299.00
390.42	1252.19
390.61	1277.93
390.81	1207.72
391.00	1390.28
391.19	1315.38
391.39	1303.68
391.58	1291.98
391.78	1380.92
391.97	1371.55
392.16	1296.66
392.36	1299.00
392.55	1406.66
392.75	1373.89
392.94	1362.19
393.13	1448.79
393.33	1418.36
393.52	1427.73
393.71	1504.96
393.91	1495.60
394.10	1516.67
394.29	1467.52
394.49	1458.15
394.68	1533.05
394.88	1549.43
395.07	1565.82
395.26	1598.59
395.46	1516.67
395.65	1542.41
395.84	1640.72
396.04	1668.80
396.23	1582.20
396.42	1746.04
396.62	1717.95
396.81	1643.06
397.00	1638.38
397.19	1717.95
397.39	1732.00
397.58	1769.44
397.77	1673.48
397.97	1729.66
398.16	1701.57
398.35	1788.17
398.55	1771.79
398.74	1834.98
398.93	1879.45
399.12	1830.30
399.32	1902.86
399.51	1760.08
399.70	1944.99
399.90	1940.30
400.09	1956.69
400.28	2008.18
400.47	1949.67
400.67	1963.71
400.86	1980.09
401.05	2066.69
401.24	2069.03
401.44	2080.74
401.63	2167.34
401.82	2193.08
402.01	2132.23
402.21	2204.78
402.40	2193.08
402.59	2207.13
402.78	2148.61
402.97	2127.55
403.17	2239.89
403.36	2307.77
403.55	2237.55
403.74	2457.56
403.93	2382.67
404.13	2495.01
404.32	2392.03
404.51	2431.82
404.70	2476.29
404.89	2471.61
405.09	2410.75
405.28	2452.88
405.47	2436.50
405.66	2576.93
405.85	2628.42
406.05	2487.99
406.24	2546.50
406.43	2602.68
406.62	2682.25
406.81	2649.49
407.00	2630.76
407.20	2635.44
407.39	2810.98
407.58	2782.90
407.77	2806.30
407.96	2719.70
408.15	2925.67
408.34	2857.79
408.54	2766.51
408.73	2846.09
408.92	2944.39
409.11	2963.12
409.30	2974.82
409.49	3061.42
409.68	2888.22
409.87	2979.50
410.07	3112.91
410.26	2995.89
410.45	3124.62
410.64	3171.43
410.83	3126.96
411.02	3180.79
411.21	3213.56
411.40	3063.76
411.59	3297.81
411.78	3234.62
411.98	3323.56
412.17	3351.65
412.36	3459.31
412.55	3426.54
412.74	3400.80
412.93	3487.40
413.12	3599.74
413.31	3740.18
413.50	3564.64
413.69	3772.94
413.88	3819.75
414.07	3726.13
414.26	3662.94
414.45	3845.50
414.64	3791.67
414.83	3957.85
415.02	4011.68
415.22	4018.70
415.41	4053.81
415.60	4053.81
415.79	4156.79
415.98	4208.28
416.17	4135.73
416.36	4205.94
416.55	4184.88
416.74	4374.46
416.93	4285.52
417.12	4411.91
417.31	4280.84
417.50	4269.14
417.69	4601.49
417.88	4578.09
418.07	4367.44
418.26	4463.40
418.45	4636.60
418.64	4718.52
418.83	4667.03
419.02	4505.53
419.21	4676.39
419.39	4706.82
419.58	4681.07
419.77	4748.95
419.96	4770.01
420.15	4744.27
420.34	4830.87
420.53	4842.57
420.72	4992.36
420.91	4957.25
421.10	4957.25
421.29	5149.18
421.48	4973.64
421.67	5334.08
421.86	5006.41
422.05	5163.22
422.24	5186.63
422.43	4990.02
422.61	5266.21
422.80	5296.63
422.99	5247.48
423.18	5217.05
423.37	5163.22
423.56	5252.16
423.75	5179.61
423.94	5289.61
424.13	4847.25
424.32	5153.86
424.50	5399.62
424.69	5345.78
424.88	5240.46
425.07	5334.08
425.26	5149.18
425.45	5247.48
425.64	5231.10
425.83	5310.68
426.01	5296.63
426.20	5376.21
426.39	5371.53
426.58	5369.19
426.77	5441.75
426.96	5474.51
427.15	5378.55
427.33	5430.04
427.52	5446.43
427.71	5500.26
427.90	5530.69
428.09	5753.04
428.28	5640.69
428.46	5795.17
428.65	5682.82
428.84	5935.60
429.03	5823.25
429.22	5547.07
429.40	5722.61
429.59	5865.38
429.78	5605.58
429.97	5631.33
430.16	5841.98
430.34	5961.34
430.53	6029.22
430.72	6118.16
430.91	5846.66
431.10	6033.90
431.28	6127.52
431.47	6115.82
431.66	6317.11
431.85	6174.33
432.03	6249.23
432.22	6335.83
432.41	6150.93
432.60	6394.34
432.79	6345.19
432.97	6361.58
433.16	6352.21
433.35	6296.04
433.54	6429.45
433.72	6457.54
433.91	6490.31
434.10	6560.52
434.28	6450.52
434.47	6420.09
434.66	6616.69
434.85	6677.55
435.03	6754.79
435.22	6523.07
435.41	6822.66
435.59	6778.19
435.78	6672.87
435.97	6871.81
436.16	6890.54
436.34	6637.76
436.53	6874.15
436.72	6998.20
436.90	6864.79
437.09	7056.72
437.28	6904.58
437.46	7119.91
437.65	7126.93
437.84	7368.01
438.02	7204.17
438.21	7187.79
438.40	7389.07
438.58	7496.74
438.77	7466.31
438.96	7452.27
439.14	7475.67
439.33	7625.47
439.52	7625.47
439.70	7791.64
439.89	7707.38
440.08	7733.13
440.26	7777.60
440.45	7840.79
440.63	7976.55
440.82	7988.25
441.01	8023.36
441.19	8163.79
441.38	8425.93
441.57	8346.35
441.75	8266.77
441.94	8505.51
442.12	8617.85
442.31	8650.62
442.50	8538.27
442.68	8465.72
442.87	8524.23
443.05	8821.48
443.24	8875.31
443.43	8840.20
443.61	8800.41
443.80	9085.96
443.98	8802.75
444.17	8528.91
444.35	8903.40
444.54	9001.70
444.73	8819.14
444.91	8823.82
445.10	8795.73
445.28	8950.21
445.47	8936.17
445.65	8931.48
445.84	9067.24
446.02	9167.88
446.21	8884.67
446.39	9214.69
446.58	9050.85
446.77	9497.89
446.95	9085.96
447.14	9069.58
447.32	9125.75
447.51	9100.00
447.69	9165.54
447.88	9383.21
448.06	9029.79
448.25	9231.07
448.43	9242.78
448.62	9390.23
448.80	9067.24
448.99	9359.80
449.17	9301.29
449.36	9219.37
449.54	9570.45
449.73	9523.64
449.91	9741.31
450.10	9643.01
450.28	9720.24
450.46	9664.07
450.65	9858.34
450.83	9661.73
451.02	9579.81
451.20	9764.72
451.39	9874.72
451.57	9745.99
451.76	9710.88
451.94	9844.29
452.13	10026.86
452.31	9879.40
452.49	9816.21
452.68	9944.94
452.86	9898.13
453.05	10078.35
453.23	10143.88
453.42	10281.97
453.60	10101.75
453.78	10207.08
453.97	10010.47
454.15	10181.33
454.34	10127.50
454.52	10595.61
454.70	10338.15
454.89	10516.03
455.07	10649.44
455.26	10429.43
455.44	10686.89
455.62	10635.39
455.81	10445.81
455.99	10633.05
456.17	10899.87
456.36	10747.74
456.54	10923.28
456.73	11033.29
456.91	11208.83
457.09	11330.53
457.28	11632.46
457.46	11147.97
457.64	11452.24
457.83	11349.26
458.01	11154.99
458.19	11405.43
458.38	11241.59
458.56	11719.06
458.74	11716.72
458.93	11585.65
459.11	11485.01
459.29	11578.63
459.48	11653.53
459.66	11627.78
459.84	11964.82
460.03	12035.03
460.21	11840.77
460.39	11840.77
460.57	11925.03
460.76	12091.21
460.94	11941.41
461.12	12013.97
461.31	12142.70
461.49	12025.67
461.67	12058.44
461.85	12299.52
462.04	12346.33
462.22	12769.96
462.40	12320.58
462.59	12367.39
462.77	12428.24
462.95	12435.27
463.13	12549.95
463.32	12643.57
463.50	12695.07
463.68	12517.18
463.86	12720.81
464.05	12552.29
464.23	12484.42
464.41	12861.24
464.59	12681.02
464.78	13004.02
464.96	12978.27
465.14	12641.23
465.32	13254.45
465.50	12980.61
465.69	13193.60
465.87	13205.30
466.05	13083.59
466.23	13090.62
466.41	13224.03
466.60	13207.64
466.78	13186.58
466.96	13315.31
467.14	13193.60
467.32	13376.16
467.51	13554.04
467.69	13231.05
467.87	13549.36
468.05	13638.30
468.23	13483.83
468.41	13652.34
468.60	13647.66
468.78	13767.03
468.96	13612.56
469.14	13797.46
469.32	14043.21
469.50	13451.06
469.69	14200.03
469.87	14335.78
470.05	14214.07
470.23	14193.01
470.41	14057.26
470.59	14265.57
470.77	14398.98
470.95	14651.75
471.14	14494.94
471.32	14356.85
471.50	14824.95
471.68	14731.33
471.86	14684.52
472.04	14885.81
472.22	15070.71
472.40	14775.80
472.58	14972.41
472.77	15173.69
472.95	15552.86
473.13	15950.75
473.31	15183.06
473.49	15400.72
473.67	15536.48
473.85	15279.02
474.03	15506.05
474.21	15669.89
474.39	15873.51
474.57	16290.13
474.75	16037.35
474.93	16365.03
475.12	16091.18
475.30	16435.24
475.48	16285.45
475.66	16292.47
475.84	16435.24
476.02	16545.25
476.20	16561.63
476.38	16891.65
476.56	17390.18
476.74	17212.30
476.92	17076.55
477.10	16973.56
477.28	17610.19
477.46	17212.30
477.64	17708.49
477.82	17886.37
478.00	18232.77
478.18	18401.29
478.36	18377.89
478.54	18586.19
478.72	18766.42
478.90	18448.10
479.08	18972.38
479.26	19396.02
479.44	18895.14
479.62	19440.49
479.80	19351.55
479.98	19545.81
480.16	19896.89
480.34	20027.96
480.52	20100.52
480.70	20030.30
480.88	20121.59
481.06	20381.38
481.24	20196.48
481.41	20517.14
481.59	21202.91
481.77	21357.39
481.95	21249.72
482.13	21434.63
482.31	21371.43
482.49	21977.63
482.67	22113.38
482.85	22373.18
483.03	22436.38
483.21	22843.63
483.39	22424.67
483.57	22735.96
483.74	23080.02
483.92	23250.88
484.10	23344.50
484.28	23679.20
484.46	23929.64
484.64	24360.30
484.82	23903.89
485.00	24226.89
485.18	24748.82
485.35	24919.68
485.53	24622.44
485.71	24943.09
485.89	25715.47
486.07	25495.46
486.25	25324.60
486.43	25619.50
486.61	25954.20
486.78	26324.01
486.96	26274.85
487.14	26654.02
487.32	26466.78
487.50	26859.99
487.68	27129.15
487.85	27765.78
488.03	27974.08
488.21	28041.96
488.39	28072.39
488.57	28292.40
488.75	28325.16
488.92	29029.66
489.10	28716.03
489.28	29167.76
489.46	29738.85
489.64	29509.47
489.81	30000.99
489.99	29928.43
490.17	30286.53
490.35	30696.13
490.53	30527.61
490.70	30986.35
490.88	30939.54
491.06	31194.66
491.24	31297.64
491.41	31342.11
491.59	32046.62
491.77	32023.21
491.95	32446.85
492.13	32205.77
492.30	32503.02
492.48	32868.14
492.66	32868.14
492.84	32891.55
493.01	33631.16
493.19	33591.37
493.37	34003.30
493.54	34075.86
493.72	34356.72
493.90	34405.88
494.08	34756.96
494.25	35033.14
494.43	35129.10
494.61	35086.97
494.79	35225.06
494.96	35583.16
495.14	35644.02
495.32	36280.64
495.49	36016.16
495.67	36203.41
495.85	36505.34
496.02	36779.18
496.20	36982.80
496.38	36926.63
496.55	37287.07
496.73	38239.67
496.91	37621.77
497.09	38150.73
497.26	38309.89
497.44	38256.06
497.62	38862.26
497.79	38796.72
497.97	38817.78
498.14	39187.59
498.32	39613.57
498.50	39651.02
498.67	39615.91
498.85	39419.30
499.03	39927.20
499.20	39892.09
499.38	40156.57
499.56	40739.36
499.73	40622.34
499.91	41029.59
500.08	40428.07
500.26	40837.67
500.44	41006.19
500.61	40875.12
500.79	41022.57
500.97	41399.40
501.14	41736.43
501.32	42103.90
501.49	42017.30
501.67	41785.58
501.84	42569.66
502.02	42356.67
502.20	42728.82
502.37	42899.68
502.55	42763.93
502.72	42766.27
502.90	43051.81
503.07	42618.81
503.25	43351.40
503.43	43290.55
503.60	43419.28
503.78	43983.35
503.95	43758.66
504.13	43847.60
504.30	43845.26
504.48	44179.95
504.65	44320.38
504.83	44425.71
505.01	45036.59
505.18	44774.45
505.36	45160.64
505.53	45251.92
505.71	45059.99
505.88	45453.20
506.06	44807.22
506.23	45668.53
506.41	45605.34
506.58	46050.04
506.76	45713.00
506.93	45860.46
507.11	45677.90
507.28	45652.15
507.46	46085.15
507.63	46164.73
507.81	46808.37
507.98	46464.32
508.16	46909.02
508.33	46878.59
508.50	47058.81
508.68	47639.26
508.85	47683.73
509.03	47393.51
509.20	47695.44
509.38	48067.58
509.55	47817.14
509.73	47896.72
509.90	47800.76
510.08	47910.77
510.25	47936.51
510.42	48509.94
510.60	48687.82
510.77	48650.38
510.95	48687.82
511.12	49134.87
511.30	48538.03
511.47	49036.56
511.64	48921.88
511.82	49521.05
511.99	49757.45
512.17	49663.83
512.34	49453.18
512.51	49956.39
512.69	49593.61
512.86	50176.40
513.04	50410.46
513.21	50583.66
513.38	50726.43
513.56	50281.73
513.73	50358.97
513.90	50358.97
514.08	49881.50
514.25	50698.34
514.43	50813.03
514.60	50958.14
514.77	50878.57
514.95	50937.08
515.12	50745.15
515.29	50878.57
515.47	51381.78
515.64	51470.72
515.81	51545.62
515.99	51672.01
516.16	51538.60
516.33	51676.69
516.51	51824.14
516.68	51620.52
516.85	51625.20
517.03	52156.50
517.20	52163.52
517.37	52142.45
517.54	52325.02
517.72	52053.51
517.89	52294.59
518.06	52257.14
518.24	52266.50
518.41	52336.72
518.58	52420.98
518.75	52573.11
518.93	52839.93
519.10	52753.33
519.27	53036.54
519.45	52678.44
519.62	52577.79
519.79	52905.47
519.96	53120.80
520.14	53034.20
520.31	53062.29
520.48	53455.50
520.65	53345.49
520.83	53272.93
521.00	53727.00
521.17	53469.54
521.34	53570.18
521.52	53895.52
521.69	53879.13
521.86	54035.95
522.03	54262.98
522.20	54087.44
522.38	53890.83
522.55	54298.09
522.72	53825.30
522.89	54190.42
523.07	54239.57
523.24	54447.88
523.41	54365.96
523.58	54295.75
523.75	54564.91
523.92	54344.90
524.10	54508.74
524.27	54899.61
524.44	54901.95
524.61	55227.28
524.78	54930.03
524.96	55037.70
525.13	55014.29
525.30	55164.09
525.47	55121.96
525.64	55168.77
525.81	55426.23
525.98	55512.83
526.16	55210.90
526.33	55384.10
526.50	55505.80
526.67	55255.37
526.84	55386.44
527.01	55456.65
527.18	55643.90
527.36	55920.08
527.53	55746.88
527.70	55969.23
527.87	56020.72
528.04	55894.33
528.21	56009.02
528.38	55845.18
528.55	56053.49
528.72	55997.32
528.89	56053.49
529.07	56046.47
529.24	56236.05
529.41	56605.86
529.58	56238.39
529.75	56198.60
529.92	56310.95
530.09	56392.87
530.26	56245.41
530.43	56353.08
530.60	56430.32
530.77	56657.35
530.94	56626.92
531.11	56339.04
531.28	56736.93
531.46	56786.08
531.63	56776.72
531.80	56882.04
531.97	56973.32
532.14	56879.70
532.31	56985.02
532.48	56970.98
532.65	56893.74
532.82	57001.41
532.99	57008.43
533.16	57020.13
533.33	57277.59
533.50	57684.84
533.67	57263.55
533.84	57190.99
534.01	57230.78
534.18	57265.89
534.35	57509.30
534.52	57366.53
534.69	57521.01
534.86	57673.14
535.03	57488.24
535.20	57556.11
535.37	57836.98
535.54	57502.28
535.71	57499.94
535.88	57659.10
536.05	57846.34
536.22	58117.84
536.38	57904.85
536.55	58038.26
536.72	57958.69
536.89	57736.34
537.06	57918.90
537.23	57972.73
537.40	57914.22
537.57	57949.32
537.74	58152.95
537.91	58396.37
538.08	58349.56
538.25	58148.27
538.42	58206.78
538.59	58230.19
538.75	57829.96
538.92	58298.06
539.09	58468.92
539.26	58408.07
539.43	58513.39
539.60	58564.88
539.77	58546.16
539.94	58492.33
540.11	58780.21
540.28	58564.88
540.44	58489.99
540.61	58717.02
540.78	58670.21
540.95	58740.42
541.12	58829.37
541.29	58885.54
541.46	58773.19
541.62	58808.30
541.79	58880.86
541.96	58688.93
542.13	58623.40
542.30	58887.88
542.47	59126.61
542.63	58990.86
542.80	59208.53
542.97	59351.30
543.14	59320.88
543.31	59213.21
543.48	59508.12
543.64	59524.50
543.81	59468.33
543.98	59585.36
544.15	59643.87
544.32	59793.67
544.48	59587.70
544.65	59414.50
544.82	59402.80
544.99	59604.08
545.16	59716.43
545.32	59552.59
545.49	59936.44
545.66	59994.95
545.83	59880.27
546.00	59774.94
546.16	59999.63
546.33	59683.66
546.50	59529.19
546.67	59812.39
546.83	59426.20
547.00	59955.16
547.17	60142.41
547.34	60140.07
547.50	60142.41
547.67	60289.86
547.84	60074.53
548.00	60376.46
548.17	60245.39
548.34	60200.92
548.51	60254.75
548.67	60273.48
548.84	60456.04
549.01	60186.88
549.18	60362.42
549.34	60254.75
549.51	60252.41
549.68	60488.80
549.84	60250.07
550.01	60456.04
550.18	60282.84
550.34	60666.69
550.51	60477.10
550.68	60512.21
550.84	60406.89
551.01	60523.91
551.18	60441.99
551.34	60214.96
551.51	60493.49
551.68	60610.51
551.84	60664.35
552.01	60781.37
552.18	60767.33
552.34	60772.01
552.51	60809.46
552.68	60434.97
552.84	60720.52
553.01	60968.61
553.18	60900.74
553.34	61036.49
553.51	60884.36
553.67	61055.21
553.84	61188.63
554.01	60963.93
554.17	60926.49
554.34	60874.99
554.51	60776.69
554.67	61326.72
554.84	61167.56
555.00	61116.07
555.17	61153.52
555.33	61312.67
555.50	61130.11
555.67	61059.90
555.83	61015.43
556.00	60886.70
556.16	61343.10
556.33	61270.54
556.50	61256.50
556.66	61464.81
556.83	61329.06
556.99	61535.02
557.16	61453.11
557.32	61556.09
557.49	61422.68
557.65	61317.35
557.82	61289.27
557.98	61221.39
558.15	61415.66
558.32	61581.84
558.48	61591.20
558.65	61654.39
558.81	61535.02
558.98	61490.55
559.14	61429.70
559.31	61478.85
559.47	61396.93
559.64	61516.30
559.80	61565.45
559.97	61752.69
560.13	61691.84
560.30	61537.36
560.46	61530.34
560.63	61783.12
560.79	61825.25
560.96	61783.12
561.12	61694.18
561.29	61621.62
561.45	61689.50
561.61	61638.01
561.78	62005.47
561.94	61925.89
562.11	61722.27
562.27	61909.51
562.44	61874.40
562.60	62061.64
562.77	61649.71
562.93	61818.23
563.10	61939.94
563.26	62159.95
563.42	62319.10
563.59	61942.28
563.75	62075.69
563.92	62251.23
564.08	61822.91
564.24	61918.87
564.41	62026.54
564.57	61972.70
564.74	62131.86
564.90	62213.78
565.07	62316.76
565.23	62288.68
565.39	62108.46
565.56	61923.55
565.72	61895.47
565.88	62169.31
566.05	62066.33
566.21	62145.90
566.38	62234.84
566.54	62017.17
566.70	62309.74
566.87	62291.02
567.03	62166.97
567.19	62237.19
567.36	62286.34
567.52	62110.80
567.68	62298.04
567.85	61996.11
568.01	62134.20
568.17	62321.44
568.34	62391.66
568.50	62253.57
568.66	62429.11
568.83	62588.27
568.99	62375.28
569.15	62354.21
569.32	62302.72
569.48	62082.71
569.64	62307.40
569.81	62216.12
569.97	62326.13
570.13	62672.52
570.30	62394.00
570.46	62459.54
570.62	62403.36
570.78	62241.87
570.95	62209.10
571.11	62202.08
571.27	62281.66
571.43	62358.89
571.60	62433.79
571.76	62408.04
571.92	62492.30
572.09	62709.97
572.25	62588.27
572.41	62588.27
572.57	62511.03
572.74	62581.24
572.90	62419.75
573.06	62546.14
573.22	62431.45
573.38	62581.24
573.55	62717.00
573.71	62805.94
573.87	62688.91
574.03	62532.09
574.20	62398.68
574.36	62307.40
574.52	62665.50
574.68	62508.69
574.84	62525.07
575.01	62525.07
575.17	62684.23
575.33	62560.18
575.49	62494.64
575.65	62590.61
575.82	62738.06
575.98	62433.79
576.14	62614.01
576.30	62639.76
576.46	62609.33
576.62	62646.78
576.79	62433.79
576.95	62700.61
577.11	62679.55
577.27	62756.78
577.43	62724.02
577.59	62621.03
577.75	62628.05
577.92	62686.57
578.08	62590.61
578.24	62578.90
578.40	62724.02
578.56	62742.74
578.72	62967.43
578.88	62873.81
579.04	62908.92
579.21	62728.70
579.37	62747.42
579.53	62871.47
579.69	62501.67
579.85	62637.42
580.01	62595.29
580.17	62817.64
580.33	62695.93
580.49	62857.43
580.65	62796.57
580.82	62864.45
580.98	62798.91
581.14	62665.50
581.30	62791.89
581.46	62688.91
581.62	62745.08
581.78	62651.46
581.94	62688.91
582.10	62843.38
582.26	62787.21
582.42	62944.03
582.58	62911.26
582.74	62827.00
582.90	62775.51
583.06	63035.31
583.22	62637.42
583.38	62663.16
583.54	62583.58
583.70	62642.10
583.86	62787.21
584.02	62522.73
584.18	63107.86
584.34	62836.36
584.50	62829.34
584.66	63037.65
584.82	62721.68
584.98	63016.58
585.14	62852.75
585.30	62672.52
585.46	62892.54
585.62	62695.93
585.78	62831.68
585.94	62695.93
586.10	62962.75
586.26	62965.09
586.42	62901.90
586.58	63009.56
586.74	63117.23
586.90	62831.68
587.06	62686.57
587.22	62850.41
587.38	62574.22
587.54	62852.75
587.70	63084.46
587.86	62929.98
588.02	63068.08
588.18	63079.78
588.34	62869.13
588.49	62953.39
588.65	62742.74
588.81	62852.75
