SpectraSuite Data File
++++++++++++++++++++++++++++++++++++
Date: Fri Oct 04 11:48:30 GMT-05:00 2013
User: price-jones
Dark Spectrum Present: No
Reference Spectrum Present: No
Number of Sampled Component Spectra: 1
Spectrometers: USB2+H05261
Integration Time (usec): 100000 (USB2+H05261)
Spectra Averaged: 1 (USB2+H05261)
Boxcar Smoothing: 0 (USB2+H05261)
Correct for Electrical Dark: No (USB2+H05261)
Strobe/Lamp Enabled: No (USB2+H05261)
Correct for Detector Non-linearity: No (USB2+H05261)
Correct for Stray Light: No (USB2+H05261)
Number of Pixels in Processed Spectrum: 2048
>>>>>Begin Processed Spectral Data<<<<<
365.73	21.06
365.92	21.06
366.12	21.06
366.32	0.00
366.52	0.00
366.72	0.00
366.91	0.00
367.11	0.00
367.31	0.00
367.51	0.00
367.70	0.00
367.90	0.00
368.10	0.00
368.30	0.00
368.49	0.00
368.69	23.41
368.89	0.00
369.09	0.00
369.28	0.00
369.48	0.00
369.68	0.00
369.87	0.00
370.07	0.00
370.27	42.13
370.47	0.00
370.66	231.71
370.86	243.42
371.06	280.86
371.25	346.40
371.45	217.67
371.65	362.78
371.84	355.76
372.04	390.87
372.24	367.46
372.44	330.02
372.63	376.83
372.83	440.02
373.03	348.74
373.22	313.63
373.42	360.44
373.62	400.23
373.81	365.12
374.01	393.21
374.21	423.64
374.40	400.23
374.60	430.66
374.79	442.36
374.99	390.87
375.19	301.93
375.38	454.06
375.58	437.68
375.78	454.06
375.97	461.09
376.17	402.57
376.37	416.62
376.56	367.46
376.76	414.27
376.95	437.68
377.15	524.28
377.35	454.06
377.54	458.74
377.74	430.66
377.93	360.44
378.13	454.06
378.33	550.03
378.52	505.56
378.72	538.32
378.91	461.09
379.11	503.22
379.31	463.43
379.50	463.43
379.70	526.62
379.89	559.39
380.09	393.21
380.28	482.15
380.48	524.28
380.68	442.36
380.87	423.64
381.07	458.74
381.26	580.45
381.46	454.06
381.65	477.47
381.85	451.72
382.04	496.19
382.24	484.49
382.43	554.71
382.63	512.58
382.83	566.41
383.02	538.32
383.22	535.98
383.41	510.24
383.61	564.07
383.80	493.85
384.00	573.43
384.19	566.41
384.39	510.24
384.58	535.98
384.78	545.34
384.97	622.58
385.17	678.76
385.36	552.37
385.56	660.03
385.75	547.69
385.95	585.13
386.14	634.29
386.34	615.56
386.53	650.67
386.72	596.84
386.92	695.14
387.11	634.29
387.31	676.41
387.50	671.73
387.70	676.41
387.89	643.65
388.09	697.48
388.28	669.39
388.48	650.67
388.67	732.59
388.86	697.48
389.06	669.39
389.25	753.65
389.45	653.01
389.64	648.33
389.84	683.44
390.03	770.04
390.22	732.59
390.42	657.69
390.61	763.01
390.81	720.88
391.00	641.31
391.19	863.66
391.39	767.70
391.58	819.19
391.78	842.59
391.97	788.76
392.16	798.12
392.36	772.38
392.55	819.19
392.75	821.53
392.94	835.57
393.13	774.72
393.33	828.55
393.52	870.68
393.71	777.06
393.91	795.78
394.10	795.78
394.29	877.70
394.49	866.00
394.68	842.59
394.88	898.77
395.07	915.15
395.26	903.45
395.46	877.70
395.65	1018.13
395.84	947.92
396.04	992.39
396.23	866.00
396.42	997.07
396.62	936.21
396.81	940.90
397.00	938.55
397.19	959.62
397.39	968.98
397.58	1001.75
397.77	1018.13
397.97	1001.75
398.16	1074.31
398.35	1057.92
398.55	987.71
398.74	1022.81
398.93	1093.03
399.12	1090.69
399.32	980.68
399.51	1060.26
399.70	1093.03
399.90	1060.26
400.09	1158.57
400.28	1179.63
400.47	1118.78
400.67	1184.31
400.86	1118.78
401.05	1226.44
401.24	1104.73
401.44	1146.86
401.63	1238.14
401.82	1203.04
402.01	1296.66
402.21	1263.89
402.40	1275.59
402.59	1233.46
402.78	1282.61
402.97	1303.68
403.17	1284.95
403.36	1273.25
403.55	1345.81
403.74	1303.68
403.93	1467.52
404.13	1313.04
404.32	1254.53
404.51	1373.89
404.70	1416.02
404.89	1324.74
405.09	1528.37
405.28	1526.03
405.47	1380.92
405.66	1434.75
405.85	1451.13
406.05	1474.54
406.24	1460.49
406.43	1514.33
406.62	1523.69
406.81	1519.01
407.00	1549.43
407.20	1591.56
407.39	1577.52
407.58	1586.88
407.77	1582.20
407.96	1640.72
408.15	1568.16
408.34	1617.31
408.54	1673.48
408.73	1694.55
408.92	1661.78
409.11	1694.55
409.30	1771.79
409.49	1809.23
409.68	1743.70
409.87	1771.79
410.07	1753.06
410.26	1753.06
410.45	1762.42
410.64	1764.76
410.83	1748.38
411.02	1816.26
411.21	1935.62
411.40	1980.09
411.59	1907.54
411.78	1893.49
411.98	1933.28
412.17	1919.24
412.36	2026.90
412.55	2047.97
412.74	2033.93
412.93	1987.11
413.12	2017.54
413.31	2108.82
413.50	2141.59
413.69	2113.50
413.88	2202.44
414.07	2176.70
414.26	2328.83
414.45	2232.87
414.64	2310.11
414.83	2314.79
415.02	2396.71
415.22	2214.15
415.41	2286.70
415.60	2335.85
415.79	2356.92
415.98	2406.07
416.17	2417.77
416.36	2349.90
416.55	2429.48
416.74	2370.96
416.93	2469.27
417.12	2469.27
417.31	2572.25
417.50	2581.61
417.69	2773.53
417.88	2600.34
418.07	2693.96
418.26	2621.40
418.45	2663.53
418.64	2754.81
418.83	2892.90
419.02	2825.03
419.21	2757.15
419.39	2696.30
419.58	2874.18
419.77	2754.81
419.96	2923.33
420.15	2789.92
420.34	2780.56
420.53	2745.45
420.72	2843.75
420.91	3045.04
421.10	2883.54
421.29	3035.67
421.48	2942.05
421.67	2972.48
421.86	2960.78
422.05	3047.38
422.24	3141.00
422.43	2974.82
422.61	3016.95
422.80	3014.61
422.99	3035.67
423.18	3030.99
423.37	3052.06
423.56	3105.89
423.75	3042.70
423.94	3110.57
424.13	2916.31
424.32	3030.99
424.50	3171.43
424.69	3253.34
424.88	3183.13
425.07	3089.51
425.26	3047.38
425.45	3038.02
425.64	3000.57
425.83	3075.46
426.01	3073.12
426.20	3059.08
426.39	3215.90
426.58	3145.68
426.77	3096.53
426.96	3110.57
427.15	3084.83
427.33	3300.16
427.52	3286.11
427.71	3258.03
427.90	3314.20
428.09	3274.41
428.28	3229.94
428.46	3302.50
428.65	3330.58
428.84	3339.94
429.03	3412.50
429.22	3346.97
429.40	3466.33
429.59	3407.82
429.78	3251.00
429.97	3208.87
430.16	3339.94
430.34	3431.23
430.53	3447.61
430.72	3513.14
430.91	3421.86
431.10	3557.61
431.28	3501.44
431.47	3566.98
431.66	3602.08
431.85	3588.04
432.03	3578.68
432.22	3679.32
432.41	3700.39
432.60	3712.09
432.79	3569.32
432.97	3658.26
433.16	3702.73
433.35	3569.32
433.54	3854.86
433.72	3805.71
433.91	3655.92
434.10	3852.52
434.28	3761.24
434.47	3929.76
434.66	3885.29
434.85	3843.16
435.03	3936.78
435.22	3915.72
435.41	4063.17
435.59	3904.01
435.78	3889.97
435.97	4018.70
436.16	4025.72
436.34	4011.68
436.53	4180.20
436.72	4250.41
436.90	4037.42
437.09	4208.28
437.28	4051.47
437.46	4145.09
437.65	4100.62
437.84	4175.52
438.02	4241.05
438.21	4091.26
438.40	4196.58
438.58	4337.01
438.77	4404.89
438.96	4397.87
439.14	4538.30
439.33	4400.21
439.52	4737.24
439.70	4531.28
439.89	4507.87
440.08	4542.98
440.26	4594.47
440.45	4557.02
440.63	4554.68
440.82	4676.39
441.01	4720.86
441.19	4952.57
441.38	4774.69
441.57	4671.71
441.75	4908.10
441.94	4954.91
442.12	4816.82
442.31	4975.98
442.50	4910.44
442.68	4905.76
442.87	5097.69
443.05	4999.38
443.24	5193.65
443.43	5186.63
443.61	5097.69
443.80	5394.93
443.98	5198.33
444.17	4894.06
444.35	5111.73
444.54	5270.89
444.73	5167.90
444.91	5327.06
445.10	5172.58
445.28	5294.29
445.47	5252.16
445.65	5203.01
445.84	5158.54
446.02	5317.70
446.21	5179.61
446.39	5341.10
446.58	5317.70
446.77	5217.05
446.95	5135.14
447.14	5270.89
447.32	5425.36
447.51	5324.72
447.69	5298.97
447.88	5371.53
448.06	5270.89
448.25	5313.02
448.43	5359.83
448.62	5291.95
448.80	5343.44
448.99	5343.44
449.17	5327.06
449.36	5275.57
449.54	5455.79
449.73	5603.24
449.91	5584.52
450.10	5479.19
450.28	5636.01
450.46	5544.73
450.65	5586.86
450.83	5755.38
451.02	5535.37
451.20	5764.74
451.39	5729.63
451.57	5591.54
451.76	5636.01
451.94	5654.73
452.13	5694.52
452.31	5769.42
452.49	5603.24
452.68	5827.93
452.86	5715.59
453.05	5851.34
453.23	5818.57
453.42	5792.83
453.60	5722.61
453.78	5839.64
453.97	5926.24
454.15	6019.86
454.34	5935.60
454.52	5989.43
454.70	6141.57
454.89	5884.11
455.07	6045.60
455.26	6024.54
455.44	6115.82
455.62	6134.54
455.81	5923.90
455.99	6267.95
456.17	6298.38
456.36	6157.95
456.54	6244.55
456.73	6424.77
456.91	6530.09
457.09	6434.13
457.28	6466.90
457.46	6408.39
457.64	6523.07
457.83	6530.09
458.01	6349.87
458.19	6579.25
458.38	6576.91
458.56	6623.72
458.74	6745.42
458.93	6616.69
459.11	6630.74
459.29	6651.80
459.48	6759.47
459.66	6715.00
459.84	6785.21
460.03	6906.92
460.21	6649.46
460.39	6759.47
460.57	6738.40
460.76	6956.07
460.94	6881.18
461.12	6899.90
461.31	6956.07
461.49	7002.88
461.67	6909.26
461.85	7337.58
462.04	6988.84
462.22	7545.89
462.40	6974.80
462.59	7183.10
462.77	7190.13
462.95	7157.36
463.13	7119.91
463.32	7148.00
463.50	7140.97
463.68	7262.68
463.86	7337.58
464.05	7321.20
464.23	7241.62
464.41	7267.36
464.59	7279.07
464.78	7468.65
464.96	7410.14
465.14	7234.60
465.32	7428.86
465.50	7480.35
465.69	7590.36
465.87	7396.09
466.05	7569.29
466.23	7501.42
466.41	7522.48
466.60	7562.27
466.78	7489.71
466.96	7517.80
467.14	7400.77
467.32	7618.44
467.51	7737.81
467.69	7625.47
467.87	7698.02
468.05	7691.00
468.23	7592.70
468.41	7728.45
468.60	7829.09
468.78	7831.43
468.96	7913.35
469.14	7854.84
469.32	7758.88
469.50	7850.16
469.69	8037.40
469.87	8166.13
470.05	7920.37
470.23	8128.68
470.41	8065.49
470.59	8222.30
470.77	8135.70
470.95	8264.43
471.14	8112.30
471.32	8276.13
471.50	8482.10
471.68	8198.90
471.86	8395.50
472.04	8503.17
472.22	8732.54
472.40	8273.79
472.58	8280.82
472.77	8458.70
472.95	8648.28
473.13	8870.63
473.31	8512.53
473.49	8592.11
473.67	8753.60
473.85	8762.97
474.03	9167.88
474.21	9078.94
474.39	9095.32
474.57	9027.45
474.75	9188.94
474.93	9359.80
475.12	9085.96
475.30	9186.60
475.48	9256.82
475.66	9432.36
475.84	9430.02
476.02	9460.45
476.20	9458.10
476.38	9535.34
476.56	9949.62
476.74	9703.86
476.92	9764.72
477.10	9675.77
477.28	9994.09
477.46	9748.33
477.64	10078.35
477.82	10207.08
478.00	10490.28
478.18	10459.85
478.36	10321.76
478.54	10457.51
478.72	10361.55
478.90	10740.72
479.08	10546.45
479.26	10761.78
479.44	10860.09
479.62	10906.90
479.80	11005.20
479.98	11063.71
480.16	11241.59
480.34	11286.06
480.52	11747.15
480.70	11447.56
480.88	11391.39
481.06	11314.15
481.24	11407.77
481.41	11648.85
481.59	11838.43
481.77	11707.36
481.95	12060.78
482.13	12109.93
482.31	12114.61
482.49	12444.63
482.67	12187.17
482.85	12685.70
483.03	12556.97
483.21	12622.51
483.39	12578.04
483.57	12744.22
483.74	12870.61
483.92	13151.47
484.10	12835.50
484.28	13111.68
484.46	13345.73
484.64	13645.32
484.82	13373.82
485.00	13720.22
485.18	13792.78
485.35	13886.40
485.53	13926.19
485.71	14085.34
485.89	14324.08
486.07	14307.69
486.25	14546.43
486.43	14656.43
486.61	14532.39
486.78	14658.78
486.96	14874.10
487.14	15070.71
487.32	15112.84
487.50	15035.60
487.68	15590.31
487.85	15487.32
488.03	15662.86
488.21	15693.29
488.39	15763.51
488.57	16102.89
488.75	16109.91
488.92	16053.73
489.10	16484.39
489.28	16219.91
489.46	16765.26
489.64	16596.74
489.81	17027.40
489.99	16844.84
490.17	17090.59
490.35	16910.37
490.53	17090.59
490.70	17312.94
490.88	17259.11
491.06	17378.48
491.24	17539.97
491.41	18050.21
491.59	18038.51
491.77	18085.32
491.95	18026.81
492.13	18113.41
492.30	18534.70
492.48	18328.74
492.66	18312.35
492.84	18511.30
493.01	18895.14
493.19	18827.27
493.37	19009.83
493.54	19194.73
493.72	19290.70
493.90	19140.90
494.08	19398.36
494.25	19756.46
494.43	19433.47
494.61	19789.23
494.79	19850.08
494.96	19969.45
495.14	19917.96
495.32	20575.65
495.49	20297.13
495.67	20498.41
495.85	20659.91
496.02	20624.80
496.20	20783.96
496.38	20964.18
496.55	21214.62
496.73	21380.79
496.91	21275.47
497.09	21013.33
497.26	21439.31
497.44	21429.94
497.62	21385.47
497.79	21893.37
497.97	21708.47
498.14	21741.24
498.32	21996.35
498.50	22387.22
498.67	22415.31
498.85	22101.68
499.03	22380.20
499.20	22815.54
499.38	22698.52
499.56	22588.51
499.73	22710.22
499.91	23183.01
500.08	23152.58
500.26	22677.45
500.44	22747.67
500.61	23548.13
500.79	23325.78
500.97	23653.45
501.14	23496.64
501.32	23541.11
501.49	23367.91
501.67	23417.06
501.84	24095.82
502.02	23702.61
502.20	24329.87
502.37	23990.49
502.55	23749.42
502.72	24100.50
502.90	24510.09
503.07	24320.51
503.25	24491.37
503.43	24713.72
503.60	24900.96
503.78	24570.94
503.95	25074.16
504.13	24723.08
504.30	24737.12
504.48	25233.32
504.65	25303.53
504.83	25453.33
505.01	25483.75
505.18	25186.50
505.36	25493.12
505.53	25420.56
505.71	25378.43
505.88	25542.27
506.06	25355.02
506.23	25668.66
506.41	25715.47
506.58	26141.44
506.76	26024.42
506.93	26380.18
507.11	26139.10
507.28	26450.39
507.46	26026.76
507.63	26096.97
507.81	26305.28
507.98	26820.20
508.16	26604.87
508.33	27115.11
508.50	26932.54
508.68	26878.71
508.85	27239.15
509.03	26824.88
509.20	27115.11
509.38	27433.42
509.55	27613.64
509.73	27414.69
509.90	27559.81
510.08	27580.87
510.25	27978.76
510.42	27594.92
510.60	28217.50
510.77	28053.66
510.95	28238.56
511.12	27934.29
511.30	28116.86
511.47	28166.01
511.64	28439.85
511.82	28657.52
511.99	28510.07
512.17	28620.07
512.34	28500.70
512.51	28781.57
512.69	28933.70
512.86	29397.13
513.04	29649.91
513.21	29067.11
513.38	28950.09
513.56	29158.39
513.73	29020.30
513.90	29296.49
514.08	29120.95
514.25	29345.64
514.43	29516.50
514.60	29792.68
514.77	29820.77
514.95	29965.88
515.12	29453.30
515.29	29701.40
515.47	30099.29
515.64	30204.61
515.81	30080.56
515.99	30316.96
516.16	30160.14
516.33	30469.09
516.51	31058.91
516.68	30244.40
516.85	30244.40
517.03	30532.29
517.20	30536.97
517.37	30728.89
517.54	30913.80
517.72	30735.92
517.89	30927.84
518.06	30693.79
518.24	30803.79
518.41	31061.25
518.58	31194.66
518.75	31314.03
518.93	31477.86
519.10	31330.41
519.27	31789.16
519.45	31054.23
519.62	31512.97
519.79	31751.71
519.96	31548.08
520.14	31917.89
520.31	31868.73
520.48	32156.62
520.65	31997.46
520.83	32032.57
521.00	31683.83
521.17	32294.71
521.34	31983.42
521.52	32467.91
521.69	32795.59
521.86	32713.67
522.03	32755.80
522.20	32460.89
522.38	32954.74
522.55	32378.97
522.72	32758.14
522.89	32907.93
523.07	33031.98
523.24	33305.82
523.41	33287.10
523.58	32851.76
523.75	33167.73
523.92	33064.75
524.10	33062.41
524.27	33603.07
524.44	33364.34
524.61	33851.17
524.78	33720.10
524.96	33516.47
525.13	33677.97
525.30	33722.44
525.47	33640.52
525.64	33998.62
525.81	33916.70
525.98	34148.42
526.16	34244.38
526.33	34333.32
526.50	34415.24
526.67	33621.80
526.84	34389.49
527.01	34389.49
527.18	34480.77
527.36	34480.77
527.53	34953.56
527.70	35072.93
527.87	34768.66
528.04	34677.38
528.21	34642.27
528.38	34504.18
528.55	34827.17
528.72	35058.88
528.89	34820.15
529.07	35035.48
529.24	35262.51
529.41	35548.06
529.58	34721.85
529.75	35222.72
529.92	35393.58
530.09	35358.47
530.26	35395.92
530.43	35367.84
530.60	35421.67
530.77	35491.88
530.94	35978.72
531.11	35229.74
531.28	35578.48
531.46	35690.83
531.63	35810.20
531.80	35889.77
531.97	36044.25
532.14	35772.75
532.31	35894.46
532.48	35889.77
532.65	36175.32
532.82	35803.17
532.99	36484.27
533.16	36114.47
533.33	36093.40
533.50	36734.71
533.67	36652.79
533.84	36500.65
534.01	36088.72
534.18	36165.96
534.35	36666.83
534.52	36854.08
534.69	36676.19
534.86	36992.17
535.03	36739.39
535.20	36811.95
535.37	37209.84
535.54	37118.56
535.71	36877.48
535.88	37102.17
536.05	36875.14
536.22	37439.21
536.38	37305.80
536.55	36952.38
536.72	37137.28
536.89	36793.22
537.06	37022.59
537.23	37179.41
537.40	37324.52
537.57	37200.47
537.74	37736.46
537.91	38043.07
538.08	38136.69
538.25	37619.43
538.42	37544.53
538.59	37530.49
538.75	37551.56
538.92	37888.59
539.09	38092.22
539.26	38174.14
539.43	37926.04
539.60	38136.69
539.77	37942.42
539.94	37930.72
540.11	38239.67
540.28	38099.24
540.44	38333.29
540.61	38286.48
540.78	38323.93
540.95	38143.71
541.12	38698.42
541.29	38616.50
541.46	38366.06
541.62	38419.89
541.79	38527.56
541.96	38050.09
542.13	38756.93
542.30	38866.94
542.47	38981.62
542.63	38888.00
542.80	39189.93
542.97	38960.56
543.14	39075.24
543.31	38902.04
543.48	38759.27
543.64	39466.11
543.81	39309.30
543.98	39321.00
544.15	39482.50
544.32	39730.59
544.48	39995.07
544.65	39601.86
544.82	39569.10
544.99	39468.45
545.16	39880.39
545.32	39583.14
545.49	39587.82
545.66	39807.83
545.83	39908.47
546.00	40109.76
546.16	39735.27
546.33	39690.80
546.50	39241.42
546.67	39536.33
546.83	39541.01
547.00	40004.44
547.17	40126.14
547.34	39964.65
547.50	40495.95
547.67	40699.58
547.84	40196.36
548.00	40528.72
548.17	40648.08
548.34	40187.00
548.51	40786.18
548.67	40491.27
548.84	40875.12
549.01	40732.34
549.18	40863.41
549.34	40507.65
549.51	40493.61
549.68	40732.34
549.84	40252.53
550.01	41013.21
550.18	40659.79
550.34	40807.24
550.51	40999.16
550.68	40889.16
550.84	40409.35
551.01	40652.76
551.18	40992.14
551.34	40374.24
551.51	40652.76
551.68	41036.61
551.84	41649.83
552.01	40992.14
552.18	41069.38
552.34	41226.20
552.51	41078.74
552.68	40947.67
552.84	41048.32
553.01	41172.36
553.18	41141.94
553.34	41523.44
553.51	41366.63
553.67	41640.47
553.84	41605.36
554.01	41497.70
554.17	41682.60
554.34	41813.67
554.51	41607.70
554.67	41666.22
554.84	41406.42
555.00	41546.85
555.17	41333.86
555.33	42312.20
555.50	41455.57
555.67	41715.37
555.83	41909.63
556.00	41977.51
556.16	42284.12
556.33	42139.00
556.50	42270.08
556.66	41853.46
556.83	41511.74
556.99	42197.52
557.16	42314.55
557.32	42117.94
557.49	42216.24
557.65	41904.95
557.82	41638.13
557.98	42199.86
558.15	42071.13
558.32	42373.06
558.48	42000.91
558.65	42738.18
558.81	42700.73
558.98	42256.03
559.14	42139.00
559.31	42782.65
559.47	42490.09
559.64	42307.52
559.80	42876.27
559.97	42705.41
560.13	42211.56
560.30	42131.98
560.46	42349.65
560.63	42745.20
560.79	42529.87
560.96	42897.34
561.12	42616.47
561.29	42974.58
561.45	42831.80
561.61	42834.14
561.78	42560.30
561.94	42745.20
562.11	42724.14
562.27	42452.64
562.44	42719.46
562.60	42948.83
562.77	42773.29
562.93	42588.39
563.10	42955.85
563.26	43084.58
563.42	43182.88
563.59	42492.43
563.75	42822.44
563.92	43608.86
564.08	43213.31
564.24	42686.69
564.41	42623.50
564.57	42698.39
564.74	43161.82
564.90	43203.95
565.07	43131.39
565.23	43482.47
565.39	42740.52
565.56	42887.98
565.72	42497.11
565.88	42925.42
566.05	43082.24
566.21	42902.02
566.38	42871.59
566.54	43271.82
566.70	43306.93
566.87	43196.93
567.03	42857.55
567.19	43714.19
567.36	43548.01
567.52	42976.92
567.68	43241.40
567.85	43510.56
568.01	43115.01
568.17	43459.07
568.34	42990.96
568.50	43227.35
568.66	43536.30
568.83	43988.03
568.99	42979.26
569.15	43276.51
569.32	43033.09
569.48	43459.07
569.64	43489.49
569.81	43487.15
569.97	43157.14
570.13	43508.22
570.30	43784.40
570.46	43950.58
570.62	43643.97
570.78	43452.05
570.95	43555.03
571.11	43737.59
571.27	43194.59
571.43	43751.63
571.60	44055.90
571.76	44025.48
571.92	43302.25
572.09	43597.16
572.25	43482.47
572.41	43545.67
572.57	43203.95
572.74	43601.84
572.90	43524.60
573.06	43629.93
573.22	43660.35
573.38	44076.97
573.55	43915.47
573.71	44217.40
573.87	43899.09
574.03	43576.09
574.20	43875.68
574.36	43262.46
574.52	43246.08
574.68	42965.21
574.84	43580.78
575.01	43945.90
575.17	43697.80
575.33	43522.26
575.49	43643.97
575.65	43896.75
575.82	44175.27
575.98	43723.55
576.14	43885.04
576.30	43920.15
576.46	43419.28
576.62	43377.15
576.79	43477.79
576.95	43730.57
577.11	43653.33
577.27	43835.89
577.43	43920.15
577.59	43882.70
577.75	43643.97
577.92	44053.56
578.08	43526.94
578.24	43515.24
578.40	43360.76
578.56	43838.23
578.72	43730.57
578.88	44023.14
579.04	43903.77
579.21	44020.80
579.37	44044.20
579.53	43793.76
579.69	43309.27
579.85	44278.25
580.01	43978.67
580.17	43622.90
580.33	44086.33
580.49	44194.00
580.65	44074.63
580.82	43995.05
580.98	43875.68
581.14	43772.70
581.30	43964.62
581.46	43538.65
581.62	43894.41
581.78	43463.75
581.94	44266.55
582.10	43681.42
582.26	44062.93
582.42	43709.50
582.58	44229.10
582.74	44163.57
582.90	44041.86
583.06	43765.68
583.22	44175.27
583.38	43999.73
583.54	44114.42
583.70	43861.64
583.86	43924.83
584.02	43650.99
584.18	44369.54
584.34	43716.53
584.50	44100.37
584.66	44315.70
584.82	43576.09
584.98	43782.06
585.14	44004.41
585.30	43770.36
585.46	43487.15
585.62	43735.25
585.78	44245.49
585.94	43812.49
586.10	44004.41
586.26	43826.53
586.42	44292.30
586.58	44186.97
586.74	43936.54
586.90	43636.95
587.06	43934.20
587.22	44102.71
587.38	43765.68
587.54	44516.99
587.70	44299.32
587.86	44280.60
588.02	43849.94
588.18	44559.12
588.34	44751.04
588.49	44088.67
588.65	43838.23
588.81	43622.90
588.97	44004.41
589.13	44130.80
589.29	44341.45
589.45	44346.13
589.61	44051.22
589.77	44353.15
589.93	44355.49
590.08	44603.59
590.24	44533.37
590.40	44322.72
590.56	44332.09
590.72	44463.16
590.88	44334.43
