SpectraSuite Data File
++++++++++++++++++++++++++++++++++++
Date: Fri Oct 04 11:48:29 GMT-05:00 2013
User: price-jones
Dark Spectrum Present: No
Reference Spectrum Present: No
Number of Sampled Component Spectra: 1
Spectrometers: USB2+H05261
Integration Time (usec): 100000 (USB2+H05261)
Spectra Averaged: 1 (USB2+H05261)
Boxcar Smoothing: 0 (USB2+H05261)
Correct for Electrical Dark: No (USB2+H05261)
Strobe/Lamp Enabled: No (USB2+H05261)
Correct for Detector Non-linearity: No (USB2+H05261)
Correct for Stray Light: No (USB2+H05261)
Number of Pixels in Processed Spectrum: 2048
>>>>>Begin Processed Spectral Data<<<<<
365.73	42.13
365.92	42.13
366.12	42.13
366.32	0.00
366.52	0.00
366.72	0.00
366.91	0.00
367.11	0.00
367.31	0.00
367.51	0.00
367.70	0.00
367.90	0.00
368.10	0.00
368.30	0.00
368.49	0.00
368.69	0.00
368.89	21.06
369.09	0.00
369.28	0.00
369.48	0.00
369.68	0.00
369.87	0.00
370.07	0.00
370.27	7.02
370.47	74.90
370.66	451.72
370.86	397.89
371.06	465.77
371.25	498.53
371.45	482.15
371.65	538.32
371.84	557.05
372.04	550.03
372.24	496.19
372.44	538.32
372.63	599.18
372.83	620.24
373.03	500.87
373.22	535.98
373.42	706.84
373.62	582.79
373.81	599.18
374.01	620.24
374.21	676.41
374.40	533.64
374.60	669.39
374.79	526.62
374.99	617.90
375.19	648.33
375.38	674.07
375.58	744.29
375.78	631.94
375.97	681.10
376.17	683.44
376.37	622.58
376.56	730.25
376.76	697.48
376.95	657.69
377.15	697.48
377.35	720.88
377.54	732.59
377.74	681.10
377.93	727.91
378.13	748.97
378.33	763.01
378.52	692.80
378.72	802.80
378.91	779.40
379.11	798.12
379.31	830.89
379.50	812.17
379.70	821.53
379.89	835.57
380.09	821.53
380.28	828.55
380.48	945.58
380.68	777.06
380.87	861.32
381.07	866.00
381.26	894.08
381.46	812.17
381.65	816.85
381.85	861.32
382.04	908.13
382.24	868.34
382.43	868.34
382.63	875.36
382.83	992.39
383.02	924.51
383.22	1022.81
383.41	931.53
383.61	877.70
383.80	901.11
384.00	994.73
384.19	896.43
384.39	980.68
384.58	971.32
384.78	917.49
384.97	992.39
385.17	1043.88
385.36	961.96
385.56	1046.22
385.75	983.02
385.95	1039.20
386.14	1048.56
386.34	1018.13
386.53	1034.52
386.72	1039.20
386.92	1111.75
387.11	1027.50
387.31	1118.78
387.50	1074.31
387.70	1181.97
387.89	1102.39
388.09	1118.78
388.28	1174.95
388.48	1139.84
388.67	1139.84
388.86	1107.07
389.06	1149.20
389.25	1149.20
389.45	1273.25
389.64	1193.67
389.84	1193.67
390.03	1249.85
390.22	1224.10
390.42	1200.69
390.61	1233.46
390.81	1277.93
391.00	1273.25
391.19	1336.45
391.39	1308.36
391.58	1268.57
391.78	1348.15
391.97	1355.17
392.16	1366.87
392.36	1296.66
392.55	1357.51
392.75	1399.64
392.94	1378.58
393.13	1327.08
393.33	1446.45
393.52	1406.66
393.71	1507.30
393.91	1511.99
394.10	1455.81
394.29	1465.18
394.49	1371.55
394.68	1474.54
394.88	1511.99
395.07	1551.78
395.26	1542.41
395.46	1481.56
395.65	1577.52
395.84	1504.96
396.04	1643.06
396.23	1640.72
396.42	1540.07
396.62	1577.52
396.81	1715.61
397.00	1636.03
397.19	1722.63
397.39	1638.38
397.58	1748.38
397.77	1708.59
397.97	1764.76
398.16	1626.67
398.35	1783.49
398.55	1757.74
398.74	1823.28
398.93	1905.20
399.12	1760.08
399.32	1804.55
399.51	1713.27
399.70	1907.54
399.90	1858.39
400.09	1900.52
400.28	1886.47
400.47	1895.83
400.67	2003.50
400.86	2008.18
401.05	1886.47
401.24	2015.20
401.44	2111.16
401.63	1947.33
401.82	2057.33
402.01	2094.78
402.21	1954.35
402.40	2179.04
402.59	2080.74
402.78	2190.74
402.97	2176.70
403.17	2211.81
403.36	2136.91
403.55	2214.15
403.74	2296.07
403.93	2186.06
404.13	2204.78
404.32	2286.70
404.51	2296.07
404.70	2296.07
404.89	2282.02
405.09	2471.61
405.28	2399.05
405.47	2319.47
405.66	2476.29
405.85	2342.88
406.05	2450.54
406.24	2548.84
406.43	2462.24
406.62	2506.71
406.81	2502.03
407.00	2366.28
407.20	2502.03
407.39	2525.44
407.58	2562.89
407.77	2612.04
407.96	2698.64
408.15	2644.81
408.34	2665.87
408.54	2787.58
408.73	2743.11
408.92	2637.78
409.11	2780.56
409.30	2846.09
409.49	2771.19
409.68	2801.62
409.87	2696.30
410.07	2888.22
410.26	2810.98
410.45	2965.46
410.64	2832.05
410.83	2967.80
411.02	3066.10
411.21	3122.27
411.40	3042.70
411.59	3119.93
411.78	3049.72
411.98	3021.63
412.17	3204.19
412.36	3178.45
412.55	3283.77
412.74	3379.73
412.93	3365.69
413.12	3314.20
413.31	3428.88
413.50	3314.20
413.69	3398.46
413.88	3510.80
414.07	3365.69
414.26	3496.76
414.45	3487.40
414.64	3574.00
414.83	3754.22
415.02	3473.36
415.22	3602.08
415.41	3794.01
415.60	3679.32
415.79	3740.18
415.98	3714.43
416.17	3836.14
416.36	3997.64
416.55	3889.97
416.74	3941.46
416.93	3908.69
417.12	4117.00
417.31	4152.11
417.50	4145.09
417.69	4159.13
417.88	4231.69
418.07	4142.75
418.26	4196.58
418.45	4255.09
418.64	4411.91
418.83	4320.63
419.02	4304.25
419.21	4465.74
419.39	4585.11
419.58	4269.14
419.77	4425.95
419.96	4440.00
420.15	4442.34
420.34	4435.32
420.53	4538.30
420.72	4634.26
420.91	4482.13
421.10	4608.51
421.29	4638.94
421.48	4631.92
421.67	4655.33
421.86	4737.24
422.05	4760.65
422.24	4795.76
422.43	4688.09
422.61	4718.52
422.80	4748.95
422.99	4978.32
423.18	4809.80
423.37	4936.19
423.56	4873.00
423.75	4758.31
423.94	4758.31
424.13	4507.87
424.32	4716.18
424.50	4987.68
424.69	4812.14
424.88	4830.87
425.07	4802.78
425.26	4655.33
425.45	4828.53
425.64	4873.00
425.83	5076.62
426.01	4774.69
426.20	4912.78
426.39	4870.65
426.58	4898.74
426.77	5027.47
426.96	4999.38
427.15	4884.70
427.33	5006.41
427.52	5064.92
427.71	5156.20
427.90	5179.61
428.09	5224.08
428.28	5240.46
428.46	5193.65
428.65	5167.90
428.84	5413.66
429.03	5399.62
429.22	5160.88
429.40	5348.12
429.59	5490.90
429.78	5242.80
429.97	5179.61
430.16	5256.84
430.34	5549.41
430.53	5738.99
430.72	5488.56
430.91	5586.86
431.10	5514.30
431.28	5523.66
431.47	5563.45
431.66	5680.48
431.85	5738.99
432.03	5907.51
432.22	5872.40
432.41	5748.36
432.60	5856.02
432.79	5893.47
432.97	5933.26
433.16	5970.71
433.35	5856.02
433.54	5973.05
433.72	5849.00
433.91	5874.74
434.10	5916.87
434.28	6061.99
434.47	6094.76
434.66	6174.33
434.85	6221.14
435.03	6090.07
435.22	6108.80
435.41	6230.51
435.59	6289.02
435.78	6221.14
435.97	6155.61
436.16	6408.39
436.34	6342.85
436.53	6406.05
436.72	6478.60
436.90	6342.85
437.09	6644.78
437.28	6392.00
437.46	6537.12
437.65	6565.20
437.84	6658.82
438.02	6731.38
438.21	6710.32
438.40	6520.73
438.58	6817.98
438.77	7007.56
438.96	6944.37
439.14	7037.99
439.33	7115.23
439.52	7110.55
439.70	7129.27
439.89	7131.61
440.08	7293.11
440.26	7393.75
440.45	7311.83
440.63	7393.75
440.82	7548.23
441.01	7487.37
441.19	7625.47
441.38	7548.23
441.57	7613.76
441.75	7599.72
441.94	7801.01
442.12	7763.56
442.31	7922.71
442.50	7911.01
442.68	7744.83
442.87	7885.26
443.05	7911.01
443.24	8126.34
443.43	8072.51
443.61	8205.92
443.80	8290.18
443.98	7868.88
444.17	7892.29
444.35	8135.70
444.54	8285.50
444.73	8257.41
444.91	8159.11
445.10	8058.46
445.28	8105.28
445.47	8238.69
445.65	8299.54
445.84	8182.51
446.02	8446.99
446.21	8315.92
446.39	8201.24
446.58	8367.42
446.77	8365.07
446.95	8140.38
447.14	8512.53
447.32	8470.40
447.51	8458.70
447.69	8390.82
447.88	8491.46
448.06	8486.78
448.25	8351.03
448.43	8500.83
448.62	8442.31
448.80	8336.99
448.99	8564.02
449.17	8608.49
449.36	8704.45
449.54	8952.55
449.73	8793.39
449.91	8746.58
450.10	8936.17
450.28	9053.19
450.46	9151.49
450.65	9146.81
450.83	8947.87
451.02	8910.42
451.20	9041.49
451.39	9020.42
451.57	9053.19
451.76	9078.94
451.94	9104.68
452.13	9284.91
452.31	9214.69
452.49	9060.21
452.68	9259.16
452.86	9282.56
453.05	9542.36
453.23	9579.81
453.42	9142.13
453.60	9233.41
453.78	9434.70
453.97	9275.54
454.15	9366.82
454.34	9465.13
454.52	9408.95
454.70	9811.53
454.89	9666.41
455.07	9762.37
455.26	9687.48
455.44	9888.76
455.62	9666.41
455.81	9860.68
455.99	9774.08
456.17	10033.88
456.36	9994.09
456.54	10113.45
456.73	10349.85
456.91	10389.64
457.09	10394.32
457.28	10448.15
457.46	10305.38
457.64	10436.45
457.83	10443.47
458.01	10164.95
458.19	10799.23
458.38	10565.18
458.56	10684.55
458.74	10869.45
458.93	10452.83
459.11	10537.09
459.29	10572.20
459.48	10696.25
459.66	10888.17
459.84	10815.62
460.03	10953.71
460.21	10782.85
460.39	11056.69
460.57	11077.76
460.76	10895.19
460.94	11356.28
461.12	11105.84
461.31	11117.54
461.49	11309.47
461.67	11126.91
461.85	11538.84
462.04	11386.71
462.22	11817.36
462.40	11461.60
462.59	11356.28
462.77	11435.86
462.95	11562.25
463.13	11386.71
463.32	11761.19
463.50	11709.70
463.68	11978.86
463.86	11847.79
464.05	11833.75
464.23	11468.62
464.41	11955.46
464.59	11559.91
464.78	12060.78
464.96	11793.96
465.14	11882.90
465.32	11941.41
465.50	12107.59
465.69	12161.42
465.87	12004.61
466.05	11850.13
466.23	12215.26
466.41	12351.01
466.60	12343.99
466.78	12128.66
466.96	11906.31
467.14	12299.52
467.32	12203.55
467.51	12559.31
467.69	12020.99
467.87	12393.14
468.05	12512.50
468.23	12456.33
468.41	12241.00
468.60	12512.50
468.78	12748.90
468.96	12432.93
469.14	12475.06
469.32	12842.52
469.50	12482.08
469.69	12966.57
469.87	13069.55
470.05	13324.67
470.23	13191.26
470.41	13027.42
470.59	13226.37
470.77	13219.35
470.95	13259.13
471.14	13537.66
471.32	13149.13
471.50	13734.26
471.68	13532.98
471.86	13619.58
472.04	13692.13
472.22	14080.66
472.40	13511.91
472.58	13675.75
472.77	13727.24
472.95	14057.26
473.13	14494.94
473.31	14078.32
473.49	14050.24
473.67	14272.59
473.85	14387.27
474.03	14494.94
474.21	14654.09
474.39	14808.57
474.57	14705.59
474.75	14820.27
474.93	15094.11
475.12	14953.68
475.30	15187.74
475.48	15080.07
475.66	15007.52
475.84	15171.35
476.02	15138.58
476.20	15318.81
476.38	15875.85
476.56	16018.63
476.74	15908.62
476.92	15726.06
477.10	15922.66
477.28	16341.62
477.46	16133.31
477.64	16432.90
477.82	16783.98
478.00	17057.82
478.18	16748.87
478.36	17069.53
478.54	16994.63
478.72	16961.86
478.90	17413.59
479.08	17752.96
479.26	17668.70
479.44	17769.35
479.62	17912.12
479.80	17994.04
479.98	18300.65
480.16	18560.45
480.34	18377.89
480.52	18579.17
480.70	18726.63
480.88	18651.73
481.06	18834.29
481.24	19051.96
481.41	19161.97
481.59	19552.84
481.77	19719.01
481.95	19920.30
482.13	19822.00
482.31	19754.12
482.49	19924.98
482.67	20425.86
482.85	20262.02
483.03	20737.15
483.21	21055.46
483.39	21245.04
483.57	21315.26
483.74	21525.91
483.92	21420.58
484.10	21266.11
484.28	21640.59
484.46	22092.32
484.64	22427.01
484.82	22150.83
485.00	22532.34
485.18	22810.86
485.35	23311.74
485.53	23021.51
485.71	23290.67
485.89	23449.83
486.07	23440.47
486.25	23419.40
486.43	23662.82
486.61	24166.03
486.78	24484.34
486.96	24575.62
487.14	24805.00
487.32	24704.35
487.50	25076.50
487.68	25043.73
487.85	25553.97
488.03	25460.35
488.21	26162.51
488.39	26136.76
488.57	26263.15
488.75	26319.32
488.92	26862.33
489.10	26953.61
489.28	27138.51
489.46	27531.72
489.64	27328.10
489.81	27765.78
489.99	28067.70
490.17	28133.24
490.35	28486.66
490.53	28617.73
490.70	28814.34
490.88	28952.43
491.06	29228.61
491.24	28638.80
491.41	29315.21
491.59	29502.45
491.77	29565.65
491.95	29607.78
492.13	30183.55
492.30	30515.90
492.48	30085.25
492.66	30686.76
492.84	30405.90
493.01	30883.37
493.19	31117.42
493.37	31740.00
493.54	31704.90
493.72	32037.25
493.90	31608.93
494.08	32290.03
494.25	32685.58
494.43	32568.55
494.61	32734.73
494.79	32751.12
494.96	33060.07
495.14	32716.01
495.32	33591.37
495.49	33383.06
495.67	33806.70
495.85	34462.05
496.02	34466.73
496.20	34040.75
496.38	34181.18
496.55	34698.44
496.73	35367.84
496.91	34988.67
497.09	35185.27
497.26	35599.55
497.44	35211.02
497.62	35637.00
497.79	36006.80
497.97	36121.49
498.14	36645.77
498.32	36854.08
498.50	36673.85
498.67	36996.85
498.85	36673.85
499.03	37249.63
499.20	37123.24
499.38	37347.93
499.56	37361.97
499.73	37820.72
499.91	37731.78
500.08	37872.21
500.26	37921.36
500.44	38047.75
500.61	38370.74
500.79	37977.53
500.97	38932.47
501.14	38810.76
501.32	39138.44
501.49	38866.94
501.67	39040.14
501.84	39344.41
502.02	39157.16
502.20	39812.51
502.37	40404.67
502.55	39590.16
502.72	40212.74
502.90	40018.48
503.07	39878.05
503.25	39854.64
503.43	40465.52
503.60	40924.27
503.78	40982.78
503.95	40638.72
504.13	41050.66
504.30	41057.68
504.48	41165.34
504.65	41282.37
504.83	41425.14
505.01	42064.11
505.18	41415.78
505.36	42139.00
505.53	41794.95
505.71	41961.12
505.88	41944.74
506.06	41902.61
506.23	42735.84
506.41	42026.66
506.58	42934.79
506.76	42747.54
506.93	43042.45
507.11	42873.93
507.28	43208.63
507.46	43421.62
507.63	43861.64
507.81	43845.26
507.98	43543.33
508.16	43866.32
508.33	43859.30
508.50	43665.03
508.68	44041.86
508.85	44978.07
509.03	44685.51
509.20	44839.98
509.38	44718.28
509.55	44790.83
509.73	44720.62
509.90	45280.00
510.08	44751.04
510.25	45186.38
510.42	45272.98
510.60	45481.29
510.77	45488.31
510.95	45806.62
511.12	45507.04
511.30	46061.74
511.47	46344.95
511.64	46363.67
511.82	46443.25
511.99	46649.22
512.17	46506.44
512.34	46080.47
512.51	46745.18
512.69	47110.30
512.86	46515.81
513.04	47365.42
513.21	47356.06
513.38	47578.41
513.56	47461.38
513.73	47224.99
513.90	47627.56
514.08	47573.73
514.25	48062.90
514.43	47969.28
514.60	48027.79
514.77	47985.66
514.95	48275.89
515.12	48282.91
515.29	48404.62
515.47	48732.29
515.64	48755.70
515.81	48523.99
515.99	49214.44
516.16	49268.28
516.33	48975.71
516.51	49251.89
516.68	48989.75
516.85	48914.86
517.03	49219.13
517.20	49095.08
517.37	49628.72
517.54	49488.29
517.72	49617.02
517.89	49827.66
518.06	49741.06
518.24	49855.75
518.41	49380.62
518.58	50038.31
518.75	49839.37
518.93	50354.29
519.10	50220.87
519.27	50148.32
519.45	50351.94
519.62	50478.33
519.79	50635.15
519.96	50766.22
520.14	50770.90
520.31	50618.77
520.48	50770.90
520.65	50780.26
520.83	50885.59
521.00	51143.05
521.17	50787.28
521.34	51358.38
521.52	51484.76
521.69	51459.02
521.86	51725.84
522.03	51454.34
522.20	51786.69
522.38	51868.61
522.55	52053.51
522.72	51941.17
522.89	51859.25
523.07	51999.68
523.24	51786.69
523.41	52416.30
523.58	52133.09
523.75	52062.88
523.92	52100.32
524.10	52259.48
524.27	52439.70
524.44	52687.80
524.61	52493.54
524.78	52638.65
524.96	52720.57
525.13	52589.50
525.30	52538.01
525.47	52898.45
525.64	52966.32
525.81	52971.00
525.98	53366.55
526.16	52968.66
526.33	52996.75
526.50	53570.18
526.67	53333.79
526.84	53289.32
527.01	53294.00
527.18	53591.25
527.36	53478.90
527.53	53769.13
527.70	53851.05
527.87	53998.50
528.04	53579.54
528.21	53602.95
528.38	53844.02
528.55	53694.23
528.72	53865.09
528.89	53876.79
529.07	54057.01
529.24	54094.46
529.41	54157.66
529.58	54075.74
529.75	54197.44
529.92	54066.38
530.09	54150.63
530.26	54419.80
530.43	54155.32
530.60	54375.33
530.77	54466.61
530.94	54351.92
531.11	54251.28
531.28	54539.16
531.46	54623.42
531.63	54724.07
531.80	54791.94
531.97	54747.47
532.14	54913.65
532.31	54775.56
532.48	54899.61
532.65	54756.83
532.82	54649.17
532.99	55246.00
533.16	55004.93
533.33	55011.95
533.50	55512.83
533.67	55168.77
533.84	55065.78
534.01	55475.38
534.18	55128.98
534.35	55489.42
534.52	55365.37
534.69	55723.47
534.86	55695.39
535.03	55501.12
535.20	55796.03
535.37	55791.35
535.54	55873.27
535.71	55454.31
535.88	55772.63
536.05	55784.33
536.22	56060.51
536.38	55976.25
536.55	56226.69
536.72	56093.28
536.89	56044.13
537.06	55927.10
537.23	56116.68
537.40	56004.34
537.57	56123.71
537.74	56095.62
537.91	56456.06
538.08	56418.61
538.25	56303.93
538.42	56357.76
538.59	56427.98
538.75	56266.48
538.92	56329.67
539.09	56498.19
539.26	56549.68
539.43	56355.42
539.60	56870.34
539.77	56732.25
539.94	56868.00
540.11	56556.70
540.28	56484.15
540.44	56425.64
540.61	56666.71
540.78	56552.02
540.95	56687.78
541.12	56947.57
541.29	56818.84
541.46	56933.53
541.62	56825.87
541.79	56961.62
541.96	56739.27
542.13	56973.32
542.30	57024.81
542.47	57031.83
542.63	57495.26
542.80	57406.32
542.97	57450.79
543.14	57518.67
543.31	57425.04
543.48	57492.92
543.64	57712.93
543.81	57928.26
543.98	57829.96
544.15	57619.31
544.32	57818.25
544.48	57979.75
544.65	57867.40
544.82	57717.61
544.99	57710.59
545.16	57883.79
545.32	58056.99
545.49	57897.83
545.66	58174.02
545.83	58340.19
546.00	58251.25
546.16	58138.91
546.33	57715.27
546.50	57687.18
546.67	57897.83
546.83	57682.50
547.00	58099.12
547.17	57932.94
547.34	58056.99
547.50	58152.95
547.67	58412.75
547.84	58197.42
548.00	58342.53
548.17	58541.48
548.34	58501.69
548.51	58548.50
548.67	58555.52
548.84	58445.52
549.01	58265.30
549.18	58436.16
549.34	58487.65
549.51	58384.66
549.68	58599.99
549.84	58583.61
550.01	58728.72
550.18	58578.93
550.34	58766.17
550.51	58880.86
550.68	58979.16
550.84	58660.85
551.01	58843.41
551.18	58794.26
551.34	58595.31
551.51	58815.32
551.68	59096.19
551.84	58871.49
552.01	58922.99
552.18	59145.34
552.34	58908.94
552.51	59154.70
552.68	58941.71
552.84	58976.82
553.01	59227.26
553.18	58906.60
553.34	59107.89
553.51	59185.13
553.67	59229.60
553.84	59564.29
554.01	59449.61
554.17	59451.95
554.34	59189.81
554.51	59119.59
554.67	59576.00
554.84	59379.39
555.00	59381.73
555.17	59489.40
555.33	59384.07
555.50	59189.81
555.67	59426.20
555.83	59440.24
556.00	59568.97
556.16	59583.02
556.33	59552.59
556.50	59561.95
556.66	59678.98
556.83	59686.00
556.99	59915.37
557.16	59891.97
557.32	59824.09
557.49	59721.11
557.65	59529.19
557.82	59590.04
557.98	59877.93
558.15	59639.19
558.32	59924.74
558.48	59891.97
558.65	60048.78
558.81	59767.92
558.98	60088.57
559.14	59751.54
559.31	59971.55
559.47	59948.14
559.64	59924.74
559.80	60203.26
559.97	60069.85
560.13	59803.03
560.30	60058.15
560.46	60102.62
560.63	60058.15
560.79	60093.25
560.96	60224.32
561.12	60200.92
561.29	60065.17
561.45	60261.77
561.61	60329.65
561.78	60275.82
561.94	60254.75
562.11	60273.48
562.27	60252.41
562.44	60273.48
562.60	60360.08
562.77	60385.82
562.93	60264.11
563.10	60544.98
563.26	60214.96
563.42	60355.39
563.59	60313.26
563.75	60404.55
563.92	60294.54
564.08	60133.04
564.24	60350.71
564.41	60315.61
564.57	60320.29
564.74	60191.56
564.90	60472.42
565.07	60350.71
565.23	60502.85
565.39	60608.17
565.56	60570.72
565.72	60287.52
565.88	60591.79
566.05	60530.93
566.21	60465.40
566.38	60402.21
566.54	60477.10
566.70	60575.40
566.87	60753.29
567.03	60486.46
567.19	60746.26
567.36	60584.77
567.52	60626.90
567.68	60743.92
567.85	60537.96
568.01	60563.70
568.17	60697.11
568.34	60500.51
568.50	60713.50
568.66	60807.12
568.83	60872.65
568.99	60734.56
569.15	60654.98
569.32	60582.43
569.48	60673.71
569.64	60748.60
569.81	60865.63
569.97	60839.89
570.13	60809.46
570.30	60800.10
570.46	60921.80
570.62	60832.86
570.78	60764.99
570.95	60734.56
571.11	60783.71
571.27	60624.56
571.43	60985.00
571.60	60940.53
571.76	61069.26
571.92	60917.12
572.09	61113.73
572.25	60975.64
572.41	60699.45
572.57	60889.04
572.74	61034.15
572.90	60938.19
573.06	60858.61
573.22	60788.39
573.38	61087.98
573.55	60989.68
573.71	61120.75
573.87	61099.68
574.03	61022.45
574.20	60947.55
574.36	60757.97
574.52	60877.33
574.68	60999.04
574.84	61193.31
575.01	61120.75
575.17	61130.11
575.33	61010.74
575.49	60882.02
575.65	61277.57
575.82	61188.63
575.98	61076.28
576.14	61193.31
576.30	61237.78
576.46	61048.19
576.62	61048.19
576.79	60905.42
576.95	60959.25
577.11	60977.98
577.27	61062.24
577.43	61219.05
577.59	60992.02
577.75	61151.18
577.92	60938.19
578.08	61048.19
578.24	61139.47
578.40	61078.62
578.56	60977.98
578.72	61123.09
578.88	61394.59
579.04	61141.81
579.21	61193.31
579.37	61078.62
579.53	61305.65
579.69	61090.32
579.85	61228.41
580.01	61315.01
580.17	60999.04
580.33	61212.03
580.49	61415.66
580.65	61432.04
580.82	61300.97
580.98	61399.27
581.14	61277.57
581.30	61373.53
581.46	61202.67
581.62	60966.27
581.78	60914.78
581.94	61137.13
582.10	61312.67
582.26	61258.84
582.42	61212.03
582.58	61307.99
582.74	61340.76
582.90	61378.21
583.06	61368.85
583.22	61263.52
583.38	61422.68
583.54	61504.60
583.70	61247.14
583.86	61293.95
584.02	61354.80
584.18	61303.31
584.34	61563.11
584.50	61462.47
584.66	61389.91
584.82	61116.07
584.98	61305.65
585.14	61289.27
585.30	61169.90
585.46	61221.39
585.62	61113.73
585.78	61542.05
585.94	61167.56
586.10	61272.88
586.26	61441.40
586.42	61616.94
586.58	61499.92
586.74	61488.21
586.90	61310.33
587.06	61345.44
587.22	61403.95
587.38	61340.76
587.54	61396.93
587.70	61616.94
587.86	61425.02
588.02	61539.71
588.18	61652.05
588.34	61588.86
588.49	61591.20
588.65	61291.61
588.81	61528.00
588.97	61373.53
589.13	61406.30
