SpectraSuite Data File
++++++++++++++++++++++++++++++++++++
Date: Fri Oct 04 11:48:22 GMT-05:00 2013
User: price-jones
Dark Spectrum Present: No
Reference Spectrum Present: No
Number of Sampled Component Spectra: 1
Spectrometers: USB2+H05261
Integration Time (usec): 100000 (USB2+H05261)
Spectra Averaged: 1 (USB2+H05261)
Boxcar Smoothing: 0 (USB2+H05261)
Correct for Electrical Dark: No (USB2+H05261)
Strobe/Lamp Enabled: No (USB2+H05261)
Correct for Detector Non-linearity: No (USB2+H05261)
Correct for Stray Light: No (USB2+H05261)
Number of Pixels in Processed Spectrum: 2048
>>>>>Begin Processed Spectral Data<<<<<
365.73	0.00
365.92	0.00
366.12	0.00
366.32	0.00
366.52	0.00
366.72	0.00
366.91	0.00
367.11	0.00
367.31	0.00
367.51	0.00
367.70	0.00
367.90	0.00
368.10	0.00
368.30	0.00
368.49	0.00
368.69	0.00
368.89	0.00
369.09	0.00
369.28	0.00
369.48	0.00
369.68	0.00
369.87	0.00
370.07	0.00
370.27	16.38
370.47	112.35
370.66	358.10
370.86	454.06
371.06	444.70
371.25	437.68
371.45	409.59
371.65	538.32
371.84	510.24
372.04	519.60
372.24	550.03
372.44	468.11
372.63	531.30
372.83	547.69
373.03	440.02
373.22	512.58
373.42	575.77
373.62	559.39
373.81	547.69
374.01	648.33
374.21	674.07
374.40	566.41
374.60	655.35
374.79	660.03
374.99	601.52
375.19	587.47
375.38	629.60
375.58	699.82
375.78	676.41
375.97	671.73
376.17	683.44
376.37	613.22
376.56	716.20
376.76	737.27
376.95	620.24
377.15	697.48
377.35	739.61
377.54	718.54
377.74	671.73
377.93	730.25
378.13	599.18
378.33	798.12
378.52	798.12
378.72	741.95
378.91	777.06
379.11	718.54
379.31	812.17
379.50	765.36
379.70	842.59
379.89	805.14
380.09	821.53
380.28	819.19
380.48	802.80
380.68	774.72
380.87	744.29
381.07	896.43
381.26	863.66
381.46	889.40
381.65	880.04
381.85	844.93
382.04	847.27
382.24	908.13
382.43	870.68
382.63	894.08
382.83	758.33
383.02	905.79
383.22	966.64
383.41	901.11
383.61	966.64
383.80	976.00
384.00	931.53
384.19	919.83
384.39	1064.94
384.58	959.62
384.78	1004.09
384.97	964.30
385.17	973.66
385.36	997.07
385.56	1102.39
385.75	940.90
385.95	990.05
386.14	1001.75
386.34	1015.79
386.53	1109.41
386.72	1090.69
386.92	1074.31
387.11	1062.60
387.31	1027.50
387.50	1104.73
387.70	1163.25
387.89	1071.97
388.09	1076.65
388.28	1046.22
388.48	1036.86
388.67	1041.54
388.86	1118.78
389.06	1142.18
389.25	1263.89
389.45	1170.27
389.64	1217.08
389.84	1299.00
390.03	1203.04
390.22	1224.10
390.42	1137.50
390.61	1219.42
390.81	1254.53
391.00	1240.48
391.19	1287.29
391.39	1284.95
391.58	1273.25
391.78	1277.93
391.97	1240.48
392.16	1289.64
392.36	1399.64
392.55	1418.36
392.75	1383.26
392.94	1451.13
393.13	1465.18
393.33	1348.15
393.52	1439.43
393.71	1413.68
393.91	1490.92
394.10	1315.38
394.29	1430.07
394.49	1439.43
394.68	1500.28
394.88	1551.78
395.07	1516.67
395.26	1448.79
395.46	1561.14
395.65	1659.44
395.84	1579.86
396.04	1727.32
396.23	1537.73
396.42	1666.46
396.62	1680.50
396.81	1593.90
397.00	1577.52
397.19	1755.40
397.39	1710.93
397.58	1640.72
397.77	1717.95
397.97	1797.53
398.16	1736.68
398.35	1755.40
398.55	1732.00
398.74	1734.34
398.93	1900.52
399.12	1799.87
399.32	1802.21
399.51	1851.36
399.70	1858.39
399.90	1825.62
400.09	1952.01
400.28	2003.50
400.47	1928.60
400.67	2050.31
400.86	2036.27
401.05	1893.49
401.24	1966.05
401.44	2080.74
401.63	2127.55
401.82	2087.76
402.01	2045.63
402.21	2012.86
402.40	2169.68
402.59	2204.78
402.78	2146.27
402.97	2361.60
403.17	2235.21
403.36	2186.06
403.55	2326.49
403.74	2256.28
403.93	2450.54
404.13	2396.71
404.32	2202.44
404.51	2230.53
404.70	2487.99
404.89	2300.75
405.09	2459.90
405.28	2473.95
405.47	2567.57
405.66	2516.08
405.85	2443.52
406.05	2518.42
406.24	2520.76
406.43	2544.16
406.62	2492.67
406.81	2567.57
407.00	2565.23
407.20	2534.80
407.39	2527.78
407.58	2696.30
407.77	2722.04
407.96	2768.85
408.15	2846.09
408.34	2846.09
408.54	2925.67
408.73	2881.20
408.92	2864.82
409.11	2871.84
409.30	2911.63
409.49	2991.20
409.68	2946.73
409.87	3023.97
410.07	3061.42
410.26	3066.10
410.45	2984.18
410.64	3218.24
410.83	3112.91
411.02	3087.17
411.21	3222.92
411.40	3215.90
411.59	3183.13
411.78	3169.09
411.98	3180.79
412.17	3410.16
412.36	3325.90
412.55	3314.20
412.74	3412.50
412.93	3442.93
413.12	3403.14
413.31	3613.79
413.50	3625.49
413.69	3620.81
413.88	3669.96
414.07	3676.98
414.26	3796.35
414.45	3801.03
414.64	3754.22
414.83	3878.27
415.02	3929.76
415.22	3873.59
415.41	4039.76
415.60	4042.11
415.79	3995.29
415.98	4131.05
416.17	4119.34
416.36	4046.79
416.55	4154.45
416.74	4156.79
416.93	4217.65
417.12	4280.84
417.31	4196.58
417.50	4367.44
417.69	4430.63
417.88	4620.22
418.07	4449.36
418.26	4400.21
418.45	4493.83
418.64	4688.09
418.83	4528.94
419.02	4545.32
419.21	4655.33
419.39	4550.00
419.58	4608.51
419.77	4592.13
419.96	4786.40
420.15	4975.98
420.34	4676.39
420.53	4800.44
420.72	4938.53
420.91	4882.36
421.10	5111.73
421.29	5055.56
421.48	4821.50
421.67	4858.95
421.86	5032.15
422.05	5165.56
422.24	4966.62
422.43	4992.36
422.61	5174.92
422.80	5116.41
422.99	5221.74
423.18	5085.98
423.37	5174.92
423.56	5294.29
423.75	5195.99
423.94	5135.14
424.13	4716.18
424.32	4938.53
424.50	5078.96
424.69	5303.65
424.88	5205.35
425.07	5212.37
425.26	5060.24
425.45	5128.11
425.64	5135.14
425.83	5252.16
426.01	5336.42
426.20	5165.56
426.39	5355.15
426.58	5172.58
426.77	5390.25
426.96	5357.49
427.15	5362.17
427.33	5497.92
427.52	5282.59
427.71	5486.22
427.90	5474.51
428.09	5659.42
428.28	5678.14
428.46	5586.86
428.65	5563.45
428.84	5778.78
429.03	5621.97
429.22	5675.80
429.40	5755.38
429.59	5797.51
429.78	5549.41
429.97	5315.36
430.16	5589.20
430.34	5909.85
430.53	5944.96
430.72	5930.92
430.91	5870.06
431.10	5870.06
431.28	5980.07
431.47	6122.84
431.66	5996.45
431.85	6047.94
432.03	6085.39
432.22	6223.48
432.41	6171.99
432.60	6244.55
432.79	6258.59
432.97	6260.93
433.16	6200.08
433.35	6218.80
433.54	6487.96
433.72	6445.84
433.91	6452.86
434.10	6335.83
434.28	6328.81
434.47	6455.20
434.66	6534.78
434.85	6523.07
435.03	6558.18
435.22	6670.53
435.41	6778.19
435.59	6494.99
435.78	6808.62
435.97	6778.19
436.16	6609.67
436.34	6729.04
436.53	6942.03
436.72	6939.69
436.90	6740.74
437.09	7108.21
437.28	6810.96
437.46	6988.84
437.65	6883.52
437.84	7171.40
438.02	7166.72
438.21	7248.64
438.40	7262.68
438.58	7169.06
438.77	7377.37
438.96	7300.13
439.14	7569.29
439.33	7583.34
439.52	7691.00
439.70	7583.34
439.89	7861.86
440.08	7847.82
440.26	7810.37
440.45	7772.92
440.63	7960.16
440.82	7915.69
441.01	7974.21
441.19	8067.83
441.38	8046.76
441.57	8138.04
441.75	8021.02
441.94	8355.71
442.12	8320.60
442.31	8484.44
442.50	8533.59
442.68	8386.14
442.87	8594.45
443.05	8484.44
443.24	8608.49
443.43	8564.02
443.61	8514.87
443.80	8917.44
443.98	8627.21
444.17	8449.33
444.35	8627.21
444.54	8706.79
444.73	8821.48
444.91	8615.51
445.10	8688.07
445.28	9046.17
445.47	8779.35
445.65	8844.88
445.84	9081.28
446.02	9053.19
446.21	8872.97
446.39	8716.16
446.58	8926.80
446.77	9109.36
446.95	8762.97
447.14	8964.25
447.32	9179.58
447.51	9001.70
447.69	8856.59
447.88	9092.98
448.06	8947.87
448.25	9046.17
448.43	9228.73
448.62	9053.19
448.80	9039.15
448.99	9167.88
449.17	9184.26
449.36	9069.58
449.54	9336.40
449.73	9474.49
449.91	9495.55
450.10	9516.62
450.28	9689.82
450.46	9502.58
450.65	9418.32
450.83	9650.03
451.02	9437.04
451.20	9680.46
451.39	9806.84
451.57	9666.41
451.76	9755.35
451.94	9687.48
452.13	10033.88
452.31	9874.72
452.49	9846.63
452.68	10057.28
452.86	9820.89
453.05	9947.28
453.23	10015.15
453.42	9975.36
453.60	10073.67
453.78	10068.98
453.97	10008.13
454.15	10108.77
454.34	10108.77
454.52	10265.59
454.70	10317.08
454.89	10401.34
455.07	10148.56
455.26	10235.16
455.44	10469.22
455.62	10490.28
455.81	10537.09
455.99	10520.71
456.17	10462.19
456.36	10635.39
456.54	10970.09
456.73	10993.50
456.91	11112.86
457.09	10942.00
457.28	11037.97
457.46	10902.22
457.64	11227.55
457.83	11154.99
458.01	11267.34
458.19	11328.19
458.38	11220.53
458.56	11424.15
458.74	11288.40
458.93	11417.13
459.11	11339.90
459.29	11459.26
459.48	11740.13
459.66	11426.50
459.84	11583.31
460.03	11906.31
460.21	11576.29
460.39	11735.45
460.57	11775.24
460.76	11707.36
460.94	11793.96
461.12	11868.86
461.31	11868.86
461.49	11927.37
461.67	11562.25
461.85	11819.71
462.04	12011.63
462.22	12545.27
462.40	12255.04
462.59	12301.86
462.77	12170.79
462.95	12343.99
463.13	12353.35
463.32	12564.00
463.50	12351.01
463.68	12381.43
463.86	12486.76
464.05	12372.07
464.23	12439.95
464.41	12716.13
464.59	12374.41
464.78	12627.19
464.96	12617.83
465.14	12348.67
465.32	12753.58
465.50	12894.01
465.69	12978.27
465.87	12730.17
466.05	12863.58
466.23	12802.73
466.41	13076.57
466.60	13547.02
466.78	12884.65
466.96	12945.50
467.14	13109.34
467.32	13165.51
467.51	13462.76
467.69	12872.95
467.87	12933.80
468.05	13355.10
468.23	13167.85
468.41	13235.73
468.60	13209.98
468.78	13429.99
468.96	13247.43
469.14	13631.28
469.32	13692.13
469.50	13310.63
469.69	13907.46
469.87	13888.74
470.05	13921.51
470.23	14090.02
470.41	14164.92
470.59	13970.66
470.77	13942.57
470.95	14366.21
471.14	14200.03
471.32	14366.21
471.50	14539.41
471.68	14686.86
471.86	14593.24
472.04	14773.46
472.22	14864.74
472.40	14565.15
472.58	14857.72
472.77	15044.96
472.95	15131.56
473.13	15648.82
473.31	15147.95
473.49	14988.79
473.67	15286.04
473.85	15255.61
474.03	15442.85
474.21	15536.48
474.39	15620.74
474.57	15864.15
474.75	15819.68
474.93	16184.80
475.12	15997.56
475.30	16266.72
475.48	15936.71
475.66	16149.70
475.84	16341.62
476.02	16070.12
476.20	16365.03
476.38	16552.27
476.56	17003.99
476.74	17001.65
476.92	16847.18
477.10	17109.32
477.28	17460.40
477.46	17207.62
477.64	17436.99
477.82	17970.63
478.00	18106.38
478.18	17884.03
478.36	18302.99
478.54	18263.20
478.72	18740.67
478.90	18499.59
479.08	18775.78
479.26	18855.36
479.44	18995.79
479.62	19414.74
479.80	18956.00
479.98	19257.93
480.16	19807.95
480.34	19410.06
480.52	19859.45
480.70	19861.79
480.88	19824.34
481.06	20189.46
481.24	20198.82
481.41	20475.01
481.59	20531.18
481.77	20889.28
481.95	20702.04
482.13	21415.90
482.31	21532.93
482.49	21621.87
482.67	21710.81
482.85	22036.14
483.03	22188.28
483.21	22382.54
483.39	22258.49
483.57	22443.40
483.74	22593.19
483.92	22710.22
484.10	22951.29
484.28	23496.64
484.46	23733.03
484.64	23939.00
484.82	23323.44
485.00	23988.15
485.18	24402.43
485.35	24467.96
485.53	24308.80
485.71	24634.14
485.89	25366.73
486.07	24821.38
486.25	24903.30
486.43	25149.06
486.61	25619.50
486.78	25919.09
486.96	26265.49
487.14	26295.92
487.32	25986.97
487.50	26649.34
487.68	26684.45
487.85	27044.89
488.03	27466.19
488.21	27377.25
488.39	28072.39
488.57	27995.15
488.75	28177.71
488.92	28320.48
489.10	28816.68
489.28	28833.06
489.46	29142.01
489.64	28833.06
489.81	29551.60
489.99	29848.85
490.17	29771.61
490.35	30190.57
490.53	30333.34
490.70	30270.15
490.88	30572.08
491.06	30902.09
491.24	30611.87
491.41	31442.76
491.59	31550.42
491.77	31735.32
491.95	31831.29
492.13	31948.31
492.30	32503.02
492.48	32168.32
492.66	32629.41
492.84	32610.68
493.01	32851.76
493.19	33029.64
493.37	33490.73
493.54	33472.00
493.72	33883.94
493.90	33591.37
494.08	33645.20
494.25	34235.02
494.43	34506.52
494.61	35028.46
494.79	34785.04
494.96	34965.26
495.14	35234.42
495.32	35641.68
495.49	35770.41
495.67	35948.29
495.85	35950.63
496.02	36367.24
496.20	36470.23
496.38	36414.05
496.55	36868.12
496.73	37359.63
496.91	36861.10
497.09	37570.28
497.26	37553.90
497.44	37914.34
497.62	38286.48
497.79	38581.39
497.97	37921.36
498.14	38569.69
498.32	38799.06
498.50	38557.99
498.67	38974.60
498.85	38752.25
499.03	39358.45
499.20	39126.74
499.38	39412.28
499.56	39636.97
499.73	39999.76
499.91	39714.21
500.08	40587.23
500.26	40282.96
500.44	40364.88
500.61	40624.68
500.79	40631.70
500.97	41088.10
501.14	41078.74
501.32	41200.45
501.49	41364.29
501.67	41331.52
501.84	41408.76
502.02	41640.47
502.20	42061.77
502.37	42031.34
502.55	41813.67
502.72	41958.78
502.90	42480.72
503.07	41921.34
503.25	42464.34
503.43	42494.77
503.60	43274.16
503.78	43023.73
503.95	43192.25
504.13	43002.66
504.30	43140.75
504.48	43604.18
504.65	43690.78
504.83	43966.96
505.01	44507.63
505.18	43878.02
505.36	44222.08
505.53	44287.62
505.71	44531.03
505.88	44437.41
506.06	44252.51
506.23	45186.38
506.41	45013.18
506.58	45179.36
506.76	45160.64
506.93	45420.44
507.11	45064.67
507.28	45490.65
507.46	45844.07
507.63	46171.75
507.81	45921.31
507.98	45874.50
508.16	46270.05
508.33	46309.84
508.50	46307.50
508.68	46593.04
508.85	46609.43
509.03	46958.17
509.20	47196.90
509.38	47491.81
509.55	47454.36
509.73	47295.21
509.90	47442.66
510.08	47611.18
510.25	47636.92
510.42	47943.53
510.60	48030.13
510.77	48090.99
510.95	48102.69
511.12	47931.83
511.30	48341.42
511.47	48257.17
511.64	48299.30
511.82	48928.90
511.99	48512.28
512.17	49008.48
512.34	48598.88
512.51	49179.34
512.69	49277.64
512.86	49279.98
513.04	49778.51
513.21	49806.60
513.38	49392.33
513.56	49631.06
513.73	49499.99
513.90	49570.21
514.08	49635.74
514.25	50129.59
514.43	49986.82
514.60	50398.76
514.77	50019.59
514.95	50756.86
515.12	50312.16
515.29	50227.90
515.47	50562.59
515.64	50630.47
515.81	50948.78
515.99	51129.00
516.16	51180.49
516.33	50941.76
516.51	51196.88
516.68	50841.12
516.85	51318.59
517.03	51419.23
517.20	51496.47
517.37	51739.88
517.54	51742.22
517.72	51828.82
517.89	51728.18
518.06	51676.69
518.24	51508.17
518.41	51835.84
518.58	51915.42
518.75	52135.43
518.93	52325.02
519.10	52048.83
519.27	52320.34
519.45	52383.53
519.62	52423.32
519.79	52416.30
519.96	52765.04
520.14	52774.40
520.31	52708.86
520.48	53031.86
520.65	52552.05
520.83	52722.91
521.00	53055.26
521.17	53109.10
521.34	52973.34
521.52	53209.74
521.69	53167.61
521.86	53404.00
522.03	53595.93
522.20	53904.88
522.38	53675.51
522.55	53567.84
522.72	53385.28
522.89	53738.70
523.07	54017.22
523.24	53703.59
523.41	54033.61
523.58	53932.96
523.75	54335.54
523.92	53869.77
524.10	54071.06
524.27	54075.74
524.44	54340.22
524.61	54518.10
524.78	54440.86
524.96	54707.68
525.13	54478.31
525.30	54482.99
525.47	54550.87
525.64	54515.76
525.81	54880.88
525.98	55037.70
526.16	55147.70
526.33	54859.82
526.50	55058.76
526.67	54897.27
526.84	55061.10
527.01	55098.55
527.18	55185.15
527.36	55150.04
527.53	55297.50
527.70	55489.42
527.87	55306.86
528.04	55323.24
528.21	55557.30
528.38	55419.20
528.55	55517.51
528.72	55477.72
528.89	55826.46
529.07	55494.10
529.24	55730.50
529.41	55891.99
529.58	55458.99
529.75	55669.64
529.92	55908.38
530.09	55842.84
530.26	56051.15
530.43	56156.47
530.60	56142.43
530.77	55915.40
530.94	56083.92
531.11	55814.76
531.28	55978.59
531.46	56086.26
531.63	56451.38
531.80	56495.85
531.97	56512.23
532.14	56479.47
532.31	56505.21
532.48	56491.17
532.65	56837.57
532.82	56594.15
532.99	56708.84
533.16	56477.13
533.33	56844.59
533.50	57083.33
533.67	56968.64
533.84	56566.07
534.01	56645.65
534.18	56985.02
534.35	57088.01
534.52	56924.17
534.69	57296.31
534.86	57268.23
535.03	56903.10
535.20	57116.09
535.37	57031.83
535.54	57268.23
535.71	57324.40
535.88	57195.67
536.05	57088.01
536.22	57528.03
536.38	57434.41
536.55	57394.62
536.72	57616.97
536.89	57495.26
537.06	57701.23
537.23	57668.46
537.40	57539.73
537.57	57883.79
537.74	57616.97
537.91	57759.74
538.08	57602.92
538.25	57652.08
538.42	57743.36
538.59	57808.89
538.75	57666.12
538.92	57771.44
539.09	58045.29
539.26	58166.99
539.43	58136.57
539.60	58141.25
539.77	58138.91
539.94	58190.40
540.11	58363.60
540.28	58141.25
540.44	58358.92
540.61	58316.79
540.78	58014.86
540.95	58255.93
541.12	58230.19
541.29	58314.45
541.46	58347.21
541.62	58515.73
541.79	58555.52
541.96	58166.99
542.13	58396.37
542.30	58426.79
542.47	58784.90
542.63	58705.32
542.80	58805.96
542.97	59009.59
543.14	59028.31
543.31	58876.18
543.48	58717.02
543.64	59164.06
543.81	58918.31
543.98	59274.07
544.15	58904.26
544.32	59203.85
544.48	59288.11
544.65	59093.85
544.82	59049.38
544.99	59051.72
545.16	59313.86
545.32	59175.76
545.49	59573.66
545.66	59599.40
545.83	59355.99
546.00	59384.07
546.16	59533.87
546.33	59260.02
546.50	59070.44
546.67	59449.61
546.83	59051.72
547.00	59625.15
547.17	59568.97
547.34	59676.64
547.50	59718.77
547.67	59941.12
547.84	59728.13
548.00	59845.16
548.17	59697.70
548.34	59917.71
548.51	59732.81
548.67	59875.58
548.84	59819.41
549.01	59695.36
549.18	59840.48
549.34	59873.24
549.51	59948.14
549.68	59964.52
549.84	59831.11
550.01	60037.08
550.18	59950.48
550.34	60100.28
550.51	60097.94
550.68	60055.81
550.84	59896.65
551.01	60102.62
551.18	59943.46
551.34	60135.38
551.51	60109.64
551.68	60189.22
551.84	60327.31
552.01	60214.96
552.18	60369.44
552.34	60102.62
552.51	60336.67
552.68	60142.41
552.84	60243.05
553.01	60317.95
553.18	60533.28
553.34	60603.49
553.51	60463.06
553.67	60666.69
553.84	60678.39
554.01	60811.80
554.17	60521.57
554.34	60444.33
554.51	60549.66
554.67	60823.50
554.84	60645.62
555.00	60781.37
555.17	60533.28
555.33	60678.39
555.50	60678.39
555.67	60687.75
555.83	60598.81
556.00	60718.18
556.16	60949.89
556.33	60741.58
556.50	60814.14
556.66	60992.02
556.83	60900.74
556.99	60987.34
557.16	61010.74
557.32	60942.87
557.49	61113.73
557.65	60903.08
557.82	60650.30
557.98	60872.65
558.15	60942.87
558.32	61137.13
558.48	61036.49
558.65	61034.15
558.81	61113.73
558.98	61254.16
559.14	60926.49
559.31	60989.68
559.47	60947.55
559.64	61057.56
559.80	61212.03
559.97	61200.33
560.13	61193.31
560.30	61277.57
560.46	61132.45
560.63	61312.67
560.79	61368.85
560.96	61293.95
561.12	61109.05
561.29	61183.94
561.45	61165.22
561.61	61483.53
561.78	61448.42
561.94	61460.13
562.11	61581.84
562.27	61249.48
562.44	61506.94
562.60	61457.79
562.77	61551.41
562.93	61439.06
563.10	61900.15
563.26	61272.88
563.42	61785.46
563.59	61675.46
563.75	61616.94
563.92	61586.52
564.08	61542.05
564.24	61476.51
564.41	61413.32
564.57	61614.60
564.74	61722.27
564.90	61652.05
565.07	61467.15
565.23	61645.03
565.39	61829.93
565.56	61703.54
565.72	61577.15
565.88	61595.88
566.05	61532.68
566.21	61645.03
566.38	61733.97
566.54	61790.14
566.70	61886.10
566.87	61937.60
567.03	61813.55
567.19	62012.49
567.36	61834.61
567.52	61776.10
567.68	61750.35
567.85	61731.63
568.01	61918.87
568.17	61909.51
568.34	61851.00
568.50	61998.45
568.66	61696.52
568.83	61956.32
568.99	61757.38
569.15	61743.33
569.32	61806.53
569.48	61806.53
569.64	61879.08
569.81	61865.04
569.97	61705.88
570.13	62073.35
570.30	61764.40
570.46	61897.81
570.62	62003.13
570.78	61743.33
570.95	61656.73
571.11	61902.49
571.27	61586.52
571.43	62024.20
571.60	61914.19
571.76	61984.41
571.92	62049.94
572.09	62082.71
572.25	62227.82
572.41	61951.64
572.57	62075.69
572.74	62220.80
572.90	62101.43
573.06	61993.77
573.22	61851.00
573.38	61979.73
573.55	62176.33
573.71	62356.55
573.87	62298.04
574.03	62108.46
574.20	62124.84
574.36	61909.51
574.52	61893.13
574.68	62188.03
574.84	62141.22
575.01	62075.69
575.17	62078.03
575.33	62253.57
575.49	62213.78
575.65	62211.44
575.82	62096.75
575.98	62251.23
576.14	62286.34
576.30	62178.67
576.46	62157.61
576.62	62007.81
576.79	62216.12
576.95	62096.75
577.11	62164.63
577.27	62363.57
577.43	62269.95
577.59	62017.17
577.75	62117.82
577.92	61953.98
578.08	61909.51
578.24	62092.07
578.40	62237.19
578.56	62237.19
578.72	62302.72
578.88	62433.79
579.04	62211.44
579.21	62351.87
579.37	62080.37
579.53	62328.47
579.69	62225.48
579.85	62223.14
580.01	62213.78
580.17	62178.67
580.33	62255.91
580.49	62288.68
580.65	62492.30
580.82	62604.65
580.98	62384.64
581.14	62279.31
581.30	62237.19
581.46	62183.35
581.62	62377.62
581.78	62157.61
581.94	62356.55
582.10	62253.57
582.26	62511.03
582.42	62602.31
582.58	62553.16
582.74	62276.97
582.90	62333.15
583.06	62370.60
583.22	62239.53
583.38	62211.44
583.54	62386.98
583.70	62234.84
583.86	62108.46
584.02	62181.01
584.18	62588.27
584.34	62426.77
584.50	62410.38
584.66	62138.88
584.82	62328.47
584.98	62363.57
585.14	62368.26
585.30	62375.28
585.46	62585.92
585.62	62415.07
585.78	62550.82
585.94	62223.14
586.10	62494.64
586.26	62457.20
586.42	62628.05
586.58	62536.77
586.74	62447.83
586.90	62307.40
587.06	62220.80
587.22	62508.69
587.38	62333.15
587.54	62822.32
587.70	62550.82
587.86	62522.73
588.02	62475.92
588.18	62693.59
588.34	62660.82
588.49	62356.55
588.65	62405.70
588.81	62291.02
588.97	62417.41
