SpectraSuite Data File
++++++++++++++++++++++++++++++++++++
Date: Fri Oct 04 11:48:42 GMT-05:00 2013
User: price-jones
Dark Spectrum Present: No
Reference Spectrum Present: No
Number of Sampled Component Spectra: 1
Spectrometers: USB2+H05261
Integration Time (usec): 100000 (USB2+H05261)
Spectra Averaged: 1 (USB2+H05261)
Boxcar Smoothing: 0 (USB2+H05261)
Correct for Electrical Dark: No (USB2+H05261)
Strobe/Lamp Enabled: No (USB2+H05261)
Correct for Detector Non-linearity: No (USB2+H05261)
Correct for Stray Light: No (USB2+H05261)
Number of Pixels in Processed Spectrum: 2048
>>>>>Begin Processed Spectral Data<<<<<
365.73	21.06
365.92	21.06
366.12	21.06
366.32	0.00
366.52	0.00
366.72	0.00
366.91	0.00
367.11	0.00
367.31	0.00
367.51	0.00
367.70	4.68
367.90	0.00
368.10	0.00
368.30	0.00
368.49	0.00
368.69	0.00
368.89	0.00
369.09	0.00
369.28	0.00
369.48	0.00
369.68	0.00
369.87	0.00
370.07	7.02
370.27	30.43
370.47	0.00
370.66	257.46
370.86	236.39
371.06	390.87
371.25	411.93
371.45	205.97
371.65	299.59
371.84	334.70
372.04	320.65
372.24	404.91
372.44	306.61
372.63	362.78
372.83	393.21
373.03	348.74
373.22	339.38
373.42	390.87
373.62	390.87
373.81	322.99
374.01	477.47
374.21	440.02
374.40	339.38
374.60	430.66
374.79	339.38
374.99	449.38
375.19	360.44
375.38	379.17
375.58	409.59
375.78	433.00
375.97	484.49
376.17	435.34
376.37	404.91
376.56	440.02
376.76	395.55
376.95	339.38
377.15	409.59
377.35	463.43
377.54	486.83
377.74	407.25
377.93	463.43
378.13	489.17
378.33	472.79
378.52	372.15
378.72	498.53
378.91	440.02
379.11	456.40
379.31	475.13
379.50	397.89
379.70	528.96
379.89	540.66
380.09	552.37
380.28	496.19
380.48	585.13
380.68	500.87
380.87	423.64
381.07	587.47
381.26	613.22
381.46	463.43
381.65	451.72
381.85	580.45
382.04	491.51
382.24	524.28
382.43	561.73
382.63	524.28
382.83	535.98
383.02	578.11
383.22	603.86
383.41	571.09
383.61	533.64
383.80	589.82
384.00	547.69
384.19	571.09
384.39	573.43
384.58	547.69
384.78	606.20
384.97	596.84
385.17	557.05
385.36	620.24
385.56	695.14
385.75	662.37
385.95	585.13
386.14	645.99
386.34	566.41
386.53	627.26
386.72	638.97
386.92	727.91
387.11	770.04
387.31	624.92
387.50	641.31
387.70	674.07
387.89	660.03
388.09	678.76
388.28	739.61
388.48	636.63
388.67	669.39
388.86	702.16
389.06	648.33
389.25	627.26
389.45	706.84
389.64	720.88
389.84	770.04
390.03	755.99
390.22	842.59
390.42	809.83
390.61	739.61
390.81	702.16
391.00	748.97
391.19	812.17
391.39	777.06
391.58	737.27
391.78	842.59
391.97	856.64
392.16	809.83
392.36	847.27
392.55	830.89
392.75	765.36
392.94	720.88
393.13	795.78
393.33	835.57
393.52	774.72
393.71	826.21
393.91	889.40
394.10	868.34
394.29	844.93
394.49	849.61
394.68	861.32
394.88	957.28
395.07	931.53
395.26	844.93
395.46	866.00
395.65	912.81
395.84	1013.45
396.04	1022.81
396.23	940.90
396.42	926.85
396.62	1013.45
396.81	1004.09
397.00	968.98
397.19	992.39
397.39	1015.79
397.58	936.21
397.77	1022.81
397.97	987.71
398.16	1064.94
398.35	1027.50
398.55	950.26
398.74	1029.84
398.93	1163.25
399.12	1097.71
399.32	1074.31
399.51	1093.03
399.70	1107.07
399.90	1088.35
400.09	1160.91
400.28	1186.65
400.47	1116.44
400.67	1153.88
400.86	1177.29
401.05	1207.72
401.24	1263.89
401.44	1231.12
401.63	1212.40
401.82	1320.06
402.01	1282.61
402.21	1249.85
402.40	1245.16
402.59	1343.47
402.78	1287.29
402.97	1364.53
403.17	1291.98
403.36	1336.45
403.55	1310.70
403.74	1273.25
403.93	1394.96
404.13	1533.05
404.32	1462.83
404.51	1308.36
404.70	1493.26
404.89	1380.92
405.09	1521.35
405.28	1406.66
405.47	1521.35
405.66	1542.41
405.85	1483.90
406.05	1577.52
406.24	1568.16
406.43	1605.61
406.62	1650.08
406.81	1739.02
407.00	1638.38
407.20	1610.29
407.39	1603.27
407.58	1694.55
407.77	1607.95
407.96	1717.95
408.15	1851.36
408.34	1680.50
408.54	1764.76
408.73	1645.40
408.92	1774.13
409.11	1865.41
409.30	1748.38
409.49	1818.60
409.68	1788.17
409.87	1825.62
410.07	1870.09
410.26	1884.13
410.45	1961.37
410.64	1818.60
410.83	1952.01
411.02	1940.30
411.21	1952.01
411.40	1942.64
411.59	2024.56
411.78	2008.18
411.98	2092.44
412.17	2054.99
412.36	2033.93
412.55	2169.68
412.74	2106.48
412.93	2232.87
413.12	2225.85
413.31	2333.51
413.50	2202.44
413.69	2167.34
413.88	2382.67
414.07	2298.41
414.26	2263.30
414.45	2434.16
414.64	2347.56
414.83	2497.35
415.02	2413.09
415.22	2427.14
415.41	2644.81
415.60	2518.42
415.79	2675.23
415.98	2473.95
416.17	2644.81
416.36	2583.95
416.55	2525.44
416.74	2686.94
416.93	2607.36
417.12	2705.66
417.31	2693.96
417.50	2736.09
417.69	2677.57
417.88	2860.13
418.07	2733.75
418.26	2857.79
418.45	2855.45
418.64	2925.67
418.83	2967.80
419.02	2925.67
419.21	2974.82
419.39	3023.97
419.58	2836.73
419.77	2841.41
419.96	2972.48
420.15	3080.14
420.34	3061.42
420.53	3133.98
420.72	3185.47
420.91	3115.25
421.10	3197.17
421.29	3117.59
421.48	3162.06
421.67	3192.49
421.86	3143.34
422.05	3155.04
422.24	3201.85
422.43	3159.72
422.61	3304.84
422.80	3157.38
422.99	3255.69
423.18	3473.36
423.37	3251.00
423.56	3208.87
423.75	3318.88
423.94	3150.36
424.13	3152.70
424.32	3187.81
424.50	3431.23
424.69	3344.63
424.88	3391.44
425.07	3267.39
425.26	3424.20
425.45	3314.20
425.64	3377.39
425.83	3428.88
426.01	3353.99
426.20	3365.69
426.39	3396.12
426.58	3379.73
426.77	3288.45
426.96	3400.80
427.15	3344.63
427.33	3445.27
427.52	3508.46
427.71	3588.04
427.90	3524.85
428.09	3728.47
428.28	3552.93
428.46	3641.87
428.65	3662.94
428.84	3714.43
429.03	3665.28
429.22	3475.70
429.40	3676.98
429.59	3648.90
429.78	3438.25
429.97	3552.93
430.16	3585.70
430.34	3695.71
430.53	3847.84
430.72	3796.35
430.91	3822.09
431.10	3768.26
431.28	3709.75
431.47	3957.85
431.66	3885.29
431.85	3960.19
432.03	3941.46
432.22	4126.36
432.41	3882.95
432.60	4039.76
432.79	3885.29
432.97	3974.23
433.16	4035.08
433.35	3934.44
433.54	4042.11
433.72	4135.73
433.91	4112.32
434.10	4032.74
434.28	3997.64
434.47	4306.59
434.66	4250.41
434.85	4280.84
435.03	4245.73
435.22	4224.67
435.41	4451.70
435.59	4306.59
435.78	4266.80
435.97	4161.47
436.16	4320.63
436.34	4404.89
436.53	4409.57
436.72	4496.17
436.90	4404.89
437.09	4550.00
437.28	4376.80
437.46	4491.49
437.65	4503.19
437.84	4498.51
438.02	4470.42
438.21	4610.86
438.40	4418.93
438.58	4638.94
438.77	4723.20
438.96	4751.29
439.14	4753.63
439.33	4753.63
439.52	4936.19
439.70	4875.34
439.89	4968.96
440.08	4978.32
440.26	5041.51
440.45	4957.25
440.63	4978.32
440.82	5085.98
441.01	5067.26
441.19	5081.30
441.38	5085.98
441.57	5406.64
441.75	5298.97
441.94	5289.61
442.12	5348.12
442.31	5282.59
442.50	5390.25
442.68	5413.66
442.87	5392.59
443.05	5441.75
443.24	5549.41
443.43	5371.53
443.61	5474.51
443.80	5809.21
443.98	5451.11
444.17	5453.45
444.35	5540.05
444.54	5671.12
444.73	5640.69
444.91	5650.05
445.10	5652.39
445.28	5710.91
445.47	5666.44
445.65	5645.37
445.84	5703.89
446.02	5722.61
446.21	5715.59
446.39	5678.14
446.58	5738.99
446.77	5769.42
446.95	5706.23
447.14	5804.53
447.32	5970.71
447.51	5888.79
447.69	5694.52
447.88	5856.02
448.06	5755.38
448.25	5682.82
448.43	5678.14
448.62	5724.95
448.80	5736.65
448.99	5858.36
449.17	5881.77
449.36	5717.93
449.54	5951.98
449.73	6148.59
449.91	5989.43
450.10	6038.58
450.28	6162.63
450.46	6216.46
450.65	6106.46
450.83	6139.23
451.02	6061.99
451.20	6204.76
451.39	6092.41
451.57	6101.78
451.76	6218.80
451.94	6078.37
452.13	6370.94
452.31	6282.00
452.49	6183.70
452.68	6253.91
452.86	6225.82
453.05	6448.18
453.23	6450.52
453.42	6183.70
453.60	6347.53
453.78	6363.92
453.97	6380.30
454.15	6462.22
454.34	6354.55
454.52	6485.62
454.70	6525.41
454.89	6497.33
455.07	6560.52
455.26	6752.45
455.44	6525.41
455.62	6630.74
455.81	6616.69
455.99	6820.32
456.17	6684.57
456.36	6698.61
456.54	6817.98
456.73	6815.64
456.91	6801.60
457.09	7148.00
457.28	7171.40
457.46	6860.11
457.64	7066.08
457.83	7241.62
458.01	7077.78
458.19	7091.82
458.38	7213.53
458.56	7300.13
458.74	7246.30
458.93	7136.29
459.11	7246.30
459.29	7222.89
459.48	7360.98
459.66	7258.00
459.84	7290.77
460.03	7503.76
460.21	7531.84
460.39	7487.37
460.57	7375.03
460.76	7489.71
460.94	7564.61
461.12	7576.31
461.31	7562.27
461.49	7620.78
461.67	7487.37
461.85	7838.45
462.04	7506.10
462.22	8140.38
462.40	8037.40
462.59	7754.19
462.77	7611.42
462.95	7789.30
463.13	7632.49
463.32	7829.09
463.50	7988.25
463.68	7786.96
463.86	7960.16
464.05	7810.37
464.23	7906.33
464.41	7957.82
464.59	7747.17
464.78	8149.75
464.96	7976.55
465.14	7838.45
465.32	8102.93
465.50	8299.54
465.69	7953.14
465.87	8201.24
466.05	8095.91
466.23	8049.10
466.41	8133.36
466.60	8390.82
466.78	8292.52
466.96	8187.19
467.14	8205.92
467.32	8325.29
467.51	8393.16
467.69	8152.09
467.87	8493.80
468.05	8444.65
468.23	8292.52
468.41	8362.73
468.60	8662.32
468.78	8465.72
468.96	8676.37
469.14	8449.33
469.32	8559.34
469.50	8306.56
469.69	8645.94
469.87	8671.68
470.05	8636.58
470.23	8805.10
470.41	8755.94
470.59	8844.88
470.77	8751.26
470.95	8795.73
471.14	9064.89
471.32	8917.44
471.50	9334.06
471.68	9041.49
471.86	9277.88
472.04	9160.86
472.22	9238.09
472.40	9195.96
472.58	9291.93
472.77	9114.05
472.95	9488.53
473.13	9661.73
473.31	9504.92
473.49	9521.30
473.67	9364.48
473.85	9640.67
474.03	9734.29
474.21	9734.29
474.39	9865.36
474.57	9937.91
474.75	9811.53
474.93	9914.51
475.12	9841.95
475.30	10197.71
475.48	10066.64
475.66	10108.77
475.84	10209.42
476.02	10443.47
476.20	10209.42
476.38	10401.34
476.56	10567.52
476.74	10583.90
476.92	10586.24
477.10	10665.82
477.28	10719.65
477.46	10686.89
477.64	10810.93
477.82	11082.44
478.00	11295.43
478.18	11213.51
478.36	11389.05
478.54	11318.83
478.72	11405.43
478.90	11667.57
479.08	11534.16
479.26	11698.00
479.44	11852.47
479.62	11950.78
479.80	12051.42
479.98	12100.57
480.16	12177.81
480.34	12446.97
480.52	12266.75
480.70	12292.49
480.88	12215.26
481.06	12418.88
481.24	12343.99
481.41	12610.81
481.59	12994.65
481.77	13125.72
481.95	13022.74
482.13	13055.51
482.31	13362.12
482.49	13486.17
482.67	13530.64
482.85	13799.80
483.03	13888.74
483.21	14050.24
483.39	13923.85
483.57	13956.61
483.74	14134.50
483.92	13970.66
484.10	13935.55
484.28	14518.34
484.46	14691.54
484.64	14750.06
484.82	14796.87
485.00	14691.54
485.18	15012.20
485.35	15262.63
485.53	15428.81
485.71	15283.70
485.89	15714.36
486.07	15506.05
486.25	15800.96
486.43	15531.80
486.61	15805.64
486.78	16063.10
486.96	16182.46
487.14	16407.16
487.32	16585.04
487.50	16688.02
487.68	16573.33
487.85	16774.62
488.03	17025.06
488.21	17053.14
488.39	17280.18
488.57	17273.15
488.75	17572.74
488.92	17841.90
489.10	17764.67
489.28	17958.93
489.46	18324.05
489.64	18125.11
489.81	18279.58
489.99	18291.29
490.17	18684.50
490.35	18831.95
490.53	18731.31
490.70	18544.06
490.88	19084.73
491.06	19105.79
491.24	19082.39
491.41	19428.79
491.59	19585.60
491.77	19630.07
491.95	19805.61
492.13	19946.05
492.30	20187.12
492.48	20196.48
492.66	19981.15
492.84	20299.47
493.01	20395.43
493.19	20229.25
493.37	20585.01
493.54	20854.17
493.72	20889.28
493.90	20671.61
494.08	21268.45
494.25	21589.10
494.43	21483.78
494.61	21766.98
494.79	21727.19
494.96	21846.56
495.14	21937.84
495.32	22033.80
495.49	21886.35
495.67	22202.32
495.85	22560.42
496.02	22686.81
496.20	22642.34
496.38	22333.39
496.55	23075.34
496.73	23344.50
496.91	23108.11
497.09	23239.18
497.26	23573.88
497.44	23264.92
497.62	23597.28
497.79	23873.46
497.97	23971.77
498.14	24013.90
498.32	23983.47
498.50	23793.89
498.67	24346.25
498.85	24362.64
499.03	24306.46
499.20	24369.66
499.38	24652.86
499.56	24795.64
499.73	25046.07
499.91	24863.51
500.08	24929.05
500.26	24905.64
500.44	24788.61
500.61	25235.66
500.79	25479.07
500.97	25582.06
501.14	25830.15
501.32	25776.32
501.49	25745.89
501.67	26071.23
501.84	26033.78
502.02	25888.67
502.20	26249.11
502.37	26443.37
502.55	26284.22
502.72	26738.28
502.90	26352.09
503.07	26274.85
503.25	26684.45
503.43	26806.16
503.60	27042.55
503.78	26817.86
503.95	26941.91
504.13	26902.12
504.30	27421.72
504.48	27204.05
504.65	27611.30
504.83	27475.55
505.01	27655.77
505.18	27847.69
505.36	27604.28
505.53	27697.90
505.71	27915.57
505.88	27955.36
506.06	27845.35
506.23	28135.58
506.41	27995.15
506.58	28329.84
506.76	28603.69
506.93	28606.03
507.11	27800.88
507.28	28517.09
507.46	28683.27
507.63	28744.12
507.81	28973.49
507.98	29017.96
508.16	29118.60
508.33	29029.66
508.50	29104.56
508.68	29575.01
508.85	29645.23
509.03	29347.98
509.20	29731.83
509.38	29764.59
509.55	30022.05
509.73	30272.49
509.90	30005.67
510.08	29907.37
510.25	30052.48
510.42	29916.73
510.60	30387.18
510.77	30394.20
510.95	30611.87
511.12	30394.20
511.30	30740.60
511.47	30953.58
511.64	31098.70
511.82	31187.64
511.99	31140.83
512.17	31016.78
512.34	30630.59
512.51	31323.39
512.69	31201.68
512.86	31180.62
513.04	31763.41
513.21	31672.13
513.38	31800.86
513.56	31782.13
513.73	31896.82
513.90	31971.72
514.08	32154.28
514.25	32027.89
514.43	32063.00
514.60	32058.32
514.77	32334.50
514.95	32156.62
515.12	32273.65
515.29	32830.69
515.47	32648.13
515.64	32858.78
515.81	33240.29
515.99	32636.43
516.16	33209.86
516.33	33116.24
516.51	33242.63
516.68	32514.72
516.85	33434.55
517.03	33652.22
517.20	33270.72
517.37	33481.36
517.54	33619.46
517.72	33486.04
517.89	33240.29
518.06	33710.74
518.24	33535.20
518.41	33699.03
518.58	34000.96
518.75	33886.28
518.93	34195.23
519.10	34068.84
519.27	34171.82
519.45	34433.96
519.62	34307.57
519.79	34546.31
519.96	34576.73
520.14	35068.25
520.31	34895.05
520.48	34724.19
520.65	34574.39
520.83	34862.28
521.00	34836.53
521.17	34834.19
521.34	35227.40
521.52	35260.17
521.69	35456.78
521.86	35360.81
522.03	35180.59
522.20	35548.06
522.38	35505.93
522.55	35971.69
522.72	36091.06
522.89	35938.93
523.07	35931.90
523.24	35962.33
523.41	35873.39
523.58	35658.06
523.75	36177.66
523.92	36091.06
524.10	36367.24
524.27	36233.83
524.44	36313.41
524.61	36488.95
524.78	36147.23
524.96	36517.04
525.13	36467.89
525.30	36680.88
525.47	36952.38
525.64	36666.83
525.81	36971.10
525.98	36903.23
526.16	37106.85
526.33	36615.34
526.50	37172.39
526.67	37298.78
526.84	37071.75
527.01	37387.72
527.18	37387.72
527.36	37619.43
527.53	37607.73
527.70	38061.79
527.87	37776.25
528.04	37832.42
528.21	37890.93
528.38	37923.70
528.55	37827.74
528.72	38366.06
528.89	38103.92
529.07	38007.96
529.24	37851.14
529.41	37909.66
529.58	38047.75
529.75	37998.60
529.92	38082.86
530.09	38354.36
530.26	38541.60
530.43	38611.82
530.60	38515.86
530.77	38099.24
530.94	38888.00
531.11	38583.73
531.28	38160.09
531.46	38586.07
531.63	38899.70
531.80	39077.58
531.97	39187.59
532.14	39374.83
532.31	39412.28
532.48	38586.07
532.65	39203.97
532.82	39028.43
532.99	39533.99
533.16	39072.90
533.33	39903.79
533.50	39777.40
533.67	39393.56
533.84	39503.56
534.01	39246.10
534.18	39194.61
534.35	39873.37
534.52	39782.09
534.69	39903.79
534.86	39826.56
535.03	39810.17
535.20	39639.31
535.37	40194.02
535.54	39716.55
535.71	40060.61
535.88	40121.46
536.05	39849.96
536.22	40526.38
536.38	40737.02
536.55	40444.46
536.72	40591.91
536.89	40329.77
537.06	40758.09
537.23	40692.55
537.40	40095.72
537.57	40294.66
537.74	40982.78
537.91	40734.68
538.08	41036.61
538.25	40517.01
538.42	40697.24
538.59	40886.82
538.75	41010.87
538.92	40790.86
539.09	41078.74
539.26	41467.27
539.43	41202.79
539.60	41764.52
539.77	41237.90
539.94	41380.67
540.11	41284.71
540.28	41841.76
540.44	41593.66
540.61	41083.42
540.78	41315.14
540.95	41511.74
541.12	41769.20
541.29	42057.09
541.46	41717.71
541.62	41633.45
541.79	41996.23
541.96	41778.56
542.13	42005.59
542.30	41970.49
542.47	42225.60
542.63	42197.52
542.80	42394.12
542.97	42134.32
543.14	42611.79
543.31	42462.00
543.48	42321.57
543.64	42773.29
543.81	42696.05
543.98	42506.47
544.15	42756.91
544.32	43283.53
544.48	43096.28
544.65	42693.71
544.82	42471.36
544.99	42169.43
545.16	43033.09
545.32	42588.39
545.49	43409.92
545.66	43239.06
545.83	43501.20
546.00	43414.60
546.16	42822.44
546.33	43278.85
546.50	42918.40
546.67	43269.48
546.83	42625.84
547.00	43117.35
547.17	43133.73
547.34	43360.76
547.50	43323.32
547.67	43718.87
547.84	43608.86
548.00	43648.65
548.17	43840.57
548.34	43625.25
548.51	44163.57
548.67	43936.54
548.84	43744.61
549.01	43608.86
549.18	43639.29
549.34	43503.54
549.51	43742.27
549.68	44058.24
549.84	43578.43
550.01	44364.85
550.18	43826.53
550.34	44126.12
550.51	44055.90
550.68	44067.61
550.84	43772.70
551.01	43908.45
551.18	44154.21
551.34	43913.13
551.51	44570.82
551.68	44498.26
551.84	44547.42
552.01	44343.79
552.18	44470.18
552.34	44414.01
552.51	44774.45
552.68	44467.84
552.84	44664.44
553.01	44676.15
553.18	45092.76
553.34	44683.17
553.51	44547.42
553.67	44790.83
553.84	44779.13
554.01	45310.43
554.17	44446.77
554.34	44982.76
554.51	44945.31
554.67	44919.56
554.84	45015.52
555.00	45212.13
555.17	45193.40
555.33	45649.81
555.50	45305.75
555.67	45057.65
555.83	45193.40
556.00	45354.90
556.16	45275.32
556.33	45319.79
556.50	44893.82
556.66	45464.91
556.83	45277.66
556.99	45560.87
557.16	45558.53
557.32	45684.92
557.49	45584.27
557.65	45106.80
557.82	45333.84
557.98	44701.89
558.15	45460.23
558.32	45495.33
558.48	45837.05
558.65	45612.36
558.81	45617.04
558.98	45226.17
559.14	45514.06
559.31	45404.05
559.47	45588.95
559.64	45703.64
559.80	45773.86
559.97	46300.48
560.13	45806.62
560.30	46131.96
560.46	46326.22
560.63	45958.76
560.79	45951.74
560.96	46047.70
561.12	46003.23
561.29	45940.04
561.45	46068.76
561.61	46471.34
561.78	46220.90
561.94	45865.14
562.11	46270.05
562.27	46014.93
562.44	46036.00
562.60	46169.41
562.77	45933.01
562.93	46136.64
563.10	46106.21
563.26	46054.72
563.42	46288.77
563.59	45827.69
563.75	46244.30
563.92	46417.50
564.08	45996.21
564.24	46047.70
564.41	45911.95
564.57	46134.30
564.74	46663.26
564.90	46438.57
565.07	46696.03
565.23	46679.64
565.39	46225.58
565.56	46508.79
565.72	46410.48
565.88	46256.01
566.05	46260.69
566.21	46138.98
566.38	46319.20
566.54	46686.67
566.70	46300.48
566.87	46677.30
567.03	46281.75
567.19	46714.75
567.36	46677.30
567.52	46433.89
567.68	46761.56
567.85	46440.91
568.01	46361.33
568.17	46616.45
568.34	46836.46
568.50	46855.18
568.66	46806.03
568.83	46920.72
568.99	46878.59
569.15	46321.54
569.32	46728.80
569.48	46586.02
569.64	46424.53
569.81	46974.55
569.97	46450.27
570.13	46960.51
570.30	46632.83
570.46	46810.71
570.62	46553.26
570.78	46494.74
570.95	46466.66
571.11	46632.83
571.27	46579.00
571.43	46845.82
571.60	46944.12
571.76	46981.57
571.92	46665.60
572.09	47262.44
572.25	46976.89
572.41	46782.63
572.57	46916.04
572.74	46941.78
572.90	46824.76
573.06	47124.35
573.22	46822.42
573.38	47372.44
573.55	47143.07
573.71	47468.40
573.87	47232.01
574.03	47147.75
574.20	46986.25
574.36	46569.64
574.52	47072.85
574.68	46822.42
574.84	46887.95
575.01	47313.93
575.17	47061.15
575.33	47089.24
575.49	47079.88
575.65	46937.10
575.82	47019.02
575.98	46808.37
576.14	47269.46
576.30	47061.15
576.46	46852.84
576.62	46684.33
576.79	46836.46
576.95	46806.03
577.11	46983.91
577.27	47000.30
577.43	47449.68
577.59	47405.21
577.75	46831.78
577.92	46820.08
578.08	46511.13
578.24	47089.24
578.40	47262.44
578.56	46850.50
578.72	47051.79
578.88	47199.24
579.04	47367.76
579.21	46789.65
579.37	46845.82
579.53	47391.17
579.69	47126.69
579.85	47236.69
580.01	47044.77
580.17	46976.89
580.33	47482.45
580.49	47569.05
580.65	47199.24
580.82	47473.09
580.98	47129.03
581.14	47215.63
581.30	47454.36
581.46	46906.68
581.62	47023.70
581.78	47129.03
581.94	47306.91
582.10	47597.13
582.26	47129.03
582.42	47026.04
582.58	47414.57
582.74	47349.04
582.90	47679.05
583.06	47473.09
583.22	47173.50
583.38	47405.21
583.54	46976.89
583.70	47061.15
583.86	47344.36
584.02	47264.78
584.18	47222.65
584.34	47817.14
584.50	47538.62
584.66	47161.79
584.82	46845.82
584.98	47114.98
585.14	47086.90
585.30	46803.69
585.46	47199.24
585.62	47540.96
585.78	47407.55
585.94	47503.51
586.10	47674.37
586.26	47086.90
586.42	47657.99
586.58	47466.06
586.74	47346.70
586.90	47377.12
587.06	47016.68
587.22	47274.14
587.38	47145.41
587.54	47356.06
587.70	47487.13
587.86	47739.91
588.02	47342.02
588.18	47304.57
588.34	47547.98
588.49	47339.68
588.65	47360.74
588.81	47299.89
588.97	47283.50
589.13	47262.44
589.29	47201.58
589.45	47702.46
589.61	47714.16
589.77	47611.18
589.93	47601.82
590.08	47749.27
590.24	47447.34
590.40	47735.23
590.56	47849.91
590.72	47480.11
