SpectraSuite Data File
++++++++++++++++++++++++++++++++++++
Date: Fri Oct 04 11:47:23 GMT-05:00 2013
User: price-jones
Dark Spectrum Present: No
Reference Spectrum Present: No
Number of Sampled Component Spectra: 1
Spectrometers: USB2+H05261
Integration Time (usec): 100000 (USB2+H05261)
Spectra Averaged: 1 (USB2+H05261)
Boxcar Smoothing: 0 (USB2+H05261)
Correct for Electrical Dark: No (USB2+H05261)
Strobe/Lamp Enabled: No (USB2+H05261)
Correct for Detector Non-linearity: No (USB2+H05261)
Correct for Stray Light: No (USB2+H05261)
Number of Pixels in Processed Spectrum: 2048
>>>>>Begin Processed Spectral Data<<<<<
365.73	51.49
365.92	51.49
366.12	51.49
366.32	0.00
366.52	0.00
366.72	0.00
366.91	0.00
367.11	0.00
367.31	0.00
367.51	0.00
367.70	0.00
367.90	0.00
368.10	0.00
368.30	0.00
368.49	0.00
368.69	0.00
368.89	0.00
369.09	0.00
369.28	0.00
369.48	0.00
369.68	0.00
369.87	0.00
370.07	0.00
370.27	44.47
370.47	30.43
370.66	84.26
370.86	72.56
371.06	91.28
371.25	131.07
371.45	14.04
371.65	14.04
371.84	84.26
372.04	100.64
372.24	0.00
372.44	72.56
372.63	124.05
372.83	105.32
373.03	93.62
373.22	30.43
373.42	49.15
373.62	147.45
373.81	126.39
374.01	161.50
374.21	138.09
374.40	98.30
374.60	81.92
374.79	72.56
374.99	112.35
375.19	79.58
375.38	93.62
375.58	72.56
375.78	110.01
375.97	156.82
376.17	128.73
376.37	91.28
376.56	30.43
376.76	46.81
376.95	56.17
377.15	81.92
377.35	86.60
377.54	117.03
377.74	131.07
377.93	93.62
378.13	126.39
378.33	77.24
378.52	110.01
378.72	93.62
378.91	112.35
379.11	77.24
379.31	105.32
379.50	51.49
379.70	159.16
379.89	124.05
380.09	142.77
380.28	117.03
380.48	114.69
380.68	74.90
380.87	67.88
381.07	117.03
381.26	53.83
381.46	112.35
381.65	147.45
381.85	84.26
382.04	107.66
382.24	102.98
382.43	105.32
382.63	93.62
382.83	145.11
383.02	84.26
383.22	156.82
383.41	135.75
383.61	194.26
383.80	70.22
384.00	77.24
384.19	72.56
384.39	131.07
384.58	91.28
384.78	91.28
384.97	161.50
385.17	84.26
385.36	58.51
385.56	126.39
385.75	93.62
385.95	159.16
386.14	58.51
386.34	95.96
386.53	91.28
386.72	102.98
386.92	173.20
387.11	187.24
387.31	138.09
387.50	135.75
387.70	145.11
387.89	51.49
388.09	149.79
388.28	65.54
388.48	133.41
388.67	126.39
388.86	49.15
389.06	126.39
389.25	140.43
389.45	95.96
389.64	152.13
389.84	121.71
390.03	107.66
390.22	110.01
390.42	65.54
390.61	140.43
390.81	121.71
391.00	51.49
391.19	140.43
391.39	42.13
391.58	102.98
391.78	133.41
391.97	140.43
392.16	114.69
392.36	187.24
392.55	149.79
392.75	191.92
392.94	119.37
393.13	138.09
393.33	58.51
393.52	100.64
393.71	175.54
393.91	102.98
394.10	88.94
394.29	88.94
394.49	119.37
394.68	140.43
394.88	170.86
395.07	124.05
395.26	107.66
395.46	126.39
395.65	70.22
395.84	147.45
396.04	198.95
396.23	138.09
396.42	163.84
396.62	119.37
396.81	138.09
397.00	105.32
397.19	114.69
397.39	110.01
397.58	161.50
397.77	117.03
397.97	105.32
398.16	126.39
398.35	149.79
398.55	56.17
398.74	163.84
398.93	107.66
399.12	100.64
399.32	84.26
399.51	100.64
399.70	191.92
399.90	138.09
400.09	147.45
400.28	145.11
400.47	147.45
400.67	147.45
400.86	163.84
401.05	126.39
401.24	114.69
401.44	177.88
401.63	147.45
401.82	194.26
402.01	198.95
402.21	191.92
402.40	91.28
402.59	117.03
402.78	152.13
402.97	138.09
403.17	124.05
403.36	112.35
403.55	67.88
403.74	119.37
403.93	128.73
404.13	187.24
404.32	112.35
404.51	149.79
404.70	79.58
404.89	149.79
405.09	184.90
405.28	56.17
405.47	126.39
405.66	86.60
405.85	156.82
406.05	145.11
406.24	182.56
406.43	142.77
406.62	133.41
406.81	187.24
407.00	201.29
407.20	149.79
407.39	212.99
407.58	156.82
407.77	180.22
407.96	175.54
408.15	224.69
408.34	236.39
408.54	105.32
408.73	140.43
408.92	49.15
409.11	203.63
409.30	170.86
409.49	102.98
409.68	159.16
409.87	177.88
410.07	138.09
410.26	145.11
410.45	126.39
410.64	117.03
410.83	154.48
411.02	105.32
411.21	124.05
411.40	140.43
411.59	114.69
411.78	161.50
411.98	229.37
412.17	198.95
412.36	196.60
412.55	152.13
412.74	184.90
412.93	140.43
413.12	133.41
413.31	156.82
413.50	163.84
413.69	121.71
413.88	147.45
414.07	182.56
414.26	124.05
414.45	117.03
414.64	182.56
414.83	168.52
415.02	126.39
415.22	173.20
415.41	220.01
415.60	154.48
415.79	166.18
415.98	128.73
416.17	208.31
416.36	175.54
416.55	177.88
416.74	170.86
416.93	182.56
417.12	142.77
417.31	170.86
417.50	208.31
417.69	163.84
417.88	131.07
418.07	196.60
418.26	177.88
418.45	147.45
418.64	152.13
418.83	182.56
419.02	250.44
419.21	187.24
419.39	149.79
419.58	180.22
419.77	138.09
419.96	238.73
420.15	177.88
420.34	72.56
420.53	156.82
420.72	222.35
420.91	210.65
421.10	236.39
421.29	184.90
421.48	128.73
421.67	217.67
421.86	114.69
422.05	203.63
422.24	112.35
422.43	173.20
422.61	161.50
422.80	182.56
422.99	161.50
423.18	161.50
423.37	175.54
423.56	114.69
423.75	196.60
423.94	177.88
424.13	205.97
424.32	98.30
424.50	170.86
424.69	170.86
424.88	177.88
425.07	133.41
425.26	170.86
425.45	170.86
425.64	119.37
425.83	215.33
426.01	203.63
426.20	142.77
426.39	133.41
426.58	180.22
426.77	159.16
426.96	163.84
427.15	166.18
427.33	175.54
427.52	159.16
427.71	100.64
427.90	138.09
428.09	95.96
428.28	189.58
428.46	184.90
428.65	236.39
428.84	102.98
429.03	201.29
429.22	121.71
429.40	175.54
429.59	203.63
429.78	236.39
429.97	182.56
430.16	114.69
430.34	154.48
430.53	156.82
430.72	201.29
430.91	212.99
431.10	217.67
431.28	182.56
431.47	182.56
431.66	201.29
431.85	112.35
432.03	170.86
432.22	189.58
432.41	180.22
432.60	182.56
432.79	84.26
432.97	184.90
433.16	88.94
433.35	110.01
433.54	154.48
433.72	220.01
433.91	177.88
434.10	105.32
434.28	128.73
434.47	198.95
434.66	140.43
434.85	140.43
435.03	142.77
435.22	259.80
435.41	184.90
435.59	149.79
435.78	252.78
435.97	198.95
436.16	166.18
436.34	166.18
436.53	182.56
436.72	175.54
436.90	152.13
437.09	180.22
437.28	142.77
437.46	147.45
437.65	208.31
437.84	154.48
438.02	196.60
438.21	114.69
438.40	114.69
438.58	149.79
438.77	145.11
438.96	198.95
439.14	166.18
439.33	259.80
439.52	175.54
439.70	145.11
439.89	140.43
440.08	227.03
440.26	173.20
440.45	196.60
440.63	156.82
440.82	189.58
441.01	243.42
441.19	95.96
441.38	212.99
441.57	201.29
441.75	234.05
441.94	208.31
442.12	161.50
442.31	220.01
442.50	222.35
442.68	264.48
442.87	180.22
443.05	107.66
443.24	117.03
443.43	208.31
443.61	290.23
443.80	208.31
443.98	184.90
444.17	212.99
444.35	198.95
444.54	159.16
444.73	227.03
444.91	238.73
445.10	138.09
445.28	182.56
445.47	201.29
445.65	114.69
445.84	128.73
446.02	102.98
446.21	177.88
446.39	187.24
446.58	238.73
446.77	191.92
446.95	112.35
447.14	198.95
447.32	273.84
447.51	191.92
447.69	168.52
447.88	187.24
448.06	227.03
448.25	227.03
448.43	196.60
448.62	168.52
448.80	250.44
448.99	273.84
449.17	170.86
449.36	250.44
449.54	255.12
449.73	182.56
449.91	313.63
450.10	217.67
450.28	234.05
450.46	252.78
450.65	212.99
450.83	203.63
451.02	285.55
451.20	205.97
451.39	224.69
451.57	173.20
451.76	168.52
451.94	173.20
452.13	222.35
452.31	227.03
452.49	184.90
452.68	194.26
452.86	147.45
453.05	259.80
453.23	266.82
453.42	241.08
453.60	196.60
453.78	212.99
453.97	154.48
454.15	194.26
454.34	175.54
454.52	212.99
454.70	224.69
454.89	201.29
455.07	187.24
455.26	259.80
455.44	198.95
455.62	138.09
455.81	217.67
455.99	255.12
456.17	252.78
456.36	327.68
456.54	245.76
456.73	252.78
456.91	238.73
457.09	255.12
457.28	238.73
457.46	238.73
457.64	184.90
457.83	152.13
458.01	236.39
458.19	177.88
458.38	262.14
458.56	215.33
458.74	159.16
458.93	145.11
459.11	163.84
459.29	198.95
459.48	191.92
459.66	252.78
459.84	189.58
460.03	304.27
460.21	217.67
460.39	234.05
460.57	220.01
460.76	248.10
460.94	180.22
461.12	227.03
461.31	201.29
461.49	285.55
461.67	145.11
461.85	222.35
462.04	241.08
462.22	713.86
462.40	262.14
462.59	238.73
462.77	220.01
462.95	262.14
463.13	189.58
463.32	140.43
463.50	262.14
463.68	245.76
463.86	215.33
464.05	196.60
464.23	262.14
464.41	241.08
464.59	196.60
464.78	191.92
464.96	180.22
465.14	191.92
465.32	175.54
465.50	217.67
465.69	208.31
465.87	161.50
466.05	168.52
466.23	154.48
466.41	222.35
466.60	154.48
466.78	212.99
466.96	182.56
467.14	203.63
467.32	238.73
467.51	280.86
467.69	280.86
467.87	208.31
468.05	189.58
468.23	294.91
468.41	203.63
468.60	264.48
468.78	238.73
468.96	259.80
469.14	243.42
469.32	173.20
469.50	154.48
469.69	248.10
469.87	224.69
470.05	184.90
470.23	234.05
470.41	248.10
470.59	175.54
470.77	238.73
470.95	243.42
471.14	189.58
471.32	196.60
471.50	259.80
471.68	156.82
471.86	194.26
472.04	194.26
472.22	250.44
472.40	187.24
472.58	205.97
472.77	238.73
472.95	248.10
473.13	229.37
473.31	245.76
473.49	222.35
473.67	215.33
473.85	234.05
474.03	269.16
474.21	276.18
474.39	208.31
474.57	194.26
474.75	245.76
474.93	271.50
475.12	290.23
475.30	121.71
475.48	182.56
475.66	191.92
475.84	198.95
476.02	131.07
476.20	220.01
476.38	191.92
476.56	297.25
476.74	257.46
476.92	252.78
477.10	229.37
477.28	194.26
477.46	276.18
477.64	255.12
477.82	238.73
478.00	220.01
478.18	248.10
478.36	203.63
478.54	126.39
478.72	215.33
478.90	248.10
479.08	250.44
479.26	262.14
479.44	220.01
479.62	187.24
479.80	306.61
479.98	315.97
480.16	229.37
480.34	269.16
480.52	248.10
480.70	238.73
480.88	245.76
481.06	276.18
481.24	257.46
481.41	238.73
481.59	198.95
481.77	318.31
481.95	255.12
482.13	266.82
482.31	245.76
482.49	217.67
482.67	292.57
482.85	330.02
483.03	280.86
483.21	236.39
483.39	222.35
483.57	367.46
483.74	315.97
483.92	255.12
484.10	215.33
484.28	287.89
484.46	360.44
484.64	283.20
484.82	205.97
485.00	276.18
485.18	210.65
485.35	234.05
485.53	215.33
485.71	231.71
485.89	257.46
486.07	259.80
486.25	355.76
486.43	252.78
486.61	269.16
486.78	248.10
486.96	227.03
487.14	283.20
487.32	201.29
487.50	252.78
487.68	369.80
487.85	266.82
488.03	315.97
488.21	346.40
488.39	280.86
488.57	280.86
488.75	217.67
488.92	557.05
489.10	325.33
489.28	330.02
489.46	276.18
489.64	306.61
489.81	248.10
489.99	311.29
490.17	266.82
490.35	421.30
490.53	287.89
490.70	257.46
490.88	273.84
491.06	273.84
491.24	231.71
491.41	348.74
491.59	201.29
491.77	264.48
491.95	280.86
492.13	301.93
492.30	290.23
492.48	313.63
492.66	236.39
492.84	245.76
493.01	287.89
493.19	243.42
493.37	358.10
493.54	365.12
493.72	322.99
493.90	205.97
494.08	266.82
494.25	304.27
494.43	248.10
494.61	290.23
494.79	318.31
494.96	358.10
495.14	301.93
495.32	358.10
495.49	276.18
495.67	346.40
495.85	273.84
496.02	334.70
496.20	337.04
496.38	315.97
496.55	308.95
496.73	351.08
496.91	365.12
497.09	397.89
497.26	341.72
497.44	409.59
497.62	348.74
497.79	313.63
497.97	292.57
498.14	315.97
498.32	346.40
498.50	315.97
498.67	320.65
498.85	362.78
499.03	315.97
499.20	311.29
499.38	407.25
499.56	311.29
499.73	334.70
499.91	372.15
500.08	306.61
500.26	334.70
500.44	299.59
500.61	283.20
500.79	271.50
500.97	344.06
501.14	325.33
501.32	325.33
501.49	337.04
501.67	304.27
501.84	290.23
502.02	348.74
502.20	369.80
502.37	388.53
502.55	241.08
502.72	306.61
502.90	358.10
503.07	337.04
503.25	358.10
503.43	301.93
503.60	341.72
503.78	308.95
503.95	322.99
504.13	271.50
504.30	374.49
504.48	374.49
504.65	388.53
504.83	358.10
505.01	362.78
505.18	332.36
505.36	362.78
505.53	367.46
505.71	294.91
505.88	360.44
506.06	327.68
506.23	327.68
506.41	383.85
506.58	318.31
506.76	346.40
506.93	360.44
507.11	372.15
507.28	386.19
507.46	318.31
507.63	393.21
507.81	332.36
507.98	348.74
508.16	299.59
508.33	425.98
508.50	348.74
508.68	315.97
508.85	313.63
509.03	297.25
509.20	346.40
509.38	299.59
509.55	337.04
509.73	351.08
509.90	404.91
510.08	327.68
510.25	257.46
510.42	332.36
510.60	383.85
510.77	344.06
510.95	393.21
511.12	325.33
511.30	332.36
511.47	376.83
511.64	353.42
511.82	318.31
511.99	351.08
512.17	360.44
512.34	404.91
512.51	381.51
512.69	365.12
512.86	416.62
513.04	337.04
513.21	367.46
513.38	390.87
513.56	341.72
513.73	348.74
513.90	362.78
514.08	365.12
514.25	360.44
514.43	388.53
514.60	332.36
514.77	440.02
514.95	435.34
515.12	400.23
515.29	362.78
515.47	339.38
515.64	440.02
515.81	358.10
515.99	278.52
516.16	365.12
516.33	337.04
516.51	248.10
516.68	304.27
516.85	386.19
517.03	299.59
517.20	402.57
517.37	355.76
517.54	411.93
517.72	287.89
517.89	320.65
518.06	339.38
518.24	332.36
518.41	390.87
518.58	388.53
518.75	411.93
518.93	379.17
519.10	388.53
519.27	304.27
519.45	360.44
519.62	400.23
519.79	409.59
519.96	397.89
520.14	383.85
520.31	411.93
520.48	437.68
520.65	414.27
520.83	362.78
521.00	376.83
521.17	348.74
521.34	344.06
521.52	355.76
521.69	433.00
521.86	299.59
522.03	449.38
522.20	353.42
522.38	299.59
522.55	337.04
522.72	341.72
522.89	442.36
523.07	351.08
523.24	308.95
523.41	365.12
523.58	404.91
523.75	411.93
523.92	337.04
524.10	435.34
524.27	337.04
524.44	320.65
524.61	379.17
524.78	407.25
524.96	386.19
525.13	461.09
525.30	374.49
525.47	383.85
525.64	409.59
525.81	397.89
525.98	423.64
526.16	271.50
526.33	339.38
526.50	330.02
526.67	381.51
526.84	388.53
527.01	327.68
527.18	451.72
527.36	362.78
527.53	383.85
527.70	461.09
527.87	386.19
528.04	400.23
528.21	463.43
528.38	337.04
528.55	437.68
528.72	475.13
528.89	486.83
529.07	461.09
529.24	355.76
529.41	395.55
529.58	493.85
529.75	390.87
529.92	458.74
530.09	442.36
530.26	451.72
530.43	407.25
530.60	393.21
530.77	416.62
530.94	404.91
531.11	454.06
531.28	381.51
531.46	433.00
531.63	437.68
531.80	374.49
531.97	444.70
532.14	320.65
532.31	395.55
532.48	367.46
532.65	374.49
532.82	393.21
532.99	379.17
533.16	353.42
533.33	344.06
533.50	332.36
533.67	372.15
533.84	430.66
534.01	393.21
534.18	409.59
534.35	423.64
534.52	388.53
534.69	430.66
534.86	390.87
535.03	430.66
535.20	388.53
535.37	470.45
535.54	463.43
535.71	407.25
535.88	397.89
536.05	351.08
536.22	308.95
536.38	423.64
536.55	318.31
536.72	411.93
536.89	355.76
537.06	425.98
537.23	388.53
537.40	430.66
537.57	351.08
537.74	442.36
537.91	400.23
538.08	386.19
538.25	372.15
538.42	362.78
538.59	440.02
538.75	472.79
538.92	458.74
539.09	423.64
539.26	430.66
539.43	421.30
539.60	304.27
539.77	372.15
539.94	372.15
540.11	372.15
540.28	376.83
540.44	447.04
540.61	404.91
540.78	416.62
540.95	372.15
541.12	425.98
541.29	395.55
541.46	425.98
541.62	407.25
541.79	409.59
541.96	470.45
542.13	337.04
542.30	454.06
542.47	430.66
542.63	379.17
542.80	379.17
542.97	433.00
543.14	320.65
543.31	367.46
543.48	362.78
543.64	421.30
543.81	425.98
543.98	400.23
544.15	407.25
544.32	423.64
544.48	383.85
544.65	269.16
544.82	465.77
544.99	386.19
545.16	423.64
545.32	418.96
545.49	414.27
545.66	442.36
545.83	428.32
546.00	393.21
546.16	374.49
546.33	341.72
546.50	311.29
546.67	393.21
546.83	351.08
547.00	360.44
547.17	285.55
547.34	346.40
547.50	421.30
547.67	372.15
547.84	348.74
548.00	395.55
548.17	372.15
548.34	348.74
548.51	500.87
548.67	376.83
548.84	381.51
549.01	337.04
549.18	367.46
549.34	351.08
549.51	388.53
549.68	416.62
549.84	433.00
550.01	418.96
550.18	482.15
550.34	449.38
550.51	393.21
550.68	435.34
550.84	411.93
551.01	409.59
551.18	379.17
551.34	484.49
551.51	400.23
551.68	397.89
551.84	395.55
552.01	388.53
552.18	435.34
552.34	421.30
552.51	355.76
552.68	369.80
552.84	390.87
553.01	418.96
553.18	362.78
553.34	447.04
553.51	306.61
553.67	346.40
553.84	510.24
554.01	440.02
554.17	407.25
554.34	369.80
554.51	351.08
554.67	395.55
554.84	353.42
555.00	372.15
555.17	337.04
555.33	437.68
555.50	320.65
555.67	330.02
555.83	306.61
556.00	414.27
556.16	507.90
556.33	440.02
556.50	383.85
556.66	325.33
556.83	259.80
556.99	360.44
557.16	327.68
557.32	327.68
557.49	395.55
557.65	327.68
557.82	351.08
557.98	374.49
558.15	400.23
558.32	365.12
558.48	339.38
558.65	407.25
558.81	383.85
558.98	341.72
559.14	304.27
559.31	393.21
559.47	372.15
559.64	379.17
559.80	353.42
559.97	463.43
560.13	327.68
560.30	297.25
560.46	351.08
560.63	334.70
560.79	318.31
560.96	390.87
561.12	327.68
561.29	362.78
561.45	313.63
561.61	423.64
561.78	407.25
561.94	365.12
562.11	442.36
562.27	351.08
562.44	411.93
562.60	428.32
562.77	355.76
562.93	423.64
563.10	365.12
563.26	376.83
563.42	287.89
563.59	283.20
563.75	383.85
563.92	372.15
564.08	393.21
564.24	400.23
564.41	435.34
564.57	337.04
564.74	313.63
564.90	355.76
565.07	341.72
565.23	404.91
565.39	404.91
565.56	325.33
565.72	330.02
565.88	339.38
566.05	362.78
566.21	332.36
566.38	351.08
566.54	337.04
566.70	362.78
566.87	365.12
567.03	325.33
567.19	423.64
567.36	374.49
567.52	358.10
567.68	351.08
567.85	388.53
568.01	360.44
568.17	332.36
568.34	327.68
568.50	334.70
568.66	330.02
568.83	411.93
568.99	283.20
569.15	365.12
569.32	334.70
569.48	313.63
569.64	383.85
569.81	339.38
569.97	346.40
570.13	297.25
570.30	437.68
570.46	425.98
570.62	355.76
570.78	283.20
570.95	285.55
571.11	308.95
571.27	381.51
571.43	393.21
571.60	369.80
571.76	280.86
571.92	353.42
572.09	320.65
572.25	318.31
572.41	365.12
572.57	341.72
572.74	322.99
572.90	327.68
573.06	351.08
573.22	365.12
573.38	320.65
573.55	344.06
573.71	376.83
573.87	372.15
574.03	318.31
574.20	379.17
574.36	411.93
574.52	313.63
574.68	425.98
574.84	386.19
575.01	360.44
575.17	365.12
575.33	337.04
575.49	330.02
575.65	383.85
575.82	367.46
575.98	404.91
576.14	353.42
576.30	390.87
576.46	330.02
576.62	372.15
576.79	381.51
576.95	390.87
577.11	318.31
577.27	304.27
577.43	397.89
577.59	355.76
577.75	292.57
577.92	285.55
578.08	285.55
578.24	428.32
578.40	348.74
578.56	362.78
578.72	435.34
578.88	407.25
579.04	383.85
579.21	330.02
579.37	325.33
579.53	372.15
579.69	393.21
579.85	283.20
580.01	315.97
580.17	393.21
580.33	365.12
580.49	376.83
580.65	341.72
580.82	360.44
580.98	383.85
581.14	386.19
581.30	440.02
581.46	308.95
581.62	397.89
581.78	355.76
581.94	390.87
582.10	416.62
582.26	430.66
582.42	369.80
582.58	388.53
582.74	435.34
582.90	358.10
583.06	390.87
583.22	393.21
583.38	358.10
583.54	264.48
583.70	315.97
583.86	372.15
584.02	306.61
584.18	393.21
584.34	393.21
584.50	388.53
584.66	351.08
584.82	369.80
584.98	334.70
585.14	395.55
585.30	325.33
585.46	355.76
585.62	437.68
585.78	341.72
585.94	344.06
586.10	383.85
586.26	386.19
586.42	397.89
586.58	337.04
586.74	318.31
586.90	315.97
587.06	306.61
587.22	334.70
587.38	360.44
587.54	229.37
587.70	442.36
587.86	362.78
588.02	341.72
588.18	259.80
588.34	301.93
588.49	198.95
588.65	231.71
588.81	245.76
588.97	229.37
589.13	243.42
589.29	241.08
589.45	355.76
589.61	252.78
589.77	325.33
589.93	264.48
590.08	299.59
590.24	353.42
590.40	234.05
590.56	325.33
590.72	269.16
590.88	294.91
591.04	290.23
591.20	294.91
591.35	351.08
591.51	304.27
591.67	264.48
591.83	299.59
591.99	318.31
592.15	271.50
592.31	306.61
592.46	308.95
592.62	341.72
592.78	360.44
592.94	297.25
593.10	362.78
593.26	304.27
593.41	344.06
593.57	337.04
593.73	269.16
593.89	266.82
594.05	376.83
594.20	304.27
594.36	341.72
594.52	308.95
594.68	255.12
594.84	308.95
594.99	400.23
595.15	362.78
595.31	341.72
595.47	348.74
595.62	337.04
595.78	252.78
595.94	304.27
596.10	433.00
596.25	308.95
596.41	330.02
596.57	315.97
596.73	383.85
596.88	255.12
597.04	341.72
597.20	280.86
597.36	294.91
597.51	320.65
597.67	327.68
597.83	341.72
597.99	353.42
598.14	318.31
598.30	409.59
598.46	238.73
598.61	287.89
598.77	318.31
598.93	238.73
599.09	330.02
599.24	269.16
599.40	395.55
599.56	299.59
599.71	306.61
599.87	320.65
600.03	294.91
600.18	285.55
600.34	339.38
600.50	280.86
600.65	271.50
600.81	402.57
600.97	287.89
601.12	266.82
601.28	372.15
601.44	283.20
601.59	330.02
601.75	287.89
601.91	313.63
602.06	327.68
602.22	421.30
602.37	409.59
602.53	330.02
602.69	358.10
602.84	318.31
603.00	386.19
603.16	292.57
603.31	322.99
603.47	325.33
603.62	379.17
603.78	341.72
603.94	318.31
604.09	372.15
604.25	318.31
604.40	355.76
604.56	332.36
604.71	430.66
604.87	315.97
605.03	313.63
605.18	334.70
605.34	400.23
605.49	353.42
605.65	332.36
605.80	311.29
605.96	337.04
606.12	255.12
606.27	337.04
606.43	428.32
606.58	341.72
606.74	388.53
606.89	325.33
607.05	346.40
607.20	217.67
607.36	332.36
607.51	252.78
607.67	266.82
607.82	264.48
607.98	360.44
608.13	297.25
608.29	355.76
608.44	414.27
608.60	353.42
608.75	383.85
608.91	276.18
609.06	332.36
609.22	353.42
609.37	308.95
609.53	264.48
609.68	320.65
609.84	332.36
609.99	215.33
610.15	266.82
610.30	390.87
610.46	362.78
610.61	285.55
610.76	294.91
610.92	365.12
611.07	318.31
611.23	379.17
611.38	304.27
