SpectraSuite Data File
++++++++++++++++++++++++++++++++++++
Date: Fri Oct 04 11:48:34 GMT-05:00 2013
User: price-jones
Dark Spectrum Present: No
Reference Spectrum Present: No
Number of Sampled Component Spectra: 1
Spectrometers: USB2+H05261
Integration Time (usec): 100000 (USB2+H05261)
Spectra Averaged: 1 (USB2+H05261)
Boxcar Smoothing: 0 (USB2+H05261)
Correct for Electrical Dark: No (USB2+H05261)
Strobe/Lamp Enabled: No (USB2+H05261)
Correct for Detector Non-linearity: No (USB2+H05261)
Correct for Stray Light: No (USB2+H05261)
Number of Pixels in Processed Spectrum: 2048
>>>>>Begin Processed Spectral Data<<<<<
365.73	21.06
365.92	21.06
366.12	21.06
366.32	0.00
366.52	0.00
366.72	0.00
366.91	0.00
367.11	0.00
367.31	0.00
367.51	0.00
367.70	0.00
367.90	0.00
368.10	0.00
368.30	0.00
368.49	0.00
368.69	0.00
368.89	0.00
369.09	0.00
369.28	0.00
369.48	0.00
369.68	0.00
369.87	14.04
370.07	0.00
370.27	37.45
370.47	102.98
370.66	299.59
370.86	358.10
371.06	383.85
371.25	442.36
371.45	425.98
371.65	374.49
371.84	404.91
372.04	435.34
372.24	454.06
372.44	470.45
372.63	470.45
372.83	500.87
373.03	493.85
373.22	423.64
373.42	411.93
373.62	454.06
373.81	493.85
374.01	554.71
374.21	535.98
374.40	610.88
374.60	608.54
374.79	561.73
374.99	510.24
375.19	519.60
375.38	601.52
375.58	596.84
375.78	678.76
375.97	573.43
376.17	613.22
376.37	535.98
376.56	585.13
376.76	580.45
376.95	631.94
377.15	571.09
377.35	674.07
377.54	606.20
377.74	580.45
377.93	582.79
378.13	594.50
378.33	739.61
378.52	613.22
378.72	645.99
378.91	709.18
379.11	622.58
379.31	676.41
379.50	582.79
379.70	580.45
379.89	688.12
380.09	685.78
380.28	634.29
380.48	706.84
380.68	629.60
380.87	615.56
381.07	653.01
381.26	753.65
381.46	699.82
381.65	718.54
381.85	763.01
382.04	713.86
382.24	709.18
382.43	788.76
382.63	723.23
382.83	734.93
383.02	791.10
383.22	823.87
383.41	770.04
383.61	791.10
383.80	798.12
384.00	786.42
384.19	791.10
384.39	765.36
384.58	763.01
384.78	870.68
384.97	809.83
385.17	873.02
385.36	786.42
385.56	882.38
385.75	889.40
385.95	905.79
386.14	851.96
386.34	847.27
386.53	880.04
386.72	851.96
386.92	863.66
387.11	849.61
387.31	858.98
387.50	861.32
387.70	950.26
387.89	945.58
388.09	945.58
388.28	987.71
388.48	924.51
388.67	931.53
388.86	964.30
389.06	943.24
389.25	978.34
389.45	1046.22
389.64	957.28
389.84	1043.88
390.03	1064.94
390.22	1034.52
390.42	999.41
390.61	1013.45
390.81	961.96
391.00	1078.99
391.19	1064.94
391.39	1046.22
391.58	1027.50
391.78	1032.18
391.97	1034.52
392.16	1060.26
392.36	1172.61
392.55	1137.50
392.75	1212.40
392.94	1067.28
393.13	1158.57
393.33	1198.35
393.52	1093.03
393.71	1198.35
393.91	1233.46
394.10	1188.99
394.29	1217.08
394.49	1137.50
394.68	1203.04
394.88	1275.59
395.07	1212.40
395.26	1270.91
395.46	1233.46
395.65	1299.00
395.84	1324.74
396.04	1301.34
396.23	1261.55
396.42	1306.02
396.62	1472.20
396.81	1362.19
397.00	1434.75
397.19	1437.09
397.39	1291.98
397.58	1416.02
397.77	1343.47
397.97	1453.47
398.16	1376.24
398.35	1418.36
398.55	1509.65
398.74	1465.18
398.93	1530.71
399.12	1511.99
399.32	1542.41
399.51	1401.98
399.70	1558.80
399.90	1572.84
400.09	1624.33
400.28	1617.31
400.47	1666.46
400.67	1605.61
400.86	1720.29
401.05	1598.59
401.24	1734.34
401.44	1678.16
401.63	1685.19
401.82	1806.89
402.01	1727.32
402.21	1767.10
402.40	1701.57
402.59	1806.89
402.78	1781.15
402.97	1853.70
403.17	1802.21
403.36	1776.47
403.55	1830.30
403.74	1884.13
403.93	1809.23
404.13	1900.52
404.32	1877.11
404.51	2005.84
404.70	2033.93
404.89	1909.88
405.09	2052.65
405.28	1996.48
405.47	2031.58
405.66	2228.19
405.85	2031.58
406.05	2045.63
406.24	2050.31
406.43	2190.74
406.62	2272.66
406.81	2270.32
407.00	2244.57
407.20	2225.85
407.39	2279.68
407.58	2293.72
407.77	2279.68
407.96	2223.51
408.15	2403.73
408.34	2282.02
408.54	2347.56
408.73	2356.92
408.92	2459.90
409.11	2429.48
409.30	2422.45
409.49	2370.96
409.68	2387.35
409.87	2555.86
410.07	2520.76
410.26	2438.84
410.45	2595.65
410.64	2715.02
410.83	2675.23
411.02	2597.99
411.21	2785.24
411.40	2649.49
411.59	2782.90
411.78	2813.32
411.98	2670.55
412.17	2764.17
412.36	2841.41
412.55	2890.56
412.74	2967.80
412.93	2949.08
413.12	2869.50
413.31	3084.83
413.50	2937.37
413.69	3136.32
413.88	3103.55
414.07	3131.64
414.26	3150.36
414.45	3126.96
414.64	3204.19
414.83	3363.35
415.02	3208.87
415.22	3295.47
415.41	3400.80
415.60	3438.25
415.79	3435.91
415.98	3524.85
416.17	3471.01
416.36	3515.48
416.55	3503.78
416.74	3449.95
416.93	3618.47
417.12	3538.89
417.31	3583.36
417.50	3604.42
417.69	3747.20
417.88	3714.43
418.07	3805.71
418.26	3726.13
418.45	3740.18
418.64	3845.50
418.83	3770.60
419.02	3936.78
419.21	3906.35
419.39	4007.00
419.58	3922.74
419.77	3918.06
419.96	4063.17
420.15	3920.40
420.34	4088.92
420.53	4119.34
420.72	4203.60
420.91	4175.52
421.10	4231.69
421.29	4215.30
421.48	4219.99
421.67	4093.60
421.86	4189.56
422.05	4189.56
422.24	4269.14
422.43	4177.86
422.61	4346.37
422.80	4381.48
422.99	4346.37
423.18	4229.35
423.37	4521.92
423.56	4397.87
423.75	4365.10
423.94	4287.86
424.13	4042.11
424.32	4184.88
424.50	4346.37
424.69	4454.04
424.88	4409.57
425.07	4358.08
425.26	4463.40
425.45	4397.87
425.64	4369.78
425.83	4360.42
426.01	4451.70
426.20	4397.87
426.39	4402.55
426.58	4425.95
426.77	4655.33
426.96	4510.21
427.15	4573.41
427.33	4631.92
427.52	4690.43
427.71	4638.94
427.90	4552.34
428.09	4772.35
428.28	4634.26
428.46	4507.87
428.65	4753.63
428.84	4732.56
429.03	4945.55
429.22	4741.93
429.40	4898.74
429.59	4765.33
429.78	4554.68
429.97	4753.63
430.16	4798.10
430.34	4933.85
430.53	5093.01
430.72	4865.97
430.91	5004.07
431.10	4973.64
431.28	5193.65
431.47	5160.88
431.66	5277.91
431.85	5266.21
432.03	5303.65
432.22	5341.10
432.41	5298.97
432.60	5231.10
432.79	5233.44
432.97	5315.36
433.16	5231.10
433.35	5193.65
433.54	5324.72
433.72	5584.52
433.91	5497.92
434.10	5444.09
434.28	5537.71
434.47	5533.03
434.66	5540.05
434.85	5474.51
435.03	5502.60
435.22	5593.88
435.41	5713.25
435.59	5598.56
435.78	5568.13
435.97	5551.75
436.16	5853.68
436.34	5783.46
436.53	5792.83
436.72	5827.93
436.90	5816.23
437.09	5872.40
437.28	5731.97
437.46	5799.85
437.65	5888.79
437.84	6026.88
438.02	6094.76
438.21	6069.01
438.40	5872.40
438.58	6111.14
438.77	6223.48
438.96	6061.99
439.14	6291.36
439.33	6293.70
439.52	6282.00
439.70	6345.19
439.89	6569.88
440.08	6616.69
440.26	6392.00
440.45	6689.25
440.63	6621.38
440.82	6740.74
441.01	6757.13
441.19	6752.45
441.38	6867.13
441.57	6843.73
441.75	6665.85
441.94	7061.40
442.12	7077.78
442.31	7173.74
442.50	7190.13
442.68	6960.75
442.87	7164.38
443.05	7351.62
443.24	7400.77
443.43	7335.24
443.61	7258.00
443.80	7463.97
443.98	7157.36
444.17	7054.37
444.35	7325.88
444.54	7403.11
444.73	7468.65
444.91	7440.56
445.10	7454.61
445.28	7445.24
445.47	7470.99
445.65	7426.52
445.84	7405.46
446.02	7426.52
446.21	7459.29
446.39	7382.05
446.58	7602.06
446.77	7786.96
446.95	7328.22
447.14	7379.71
447.32	7548.23
447.51	7653.55
447.69	7482.69
447.88	7555.25
448.06	7616.10
448.25	7655.89
448.43	7531.84
448.62	7634.83
448.80	7740.15
448.99	7857.18
449.17	7847.82
449.36	7581.00
449.54	7805.69
449.73	7976.55
449.91	7906.33
450.10	7992.93
450.28	8032.72
450.46	7871.22
450.65	8135.70
450.83	8011.65
451.02	8021.02
451.20	8058.46
451.39	8145.06
451.57	8191.88
451.76	8133.36
451.94	8252.73
452.13	8306.56
452.31	8156.77
452.49	8217.62
452.68	8149.75
452.86	8301.88
453.05	8477.42
453.23	8512.53
453.42	8231.66
453.60	8278.47
453.78	8575.72
453.97	8418.91
454.15	8580.40
454.34	8428.27
454.52	8629.56
454.70	8631.90
454.89	8587.43
455.07	8627.21
455.26	8896.38
455.44	8779.35
455.62	8823.82
455.81	8748.92
455.99	8931.48
456.17	9137.45
456.36	9025.11
456.54	9092.98
456.73	9228.73
456.91	9345.76
457.09	9188.94
457.28	9413.63
457.46	9303.63
457.64	9537.68
457.83	9324.69
458.01	9259.16
458.19	9535.34
458.38	9385.55
458.56	9635.99
458.74	9458.10
458.93	9394.91
459.11	9483.85
459.29	9554.07
459.48	9605.56
459.66	9680.46
459.84	9921.53
460.03	9919.19
460.21	9685.14
460.39	9577.47
460.57	9947.28
460.76	9806.84
460.94	9994.09
461.12	9905.15
461.31	10026.86
461.49	9898.13
461.67	10043.24
461.85	10111.11
462.04	10108.77
462.22	10525.39
462.40	10143.88
462.59	10134.52
462.77	10274.95
462.95	10260.91
463.13	10277.29
463.32	10448.15
463.50	10347.51
463.68	10373.25
463.86	10726.68
464.05	10218.78
464.23	10478.58
464.41	10675.18
464.59	10438.79
464.78	10717.31
464.96	10665.82
465.14	10384.96
465.32	10736.04
465.50	10808.59
465.69	10651.78
465.87	10731.36
466.05	10649.44
466.23	10773.49
466.41	10993.50
466.60	11276.70
466.78	10815.62
466.96	10738.38
467.14	10839.02
467.32	11096.48
467.51	11288.40
467.69	10836.68
467.87	11112.86
468.05	11239.25
468.23	11019.24
468.41	10942.00
468.60	11119.89
468.78	11098.82
468.96	11353.94
469.14	11281.38
469.32	11461.60
469.50	11227.55
469.69	11503.73
469.87	11653.53
470.05	11644.17
470.23	11627.78
470.41	11494.37
470.59	11873.54
470.77	11592.67
470.95	11815.02
471.14	12126.32
471.32	11583.31
471.50	12325.26
471.68	12123.98
471.86	12348.67
472.04	12273.77
472.22	12432.93
472.40	12358.03
472.58	12472.71
472.77	12388.46
472.95	12425.90
473.13	12903.37
473.31	12638.89
473.49	12414.20
473.67	12514.84
473.85	12475.06
474.03	12985.29
474.21	13004.02
474.39	13062.53
474.57	13008.70
474.75	13420.63
474.93	13338.71
475.12	13284.88
475.30	13413.61
475.48	13401.91
475.66	13547.02
475.84	13867.67
476.02	13846.61
476.20	13673.41
476.38	13975.34
476.56	14221.10
476.74	14249.18
476.92	14061.94
477.10	14115.77
477.28	14436.42
477.46	14396.64
477.64	14497.28
477.82	14764.10
478.00	15056.67
478.18	15129.22
478.36	15346.89
478.54	15143.27
478.72	15382.00
478.90	15765.85
479.08	15529.45
479.26	15896.92
479.44	15587.97
479.62	16037.35
479.80	16030.33
479.98	16044.37
480.16	16308.85
480.34	16353.32
480.52	16453.97
480.70	16856.54
480.88	16533.54
481.06	16744.19
481.24	16676.32
481.41	17263.79
481.59	17109.32
481.77	17240.39
481.95	17481.46
482.13	17671.04
482.31	17598.49
482.49	18068.94
482.67	17980.00
482.85	18265.54
483.03	18586.19
483.21	18530.02
483.39	18806.20
483.57	18752.37
483.74	18888.12
483.92	19087.07
484.10	18693.86
484.28	19365.59
484.46	19389.00
484.64	20084.14
484.82	19592.62
485.00	19852.42
485.18	20049.03
485.35	20100.52
485.53	20451.60
485.71	20336.91
485.89	21256.75
486.07	20779.28
486.25	20917.37
486.43	20893.96
486.61	21474.42
486.78	21441.65
486.96	21781.03
487.14	22359.14
487.32	21860.60
487.50	22097.00
487.68	22097.00
487.85	22817.88
488.03	22801.50
488.21	23019.17
488.39	22932.57
488.57	23283.65
488.75	23330.46
488.92	23803.25
489.10	23929.64
489.28	23889.85
489.46	24348.59
489.64	23840.70
489.81	24486.68
489.99	24582.65
490.17	24746.48
490.35	25397.15
490.53	25230.98
490.70	25542.27
490.88	25193.53
491.06	25694.40
491.24	25703.76
491.41	26022.08
491.59	26103.99
491.77	25949.52
491.95	26639.98
492.13	26820.20
492.30	26520.61
492.48	27023.83
492.66	26967.65
492.84	27161.92
493.01	27321.07
493.19	26717.22
493.37	27765.78
493.54	27611.30
493.72	28304.10
493.90	28065.36
494.08	28250.27
494.25	28587.30
494.43	28503.04
494.61	28802.63
494.79	28910.30
494.96	28748.80
495.14	29355.00
495.32	29497.77
495.49	29984.60
495.67	29802.04
495.85	30513.56
496.02	30333.34
496.20	30735.92
496.38	30113.33
496.55	30457.39
496.73	31267.22
496.91	30824.86
497.09	31033.16
497.26	31379.56
497.44	31323.39
497.62	31138.49
497.79	31337.43
497.97	31803.20
498.14	32383.65
498.32	32648.13
498.50	32189.39
498.67	32751.12
498.85	32727.71
499.03	32875.16
499.20	32877.51
499.38	33039.00
499.56	33198.16
499.73	33242.63
499.91	33584.35
500.08	33570.30
500.26	33284.76
500.44	33713.08
500.61	33752.87
500.79	33364.34
500.97	34256.08
501.14	34380.13
501.32	34370.77
501.49	34476.09
501.67	34312.25
501.84	34553.33
502.02	34876.32
502.20	35276.55
502.37	35573.80
502.55	35175.91
502.72	35489.54
502.90	35297.62
503.07	35175.91
503.25	35421.67
503.43	35466.14
503.60	35840.62
503.78	36348.52
503.95	35945.95
504.13	36201.07
504.30	36278.30
504.48	35885.09
504.65	36374.27
504.83	37134.94
505.01	37102.17
505.18	36666.83
505.36	37514.11
505.53	36795.56
505.71	37174.73
505.88	37368.99
506.06	37132.60
506.23	37607.73
506.41	37488.36
506.58	38134.35
506.76	37668.58
506.93	38316.91
507.11	37680.28
507.28	38281.80
507.46	37972.85
507.63	38438.62
507.81	38827.15
507.98	38480.75
508.16	38490.11
508.33	39091.63
508.50	38965.24
508.68	39381.85
508.85	39423.98
509.03	39236.74
509.20	39821.87
509.38	39775.06
509.55	40151.89
509.73	39915.50
509.90	39840.60
510.08	40292.32
510.25	40318.07
510.42	40226.79
510.60	40755.75
510.77	40938.31
510.95	40924.27
511.12	40381.26
511.30	40914.90
511.47	41041.29
511.64	41024.91
511.82	40921.93
511.99	41397.06
512.17	41289.39
512.34	41223.86
512.51	41748.14
512.69	41553.87
512.86	41926.02
513.04	42253.69
513.21	42036.02
513.38	42143.69
513.56	42511.15
513.73	42052.41
513.90	42258.37
514.08	42649.24
514.25	42754.57
514.43	43005.00
514.60	42646.90
514.77	42958.19
514.95	43201.61
515.12	43129.05
515.29	43152.46
515.47	43517.58
515.64	43873.34
515.81	43250.76
515.99	43887.39
516.16	44378.90
516.33	43812.49
516.51	44533.37
516.68	43739.93
516.85	43805.47
517.03	44563.80
517.20	44605.93
517.37	44765.09
517.54	44186.97
517.72	44744.02
517.89	44486.56
518.06	44727.64
518.24	44823.60
518.41	45010.84
518.58	45092.76
518.75	45148.93
518.93	45226.17
519.10	45654.49
519.27	45455.54
519.45	45471.93
519.62	45223.83
519.79	44891.48
519.96	45347.88
520.14	46204.52
520.31	45375.97
520.48	46059.40
520.65	46377.72
520.83	46356.65
521.00	46248.99
521.17	46185.79
521.34	46241.96
521.52	46504.10
521.69	47021.36
521.86	46681.98
522.03	46773.27
522.20	46850.50
522.38	46836.46
522.55	46983.91
522.72	46951.15
522.89	47306.91
523.07	47751.61
523.24	47281.16
523.41	47391.17
523.58	47243.71
523.75	47833.53
523.92	47400.53
524.10	47505.85
524.27	47634.58
524.44	48264.19
524.61	47992.68
524.78	48102.69
524.96	48402.28
525.13	47714.16
525.30	47622.88
525.47	48409.30
525.64	48128.44
525.81	48626.97
525.98	48643.35
526.16	48610.59
526.33	48699.53
526.50	48849.32
526.67	48783.79
526.84	48416.32
527.01	48633.99
527.18	48966.35
527.36	48882.09
527.53	49198.06
527.70	49118.48
527.87	49326.79
528.04	49071.67
528.21	49200.40
528.38	49783.19
528.55	49392.33
528.72	49778.51
528.89	49614.68
529.07	49832.35
529.24	49521.05
529.41	50031.29
529.58	49694.25
529.75	49895.54
529.92	50115.55
530.09	49741.06
530.26	49813.62
530.43	50010.23
530.60	49830.01
530.77	50328.54
530.94	50087.46
531.11	49968.10
531.28	50045.33
531.46	50656.21
531.63	50483.01
531.80	50656.21
531.97	50272.37
532.14	50843.46
532.31	50857.50
532.48	50852.82
532.65	51047.08
532.82	50688.98
532.99	51168.79
533.16	50485.36
533.33	51026.02
533.50	51241.35
533.67	51203.90
533.84	50913.67
534.01	51096.24
534.18	51093.89
534.35	51196.88
534.52	51164.11
534.69	51370.08
534.86	51992.66
535.03	51248.37
535.20	51363.06
535.37	51466.04
535.54	51349.01
535.71	51576.04
535.88	51805.42
536.05	51695.41
536.22	52004.36
536.38	51807.76
536.55	52240.76
536.72	51969.26
536.89	51784.35
537.06	51697.75
537.23	52137.77
537.40	51842.87
537.57	51882.66
537.74	51966.91
537.91	52406.94
538.08	52025.43
538.25	52177.56
538.42	52451.41
538.59	52409.28
538.75	52114.37
538.92	52317.99
539.09	52547.37
539.26	52795.46
539.43	52437.36
539.60	52662.05
539.77	52704.18
539.94	52825.89
540.11	52776.74
540.28	52811.85
540.44	52711.20
540.61	52664.39
540.78	53029.52
540.95	52926.53
541.12	53148.88
541.29	52968.66
541.46	52849.30
541.62	52797.80
541.79	52933.56
541.96	52690.14
542.13	53064.63
542.30	53099.73
542.47	53502.31
542.63	53551.46
542.80	53502.31
542.97	53867.43
543.14	53762.11
543.31	53116.12
543.48	53535.07
543.64	53794.87
543.81	54195.10
543.98	53792.53
544.15	53839.34
544.32	54021.90
544.48	54155.32
544.65	53708.27
544.82	53773.81
544.99	53647.42
545.16	54094.46
545.32	54073.40
545.49	54253.62
545.66	54307.45
545.83	54047.65
546.00	54209.15
546.16	53996.16
546.33	53766.79
546.50	53911.90
546.67	54054.67
546.83	53839.34
547.00	54302.77
547.17	54148.29
547.34	54237.23
547.50	54494.69
547.67	54499.37
547.84	54508.74
548.00	54576.61
548.17	54681.94
548.34	54583.63
548.51	54740.45
548.67	54731.09
548.84	54422.14
549.01	54370.64
549.18	54585.97
549.34	54695.98
549.51	54857.48
549.68	54808.32
549.84	54834.07
550.01	55014.29
550.18	54948.76
550.34	55175.79
550.51	55114.94
550.68	55054.08
550.84	54817.69
551.01	55206.22
551.18	54794.28
551.34	55044.72
551.51	55051.74
551.68	54939.39
551.84	55292.82
552.01	54960.46
552.18	55393.46
552.34	55182.81
552.51	55140.68
552.68	55248.35
552.84	55210.90
553.01	55229.62
553.18	55309.20
553.34	55334.95
553.51	55295.16
553.67	55547.93
553.84	55449.63
554.01	55686.03
554.17	55503.46
554.34	55676.66
554.51	55463.67
554.67	55695.39
554.84	55688.37
555.00	55536.23
555.17	55779.65
555.33	55667.30
555.50	55508.14
555.67	55650.92
555.83	55714.11
556.00	55735.18
556.16	55817.10
556.33	55543.25
556.50	55901.36
556.66	55889.65
556.83	55721.13
556.99	56140.09
557.16	55908.38
557.32	56259.46
557.49	56109.66
557.65	55543.25
557.82	56041.79
557.98	55796.03
558.15	56053.49
558.32	56207.97
558.48	56018.38
558.65	56186.90
558.81	56261.80
558.98	56161.15
559.14	56128.39
559.31	55948.17
559.47	55973.91
559.64	56161.15
559.80	56395.21
559.97	56254.78
560.13	56114.34
560.30	56502.87
560.46	56378.82
560.63	56217.33
560.79	56416.27
560.96	56409.25
561.12	56296.91
561.29	56196.26
561.45	56442.02
561.61	56493.51
561.78	56278.18
561.94	56374.14
562.11	56313.29
562.27	56353.08
562.44	56076.90
562.60	56182.22
562.77	56467.76
562.93	56378.82
563.10	56851.61
563.26	56175.20
563.42	56622.24
563.59	56617.56
563.75	56526.28
563.92	56863.32
564.08	56678.41
564.24	56577.77
564.41	56470.11
564.57	56432.66
564.74	56537.98
564.90	56807.14
565.07	56942.89
565.23	56762.67
565.39	56514.58
565.56	56659.69
565.72	56507.55
565.88	56575.43
566.05	56456.06
566.21	56566.07
566.38	56594.15
566.54	56772.03
566.70	56772.03
566.87	56842.25
567.03	56865.66
567.19	57109.07
567.36	56800.12
567.52	56570.75
567.68	56928.85
567.85	56711.18
568.01	56765.01
568.17	56610.54
568.34	56835.23
568.50	57174.61
568.66	56968.64
568.83	56804.80
568.99	56718.20
569.15	56839.91
569.32	56423.29
569.48	56580.11
569.64	56933.53
569.81	56921.83
569.97	56631.60
570.13	57006.09
570.30	57151.20
570.46	57043.54
570.62	57059.92
570.78	56786.08
570.95	56683.09
571.11	56858.63
571.27	56725.22
571.43	57083.33
571.60	56832.89
571.76	57151.20
571.92	57015.45
572.09	57195.67
572.25	56952.26
572.41	56945.23
572.57	57015.45
572.74	57181.63
572.90	56853.95
573.06	56942.89
573.22	57008.43
573.38	57036.51
573.55	57013.11
573.71	57244.82
573.87	57373.55
574.03	57111.41
574.20	57055.24
574.36	57078.64
574.52	57104.39
574.68	57041.20
574.84	57336.10
575.01	57375.89
575.17	57284.61
575.33	57176.95
575.49	57139.50
575.65	57495.26
575.82	57425.04
575.98	57209.71
576.14	57226.10
576.30	57350.15
576.46	57186.31
576.62	57291.63
576.79	56910.13
576.95	56868.00
577.11	57153.54
577.27	57282.27
577.43	57483.56
577.59	57326.74
577.75	57123.11
577.92	57003.75
578.08	57080.98
578.24	57038.86
578.40	57085.67
578.56	57340.78
578.72	56872.68
578.88	57441.43
579.04	57478.88
579.21	57223.76
579.37	57048.22
579.53	57324.40
579.69	57158.22
579.85	57202.69
580.01	57202.69
580.17	57237.80
580.33	57478.88
580.49	57261.21
580.65	57394.62
580.82	57567.82
580.98	57312.70
581.14	57551.43
581.30	57310.36
581.46	57340.78
581.62	57216.74
581.78	57071.62
581.94	57350.15
582.10	57378.23
582.26	57298.65
582.42	57396.96
582.58	57616.97
582.74	57525.69
582.90	57471.85
583.06	57616.97
583.22	57471.85
583.38	57418.02
583.54	57670.80
583.70	57296.31
583.86	57422.70
584.02	57380.57
584.18	57668.46
584.34	57401.64
584.50	57560.79
584.66	57523.35
584.82	57006.09
584.98	57425.04
585.14	57528.03
585.30	57216.74
585.46	57462.49
585.62	57251.84
585.78	57415.68
585.94	57469.51
586.10	57382.91
586.26	57396.96
586.42	57242.48
586.58	57478.88
586.74	57652.08
586.90	57198.01
587.06	57368.87
587.22	57495.26
587.38	57396.96
587.54	57682.50
587.70	57640.37
587.86	57715.27
588.02	57546.75
588.18	57787.83
588.34	57497.60
588.49	57567.82
588.65	57403.98
588.81	57338.44
588.97	57663.78
589.13	57670.80
589.29	57549.09
589.45	57733.99
589.61	57659.10
