SpectraSuite Data File
++++++++++++++++++++++++++++++++++++
Date: Fri Oct 04 11:48:37 GMT-05:00 2013
User: price-jones
Dark Spectrum Present: No
Reference Spectrum Present: No
Number of Sampled Component Spectra: 1
Spectrometers: USB2+H05261
Integration Time (usec): 100000 (USB2+H05261)
Spectra Averaged: 1 (USB2+H05261)
Boxcar Smoothing: 0 (USB2+H05261)
Correct for Electrical Dark: No (USB2+H05261)
Strobe/Lamp Enabled: No (USB2+H05261)
Correct for Detector Non-linearity: No (USB2+H05261)
Correct for Stray Light: No (USB2+H05261)
Number of Pixels in Processed Spectrum: 2048
>>>>>Begin Processed Spectral Data<<<<<
365.73	0.00
365.92	0.00
366.12	0.00
366.32	0.00
366.52	0.00
366.72	0.00
366.91	0.00
367.11	0.00
367.31	0.00
367.51	0.00
367.70	0.00
367.90	0.00
368.10	0.00
368.30	0.00
368.49	0.00
368.69	0.00
368.89	0.00
369.09	0.00
369.28	0.00
369.48	0.00
369.68	0.00
369.87	0.00
370.07	0.00
370.27	37.45
370.47	51.49
370.66	119.37
370.86	67.88
371.06	173.20
371.25	126.39
371.45	198.95
371.65	210.65
371.84	98.30
372.04	128.73
372.24	173.20
372.44	175.54
372.63	208.31
372.83	280.86
373.03	257.46
373.22	222.35
373.42	170.86
373.62	152.13
373.81	145.11
374.01	292.57
374.21	271.50
374.40	215.33
374.60	283.20
374.79	252.78
374.99	271.50
375.19	245.76
375.38	280.86
375.58	189.58
375.78	306.61
375.97	299.59
376.17	269.16
376.37	255.12
376.56	205.97
376.76	283.20
376.95	222.35
377.15	280.86
377.35	252.78
377.54	308.95
377.74	236.39
377.93	168.52
378.13	252.78
378.33	224.69
378.52	222.35
378.72	266.82
378.91	311.29
379.11	248.10
379.31	238.73
379.50	189.58
379.70	241.08
379.89	290.23
380.09	301.93
380.28	231.71
380.48	238.73
380.68	231.71
380.87	264.48
381.07	297.25
381.26	306.61
381.46	283.20
381.65	252.78
381.85	208.31
382.04	222.35
382.24	344.06
382.43	269.16
382.63	224.69
382.83	292.57
383.02	259.80
383.22	229.37
383.41	236.39
383.61	337.04
383.80	255.12
384.00	386.19
384.19	351.08
384.39	236.39
384.58	306.61
384.78	276.18
384.97	355.76
385.17	266.82
385.36	299.59
385.56	294.91
385.75	327.68
385.95	287.89
386.14	374.49
386.34	285.55
386.53	322.99
386.72	285.55
386.92	318.31
387.11	344.06
387.31	278.52
387.50	299.59
387.70	322.99
387.89	264.48
388.09	294.91
388.28	386.19
388.48	325.33
388.67	308.95
388.86	365.12
389.06	367.46
389.25	322.99
389.45	327.68
389.64	360.44
389.84	362.78
390.03	369.80
390.22	337.04
390.42	320.65
390.61	397.89
390.81	395.55
391.00	400.23
391.19	341.72
391.39	374.49
391.58	372.15
391.78	428.32
391.97	423.64
392.16	411.93
392.36	437.68
392.55	395.55
392.75	456.40
392.94	517.26
393.13	372.15
393.33	388.53
393.52	407.25
393.71	458.74
393.91	465.77
394.10	383.85
394.29	440.02
394.49	456.40
394.68	449.38
394.88	512.58
395.07	463.43
395.26	475.13
395.46	388.53
395.65	505.56
395.84	475.13
396.04	582.79
396.23	517.26
396.42	470.45
396.62	531.30
396.81	552.37
397.00	521.94
397.19	554.71
397.39	479.81
397.58	517.26
397.77	526.62
397.97	610.88
398.16	514.92
398.35	613.22
398.55	557.05
398.74	606.20
398.93	613.22
399.12	613.22
399.32	599.18
399.51	617.90
399.70	622.58
399.90	550.03
400.09	620.24
400.28	592.16
400.47	624.92
400.67	692.80
400.86	589.82
401.05	667.05
401.24	779.40
401.44	636.63
401.63	744.29
401.82	662.37
402.01	631.94
402.21	816.85
402.40	741.95
402.59	727.91
402.78	748.97
402.97	695.14
403.17	716.20
403.36	690.46
403.55	718.54
403.74	800.46
403.93	866.00
404.13	884.72
404.32	730.25
404.51	809.83
404.70	873.02
404.89	784.08
405.09	926.85
405.28	919.83
405.47	943.24
405.66	987.71
405.85	910.47
406.05	945.58
406.24	940.90
406.43	1034.52
406.62	997.07
406.81	954.94
407.00	894.08
407.20	926.85
407.39	1050.90
407.58	983.02
407.77	1121.12
407.96	1111.75
408.15	1060.26
408.34	1109.41
408.54	1160.91
408.73	1130.48
408.92	1242.82
409.11	1214.74
409.30	1146.86
409.49	1174.95
409.68	1198.35
409.87	1245.16
410.07	1153.88
410.26	1219.42
410.45	1193.67
410.64	1317.72
410.83	1387.94
411.02	1263.89
411.21	1376.24
411.40	1380.92
411.59	1320.06
411.78	1359.85
411.98	1427.73
412.17	1451.13
412.36	1376.24
412.55	1362.19
412.74	1490.92
412.93	1479.22
413.12	1462.83
413.31	1535.39
413.50	1490.92
413.69	1554.12
413.88	1572.84
414.07	1563.48
414.26	1624.33
414.45	1647.74
414.64	1490.92
414.83	1659.44
415.02	1687.53
415.22	1748.38
415.41	1657.10
415.60	1715.61
415.79	1762.42
415.98	1790.51
416.17	1834.98
416.36	1863.07
416.55	1809.23
416.74	1865.41
416.93	1823.28
417.12	1980.09
417.31	1872.43
417.50	1919.24
417.69	1914.56
417.88	1994.14
418.07	1893.49
418.26	2062.01
418.45	1926.26
418.64	2071.37
418.83	2101.80
419.02	1952.01
419.21	2069.03
419.39	2085.42
419.58	1989.46
419.77	2019.88
419.96	2085.42
420.15	2176.70
420.34	2029.24
420.53	2087.76
420.72	2230.53
420.91	2165.00
421.10	2237.55
421.29	2300.75
421.48	2118.18
421.67	2335.85
421.86	2090.10
422.05	2260.96
422.24	2146.27
422.43	2342.88
422.61	2303.09
422.80	2181.38
422.99	2239.89
423.18	2284.36
423.37	2375.64
423.56	2310.11
423.75	2354.58
423.94	2324.15
424.13	2218.83
424.32	2361.60
424.50	2459.90
424.69	2361.60
424.88	2366.28
425.07	2387.35
425.26	2347.56
425.45	2354.58
425.64	2349.90
425.83	2321.81
426.01	2338.20
426.20	2265.64
426.39	2504.37
426.58	2314.79
426.77	2396.71
426.96	2392.03
427.15	2473.95
427.33	2399.05
427.52	2333.51
427.71	2368.62
427.90	2471.61
428.09	2546.50
428.28	2567.57
428.46	2546.50
428.65	2532.46
428.84	2651.83
429.03	2656.51
429.22	2478.63
429.40	2572.25
429.59	2567.57
429.78	2490.33
429.97	2408.41
430.16	2593.31
430.34	2700.98
430.53	2626.08
430.72	2616.72
430.91	2609.70
431.10	2628.42
431.28	2761.83
431.47	2696.30
431.66	2736.09
431.85	2630.76
432.03	2829.71
432.22	2825.03
432.41	2733.75
432.60	2874.18
432.79	2740.77
432.97	2743.11
433.16	2785.24
433.35	2825.03
433.54	2818.00
433.72	2920.99
433.91	2789.92
434.10	2958.44
434.28	2853.11
434.47	3042.70
434.66	2986.52
434.85	2981.84
435.03	2918.65
435.22	3000.57
435.41	3145.68
435.59	3014.61
435.78	3045.04
435.97	3141.00
436.16	3082.49
436.34	3045.04
436.53	3145.68
436.72	3176.11
436.90	3145.68
437.09	3052.06
437.28	2988.86
437.46	3009.93
437.65	3187.81
437.84	3300.16
438.02	3241.64
438.21	3232.28
438.40	3052.06
438.58	3206.53
438.77	3302.50
438.96	3323.56
439.14	3353.99
439.33	3281.43
439.52	3419.52
439.70	3349.31
439.89	3463.99
440.08	3384.41
440.26	3499.10
440.45	3459.31
440.63	3583.36
440.82	3471.01
441.01	3431.23
441.19	3679.32
441.38	3557.61
441.57	3625.49
441.75	3728.47
441.94	3688.68
442.12	3712.09
442.31	3815.07
442.50	3613.79
442.68	3763.58
442.87	3829.12
443.05	3833.80
443.24	3847.84
443.43	3922.74
443.61	3878.27
443.80	3941.46
443.98	3936.78
444.17	3737.84
444.35	4037.42
444.54	4032.74
444.73	4053.81
444.91	3922.74
445.10	3953.16
445.28	3868.91
445.47	3957.85
445.65	3911.04
445.84	3915.72
446.02	4044.45
446.21	3997.64
446.39	3981.25
446.58	3939.12
446.77	4002.32
446.95	3934.44
447.14	3969.55
447.32	4025.72
447.51	4049.13
447.69	4028.06
447.88	4212.96
448.06	4007.00
448.25	3992.95
448.43	3957.85
448.62	4018.70
448.80	4046.79
448.99	4084.23
449.17	4077.21
449.36	4037.42
449.54	4180.20
449.73	4224.67
449.91	4273.82
450.10	4236.37
450.28	4173.18
450.46	4163.81
450.65	4339.35
450.83	4304.25
451.02	4208.28
451.20	4257.43
451.39	4351.06
451.57	4283.18
451.76	4145.09
451.94	4407.23
452.13	4578.09
452.31	4414.25
452.49	4259.78
452.68	4168.49
452.86	4276.16
453.05	4550.00
453.23	4472.76
453.42	4393.19
453.60	4463.40
453.78	4482.13
453.97	4376.80
454.15	4498.51
454.34	4638.94
454.52	4552.34
454.70	4601.49
454.89	4641.28
455.07	4561.70
455.26	4505.53
455.44	4535.96
455.62	4617.88
455.81	4592.13
455.99	4688.09
456.17	4704.48
456.36	4723.20
456.54	4812.14
456.73	4762.99
456.91	4765.33
457.09	4940.87
457.28	5036.83
457.46	4802.78
457.64	4791.08
457.83	4891.72
458.01	4978.32
458.19	4990.02
458.38	5025.13
458.56	5118.75
458.74	4945.55
458.93	4999.38
459.11	5153.86
459.29	4945.55
459.48	5195.99
459.66	5018.11
459.84	5137.48
460.03	5170.24
460.21	5013.43
460.39	5252.16
460.57	5081.30
460.76	5036.83
460.94	5078.96
461.12	5132.79
461.31	5273.23
461.49	5177.26
461.67	5130.45
461.85	5425.36
462.04	5254.50
462.22	5729.63
462.40	5446.43
462.59	5533.03
462.77	5366.85
462.95	5355.15
463.13	5345.78
463.32	5352.81
463.50	5479.19
463.68	5537.71
463.86	5462.81
464.05	5579.84
464.23	5479.19
464.41	5432.38
464.59	5273.23
464.78	5437.06
464.96	5423.02
465.14	5441.75
465.32	5654.73
465.50	5645.37
465.69	5689.84
465.87	5600.90
466.05	5577.50
466.23	5640.69
466.41	5657.07
466.60	5785.80
466.78	5650.05
466.96	5572.82
467.14	5692.18
467.32	5621.97
467.51	5856.02
467.69	5493.24
467.87	5717.93
468.05	5832.62
468.23	5760.06
468.41	5804.53
468.60	5755.38
468.78	5790.49
468.96	5984.75
469.14	6045.60
469.32	5760.06
469.50	5841.98
469.69	5827.93
469.87	5907.51
470.05	6218.80
470.23	6085.39
470.41	5982.41
470.59	6228.17
470.77	6052.63
470.95	6125.18
471.14	6113.48
471.32	6232.85
471.50	6235.19
471.68	6359.24
471.86	6176.67
472.04	6452.86
472.22	6406.05
472.40	6356.90
472.58	6396.68
472.77	6464.56
472.95	6583.93
473.13	6717.34
473.31	6431.79
473.49	6612.01
473.67	6637.76
473.85	6565.20
474.03	6614.35
474.21	6705.63
474.39	6867.13
474.57	6885.86
474.75	6949.05
474.93	6949.05
475.12	6832.02
475.30	6862.45
475.48	6820.32
475.66	7035.65
475.84	7131.61
476.02	7000.54
476.20	7021.61
476.38	7309.49
476.56	7272.04
476.74	7375.03
476.92	7328.22
477.10	7169.06
477.28	7379.71
477.46	7321.20
477.64	7316.51
477.82	7452.27
478.00	7744.83
478.18	7810.37
478.36	7847.82
478.54	7899.31
478.72	7927.39
478.90	7747.17
479.08	7976.55
479.26	8056.12
479.44	8238.69
479.62	7957.82
479.80	8147.40
479.98	8297.20
480.16	8423.59
480.34	8376.78
480.52	8409.54
480.70	8596.79
480.88	8428.27
481.06	8549.98
481.24	8519.55
481.41	8594.45
481.59	8997.02
481.77	8968.93
481.95	8840.20
482.13	8884.67
482.31	8840.20
482.49	9025.11
482.67	9198.31
482.85	9092.98
483.03	9214.69
483.21	9420.66
483.39	9540.02
483.57	9383.21
483.74	9654.71
483.92	9643.01
484.10	9551.73
484.28	9713.22
484.46	9900.47
484.64	10139.20
484.82	10024.51
485.00	10289.00
485.18	10047.92
485.35	10448.15
485.53	10263.25
485.71	10356.87
485.89	10506.66
486.07	10609.65
486.25	10714.97
486.43	10427.09
486.61	10813.28
486.78	11035.63
486.96	10953.71
487.14	10895.19
487.32	11094.14
487.50	11236.91
487.68	11243.93
487.85	11098.82
488.03	11452.24
488.21	11536.50
488.39	11587.99
488.57	11686.29
488.75	11644.17
488.92	12205.89
489.10	11908.65
489.28	12175.47
489.46	12226.96
489.64	12112.27
489.81	12475.06
489.99	12587.40
490.17	12404.84
490.35	12650.60
490.53	12856.56
490.70	13156.15
490.88	12905.71
491.06	12999.34
491.24	12994.65
491.41	12936.14
491.59	13186.58
491.77	12978.27
491.95	13261.48
492.13	13217.01
492.30	13263.82
492.48	13357.44
492.66	13788.10
492.84	13650.00
493.01	13954.27
493.19	13790.44
493.37	14005.77
493.54	13783.41
493.72	14146.20
493.90	14258.54
494.08	14083.00
494.25	14134.50
494.43	14331.10
494.61	14525.36
494.79	14647.07
494.96	14443.45
495.14	14792.19
495.32	14670.48
495.49	15070.71
495.67	14841.34
495.85	15009.86
496.02	15115.18
496.20	15255.61
496.38	15206.46
496.55	15176.03
496.73	15384.34
496.91	15538.82
497.09	15524.77
497.26	15730.74
497.44	15445.20
497.62	15583.29
497.79	15847.77
497.97	15957.77
498.14	16135.65
498.32	16400.13
498.50	16189.49
498.67	16212.89
498.85	16327.58
499.03	16477.37
499.20	16613.12
499.38	16542.91
499.56	16311.19
499.73	16830.79
499.91	16823.77
500.08	16805.05
500.26	16826.11
500.44	16989.95
500.61	16929.09
500.79	16884.62
500.97	17179.53
501.14	17224.00
501.32	17301.24
501.49	17507.21
501.67	17050.80
501.84	17198.26
502.02	17174.85
502.20	17390.18
502.37	17647.64
502.55	17678.07
502.72	17645.30
502.90	17767.01
503.07	17706.15
503.25	17923.82
503.43	17689.77
503.60	17954.25
503.78	18389.59
503.95	17951.91
504.13	18097.02
504.30	18150.85
504.48	18263.20
504.65	18302.99
504.83	18256.18
505.01	18644.71
505.18	18523.00
505.36	18530.02
505.53	18515.98
505.71	18792.16
505.88	18621.30
506.06	18530.02
506.23	18869.40
506.41	18675.13
506.58	19021.53
506.76	19019.19
506.93	19000.47
507.11	18820.25
507.28	19271.97
507.46	18909.19
507.63	19342.19
507.81	19417.08
507.98	19627.73
508.16	19424.11
508.33	19503.68
508.50	19288.35
508.68	19695.61
508.85	19838.38
509.03	20091.16
509.20	19866.47
509.38	19833.70
509.55	20318.19
509.73	20147.33
509.90	20346.28
510.08	20037.33
510.25	20355.64
510.42	20210.53
510.60	20404.79
510.77	20411.81
510.95	20489.05
511.12	20432.88
511.30	20592.03
511.47	20512.46
511.64	20720.76
511.82	20774.60
511.99	20662.25
512.17	21062.48
512.34	20697.36
512.51	21181.85
512.69	21226.32
512.86	20954.82
513.04	21415.90
513.21	21408.88
513.38	21118.65
513.56	21404.20
513.73	21289.51
513.90	21163.12
514.08	21460.37
514.25	21759.96
514.43	21584.42
514.60	21617.19
514.77	21682.72
514.95	21617.19
515.12	21706.13
515.29	21766.98
515.47	21975.29
515.64	22047.85
515.81	21958.91
515.99	22274.88
516.16	22239.77
516.33	22230.41
516.51	22302.96
516.68	22050.19
516.85	21752.94
517.03	22607.23
517.20	22520.63
517.37	22679.79
517.54	22377.86
517.72	22632.98
517.89	22640.00
518.06	22438.72
518.24	22677.45
518.41	22817.88
518.58	22726.60
518.75	22279.56
518.93	22974.70
519.10	22721.92
519.27	23096.41
519.45	23180.67
519.62	22977.04
519.79	23084.70
519.96	23166.62
520.14	23171.30
520.31	23662.82
520.48	23295.35
520.65	23208.75
520.83	23594.94
521.00	23557.49
521.17	23255.56
521.34	23791.55
521.52	23791.55
521.69	23559.83
521.86	23393.65
522.03	23934.32
522.20	24046.66
522.38	23929.64
522.55	23632.39
522.72	23667.50
522.89	23887.51
523.07	24402.43
523.24	23917.93
523.41	24386.04
523.58	24187.10
523.75	24390.72
523.92	24114.54
524.10	24091.13
524.27	24491.37
524.44	24102.84
524.61	24699.67
524.78	24917.34
524.96	24980.54
525.13	24425.83
525.30	24685.63
525.47	24737.12
525.64	24620.10
525.81	25209.91
525.98	24989.90
526.16	25029.69
526.33	24905.64
526.50	25116.29
526.67	25032.03
526.84	24996.92
527.01	24697.33
527.18	25017.99
527.36	25376.09
527.53	25200.55
527.70	25537.59
527.87	25371.41
528.04	25521.20
528.21	25378.43
528.38	25425.24
528.55	25638.23
528.72	25663.97
528.89	25450.99
529.07	25432.26
529.24	25479.07
529.41	25923.77
529.58	25497.80
529.75	25675.68
529.92	25591.42
530.09	25797.38
530.26	25858.24
530.43	25979.95
530.60	25942.50
530.77	25795.04
530.94	25874.62
531.11	26099.31
531.28	25738.87
531.46	26012.71
531.63	26050.16
531.80	26305.28
531.97	26288.90
532.14	26246.77
532.31	25893.35
532.48	26239.75
532.65	26319.32
532.82	26162.51
532.99	26359.11
533.16	26422.31
533.33	26455.08
533.50	26628.27
533.67	26735.94
533.84	26279.54
534.01	26391.88
534.18	26244.43
534.35	26700.83
534.52	26363.79
534.69	26794.45
534.86	26932.54
535.03	26670.40
535.20	26796.79
535.37	26595.51
535.54	26953.61
535.71	27023.83
535.88	26565.08
536.05	26642.32
536.22	26991.06
536.38	27192.34
536.55	27281.28
536.72	27255.54
536.89	26876.37
537.06	27140.85
537.23	27145.53
537.40	27016.80
537.57	26974.67
537.74	27051.91
537.91	27358.52
538.08	27351.50
538.25	27103.40
538.42	27241.50
538.59	27484.91
538.75	27185.32
538.92	26909.14
539.09	27311.71
539.26	27665.13
539.43	27754.07
539.60	27744.71
539.77	27667.47
539.94	27730.67
540.11	27786.84
540.28	27559.81
540.44	27805.56
540.61	27772.80
540.78	27833.65
540.95	27730.67
541.12	27831.31
541.29	27690.88
541.46	27768.12
541.62	27585.55
541.79	27503.64
541.96	27438.10
542.13	28041.96
542.30	27847.69
542.47	28168.35
542.63	28130.90
542.80	28273.67
542.97	28498.36
543.14	28591.98
543.31	28388.36
543.48	28603.69
543.64	28472.62
543.81	28467.94
543.98	28512.41
544.15	28781.57
544.32	28432.83
544.48	28570.92
544.65	28739.44
544.82	28762.84
544.99	28339.21
545.16	29036.69
545.32	28474.96
545.49	28903.28
545.66	29280.10
545.83	28823.70
546.00	28975.83
546.16	28821.36
546.33	28699.65
546.50	28512.41
546.67	28713.69
546.83	29034.35
547.00	28765.18
547.17	28781.57
547.34	29207.55
547.50	29048.39
547.67	29244.99
547.84	28924.34
548.00	29076.48
548.17	29172.44
548.34	29394.79
548.51	29294.14
548.67	29097.54
548.84	29462.66
549.01	29312.87
549.18	29001.58
549.34	29439.26
549.51	29233.29
549.68	29263.72
549.84	29329.25
550.01	29579.69
550.18	29116.26
550.34	29680.33
550.51	29654.59
550.68	29331.59
550.84	29092.86
551.01	29502.45
551.18	29149.03
551.34	29282.44
551.51	29511.81
551.68	29591.39
551.84	29715.44
552.01	29809.06
552.18	29890.98
552.34	29404.15
552.51	29390.11
552.68	29401.81
552.84	29890.98
553.01	30122.69
553.18	29844.17
553.34	29982.26
553.51	29666.29
553.67	30150.78
553.84	30073.54
554.01	29872.26
554.17	30106.31
554.34	30129.72
554.51	29717.78
554.67	30087.59
554.84	30099.29
555.00	30277.17
555.17	29820.77
555.33	30349.73
555.50	30026.73
555.67	29766.93
555.83	29979.92
556.00	30054.82
556.16	30134.40
556.33	29844.17
556.50	30038.44
556.66	30139.08
556.83	30279.51
556.99	30487.82
557.16	30284.19
557.32	30469.09
557.49	30183.55
557.65	30071.20
557.82	30218.66
557.98	30146.10
558.15	30066.52
558.32	30443.35
558.48	30087.59
558.65	30057.16
558.81	30403.56
558.98	30483.14
559.14	30625.91
559.31	30061.84
559.47	30391.86
559.64	30349.73
559.80	30693.79
559.97	30469.09
560.13	30323.98
560.30	30679.74
560.46	30649.32
560.63	30785.07
560.79	30618.89
560.96	30295.89
561.12	30178.87
561.29	30443.35
561.45	30375.47
561.61	30778.04
561.78	30801.45
561.94	30625.91
562.11	30677.40
562.27	30560.37
562.44	30441.01
562.60	30504.20
562.77	30881.03
562.93	30677.40
563.10	30892.73
563.26	30476.12
563.42	30897.41
563.59	30558.03
563.75	30813.15
563.92	30618.89
564.08	30548.67
564.24	30892.73
564.41	30897.41
564.57	30782.73
564.74	30473.78
564.90	30740.60
565.07	30855.28
565.23	30756.98
565.39	30396.54
565.56	30600.16
565.72	30408.24
565.88	30911.46
566.05	30581.44
566.21	30661.02
566.38	30691.44
566.54	30799.11
566.70	30756.98
566.87	31051.89
567.03	30466.75
567.19	31395.95
567.36	30972.31
567.52	30534.63
567.68	30913.80
567.85	30265.47
568.01	30574.42
568.17	30738.26
568.34	30691.44
568.50	30967.63
568.66	30558.03
568.83	31075.29
568.99	30569.74
569.15	30424.62
569.32	30618.89
569.48	30499.52
569.64	31021.46
569.81	30834.22
569.97	30838.90
570.13	30806.13
570.30	30419.94
570.46	31007.42
570.62	30787.41
570.78	30429.30
570.95	30714.85
571.11	30974.65
571.27	30529.95
571.43	30881.03
571.60	30969.97
571.76	30705.49
571.92	30988.69
572.09	31262.54
572.25	31250.83
572.41	30892.73
572.57	30749.96
572.74	31192.32
572.90	30710.17
573.06	31016.78
573.22	30986.35
573.38	31182.96
573.55	30780.39
573.71	31117.42
573.87	31119.76
574.03	31047.21
574.20	30789.75
574.36	30974.65
574.52	30927.84
574.68	30986.35
574.84	31119.76
575.01	31096.36
575.17	31414.67
575.33	31206.36
575.49	31012.10
575.65	31201.68
575.82	30693.79
575.98	30782.73
576.14	31033.16
576.30	31019.12
576.46	30693.79
576.62	31033.16
576.79	31192.32
576.95	31065.93
577.11	30993.37
577.27	31012.10
577.43	30904.43
577.59	31290.62
577.75	31096.36
577.92	30993.37
578.08	31065.93
578.24	30843.58
578.40	31000.40
578.56	31241.47
578.72	30771.02
578.88	31344.45
579.04	31168.91
579.21	31068.27
579.37	31297.64
579.53	30920.82
579.69	30955.93
579.85	31112.74
580.01	30492.50
580.17	30609.53
580.33	31243.81
580.49	30916.14
580.65	31103.38
580.82	31379.56
580.98	31040.18
581.14	30918.48
581.30	31414.67
581.46	31030.82
581.62	30850.60
581.78	30810.81
581.94	31480.21
582.10	31000.40
582.26	31185.30
582.42	31042.53
582.58	31335.09
582.74	31026.14
582.90	30981.67
583.06	31424.03
583.22	31227.43
583.38	31040.18
583.54	31075.29
583.70	31377.22
583.86	31119.76
584.02	30948.90
584.18	31325.73
584.34	31049.55
584.50	31213.38
584.66	31122.10
584.82	30962.95
584.98	30972.31
585.14	30883.37
585.30	30824.86
585.46	30972.31
585.62	30995.71
585.78	31321.05
585.94	30955.93
586.10	31119.76
586.26	31058.91
586.42	31129.12
586.58	30771.02
586.74	31227.43
586.90	30679.74
587.06	30892.73
587.22	30944.22
587.38	31075.29
587.54	30925.50
587.70	31414.67
587.86	30803.79
588.02	31473.18
588.18	31466.16
588.34	31178.28
588.49	31281.26
588.65	30555.69
588.81	30862.30
588.97	31433.39
589.13	31314.03
589.29	30792.09
589.45	31494.25
589.61	31351.48
589.77	31267.22
589.93	31377.22
590.08	31349.14
590.24	31529.36
590.40	31459.14
590.56	31267.22
590.72	31250.83
590.88	31171.25
591.04	31147.85
591.20	31431.05
591.35	31262.54
591.51	31505.95
591.67	31709.58
591.83	31660.43
