SpectraSuite Data File
++++++++++++++++++++++++++++++++++++
Date: Fri Oct 04 11:48:32 GMT-05:00 2013
User: price-jones
Dark Spectrum Present: No
Reference Spectrum Present: No
Number of Sampled Component Spectra: 1
Spectrometers: USB2+H05261
Integration Time (usec): 100000 (USB2+H05261)
Spectra Averaged: 1 (USB2+H05261)
Boxcar Smoothing: 0 (USB2+H05261)
Correct for Electrical Dark: No (USB2+H05261)
Strobe/Lamp Enabled: No (USB2+H05261)
Correct for Detector Non-linearity: No (USB2+H05261)
Correct for Stray Light: No (USB2+H05261)
Number of Pixels in Processed Spectrum: 2048
>>>>>Begin Processed Spectral Data<<<<<
365.73	0.00
365.92	0.00
366.12	0.00
366.32	0.00
366.52	0.00
366.72	0.00
366.91	0.00
367.11	0.00
367.31	0.00
367.51	0.00
367.70	0.00
367.90	0.00
368.10	0.00
368.30	0.00
368.49	0.00
368.69	0.00
368.89	0.00
369.09	0.00
369.28	0.00
369.48	0.00
369.68	0.00
369.87	0.00
370.07	14.04
370.27	14.04
370.47	37.45
370.66	337.04
370.86	400.23
371.06	409.59
371.25	477.47
371.45	465.77
371.65	484.49
371.84	451.72
372.04	456.40
372.24	554.71
372.44	484.49
372.63	503.22
372.83	645.99
373.03	531.30
373.22	543.00
373.42	519.60
373.62	547.69
373.81	552.37
374.01	524.28
374.21	617.90
374.40	528.96
374.60	592.16
374.79	610.88
374.99	592.16
375.19	615.56
375.38	578.11
375.58	638.97
375.78	683.44
375.97	613.22
376.17	704.50
376.37	617.90
376.56	660.03
376.76	594.50
376.95	681.10
377.15	660.03
377.35	725.57
377.54	648.33
377.74	688.12
377.93	737.27
378.13	744.29
378.33	732.59
378.52	657.69
378.72	657.69
378.91	678.76
379.11	702.16
379.31	727.91
379.50	723.23
379.70	718.54
379.89	788.76
380.09	709.18
380.28	716.20
380.48	770.04
380.68	669.39
380.87	739.61
381.07	727.91
381.26	837.91
381.46	800.46
381.65	734.93
381.85	952.60
382.04	767.70
382.24	741.95
382.43	828.55
382.63	880.04
382.83	814.51
383.02	868.34
383.22	922.17
383.41	866.00
383.61	870.68
383.80	833.23
384.00	954.94
384.19	873.02
384.39	828.55
384.58	837.91
384.78	917.49
384.97	957.28
385.17	891.74
385.36	905.79
385.56	903.45
385.75	901.11
385.95	898.77
386.14	877.70
386.34	844.93
386.53	966.64
386.72	898.77
386.92	961.96
387.11	933.87
387.31	905.79
387.50	952.60
387.70	954.94
387.89	1057.92
388.09	1083.67
388.28	959.62
388.48	1027.50
388.67	1081.33
388.86	1027.50
389.06	1001.75
389.25	1156.22
389.45	1083.67
389.64	1043.88
389.84	1156.22
390.03	1093.03
390.22	1167.93
390.42	1226.44
390.61	1086.01
390.81	1078.99
391.00	1179.63
391.19	1137.50
391.39	1146.86
391.58	1214.74
391.78	1207.72
391.97	1186.65
392.16	1277.93
392.36	1214.74
392.55	1303.68
392.75	1280.27
392.94	1254.53
393.13	1315.38
393.33	1266.23
393.52	1242.82
393.71	1362.19
393.91	1369.21
394.10	1331.76
394.29	1341.13
394.49	1261.55
394.68	1406.66
394.88	1404.32
395.07	1359.85
395.26	1418.36
395.46	1352.83
395.65	1453.47
395.84	1411.34
396.04	1544.75
396.23	1462.83
396.42	1411.34
396.62	1413.68
396.81	1406.66
397.00	1420.71
397.19	1467.52
397.39	1502.62
397.58	1481.56
397.77	1441.77
397.97	1598.59
398.16	1472.20
398.35	1617.31
398.55	1542.41
398.74	1647.74
398.93	1778.81
399.12	1565.82
399.32	1593.90
399.51	1636.03
399.70	1781.15
399.90	1621.99
400.09	1659.44
400.28	1703.91
400.47	1680.50
400.67	1771.79
400.86	1804.55
401.05	1643.06
401.24	1816.26
401.44	1820.94
401.63	1863.07
401.82	1739.02
402.01	1708.59
402.21	1856.04
402.40	1849.02
402.59	1783.49
402.78	1746.04
402.97	1874.77
403.17	1956.69
403.36	1923.92
403.55	1886.47
403.74	2038.61
403.93	2033.93
404.13	1867.75
404.32	1966.05
404.51	1970.73
404.70	1952.01
404.89	2029.24
405.09	2108.82
405.28	2057.33
405.47	2087.76
405.66	2174.36
405.85	2218.83
406.05	2076.06
406.24	2307.77
406.43	2291.38
406.62	2181.38
406.81	2396.71
407.00	2275.00
407.20	2134.57
407.39	2202.44
407.58	2361.60
407.77	2441.18
407.96	2242.23
408.15	2436.50
408.34	2459.90
408.54	2403.73
408.73	2417.77
408.92	2434.16
409.11	2527.78
409.30	2537.14
409.49	2527.78
409.68	2506.71
409.87	2445.86
410.07	2600.34
410.26	2715.02
410.45	2567.57
410.64	2544.16
410.83	2677.57
411.02	2705.66
411.21	2693.96
411.40	2729.06
411.59	2612.04
411.78	2778.22
411.98	2656.51
412.17	2848.43
412.36	2808.64
412.55	2963.12
412.74	2958.44
412.93	2881.20
413.12	2981.84
413.31	3068.44
413.50	2972.48
413.69	3192.49
413.88	3117.59
414.07	3082.49
414.26	3253.34
414.45	3162.06
414.64	3141.00
414.83	3187.81
415.02	3145.68
415.22	3110.57
415.41	3368.03
415.60	3379.73
415.79	3403.14
415.98	3417.18
416.17	3545.91
416.36	3314.20
416.55	3417.18
416.74	3599.74
416.93	3489.74
417.12	3578.68
417.31	3688.68
417.50	3646.55
417.69	3864.22
417.88	3770.60
418.07	3829.12
418.26	3559.95
418.45	3667.62
418.64	3889.97
418.83	3873.59
419.02	3929.76
419.21	3866.56
419.39	3925.08
419.58	3644.21
419.77	3822.09
419.96	3948.48
420.15	3840.82
420.34	3985.93
420.53	3831.46
420.72	4009.34
420.91	4102.96
421.10	4215.30
421.29	4095.94
421.48	4105.30
421.67	4091.26
421.86	4145.09
422.05	4229.35
422.24	4250.41
422.43	4212.96
422.61	4227.01
422.80	4203.60
422.99	4329.99
423.18	4294.88
423.37	4280.84
423.56	4194.24
423.75	4194.24
423.94	4346.37
424.13	4175.52
424.32	4114.66
424.50	4383.82
424.69	4318.29
424.88	4489.15
425.07	4334.67
425.26	4386.16
425.45	4341.69
425.64	4294.88
425.83	4294.88
426.01	4409.57
426.20	4444.68
426.39	4440.00
426.58	4344.03
426.77	4447.02
426.96	4374.46
427.15	4395.53
427.33	4524.26
427.52	4451.70
427.71	4496.17
427.90	4528.94
428.09	4610.86
428.28	4566.39
428.46	4643.62
428.65	4685.75
428.84	4699.80
429.03	4791.08
429.22	4638.94
429.40	4889.38
429.59	4847.25
429.78	4599.15
429.97	4594.47
430.16	4662.35
430.34	4898.74
430.53	4891.72
430.72	4910.44
430.91	4791.08
431.10	4802.78
431.28	4889.38
431.47	5025.13
431.66	4973.64
431.85	5046.20
432.03	5163.22
432.22	5224.08
432.41	5144.50
432.60	5125.77
432.79	5238.12
432.97	5203.01
433.16	5221.74
433.35	5198.33
433.54	5362.17
433.72	5334.08
433.91	5329.40
434.10	5432.38
434.28	5343.44
434.47	5341.10
434.66	5507.28
434.85	5650.05
435.03	5462.81
435.22	5533.03
435.41	5764.74
435.59	5460.47
435.78	5556.43
435.97	5645.37
436.16	5792.83
436.34	5675.80
436.53	5661.76
436.72	5970.71
436.90	5502.60
437.09	5687.50
437.28	5738.99
437.46	5860.70
437.65	5820.91
437.84	5956.66
438.02	5909.85
438.21	5881.77
438.40	6010.50
438.58	6003.47
438.77	6218.80
438.96	6136.88
439.14	6356.90
439.33	6317.11
439.52	6298.38
439.70	6368.60
439.89	6331.15
440.08	6333.49
440.26	6462.22
440.45	6445.84
440.63	6548.82
440.82	6572.22
441.01	6679.89
441.19	6752.45
441.38	6628.40
441.57	6740.74
441.75	6782.87
441.94	7016.93
442.12	7129.27
442.31	7005.22
442.50	7105.87
442.68	7019.27
442.87	7187.79
443.05	7098.84
443.24	7288.43
443.43	7246.30
443.61	7311.83
443.80	7213.53
443.98	7192.47
444.17	6862.45
444.35	7365.67
444.54	7353.96
444.73	7258.00
444.91	7253.32
445.10	7318.86
445.28	7260.34
445.47	7201.83
445.65	7314.17
445.84	7435.88
446.02	7442.90
446.21	7227.57
446.39	7194.81
446.58	7461.63
446.77	7620.78
446.95	7335.24
447.14	7389.07
447.32	7456.95
447.51	7602.06
447.69	7445.24
447.88	7433.54
448.06	7555.25
448.25	7552.91
448.43	7693.34
448.62	7541.21
448.80	7499.08
448.99	7611.42
449.17	7791.64
449.36	7480.35
449.54	7641.85
449.73	7754.19
449.91	7908.67
450.10	7913.35
450.28	7906.33
450.46	7747.17
450.65	7669.94
450.83	7868.88
451.02	8009.31
451.20	8112.30
451.39	8098.25
451.57	7985.91
451.76	7981.23
451.94	8145.06
452.13	8346.35
452.31	8292.52
452.49	7894.63
452.68	8477.42
452.86	8203.58
453.05	8276.13
453.23	8372.10
453.42	8414.23
453.60	8252.73
453.78	8266.77
453.97	8308.90
454.15	8411.89
454.34	8166.13
454.52	8589.77
454.70	8470.40
454.89	8624.87
455.07	8620.19
455.26	8540.61
455.44	8730.20
455.62	8645.94
455.81	8648.28
455.99	8659.98
456.17	8980.64
456.36	8877.65
456.54	8964.25
456.73	8945.53
456.91	9130.43
457.09	9261.50
457.28	9322.35
457.46	9088.30
457.64	9167.88
457.83	9348.10
458.01	9081.28
458.19	9355.12
458.38	9217.03
458.56	9092.98
458.74	9441.72
458.93	9554.07
459.11	9343.42
459.29	9591.52
459.48	9682.80
459.66	9654.71
459.84	9448.74
460.03	9591.52
460.21	9561.09
460.39	9687.48
460.57	9582.15
460.76	9788.12
460.94	9694.50
461.12	9619.60
461.31	9944.94
461.49	9973.02
461.67	9738.97
461.85	10265.59
462.04	10022.17
462.22	10429.43
462.40	10263.25
462.59	10167.29
462.77	10232.82
462.95	10169.63
463.13	10171.97
463.32	10356.87
463.50	10298.36
463.68	10345.17
463.86	10216.44
464.05	10260.91
464.23	10366.23
464.41	10415.38
464.59	10326.44
464.78	10525.39
464.96	10588.58
465.14	10523.05
465.32	10789.87
465.50	10675.18
465.69	10747.74
465.87	10611.99
466.05	10698.59
466.23	10682.20
466.41	10949.03
466.60	10984.13
466.78	10787.53
466.96	10623.69
467.14	10717.31
467.32	10815.62
467.51	11089.46
467.69	10778.17
467.87	11101.16
468.05	10988.82
468.23	11023.92
468.41	10878.81
468.60	11260.32
468.78	11346.92
468.96	11061.37
469.14	11283.72
469.32	11389.05
469.50	11098.82
469.69	11473.31
469.87	11658.21
470.05	11325.85
470.23	11555.22
470.41	11686.29
470.59	11639.48
470.77	11550.54
470.95	11667.57
471.14	11906.31
471.32	11644.17
471.50	11953.12
471.68	12084.19
471.86	12140.36
472.04	12013.97
472.22	12421.22
472.40	12138.02
472.58	12376.75
472.77	11995.25
472.95	12346.33
473.13	12711.45
473.31	12348.67
473.49	12463.35
473.67	12568.68
473.85	12638.89
474.03	12503.14
474.21	12805.07
474.39	13032.10
474.57	12910.40
474.75	13090.62
474.93	13329.35
475.12	13437.02
475.30	13247.43
475.48	13013.38
475.66	13462.76
475.84	13401.91
476.02	13530.64
476.20	13605.53
476.38	13809.16
476.56	14265.57
476.74	13982.36
476.92	13987.04
477.10	14380.25
477.28	14239.82
477.46	14122.79
477.64	14600.26
477.82	14574.52
478.00	15007.52
478.18	14703.25
478.36	14775.80
478.54	15246.25
478.72	15112.84
478.90	15143.27
479.08	15414.77
479.26	15667.55
479.44	15824.36
479.62	16119.27
479.80	15967.13
479.98	16194.17
480.16	16353.32
480.34	16301.83
480.52	16353.32
480.70	16627.17
480.88	16465.67
481.06	16746.53
481.24	16491.41
481.41	16884.62
481.59	17060.16
481.77	17469.76
481.95	17090.59
482.13	17528.27
482.31	17481.46
482.49	17839.56
482.67	17720.20
482.85	18111.07
483.03	18150.85
483.21	18492.57
483.39	18452.78
483.57	18380.23
483.74	18801.52
483.92	18778.12
484.10	18923.23
484.28	19220.48
484.46	19442.83
484.64	19840.72
484.82	19323.46
485.00	19508.37
485.18	20231.59
485.35	20294.79
485.53	20432.88
485.71	20196.48
485.89	20683.31
486.07	20531.18
486.25	20865.88
486.43	20851.83
486.61	21209.93
486.78	21455.69
486.96	21446.33
487.14	21703.79
487.32	21806.77
487.50	22352.12
487.68	22307.65
487.85	22389.56
488.03	22789.80
488.21	23077.68
488.39	23073.00
488.57	23178.33
488.75	23349.18
488.92	23700.26
489.10	23515.36
489.28	24095.82
489.46	23988.15
489.64	23850.06
489.81	24584.99
489.99	24694.99
490.17	24781.59
490.35	24971.18
490.53	24861.17
490.70	25118.63
490.88	25383.11
491.06	25392.47
491.24	25312.89
491.41	25795.04
491.59	26214.00
491.77	26326.35
491.95	26553.38
492.13	26202.30
492.30	26569.76
492.48	26892.76
492.66	26829.56
492.84	26614.23
493.01	27211.07
493.19	27346.82
493.37	27711.94
493.54	27641.73
493.72	28112.17
493.90	28369.63
494.08	28247.93
494.25	28439.85
494.43	28641.14
494.61	29160.73
494.79	28870.51
494.96	28929.02
495.14	29261.38
495.32	29474.37
495.49	29497.77
495.67	29675.65
495.85	30054.82
496.02	30036.09
496.20	30183.55
496.38	30122.69
496.55	30361.43
496.73	30876.35
496.91	30684.42
497.09	30635.27
497.26	31452.12
497.44	31108.06
497.62	31599.57
497.79	31536.38
497.97	31885.12
498.14	31711.92
498.32	32194.07
498.50	32093.43
498.67	32568.55
498.85	32374.29
499.03	32718.35
499.20	32886.87
499.38	32381.31
499.56	32975.81
499.73	33663.93
499.91	33457.96
500.08	33385.40
500.26	33649.88
500.44	33570.30
500.61	33649.88
500.79	33490.73
500.97	34251.40
501.14	34389.49
501.32	34518.22
501.49	34284.17
501.67	34415.24
501.84	34771.00
502.02	34810.79
502.20	34785.04
502.37	35103.35
502.55	34801.43
502.72	35288.26
502.90	35414.65
503.07	34969.94
503.25	35873.39
503.43	35192.30
503.60	35768.07
503.78	35597.21
503.95	36016.16
504.13	36275.96
504.30	36261.92
504.48	36161.28
504.65	36278.30
504.83	37097.49
505.01	36671.51
505.18	36664.49
505.36	37516.45
505.53	37060.04
505.71	36980.46
505.88	37022.59
506.06	37174.73
506.23	37663.90
506.41	37504.74
506.58	38059.45
506.76	37703.69
506.93	38113.28
507.11	37633.47
507.28	38169.46
507.46	38059.45
507.63	38499.47
507.81	38785.02
507.98	38487.77
508.16	38522.88
508.33	38756.93
508.50	38546.28
508.68	39056.52
508.85	39152.48
509.03	39330.36
509.20	39718.89
509.38	39695.49
509.55	39452.07
509.73	39541.01
509.90	39613.57
510.08	39711.87
510.25	39966.99
510.42	40018.48
510.60	40498.29
510.77	40903.20
510.95	40950.01
511.12	40414.03
511.30	40615.32
511.47	40765.11
511.64	40879.80
511.82	41258.96
511.99	41315.14
512.17	41713.03
512.34	41556.21
512.51	41345.56
512.69	42089.85
512.86	42110.92
513.04	42017.30
513.21	41928.36
513.38	42602.43
513.56	42223.26
513.73	41998.57
513.90	42576.69
514.08	42412.85
514.25	42377.74
514.43	42953.51
514.60	42951.17
514.77	42831.80
514.95	43208.63
515.12	42639.88
515.29	43009.68
515.47	43428.64
515.64	43484.81
515.81	43129.05
515.99	43529.28
516.16	43917.81
516.33	44371.88
516.51	44041.86
516.68	43416.94
516.85	43208.63
517.03	44149.53
517.20	44409.32
517.37	43992.71
517.54	44666.78
517.72	45001.48
517.89	44093.35
518.06	44463.16
518.24	44308.68
518.41	44582.52
518.58	45029.57
518.75	44797.85
518.93	45268.30
519.10	44844.66
519.27	45476.61
519.45	45057.65
519.62	45439.16
519.79	45378.31
519.96	45713.00
520.14	45769.18
520.31	45825.35
520.48	46085.15
520.65	45675.55
520.83	45942.38
521.00	45799.60
521.17	46000.89
521.34	46244.30
521.52	46461.97
521.69	46571.98
521.86	46696.03
522.03	46330.90
522.20	46719.43
522.38	46930.08
522.55	47152.43
522.72	46843.48
522.89	46988.60
523.07	47175.84
523.24	47618.20
523.41	47206.26
523.58	47459.04
523.75	47271.80
523.92	47447.34
524.10	47367.76
524.27	47845.23
524.44	48222.06
524.61	48325.04
524.78	48126.10
524.96	47693.10
525.13	48245.46
525.30	48004.39
525.47	48238.44
525.64	48100.35
525.81	48624.63
525.98	48318.02
526.16	48512.28
526.33	48479.52
526.50	48811.87
526.67	48671.44
526.84	48715.91
527.01	48236.10
527.18	48720.59
527.36	49066.99
527.53	49078.69
527.70	49399.35
527.87	49443.82
528.04	48619.95
528.21	49411.05
528.38	49310.41
528.55	49579.57
528.72	49272.96
528.89	49551.48
529.07	49710.64
529.24	49476.58
529.41	49724.68
529.58	49808.94
529.75	49509.35
529.92	49443.82
530.09	49680.21
530.26	49991.50
530.43	50131.93
530.60	50110.87
530.77	49773.83
530.94	50263.00
531.11	50220.87
531.28	50267.69
531.46	50157.68
531.63	50279.39
531.80	50726.43
531.97	50901.97
532.14	50525.14
532.31	50623.45
532.48	50396.42
532.65	50738.13
532.82	50635.15
532.99	50611.74
533.16	50564.93
533.33	50887.93
533.50	51215.60
533.67	51054.11
533.84	51021.34
534.01	50824.73
534.18	51044.74
534.35	51260.07
534.52	51304.54
534.69	51540.94
534.86	51554.98
535.03	51601.79
535.20	51664.99
535.37	51765.63
535.54	51505.83
535.71	51196.88
535.88	51356.03
536.05	51353.69
536.22	51767.97
536.38	51793.71
536.55	51995.00
536.72	51990.32
536.89	51564.34
537.06	51789.03
537.23	52257.14
537.40	51807.76
537.57	52046.49
537.74	52261.82
537.91	52285.23
538.08	52210.33
538.25	52390.55
538.42	51896.70
538.59	52058.20
538.75	52154.16
538.92	52507.58
539.09	52800.15
539.26	52636.31
539.43	52334.38
539.60	52463.11
539.77	52530.98
539.94	52699.50
540.11	52729.93
540.28	52648.01
540.44	52924.19
540.61	52989.73
540.78	52882.06
540.95	53066.97
541.12	53165.27
541.29	52963.98
541.46	52980.37
541.62	52736.95
541.79	53073.99
541.96	53240.17
542.13	53125.48
542.30	53055.26
542.47	53544.44
542.63	53095.05
542.80	53684.87
542.97	53593.59
543.14	53453.15
543.31	53586.57
543.48	53549.12
543.64	54145.95
543.81	54047.65
543.98	53722.32
544.15	54150.63
544.32	53984.46
544.48	54059.35
544.65	53977.43
544.82	53949.35
544.99	53539.75
545.16	54073.40
545.32	53914.24
545.49	54071.06
545.66	54681.94
545.83	54534.48
546.00	54293.41
546.16	54307.45
546.33	53963.39
546.50	54014.88
546.67	54248.94
546.83	53794.87
547.00	54199.79
547.17	54288.73
547.34	54415.11
547.50	54571.93
547.67	54642.15
547.84	54387.03
548.00	54759.17
548.17	54684.28
548.34	54422.14
548.51	54873.86
548.67	55014.29
548.84	54850.45
549.01	54869.18
549.18	54770.88
549.34	54885.56
549.51	54635.13
549.68	54873.86
549.84	54820.03
550.01	54848.11
550.18	54607.04
550.34	55105.57
550.51	55234.30
550.68	55187.49
550.84	55025.99
551.01	54897.27
551.18	55009.61
551.34	54932.37
551.51	54901.95
551.68	55203.88
551.84	55517.51
552.01	55175.79
552.18	55463.67
552.34	55346.65
552.51	55526.87
552.68	55360.69
552.84	55496.44
553.01	55283.45
553.18	55480.06
553.34	55405.16
553.51	55494.10
553.67	55774.97
553.84	55945.83
554.01	55763.26
554.17	55721.13
554.34	55686.03
554.51	55590.06
554.67	55800.71
554.84	55569.00
555.00	55723.47
555.17	55510.49
555.33	55760.92
555.50	55955.19
555.67	55828.80
555.83	56067.53
556.00	55990.30
556.16	56137.75
556.33	56212.65
556.50	56009.02
556.66	56119.02
556.83	55891.99
556.99	56219.67
557.16	56381.16
557.32	56147.11
557.49	56418.61
557.65	55828.80
557.82	55934.12
557.98	56020.72
558.15	56151.79
558.32	56294.56
558.48	56519.26
558.65	56444.36
558.81	56507.55
558.98	56212.65
559.14	56191.58
559.31	56170.52
559.47	56341.38
559.64	56477.13
559.80	56465.42
559.97	56514.58
560.13	56545.00
560.30	56378.82
560.46	56481.81
560.63	56626.92
560.79	56451.38
560.96	56793.10
561.12	56645.65
561.29	56479.47
561.45	56573.09
561.61	56921.83
561.78	56608.20
561.94	56755.65
562.11	56816.50
562.27	56814.16
562.44	56767.35
562.60	56713.52
562.77	56554.36
562.93	56645.65
563.10	56980.34
563.26	56694.80
563.42	57125.46
563.59	56882.04
563.75	57127.80
563.92	56818.84
564.08	56662.03
564.24	56701.82
564.41	56800.12
564.57	56633.94
564.74	56837.57
564.90	57029.49
565.07	57298.65
565.23	56952.26
565.39	57041.20
565.56	56989.70
565.72	56767.35
565.88	56769.69
566.05	56996.73
566.21	56846.93
566.38	56940.55
566.54	57013.11
566.70	57099.71
566.87	57088.01
567.03	57069.28
567.19	57368.87
567.36	57249.50
567.52	56879.70
567.68	57139.50
567.85	56928.85
568.01	56875.02
568.17	56949.92
568.34	56931.19
568.50	57134.82
568.66	57286.95
568.83	57223.76
568.99	57134.82
569.15	57116.09
569.32	57195.67
569.48	57076.30
569.64	57233.12
569.81	56863.32
569.97	57125.46
570.13	57375.89
570.30	57261.21
570.46	57235.46
570.62	57256.53
570.78	57399.30
570.95	57113.75
571.11	57315.04
571.27	57277.59
571.43	57357.17
571.60	57279.93
571.76	57303.34
571.92	57324.40
572.09	57474.20
572.25	57492.92
572.41	57432.07
572.57	57216.74
572.74	57361.85
572.90	57139.50
573.06	57382.91
573.22	57312.70
573.38	57132.48
573.55	57286.95
573.71	57602.92
573.87	57556.11
574.03	57235.46
574.20	57396.96
574.36	57343.12
574.52	57301.00
574.68	57272.91
574.84	57572.50
575.01	57572.50
575.17	57326.74
575.33	57612.29
575.49	57319.72
575.65	57717.61
575.82	57577.18
575.98	57265.89
576.14	57621.65
576.30	57609.95
576.46	57284.61
576.62	57429.72
576.79	57425.04
576.95	57389.94
577.11	57577.18
577.27	57380.57
577.43	57738.68
577.59	57460.15
577.75	57602.92
577.92	57518.67
578.08	57602.92
578.24	57462.49
578.40	57530.37
578.56	57406.32
578.72	57546.75
578.88	57776.12
579.04	57806.55
579.21	57682.50
579.37	57741.02
579.53	57453.13
579.69	57607.61
579.85	57656.76
580.01	57687.18
580.17	57443.77
580.33	57408.66
580.49	57722.29
580.65	57827.62
580.82	57682.50
580.98	57609.95
581.14	57497.60
581.30	57902.51
581.46	57469.51
581.62	57319.72
581.78	57425.04
581.94	57631.01
582.10	57422.70
582.26	57869.75
582.42	57759.74
582.58	57769.10
582.74	57792.51
582.90	57750.38
583.06	57581.86
583.22	57708.25
583.38	57841.66
583.54	57745.70
583.70	57752.72
583.86	57645.05
584.02	57834.64
584.18	57991.45
584.34	57691.86
584.50	57984.43
584.66	57844.00
584.82	57733.99
584.98	57829.96
585.14	57661.44
585.30	57453.13
585.46	57640.37
585.62	57666.12
585.78	57743.36
585.94	57563.14
586.10	57661.44
586.26	57851.02
586.42	57916.56
586.58	58071.03
586.74	57794.85
586.90	57703.57
587.06	57647.39
587.22	57867.40
587.38	57801.87
587.54	58122.52
587.70	58038.26
587.86	57883.79
588.02	57989.11
588.18	58202.10
588.34	57977.41
588.49	57975.07
588.65	57895.49
588.81	57794.85
588.97	57925.92
589.13	58000.82
589.29	57860.38
589.45	57921.24
