SpectraSuite Data File
++++++++++++++++++++++++++++++++++++
Date: Fri Oct 04 11:48:31 GMT-05:00 2013
User: price-jones
Dark Spectrum Present: No
Reference Spectrum Present: No
Number of Sampled Component Spectra: 1
Spectrometers: USB2+H05261
Integration Time (usec): 100000 (USB2+H05261)
Spectra Averaged: 1 (USB2+H05261)
Boxcar Smoothing: 0 (USB2+H05261)
Correct for Electrical Dark: No (USB2+H05261)
Strobe/Lamp Enabled: No (USB2+H05261)
Correct for Detector Non-linearity: No (USB2+H05261)
Correct for Stray Light: No (USB2+H05261)
Number of Pixels in Processed Spectrum: 2048
>>>>>Begin Processed Spectral Data<<<<<
365.73	32.77
365.92	32.77
366.12	32.77
366.32	0.00
366.52	0.00
366.72	0.00
366.91	0.00
367.11	0.00
367.31	0.00
367.51	0.00
367.70	0.00
367.90	0.00
368.10	0.00
368.30	0.00
368.49	0.00
368.69	0.00
368.89	0.00
369.09	0.00
369.28	0.00
369.48	0.00
369.68	0.00
369.87	25.75
370.07	0.00
370.27	0.00
370.47	86.60
370.66	334.70
370.86	353.42
371.06	444.70
371.25	449.38
371.45	379.17
371.65	475.13
371.84	519.60
372.04	409.59
372.24	512.58
372.44	486.83
372.63	491.51
372.83	592.16
373.03	519.60
373.22	568.75
373.42	468.11
373.62	449.38
373.81	571.09
374.01	552.37
374.21	559.39
374.40	596.84
374.60	610.88
374.79	585.13
374.99	571.09
375.19	674.07
375.38	678.76
375.58	657.69
375.78	671.73
375.97	643.65
376.17	688.12
376.37	653.01
376.56	683.44
376.76	620.24
376.95	589.82
377.15	624.92
377.35	568.75
377.54	634.29
377.74	643.65
377.93	634.29
378.13	662.37
378.33	706.84
378.52	671.73
378.72	697.48
378.91	713.86
379.11	713.86
379.31	685.78
379.50	727.91
379.70	758.33
379.89	648.33
380.09	709.18
380.28	702.16
380.48	758.33
380.68	758.33
380.87	758.33
381.07	786.42
381.26	770.04
381.46	779.40
381.65	753.65
381.85	753.65
382.04	793.44
382.24	844.93
382.43	854.30
382.63	821.53
382.83	791.10
383.02	880.04
383.22	868.34
383.41	793.44
383.61	856.64
383.80	868.34
384.00	849.61
384.19	954.94
384.39	924.51
384.58	875.36
384.78	987.71
384.97	952.60
385.17	877.70
385.36	802.80
385.56	929.19
385.75	861.32
385.95	877.70
386.14	985.37
386.34	994.73
386.53	933.87
386.72	987.71
386.92	947.92
387.11	959.62
387.31	938.55
387.50	1013.45
387.70	985.37
387.89	950.26
388.09	1086.01
388.28	1125.80
388.48	1025.15
388.67	1046.22
388.86	947.92
389.06	1025.15
389.25	1111.75
389.45	1186.65
389.64	1090.69
389.84	1142.18
390.03	1137.50
390.22	1203.04
390.42	1170.27
390.61	1149.20
390.81	1086.01
391.00	1268.57
391.19	1207.72
391.39	1203.04
391.58	1156.22
391.78	1203.04
391.97	1252.19
392.16	1163.25
392.36	1313.04
392.55	1284.95
392.75	1146.86
392.94	1247.51
393.13	1247.51
393.33	1336.45
393.52	1231.12
393.71	1420.71
393.91	1343.47
394.10	1310.70
394.29	1329.42
394.49	1336.45
394.68	1404.32
394.88	1336.45
395.07	1397.30
395.26	1317.72
395.46	1324.74
395.65	1380.92
395.84	1476.88
396.04	1645.40
396.23	1540.07
396.42	1441.77
396.62	1394.96
396.81	1509.65
397.00	1530.71
397.19	1561.14
397.39	1460.49
397.58	1652.42
397.77	1596.25
397.97	1495.60
398.16	1593.90
398.35	1621.99
398.55	1544.75
398.74	1652.42
398.93	1645.40
399.12	1631.35
399.32	1673.48
399.51	1659.44
399.70	1706.25
399.90	1598.59
400.09	1757.74
400.28	1877.11
400.47	1612.63
400.67	1732.00
400.86	1764.76
401.05	1722.63
401.24	1832.64
401.44	1846.68
401.63	1743.70
401.82	1874.77
402.01	1839.66
402.21	1895.83
402.40	1923.92
402.59	1912.22
402.78	1984.77
402.97	1891.15
403.17	2062.01
403.36	1919.24
403.55	1956.69
403.74	1944.99
403.93	2040.95
404.13	2024.56
404.32	1980.09
404.51	2059.67
404.70	2235.21
404.89	2148.61
405.09	2200.10
405.28	2115.84
405.47	2141.59
405.66	2094.78
405.85	2125.21
406.05	2157.97
406.24	2188.40
406.43	2193.08
406.62	2289.04
406.81	2375.64
407.00	2282.02
407.20	2232.87
407.39	2279.68
407.58	2359.26
407.77	2459.90
407.96	2436.50
408.15	2387.35
408.34	2413.09
408.54	2525.44
408.73	2448.20
408.92	2506.71
409.11	2633.10
409.30	2495.01
409.49	2593.31
409.68	2532.46
409.87	2490.33
410.07	2691.62
410.26	2609.70
410.45	2644.81
410.64	2750.13
410.83	2679.91
411.02	2722.04
411.21	2780.56
411.40	2703.32
411.59	2743.11
411.78	2965.46
411.98	2815.66
412.17	2836.73
412.36	2970.14
412.55	2890.56
412.74	2981.84
412.93	3063.76
413.12	2977.16
413.31	3119.93
413.50	2928.01
413.69	3176.11
413.88	3157.38
414.07	3276.75
414.26	3077.80
414.45	3332.92
414.64	3243.98
414.83	3405.48
415.02	3405.48
415.22	3386.76
415.41	3342.28
415.60	3456.97
415.79	3515.48
415.98	3463.99
416.17	3517.83
416.36	3522.51
416.55	3494.42
416.74	3438.25
416.93	3763.58
417.12	3602.08
417.31	3641.87
417.50	3768.26
417.69	3906.35
417.88	3810.39
418.07	3770.60
418.26	3763.58
418.45	3754.22
418.64	3915.72
418.83	3990.61
419.02	3868.91
419.21	3967.21
419.39	3934.44
419.58	3974.23
419.77	3988.27
419.96	4081.89
420.15	4105.30
420.34	4149.77
420.53	4166.15
420.72	4124.02
420.91	4269.14
421.10	4222.33
421.29	4259.78
421.48	4259.78
421.67	4351.06
421.86	4234.03
422.05	4294.88
422.24	4262.12
422.43	4365.10
422.61	4407.23
422.80	4245.73
422.99	4306.59
423.18	4472.76
423.37	4482.13
423.56	4379.14
423.75	4311.27
423.94	4285.52
424.13	4077.21
424.32	4219.99
424.50	4440.00
424.69	4610.86
424.88	4547.66
425.07	4318.29
425.26	4425.95
425.45	4374.46
425.64	4456.38
425.83	4571.07
426.01	4713.84
426.20	4458.72
426.39	4566.39
426.58	4662.35
426.77	4706.82
426.96	4425.95
427.15	4575.75
427.33	4629.58
427.52	4491.49
427.71	4571.07
427.90	4599.15
428.09	4730.22
428.28	4734.90
428.46	4791.08
428.65	4809.80
428.84	4943.21
429.03	5008.75
429.22	4645.96
429.40	4901.08
429.59	5008.75
429.78	4753.63
429.97	4762.99
430.16	4746.61
430.34	5020.45
430.53	5104.71
430.72	5102.37
430.91	5076.62
431.10	5125.77
431.28	5221.74
431.47	5245.14
431.66	5172.58
431.85	5142.16
432.03	5439.40
432.22	5240.46
432.41	5226.42
432.60	5327.06
432.79	5111.73
432.97	5352.81
433.16	5359.83
433.35	5366.85
433.54	5500.26
433.72	5572.82
433.91	5572.82
434.10	5420.68
434.28	5511.96
434.47	5439.40
434.66	5624.31
434.85	5741.33
435.03	5600.90
435.22	5659.42
435.41	5909.85
435.59	5614.95
435.78	5837.30
435.97	5743.67
436.16	5717.93
436.34	5650.05
436.53	5841.98
436.72	5907.51
436.90	5771.76
437.09	5884.11
437.28	5970.71
437.46	5884.11
437.65	6033.90
437.84	6253.91
438.02	6139.23
438.21	6122.84
438.40	6066.67
438.58	6399.02
438.77	6307.74
438.96	6078.37
439.14	6377.96
439.33	6466.90
439.52	6656.48
439.70	6464.56
439.89	6520.73
440.08	6511.37
440.26	6607.33
440.45	6450.52
440.63	6906.92
440.82	6724.36
441.01	6827.34
441.19	6792.23
441.38	6846.07
441.57	7014.59
441.75	6848.41
441.94	7122.25
442.12	7215.87
442.31	7220.55
442.50	7042.67
442.68	7283.75
442.87	7389.07
443.05	7286.09
443.24	7503.76
443.43	7438.22
443.61	7459.29
443.80	7541.21
443.98	7386.73
444.17	7255.66
444.35	7686.32
444.54	7447.58
444.73	7412.48
444.91	7454.61
445.10	7435.88
445.28	7426.52
445.47	7417.16
445.65	7524.82
445.84	7585.68
446.02	7705.04
446.21	7630.15
446.39	7599.72
446.58	7648.87
446.77	7660.57
446.95	7360.98
447.14	7517.80
447.32	7728.45
447.51	7819.73
447.69	7557.59
447.88	7581.00
448.06	7543.55
448.25	7646.53
448.43	7803.35
448.62	7721.43
448.80	7826.75
448.99	7826.75
449.17	7953.14
449.36	7822.07
449.54	8135.70
449.73	7960.16
449.91	8037.40
450.10	7941.44
450.28	8283.16
450.46	8011.65
450.65	8320.60
450.83	8313.58
451.02	8156.77
451.20	8409.54
451.39	8280.82
451.57	8131.02
451.76	8243.37
451.94	8538.27
452.13	8531.25
452.31	8285.50
452.49	8264.43
452.68	8479.76
452.86	8503.17
453.05	8407.20
453.23	8568.70
453.42	8510.19
453.60	8273.79
453.78	8608.49
453.97	8493.80
454.15	8706.79
454.34	8678.71
454.52	8777.01
454.70	8840.20
454.89	9104.68
455.07	8842.54
455.26	8929.14
455.44	9132.77
455.62	8933.82
455.81	8861.27
455.99	8931.48
456.17	9200.65
456.36	9242.78
456.54	9139.79
456.73	9331.72
456.91	9643.01
457.09	9467.47
457.28	9413.63
457.46	9308.31
457.64	9448.74
457.83	9518.96
458.01	9476.83
458.19	9610.24
458.38	9451.08
458.56	9652.37
458.74	9767.06
458.93	9675.77
459.11	9689.82
459.29	9778.76
459.48	9811.53
459.66	9834.93
459.84	9891.10
460.03	10090.05
460.21	9877.06
460.39	9919.19
460.57	9944.94
460.76	10057.28
460.94	10181.33
461.12	10183.67
461.31	10134.52
461.49	9923.87
461.67	10235.16
461.85	10626.03
462.04	10319.42
462.22	10668.16
462.40	10354.53
462.59	10438.79
462.77	10331.12
462.95	10487.94
463.13	10441.13
463.32	10518.37
463.50	10532.41
463.68	10520.71
463.86	10651.78
464.05	10644.76
464.23	10434.11
464.41	10700.93
464.59	10396.66
464.78	11091.80
464.96	10839.02
465.14	10626.03
465.32	10942.00
465.50	11257.98
465.69	10834.34
465.87	10745.40
466.05	11206.48
466.23	11066.05
466.41	10953.71
466.60	11295.43
466.78	11166.70
466.96	11108.18
467.14	11169.04
467.32	11037.97
467.51	11419.47
467.69	11073.07
467.87	11360.96
468.05	11538.84
468.23	11431.18
468.41	11213.51
468.60	11323.51
468.78	11627.78
468.96	11290.74
469.14	11543.52
469.32	11651.19
469.50	11213.51
469.69	11826.73
469.87	11873.54
470.05	12028.01
470.23	11934.39
470.41	11918.01
470.59	12074.82
470.77	11950.78
470.95	11925.03
471.14	12365.05
471.32	12091.21
471.50	12664.64
471.68	12241.00
471.86	12393.14
472.04	12561.66
472.22	12940.82
472.40	12519.53
472.58	12681.02
472.77	12393.14
472.95	12737.20
473.13	13177.22
473.31	12849.54
473.49	12629.53
473.67	12966.57
473.85	13111.68
474.03	13123.38
474.21	13039.12
474.39	13287.22
474.57	13558.72
474.75	13535.32
474.93	13809.16
475.12	13455.74
475.30	13839.59
475.48	13432.33
475.66	13762.35
475.84	13888.74
476.02	14153.22
476.20	14087.68
476.38	14223.44
476.56	14445.79
476.74	14239.82
476.92	14616.65
477.10	14546.43
477.28	14733.67
477.46	14864.74
477.64	14984.11
477.82	14967.73
478.00	15571.58
478.18	15470.94
478.36	15370.30
478.54	15758.83
478.72	15683.93
478.90	15810.32
479.08	15845.43
479.26	16126.29
479.44	16276.09
479.62	16299.49
479.80	16451.63
479.98	16547.59
480.16	16556.95
480.34	16570.99
480.52	17261.45
480.70	16901.01
480.88	16863.56
481.06	17235.70
481.24	17233.36
481.41	17312.94
481.59	17659.34
481.77	17916.80
481.95	17830.20
482.13	18017.44
482.31	18012.76
482.49	18473.85
482.67	18656.41
482.85	18595.56
483.03	19037.92
483.21	18904.51
483.39	19325.80
483.57	19213.46
483.74	19091.75
483.92	19468.58
484.10	19440.49
484.28	19861.79
484.46	20524.16
484.64	20577.99
484.82	20137.97
485.00	20421.17
485.18	20802.68
485.35	21097.59
485.53	21324.62
485.71	21085.89
485.89	21579.74
486.07	21582.08
486.25	21425.26
486.43	21694.43
486.61	21778.68
486.78	21837.20
486.96	22389.56
487.14	22558.08
487.32	22597.87
487.50	22768.73
487.68	22895.12
487.85	23330.46
488.03	23164.28
488.21	23798.57
488.39	23611.32
488.57	24039.64
488.75	23840.70
488.92	24643.50
489.10	24376.68
489.28	24650.52
489.46	24891.60
489.64	24465.62
489.81	25560.99
489.99	25242.68
490.17	25647.59
490.35	25703.76
490.53	25804.41
490.70	25986.97
490.88	25977.61
491.06	26347.41
491.24	26745.30
491.41	26808.50
491.59	26785.09
491.77	26555.72
491.95	27026.17
492.13	27288.31
492.30	27426.40
492.48	27391.29
492.66	27733.01
492.84	27646.41
493.01	28004.51
493.19	28236.22
493.37	28484.32
493.54	28467.94
493.72	28676.24
493.90	28432.83
494.08	29078.82
494.25	29280.10
494.43	29546.92
494.61	29502.45
494.79	29830.13
494.96	29764.59
495.14	30277.17
495.32	30122.69
495.49	30293.55
495.67	30859.96
495.85	31063.59
496.02	31283.60
496.20	31089.34
496.38	31323.39
496.55	31400.63
496.73	32081.72
496.91	32236.20
497.09	31878.10
497.26	31992.78
497.44	31983.42
497.62	32446.85
497.79	32453.87
497.97	32975.81
498.14	33160.71
498.32	33432.21
498.50	33364.34
498.67	33544.56
498.85	33207.52
499.03	33684.99
499.20	33757.55
499.38	33567.96
499.56	34029.05
499.73	33986.92
499.91	34312.25
500.08	34660.99
500.26	34455.03
500.44	34593.12
500.61	34555.67
500.79	35154.85
500.97	34932.50
501.14	35091.65
501.32	35559.76
501.49	35192.30
501.67	35377.20
501.84	35508.27
502.02	35529.33
502.20	35985.74
502.37	36187.02
502.55	36128.51
502.72	36400.01
502.90	36849.39
503.07	36507.68
503.25	36170.64
503.43	36727.69
503.60	36638.75
503.78	37326.86
503.95	36959.40
504.13	37305.80
504.30	36947.70
504.48	37345.59
504.65	37741.14
504.83	37954.13
505.01	38394.15
505.18	37801.99
505.36	38239.67
505.53	37996.26
505.71	38064.13
505.88	38483.09
506.06	38010.30
506.23	38396.49
506.41	38244.35
506.58	38780.34
506.76	39126.74
506.93	38700.76
507.11	38953.54
507.28	39147.80
507.46	39068.22
507.63	39672.08
507.81	39536.33
507.98	39842.94
508.16	40273.60
508.33	40048.91
508.50	40088.70
508.68	40357.86
508.85	40411.69
509.03	40261.90
509.20	40591.91
509.38	41095.13
509.55	40903.20
509.73	41060.02
509.90	41118.53
510.08	40891.50
510.25	41478.97
510.42	40985.12
510.60	41778.56
510.77	41724.73
510.95	42078.15
511.12	41790.27
511.30	41684.94
511.47	42569.66
511.64	42323.91
511.82	42660.94
511.99	42628.18
512.17	42684.35
512.34	42532.22
512.51	43016.71
512.69	42630.52
512.86	42817.76
513.04	43585.46
513.21	43328.00
513.38	43468.43
513.56	43585.46
513.73	42909.04
513.90	43842.92
514.08	43365.45
514.25	43756.32
514.43	44081.65
514.60	44163.57
514.77	44374.22
514.95	44236.12
515.12	44037.18
515.29	44353.15
515.47	44704.23
515.64	44685.51
515.81	44577.84
515.99	44821.26
516.16	45635.77
516.33	45174.68
516.51	45062.33
516.68	44821.26
516.85	45256.60
517.03	45172.34
517.20	45991.53
517.37	45701.30
517.54	45668.53
517.72	45511.72
517.89	45724.71
518.06	45640.45
518.24	45638.11
518.41	45375.97
518.58	45949.40
518.75	46260.69
518.93	46167.07
519.10	46258.35
519.27	46642.20
519.45	46632.83
519.62	46522.83
519.79	46789.65
519.96	47138.39
520.14	47276.48
520.31	46920.72
520.48	47297.55
520.65	47063.49
520.83	47283.50
521.00	46965.19
521.17	47241.37
521.34	47454.36
521.52	47576.07
521.69	47931.83
521.86	47718.84
522.03	48030.13
522.20	47749.27
522.38	48210.35
522.55	48315.68
522.72	48212.70
522.89	48238.44
523.07	48439.73
523.24	48521.65
523.41	48678.46
523.58	47899.06
523.75	48935.92
523.92	48685.48
524.10	48715.91
524.27	49038.90
524.44	48877.41
524.61	49483.61
524.78	49329.13
524.96	49408.71
525.13	49326.79
525.30	49404.03
525.47	49579.57
525.64	49230.83
525.81	49785.54
525.98	49832.35
526.16	49652.12
526.33	49654.47
526.50	50241.94
526.67	49785.54
526.84	49769.15
527.01	50073.42
527.18	50122.57
527.36	50057.04
527.53	50391.73
527.70	50553.23
527.87	50597.70
528.04	50183.43
528.21	50553.23
528.38	50370.67
528.55	50571.96
528.72	50506.42
528.89	50375.35
529.07	50583.66
529.24	50548.55
529.41	50887.93
529.58	50548.55
529.75	50525.14
529.92	51079.85
530.09	51042.40
530.26	51075.17
530.43	51166.45
530.60	50955.80
530.77	50925.38
530.94	51168.79
531.11	51391.14
531.28	51248.37
531.46	51512.85
531.63	51428.59
531.80	51821.80
531.97	51959.89
532.14	51957.55
532.31	51910.74
532.48	51650.94
532.65	51793.71
532.82	51508.17
532.99	52126.07
533.16	51887.34
533.33	52037.13
533.50	52116.71
533.67	52320.34
533.84	52254.80
534.01	52088.62
534.18	52130.75
534.35	52495.88
534.52	52535.66
534.69	52477.15
534.86	52832.91
535.03	52261.82
535.20	52741.63
535.37	52587.16
535.54	52933.56
535.71	52376.51
535.88	52624.60
536.05	52713.55
536.22	53088.03
536.38	53148.88
536.55	52720.57
536.72	53020.16
536.89	52807.17
537.06	53221.44
537.23	53158.25
537.40	53092.71
537.57	53013.13
537.74	53272.93
537.91	53525.71
538.08	53427.41
538.25	53478.90
538.42	53240.17
538.59	53471.88
538.75	53521.03
538.92	53230.80
539.09	53485.92
539.26	53675.51
539.43	53640.40
539.60	54092.12
539.77	53993.82
539.94	53979.78
540.11	53874.45
540.28	53727.00
540.44	53666.14
540.61	53932.96
540.78	53970.41
540.95	54080.42
541.12	53996.16
541.29	54384.69
541.46	54000.84
541.62	53818.28
541.79	53989.14
541.96	53736.36
542.13	54148.29
542.30	54433.84
542.47	54494.69
542.63	54550.87
542.80	54365.96
542.97	54766.20
543.14	54644.49
543.31	54363.62
543.48	54354.26
543.64	54911.31
543.81	54817.69
543.98	54815.35
544.15	55063.44
544.32	55105.57
544.48	55299.84
544.65	55047.06
544.82	55096.21
544.99	54768.54
545.16	55114.94
545.32	54880.88
545.49	55215.58
545.66	55437.93
545.83	55290.48
546.00	55494.10
546.16	55033.02
546.33	55107.91
546.50	54897.27
546.67	55128.98
546.83	55035.36
547.00	55440.27
547.17	55451.97
547.34	55363.03
547.50	55437.93
547.67	55728.16
547.84	55360.69
548.00	55480.06
548.17	55707.09
548.34	55796.03
548.51	55744.54
548.67	55824.12
548.84	55693.05
549.01	55943.48
549.18	55833.48
549.34	55913.06
549.51	55891.99
549.68	55901.36
549.84	56055.83
550.01	56086.26
550.18	55777.31
550.34	55854.54
550.51	56025.40
550.68	56163.50
550.84	55686.03
551.01	56081.58
551.18	55952.85
551.34	55936.46
551.51	56069.87
551.68	56023.06
551.84	56332.01
552.01	56158.81
552.18	56516.92
552.34	56076.90
552.51	56425.64
552.68	56287.54
552.84	56357.76
553.01	56467.76
553.18	56285.20
553.34	56451.38
553.51	56369.46
553.67	56570.75
553.84	56704.16
554.01	56699.48
554.17	56928.85
554.34	56425.64
554.51	56795.44
554.67	56676.07
554.84	56769.69
555.00	56760.33
555.17	56828.21
555.33	56783.74
555.50	56718.20
555.67	56896.08
555.83	56877.36
556.00	56755.65
556.16	57048.22
556.33	56914.81
556.50	56884.38
556.66	56999.07
556.83	56870.34
556.99	57125.46
557.16	56978.00
557.32	57045.88
557.49	57214.40
557.65	56692.46
557.82	56938.21
557.98	57130.14
558.15	57113.75
558.32	57347.81
558.48	57205.03
558.65	57279.93
558.81	57289.29
558.98	57179.29
559.14	57221.42
559.31	56982.68
559.47	57216.74
559.64	57308.02
559.80	57382.91
559.97	57392.28
560.13	57286.95
560.30	57333.76
560.46	57471.85
560.63	57392.28
560.79	57511.64
560.96	57553.77
561.12	57382.91
561.29	57308.02
561.45	57457.81
561.61	57851.02
561.78	57420.36
561.94	57680.16
562.11	57656.76
562.27	57523.35
562.44	57361.85
562.60	57439.09
562.77	57645.05
562.93	57689.52
563.10	57780.81
563.26	57373.55
563.42	57806.55
563.59	57722.29
563.75	57808.89
563.92	57783.15
564.08	57801.87
564.24	57546.75
564.41	57705.91
564.57	57780.81
564.74	57771.44
564.90	57832.30
565.07	57925.92
565.23	57991.45
565.39	58010.18
565.56	57834.64
565.72	57719.95
565.88	57722.29
566.05	57598.24
566.21	57701.23
566.38	57914.22
566.54	57771.44
566.70	58152.95
566.87	57989.11
567.03	57897.83
567.19	58241.89
567.36	57944.64
567.52	57923.58
567.68	57996.13
567.85	57757.40
568.01	57904.85
568.17	57710.59
568.34	57874.43
568.50	58115.50
568.66	58108.48
568.83	58129.54
568.99	57925.92
569.15	58054.65
569.32	58195.08
569.48	57911.88
569.64	58234.87
569.81	58209.12
569.97	58326.15
570.13	58075.71
570.30	58174.02
570.46	58129.54
570.62	57963.37
570.78	57993.79
570.95	57993.79
571.11	58056.99
571.27	57958.69
571.43	58127.20
571.60	58298.06
571.76	58305.09
571.92	58396.37
572.09	58152.95
572.25	58066.35
572.41	58166.99
572.57	58101.46
572.74	58436.16
572.90	57975.07
573.06	57928.26
573.22	58108.48
573.38	58169.33
573.55	58314.45
573.71	58614.04
573.87	58492.33
574.03	58134.23
574.20	58349.56
574.36	58349.56
574.52	58286.36
574.68	58148.27
574.84	58344.87
575.01	58281.68
575.17	58457.22
575.33	58482.97
575.49	58365.94
575.65	58663.19
575.82	58508.71
575.98	58429.13
576.14	58459.56
576.30	58464.24
576.46	58382.32
576.62	58183.38
576.79	58323.81
576.95	58410.41
577.11	58375.30
577.27	58272.32
577.43	58382.32
577.59	58480.63
577.75	58333.17
577.92	58094.44
578.08	58419.77
578.24	58113.16
578.40	58375.30
578.56	58501.69
578.72	58403.39
578.88	58714.68
579.04	58342.53
579.21	58489.99
579.37	58344.87
579.53	58401.05
579.69	58379.98
579.85	58529.78
580.01	58649.14
580.17	58356.58
580.33	58529.78
580.49	58532.12
580.65	58695.95
580.82	58672.55
580.98	58557.86
581.14	58557.86
581.30	58541.48
581.46	58504.03
581.62	58447.86
581.78	58527.44
581.94	58695.95
582.10	58555.52
582.26	58611.70
582.42	58628.08
582.58	58569.57
582.74	58710.00
582.90	58712.34
583.06	58824.68
583.22	58712.34
583.38	58539.14
583.54	58527.44
583.70	58632.76
583.86	58562.54
584.02	58712.34
584.18	58679.57
584.34	58707.66
584.50	58773.19
584.66	58710.00
584.82	58412.75
584.98	58548.50
585.14	58719.36
585.30	58454.88
585.46	58588.29
585.62	58450.20
585.78	58602.33
585.94	58258.27
586.10	58513.39
586.26	58702.98
586.42	58960.44
586.58	59070.44
586.74	58616.38
586.90	58562.54
587.06	58681.91
587.22	58693.61
587.38	58604.67
587.54	58852.77
587.70	58941.71
587.86	58663.19
588.02	58838.73
588.18	58726.38
588.34	58761.49
588.49	58857.45
588.65	58913.62
588.81	58576.59
588.97	58717.02
589.13	58740.42
589.29	58609.35
589.45	58979.16
