SpectraSuite Data File
++++++++++++++++++++++++++++++++++++
Date: Fri Oct 04 11:48:19 GMT-05:00 2013
User: price-jones
Dark Spectrum Present: No
Reference Spectrum Present: No
Number of Sampled Component Spectra: 1
Spectrometers: USB2+H05261
Integration Time (usec): 100000 (USB2+H05261)
Spectra Averaged: 1 (USB2+H05261)
Boxcar Smoothing: 0 (USB2+H05261)
Correct for Electrical Dark: No (USB2+H05261)
Strobe/Lamp Enabled: No (USB2+H05261)
Correct for Detector Non-linearity: No (USB2+H05261)
Correct for Stray Light: No (USB2+H05261)
Number of Pixels in Processed Spectrum: 2048
>>>>>Begin Processed Spectral Data<<<<<
365.73	65.54
365.92	65.54
366.12	65.54
366.32	0.00
366.52	0.00
366.72	0.00
366.91	0.00
367.11	0.00
367.31	0.00
367.51	0.00
367.70	0.00
367.90	0.00
368.10	0.00
368.30	0.00
368.49	0.00
368.69	0.00
368.89	0.00
369.09	0.00
369.28	0.00
369.48	0.00
369.68	0.00
369.87	0.00
370.07	0.00
370.27	35.11
370.47	4.68
370.66	0.00
370.86	77.24
371.06	58.51
371.25	79.58
371.45	0.00
371.65	112.35
371.84	44.47
372.04	32.77
372.24	102.98
372.44	124.05
372.63	70.22
372.83	149.79
373.03	124.05
373.22	42.13
373.42	37.45
373.62	152.13
373.81	147.45
374.01	63.19
374.21	91.28
374.40	93.62
374.60	205.97
374.79	126.39
374.99	119.37
375.19	124.05
375.38	100.64
375.58	117.03
375.78	140.43
375.97	110.01
376.17	119.37
376.37	166.18
376.56	138.09
376.76	95.96
376.95	46.81
377.15	35.11
377.35	128.73
377.54	98.30
377.74	142.77
377.93	67.88
378.13	128.73
378.33	166.18
378.52	124.05
378.72	70.22
378.91	124.05
379.11	35.11
379.31	124.05
379.50	117.03
379.70	79.58
379.89	177.88
380.09	110.01
380.28	77.24
380.48	126.39
380.68	63.19
380.87	18.72
381.07	91.28
381.26	147.45
381.46	23.41
381.65	95.96
381.85	86.60
382.04	63.19
382.24	126.39
382.43	131.07
382.63	74.90
382.83	46.81
383.02	180.22
383.22	88.94
383.41	110.01
383.61	95.96
383.80	74.90
384.00	95.96
384.19	110.01
384.39	154.48
384.58	42.13
384.78	107.66
384.97	84.26
385.17	93.62
385.36	0.00
385.56	131.07
385.75	161.50
385.95	147.45
386.14	124.05
386.34	65.54
386.53	51.49
386.72	110.01
386.92	173.20
387.11	95.96
387.31	147.45
387.50	72.56
387.70	63.19
387.89	30.43
388.09	60.85
388.28	23.41
388.48	25.75
388.67	49.15
388.86	105.32
389.06	159.16
389.25	77.24
389.45	58.51
389.64	112.35
389.84	124.05
390.03	112.35
390.22	51.49
390.42	128.73
390.61	30.43
390.81	56.17
391.00	149.79
391.19	142.77
391.39	201.29
391.58	102.98
391.78	63.19
391.97	25.75
392.16	18.72
392.36	201.29
392.55	126.39
392.75	110.01
392.94	93.62
393.13	117.03
393.33	56.17
393.52	110.01
393.71	168.52
393.91	110.01
394.10	18.72
394.29	102.98
394.49	107.66
394.68	63.19
394.88	119.37
395.07	91.28
395.26	131.07
395.46	79.58
395.65	102.98
395.84	95.96
396.04	187.24
396.23	93.62
396.42	105.32
396.62	114.69
396.81	74.90
397.00	140.43
397.19	114.69
397.39	72.56
397.58	84.26
397.77	112.35
397.97	105.32
398.16	39.79
398.35	184.90
398.55	119.37
398.74	147.45
398.93	166.18
399.12	119.37
399.32	140.43
399.51	107.66
399.70	79.58
399.90	124.05
400.09	156.82
400.28	95.96
400.47	51.49
400.67	180.22
400.86	142.77
401.05	63.19
401.24	149.79
401.44	138.09
401.63	128.73
401.82	51.49
402.01	58.51
402.21	93.62
402.40	133.41
402.59	84.26
402.78	135.75
402.97	128.73
403.17	124.05
403.36	60.85
403.55	18.72
403.74	91.28
403.93	138.09
404.13	95.96
404.32	81.92
404.51	114.69
404.70	177.88
404.89	63.19
405.09	107.66
405.28	121.71
405.47	79.58
405.66	91.28
405.85	154.48
406.05	112.35
406.24	147.45
406.43	147.45
406.62	138.09
406.81	212.99
407.00	133.41
407.20	60.85
407.39	79.58
407.58	70.22
407.77	168.52
407.96	152.13
408.15	205.97
408.34	91.28
408.54	112.35
408.73	112.35
408.92	46.81
409.11	152.13
409.30	72.56
409.49	72.56
409.68	156.82
409.87	163.84
410.07	112.35
410.26	91.28
410.45	140.43
410.64	105.32
410.83	74.90
411.02	138.09
411.21	152.13
411.40	191.92
411.59	124.05
411.78	168.52
411.98	175.54
412.17	117.03
412.36	163.84
412.55	58.51
412.74	131.07
412.93	147.45
413.12	93.62
413.31	180.22
413.50	152.13
413.69	152.13
413.88	189.58
414.07	173.20
414.26	107.66
414.45	72.56
414.64	86.60
414.83	126.39
415.02	107.66
415.22	117.03
415.41	100.64
415.60	145.11
415.79	128.73
415.98	105.32
416.17	152.13
416.36	102.98
416.55	168.52
416.74	156.82
416.93	212.99
417.12	140.43
417.31	98.30
417.50	147.45
417.69	135.75
417.88	124.05
418.07	63.19
418.26	117.03
418.45	79.58
418.64	145.11
418.83	84.26
419.02	95.96
419.21	133.41
419.39	131.07
419.58	119.37
419.77	77.24
419.96	124.05
420.15	133.41
420.34	145.11
420.53	114.69
420.72	126.39
420.91	156.82
421.10	100.64
421.29	121.71
421.48	191.92
421.67	131.07
421.86	93.62
422.05	154.48
422.24	142.77
422.43	196.60
422.61	107.66
422.80	119.37
422.99	84.26
423.18	140.43
423.37	117.03
423.56	198.95
423.75	140.43
423.94	98.30
424.13	175.54
424.32	147.45
424.50	121.71
424.69	98.30
424.88	126.39
425.07	121.71
425.26	152.13
425.45	152.13
425.64	135.75
425.83	114.69
426.01	224.69
426.20	124.05
426.39	100.64
426.58	161.50
426.77	154.48
426.96	170.86
427.15	168.52
427.33	168.52
427.52	145.11
427.71	142.77
427.90	121.71
428.09	110.01
428.28	128.73
428.46	117.03
428.65	135.75
428.84	166.18
429.03	131.07
429.22	110.01
429.40	124.05
429.59	156.82
429.78	210.65
429.97	166.18
430.16	170.86
430.34	128.73
430.53	145.11
430.72	128.73
430.91	156.82
431.10	107.66
431.28	163.84
431.47	121.71
431.66	117.03
431.85	140.43
432.03	140.43
432.22	203.63
432.41	154.48
432.60	205.97
432.79	121.71
432.97	124.05
433.16	140.43
433.35	154.48
433.54	159.16
433.72	180.22
433.91	156.82
434.10	147.45
434.28	91.28
434.47	119.37
434.66	135.75
434.85	91.28
435.03	91.28
435.22	170.86
435.41	138.09
435.59	159.16
435.78	177.88
435.97	128.73
436.16	117.03
436.34	128.73
436.53	124.05
436.72	147.45
436.90	126.39
437.09	81.92
437.28	161.50
437.46	138.09
437.65	149.79
437.84	142.77
438.02	159.16
438.21	126.39
438.40	133.41
438.58	128.73
438.77	152.13
438.96	138.09
439.14	91.28
439.33	131.07
439.52	135.75
439.70	100.64
439.89	182.56
440.08	227.03
440.26	145.11
440.45	191.92
440.63	58.51
440.82	159.16
441.01	166.18
441.19	154.48
441.38	161.50
441.57	84.26
441.75	187.24
441.94	156.82
442.12	145.11
442.31	180.22
442.50	163.84
442.68	79.58
442.87	128.73
443.05	170.86
443.24	102.98
443.43	145.11
443.61	177.88
443.80	86.60
443.98	166.18
444.17	173.20
444.35	145.11
444.54	142.77
444.73	194.26
444.91	131.07
445.10	117.03
445.28	145.11
445.47	196.60
445.65	110.01
445.84	159.16
446.02	124.05
446.21	126.39
446.39	88.94
446.58	117.03
446.77	163.84
446.95	191.92
447.14	138.09
447.32	203.63
447.51	154.48
447.69	161.50
447.88	187.24
448.06	131.07
448.25	126.39
448.43	102.98
448.62	147.45
448.80	187.24
448.99	159.16
449.17	114.69
449.36	107.66
449.54	152.13
449.73	163.84
449.91	227.03
450.10	124.05
450.28	191.92
450.46	180.22
450.65	131.07
450.83	124.05
451.02	135.75
451.20	105.32
451.39	131.07
451.57	121.71
451.76	135.75
451.94	133.41
452.13	184.90
452.31	180.22
452.49	117.03
452.68	166.18
452.86	142.77
453.05	180.22
453.23	191.92
453.42	182.56
453.60	215.33
453.78	135.75
453.97	131.07
454.15	180.22
454.34	110.01
454.52	156.82
454.70	215.33
454.89	135.75
455.07	107.66
455.26	273.84
455.44	166.18
455.62	170.86
455.81	170.86
455.99	161.50
456.17	184.90
456.36	117.03
456.54	175.54
456.73	114.69
456.91	142.77
457.09	142.77
457.28	201.29
457.46	149.79
457.64	170.86
457.83	170.86
458.01	140.43
458.19	121.71
458.38	187.24
458.56	152.13
458.74	198.95
458.93	138.09
459.11	189.58
459.29	107.66
459.48	212.99
459.66	220.01
459.84	110.01
460.03	236.39
460.21	154.48
460.39	107.66
460.57	147.45
460.76	145.11
460.94	133.41
461.12	234.05
461.31	182.56
461.49	107.66
461.67	173.20
461.85	128.73
462.04	119.37
462.22	706.84
462.40	182.56
462.59	198.95
462.77	138.09
462.95	147.45
463.13	126.39
463.32	182.56
463.50	184.90
463.68	205.97
463.86	184.90
464.05	135.75
464.23	184.90
464.41	224.69
464.59	159.16
464.78	168.52
464.96	140.43
465.14	159.16
465.32	161.50
465.50	74.90
465.69	170.86
465.87	121.71
466.05	227.03
466.23	119.37
466.41	187.24
466.60	173.20
466.78	196.60
466.96	212.99
467.14	189.58
467.32	210.65
467.51	126.39
467.69	177.88
467.87	173.20
468.05	205.97
468.23	208.31
468.41	210.65
468.60	177.88
468.78	175.54
468.96	252.78
469.14	198.95
469.32	140.43
469.50	72.56
469.69	154.48
469.87	191.92
470.05	194.26
470.23	173.20
470.41	175.54
470.59	168.52
470.77	187.24
470.95	93.62
471.14	156.82
471.32	194.26
471.50	231.71
471.68	149.79
471.86	154.48
472.04	180.22
472.22	180.22
472.40	107.66
472.58	163.84
472.77	163.84
472.95	131.07
473.13	166.18
473.31	217.67
473.49	177.88
473.67	161.50
473.85	156.82
474.03	194.26
474.21	276.18
474.39	198.95
474.57	198.95
474.75	166.18
474.93	175.54
475.12	220.01
475.30	152.13
475.48	210.65
475.66	152.13
475.84	140.43
476.02	140.43
476.20	154.48
476.38	180.22
476.56	241.08
476.74	173.20
476.92	191.92
477.10	135.75
477.28	229.37
477.46	114.69
477.64	184.90
477.82	170.86
478.00	212.99
478.18	189.58
478.36	191.92
478.54	163.84
478.72	227.03
478.90	234.05
479.08	182.56
479.26	163.84
479.44	175.54
479.62	210.65
479.80	145.11
479.98	168.52
480.16	217.67
480.34	236.39
480.52	156.82
480.70	182.56
480.88	140.43
481.06	227.03
481.24	175.54
481.41	170.86
481.59	191.92
481.77	217.67
481.95	210.65
482.13	215.33
482.31	159.16
482.49	245.76
482.67	212.99
482.85	205.97
483.03	159.16
483.21	194.26
483.39	196.60
483.57	222.35
483.74	205.97
483.92	241.08
484.10	271.50
484.28	208.31
484.46	337.04
484.64	278.52
484.82	224.69
485.00	191.92
485.18	168.52
485.35	133.41
485.53	149.79
485.71	175.54
485.89	203.63
486.07	229.37
486.25	266.82
486.43	280.86
486.61	196.60
486.78	175.54
486.96	210.65
487.14	203.63
487.32	280.86
487.50	196.60
487.68	276.18
487.85	189.58
488.03	257.46
488.21	238.73
488.39	266.82
488.57	266.82
488.75	177.88
488.92	526.62
489.10	276.18
489.28	283.20
489.46	212.99
489.64	236.39
489.81	264.48
489.99	238.73
490.17	210.65
490.35	299.59
490.53	241.08
490.70	168.52
490.88	224.69
491.06	175.54
491.24	170.86
491.41	224.69
491.59	227.03
491.77	238.73
491.95	191.92
492.13	238.73
492.30	308.95
492.48	224.69
492.66	220.01
492.84	149.79
493.01	212.99
493.19	147.45
493.37	266.82
493.54	280.86
493.72	306.61
493.90	205.97
494.08	205.97
494.25	182.56
494.43	217.67
494.61	189.58
494.79	262.14
494.96	203.63
495.14	285.55
495.32	238.73
495.49	320.65
495.67	287.89
495.85	203.63
496.02	231.71
496.20	257.46
496.38	145.11
496.55	217.67
496.73	320.65
496.91	236.39
497.09	273.84
497.26	248.10
497.44	212.99
497.62	194.26
497.79	215.33
497.97	252.78
498.14	252.78
498.32	292.57
498.50	187.24
498.67	227.03
498.85	210.65
499.03	177.88
499.20	250.44
499.38	297.25
499.56	191.92
499.73	262.14
499.91	259.80
500.08	271.50
500.26	201.29
500.44	259.80
500.61	313.63
500.79	337.04
500.97	276.18
501.14	304.27
501.32	224.69
501.49	243.42
501.67	227.03
501.84	231.71
502.02	266.82
502.20	325.33
502.37	224.69
502.55	248.10
502.72	290.23
502.90	259.80
503.07	191.92
503.25	248.10
503.43	283.20
503.60	297.25
503.78	290.23
503.95	320.65
504.13	177.88
504.30	264.48
504.48	330.02
504.65	259.80
504.83	346.40
505.01	266.82
505.18	262.14
505.36	266.82
505.53	292.57
505.71	252.78
505.88	292.57
506.06	320.65
506.23	313.63
506.41	255.12
506.58	224.69
506.76	334.70
506.93	290.23
507.11	322.99
507.28	294.91
507.46	208.31
507.63	283.20
507.81	262.14
507.98	196.60
508.16	255.12
508.33	262.14
508.50	248.10
508.68	266.82
508.85	299.59
509.03	278.52
509.20	250.44
509.38	313.63
509.55	231.71
509.73	266.82
509.90	304.27
510.08	304.27
510.25	241.08
510.42	229.37
510.60	325.33
510.77	332.36
510.95	194.26
511.12	236.39
511.30	201.29
511.47	318.31
511.64	346.40
511.82	276.18
511.99	308.95
512.17	269.16
512.34	304.27
512.51	292.57
512.69	276.18
512.86	320.65
513.04	308.95
513.21	341.72
513.38	266.82
513.56	262.14
513.73	285.55
513.90	248.10
514.08	236.39
514.25	271.50
514.43	285.55
514.60	262.14
514.77	313.63
514.95	339.38
515.12	315.97
515.29	283.20
515.47	355.76
515.64	222.35
515.81	311.29
515.99	351.08
516.16	285.55
516.33	346.40
516.51	241.08
516.68	208.31
516.85	273.84
517.03	255.12
517.20	306.61
517.37	294.91
517.54	332.36
517.72	248.10
517.89	231.71
518.06	255.12
518.24	402.57
518.41	294.91
518.58	299.59
518.75	327.68
518.93	271.50
519.10	344.06
519.27	278.52
519.45	299.59
519.62	313.63
519.79	311.29
519.96	203.63
520.14	257.46
520.31	351.08
520.48	304.27
520.65	280.86
520.83	290.23
521.00	241.08
521.17	276.18
521.34	287.89
521.52	374.49
521.69	341.72
521.86	365.12
522.03	306.61
522.20	337.04
522.38	262.14
522.55	234.05
522.72	308.95
522.89	264.48
523.07	283.20
523.24	276.18
523.41	257.46
523.58	255.12
523.75	383.85
523.92	283.20
524.10	229.37
524.27	348.74
524.44	320.65
524.61	330.02
524.78	332.36
524.96	297.25
525.13	306.61
525.30	271.50
525.47	402.57
525.64	255.12
525.81	358.10
525.98	360.44
526.16	367.46
526.33	320.65
526.50	299.59
526.67	294.91
526.84	304.27
527.01	264.48
527.18	208.31
527.36	327.68
527.53	280.86
527.70	360.44
527.87	362.78
528.04	327.68
528.21	283.20
528.38	411.93
528.55	294.91
528.72	315.97
528.89	390.87
529.07	337.04
529.24	287.89
529.41	283.20
529.58	248.10
529.75	259.80
529.92	327.68
530.09	334.70
530.26	285.55
530.43	346.40
530.60	367.46
530.77	297.25
530.94	341.72
531.11	372.15
531.28	344.06
531.46	304.27
531.63	227.03
531.80	301.93
531.97	292.57
532.14	318.31
532.31	252.78
532.48	252.78
532.65	283.20
532.82	313.63
532.99	243.42
533.16	304.27
533.33	355.76
533.50	351.08
533.67	297.25
533.84	306.61
534.01	362.78
534.18	327.68
534.35	308.95
534.52	311.29
534.69	294.91
534.86	369.80
535.03	325.33
535.20	304.27
535.37	299.59
535.54	330.02
535.71	330.02
535.88	315.97
536.05	294.91
536.22	322.99
536.38	299.59
536.55	381.51
536.72	348.74
536.89	220.01
537.06	339.38
537.23	358.10
537.40	245.76
537.57	266.82
537.74	421.30
537.91	397.89
538.08	337.04
538.25	355.76
538.42	346.40
538.59	250.44
538.75	327.68
538.92	332.36
539.09	348.74
539.26	294.91
539.43	327.68
539.60	283.20
539.77	332.36
539.94	346.40
540.11	311.29
540.28	402.57
540.44	360.44
540.61	327.68
540.78	327.68
540.95	299.59
541.12	292.57
541.29	386.19
541.46	266.82
541.62	372.15
541.79	299.59
541.96	334.70
542.13	393.21
542.30	304.27
542.47	271.50
542.63	276.18
542.80	311.29
542.97	348.74
543.14	351.08
543.31	248.10
543.48	269.16
543.64	344.06
543.81	271.50
543.98	311.29
544.15	285.55
544.32	252.78
544.48	299.59
544.65	327.68
544.82	278.52
544.99	299.59
545.16	283.20
545.32	376.83
545.49	358.10
545.66	322.99
545.83	353.42
546.00	222.35
546.16	339.38
546.33	339.38
546.50	341.72
546.67	330.02
546.83	271.50
547.00	320.65
547.17	344.06
547.34	227.03
547.50	313.63
547.67	283.20
547.84	271.50
548.00	358.10
548.17	280.86
548.34	360.44
548.51	353.42
548.67	320.65
548.84	283.20
549.01	348.74
549.18	367.46
549.34	322.99
549.51	292.57
549.68	322.99
549.84	315.97
550.01	327.68
550.18	334.70
550.34	362.78
550.51	379.17
550.68	372.15
550.84	348.74
551.01	322.99
551.18	365.12
551.34	304.27
551.51	332.36
551.68	341.72
551.84	346.40
552.01	346.40
552.18	229.37
552.34	327.68
552.51	238.73
552.68	243.42
552.84	339.38
553.01	313.63
553.18	369.80
553.34	306.61
553.51	308.95
553.67	351.08
553.84	332.36
554.01	330.02
554.17	337.04
554.34	351.08
554.51	330.02
554.67	348.74
554.84	339.38
555.00	313.63
555.17	362.78
555.33	341.72
555.50	322.99
555.67	374.49
555.83	306.61
556.00	297.25
556.16	519.60
556.33	348.74
556.50	304.27
556.66	325.33
556.83	210.65
556.99	348.74
557.16	322.99
557.32	348.74
557.49	306.61
557.65	266.82
557.82	297.25
557.98	264.48
558.15	271.50
558.32	383.85
558.48	332.36
558.65	252.78
558.81	374.49
558.98	330.02
559.14	250.44
559.31	285.55
559.47	369.80
559.64	339.38
559.80	285.55
559.97	290.23
560.13	299.59
560.30	287.89
560.46	322.99
560.63	325.33
560.79	355.76
560.96	369.80
561.12	269.16
561.29	299.59
561.45	290.23
561.61	259.80
561.78	353.42
561.94	280.86
562.11	280.86
562.27	318.31
562.44	269.16
562.60	351.08
562.77	379.17
562.93	346.40
563.10	278.52
563.26	299.59
563.42	322.99
563.59	327.68
563.75	341.72
563.92	346.40
564.08	341.72
564.24	353.42
564.41	337.04
564.57	241.08
564.74	243.42
564.90	351.08
565.07	327.68
565.23	311.29
565.39	327.68
565.56	360.44
565.72	255.12
565.88	332.36
566.05	362.78
566.21	238.73
566.38	327.68
566.54	276.18
566.70	315.97
566.87	269.16
567.03	294.91
567.19	379.17
567.36	362.78
567.52	257.46
567.68	262.14
567.85	259.80
568.01	395.55
568.17	339.38
568.34	374.49
568.50	400.23
568.66	287.89
568.83	379.17
568.99	231.71
569.15	280.86
569.32	290.23
569.48	259.80
569.64	332.36
569.81	322.99
569.97	292.57
570.13	322.99
570.30	283.20
570.46	306.61
570.62	297.25
570.78	327.68
570.95	322.99
571.11	355.76
571.27	346.40
571.43	315.97
571.60	273.84
571.76	311.29
571.92	276.18
572.09	311.29
572.25	353.42
572.41	337.04
572.57	271.50
572.74	372.15
572.90	311.29
573.06	313.63
573.22	330.02
573.38	318.31
573.55	280.86
573.71	292.57
573.87	306.61
574.03	262.14
574.20	262.14
574.36	297.25
574.52	238.73
574.68	337.04
574.84	308.95
575.01	315.97
575.17	299.59
575.33	236.39
575.49	348.74
575.65	339.38
575.82	280.86
575.98	381.51
576.14	269.16
576.30	304.27
576.46	301.93
576.62	346.40
576.79	348.74
576.95	351.08
577.11	255.12
577.27	280.86
577.43	266.82
577.59	306.61
577.75	341.72
577.92	259.80
578.08	238.73
578.24	355.76
578.40	383.85
578.56	348.74
578.72	341.72
578.88	320.65
579.04	304.27
579.21	299.59
579.37	294.91
579.53	290.23
579.69	262.14
579.85	229.37
580.01	294.91
580.17	290.23
580.33	358.10
580.49	292.57
580.65	294.91
580.82	311.29
580.98	283.20
581.14	369.80
581.30	306.61
581.46	318.31
581.62	238.73
581.78	285.55
581.94	341.72
582.10	250.44
582.26	271.50
582.42	362.78
582.58	421.30
582.74	390.87
582.90	299.59
583.06	313.63
583.22	292.57
583.38	320.65
583.54	266.82
583.70	250.44
583.86	360.44
584.02	292.57
584.18	266.82
584.34	304.27
584.50	245.76
584.66	280.86
584.82	238.73
584.98	292.57
585.14	341.72
585.30	365.12
585.46	264.48
585.62	311.29
585.78	271.50
585.94	238.73
586.10	255.12
586.26	271.50
586.42	304.27
586.58	248.10
586.74	348.74
586.90	341.72
587.06	283.20
587.22	285.55
587.38	285.55
587.54	276.18
587.70	299.59
587.86	348.74
588.02	292.57
588.18	264.48
588.34	294.91
588.49	292.57
588.65	245.76
588.81	337.04
588.97	280.86
589.13	306.61
589.29	285.55
589.45	341.72
589.61	287.89
589.77	360.44
589.93	290.23
590.08	262.14
590.24	299.59
590.40	299.59
590.56	301.93
590.72	297.25
590.88	271.50
591.04	220.01
591.20	241.08
591.35	334.70
591.51	292.57
591.67	238.73
591.83	292.57
591.99	248.10
592.15	318.31
592.31	292.57
592.46	341.72
592.62	297.25
592.78	292.57
592.94	238.73
593.10	290.23
593.26	374.49
593.41	304.27
593.57	264.48
593.73	276.18
593.89	299.59
594.05	278.52
594.20	177.88
594.36	280.86
594.52	250.44
594.68	259.80
594.84	276.18
594.99	327.68
595.15	313.63
595.31	341.72
595.47	311.29
595.62	273.84
595.78	257.46
595.94	248.10
596.10	238.73
596.25	322.99
596.41	292.57
596.57	241.08
596.73	273.84
596.88	250.44
597.04	327.68
597.20	271.50
597.36	344.06
597.51	273.84
597.67	327.68
597.83	313.63
597.99	292.57
598.14	344.06
598.30	330.02
598.46	315.97
598.61	372.15
598.77	252.78
598.93	358.10
599.09	344.06
599.24	318.31
599.40	294.91
599.56	273.84
599.71	231.71
599.87	348.74
600.03	294.91
600.18	252.78
600.34	351.08
600.50	280.86
600.65	212.99
600.81	301.93
600.97	229.37
601.12	297.25
601.28	285.55
601.44	313.63
601.59	351.08
601.75	297.25
601.91	308.95
602.06	297.25
602.22	283.20
602.37	332.36
602.53	262.14
602.69	334.70
602.84	257.46
603.00	306.61
603.16	395.55
603.31	215.33
603.47	379.17
603.62	276.18
603.78	241.08
603.94	301.93
604.09	238.73
604.25	334.70
604.40	322.99
604.56	360.44
604.71	301.93
604.87	227.03
605.03	322.99
605.18	308.95
605.34	322.99
605.49	292.57
605.65	283.20
605.80	313.63
605.96	351.08
606.12	255.12
606.27	325.33
606.43	294.91
606.58	264.48
606.74	266.82
606.89	285.55
607.05	294.91
607.20	283.20
607.36	337.04
607.51	301.93
607.67	299.59
607.82	266.82
607.98	362.78
608.13	255.12
608.29	322.99
608.44	320.65
608.60	337.04
608.75	294.91
608.91	269.16
609.06	252.78
609.22	320.65
609.37	231.71
609.53	320.65
609.68	224.69
609.84	313.63
609.99	252.78
610.15	250.44
610.30	334.70
610.46	325.33
610.61	332.36
610.76	194.26
610.92	285.55
611.07	318.31
611.23	341.72
611.38	245.76
611.54	283.20
611.69	278.52
611.84	276.18
612.00	266.82
