SpectraSuite Data File
++++++++++++++++++++++++++++++++++++
Date: Fri Oct 04 11:48:22 GMT-05:00 2013
User: price-jones
Dark Spectrum Present: No
Reference Spectrum Present: No
Number of Sampled Component Spectra: 1
Spectrometers: USB2+H05261
Integration Time (usec): 100000 (USB2+H05261)
Spectra Averaged: 1 (USB2+H05261)
Boxcar Smoothing: 0 (USB2+H05261)
Correct for Electrical Dark: No (USB2+H05261)
Strobe/Lamp Enabled: No (USB2+H05261)
Correct for Detector Non-linearity: No (USB2+H05261)
Correct for Stray Light: No (USB2+H05261)
Number of Pixels in Processed Spectrum: 2048
>>>>>Begin Processed Spectral Data<<<<<
365.73	46.81
365.92	46.81
366.12	46.81
366.32	0.00
366.52	0.00
366.72	0.00
366.91	0.00
367.11	0.00
367.31	0.00
367.51	0.00
367.70	0.00
367.90	0.00
368.10	0.00
368.30	0.00
368.49	0.00
368.69	0.00
368.89	0.00
369.09	0.00
369.28	0.00
369.48	0.00
369.68	0.00
369.87	0.00
370.07	0.00
370.27	14.04
370.47	131.07
370.66	505.56
370.86	533.64
371.06	594.50
371.25	615.56
371.45	594.50
371.65	540.66
371.84	702.16
372.04	585.13
372.24	669.39
372.44	730.25
372.63	674.07
372.83	755.99
373.03	734.93
373.22	697.48
373.42	734.93
373.62	683.44
373.81	702.16
374.01	791.10
374.21	793.44
374.40	763.01
374.60	760.67
374.79	772.38
374.99	734.93
375.19	706.84
375.38	805.14
375.58	767.70
375.78	840.25
375.97	786.42
376.17	809.83
376.37	819.19
376.56	903.45
376.76	894.08
376.95	760.67
377.15	915.15
377.35	823.87
377.54	905.79
377.74	819.19
377.93	812.17
378.13	837.91
378.33	901.11
378.52	896.43
378.72	950.26
378.91	842.59
379.11	880.04
379.31	936.21
379.50	980.68
379.70	1001.75
379.89	1001.75
380.09	985.37
380.28	990.05
380.48	971.32
380.68	978.34
380.87	1027.50
381.07	1008.77
381.26	1114.10
381.46	1013.45
381.65	1034.52
381.85	1069.62
382.04	1069.62
382.24	1156.22
382.43	1114.10
382.63	1062.60
382.83	1146.86
383.02	1165.59
383.22	1228.78
383.41	1193.67
383.61	1076.65
383.80	1076.65
384.00	1151.54
384.19	1198.35
384.39	1170.27
384.58	1196.01
384.78	1249.85
384.97	1191.33
385.17	1219.42
385.36	1233.46
385.56	1212.40
385.75	1284.95
385.95	1170.27
386.14	1247.51
386.34	1277.93
386.53	1163.25
386.72	1306.02
386.92	1320.06
387.11	1233.46
387.31	1336.45
387.50	1371.55
387.70	1369.21
387.89	1418.36
388.09	1277.93
388.28	1287.29
388.48	1427.73
388.67	1511.99
388.86	1444.11
389.06	1362.19
389.25	1497.94
389.45	1451.13
389.64	1509.65
389.84	1483.90
390.03	1507.30
390.22	1507.30
390.42	1514.33
390.61	1568.16
390.81	1572.84
391.00	1497.94
391.19	1619.65
391.39	1598.59
391.58	1521.35
391.78	1706.25
391.97	1689.87
392.16	1596.25
392.36	1720.29
392.55	1699.23
392.75	1708.59
392.94	1659.44
393.13	1657.10
393.33	1671.14
393.52	1760.08
393.71	1774.13
393.91	1736.68
394.10	1879.45
394.29	1776.47
394.49	1753.06
394.68	1757.74
394.88	1818.60
395.07	1947.33
395.26	1846.68
395.46	1865.41
395.65	1956.69
395.84	1895.83
396.04	1975.41
396.23	2036.27
396.42	1923.92
396.62	1905.20
396.81	2174.36
397.00	1984.77
397.19	2050.31
397.39	2155.63
397.58	1994.14
397.77	2129.89
397.97	2139.25
398.16	2047.97
398.35	2232.87
398.55	2087.76
398.74	2216.49
398.93	2303.09
399.12	2179.04
399.32	2181.38
399.51	2183.72
399.70	2289.04
399.90	2232.87
400.09	2457.56
400.28	2492.67
400.47	2359.26
400.67	2448.20
400.86	2490.33
401.05	2331.17
401.24	2530.12
401.44	2541.82
401.63	2490.33
401.82	2525.44
402.01	2490.33
402.21	2558.21
402.40	2539.48
402.59	2464.58
402.78	2663.53
402.97	2548.84
403.17	2689.28
403.36	2672.89
403.55	2703.32
403.74	2740.77
403.93	2766.51
404.13	2810.98
404.32	2712.68
404.51	2799.28
404.70	2853.11
404.89	2839.07
405.09	2960.78
405.28	2963.12
405.47	2918.65
405.66	2897.58
405.85	2988.86
406.05	2972.48
406.24	3061.42
406.43	3152.70
406.62	3035.67
406.81	3199.51
407.00	3038.02
407.20	3091.85
407.39	3084.83
407.58	3141.00
407.77	3218.24
407.96	3304.84
408.15	3396.12
408.34	3365.69
408.54	3290.79
408.73	3353.99
408.92	3393.78
409.11	3449.95
409.30	3384.41
409.49	3529.53
409.68	3424.20
409.87	3499.10
410.07	3660.60
410.26	3578.68
410.45	3627.83
410.64	3662.94
410.83	3796.35
411.02	3604.42
411.21	3742.52
411.40	3784.65
411.59	3815.07
411.78	3808.05
411.98	3803.37
412.17	3915.72
412.36	3932.10
412.55	4032.74
412.74	4053.81
412.93	4056.15
413.12	4072.53
413.31	4217.65
413.50	4159.13
413.69	4241.05
413.88	4224.67
414.07	4369.78
414.26	4297.22
414.45	4432.97
414.64	4409.57
414.83	4564.04
415.02	4596.81
415.22	4629.58
415.41	4535.96
415.60	4615.54
415.79	4770.01
415.98	4648.30
416.17	4774.69
416.36	4718.52
416.55	4931.51
416.74	4905.76
416.93	4887.04
417.12	4933.85
417.31	5055.56
417.50	5053.22
417.69	5217.05
417.88	5111.73
418.07	5181.95
418.26	5167.90
418.45	5172.58
418.64	5493.24
418.83	5399.62
419.02	5224.08
419.21	5397.28
419.39	5291.95
419.58	5322.38
419.77	5301.31
419.96	5547.07
420.15	5586.86
420.34	5591.54
420.53	5547.07
420.72	5518.98
420.91	5598.56
421.10	5849.00
421.29	5905.17
421.48	5469.83
421.67	5811.55
421.86	5710.91
422.05	5834.96
422.24	5755.38
422.43	6019.86
422.61	5823.25
422.80	5785.80
422.99	6087.73
423.18	6015.18
423.37	6036.24
423.56	6043.26
423.75	6017.52
423.94	5851.34
424.13	5710.91
424.32	5671.12
424.50	6047.94
424.69	6200.08
424.88	6115.82
425.07	6083.05
425.26	5944.96
425.45	6064.33
425.64	6115.82
425.83	5837.30
426.01	6108.80
426.20	6132.20
426.39	6026.88
426.58	6094.76
426.77	6024.54
426.96	6139.23
427.15	6335.83
427.33	6232.85
427.52	6359.24
427.71	6354.55
427.90	6445.84
428.09	6382.64
428.28	6387.32
428.46	6434.13
428.65	6291.36
428.84	6590.95
429.03	6712.66
429.22	6436.47
429.40	6630.74
429.59	6675.21
429.78	6296.04
429.97	6473.92
430.16	6583.93
430.34	6855.43
430.53	6862.45
430.72	6881.18
430.91	6836.70
431.10	6771.17
431.28	6995.86
431.47	6988.84
431.66	7258.00
431.85	7140.97
432.03	7171.40
432.22	7253.32
432.41	7098.84
432.60	7318.86
432.79	6986.50
432.97	7150.34
433.16	7351.62
433.35	7368.01
433.54	7403.11
433.72	7412.48
433.91	7405.46
434.10	7513.12
434.28	7363.33
434.47	7585.68
434.66	7620.78
434.85	7520.14
435.03	7463.97
435.22	7686.32
435.41	7962.50
435.59	7801.01
435.78	7791.64
435.97	7723.77
436.16	7903.99
436.34	7955.48
436.53	7925.05
436.72	8248.05
436.90	7990.59
437.09	8112.30
437.28	7889.95
437.46	7988.25
437.65	8198.90
437.84	8142.72
438.02	8077.19
438.21	8194.22
438.40	8344.01
438.58	8542.96
438.77	8486.78
438.96	8599.13
439.14	8718.50
439.33	8720.84
439.52	8774.67
439.70	8444.65
439.89	8910.42
440.08	8828.50
440.26	9102.34
440.45	9053.19
440.63	9156.18
440.82	9231.07
441.01	9240.44
441.19	9334.06
441.38	9582.15
441.57	9493.21
441.75	9427.68
441.94	9673.43
442.12	9839.61
442.31	9874.72
442.50	9764.72
442.68	9951.96
442.87	10038.56
443.05	10066.64
443.24	10059.62
443.43	9970.68
443.61	10045.58
443.80	10366.23
443.98	10057.28
444.17	9724.93
444.35	10209.42
444.54	10242.18
444.73	10204.74
444.91	10284.31
445.10	10183.67
445.28	10108.77
445.47	10265.59
445.65	10012.81
445.84	10459.85
446.02	10429.43
446.21	10207.08
446.39	10373.25
446.58	10572.20
446.77	10211.76
446.95	10225.80
447.14	10300.70
447.32	10888.17
447.51	10174.31
447.69	10333.47
447.88	10693.91
448.06	10382.62
448.25	10375.59
448.43	10541.77
448.62	10586.24
448.80	10434.11
448.99	10506.66
449.17	10682.20
449.36	10457.51
449.54	11028.60
449.73	11166.70
449.91	10967.75
450.10	11084.78
450.28	11063.71
450.46	11117.54
450.65	11173.72
450.83	11206.48
451.02	11110.52
451.20	11281.38
451.39	11468.62
451.57	11274.36
451.76	11159.67
451.94	11431.18
452.13	11569.27
452.31	11531.82
452.49	11426.50
452.68	11669.91
452.86	11686.29
453.05	11522.46
453.23	11988.22
453.42	11616.08
453.60	11679.27
453.78	11492.03
453.97	11557.57
454.15	11761.19
454.34	11800.98
454.52	12006.95
454.70	11761.19
454.89	12060.78
455.07	11990.56
455.26	12369.73
455.44	12318.24
455.62	12208.23
455.81	12306.54
455.99	12189.51
456.17	12430.59
456.36	12369.73
456.54	12669.32
456.73	12453.99
456.91	12718.47
457.09	12924.44
457.28	13029.76
457.46	12884.65
457.64	12847.20
457.83	13006.36
458.01	12898.69
458.19	13107.00
458.38	12919.76
458.56	13270.84
458.74	13554.04
458.93	13380.84
459.11	13107.00
459.29	13181.90
459.48	13277.86
459.66	13582.13
459.84	13558.72
460.03	13806.82
460.21	13268.50
460.39	13514.25
460.57	13706.18
460.76	13909.80
460.94	13907.46
461.12	13682.77
461.31	13926.19
461.49	13727.24
461.67	13757.67
461.85	14242.16
462.04	14178.97
462.22	14796.87
462.40	14525.36
462.59	14272.59
462.77	14359.19
462.95	14410.68
463.13	14508.98
463.32	14520.68
463.50	14387.27
463.68	14728.99
463.86	14398.98
464.05	14663.46
464.23	14623.67
464.41	14480.89
464.59	14532.39
464.78	15094.11
464.96	14834.32
465.14	14508.98
465.32	15126.88
465.50	15314.13
465.69	15213.48
465.87	15136.24
466.05	15000.49
466.23	15033.26
466.41	15250.93
466.60	15548.18
466.78	15194.76
466.96	15218.16
467.14	15325.83
467.32	15517.75
467.51	15751.81
467.69	15447.54
467.87	15557.54
468.05	15981.18
468.23	15447.54
468.41	15349.23
468.60	15599.67
468.78	16046.71
468.96	15433.49
469.14	15917.98
469.32	16205.87
469.50	15496.69
469.69	16154.38
469.87	16372.05
470.05	16339.28
470.23	16182.46
470.41	16301.83
470.59	16573.33
470.77	16215.23
470.95	16720.79
471.14	16730.15
471.32	16500.78
471.50	16926.75
471.68	16781.64
471.86	17053.14
472.04	17008.67
472.22	17511.89
472.40	17270.81
472.58	17284.86
472.77	17584.44
472.95	17624.23
473.13	18104.04
473.31	17593.81
473.49	17778.71
473.67	17811.48
473.85	18134.47
474.03	18253.84
474.21	17877.01
474.39	18141.49
474.57	18614.28
474.75	18511.30
474.93	18815.57
475.12	18448.10
475.30	19021.53
475.48	18731.31
475.66	18918.55
475.84	19227.50
476.02	19482.62
476.20	19606.67
476.38	19669.86
476.56	19793.91
476.74	19882.85
476.92	20086.48
477.10	19852.42
477.28	20343.94
477.46	20159.03
477.64	20528.84
477.82	20716.08
478.00	21128.02
478.18	20882.26
478.36	21605.49
478.54	21521.23
478.72	21418.24
478.90	21839.54
479.08	21968.27
479.26	22099.34
479.44	22270.20
479.62	22349.78
479.80	22815.54
479.98	22829.59
480.16	22946.61
480.34	23117.47
480.52	23536.43
480.70	23339.82
480.88	23304.71
481.06	23388.97
481.24	22979.38
481.41	24180.07
481.59	24542.86
481.77	24446.90
481.95	24627.12
482.13	24900.96
482.31	24636.48
482.49	25228.63
482.67	25001.60
482.85	25546.95
483.03	25834.83
483.21	26380.18
483.39	26408.26
483.57	26359.11
483.74	26576.78
483.92	26759.34
484.10	26780.41
484.28	27143.19
484.46	27566.83
484.64	28233.88
484.82	27513.00
485.00	27789.18
485.18	28517.09
485.35	28744.12
485.53	28512.41
485.71	28804.97
485.89	29511.81
486.07	29305.85
486.25	29820.77
486.43	29851.19
486.61	30211.64
486.78	30333.34
486.96	30522.93
487.14	30909.11
487.32	31175.94
487.50	31353.82
487.68	31189.98
487.85	32194.07
488.03	31960.02
488.21	32503.02
488.39	32493.66
488.57	32861.12
488.75	32982.83
488.92	33443.91
489.10	33160.71
489.28	33577.33
489.46	34307.57
489.64	33977.56
489.81	34429.28
489.99	34590.78
490.17	34909.09
490.35	35051.86
490.53	35704.87
490.70	35789.13
490.88	35992.76
491.06	36549.81
491.24	35662.74
491.41	36451.50
491.59	36692.58
491.77	36933.65
491.95	37464.96
492.13	37837.10
492.30	37471.98
492.48	37940.08
492.66	37745.82
492.84	38218.61
493.01	38808.42
493.19	38698.42
493.37	39332.70
493.54	38953.54
493.72	39580.80
493.90	39440.37
494.08	39859.32
494.25	40297.00
494.43	40563.82
494.61	40797.88
494.79	41043.63
494.96	40989.80
495.14	41097.47
495.32	41839.42
495.49	41722.39
495.67	41982.19
495.85	42099.22
496.02	42354.33
496.20	42698.39
496.38	42347.31
496.55	42635.20
496.73	43414.60
496.91	43168.84
497.09	43784.40
497.26	43618.22
497.44	43648.65
497.62	43927.17
497.79	44329.75
497.97	44306.34
498.14	44847.00
498.32	45392.35
498.50	44935.95
498.67	45425.12
498.85	45127.87
499.03	45638.11
499.20	45469.59
499.38	46223.24
499.56	46124.94
499.73	46614.11
499.91	46705.39
500.08	46562.62
500.26	46281.75
500.44	46532.19
500.61	46637.51
500.79	46735.82
500.97	47639.26
501.14	47906.08
501.32	48062.90
501.49	47852.25
501.67	47927.15
501.84	48413.98
502.02	48318.02
502.20	48289.93
502.37	48552.07
502.55	48835.28
502.72	48594.20
502.90	48603.56
503.07	48666.76
503.25	49179.34
503.43	48748.68
503.60	49207.42
503.78	49497.65
503.95	49546.80
504.13	49668.51
504.30	49787.88
504.48	49876.82
504.65	49832.35
504.83	50218.53
505.01	50403.44
505.18	50478.33
505.36	50752.18
505.53	50412.80
505.71	50878.57
505.88	50733.45
506.06	50597.70
506.23	50759.20
506.41	50934.74
506.58	51217.94
506.76	51459.02
506.93	51697.75
507.11	51524.55
507.28	51763.29
507.46	51810.10
507.63	51739.88
507.81	52306.29
507.98	51875.63
508.16	51957.55
508.33	52048.83
508.50	52568.43
508.68	52435.02
508.85	52856.32
509.03	52486.51
509.20	52856.32
509.38	53034.20
509.55	52966.32
509.73	53205.06
509.90	53237.83
510.08	53389.96
510.25	53525.71
510.42	53759.76
510.60	53727.00
510.77	53815.94
510.95	53516.35
511.12	53514.01
511.30	53516.35
511.47	53764.45
511.64	54021.90
511.82	54553.21
511.99	54300.43
512.17	54316.81
512.34	54358.94
512.51	54618.74
512.69	54532.14
512.86	54698.32
513.04	55105.57
513.21	54885.56
513.38	54969.82
513.56	55025.99
513.73	54901.95
513.90	54876.20
514.08	55077.49
514.25	55264.73
514.43	55419.20
514.60	55564.32
514.77	55576.02
514.95	55622.83
515.12	55594.74
515.29	55374.73
515.47	55819.44
515.64	56100.30
515.81	55978.59
515.99	56002.00
516.16	56104.98
516.33	56409.25
516.51	56149.45
516.68	55964.55
516.85	56233.71
517.03	56437.34
517.20	56336.69
517.37	56507.55
517.54	56540.32
517.72	56760.33
517.89	56596.49
518.06	56732.25
518.24	56605.86
518.41	56554.36
518.58	56811.82
518.75	56870.34
518.93	57083.33
519.10	57052.90
519.27	57216.74
519.45	57024.81
519.62	57258.87
519.79	57277.59
519.96	57052.90
520.14	57420.36
520.31	57286.95
520.48	57462.49
520.65	57343.12
520.83	57549.09
521.00	57492.92
521.17	57691.86
521.34	57614.63
521.52	57771.44
521.69	57865.06
521.86	58056.99
522.03	58012.52
522.20	58017.20
522.38	58234.87
522.55	58216.14
522.72	58209.12
522.89	58328.49
523.07	58354.24
523.24	58403.39
523.41	58464.24
523.58	58230.19
523.75	58688.93
523.92	58344.87
524.10	58599.99
524.27	58642.12
524.44	58883.20
524.61	59119.59
524.78	58782.55
524.96	59030.65
525.13	59000.22
525.30	58890.22
525.47	59103.21
525.64	59089.16
525.81	59192.15
525.98	59503.44
526.16	59215.55
526.33	59243.64
526.50	59386.41
526.67	59250.66
526.84	59189.81
527.01	59269.39
527.18	59564.29
527.36	59583.02
527.53	59508.12
527.70	59884.95
527.87	60051.12
528.04	59714.09
528.21	59800.69
528.38	59746.86
528.55	59856.86
528.72	59945.80
528.89	59971.55
529.07	59765.58
529.24	59791.33
529.41	60203.26
529.58	60083.89
529.75	59987.93
529.92	60259.43
530.09	60294.54
530.26	60315.61
530.43	60360.08
530.60	60257.09
530.77	60315.61
530.94	60331.99
531.11	60378.80
531.28	60341.35
531.46	60552.00
531.63	60523.91
531.80	60615.19
531.97	60654.98
532.14	60645.62
532.31	60734.56
532.48	60711.16
532.65	60821.16
532.82	60807.12
532.99	60872.65
533.16	60729.88
533.33	61202.67
533.50	61202.67
533.67	61130.11
533.84	60823.50
534.01	61048.19
534.18	60905.42
534.35	61242.46
534.52	61127.77
534.69	61429.70
534.86	61443.74
535.03	61263.52
535.20	61284.59
535.37	61427.36
535.54	61443.74
535.71	61385.23
535.88	61399.27
536.05	61736.31
536.22	61677.80
536.38	61825.25
536.55	61649.71
536.72	61656.73
536.89	61572.47
537.06	61460.13
537.23	61731.63
537.40	61755.03
537.57	61666.09
537.74	61764.40
537.91	62047.60
538.08	61998.45
538.25	62000.79
538.42	61970.36
538.59	61867.38
538.75	61778.44
538.92	62024.20
539.09	62038.24
539.26	62103.77
539.43	62171.65
539.60	62365.91
539.77	62176.33
539.94	62370.60
540.11	62237.19
540.28	62394.00
540.44	62415.07
540.61	62401.02
540.78	62276.97
540.95	62452.51
541.12	62204.42
541.29	62487.62
541.46	62321.44
541.62	62349.53
541.79	62316.76
541.96	62454.86
542.13	62426.77
542.30	62623.37
542.47	62850.41
542.63	62819.98
542.80	62845.72
542.97	62864.45
543.14	63079.78
543.31	62951.05
543.48	62859.77
543.64	63107.86
543.81	63044.67
543.98	63274.04
544.15	63386.39
544.32	63365.32
544.48	63395.75
544.65	63161.70
544.82	63257.66
544.99	63054.03
545.16	63252.98
545.32	63313.83
545.49	63503.42
545.66	63597.04
545.83	63533.84
546.00	63547.89
546.16	63398.09
546.33	63234.25
546.50	63318.51
546.67	63571.29
546.83	63140.63
547.00	63690.66
547.17	63676.61
547.34	63737.47
547.50	63627.46
547.67	63765.56
547.84	63613.42
548.00	63800.66
548.17	63730.45
548.34	63941.10
548.51	63980.88
548.67	64023.01
548.84	63973.86
549.01	63910.67
549.18	63849.81
549.34	63910.67
549.51	64027.70
549.68	63882.58
549.84	63852.15
550.01	63898.97
550.18	63992.59
550.34	63987.91
550.51	64088.55
550.68	64147.06
550.84	63950.46
551.01	64055.78
551.18	64102.59
551.34	64111.95
551.51	64329.62
551.68	64432.61
551.84	64240.68
552.01	64252.39
552.18	64479.42
552.34	64158.76
552.51	64369.41
552.68	64231.32
552.84	64374.09
553.01	64430.27
553.18	64317.92
553.34	64509.85
553.51	64432.61
553.67	64566.02
553.84	64619.85
554.01	64575.38
554.17	64664.32
554.34	64523.89
554.51	64631.55
554.67	64774.33
554.84	64764.96
555.00	64687.73
555.17	64676.02
555.33	65015.40
555.50	64715.81
555.67	64750.92
555.83	64647.94
556.00	64706.45
556.16	64989.66
556.33	64783.69
556.50	64858.59
556.66	64938.16
556.83	64776.67
556.99	65148.81
557.16	65233.07
557.32	65041.15
557.49	65006.04
557.65	65001.36
557.82	64900.71
557.98	64910.08
558.15	65106.68
558.32	65214.35
558.48	65188.60
558.65	65183.92
558.81	65249.45
558.98	65195.62
559.14	65083.28
559.31	65048.17
559.47	65134.77
559.64	65181.58
559.80	65158.17
559.97	65464.78
560.13	65366.48
560.30	65235.41
560.46	65439.04
560.63	65307.97
560.79	65268.18
560.96	65499.89
561.12	65336.05
561.29	65373.50
561.45	65340.74
561.61	65324.35
561.78	65535.00
561.94	65429.68
562.11	65535.00
562.27	65439.04
562.44	65464.78
562.60	65502.23
562.77	65535.00
562.93	65361.80
563.10	65535.00
563.26	65535.00
563.42	65535.00
563.59	65535.00
563.75	65530.32
563.92	65535.00
564.08	65535.00
564.24	65535.00
564.41	65535.00
564.57	65504.57
564.74	65535.00
564.90	65535.00
565.07	65535.00
565.23	65535.00
565.39	65535.00
565.56	65535.00
565.72	65535.00
565.88	65535.00
566.05	65535.00
566.21	65535.00
566.38	65535.00
566.54	65535.00
566.70	65535.00
566.87	65535.00
567.03	65535.00
567.19	65535.00
567.36	65535.00
567.52	65535.00
567.68	65535.00
567.85	65535.00
568.01	65535.00
568.17	65535.00
568.34	65535.00
568.50	65535.00
568.66	65535.00
568.83	65535.00
568.99	65535.00
569.15	65535.00
569.32	65535.00
569.48	65535.00
569.64	65535.00
569.81	65535.00
569.97	65535.00
570.13	65535.00
570.30	65535.00
570.46	65535.00
570.62	65535.00
570.78	65535.00
570.95	65535.00
571.11	65535.00
571.27	65535.00
571.43	65535.00
571.60	65535.00
571.76	65535.00
571.92	65535.00
572.09	65535.00
572.25	65535.00
572.41	65535.00
572.57	65535.00
572.74	65535.00
572.90	65535.00
573.06	65535.00
573.22	65535.00
573.38	65535.00
573.55	65535.00
573.71	65535.00
573.87	65535.00
574.03	65535.00
574.20	65535.00
574.36	65535.00
574.52	65535.00
574.68	65535.00
574.84	65535.00
575.01	65535.00
575.17	65535.00
575.33	65535.00
575.49	65535.00
575.65	65535.00
575.82	65535.00
575.98	65535.00
576.14	65535.00
576.30	65535.00
576.46	65535.00
576.62	65535.00
576.79	65535.00
576.95	65535.00
577.11	65535.00
577.27	65535.00
577.43	65535.00
577.59	65535.00
577.75	65535.00
577.92	65535.00
578.08	65535.00
578.24	65535.00
578.40	65535.00
578.56	65535.00
578.72	65535.00
578.88	65535.00
579.04	65535.00
579.21	65535.00
579.37	65535.00
579.53	65535.00
579.69	65535.00
579.85	65535.00
580.01	65535.00
580.17	65535.00
580.33	65535.00
580.49	65535.00
580.65	65535.00
580.82	65535.00
580.98	65535.00
581.14	65535.00
581.30	65535.00
581.46	65535.00
581.62	65535.00
581.78	65535.00
581.94	65535.00
582.10	65535.00
582.26	65535.00
582.42	65535.00
582.58	65535.00
582.74	65535.00
582.90	65535.00
583.06	65535.00
583.22	65535.00
583.38	65535.00
583.54	65535.00
583.70	65535.00
583.86	65535.00
584.02	65535.00
584.18	65535.00
584.34	65535.00
584.50	65535.00
584.66	65535.00
584.82	65535.00
584.98	65535.00
585.14	65535.00
585.30	65535.00
585.46	65535.00
585.62	65535.00
585.78	65535.00
585.94	65535.00
586.10	65535.00
586.26	65535.00
586.42	65535.00
586.58	65535.00
586.74	65535.00
586.90	65535.00
587.06	65535.00
587.22	65535.00
587.38	65535.00
587.54	65535.00
587.70	65535.00
587.86	65535.00
588.02	65535.00
