SpectraSuite Data File
++++++++++++++++++++++++++++++++++++
Date: Fri Oct 04 11:48:39 GMT-05:00 2013
User: price-jones
Dark Spectrum Present: No
Reference Spectrum Present: No
Number of Sampled Component Spectra: 1
Spectrometers: USB2+H05261
Integration Time (usec): 100000 (USB2+H05261)
Spectra Averaged: 1 (USB2+H05261)
Boxcar Smoothing: 0 (USB2+H05261)
Correct for Electrical Dark: No (USB2+H05261)
Strobe/Lamp Enabled: No (USB2+H05261)
Correct for Detector Non-linearity: No (USB2+H05261)
Correct for Stray Light: No (USB2+H05261)
Number of Pixels in Processed Spectrum: 2048
>>>>>Begin Processed Spectral Data<<<<<
365.73	56.17
365.92	56.17
366.12	56.17
366.32	0.00
366.52	0.00
366.72	49.15
366.91	0.00
367.11	0.00
367.31	0.00
367.51	0.00
367.70	0.00
367.90	0.00
368.10	0.00
368.30	0.00
368.49	0.00
368.69	0.00
368.89	0.00
369.09	0.00
369.28	0.00
369.48	0.00
369.68	0.00
369.87	0.00
370.07	25.75
370.27	23.41
370.47	107.66
370.66	313.63
370.86	367.46
371.06	407.25
371.25	465.77
371.45	442.36
371.65	388.53
371.84	416.62
372.04	442.36
372.24	416.62
372.44	470.45
372.63	575.77
372.83	552.37
373.03	500.87
373.22	475.13
373.42	468.11
373.62	496.19
373.81	458.74
374.01	587.47
374.21	561.73
374.40	566.41
374.60	566.41
374.79	491.51
374.99	498.53
375.19	580.45
375.38	554.71
375.58	624.92
375.78	543.00
375.97	580.45
376.17	571.09
376.37	613.22
376.56	655.35
376.76	641.31
376.95	575.77
377.15	674.07
377.35	608.54
377.54	608.54
377.74	596.84
377.93	627.26
378.13	655.35
378.33	697.48
378.52	676.41
378.72	648.33
378.91	608.54
379.11	664.71
379.31	739.61
379.50	746.63
379.70	671.73
379.89	671.73
380.09	648.33
380.28	723.23
380.48	674.07
380.68	765.36
380.87	793.44
381.07	744.29
381.26	676.41
381.46	751.31
381.65	713.86
381.85	702.16
382.04	711.52
382.24	816.85
382.43	774.72
382.63	800.46
382.83	830.89
383.02	725.57
383.22	919.83
383.41	833.23
383.61	732.59
383.80	791.10
384.00	760.67
384.19	781.74
384.39	908.13
384.58	840.25
384.78	805.14
384.97	861.32
385.17	779.40
385.36	844.93
385.56	849.61
385.75	898.77
385.95	798.12
386.14	889.40
386.34	819.19
386.53	910.47
386.72	858.98
386.92	903.45
387.11	933.87
387.31	926.85
387.50	919.83
387.70	894.08
387.89	915.15
388.09	884.72
388.28	896.43
388.48	954.94
388.67	997.07
388.86	994.73
389.06	959.62
389.25	1069.62
389.45	1022.81
389.64	1050.90
389.84	968.98
390.03	1095.37
390.22	1029.84
390.42	1069.62
390.61	1015.79
390.81	980.68
391.00	1111.75
391.19	1160.91
391.39	1125.80
391.58	1097.71
391.78	1086.01
391.97	1123.46
392.16	1097.71
392.36	1219.42
392.55	1266.23
392.75	1153.88
392.94	1193.67
393.13	1172.61
393.33	1174.95
393.52	1270.91
393.71	1203.04
393.91	1200.69
394.10	1210.06
394.29	1198.35
394.49	1210.06
394.68	1196.01
394.88	1261.55
395.07	1289.64
395.26	1287.29
395.46	1289.64
395.65	1294.32
395.84	1341.13
396.04	1315.38
396.23	1362.19
396.42	1399.64
396.62	1420.71
396.81	1420.71
397.00	1345.81
397.19	1362.19
397.39	1430.07
397.58	1437.09
397.77	1378.58
397.97	1493.26
398.16	1423.05
398.35	1507.30
398.55	1425.39
398.74	1514.33
398.93	1526.03
399.12	1516.67
399.32	1593.90
399.51	1596.25
399.70	1652.42
399.90	1696.89
400.09	1673.48
400.28	1720.29
400.47	1692.21
400.67	1703.91
400.86	1734.34
401.05	1732.00
401.24	1760.08
401.44	1774.13
401.63	1678.16
401.82	1717.95
402.01	1645.40
402.21	1739.02
402.40	1832.64
402.59	1792.85
402.78	1671.14
402.97	1811.57
403.17	1804.55
403.36	1827.96
403.55	1790.51
403.74	1944.99
403.93	2113.50
404.13	1909.88
404.32	1802.21
404.51	1842.00
404.70	1998.82
404.89	2040.95
405.09	1991.80
405.28	2092.44
405.47	2064.35
405.66	2012.86
405.85	2064.35
406.05	2071.37
406.24	2127.55
406.43	2125.21
406.62	2169.68
406.81	2319.47
407.00	2195.42
407.20	2136.91
407.39	2239.89
407.58	2328.83
407.77	2375.64
407.96	2352.24
408.15	2380.32
408.34	2321.81
408.54	2326.49
408.73	2471.61
408.92	2338.20
409.11	2305.43
409.30	2480.97
409.49	2427.14
409.68	2448.20
409.87	2452.88
410.07	2612.04
410.26	2560.55
410.45	2548.84
410.64	2520.76
410.83	2682.25
411.02	2710.34
411.21	2768.85
411.40	2771.19
411.59	2806.30
411.78	2724.38
411.98	2661.19
412.17	2878.86
412.36	2904.60
412.55	2916.31
412.74	2928.01
412.93	2995.89
413.12	2946.73
413.31	3080.14
413.50	2876.52
413.69	3009.93
413.88	3112.91
414.07	3028.65
414.26	3302.50
414.45	3253.34
414.64	3293.13
414.83	3229.94
415.02	3274.41
415.22	3389.10
415.41	3361.01
415.60	3311.86
415.79	3489.74
415.98	3496.76
416.17	3384.41
416.36	3475.70
416.55	3688.68
416.74	3641.87
416.93	3669.96
417.12	3611.45
417.31	3592.72
417.50	3627.83
417.69	3707.41
417.88	3801.03
418.07	3733.15
418.26	3686.34
418.45	3733.15
418.64	4079.55
418.83	3936.78
419.02	4051.47
419.21	3997.64
419.39	3974.23
419.58	4004.66
419.77	3857.20
419.96	3911.04
420.15	4170.83
420.34	4088.92
420.53	4124.02
420.72	4119.34
420.91	4210.62
421.10	4262.12
421.29	4322.97
421.48	4175.52
421.67	4442.34
421.86	4154.45
422.05	4393.19
422.24	4191.90
422.43	4119.34
422.61	4329.99
422.80	4400.21
422.99	4456.38
423.18	4444.68
423.37	4397.87
423.56	4339.35
423.75	4418.93
423.94	4346.37
424.13	4241.05
424.32	4278.50
424.50	4477.44
424.69	4407.23
424.88	4418.93
425.07	4348.72
425.26	4278.50
425.45	4386.16
425.64	4393.19
425.83	4362.76
426.01	4559.36
426.20	4432.97
426.39	4477.44
426.58	4475.10
426.77	4510.21
426.96	4667.03
427.15	4496.17
427.33	4606.17
427.52	4582.77
427.71	4755.97
427.90	4723.20
428.09	4741.93
428.28	4730.22
428.46	4671.71
428.65	4800.44
428.84	4720.86
429.03	4908.10
429.22	4730.22
429.40	4875.34
429.59	4856.61
429.78	4744.27
429.97	4770.01
430.16	4786.40
430.34	4968.96
430.53	4980.66
430.72	5057.90
430.91	4971.30
431.10	4978.32
431.28	5181.95
431.47	5060.24
431.66	5282.59
431.85	4898.74
432.03	5146.84
432.22	5287.27
432.41	5114.07
432.60	5348.12
432.79	5210.03
432.97	5334.08
433.16	5476.85
433.35	5357.49
433.54	5242.80
433.72	5397.28
433.91	5289.61
434.10	5647.71
434.28	5465.15
434.47	5626.65
434.66	5563.45
434.85	5568.13
435.03	5542.39
435.22	5713.25
435.41	5865.38
435.59	5647.71
435.78	5727.29
435.97	5820.91
436.16	5757.72
436.34	5708.57
436.53	5603.24
436.72	5940.28
436.90	5799.85
437.09	5863.04
437.28	5856.02
437.46	5806.87
437.65	5959.00
437.84	5935.60
438.02	6099.44
438.21	6101.78
438.40	5975.39
438.58	6246.89
438.77	6244.55
438.96	6183.70
439.14	6487.96
439.33	6511.37
439.52	6581.59
439.70	6600.31
439.89	6436.47
440.08	6560.52
440.26	6614.35
440.45	6588.61
440.63	6633.08
440.82	6881.18
441.01	6590.95
441.19	6773.51
441.38	7042.67
441.57	7049.69
441.75	6869.47
441.94	7129.27
442.12	6993.52
442.31	7239.28
442.50	7208.85
442.68	7258.00
442.87	7126.93
443.05	7258.00
443.24	7344.60
443.43	7262.68
443.61	7342.26
443.80	7653.55
443.98	7311.83
444.17	7194.81
444.35	7405.46
444.54	7501.42
444.73	7517.80
444.91	7384.39
445.10	7307.15
445.28	7360.98
445.47	7370.35
445.65	7513.12
445.84	7538.87
446.02	7459.29
446.21	7503.76
446.39	7665.25
446.58	7716.75
446.77	7461.63
446.95	7571.63
447.14	7632.49
447.32	7702.70
447.51	7786.96
447.69	7499.08
447.88	7676.96
448.06	7728.45
448.25	7740.15
448.43	7770.58
448.62	7648.87
448.80	7735.47
448.99	7726.11
449.17	7782.28
449.36	7695.68
449.54	7845.48
449.73	7955.48
449.91	8154.43
450.10	8262.09
450.28	8175.49
450.46	7983.57
450.65	8248.05
450.83	8074.85
451.02	7988.25
451.20	8262.09
451.39	8168.47
451.57	8060.80
451.76	8107.62
451.94	8287.84
452.13	8353.37
452.31	8180.17
452.49	8278.47
452.68	8280.82
452.86	8442.31
453.05	8582.74
453.23	8585.08
453.42	8344.01
453.60	8177.83
453.78	8362.73
453.97	8381.46
454.15	8552.32
454.34	8430.61
454.52	8744.24
454.70	8683.39
454.89	8781.69
455.07	8634.24
455.26	8887.01
455.44	9156.18
455.62	8887.01
455.81	8966.59
455.99	8917.44
456.17	8898.72
456.36	9139.79
456.54	9125.75
456.73	9011.06
456.91	9287.25
457.09	9210.01
457.28	9383.21
457.46	9270.86
457.64	9500.23
457.83	9357.46
458.01	9261.50
458.19	9584.49
458.38	9486.19
458.56	9741.31
458.74	9294.27
458.93	9617.26
459.11	9497.89
459.29	9762.37
459.48	9617.26
459.66	9678.12
459.84	9600.88
460.03	9935.57
460.21	9935.57
460.39	9731.95
460.57	9856.00
460.76	9998.77
460.94	10281.97
461.12	9893.44
461.31	10064.30
461.49	9888.76
461.67	10012.81
461.85	10246.87
462.04	10132.18
462.22	10747.74
462.40	10349.85
462.59	10352.19
462.77	10328.78
462.95	10511.35
463.13	10377.94
463.32	10555.82
463.50	10333.47
463.68	10513.69
463.86	10406.02
464.05	10331.12
464.23	10537.09
464.41	10642.42
464.59	10555.82
464.78	10796.89
464.96	10485.60
465.14	10691.57
465.32	10726.68
465.50	11129.25
465.69	10988.82
465.87	10796.89
466.05	10747.74
466.23	11035.63
466.41	10899.87
466.60	11243.93
466.78	10855.40
466.96	10934.98
467.14	10925.62
467.32	11276.70
467.51	11356.28
467.69	10792.21
467.87	11241.59
468.05	11339.90
468.23	10986.47
468.41	11279.04
468.60	11187.76
468.78	11452.24
468.96	11290.74
469.14	11257.98
469.32	11494.37
469.50	10993.50
469.69	11744.81
469.87	11800.98
470.05	11779.92
470.23	11847.79
470.41	11616.08
470.59	11899.28
470.77	11681.61
470.95	12051.42
471.14	12184.83
471.32	11859.49
471.50	12306.54
471.68	12145.04
471.86	12358.03
472.04	12573.36
472.22	12484.42
472.40	12023.33
472.58	12325.26
472.77	12599.10
472.95	12521.87
473.13	12999.34
473.31	12549.95
473.49	12772.30
473.67	12685.70
473.85	12748.90
474.03	13116.36
474.21	12788.69
474.39	12863.58
474.57	13343.39
474.75	13345.73
474.93	13631.28
475.12	13551.70
475.30	13554.04
475.48	13516.59
475.66	13652.34
475.84	13724.90
476.02	13928.53
476.20	13818.52
476.38	13987.04
476.56	14499.62
476.74	14464.51
476.92	14157.90
477.10	14038.53
477.28	14319.40
477.46	14272.59
477.64	14663.46
477.82	14918.57
478.00	15199.44
478.18	15030.92
478.36	15131.56
478.54	15410.09
478.72	15393.70
478.90	15690.95
479.08	15634.78
479.26	15822.02
479.44	16100.55
479.62	15985.86
479.80	15939.05
479.98	16367.37
480.16	16315.87
480.34	16198.85
480.52	16936.12
480.70	16741.85
480.88	16643.55
481.06	17034.42
481.24	17095.27
481.41	17060.16
481.59	17207.62
481.77	17352.73
481.95	17336.35
482.13	17486.14
482.31	17324.65
482.49	17951.91
482.67	18134.47
482.85	18293.63
483.03	18693.86
483.21	18623.64
483.39	18895.14
483.57	18895.14
483.74	19407.72
483.92	19339.85
484.10	18806.20
484.28	19503.68
484.46	19669.86
484.64	19901.58
484.82	19711.99
485.00	20018.60
485.18	20470.33
485.35	20585.01
485.53	20496.07
485.71	20678.63
485.89	21020.35
486.07	20917.37
486.25	20929.07
486.43	21242.70
486.61	21462.71
486.78	21633.57
486.96	21563.36
487.14	22010.40
487.32	21996.35
487.50	22438.72
487.68	22326.37
487.85	22679.79
488.03	23016.83
488.21	23229.82
488.39	23243.86
488.57	23410.04
488.75	23477.91
488.92	23957.72
489.10	23974.11
489.28	24259.65
489.46	24524.13
489.64	24538.18
489.81	24577.97
489.99	24526.47
490.17	24996.92
490.35	25216.93
490.53	25238.00
490.70	25436.94
490.88	25458.01
491.06	25783.34
491.24	25708.44
491.41	26010.37
491.59	26111.02
491.77	26204.64
491.95	26270.17
492.13	26871.69
492.30	26780.41
492.48	27056.59
492.66	27213.41
492.84	27363.20
493.01	27508.32
493.19	27304.69
493.37	27653.43
493.54	27931.95
493.72	28044.30
493.90	28308.78
494.08	28535.81
494.25	28776.89
494.43	28505.38
494.61	29237.97
494.79	29081.16
494.96	29294.14
495.14	29502.45
495.32	29820.77
495.49	29696.72
495.67	29862.90
495.85	30377.81
496.02	30654.00
496.20	30548.67
496.38	30466.75
496.55	30654.00
496.73	31665.11
496.91	31220.41
497.09	31168.91
497.26	32058.32
497.44	31522.34
497.62	31480.21
497.79	32243.22
497.97	32013.85
498.14	31990.44
498.32	32421.10
498.50	32669.20
498.67	32959.42
498.85	32554.51
499.03	33151.35
499.20	32921.98
499.38	33085.81
499.56	33275.40
499.73	33897.98
499.91	33666.27
500.08	33921.38
500.26	33530.51
500.44	33965.85
500.61	34073.52
500.79	34113.31
500.97	34412.90
501.14	34801.43
501.32	34487.79
501.49	34845.90
501.67	34291.19
501.84	35398.26
502.02	35056.54
502.20	35239.11
502.37	35791.47
502.55	35475.50
502.72	35754.02
502.90	35901.48
503.07	35222.72
503.25	35597.21
503.43	35842.96
503.60	36725.35
503.78	36369.58
503.95	36046.59
504.13	36364.90
504.30	36205.75
504.48	36662.15
504.65	36538.10
504.83	37027.28
505.01	37429.85
505.18	37092.81
505.36	37202.82
505.53	37408.78
505.71	37443.89
505.88	37607.73
506.06	37401.76
506.23	38146.05
506.41	37968.17
506.58	38068.81
506.76	38335.63
506.93	38567.35
507.11	37986.89
507.28	38286.48
507.46	38611.82
507.63	38948.85
507.81	39264.83
507.98	39082.27
508.16	38562.67
508.33	39592.50
508.50	39374.83
508.68	39409.94
508.85	40060.61
509.03	39494.20
509.20	39964.65
509.38	40091.04
509.55	39885.07
509.73	40362.54
509.90	39995.07
510.08	39854.64
510.25	40217.43
510.42	40418.71
510.60	40704.26
510.77	40809.58
510.95	40966.40
511.12	40825.96
511.30	40533.40
511.47	41282.37
511.64	41303.43
511.82	41654.51
511.99	41528.13
512.17	41879.21
512.34	41605.36
512.51	41935.38
512.69	42359.02
512.86	41855.80
513.04	42209.22
513.21	42801.38
513.38	42314.55
513.56	42396.46
513.73	42646.90
513.90	42754.57
514.08	42230.29
514.25	42822.44
514.43	43262.46
514.60	42859.89
514.77	43309.27
514.95	43400.55
515.12	42909.04
515.29	43688.44
515.47	43728.23
515.64	44137.82
515.81	43988.03
515.99	44060.58
516.16	43812.49
516.33	44002.07
516.51	44364.85
516.68	44306.34
516.85	43927.17
517.03	44371.88
517.20	44655.08
517.37	44666.78
517.54	44596.57
517.72	44584.86
517.89	44575.50
518.06	44573.16
518.24	44477.20
518.41	45017.86
518.58	45076.38
518.75	45209.79
518.93	45467.25
519.10	45212.13
519.27	45734.07
519.45	45167.66
519.62	45570.23
519.79	45886.20
519.96	45600.66
520.14	46033.66
520.31	45862.80
520.48	46164.73
520.65	46150.68
520.83	46314.52
521.00	46461.97
521.17	46256.01
521.34	46747.52
521.52	46684.33
521.69	46663.26
521.86	46892.63
522.03	47058.81
522.20	46979.23
522.38	46916.04
522.55	47285.84
522.72	46852.84
522.89	47540.96
523.07	47646.29
523.24	47536.28
523.41	47702.46
523.58	47641.60
523.75	47569.05
523.92	48011.41
524.10	47505.85
524.27	48067.58
524.44	48215.04
524.61	48273.55
524.78	48645.69
524.96	48285.25
525.13	48212.70
525.30	48165.88
525.47	48509.94
525.64	48767.40
525.81	48542.71
525.98	48624.63
526.16	48830.60
526.33	48800.17
526.50	49036.56
526.67	48741.66
526.84	49010.82
527.01	49069.33
527.18	48872.73
527.36	49406.37
527.53	49315.09
527.70	49530.42
527.87	49628.72
528.04	49310.41
528.21	49619.36
528.38	49272.96
528.55	49488.29
528.72	49900.22
528.89	49790.22
529.07	49881.50
529.24	49645.10
529.41	50220.87
529.58	49691.91
529.75	50003.20
529.92	49996.18
530.09	50382.37
530.26	50150.66
530.43	50263.00
530.60	49556.16
530.77	50548.55
530.94	50518.12
531.11	50234.92
531.28	50553.23
531.46	50265.34
531.63	50796.65
531.80	50518.12
531.97	50979.21
532.14	50801.33
532.31	51002.61
532.48	50918.35
532.65	50899.63
532.82	50794.31
532.99	51100.92
533.16	51100.92
533.33	51222.62
533.50	51468.38
533.67	51466.04
533.84	50951.12
534.01	51229.65
534.18	51194.54
534.35	51437.95
534.52	51360.72
534.69	51484.76
534.86	51580.73
535.03	51402.85
535.20	51316.25
535.37	51887.34
535.54	51725.84
535.71	51941.17
535.88	51702.43
536.05	52011.38
536.22	52325.02
536.38	52004.36
536.55	52320.34
536.72	52074.58
536.89	52156.50
537.06	52034.79
537.23	52009.04
537.40	51657.96
537.57	51861.59
537.74	52081.60
537.91	52310.97
538.08	52556.73
538.25	52530.98
538.42	52299.27
538.59	52659.71
538.75	52315.65
538.92	52193.95
539.09	52734.61
539.26	52650.35
539.43	52402.25
539.60	52722.91
539.77	52765.04
539.94	53169.95
540.11	52697.16
540.28	53102.07
540.44	52591.84
540.61	52945.26
540.78	52818.87
540.95	53207.40
541.12	53045.90
541.29	53073.99
541.46	53240.17
541.62	53111.44
541.79	53076.33
541.96	52729.93
542.13	52879.72
542.30	53296.34
542.47	53448.47
542.63	53329.11
542.80	53523.37
542.97	53504.65
543.14	53942.33
543.31	53549.12
543.48	53771.47
543.64	54035.95
543.81	53881.47
543.98	53930.62
544.15	53911.90
544.32	54134.25
544.48	54061.69
544.65	54129.57
544.82	54138.93
544.99	53844.02
545.16	54234.89
545.32	54024.25
545.49	54562.57
545.66	54454.90
545.83	54185.74
546.00	54546.18
546.16	54216.17
546.33	53895.52
546.50	54054.67
546.67	54265.32
546.83	54272.34
547.00	54422.14
547.17	54241.92
547.34	54321.49
547.50	54600.02
547.67	54794.28
547.84	54410.43
548.00	54756.83
548.17	54717.04
548.34	54850.45
548.51	54915.99
548.67	54981.52
548.84	54913.65
549.01	54855.14
549.18	54782.58
549.34	54677.25
549.51	54944.08
549.68	54824.71
549.84	54871.52
550.01	54974.50
550.18	54859.82
550.34	55072.81
550.51	55299.84
550.68	55173.45
550.84	54892.58
551.01	55056.42
551.18	54946.42
551.34	54951.10
551.51	55292.82
551.68	55414.52
551.84	55290.48
552.01	55178.13
552.18	55435.59
552.34	55360.69
552.51	55641.56
552.68	55304.52
552.84	55421.55
553.01	55592.40
553.18	55306.86
553.34	55468.36
553.51	55374.73
553.67	55538.57
553.84	55821.78
554.01	55597.09
554.17	55793.69
554.34	55838.16
554.51	55742.20
554.67	55753.90
554.84	55746.88
555.00	55791.35
555.17	55852.20
555.33	55697.73
555.50	55732.84
555.67	55683.69
555.83	55854.54
556.00	55985.61
556.16	56076.90
556.33	55910.72
556.50	55957.53
556.66	56086.26
556.83	55927.10
556.99	56191.58
557.16	56114.34
557.32	56282.86
557.49	56109.66
557.65	55660.28
557.82	55943.48
557.98	56100.30
558.15	56163.50
558.32	56313.29
558.48	55966.89
558.65	56348.40
558.81	56299.25
558.98	56357.76
559.14	56147.11
559.31	56151.79
559.47	56119.02
559.64	56371.80
559.80	56474.79
559.97	56528.62
560.13	56243.07
560.30	56427.98
560.46	56327.33
560.63	56498.19
560.79	56612.88
560.96	56587.13
561.12	56329.67
561.29	56451.38
561.45	56418.61
561.61	56732.25
561.78	56512.23
561.94	56416.27
562.11	56381.16
562.27	56484.15
562.44	56360.10
562.60	56566.07
562.77	56566.07
562.93	56442.02
563.10	56814.16
563.26	56610.54
563.42	56725.22
563.59	56587.13
563.75	56732.25
563.92	56839.91
564.08	56477.13
564.24	56533.30
564.41	56755.65
564.57	56765.01
564.74	56713.52
564.90	56875.02
565.07	56882.04
565.23	56793.10
565.39	56802.46
565.56	56729.90
565.72	56507.55
565.88	56741.61
566.05	56619.90
566.21	56690.12
566.38	56853.95
566.54	56856.29
566.70	56921.83
566.87	57059.92
567.03	57013.11
567.19	57064.60
567.36	57052.90
567.52	56942.89
567.68	57038.86
567.85	56743.95
568.01	57195.67
568.17	56772.03
568.34	57160.56
568.50	56921.83
568.66	56992.04
568.83	57165.24
568.99	56849.27
569.15	56884.38
569.32	56769.69
569.48	56671.39
569.64	56954.60
569.81	57134.82
569.97	57036.51
570.13	57050.56
570.30	57069.28
570.46	57102.05
570.62	57034.17
570.78	56921.83
570.95	56910.13
571.11	57216.74
571.27	56949.92
571.43	56985.02
571.60	57244.82
571.76	57251.84
571.92	57188.65
572.09	57272.91
572.25	57418.02
572.41	57387.60
572.57	56952.26
572.74	57441.43
572.90	57041.20
573.06	57031.83
573.22	57233.12
573.38	57308.02
573.55	57144.18
573.71	57420.36
573.87	57509.30
574.03	57279.93
574.20	57565.48
574.36	57073.96
574.52	57277.59
574.68	57230.78
574.84	57322.06
575.01	57425.04
575.17	57158.22
575.33	57088.01
575.49	57399.30
575.65	57439.09
575.82	57546.75
575.98	57235.46
576.14	57450.79
576.30	57375.89
576.46	57179.29
576.62	57198.01
576.79	57153.54
576.95	57092.69
577.11	57441.43
577.27	57329.08
577.43	57261.21
577.59	57436.75
577.75	57240.14
577.92	57125.46
578.08	57165.24
578.24	57350.15
578.40	57378.23
578.56	57476.54
578.72	57289.29
578.88	57422.70
579.04	57546.75
579.21	57429.72
579.37	57202.69
579.53	57338.44
579.69	57303.34
579.85	57315.04
580.01	57439.09
580.17	57385.25
580.33	57584.20
580.49	57513.98
580.65	57546.75
580.82	57652.08
580.98	57504.62
581.14	57413.34
581.30	57537.39
581.46	57389.94
581.62	57434.41
581.78	57247.16
581.94	57495.26
582.10	57448.45
582.26	57497.60
582.42	57462.49
582.58	57586.54
582.74	57563.14
582.90	57549.09
583.06	57764.42
583.22	57563.14
583.38	57549.09
583.54	57638.03
583.70	57476.54
583.86	57518.67
584.02	57392.28
584.18	57303.34
584.34	57736.34
584.50	57680.16
584.66	57429.72
584.82	57298.65
584.98	57345.47
585.14	57523.35
585.30	57483.56
585.46	57560.79
585.62	57478.88
585.78	57769.10
585.94	57340.78
586.10	57619.31
586.26	57467.17
586.42	57598.24
586.58	57818.25
586.74	57572.50
586.90	57448.45
587.06	57387.60
587.22	57715.27
587.38	57546.75
587.54	57764.42
587.70	57766.76
587.86	57848.68
588.02	57806.55
588.18	57914.22
588.34	57698.89
588.49	57546.75
588.65	57602.92
588.81	57469.51
588.97	57586.54
589.13	57509.30
589.29	57668.46
589.45	57790.17
