SpectraSuite Data File
++++++++++++++++++++++++++++++++++++
Date: Fri Oct 04 11:47:24 GMT-05:00 2013
User: price-jones
Dark Spectrum Present: No
Reference Spectrum Present: No
Number of Sampled Component Spectra: 1
Spectrometers: USB2+H05261
Integration Time (usec): 100000 (USB2+H05261)
Spectra Averaged: 1 (USB2+H05261)
Boxcar Smoothing: 0 (USB2+H05261)
Correct for Electrical Dark: No (USB2+H05261)
Strobe/Lamp Enabled: No (USB2+H05261)
Correct for Detector Non-linearity: No (USB2+H05261)
Correct for Stray Light: No (USB2+H05261)
Number of Pixels in Processed Spectrum: 2048
>>>>>Begin Processed Spectral Data<<<<<
365.73	32.77
365.92	32.77
366.12	32.77
366.32	0.00
366.52	0.00
366.72	0.00
366.91	0.00
367.11	0.00
367.31	0.00
367.51	0.00
367.70	0.00
367.90	0.00
368.10	0.00
368.30	0.00
368.49	0.00
368.69	0.00
368.89	0.00
369.09	0.00
369.28	0.00
369.48	0.00
369.68	0.00
369.87	0.00
370.07	0.00
370.27	74.90
370.47	0.00
370.66	0.00
370.86	0.00
371.06	46.81
371.25	44.47
371.45	0.00
371.65	11.70
371.84	124.05
372.04	18.72
372.24	58.51
372.44	79.58
372.63	51.49
372.83	184.90
373.03	105.32
373.22	53.83
373.42	37.45
373.62	63.19
373.81	142.77
374.01	159.16
374.21	86.60
374.40	93.62
374.60	173.20
374.79	128.73
374.99	88.94
375.19	119.37
375.38	102.98
375.58	154.48
375.78	91.28
375.97	110.01
376.17	147.45
376.37	126.39
376.56	100.64
376.76	114.69
376.95	140.43
377.15	72.56
377.35	56.17
377.54	128.73
377.74	88.94
377.93	91.28
378.13	70.22
378.33	124.05
378.52	173.20
378.72	133.41
378.91	121.71
379.11	168.52
379.31	49.15
379.50	37.45
379.70	84.26
379.89	105.32
380.09	51.49
380.28	117.03
380.48	110.01
380.68	35.11
380.87	107.66
381.07	100.64
381.26	131.07
381.46	86.60
381.65	74.90
381.85	98.30
382.04	79.58
382.24	161.50
382.43	121.71
382.63	105.32
382.83	7.02
383.02	124.05
383.22	58.51
383.41	121.71
383.61	56.17
383.80	86.60
384.00	128.73
384.19	107.66
384.39	79.58
384.58	121.71
384.78	117.03
384.97	84.26
385.17	110.01
385.36	175.54
385.56	107.66
385.75	32.77
385.95	18.72
386.14	91.28
386.34	0.00
386.53	135.75
386.72	67.88
386.92	191.92
387.11	180.22
387.31	107.66
387.50	67.88
387.70	124.05
387.89	100.64
388.09	88.94
388.28	105.32
388.48	56.17
388.67	175.54
388.86	81.92
389.06	84.26
389.25	175.54
389.45	74.90
389.64	93.62
389.84	149.79
390.03	110.01
390.22	88.94
390.42	74.90
390.61	168.52
390.81	107.66
391.00	159.16
391.19	145.11
391.39	93.62
391.58	112.35
391.78	133.41
391.97	91.28
392.16	84.26
392.36	119.37
392.55	147.45
392.75	93.62
392.94	182.56
393.13	128.73
393.33	163.84
393.52	100.64
393.71	117.03
393.91	149.79
394.10	65.54
394.29	147.45
394.49	149.79
394.68	156.82
394.88	170.86
395.07	126.39
395.26	81.92
395.46	142.77
395.65	156.82
395.84	100.64
396.04	168.52
396.23	77.24
396.42	100.64
396.62	110.01
396.81	93.62
397.00	152.13
397.19	102.98
397.39	79.58
397.58	77.24
397.77	117.03
397.97	168.52
398.16	161.50
398.35	159.16
398.55	74.90
398.74	72.56
398.93	98.30
399.12	161.50
399.32	163.84
399.51	126.39
399.70	135.75
399.90	159.16
400.09	63.19
400.28	140.43
400.47	145.11
400.67	131.07
400.86	205.97
401.05	79.58
401.24	142.77
401.44	128.73
401.63	135.75
401.82	88.94
402.01	35.11
402.21	117.03
402.40	191.92
402.59	117.03
402.78	184.90
402.97	110.01
403.17	114.69
403.36	124.05
403.55	124.05
403.74	128.73
403.93	112.35
404.13	147.45
404.32	72.56
404.51	138.09
404.70	156.82
404.89	133.41
405.09	63.19
405.28	147.45
405.47	175.54
405.66	149.79
405.85	189.58
406.05	98.30
406.24	119.37
406.43	91.28
406.62	154.48
406.81	133.41
407.00	117.03
407.20	159.16
407.39	119.37
407.58	149.79
407.77	170.86
407.96	220.01
408.15	210.65
408.34	177.88
408.54	142.77
408.73	142.77
408.92	145.11
409.11	166.18
409.30	100.64
409.49	131.07
409.68	74.90
409.87	119.37
410.07	93.62
410.26	163.84
410.45	191.92
410.64	243.42
410.83	121.71
411.02	203.63
411.21	142.77
411.40	124.05
411.59	133.41
411.78	149.79
411.98	163.84
412.17	184.90
412.36	173.20
412.55	121.71
412.74	84.26
412.93	161.50
413.12	173.20
413.31	182.56
413.50	119.37
413.69	166.18
413.88	187.24
414.07	133.41
414.26	159.16
414.45	215.33
414.64	201.29
414.83	128.73
415.02	180.22
415.22	191.92
415.41	173.20
415.60	173.20
415.79	98.30
415.98	224.69
416.17	163.84
416.36	128.73
416.55	154.48
416.74	177.88
416.93	196.60
417.12	175.54
417.31	98.30
417.50	114.69
417.69	187.24
417.88	114.69
418.07	140.43
418.26	154.48
418.45	170.86
418.64	168.52
418.83	51.49
419.02	170.86
419.21	208.31
419.39	117.03
419.58	140.43
419.77	187.24
419.96	154.48
420.15	201.29
420.34	159.16
420.53	180.22
420.72	187.24
420.91	161.50
421.10	74.90
421.29	184.90
421.48	198.95
421.67	180.22
421.86	159.16
422.05	152.13
422.24	114.69
422.43	67.88
422.61	53.83
422.80	212.99
422.99	119.37
423.18	161.50
423.37	196.60
423.56	154.48
423.75	159.16
423.94	138.09
424.13	196.60
424.32	117.03
424.50	182.56
424.69	100.64
424.88	135.75
425.07	208.31
425.26	166.18
425.45	187.24
425.64	182.56
425.83	126.39
426.01	152.13
426.20	189.58
426.39	128.73
426.58	128.73
426.77	220.01
426.96	234.05
427.15	220.01
427.33	124.05
427.52	159.16
427.71	126.39
427.90	105.32
428.09	201.29
428.28	212.99
428.46	166.18
428.65	156.82
428.84	107.66
429.03	159.16
429.22	93.62
429.40	191.92
429.59	163.84
429.78	156.82
429.97	177.88
430.16	166.18
430.34	210.65
430.53	147.45
430.72	110.01
430.91	175.54
431.10	58.51
431.28	102.98
431.47	187.24
431.66	128.73
431.85	119.37
432.03	234.05
432.22	255.12
432.41	105.32
432.60	173.20
432.79	135.75
432.97	161.50
433.16	175.54
433.35	117.03
433.54	126.39
433.72	91.28
433.91	201.29
434.10	224.69
434.28	100.64
434.47	175.54
434.66	234.05
434.85	250.44
435.03	217.67
435.22	222.35
435.41	245.76
435.59	224.69
435.78	198.95
435.97	175.54
436.16	227.03
436.34	194.26
436.53	201.29
436.72	128.73
436.90	201.29
437.09	180.22
437.28	166.18
437.46	177.88
437.65	173.20
437.84	187.24
438.02	177.88
438.21	182.56
438.40	166.18
438.58	234.05
438.77	133.41
438.96	187.24
439.14	168.52
439.33	238.73
439.52	212.99
439.70	180.22
439.89	126.39
440.08	248.10
440.26	156.82
440.45	224.69
440.63	227.03
440.82	259.80
441.01	245.76
441.19	201.29
441.38	194.26
441.57	170.86
441.75	236.39
441.94	180.22
442.12	194.26
442.31	161.50
442.50	248.10
442.68	110.01
442.87	189.58
443.05	163.84
443.24	191.92
443.43	208.31
443.61	196.60
443.80	154.48
443.98	198.95
444.17	194.26
444.35	191.92
444.54	231.71
444.73	161.50
444.91	201.29
445.10	184.90
445.28	180.22
445.47	156.82
445.65	196.60
445.84	117.03
446.02	140.43
446.21	161.50
446.39	210.65
446.58	210.65
446.77	191.92
446.95	121.71
447.14	184.90
447.32	304.27
447.51	191.92
447.69	128.73
447.88	140.43
448.06	145.11
448.25	152.13
448.43	215.33
448.62	184.90
448.80	234.05
448.99	290.23
449.17	168.52
449.36	131.07
449.54	231.71
449.73	250.44
449.91	294.91
450.10	248.10
450.28	217.67
450.46	220.01
450.65	208.31
450.83	201.29
451.02	173.20
451.20	194.26
451.39	220.01
451.57	217.67
451.76	119.37
451.94	175.54
452.13	259.80
452.31	238.73
452.49	159.16
452.68	184.90
452.86	220.01
453.05	245.76
453.23	182.56
453.42	177.88
453.60	161.50
453.78	154.48
453.97	229.37
454.15	168.52
454.34	248.10
454.52	229.37
454.70	229.37
454.89	140.43
455.07	175.54
455.26	231.71
455.44	241.08
455.62	243.42
455.81	229.37
455.99	236.39
456.17	234.05
456.36	252.78
456.54	189.58
456.73	217.67
456.91	175.54
457.09	234.05
457.28	273.84
457.46	299.59
457.64	283.20
457.83	196.60
458.01	217.67
458.19	184.90
458.38	250.44
458.56	189.58
458.74	236.39
458.93	184.90
459.11	145.11
459.29	182.56
459.48	215.33
459.66	205.97
459.84	210.65
460.03	327.68
460.21	271.50
460.39	189.58
460.57	311.29
460.76	243.42
460.94	159.16
461.12	287.89
461.31	255.12
461.49	180.22
461.67	236.39
461.85	159.16
462.04	198.95
462.22	617.90
462.40	243.42
462.59	290.23
462.77	208.31
462.95	175.54
463.13	182.56
463.32	266.82
463.50	259.80
463.68	191.92
463.86	262.14
464.05	241.08
464.23	189.58
464.41	210.65
464.59	163.84
464.78	231.71
464.96	222.35
465.14	229.37
465.32	245.76
465.50	262.14
465.69	198.95
465.87	152.13
466.05	189.58
466.23	243.42
466.41	208.31
466.60	287.89
466.78	257.46
466.96	234.05
467.14	241.08
467.32	205.97
467.51	227.03
467.69	175.54
467.87	243.42
468.05	208.31
468.23	262.14
468.41	241.08
468.60	184.90
468.78	255.12
468.96	259.80
469.14	208.31
469.32	224.69
469.50	180.22
469.69	198.95
469.87	224.69
470.05	191.92
470.23	271.50
470.41	156.82
470.59	210.65
470.77	198.95
470.95	205.97
471.14	292.57
471.32	170.86
471.50	280.86
471.68	269.16
471.86	191.92
472.04	241.08
472.22	259.80
472.40	203.63
472.58	161.50
472.77	262.14
472.95	227.03
473.13	276.18
473.31	250.44
473.49	203.63
473.67	224.69
473.85	234.05
474.03	243.42
474.21	229.37
474.39	212.99
474.57	297.25
474.75	252.78
474.93	166.18
475.12	189.58
475.30	217.67
475.48	259.80
475.66	189.58
475.84	184.90
476.02	220.01
476.20	250.44
476.38	241.08
476.56	276.18
476.74	241.08
476.92	220.01
477.10	159.16
477.28	234.05
477.46	285.55
477.64	182.56
477.82	194.26
478.00	269.16
478.18	248.10
478.36	227.03
478.54	327.68
478.72	255.12
478.90	194.26
479.08	210.65
479.26	280.86
479.44	241.08
479.62	238.73
479.80	285.55
479.98	259.80
480.16	250.44
480.34	292.57
480.52	252.78
480.70	234.05
480.88	252.78
481.06	245.76
481.24	212.99
481.41	269.16
481.59	294.91
481.77	290.23
481.95	294.91
482.13	308.95
482.31	339.38
482.49	313.63
482.67	292.57
482.85	156.82
483.03	248.10
483.21	201.29
483.39	243.42
483.57	266.82
483.74	276.18
483.92	241.08
484.10	252.78
484.28	311.29
484.46	318.31
484.64	243.42
484.82	236.39
485.00	259.80
485.18	243.42
485.35	231.71
485.53	264.48
485.71	297.25
485.89	250.44
486.07	294.91
486.25	360.44
486.43	231.71
486.61	212.99
486.78	208.31
486.96	238.73
487.14	262.14
487.32	248.10
487.50	250.44
487.68	210.65
487.85	304.27
488.03	273.84
488.21	355.76
488.39	250.44
488.57	252.78
488.75	278.52
488.92	568.75
489.10	425.98
489.28	327.68
489.46	325.33
489.64	234.05
489.81	322.99
489.99	315.97
490.17	308.95
490.35	397.89
490.53	250.44
490.70	280.86
490.88	348.74
491.06	292.57
491.24	341.72
491.41	374.49
491.59	280.86
491.77	273.84
491.95	269.16
492.13	271.50
492.30	322.99
492.48	330.02
492.66	290.23
492.84	381.51
493.01	304.27
493.19	367.46
493.37	339.38
493.54	325.33
493.72	337.04
493.90	334.70
494.08	313.63
494.25	360.44
494.43	334.70
494.61	383.85
494.79	299.59
494.96	327.68
495.14	313.63
495.32	308.95
495.49	271.50
495.67	346.40
495.85	433.00
496.02	273.84
496.20	376.83
496.38	346.40
496.55	388.53
496.73	400.23
496.91	362.78
497.09	351.08
497.26	374.49
497.44	374.49
497.62	362.78
497.79	320.65
497.97	292.57
498.14	313.63
498.32	311.29
498.50	320.65
498.67	304.27
498.85	290.23
499.03	353.42
499.20	400.23
499.38	334.70
499.56	264.48
499.73	262.14
499.91	365.12
500.08	304.27
500.26	311.29
500.44	390.87
500.61	404.91
500.79	330.02
500.97	379.17
501.14	294.91
501.32	227.03
501.49	386.19
501.67	365.12
501.84	285.55
502.02	278.52
502.20	423.64
502.37	339.38
502.55	346.40
502.72	308.95
502.90	365.12
503.07	318.31
503.25	325.33
503.43	327.68
503.60	320.65
503.78	400.23
503.95	311.29
504.13	285.55
504.30	344.06
504.48	430.66
504.65	311.29
504.83	339.38
505.01	346.40
505.18	348.74
505.36	386.19
505.53	332.36
505.71	367.46
505.88	397.89
506.06	320.65
506.23	308.95
506.41	358.10
506.58	372.15
506.76	365.12
506.93	311.29
507.11	304.27
507.28	404.91
507.46	344.06
507.63	367.46
507.81	400.23
507.98	369.80
508.16	379.17
508.33	369.80
508.50	393.21
508.68	346.40
508.85	428.32
509.03	369.80
509.20	315.97
509.38	351.08
509.55	404.91
509.73	369.80
509.90	374.49
510.08	322.99
510.25	447.04
510.42	400.23
510.60	290.23
510.77	362.78
510.95	386.19
511.12	409.59
511.30	376.83
511.47	381.51
511.64	470.45
511.82	313.63
511.99	299.59
512.17	290.23
512.34	386.19
512.51	407.25
512.69	421.30
512.86	440.02
513.04	355.76
513.21	351.08
513.38	372.15
513.56	339.38
513.73	365.12
513.90	322.99
514.08	351.08
514.25	327.68
514.43	348.74
514.60	351.08
514.77	355.76
514.95	393.21
515.12	332.36
515.29	322.99
515.47	355.76
515.64	318.31
515.81	418.96
515.99	351.08
516.16	315.97
516.33	339.38
516.51	383.85
516.68	383.85
516.85	351.08
517.03	311.29
517.20	327.68
517.37	320.65
517.54	334.70
517.72	308.95
517.89	287.89
518.06	308.95
518.24	358.10
518.41	414.27
518.58	334.70
518.75	346.40
518.93	411.93
519.10	369.80
519.27	337.04
519.45	353.42
519.62	376.83
519.79	332.36
519.96	327.68
520.14	325.33
520.31	353.42
520.48	351.08
520.65	362.78
520.83	355.76
521.00	390.87
521.17	463.43
521.34	337.04
521.52	362.78
521.69	379.17
521.86	360.44
522.03	367.46
522.20	397.89
522.38	362.78
522.55	444.70
522.72	337.04
522.89	470.45
523.07	503.22
523.24	425.98
523.41	344.06
523.58	463.43
523.75	355.76
523.92	367.46
524.10	465.77
524.27	341.72
524.44	339.38
524.61	411.93
524.78	444.70
524.96	383.85
525.13	425.98
525.30	425.98
525.47	407.25
525.64	397.89
525.81	404.91
525.98	372.15
526.16	283.20
526.33	360.44
526.50	379.17
526.67	320.65
526.84	287.89
527.01	365.12
527.18	346.40
527.36	351.08
527.53	360.44
527.70	451.72
527.87	337.04
528.04	416.62
528.21	435.34
528.38	402.57
528.55	458.74
528.72	468.11
528.89	458.74
529.07	463.43
529.24	374.49
529.41	404.91
529.58	365.12
529.75	362.78
529.92	414.27
530.09	353.42
530.26	386.19
530.43	437.68
530.60	463.43
530.77	367.46
530.94	421.30
531.11	454.06
531.28	425.98
531.46	407.25
531.63	416.62
531.80	397.89
531.97	397.89
532.14	407.25
532.31	409.59
532.48	362.78
532.65	442.36
532.82	423.64
532.99	404.91
533.16	433.00
533.33	451.72
533.50	545.34
533.67	344.06
533.84	390.87
534.01	507.90
534.18	400.23
534.35	393.21
534.52	442.36
534.69	472.79
534.86	400.23
535.03	402.57
535.20	428.32
535.37	416.62
535.54	496.19
535.71	372.15
535.88	416.62
536.05	449.38
536.22	449.38
536.38	397.89
536.55	374.49
536.72	376.83
536.89	374.49
537.06	404.91
537.23	447.04
537.40	425.98
537.57	337.04
537.74	395.55
537.91	414.27
538.08	400.23
538.25	425.98
538.42	400.23
538.59	404.91
538.75	458.74
538.92	390.87
539.09	430.66
539.26	367.46
539.43	482.15
539.60	353.42
539.77	337.04
539.94	376.83
540.11	409.59
540.28	449.38
540.44	435.34
540.61	372.15
540.78	330.02
540.95	421.30
541.12	388.53
541.29	437.68
541.46	421.30
541.62	414.27
541.79	346.40
541.96	348.74
542.13	442.36
542.30	353.42
542.47	416.62
542.63	390.87
542.80	451.72
542.97	470.45
543.14	454.06
543.31	383.85
543.48	404.91
543.64	411.93
543.81	416.62
543.98	435.34
544.15	461.09
544.32	332.36
544.48	400.23
544.65	315.97
544.82	461.09
544.99	318.31
545.16	442.36
545.32	423.64
545.49	383.85
545.66	388.53
545.83	451.72
546.00	332.36
546.16	477.47
546.33	367.46
546.50	414.27
546.67	428.32
546.83	411.93
547.00	491.51
547.17	362.78
547.34	355.76
547.50	381.51
547.67	346.40
547.84	374.49
548.00	397.89
548.17	383.85
548.34	442.36
548.51	510.24
548.67	407.25
548.84	388.53
549.01	365.12
549.18	402.57
549.34	372.15
549.51	379.17
549.68	430.66
549.84	407.25
550.01	379.17
550.18	423.64
550.34	449.38
550.51	463.43
550.68	430.66
550.84	411.93
551.01	402.57
551.18	461.09
551.34	425.98
551.51	390.87
551.68	355.76
551.84	402.57
552.01	306.61
552.18	379.17
552.34	376.83
552.51	411.93
552.68	365.12
552.84	383.85
553.01	395.55
553.18	482.15
553.34	386.19
553.51	369.80
553.67	330.02
553.84	395.55
554.01	383.85
554.17	428.32
554.34	374.49
554.51	341.72
554.67	409.59
554.84	491.51
555.00	411.93
555.17	376.83
555.33	461.09
555.50	388.53
555.67	407.25
555.83	416.62
556.00	320.65
556.16	526.62
556.33	458.74
556.50	402.57
556.66	390.87
556.83	308.95
556.99	390.87
557.16	395.55
557.32	348.74
557.49	346.40
557.65	311.29
557.82	348.74
557.98	365.12
558.15	376.83
558.32	393.21
558.48	402.57
558.65	386.19
558.81	383.85
558.98	402.57
559.14	369.80
559.31	414.27
559.47	402.57
559.64	411.93
559.80	393.21
559.97	351.08
560.13	379.17
560.30	365.12
560.46	322.99
560.63	365.12
560.79	351.08
560.96	346.40
561.12	355.76
561.29	374.49
561.45	430.66
561.61	395.55
561.78	458.74
561.94	407.25
562.11	353.42
562.27	409.59
562.44	402.57
562.60	402.57
562.77	372.15
562.93	447.04
563.10	414.27
563.26	390.87
563.42	365.12
563.59	418.96
563.75	379.17
563.92	449.38
564.08	421.30
564.24	395.55
564.41	454.06
564.57	400.23
564.74	304.27
564.90	355.76
565.07	402.57
565.23	369.80
565.39	327.68
565.56	421.30
565.72	304.27
565.88	294.91
566.05	339.38
566.21	325.33
566.38	304.27
566.54	330.02
566.70	306.61
566.87	318.31
567.03	386.19
567.19	360.44
567.36	444.70
567.52	283.20
567.68	287.89
567.85	386.19
568.01	315.97
568.17	332.36
568.34	390.87
568.50	400.23
568.66	327.68
568.83	393.21
568.99	407.25
569.15	294.91
569.32	355.76
569.48	369.80
569.64	386.19
569.81	425.98
569.97	334.70
570.13	355.76
570.30	311.29
570.46	255.12
570.62	346.40
570.78	294.91
570.95	332.36
571.11	374.49
571.27	393.21
571.43	379.17
571.60	313.63
571.76	341.72
571.92	355.76
572.09	360.44
572.25	365.12
572.41	416.62
572.57	355.76
572.74	402.57
572.90	362.78
573.06	245.76
573.22	332.36
573.38	468.11
573.55	498.53
573.71	440.02
573.87	414.27
574.03	308.95
574.20	393.21
574.36	393.21
574.52	393.21
574.68	320.65
574.84	346.40
575.01	351.08
575.17	339.38
575.33	365.12
575.49	404.91
575.65	383.85
575.82	409.59
575.98	390.87
576.14	337.04
576.30	325.33
576.46	348.74
576.62	351.08
576.79	383.85
576.95	320.65
577.11	341.72
577.27	330.02
577.43	304.27
577.59	367.46
577.75	397.89
577.92	353.42
578.08	271.50
578.24	374.49
578.40	402.57
578.56	397.89
578.72	337.04
578.88	339.38
579.04	341.72
579.21	383.85
579.37	334.70
579.53	367.46
579.69	397.89
579.85	353.42
580.01	365.12
580.17	414.27
580.33	348.74
580.49	362.78
580.65	379.17
580.82	458.74
580.98	379.17
581.14	367.46
581.30	383.85
581.46	339.38
581.62	346.40
581.78	362.78
581.94	334.70
582.10	292.57
582.26	360.44
582.42	334.70
582.58	283.20
582.74	393.21
582.90	386.19
583.06	409.59
583.22	341.72
583.38	376.83
583.54	416.62
583.70	348.74
583.86	292.57
584.02	339.38
584.18	355.76
584.34	304.27
584.50	360.44
584.66	404.91
584.82	325.33
584.98	313.63
585.14	376.83
585.30	358.10
585.46	292.57
585.62	269.16
585.78	358.10
585.94	311.29
586.10	402.57
586.26	390.87
586.42	355.76
586.58	313.63
586.74	320.65
586.90	330.02
587.06	360.44
587.22	379.17
587.38	346.40
587.54	355.76
587.70	346.40
587.86	339.38
588.02	348.74
588.18	297.25
588.34	320.65
588.49	201.29
588.65	341.72
588.81	276.18
588.97	278.52
589.13	346.40
589.29	308.95
589.45	376.83
589.61	280.86
589.77	262.14
589.93	236.39
590.08	358.10
590.24	264.48
590.40	320.65
590.56	304.27
590.72	285.55
590.88	301.93
591.04	259.80
591.20	367.46
591.35	348.74
591.51	297.25
591.67	374.49
591.83	250.44
591.99	315.97
592.15	390.87
592.31	332.36
592.46	320.65
592.62	344.06
592.78	177.88
592.94	334.70
593.10	306.61
593.26	264.48
593.41	365.12
593.57	320.65
593.73	290.23
593.89	315.97
594.05	294.91
594.20	290.23
594.36	318.31
594.52	301.93
594.68	276.18
594.84	297.25
594.99	379.17
595.15	388.53
595.31	304.27
595.47	262.14
595.62	330.02
595.78	276.18
595.94	369.80
596.10	339.38
596.25	301.93
596.41	367.46
596.57	280.86
596.73	280.86
596.88	322.99
597.04	325.33
597.20	290.23
597.36	308.95
597.51	304.27
597.67	255.12
597.83	341.72
597.99	297.25
598.14	379.17
598.30	374.49
598.46	266.82
598.61	362.78
598.77	241.08
598.93	315.97
599.09	308.95
599.24	344.06
599.40	369.80
599.56	322.99
599.71	344.06
599.87	285.55
600.03	262.14
600.18	313.63
600.34	325.33
600.50	241.08
600.65	306.61
600.81	322.99
600.97	311.29
601.12	315.97
601.28	381.51
601.44	315.97
601.59	322.99
601.75	276.18
601.91	332.36
602.06	332.36
602.22	409.59
602.37	344.06
602.53	318.31
602.69	346.40
602.84	416.62
603.00	325.33
603.16	341.72
603.31	299.59
603.47	400.23
603.62	278.52
603.78	404.91
603.94	355.76
604.09	353.42
604.25	400.23
604.40	337.04
604.56	365.12
604.71	334.70
604.87	379.17
605.03	346.40
605.18	358.10
605.34	372.15
605.49	322.99
605.65	339.38
605.80	294.91
605.96	290.23
606.12	294.91
606.27	341.72
606.43	278.52
606.58	395.55
606.74	313.63
606.89	362.78
607.05	287.89
607.20	304.27
607.36	271.50
607.51	308.95
607.67	290.23
607.82	313.63
607.98	442.36
608.13	262.14
608.29	372.15
608.44	369.80
608.60	299.59
608.75	294.91
608.91	313.63
609.06	255.12
609.22	400.23
609.37	313.63
609.53	327.68
609.68	311.29
609.84	259.80
609.99	339.38
610.15	322.99
610.30	379.17
610.46	372.15
610.61	351.08
610.76	313.63
610.92	322.99
611.07	299.59
611.23	372.15
611.38	369.80
611.54	205.97
