SpectraSuite Data File
++++++++++++++++++++++++++++++++++++
Date: Fri Oct 04 11:48:32 GMT-05:00 2013
User: price-jones
Dark Spectrum Present: No
Reference Spectrum Present: No
Number of Sampled Component Spectra: 1
Spectrometers: USB2+H05261
Integration Time (usec): 100000 (USB2+H05261)
Spectra Averaged: 1 (USB2+H05261)
Boxcar Smoothing: 0 (USB2+H05261)
Correct for Electrical Dark: No (USB2+H05261)
Strobe/Lamp Enabled: No (USB2+H05261)
Correct for Detector Non-linearity: No (USB2+H05261)
Correct for Stray Light: No (USB2+H05261)
Number of Pixels in Processed Spectrum: 2048
>>>>>Begin Processed Spectral Data<<<<<
365.73	9.36
365.92	9.36
366.12	9.36
366.32	2.34
366.52	0.00
366.72	0.00
366.91	18.72
367.11	0.00
367.31	0.00
367.51	0.00
367.70	0.00
367.90	0.00
368.10	0.00
368.30	0.00
368.49	0.00
368.69	23.41
368.89	0.00
369.09	0.00
369.28	4.68
369.48	0.00
369.68	0.00
369.87	56.17
370.07	39.79
370.27	23.41
370.47	0.00
370.66	505.56
370.86	411.93
371.06	400.23
371.25	582.79
371.45	472.79
371.65	528.96
371.84	449.38
372.04	540.66
372.24	498.53
372.44	615.56
372.63	552.37
372.83	589.82
373.03	526.62
373.22	512.58
373.42	592.16
373.62	631.94
373.81	557.05
374.01	690.46
374.21	678.76
374.40	603.86
374.60	711.52
374.79	627.26
374.99	601.52
375.19	608.54
375.38	720.88
375.58	753.65
375.78	608.54
375.97	699.82
376.17	667.05
376.37	699.82
376.56	709.18
376.76	688.12
376.95	664.71
377.15	685.78
377.35	786.42
377.54	622.58
377.74	706.84
377.93	772.38
378.13	760.67
378.33	763.01
378.52	870.68
378.72	788.76
378.91	770.04
379.11	744.29
379.31	770.04
379.50	866.00
379.70	777.06
379.89	805.14
380.09	767.70
380.28	826.21
380.48	854.30
380.68	744.29
380.87	842.59
381.07	812.17
381.26	772.38
381.46	908.13
381.65	844.93
381.85	849.61
382.04	873.02
382.24	863.66
382.43	889.40
382.63	924.51
382.83	877.70
383.02	915.15
383.22	929.19
383.41	922.17
383.61	840.25
383.80	936.21
384.00	901.11
384.19	894.08
384.39	922.17
384.58	954.94
384.78	994.73
384.97	978.34
385.17	938.55
385.36	1008.77
385.56	994.73
385.75	961.96
385.95	1046.22
386.14	983.02
386.34	1043.88
386.53	1097.71
386.72	1123.46
386.92	1107.07
387.11	1032.18
387.31	1100.05
387.50	1041.54
387.70	1053.24
387.89	1050.90
388.09	1095.37
388.28	1100.05
388.48	1156.22
388.67	1181.97
388.86	1158.57
389.06	1107.07
389.25	1231.12
389.45	1210.06
389.64	1261.55
389.84	1219.42
390.03	1188.99
390.22	1191.33
390.42	1184.31
390.61	1193.67
390.81	1273.25
391.00	1172.61
391.19	1254.53
391.39	1331.76
391.58	1362.19
391.78	1338.79
391.97	1338.79
392.16	1261.55
392.36	1275.59
392.55	1364.53
392.75	1385.60
392.94	1320.06
393.13	1306.02
393.33	1343.47
393.52	1306.02
393.71	1390.28
393.91	1413.68
394.10	1479.22
394.29	1350.49
394.49	1427.73
394.68	1509.65
394.88	1530.71
395.07	1465.18
395.26	1589.22
395.46	1472.20
395.65	1554.12
395.84	1605.61
396.04	1624.33
396.23	1558.80
396.42	1610.29
396.62	1624.33
396.81	1621.99
397.00	1619.65
397.19	1638.38
397.39	1619.65
397.58	1696.89
397.77	1664.12
397.97	1710.93
398.16	1694.55
398.35	1809.23
398.55	1724.97
398.74	1643.06
398.93	1671.14
399.12	1647.74
399.32	1720.29
399.51	1771.79
399.70	1856.04
399.90	1837.32
400.09	1809.23
400.28	1933.28
400.47	1900.52
400.67	1834.98
400.86	1865.41
401.05	1879.45
401.24	1867.75
401.44	1912.22
401.63	2069.03
401.82	1970.73
402.01	1987.11
402.21	1973.07
402.40	1994.14
402.59	2125.21
402.78	2008.18
402.97	2036.27
403.17	2122.87
403.36	2108.82
403.55	2118.18
403.74	2155.63
403.93	2188.40
404.13	2200.10
404.32	2181.38
404.51	2221.17
404.70	2307.77
404.89	2181.38
405.09	2338.20
405.28	2413.09
405.47	2333.51
405.66	2267.98
405.85	2406.07
406.05	2420.11
406.24	2403.73
406.43	2359.26
406.62	2361.60
406.81	2530.12
407.00	2480.97
407.20	2368.62
407.39	2385.01
407.58	2597.99
407.77	2485.65
407.96	2492.67
408.15	2654.17
408.34	2609.70
408.54	2612.04
408.73	2661.19
408.92	2609.70
409.11	2656.51
409.30	2759.49
409.49	2705.66
409.68	2773.53
409.87	2857.79
410.07	2801.62
410.26	2846.09
410.45	2862.48
410.64	2909.29
410.83	2960.78
411.02	2935.03
411.21	2946.73
411.40	2958.44
411.59	3026.31
411.78	3089.51
411.98	2977.16
412.17	3028.65
412.36	3007.59
412.55	3187.81
412.74	3258.03
412.93	3215.90
413.12	3169.09
413.31	3428.88
413.50	3211.22
413.69	3300.16
413.88	3524.85
414.07	3328.24
414.26	3407.82
414.45	3475.70
414.64	3272.07
414.83	3454.63
415.02	3531.87
415.22	3721.45
415.41	3613.79
415.60	3667.62
415.79	3763.58
415.98	3707.41
416.17	3801.03
416.36	3833.80
416.55	3850.18
416.74	3782.31
416.93	3815.07
417.12	4025.72
417.31	3957.85
417.50	3939.12
417.69	3969.55
417.88	4044.45
418.07	3999.98
418.26	4126.36
418.45	4044.45
418.64	4077.21
418.83	4269.14
419.02	4334.67
419.21	4170.83
419.39	4198.92
419.58	4227.01
419.77	4248.07
419.96	4358.08
420.15	4327.65
420.34	4332.33
420.53	4381.48
420.72	4477.44
420.91	4510.21
421.10	4531.28
421.29	4482.13
421.48	4468.08
421.67	4482.13
421.86	4493.83
422.05	4627.24
422.24	4503.19
422.43	4463.40
422.61	4608.51
422.80	4858.95
422.99	4690.43
423.18	4704.48
423.37	4575.75
423.56	4718.52
423.75	4718.52
423.94	4662.35
424.13	4372.12
424.32	4395.53
424.50	4636.60
424.69	4608.51
424.88	4809.80
425.07	4634.26
425.26	4599.15
425.45	4589.79
425.64	4798.10
425.83	4678.73
426.01	4830.87
426.20	4657.67
426.39	4713.84
426.58	4908.10
426.77	4851.93
426.96	4760.65
427.15	4924.49
427.33	4835.55
427.52	4915.12
427.71	4978.32
427.90	4999.38
428.09	4884.70
428.28	5036.83
428.46	5231.10
428.65	5029.81
428.84	5151.52
429.03	5247.48
429.22	5015.77
429.40	5254.50
429.59	5256.84
429.78	4908.10
429.97	4983.00
430.16	5100.03
430.34	5287.27
430.53	5329.40
430.72	5341.10
430.91	5348.12
431.10	5357.49
431.28	5530.69
431.47	5348.12
431.66	5664.10
431.85	5540.05
432.03	5614.95
432.22	5692.18
432.41	5636.01
432.60	5584.52
432.79	5813.89
432.97	5610.26
433.16	5834.96
433.35	5596.22
433.54	5799.85
433.72	5699.20
433.91	5797.51
434.10	5881.77
434.28	5827.93
434.47	5795.17
434.66	5867.72
434.85	6113.48
435.03	6050.28
435.22	5895.81
435.41	6153.27
435.59	6061.99
435.78	5982.41
435.97	6061.99
436.16	6090.07
436.34	6040.92
436.53	6111.14
436.72	6230.51
436.90	6106.46
437.09	6427.11
437.28	6244.55
437.46	6267.95
437.65	6359.24
437.84	6347.53
438.02	6483.28
438.21	6483.28
438.40	6375.62
438.58	6729.04
438.77	6766.49
438.96	6534.78
439.14	6848.41
439.33	6794.58
439.52	6993.52
439.70	6913.94
439.89	6904.58
440.08	6869.47
440.26	7194.81
440.45	7122.25
440.63	7192.47
440.82	7169.06
441.01	7269.70
441.19	7283.75
441.38	7288.43
441.57	7487.37
441.75	7185.44
441.94	7548.23
442.12	7557.59
442.31	7707.38
442.50	7723.77
442.68	7513.12
442.87	7756.54
443.05	7786.96
443.24	7932.08
443.43	7885.26
443.61	7723.77
443.80	8177.83
443.98	7714.41
444.17	7522.48
444.35	7988.25
444.54	8030.38
444.73	8046.76
444.91	7976.55
445.10	8004.63
445.28	7950.80
445.47	7819.73
445.65	7967.18
445.84	8219.96
446.02	8091.23
446.21	7974.21
446.39	7992.93
446.58	8243.37
446.77	8135.70
446.95	8023.36
447.14	8053.78
447.32	8121.66
447.51	8224.64
447.69	8163.79
447.88	8224.64
448.06	8301.88
448.25	7981.23
448.43	8208.26
448.62	8056.12
448.80	8058.46
448.99	8507.85
449.17	8416.57
449.36	8257.41
449.54	8662.32
449.73	8585.08
449.91	8772.33
450.10	8547.64
450.28	8599.13
450.46	8659.98
450.65	8601.47
450.83	8791.05
451.02	8762.97
451.20	8908.08
451.39	8908.08
451.57	8667.00
451.76	8659.98
451.94	8915.10
452.13	9167.88
452.31	8980.64
452.49	8877.65
452.68	8994.68
452.86	8961.91
453.05	9151.49
453.23	9210.01
453.42	9121.07
453.60	9085.96
453.78	9245.12
453.97	9041.49
454.15	9174.90
454.34	9043.83
454.52	9114.05
454.70	9193.62
454.89	9453.42
455.07	9163.20
455.26	9404.27
455.44	9392.57
455.62	9474.49
455.81	9605.56
455.99	9366.82
456.17	9633.64
456.36	9731.95
456.54	9741.31
456.73	9877.06
456.91	9891.10
457.09	9954.30
457.28	10139.20
457.46	9930.89
457.64	10087.71
457.83	10064.30
458.01	9776.42
458.19	10150.90
458.38	10143.88
458.56	10328.78
458.74	10209.42
458.93	10324.10
459.11	10286.65
459.29	10370.91
459.48	10490.28
459.66	10415.38
459.84	10665.82
460.03	10626.03
460.21	10600.29
460.39	10668.16
460.57	10490.28
460.76	10665.82
460.94	10817.96
461.12	10747.74
461.31	11026.26
461.49	10761.78
461.67	10766.46
461.85	11112.86
462.04	10930.30
462.22	11639.48
462.40	10949.03
462.59	10707.95
462.77	10953.71
462.95	11314.15
463.13	10981.79
463.32	11119.89
463.50	11400.75
463.68	11405.43
463.86	11344.58
464.05	11138.61
464.23	11405.43
464.41	11461.60
464.59	11382.03
464.78	11859.49
464.96	11246.27
465.14	11440.54
465.32	11695.66
465.50	11889.92
465.69	11740.13
465.87	11625.44
466.05	11382.03
466.23	11576.29
466.41	11719.06
466.60	12088.87
466.78	11681.61
466.96	11669.91
467.14	11690.98
467.32	11674.59
467.51	12126.32
467.69	11852.47
467.87	11962.48
468.05	12159.08
468.23	11740.13
468.41	11932.05
468.60	12156.74
468.78	12325.26
468.96	12009.29
469.14	12346.33
469.32	12395.48
469.50	12393.14
469.69	12547.61
469.87	12514.84
470.05	12603.78
470.23	12519.53
470.41	12603.78
470.59	12772.30
470.77	12683.36
470.95	12952.52
471.14	12896.35
471.32	12751.24
471.50	13277.86
471.68	13205.30
471.86	13345.73
472.04	13277.86
472.22	13532.98
472.40	13174.88
472.58	13404.25
472.77	13268.50
472.95	13675.75
473.13	13837.25
473.31	13483.83
473.49	13577.45
473.67	13734.26
473.85	13757.67
474.03	14024.49
474.21	13975.34
474.39	13970.66
474.57	14317.06
474.75	14431.74
474.93	14799.21
475.12	14394.29
475.30	14813.25
475.48	14459.83
475.66	14782.82
475.84	14750.06
476.02	14787.50
476.20	14675.16
476.38	15066.03
476.56	15115.18
476.74	15365.62
476.92	15374.98
477.10	15433.49
477.28	15683.93
477.46	15461.58
477.64	15868.83
477.82	15978.84
478.00	16350.98
478.18	16386.09
478.36	16329.92
478.54	16769.94
478.72	16678.66
478.90	16666.95
479.08	16980.59
479.26	17207.62
479.44	17266.13
479.62	17364.43
479.80	17694.45
479.98	17460.40
480.16	18017.44
480.34	17827.86
480.52	18214.05
480.70	17963.61
480.88	17537.63
481.06	18246.82
481.24	18291.29
481.41	18672.79
481.59	18499.59
481.77	18960.68
481.95	18972.38
482.13	19061.32
482.31	19243.88
482.49	19562.20
482.67	19721.35
482.85	19651.14
483.03	20173.08
483.21	20264.36
483.39	20343.94
483.57	20379.04
483.74	20559.27
483.92	20671.61
484.10	20840.13
484.28	21247.38
484.46	21362.07
484.64	21659.32
484.82	21371.43
485.00	21642.93
485.18	21837.20
485.35	22532.34
485.53	22305.31
485.71	22106.36
485.89	22471.48
486.07	22773.41
486.25	22740.64
486.43	23023.85
486.61	23370.25
486.78	23388.97
486.96	23470.89
487.14	24137.94
487.32	23988.15
487.50	24109.86
487.68	24226.89
487.85	24505.41
488.03	24702.01
488.21	25420.56
488.39	25216.93
488.57	25104.59
488.75	25357.36
488.92	25837.17
489.10	25912.07
489.28	26370.82
489.46	26349.75
489.64	26312.30
489.81	26904.46
489.99	27019.14
490.17	26834.24
490.35	27316.39
490.53	27295.33
490.70	27676.83
490.88	27562.15
491.06	27641.73
491.24	27955.36
491.41	28290.06
491.59	28374.31
491.77	28727.74
491.95	29020.30
492.13	29221.59
492.30	29483.73
492.48	29570.33
492.66	29289.46
492.84	29577.35
493.01	29848.85
493.19	29766.93
493.37	30071.20
493.54	30272.49
493.72	31021.46
493.90	30623.57
494.08	30815.49
494.25	31608.93
494.43	31634.68
494.61	31445.10
494.79	31679.15
494.96	31826.60
495.14	31557.44
495.32	32215.13
495.49	32161.30
495.67	32739.41
495.85	32903.25
496.02	32954.74
496.20	33198.16
496.38	32968.79
496.55	33153.69
496.73	34101.61
496.91	33699.03
497.09	34073.52
497.26	34359.06
497.44	33930.75
497.62	34593.12
497.79	34611.84
497.97	34684.40
498.14	35218.04
498.32	35356.13
498.50	35213.36
498.67	35637.00
498.85	35178.25
499.03	35667.42
499.20	35995.10
499.38	36472.57
499.56	36194.04
499.73	36114.47
499.91	36694.92
500.08	37069.40
500.26	36503.00
500.44	36945.36
500.61	37022.59
500.79	36662.15
500.97	37315.16
501.14	37298.78
501.32	37874.55
501.49	37546.87
501.67	37570.28
501.84	37844.12
502.02	37897.95
502.20	38129.67
502.37	38719.48
502.55	38071.15
502.72	38412.87
502.90	38485.43
503.07	38616.50
503.25	39222.70
503.43	38665.65
503.60	39225.04
503.78	39636.97
503.95	39105.67
504.13	39360.79
504.30	40002.10
504.48	39405.26
504.65	39782.09
504.83	40175.30
505.01	40758.09
505.18	40662.13
505.36	40910.22
505.53	40222.11
505.71	41029.59
505.88	40730.00
506.06	40507.65
506.23	41223.86
506.41	40847.03
506.58	41134.92
506.76	40982.78
506.93	41717.71
507.11	41193.43
507.28	41228.54
507.46	42113.26
507.63	41846.44
507.81	42026.66
507.98	42108.58
508.16	42405.83
508.33	42094.53
508.50	42719.46
508.68	43077.56
508.85	43152.46
509.03	42897.34
509.20	43344.38
509.38	43351.40
509.55	43033.09
509.73	43627.59
509.90	43508.22
510.08	43683.76
510.25	43784.40
510.42	43814.83
510.60	44430.39
510.77	44444.43
510.95	44772.11
511.12	43976.33
511.30	44236.12
511.47	44605.93
511.64	44854.03
511.82	44921.90
511.99	45038.93
512.17	45460.23
512.34	45137.23
512.51	45240.21
512.69	45666.19
512.86	45703.64
513.04	46038.34
513.21	46000.89
513.38	45841.73
513.56	46164.73
513.73	45780.88
513.90	45972.80
514.08	46419.84
514.25	46574.32
514.43	46096.85
514.60	46593.04
514.77	46543.89
514.95	46712.41
515.12	46417.50
515.29	46110.89
515.47	47316.27
515.64	47377.12
515.81	46988.60
515.99	47643.94
516.16	47789.06
516.33	47569.05
516.51	47643.94
516.68	47353.72
516.85	47454.36
517.03	47908.43
517.20	48112.05
517.37	48128.44
517.54	48453.77
517.72	48320.36
517.89	47845.23
518.06	48107.37
518.24	48170.57
518.41	48240.78
518.58	48804.85
518.75	48942.94
518.93	48596.54
519.10	48535.69
519.27	48917.20
519.45	49034.22
519.62	49104.44
519.79	49329.13
519.96	49141.89
520.14	49401.69
520.31	49595.95
520.48	49928.31
520.65	49492.97
520.83	49495.31
521.00	49654.47
521.17	49581.91
521.34	50356.63
521.52	50078.10
521.69	50127.25
521.86	50260.66
522.03	50586.00
522.20	50277.05
522.38	50349.60
522.55	50358.97
522.72	50731.11
522.89	50480.67
523.07	50908.99
523.24	50548.55
523.41	50866.86
523.58	50670.26
523.75	51016.66
523.92	50803.67
524.10	51007.29
524.27	50742.81
524.44	51510.51
524.61	51325.61
524.78	51681.37
524.96	51398.16
525.13	51231.99
525.30	51302.20
525.47	51892.02
525.64	51667.33
525.81	51959.89
525.98	51746.90
526.16	52018.41
526.33	51863.93
526.50	52142.45
526.67	51807.76
526.84	51943.51
527.01	52268.84
527.18	52243.10
527.36	52477.15
527.53	52137.77
527.70	52680.78
527.87	52666.73
528.04	52266.50
528.21	52491.19
528.38	52556.73
528.55	52818.87
528.72	52720.57
528.89	52893.77
529.07	52870.36
529.24	52556.73
529.41	52968.66
529.58	52832.91
529.75	53205.06
529.92	53420.39
530.09	52776.74
530.26	53183.99
530.43	53155.91
530.60	52814.19
530.77	53336.13
530.94	53343.15
531.11	53205.06
531.28	53256.55
531.46	53492.94
531.63	53429.75
531.80	53715.29
531.97	53965.73
532.14	53925.94
532.31	53715.29
532.48	53815.94
532.65	54014.88
532.82	53893.18
532.99	53944.67
533.16	54040.63
533.33	54012.54
533.50	54380.01
533.67	54225.53
533.84	54110.85
534.01	54134.25
534.18	54024.25
534.35	54475.97
534.52	54447.88
534.69	54798.96
534.86	54429.16
535.03	54475.97
535.20	54541.50
535.37	54585.97
535.54	54766.20
535.71	54300.43
535.88	54703.00
536.05	54614.06
536.22	54937.05
536.38	54543.84
536.55	54827.05
536.72	54983.86
536.89	54597.68
537.06	54583.63
537.23	54756.83
537.40	54866.84
537.57	54798.96
537.74	55082.17
537.91	55290.48
538.08	55571.34
538.25	55040.04
538.42	55124.30
538.59	55299.84
538.75	55271.75
538.92	55444.95
539.09	55391.12
539.26	55311.54
539.43	55676.66
539.60	55601.77
539.77	55428.57
539.94	55955.19
540.11	55313.88
540.28	55585.38
540.44	55903.70
540.61	55772.63
540.78	55906.04
540.95	55821.78
541.12	55863.91
541.29	55831.14
541.46	55798.37
541.62	55627.51
541.79	55861.57
541.96	55730.50
542.13	55772.63
542.30	56058.17
542.47	56236.05
542.63	56165.84
542.80	56472.45
542.97	56353.08
543.14	56547.34
543.31	56163.50
543.48	56334.35
543.64	56645.65
543.81	56846.93
543.98	56846.93
544.15	56664.37
544.32	56788.42
544.48	56832.89
544.65	56687.78
544.82	56722.88
544.99	56687.78
545.16	56821.19
545.32	56870.34
545.49	56875.02
545.66	57120.77
545.83	57088.01
546.00	57277.59
546.16	57134.82
546.33	56488.83
546.50	56725.22
546.67	57228.44
546.83	56746.29
547.00	56980.34
547.17	57198.01
547.34	57099.71
547.50	57380.57
547.67	57464.83
547.84	57331.42
548.00	57293.97
548.17	57275.25
548.34	57345.47
548.51	57389.94
548.67	57736.34
548.84	57413.34
549.01	57663.78
549.18	57425.04
549.34	57373.55
549.51	57563.14
549.68	57317.38
549.84	57558.45
550.01	57787.83
550.18	57322.06
550.34	57715.27
550.51	57579.52
550.68	57822.93
550.84	57427.38
551.01	57579.52
551.18	57668.46
551.34	57602.92
551.51	57698.89
551.68	57998.48
551.84	57928.26
552.01	57776.12
552.18	58021.88
552.34	57872.09
552.51	58258.27
552.68	57860.38
552.84	57869.75
553.01	58155.29
553.18	58127.20
553.34	58232.53
553.51	58206.78
553.67	58220.83
553.84	58487.65
554.01	58337.85
554.17	58461.90
554.34	58422.11
554.51	58117.84
554.67	58447.86
554.84	58330.83
555.00	58223.17
555.17	58440.84
555.33	58557.86
555.50	58277.00
555.67	58370.62
555.83	58440.84
556.00	58387.00
556.16	58480.63
556.33	58408.07
556.50	58501.69
556.66	58522.76
556.83	58499.35
556.99	58745.11
557.16	58965.12
557.32	58637.44
557.49	58841.07
557.65	58508.71
557.82	58651.48
557.98	58726.38
558.15	58880.86
558.32	58777.87
558.48	58857.45
558.65	58803.62
558.81	58887.88
558.98	58915.96
559.14	58983.84
559.31	58946.39
559.47	59143.00
559.64	58955.75
559.80	58979.16
559.97	59133.63
560.13	59070.44
560.30	59061.08
560.46	58990.86
560.63	59194.49
560.79	59121.93
560.96	59231.94
561.12	58965.12
561.29	59093.85
561.45	59126.61
561.61	59100.87
561.78	59320.88
561.94	59192.15
562.11	59208.53
562.27	59222.58
562.44	58983.84
562.60	59224.92
562.77	59138.32
562.93	59185.13
563.10	59435.56
563.26	59372.37
563.42	59573.66
563.59	59267.05
563.75	59152.36
563.92	59536.21
564.08	59344.28
564.24	59316.20
564.41	59194.49
564.57	59313.86
564.74	59512.80
564.90	59398.12
565.07	59543.23
565.23	59540.89
565.39	59501.10
565.56	59440.24
565.72	59508.12
565.88	59487.06
566.05	59416.84
566.21	59475.35
566.38	59554.93
566.54	59629.83
566.70	59657.91
566.87	59688.34
567.03	59613.44
567.19	59906.01
567.36	59751.54
567.52	59643.87
567.68	59697.70
567.85	59463.65
568.01	59442.59
568.17	59505.78
568.34	59517.48
568.50	59709.41
568.66	59807.71
568.83	59639.19
568.99	59496.42
569.15	59847.50
569.32	59540.89
569.48	59758.56
569.64	59824.09
569.81	59765.58
569.97	59840.48
570.13	59800.69
570.30	59756.22
570.46	59810.05
570.62	59833.46
570.78	59777.28
570.95	59800.69
571.11	59826.43
571.27	59723.45
571.43	59891.97
571.60	59948.14
571.76	59891.97
571.92	60135.38
572.09	60048.78
572.25	59987.93
572.41	59817.07
572.57	59772.60
572.74	59746.86
572.90	59737.49
573.06	59903.67
573.22	59915.37
573.38	59980.91
573.55	60006.65
573.71	60343.69
573.87	60116.66
574.03	59796.01
574.20	59810.05
574.36	59788.98
574.52	59742.17
574.68	59889.63
574.84	59859.20
575.01	60266.45
575.17	60065.17
575.33	60233.69
575.49	60004.31
575.65	60212.62
575.82	60261.77
575.98	59952.82
576.14	60308.58
576.30	60034.74
576.46	59840.48
576.62	60158.79
576.79	60107.30
576.95	60025.38
577.11	60072.19
577.27	60058.15
577.43	60184.54
577.59	60130.70
577.75	60119.00
577.92	60065.17
578.08	59980.91
578.24	59973.89
578.40	59948.14
578.56	60104.96
578.72	60434.97
578.88	60364.76
579.04	60374.12
579.21	60154.11
579.37	60100.28
579.53	60301.56
579.69	59866.22
579.85	60214.96
580.01	60357.74
580.17	60200.92
580.33	60142.41
580.49	60254.75
580.65	60210.28
580.82	60168.15
580.98	60074.53
581.14	60331.99
581.30	60378.80
581.46	60191.56
581.62	60142.41
581.78	60285.18
581.94	60327.31
582.10	60196.24
582.26	60493.49
582.42	60409.23
582.58	60257.09
582.74	60271.14
582.90	60336.67
583.06	60357.74
583.22	60348.37
583.38	60292.20
583.54	60273.48
583.70	60329.65
583.86	60294.54
584.02	60074.53
584.18	60317.95
584.34	60395.18
584.50	60633.92
584.66	60392.84
584.82	60282.84
584.98	60231.35
585.14	60210.28
585.30	60137.72
585.46	60221.98
585.62	60175.17
585.78	60362.42
585.94	60004.31
586.10	60334.33
586.26	60313.26
586.42	60481.78
586.58	60608.17
586.74	60245.39
586.90	60097.94
587.06	60126.02
587.22	60399.86
587.38	60142.41
587.54	60633.92
587.70	60624.56
587.86	60477.10
588.02	60633.92
588.18	60575.40
588.34	60493.49
588.49	60432.63
588.65	60460.72
588.81	60327.31
588.97	60334.33
589.13	60331.99
