SpectraSuite Data File
++++++++++++++++++++++++++++++++++++
Date: Fri Oct 04 11:48:34 GMT-05:00 2013
User: price-jones
Dark Spectrum Present: No
Reference Spectrum Present: No
Number of Sampled Component Spectra: 1
Spectrometers: USB2+H05261
Integration Time (usec): 100000 (USB2+H05261)
Spectra Averaged: 1 (USB2+H05261)
Boxcar Smoothing: 0 (USB2+H05261)
Correct for Electrical Dark: No (USB2+H05261)
Strobe/Lamp Enabled: No (USB2+H05261)
Correct for Detector Non-linearity: No (USB2+H05261)
Correct for Stray Light: No (USB2+H05261)
Number of Pixels in Processed Spectrum: 2048
>>>>>Begin Processed Spectral Data<<<<<
365.73	14.04
365.92	14.04
366.12	14.04
366.32	0.00
366.52	0.00
366.72	0.00
366.91	0.00
367.11	0.00
367.31	0.00
367.51	0.00
367.70	0.00
367.90	0.00
368.10	0.00
368.30	0.00
368.49	0.00
368.69	0.00
368.89	0.00
369.09	0.00
369.28	0.00
369.48	0.00
369.68	0.00
369.87	0.00
370.07	0.00
370.27	4.68
370.47	124.05
370.66	229.37
370.86	283.20
371.06	245.76
371.25	322.99
371.45	236.39
371.65	278.52
371.84	318.31
372.04	276.18
372.24	360.44
372.44	346.40
372.63	283.20
372.83	390.87
373.03	318.31
373.22	322.99
373.42	325.33
373.62	355.76
373.81	393.21
374.01	353.42
374.21	451.72
374.40	376.83
374.60	278.52
374.79	346.40
374.99	404.91
375.19	360.44
375.38	358.10
375.58	416.62
375.78	390.87
375.97	433.00
376.17	341.72
376.37	393.21
376.56	421.30
376.76	447.04
376.95	416.62
377.15	365.12
377.35	407.25
377.54	390.87
377.74	491.51
377.93	418.96
378.13	351.08
378.33	437.68
378.52	468.11
378.72	496.19
378.91	444.70
379.11	479.81
379.31	458.74
379.50	437.68
379.70	437.68
379.89	461.09
380.09	510.24
380.28	451.72
380.48	447.04
380.68	458.74
380.87	430.66
381.07	430.66
381.26	535.98
381.46	486.83
381.65	535.98
381.85	472.79
382.04	407.25
382.24	454.06
382.43	526.62
382.63	503.22
382.83	477.47
383.02	531.30
383.22	505.56
383.41	533.64
383.61	482.15
383.80	484.49
384.00	482.15
384.19	535.98
384.39	528.96
384.58	477.47
384.78	517.26
384.97	547.69
385.17	568.75
385.36	538.32
385.56	564.07
385.75	571.09
385.95	578.11
386.14	538.32
386.34	510.24
386.53	552.37
386.72	533.64
386.92	550.03
387.11	594.50
387.31	615.56
387.50	552.37
387.70	620.24
387.89	681.10
388.09	634.29
388.28	573.43
388.48	608.54
388.67	631.94
388.86	725.57
389.06	603.86
389.25	669.39
389.45	697.48
389.64	573.43
389.84	582.79
390.03	695.14
390.22	688.12
390.42	564.07
390.61	601.52
390.81	685.78
391.00	723.23
391.19	781.74
391.39	627.26
391.58	727.91
391.78	732.59
391.97	695.14
392.16	723.23
392.36	774.72
392.55	730.25
392.75	751.31
392.94	784.08
393.13	781.74
393.33	709.18
393.52	681.10
393.71	814.51
393.91	807.48
394.10	788.76
394.29	725.57
394.49	798.12
394.68	779.40
394.88	919.83
395.07	849.61
395.26	837.91
395.46	723.23
395.65	968.98
395.84	901.11
396.04	926.85
396.23	844.93
396.42	933.87
396.62	915.15
396.81	880.04
397.00	784.08
397.19	950.26
397.39	880.04
397.58	912.81
397.77	968.98
397.97	968.98
398.16	983.02
398.35	1029.84
398.55	994.73
398.74	1039.20
398.93	1027.50
399.12	973.66
399.32	1020.47
399.51	1081.33
399.70	1041.54
399.90	990.05
400.09	1078.99
400.28	1081.33
400.47	1001.75
400.67	1109.41
400.86	1074.31
401.05	1170.27
401.24	1090.69
401.44	1165.59
401.63	1139.84
401.82	1198.35
402.01	1219.42
402.21	1139.84
402.40	1177.29
402.59	1191.33
402.78	1203.04
402.97	1263.89
403.17	1235.80
403.36	1198.35
403.55	1186.65
403.74	1224.10
403.93	1362.19
404.13	1282.61
404.32	1343.47
404.51	1270.91
404.70	1401.98
404.89	1282.61
405.09	1369.21
405.28	1378.58
405.47	1392.62
405.66	1331.76
405.85	1446.45
406.05	1432.41
406.24	1423.05
406.43	1521.35
406.62	1551.78
406.81	1437.09
407.00	1469.86
407.20	1530.71
407.39	1530.71
407.58	1577.52
407.77	1577.52
407.96	1605.61
408.15	1596.25
408.34	1675.82
408.54	1617.31
408.73	1687.53
408.92	1802.21
409.11	1708.59
409.30	1757.74
409.49	1619.65
409.68	1682.85
409.87	1689.87
410.07	1657.10
410.26	1839.66
410.45	1746.04
410.64	1830.30
410.83	1809.23
411.02	1893.49
411.21	1884.13
411.40	1877.11
411.59	1856.04
411.78	1919.24
411.98	1935.62
412.17	1921.58
412.36	1940.30
412.55	2092.44
412.74	2146.27
412.93	2153.29
413.12	2111.16
413.31	2214.15
413.50	2069.03
413.69	2155.63
413.88	2218.83
414.07	2167.34
414.26	2265.64
414.45	2202.44
414.64	2263.30
414.83	2342.88
415.02	2385.01
415.22	2450.54
415.41	2548.84
415.60	2305.43
415.79	2429.48
415.98	2567.57
416.17	2436.50
416.36	2551.18
416.55	2525.44
416.74	2616.72
416.93	2478.63
417.12	2565.23
417.31	2523.10
417.50	2600.34
417.69	2670.55
417.88	2649.49
418.07	2628.42
418.26	2717.36
418.45	2708.00
418.64	2696.30
418.83	2897.58
419.02	2775.88
419.21	2841.41
419.39	2782.90
419.58	2799.28
419.77	2813.32
419.96	2909.29
420.15	2916.31
420.34	2916.31
420.53	2939.71
420.72	3012.27
420.91	3019.29
421.10	2935.03
421.29	2883.54
421.48	2935.03
421.67	3000.57
421.86	2995.89
422.05	3089.51
422.24	3047.38
422.43	2988.86
422.61	3091.85
422.80	3138.66
422.99	3162.06
423.18	3208.87
423.37	3110.57
423.56	3143.34
423.75	3183.13
423.94	3094.19
424.13	2808.64
424.32	3021.63
424.50	3049.72
424.69	3157.38
424.88	3220.58
425.07	3019.29
425.26	3112.91
425.45	3162.06
425.64	3159.72
425.83	3110.57
426.01	3229.94
426.20	3021.63
426.39	3222.92
426.58	3211.22
426.77	3173.77
426.96	3302.50
427.15	3314.20
427.33	3346.97
427.52	3365.69
427.71	3311.86
427.90	3300.16
428.09	3232.28
428.28	3267.39
428.46	3410.16
428.65	3419.52
428.84	3562.30
429.03	3576.34
429.22	3351.65
429.40	3351.65
429.59	3499.10
429.78	3447.61
429.97	3332.92
430.16	3454.63
430.34	3508.46
430.53	3581.02
430.72	3531.87
430.91	3559.95
431.10	3510.80
431.28	3616.13
431.47	3625.49
431.66	3737.84
431.85	3562.30
432.03	3637.19
432.22	3749.54
432.41	3681.66
432.60	3791.67
432.79	3737.84
432.97	3782.31
433.16	3770.60
433.35	3702.73
433.54	3932.10
433.72	3789.33
433.91	3758.90
434.10	3810.39
434.28	3859.54
434.47	3899.33
434.66	3927.42
434.85	3871.25
435.03	4081.89
435.22	4060.83
435.41	4175.52
435.59	3943.80
435.78	4107.64
435.97	4002.32
436.16	4079.55
436.34	4086.58
436.53	4191.90
436.72	4234.03
436.90	4124.02
437.09	4269.14
437.28	4259.78
437.46	4194.24
437.65	4152.11
437.84	4402.55
438.02	4250.41
438.21	4266.80
438.40	4163.81
438.58	4376.80
438.77	4475.10
438.96	4376.80
439.14	4498.51
439.33	4489.15
439.52	4575.75
439.70	4582.77
439.89	4580.43
440.08	4713.84
440.26	4592.13
440.45	4737.24
440.63	4702.14
440.82	4901.08
441.01	4660.01
441.19	4858.95
441.38	4875.34
441.57	4842.57
441.75	4781.71
441.94	5004.07
442.12	5062.58
442.31	5184.29
442.50	5203.01
442.68	5114.07
442.87	5008.75
443.05	5102.37
443.24	5191.31
443.43	5151.52
443.61	5305.99
443.80	5427.70
443.98	5088.32
444.17	4910.44
444.35	5291.95
444.54	5359.83
444.73	5235.78
444.91	5479.19
445.10	5298.97
445.28	5320.04
445.47	5287.27
445.65	5203.01
445.84	5324.72
446.02	5387.91
446.21	5327.06
446.39	5303.65
446.58	5413.66
446.77	5511.96
446.95	5158.54
447.14	5301.31
447.32	5427.70
447.51	5345.78
447.69	5317.70
447.88	5408.98
448.06	5434.72
448.25	5385.57
448.43	5500.26
448.62	5387.91
448.80	5526.00
448.99	5479.19
449.17	5448.77
449.36	5359.83
449.54	5626.65
449.73	5659.42
449.91	5750.70
450.10	5694.52
450.28	5717.93
450.46	5820.91
450.65	5715.59
450.83	5776.44
451.02	5689.84
451.20	5792.83
451.39	5977.73
451.57	5708.57
451.76	5921.56
451.94	5970.71
452.13	5949.64
452.31	5870.06
452.49	5717.93
452.68	5942.62
452.86	5703.89
453.05	5895.81
453.23	5994.11
453.42	5982.41
453.60	5874.74
453.78	6141.57
453.97	6024.54
454.15	5907.51
454.34	6029.22
454.52	6186.04
454.70	6050.28
454.89	6036.24
455.07	6221.14
455.26	6317.11
455.44	6242.21
455.62	6239.87
455.81	6235.19
455.99	6286.68
456.17	6452.86
456.36	6424.77
456.54	6427.11
456.73	6464.56
456.91	6590.95
457.09	6654.14
457.28	6722.02
457.46	6595.63
457.64	6654.14
457.83	6885.86
458.01	6700.95
458.19	6785.21
458.38	6698.61
458.56	6799.26
458.74	6724.36
458.93	6640.10
459.11	6633.08
459.29	6888.20
459.48	6761.81
459.66	6803.94
459.84	7110.55
460.03	7157.36
460.21	6963.09
460.39	7005.22
460.57	6986.50
460.76	7171.40
460.94	7012.24
461.12	7211.19
461.31	7068.42
461.49	7054.37
461.67	6869.47
461.85	7187.79
462.04	7279.07
462.22	7672.28
462.40	7351.62
462.59	7260.34
462.77	7379.71
462.95	7155.02
463.13	7480.35
463.32	7293.11
463.50	7552.91
463.68	7438.22
463.86	7349.28
464.05	7489.71
464.23	7370.35
464.41	7548.23
464.59	7489.71
464.78	7463.97
464.96	7581.00
465.14	7552.91
465.32	7688.66
465.50	7426.52
465.69	7758.88
465.87	7585.68
466.05	7454.61
466.23	7620.78
466.41	7765.90
466.60	7939.10
466.78	7639.51
466.96	7548.23
467.14	7798.66
467.32	7641.85
467.51	7953.14
467.69	7754.19
467.87	7681.64
468.05	7873.56
468.23	7833.77
468.41	7817.39
468.60	7854.84
468.78	7946.12
468.96	8053.78
469.14	8149.75
469.32	8086.55
469.50	7927.39
469.69	8255.07
469.87	8116.98
470.05	8339.33
470.23	8243.37
470.41	8290.18
470.59	8292.52
470.77	8196.56
470.95	8285.50
471.14	8278.47
471.32	8472.74
471.50	8774.67
471.68	8468.06
471.86	8669.34
472.04	8601.47
472.22	8807.44
472.40	8510.19
472.58	8702.11
472.77	8746.58
472.95	8872.97
473.13	9366.82
473.31	8641.26
473.49	8929.14
473.67	8943.19
473.85	8952.55
474.03	9067.24
474.21	9214.69
474.39	9359.80
474.57	9448.74
474.75	9291.93
474.93	9488.53
475.12	9249.80
475.30	9483.85
475.48	9238.09
475.66	9584.49
475.84	9657.05
476.02	9535.34
476.20	9572.79
476.38	9776.42
476.56	9877.06
476.74	10033.88
476.92	9973.02
477.10	9949.62
477.28	10059.62
477.46	10286.65
477.64	10300.70
477.82	10345.17
478.00	10230.48
478.18	10574.54
478.36	10736.04
478.54	10462.19
478.72	10682.20
478.90	11009.88
479.08	10906.90
479.26	11133.93
479.44	11295.43
479.62	11199.46
479.80	11379.68
479.98	11304.79
480.16	11562.25
480.34	11421.81
480.52	11786.94
480.70	11576.29
480.88	11683.95
481.06	11609.06
481.24	11826.73
481.41	11896.94
481.59	12065.46
481.77	12236.32
481.95	12374.41
482.13	12306.54
482.31	12360.37
482.49	12608.47
482.67	12596.76
482.85	12720.81
483.03	12699.75
483.21	12973.59
483.39	12788.69
483.57	13212.32
483.74	13249.77
483.92	13483.83
484.10	13217.01
484.28	13483.83
484.46	13687.45
484.64	14003.43
484.82	13818.52
485.00	13884.06
485.18	14239.82
485.35	14436.42
485.53	14497.28
485.71	14054.92
485.89	14677.50
486.07	14560.47
486.25	14434.08
486.43	14892.83
486.61	14839.00
486.78	15246.25
486.96	14789.85
487.14	15438.17
487.32	15384.34
487.50	15606.69
487.68	15548.18
487.85	15908.62
488.03	15639.46
488.21	16332.26
488.39	16107.57
488.57	16372.05
488.75	16465.67
488.92	16643.55
489.10	17050.80
489.28	16774.62
489.46	16950.16
489.64	16980.59
489.81	17252.09
489.99	17305.92
490.17	17568.06
490.35	17558.70
490.53	17715.51
490.70	17802.11
490.88	17839.56
491.06	17900.42
491.24	17891.06
491.41	18068.94
491.59	18242.14
491.77	18349.80
491.95	18256.18
492.13	18745.35
492.30	18890.46
492.48	18654.07
492.66	18445.76
492.84	18883.44
493.01	18881.10
493.19	19185.37
493.37	19318.78
493.54	19304.74
493.72	19534.11
493.90	19697.95
494.08	19520.07
494.25	19866.47
494.43	20163.72
494.61	20442.24
494.79	20437.56
494.96	20273.72
495.14	20456.28
495.32	20821.41
495.49	20844.81
495.67	20823.75
495.85	21350.37
496.02	20978.22
496.20	20856.51
496.38	21397.18
496.55	21160.78
496.73	21781.03
496.91	21390.16
497.09	21923.80
497.26	21888.69
497.44	21949.54
497.62	21792.73
497.79	22132.11
497.97	22043.17
498.14	22382.54
498.32	22642.34
498.50	22597.87
498.67	22986.40
498.85	22668.09
499.03	22965.34
499.20	23140.88
499.38	23199.39
499.56	23318.76
499.73	23405.36
499.91	23194.71
500.08	23405.36
500.26	23580.90
500.44	23583.24
500.61	23625.37
500.79	23672.18
500.97	23723.67
501.14	23988.15
501.32	24121.56
501.49	24222.20
501.67	23896.87
501.84	24210.50
502.02	24561.58
502.20	24428.17
502.37	25095.22
502.55	24905.64
502.72	24634.14
502.90	24875.21
503.07	24601.37
503.25	24713.72
503.43	25254.38
503.60	25156.08
503.78	25228.63
503.95	25301.19
504.13	25069.48
504.30	25259.06
504.48	25348.00
504.65	25579.71
504.83	25862.92
505.01	25996.33
505.18	25907.39
505.36	26029.10
505.53	25965.90
505.71	26031.44
505.88	26134.42
506.06	25713.13
506.23	26403.58
506.41	26239.75
506.58	26436.35
506.76	26740.62
506.93	26609.55
507.11	26312.30
507.28	26979.36
507.46	26867.01
507.63	26757.00
507.81	27098.72
507.98	26771.05
508.16	27030.85
508.33	27367.88
508.50	27377.25
508.68	27384.27
508.85	27908.55
509.03	27623.00
509.20	27543.42
509.38	28013.87
509.55	28039.62
509.73	28240.90
509.90	27782.16
510.08	27843.01
510.25	28180.05
510.42	28044.30
510.60	28589.64
510.77	28788.59
510.95	28577.94
511.12	28608.37
511.30	28507.72
511.47	28847.10
511.64	28910.30
511.82	29048.39
511.99	28952.43
512.17	28795.61
512.34	28882.21
512.51	29465.00
512.69	29474.37
512.86	29378.40
513.04	29483.73
513.21	30050.14
513.38	30017.37
513.56	29532.88
513.73	29420.53
513.90	29610.12
514.08	29879.28
514.25	30139.08
514.43	30396.54
514.60	30050.14
514.77	29986.94
514.95	30225.68
515.12	30415.26
515.29	30459.73
515.47	30815.49
515.64	30616.55
515.81	30733.57
515.99	30944.22
516.16	30771.02
516.33	30838.90
516.51	31271.90
516.68	31075.29
516.85	31072.95
517.03	31524.68
517.20	31564.46
517.37	31454.46
517.54	31344.45
517.72	31484.89
517.89	31381.90
518.06	31426.37
518.24	31536.38
518.41	31625.32
518.58	31665.11
518.75	31899.16
518.93	31641.70
519.10	32025.55
519.27	32119.17
519.45	32006.83
519.62	32034.91
519.79	32238.54
519.96	32596.64
520.14	32535.79
520.31	32444.51
520.48	32840.06
520.65	32807.29
520.83	32921.98
521.00	32858.78
521.17	32610.68
521.34	32591.96
521.52	32788.56
521.69	32804.95
521.86	32996.87
522.03	33411.15
522.20	33390.08
522.38	33317.53
522.55	33584.35
522.72	33785.63
522.89	33724.78
523.07	33701.37
523.24	33502.43
523.41	33708.40
523.58	33413.49
523.75	33926.07
523.92	33481.36
524.10	34211.61
524.27	34300.55
524.44	33816.06
524.61	34705.46
524.78	34527.58
524.96	34366.09
525.13	34249.06
525.30	34609.50
525.47	34438.64
525.64	34394.17
525.81	35009.73
525.98	34668.02
526.16	34995.69
526.33	34752.27
526.50	35178.25
526.67	34810.79
526.84	34909.09
527.01	34653.97
527.18	34836.53
527.36	35175.91
527.53	35014.41
527.70	35686.15
527.87	35545.72
528.04	35068.25
528.21	35360.81
528.38	35402.94
528.55	35381.88
528.72	35358.47
528.89	35798.49
529.07	35487.20
529.24	35412.31
529.41	35871.05
529.58	35639.34
529.75	35962.33
529.92	35697.85
530.09	35842.96
530.26	36264.26
530.43	35997.44
530.60	36079.36
530.77	36072.34
530.94	36325.11
531.11	36168.30
531.28	36226.81
531.46	36058.29
531.63	36329.80
531.80	36126.17
531.97	36577.89
532.14	36613.00
532.31	36219.79
532.48	36692.58
532.65	37020.25
532.82	36753.43
532.99	36517.04
533.16	36931.31
533.33	36935.99
533.50	37420.48
533.67	37357.29
533.84	37352.61
534.01	36893.86
534.18	36807.26
534.35	37247.29
534.52	37500.06
534.69	37385.38
534.86	37385.38
535.03	37647.52
535.20	37574.96
535.37	37715.39
535.54	37567.94
535.71	37319.84
535.88	37745.82
536.05	37521.13
536.22	37834.76
536.38	38342.66
536.55	37799.65
536.72	37661.56
536.89	37579.64
537.06	38230.31
537.23	37881.57
537.40	37661.56
537.57	38396.49
537.74	38110.94
537.91	38515.86
538.08	38698.42
538.25	37928.38
538.42	38122.65
538.59	38707.78
538.75	38160.09
538.92	38014.98
539.09	38698.42
539.26	38424.57
539.43	38745.23
539.60	38583.73
539.77	38817.78
539.94	38749.91
540.11	38822.47
540.28	38778.00
540.44	38689.06
540.61	38773.31
540.78	38850.55
540.95	39772.72
541.12	38677.35
541.29	39182.91
541.46	39096.31
541.62	38843.53
541.79	38918.43
541.96	38660.97
542.13	39049.50
542.30	39447.39
542.47	39196.95
542.63	39468.45
542.80	39922.52
542.97	39496.54
543.14	39889.75
543.31	39618.25
543.48	39651.02
543.64	40156.57
543.81	40158.91
543.98	40226.79
544.15	40144.87
544.32	40402.33
544.48	40388.28
544.65	40048.91
544.82	40151.89
544.99	40332.11
545.16	40425.73
545.32	39894.43
545.49	40526.38
545.66	40596.59
545.83	40500.63
546.00	40535.74
546.16	40800.22
546.33	39732.93
546.50	40184.66
546.67	40418.71
546.83	40318.07
547.00	40481.91
547.17	40807.24
547.34	40243.17
547.50	40828.30
547.67	40980.44
547.84	41265.99
548.00	40856.39
548.17	41291.73
548.34	40994.48
548.51	41230.88
548.67	41301.09
548.84	41081.08
549.01	41303.43
549.18	40809.58
549.34	40697.24
549.51	41326.84
549.68	40584.89
549.84	40992.14
550.01	41481.31
550.18	41518.76
550.34	41956.44
550.51	41532.81
550.68	41675.58
550.84	41200.45
551.01	41471.95
551.18	41237.90
551.34	41738.77
551.51	41521.10
551.68	41422.80
551.84	41603.02
552.01	41448.55
552.18	42129.64
552.34	41720.05
552.51	41635.79
552.68	41600.68
552.84	41577.28
553.01	41890.91
553.18	41902.61
553.34	42129.64
553.51	41928.36
553.67	42316.89
553.84	42298.16
554.01	42249.01
554.17	42244.33
554.34	42312.20
554.51	42197.52
554.67	42389.44
554.84	42426.89
555.00	42349.65
555.17	42099.22
555.33	42663.28
555.50	42398.80
555.67	42284.12
555.83	42333.27
556.00	42483.06
556.16	42972.24
556.33	42536.90
556.50	42433.91
556.66	42742.86
556.83	42586.05
556.99	42604.77
557.16	42696.05
557.32	42230.29
557.49	42962.87
557.65	42658.60
557.82	42202.20
557.98	42878.61
558.15	43093.94
558.32	42873.93
558.48	42878.61
558.65	42878.61
558.81	43044.79
558.98	42564.98
559.14	42464.34
559.31	42679.67
559.47	42674.99
559.64	43175.86
559.80	43126.71
559.97	43330.34
560.13	42918.40
560.30	43150.12
560.46	42827.12
560.63	43051.81
560.79	43615.88
560.96	43164.16
561.12	43044.79
561.29	42801.38
561.45	43051.81
561.61	43178.20
561.78	43716.53
561.94	43107.99
562.11	43557.37
562.27	42897.34
562.44	42955.85
562.60	42988.62
562.77	43564.39
562.93	43529.28
563.10	43405.23
563.26	43262.46
563.42	43906.11
563.59	43445.02
563.75	43166.50
563.92	43395.87
564.08	43152.46
564.24	43089.26
564.41	43466.09
564.57	43681.42
564.74	43416.94
564.90	43871.00
565.07	43412.26
565.23	43973.98
565.39	43344.38
565.56	43548.01
565.72	43325.66
565.88	43611.20
566.05	43569.07
566.21	43229.69
566.38	43398.21
566.54	43838.23
566.70	43749.29
566.87	43704.82
567.03	43473.11
567.19	44062.93
567.36	43873.34
567.52	43559.71
567.68	43260.12
567.85	43374.81
568.01	43686.10
568.17	43819.51
568.34	43648.65
568.50	43880.36
568.66	44067.61
568.83	44306.34
568.99	43868.66
569.15	43838.23
569.32	43140.75
569.48	43789.08
569.64	43924.83
569.81	43620.56
569.97	43454.39
570.13	43973.98
570.30	43941.22
570.46	43770.36
570.62	43807.81
570.78	43442.68
570.95	43540.99
571.11	43599.50
571.27	43732.91
571.43	43784.40
571.60	44046.54
571.76	43789.08
571.92	43800.79
572.09	44144.84
572.25	44133.14
572.41	43613.54
572.57	43882.70
572.74	44184.63
572.90	43723.55
573.06	43522.26
573.22	43896.75
573.38	44083.99
573.55	44039.52
573.71	44416.35
573.87	44343.79
574.03	43908.45
574.20	43711.84
574.36	43646.31
574.52	44030.16
574.68	43765.68
574.84	43903.77
575.01	44416.35
575.17	44119.10
575.33	44285.28
575.49	44093.35
575.65	44034.84
575.82	44397.62
575.98	43833.55
576.14	44460.82
576.30	44294.64
576.46	44011.43
576.62	44229.10
576.79	43732.91
576.95	44002.07
577.11	44208.04
577.27	44339.11
577.43	44182.29
577.59	44411.67
577.75	44397.62
577.92	44282.94
578.08	43981.01
578.24	44378.90
578.40	44217.40
578.56	44350.81
578.72	44095.69
578.88	44652.74
579.04	44748.70
579.21	44484.22
579.37	43435.66
579.53	44259.53
579.69	44102.71
579.85	44318.04
580.01	44289.96
580.17	44172.93
580.33	44268.89
580.49	44622.31
580.65	44259.53
580.82	44713.59
580.98	44444.43
581.14	44320.38
581.30	44296.98
581.46	44346.13
581.62	44140.16
581.78	44397.62
581.94	43969.30
582.10	43922.49
582.26	44299.32
582.42	44678.49
582.58	44442.09
582.74	44257.19
582.90	44577.84
583.06	44236.12
583.22	43906.11
583.38	43737.59
583.54	44076.97
583.70	44046.54
583.86	44580.18
584.02	44669.12
584.18	44594.23
584.34	44573.16
584.50	44872.75
584.66	44385.92
584.82	43892.07
584.98	44329.75
585.14	44673.81
585.30	44287.62
585.46	44301.66
585.62	43976.33
585.78	44362.51
585.94	44081.65
586.10	44645.72
586.26	44680.83
586.42	44615.29
586.58	44645.72
586.74	44294.64
586.90	44486.56
587.06	44444.43
587.22	44603.59
587.38	44093.35
587.54	44533.37
587.70	44814.24
587.86	44594.23
588.02	44533.37
588.18	44980.42
588.34	44926.58
588.49	44252.51
588.65	44561.46
588.81	44158.89
588.97	44348.47
589.13	44329.75
589.29	44692.53
589.45	44957.01
589.61	45043.61
589.77	44898.50
589.93	44776.79
590.08	44825.94
590.24	45022.54
590.40	44556.78
590.56	45038.93
590.72	44240.81
590.88	43810.15
