SpectraSuite Data File
++++++++++++++++++++++++++++++++++++
Date: Fri Oct 04 11:48:27 GMT-05:00 2013
User: price-jones
Dark Spectrum Present: No
Reference Spectrum Present: No
Number of Sampled Component Spectra: 1
Spectrometers: USB2+H05261
Integration Time (usec): 100000 (USB2+H05261)
Spectra Averaged: 1 (USB2+H05261)
Boxcar Smoothing: 0 (USB2+H05261)
Correct for Electrical Dark: No (USB2+H05261)
Strobe/Lamp Enabled: No (USB2+H05261)
Correct for Detector Non-linearity: No (USB2+H05261)
Correct for Stray Light: No (USB2+H05261)
Number of Pixels in Processed Spectrum: 2048
>>>>>Begin Processed Spectral Data<<<<<
365.73	28.09
365.92	28.09
366.12	28.09
366.32	0.00
366.52	0.00
366.72	0.00
366.91	9.36
367.11	0.00
367.31	0.00
367.51	0.00
367.70	0.00
367.90	0.00
368.10	0.00
368.30	0.00
368.49	0.00
368.69	0.00
368.89	0.00
369.09	0.00
369.28	0.00
369.48	0.00
369.68	0.00
369.87	16.38
370.07	0.00
370.27	21.06
370.47	23.41
370.66	210.65
370.86	231.71
371.06	308.95
371.25	280.86
371.45	262.14
371.65	224.69
371.84	196.60
372.04	161.50
372.24	252.78
372.44	238.73
372.63	313.63
372.83	283.20
373.03	320.65
373.22	234.05
373.42	224.69
373.62	332.36
373.81	229.37
374.01	285.55
374.21	308.95
374.40	386.19
374.60	362.78
374.79	264.48
374.99	269.16
375.19	278.52
375.38	304.27
375.58	327.68
375.78	320.65
375.97	322.99
376.17	416.62
376.37	358.10
376.56	411.93
376.76	313.63
376.95	315.97
377.15	330.02
377.35	337.04
377.54	304.27
377.74	262.14
377.93	318.31
378.13	381.51
378.33	386.19
378.52	407.25
378.72	362.78
378.91	395.55
379.11	404.91
379.31	348.74
379.50	322.99
379.70	337.04
379.89	430.66
380.09	348.74
380.28	330.02
380.48	381.51
380.68	304.27
380.87	409.59
381.07	400.23
381.26	358.10
381.46	411.93
381.65	416.62
381.85	390.87
382.04	416.62
382.24	468.11
382.43	390.87
382.63	449.38
382.83	449.38
383.02	433.00
383.22	393.21
383.41	388.53
383.61	360.44
383.80	428.32
384.00	409.59
384.19	425.98
384.39	435.34
384.58	379.17
384.78	433.00
384.97	491.51
385.17	437.68
385.36	409.59
385.56	461.09
385.75	423.64
385.95	512.58
386.14	479.81
386.34	407.25
386.53	390.87
386.72	498.53
386.92	496.19
387.11	451.72
387.31	461.09
387.50	449.38
387.70	491.51
387.89	507.90
388.09	468.11
388.28	568.75
388.48	510.24
388.67	440.02
388.86	606.20
389.06	505.56
389.25	493.85
389.45	524.28
389.64	468.11
389.84	699.82
390.03	566.41
390.22	592.16
390.42	496.19
390.61	526.62
390.81	533.64
391.00	531.30
391.19	690.46
391.39	524.28
391.58	566.41
391.78	531.30
391.97	573.43
392.16	641.31
392.36	594.50
392.55	575.77
392.75	500.87
392.94	636.63
393.13	690.46
393.33	610.88
393.52	538.32
393.71	678.76
393.91	690.46
394.10	580.45
394.29	587.47
394.49	648.33
394.68	624.92
394.88	669.39
395.07	734.93
395.26	690.46
395.46	650.67
395.65	727.91
395.84	681.10
396.04	802.80
396.23	690.46
396.42	622.58
396.62	727.91
396.81	725.57
397.00	695.14
397.19	755.99
397.39	816.85
397.58	842.59
397.77	777.06
397.97	744.29
398.16	716.20
398.35	788.76
398.55	807.48
398.74	753.65
398.93	798.12
399.12	784.08
399.32	763.01
399.51	819.19
399.70	732.59
399.90	889.40
400.09	858.98
400.28	898.77
400.47	884.72
400.67	849.61
400.86	781.74
401.05	884.72
401.24	891.74
401.44	812.17
401.63	978.34
401.82	929.19
402.01	912.81
402.21	999.41
402.40	877.70
402.59	905.79
402.78	933.87
402.97	987.71
403.17	1032.18
403.36	983.02
403.55	1046.22
403.74	1043.88
403.93	1074.31
404.13	987.71
404.32	1142.18
404.51	992.39
404.70	1062.60
404.89	1006.43
405.09	1142.18
405.28	1057.92
405.47	1022.81
405.66	1231.12
405.85	1104.73
406.05	1093.03
406.24	1170.27
406.43	1118.78
406.62	1149.20
406.81	1188.99
407.00	1130.48
407.20	1184.31
407.39	1151.54
407.58	1256.87
407.77	1184.31
407.96	1259.21
408.15	1254.53
408.34	1275.59
408.54	1273.25
408.73	1266.23
408.92	1338.79
409.11	1331.76
409.30	1373.89
409.49	1423.05
409.68	1455.81
409.87	1284.95
410.07	1495.60
410.26	1455.81
410.45	1329.42
410.64	1322.40
410.83	1387.94
411.02	1416.02
411.21	1509.65
411.40	1476.88
411.59	1437.09
411.78	1502.62
411.98	1528.37
412.17	1554.12
412.36	1516.67
412.55	1614.97
412.74	1675.82
412.93	1626.67
413.12	1497.94
413.31	1666.46
413.50	1563.48
413.69	1778.81
413.88	1724.97
414.07	1750.72
414.26	1736.68
414.45	1689.87
414.64	1729.66
414.83	1827.96
415.02	1895.83
415.22	1907.54
415.41	1888.81
415.60	1933.28
415.79	1790.51
415.98	1874.77
416.17	1886.47
416.36	1888.81
416.55	1912.22
416.74	1944.99
416.93	1844.34
417.12	2087.76
417.31	1970.73
417.50	2080.74
417.69	2083.08
417.88	2019.88
418.07	1949.67
418.26	2101.80
418.45	2010.52
418.64	2239.89
418.83	2162.66
419.02	2052.65
419.21	2221.17
419.39	2244.57
419.58	2230.53
419.77	2136.91
419.96	2267.98
420.15	2303.09
420.34	2190.74
420.53	2256.28
420.72	2385.01
420.91	2370.96
421.10	2303.09
421.29	2354.58
421.48	2286.70
421.67	2237.55
421.86	2403.73
422.05	2438.84
422.24	2347.56
422.43	2317.13
422.61	2410.75
422.80	2333.51
422.99	2462.24
423.18	2438.84
423.37	2375.64
423.56	2340.54
423.75	2448.20
423.94	2286.70
424.13	2246.91
424.32	2368.62
424.50	2553.52
424.69	2452.88
424.88	2499.69
425.07	2448.20
425.26	2340.54
425.45	2385.01
425.64	2422.45
425.83	2431.82
426.01	2499.69
426.20	2583.95
426.39	2597.99
426.58	2434.16
426.77	2326.49
426.96	2572.25
427.15	2525.44
427.33	2473.95
427.52	2597.99
427.71	2600.34
427.90	2523.10
428.09	2546.50
428.28	2686.94
428.46	2729.06
428.65	2600.34
428.84	2679.91
429.03	2703.32
429.22	2696.30
429.40	2581.61
429.59	2691.62
429.78	2696.30
429.97	2576.93
430.16	2497.35
430.34	2605.02
430.53	2747.79
430.72	2766.51
430.91	2803.96
431.10	2682.25
431.28	2843.75
431.47	2897.58
431.66	2913.97
431.85	2780.56
432.03	2815.66
432.22	2946.73
432.41	2794.60
432.60	2834.39
432.79	2925.67
432.97	2906.95
433.16	2808.64
433.35	2881.20
433.54	2967.80
433.72	2993.55
433.91	2930.35
434.10	2991.20
434.28	2864.82
434.47	2958.44
434.66	3131.64
434.85	3141.00
435.03	3021.63
435.22	3045.04
435.41	3236.96
435.59	3007.59
435.78	3040.36
435.97	3187.81
436.16	3122.27
436.34	3063.76
436.53	3162.06
436.72	3243.98
436.90	3162.06
437.09	3197.17
437.28	3112.91
437.46	3262.71
437.65	3239.30
437.84	3276.75
438.02	3302.50
438.21	3290.79
438.40	3164.40
438.58	3351.65
438.77	3431.23
438.96	3459.31
439.14	3424.20
439.33	3501.44
439.52	3485.06
439.70	3466.33
439.89	3662.94
440.08	3679.32
440.26	3618.47
440.45	3592.72
440.63	3606.77
440.82	3627.83
441.01	3684.00
441.19	3721.45
441.38	3674.64
441.57	3803.37
441.75	3714.43
441.94	3801.03
442.12	3801.03
442.31	3953.16
442.50	3932.10
442.68	3761.24
442.87	3950.82
443.05	3896.99
443.24	4095.94
443.43	3997.64
443.61	3999.98
443.80	4093.60
443.98	3889.97
444.17	3723.79
444.35	4102.96
444.54	4081.89
444.73	3960.19
444.91	3950.82
445.10	4128.70
445.28	4025.72
445.47	4131.05
445.65	3957.85
445.84	4119.34
446.02	4166.15
446.21	4039.76
446.39	4121.68
446.58	4154.45
446.77	4142.75
446.95	4065.51
447.14	4070.19
447.32	4187.22
447.51	4138.07
447.69	4025.72
447.88	4093.60
448.06	4170.83
448.25	4154.45
448.43	4194.24
448.62	4121.68
448.80	4112.32
448.99	4222.33
449.17	4346.37
449.36	4184.88
449.54	4341.69
449.73	4252.75
449.91	4276.16
450.10	4318.29
450.28	4423.61
450.46	4557.02
450.65	4393.19
450.83	4540.64
451.02	4351.06
451.20	4365.10
451.39	4447.02
451.57	4423.61
451.76	4493.83
451.94	4388.50
452.13	4365.10
452.31	4561.70
452.49	4348.72
452.68	4528.94
452.86	4723.20
453.05	4540.64
453.23	4697.46
453.42	4578.09
453.60	4587.45
453.78	4652.98
453.97	4610.86
454.15	4557.02
454.34	4615.54
454.52	4760.65
454.70	4641.28
454.89	4709.16
455.07	4727.88
455.26	4788.74
455.44	4884.70
455.62	4870.65
455.81	4865.97
455.99	4870.65
456.17	4943.21
456.36	4980.66
456.54	4940.87
456.73	4837.89
456.91	4985.34
457.09	5118.75
457.28	5128.11
457.46	4938.53
457.64	5114.07
457.83	5135.14
458.01	5074.28
458.19	5247.48
458.38	5055.56
458.56	5359.83
458.74	5249.82
458.93	5186.63
459.11	5193.65
459.29	5004.07
459.48	5224.08
459.66	5193.65
459.84	5200.67
460.03	5310.68
460.21	5465.15
460.39	5406.64
460.57	5259.18
460.76	5327.06
460.94	5432.38
461.12	5315.36
461.31	5504.94
461.49	5380.89
461.67	5408.98
461.85	5558.77
462.04	5493.24
462.22	5980.07
462.40	5598.56
462.59	5671.12
462.77	5526.00
462.95	5605.58
463.13	5495.58
463.32	5636.01
463.50	5528.35
463.68	5643.03
463.86	5612.60
464.05	5598.56
464.23	5685.16
464.41	5839.64
464.59	5535.37
464.78	5823.25
464.96	5617.29
465.14	5729.63
465.32	5942.62
465.50	5959.00
465.69	5928.58
465.87	5755.38
466.05	5757.72
466.23	6001.13
466.41	5909.85
466.60	6019.86
466.78	5844.32
466.96	5966.03
467.14	5954.32
467.32	5844.32
467.51	6010.50
467.69	5926.24
467.87	5914.53
468.05	6043.26
468.23	5912.19
468.41	6202.42
468.60	6094.76
468.78	6087.73
468.96	6059.65
469.14	6235.19
469.32	6026.88
469.50	6008.16
469.69	6319.45
469.87	6373.28
470.05	6429.45
470.23	6279.66
470.41	6455.20
470.59	6338.17
470.77	6209.44
470.95	6347.53
471.14	6569.88
471.32	6509.03
471.50	6525.41
471.68	6417.75
471.86	6569.88
472.04	6509.03
472.22	6796.92
472.40	6602.65
472.58	6764.15
472.77	6614.35
472.95	6764.15
473.13	6923.30
473.31	6904.58
473.49	6649.46
473.67	6841.39
473.85	6771.17
474.03	7148.00
474.21	6822.66
474.39	7185.44
474.57	7073.10
474.75	7119.91
474.93	7159.70
475.12	6991.18
475.30	7426.52
475.48	7124.59
475.66	7328.22
475.84	7300.13
476.02	7274.38
476.20	7541.21
476.38	7531.84
476.56	7662.91
476.74	7768.24
476.92	7576.31
477.10	7627.81
477.28	7803.35
477.46	7683.98
477.64	8018.68
477.82	7918.03
478.00	8166.13
478.18	7878.24
478.36	8262.09
478.54	8152.09
478.72	8348.69
478.90	8351.03
479.08	8292.52
479.26	8444.65
479.44	8449.33
479.62	8421.25
479.80	8603.81
479.98	8702.11
480.16	8681.05
480.34	8648.28
480.52	8755.94
480.70	8975.95
480.88	8753.60
481.06	8875.31
481.24	8945.53
481.41	8940.85
481.59	9142.13
481.77	9247.46
481.95	9451.08
482.13	9504.92
482.31	9488.53
482.49	9586.83
482.67	9813.87
482.85	9607.90
483.03	9764.72
483.21	9977.70
483.39	9830.25
483.57	9825.57
483.74	10003.45
483.92	10118.14
484.10	10202.40
484.28	10228.14
484.46	10317.08
484.64	10630.71
484.82	10457.51
485.00	10513.69
485.18	10981.79
485.35	10691.57
485.53	10951.37
485.71	11009.88
485.89	10906.90
486.07	10895.19
486.25	11101.16
486.43	11037.97
486.61	11318.83
486.78	11154.99
486.96	11487.35
487.14	11716.72
487.32	11653.53
487.50	11903.96
487.68	11793.96
487.85	12074.82
488.03	12180.15
488.21	12463.35
488.39	12259.73
488.57	12418.88
488.75	12463.35
488.92	12854.22
489.10	12542.93
489.28	12603.78
489.46	12699.75
489.64	12795.71
489.81	12870.61
489.99	13006.36
490.17	13078.91
490.35	13252.11
490.53	13380.84
490.70	13259.13
490.88	13493.19
491.06	13565.74
491.24	13633.62
491.41	13600.85
491.59	13745.97
491.77	14066.62
491.95	13914.48
492.13	13893.42
492.30	14104.07
492.48	14108.75
492.66	14221.10
492.84	14253.86
493.01	14501.96
493.19	14469.19
493.37	14668.14
493.54	14857.72
493.72	14663.46
493.90	14864.74
494.08	14817.93
494.25	15143.27
494.43	15475.62
494.61	15180.71
494.79	15206.46
494.96	15225.18
495.14	15353.91
495.32	15150.29
495.49	15641.80
495.67	15730.74
495.85	15899.26
496.02	16035.01
496.20	16119.27
496.38	16079.48
496.55	15948.41
496.73	16318.22
496.91	16152.04
497.09	16360.34
497.26	16493.76
497.44	16325.24
497.62	16519.50
497.79	16767.60
497.97	16727.81
498.14	16648.23
498.32	17102.29
498.50	17219.32
498.67	17291.88
498.85	17228.68
499.03	17345.71
499.20	17200.60
499.38	17399.54
499.56	17441.67
499.73	17642.96
499.91	17549.34
500.08	17987.02
500.26	17785.73
500.44	17862.97
500.61	17965.95
500.79	17755.30
500.97	18146.17
501.14	18036.17
501.32	18204.69
501.49	18242.14
501.67	18200.01
501.84	18129.79
502.02	18244.48
502.20	18595.56
502.37	18487.89
502.55	18640.03
502.72	18338.10
502.90	18796.84
503.07	18654.07
503.25	18628.32
503.43	18745.35
503.60	19157.28
503.78	19140.90
503.95	19021.53
504.13	18869.40
504.30	19051.96
504.48	19276.65
504.65	19372.61
504.83	19414.74
505.01	19534.11
505.18	19295.38
505.36	19431.13
505.53	19648.80
505.71	19910.94
505.88	19964.77
506.06	19590.28
506.23	20226.91
506.41	20002.22
506.58	19843.06
506.76	20390.75
506.93	20283.08
507.11	19765.82
507.28	20510.11
507.46	20451.60
507.63	20589.69
507.81	20648.21
507.98	20273.72
508.16	20243.29
508.33	20210.53
508.50	20915.03
508.68	20793.32
508.85	20741.83
509.03	20734.81
509.20	21184.19
509.38	20800.34
509.55	21034.39
509.73	21345.69
509.90	21497.82
510.08	21432.29
510.25	21118.65
510.42	21598.46
510.60	21528.25
510.77	21584.42
510.95	21699.11
511.12	21589.10
511.30	21537.61
511.47	21626.55
511.64	22064.23
511.82	22148.49
511.99	22125.08
512.17	22005.72
512.34	22036.14
512.51	22279.56
512.69	22190.62
512.86	22389.56
513.04	22443.40
513.21	22473.82
513.38	22548.72
513.56	22176.58
513.73	22469.14
513.90	22377.86
514.08	22754.69
514.25	23000.44
514.43	22630.64
514.60	22775.75
514.77	22796.82
514.95	23101.09
515.12	22700.86
515.29	22944.27
515.47	23325.78
515.64	23246.20
515.81	23236.84
515.99	23503.66
516.16	23620.69
516.33	23550.47
516.51	23384.29
516.68	23388.97
516.85	23138.54
517.03	23459.19
517.20	23775.16
517.37	23917.93
517.54	23852.40
517.72	23410.04
517.89	23468.55
518.06	23653.45
518.24	23889.85
518.41	24130.92
518.58	23969.43
518.75	23962.40
518.93	24444.56
519.10	23953.04
519.27	24273.70
519.45	24079.43
519.62	24058.37
519.79	24444.56
519.96	24418.81
520.14	24570.94
520.31	24758.19
520.48	24456.26
520.65	24666.91
520.83	24582.65
521.00	24968.84
521.17	24760.53
521.34	24893.94
521.52	24676.27
521.69	25160.76
521.86	25350.34
522.03	24917.34
522.20	25338.64
522.38	25317.57
522.55	25362.04
522.72	25003.94
522.89	25331.62
523.07	25839.51
523.24	25450.99
523.41	25928.45
523.58	25348.00
523.75	25766.96
523.92	25666.31
524.10	25762.28
524.27	25811.43
524.44	25797.38
524.61	26068.89
524.78	25963.56
524.96	25869.94
525.13	26155.49
525.30	25942.50
525.47	26059.52
525.64	25876.96
525.81	25916.75
525.98	26319.32
526.16	26045.48
526.33	26300.60
526.50	26836.58
526.67	26780.41
526.84	26541.68
527.01	26251.45
527.18	26321.66
527.36	26583.80
527.53	26710.19
527.70	26909.14
527.87	26675.09
528.04	26682.11
528.21	27192.34
528.38	26466.78
528.55	26771.05
528.72	26558.06
528.89	26799.13
529.07	26675.09
529.24	27044.89
529.41	27005.10
529.58	26855.31
529.75	26815.52
529.92	27070.64
530.09	27037.87
530.26	27061.27
530.43	27285.97
530.60	26939.57
530.77	27456.82
530.94	27571.51
531.11	27309.37
531.28	27285.97
531.46	27344.48
531.63	27871.10
531.80	27702.58
531.97	27580.87
532.14	27665.13
532.31	27623.00
532.48	27718.96
532.65	27700.24
532.82	27510.66
532.99	28070.04
533.16	27669.81
533.33	28098.13
533.50	28116.86
533.67	27929.61
533.84	27922.59
534.01	27946.00
534.18	27967.06
534.35	28229.20
534.52	28329.84
534.69	28680.92
534.86	28336.87
535.03	28006.85
535.20	28217.50
535.37	28446.87
535.54	28577.94
535.71	28158.99
535.88	28292.40
536.05	28662.20
536.22	28601.35
536.38	28641.14
536.55	28505.38
536.72	28641.14
536.89	28238.56
537.06	28620.07
537.23	28720.71
537.40	28364.95
537.57	28790.93
537.74	28751.14
537.91	28975.83
538.08	29305.85
538.25	29006.26
538.42	28697.31
538.59	29071.79
538.75	29062.43
538.92	29102.22
539.09	29099.88
539.26	29237.97
539.43	29369.04
539.60	29280.10
539.77	29109.24
539.94	29277.76
540.11	29345.64
540.28	29221.59
540.44	29535.22
540.61	29439.26
540.78	29291.80
540.95	29546.92
541.12	29579.69
541.29	29364.36
541.46	29549.26
541.62	29324.57
541.79	29448.62
541.96	29242.65
542.13	29448.62
542.30	29462.66
542.47	29673.31
542.63	30291.21
542.80	30185.89
542.97	30059.50
543.14	30188.23
543.31	29811.40
543.48	30052.48
543.64	30279.51
543.81	30101.63
543.98	30436.33
544.15	30527.61
544.32	30574.42
544.48	30469.09
544.65	30436.33
544.82	30260.79
544.99	30022.05
545.16	30551.01
545.32	30551.01
545.49	30604.84
545.66	30572.08
545.83	30574.42
546.00	30490.16
546.16	30768.68
546.33	30445.69
546.50	30108.65
546.67	31023.80
546.83	30450.37
547.00	30600.16
547.17	31194.66
547.34	30721.87
547.50	30866.98
547.67	31154.87
547.84	31075.29
548.00	30855.28
548.17	31260.20
548.34	30969.97
548.51	31079.97
548.67	31140.83
548.84	31318.71
549.01	31108.06
549.18	31115.08
549.34	31274.24
549.51	30829.54
549.68	31180.62
549.84	31023.80
550.01	31407.65
550.18	31379.56
550.34	31281.26
550.51	31398.29
550.68	31346.79
550.84	31084.65
551.01	31578.51
551.18	31173.60
551.34	31356.16
551.51	31768.09
551.68	31379.56
551.84	31644.04
552.01	31730.64
552.18	31805.54
552.34	31517.65
552.51	32201.09
552.68	31269.56
552.84	31531.70
553.01	31597.23
553.18	31700.22
553.34	31952.99
553.51	31882.78
553.67	32074.70
553.84	32020.87
554.01	31962.36
554.17	31503.61
554.34	32133.21
554.51	32247.90
554.67	32070.02
554.84	31896.82
555.00	32020.87
555.17	32313.44
555.33	32095.77
555.50	32030.23
555.67	32016.19
555.83	31962.36
556.00	32025.55
556.16	32383.65
556.33	31955.33
556.50	32137.90
556.66	32128.53
556.83	32060.66
556.99	32224.50
557.16	32325.14
557.32	32039.59
557.49	32142.58
557.65	32212.79
557.82	32210.45
557.98	32320.46
558.15	32051.30
558.32	32238.54
558.48	32425.78
558.65	32615.37
558.81	32437.48
558.98	32407.06
559.14	32371.95
559.31	32470.25
559.47	32004.49
559.64	32044.27
559.80	32903.25
559.97	32566.21
560.13	32566.21
560.30	32486.64
560.46	32519.40
560.63	32697.28
560.79	32786.22
560.96	32783.88
561.12	32690.26
561.29	32606.00
561.45	32659.84
561.61	32961.76
561.78	32947.72
561.94	33214.54
562.11	32961.76
562.27	32741.75
562.44	32622.39
562.60	33170.07
562.77	32910.27
562.93	32772.18
563.10	32882.19
563.26	32889.21
563.42	33034.32
563.59	33450.94
563.75	33179.43
563.92	33048.36
564.08	33167.73
564.24	32503.02
564.41	32994.53
564.57	32718.35
564.74	32744.09
564.90	33029.64
565.07	33352.63
565.23	33160.71
565.39	32940.70
565.56	33099.86
565.72	32879.85
565.88	33088.15
566.05	32645.79
566.21	32999.21
566.38	32959.42
566.54	32821.33
566.70	33043.68
566.87	33207.52
567.03	32835.38
567.19	33041.34
567.36	32858.78
567.52	33053.05
567.68	32858.78
567.85	32896.23
568.01	33006.23
568.17	33277.74
568.34	33284.76
568.50	33507.11
568.66	33141.99
568.83	33362.00
568.99	32910.27
569.15	33284.76
569.32	33558.60
569.48	32905.59
569.64	33392.42
569.81	33324.55
569.97	33027.30
570.13	33696.69
570.30	33900.32
570.46	33427.53
570.62	33165.39
570.78	33263.69
570.95	33284.76
571.11	33373.70
571.27	32718.35
571.43	33308.16
571.60	33553.92
571.76	33006.23
571.92	33095.18
572.09	33479.02
572.25	33214.54
572.41	33209.86
572.57	33069.43
572.74	33212.20
572.90	33017.94
573.06	33003.89
573.22	33366.68
573.38	33411.15
573.55	33481.36
573.71	33839.47
573.87	33624.14
574.03	33429.87
574.20	33303.48
574.36	33432.21
574.52	33518.81
574.68	33418.17
574.84	33242.63
575.01	33610.09
575.17	33556.26
575.33	33490.73
575.49	33617.11
575.65	33535.20
575.82	33544.56
575.98	33205.18
576.14	33993.94
576.30	33404.13
576.46	33380.72
576.62	32973.47
576.79	33481.36
576.95	33401.79
577.11	33439.23
577.27	33809.04
577.43	33570.30
577.59	33954.15
577.75	33912.02
577.92	33261.35
578.08	33242.63
578.24	33174.75
578.40	33158.37
578.56	33844.15
578.72	33544.56
578.88	33694.35
579.04	33514.13
579.21	33560.94
579.37	33612.43
579.53	33460.30
579.69	33537.54
579.85	33486.04
580.01	33640.52
580.17	33380.72
580.33	33406.47
580.49	33923.72
580.65	33560.94
580.82	33848.83
580.98	33244.97
581.14	33535.20
581.30	33591.37
581.46	33289.44
581.62	33635.84
581.78	33457.96
581.94	33102.20
582.10	33694.35
582.26	33509.45
582.42	33455.62
582.58	33408.81
582.74	33844.15
582.90	33441.57
583.06	33865.21
583.22	33413.49
583.38	33661.58
583.54	33563.28
583.70	33706.05
583.86	33607.75
584.02	33692.01
584.18	34064.16
584.34	33574.98
584.50	33703.71
584.66	33699.03
584.82	33612.43
584.98	33376.04
585.14	33350.29
585.30	33476.68
585.46	33654.56
585.62	33453.28
585.78	33181.77
585.94	33453.28
586.10	33457.96
586.26	33385.40
586.42	33947.13
586.58	33631.16
586.74	33556.26
586.90	33345.61
587.06	33340.93
587.22	33542.22
587.38	33366.68
587.54	33738.82
587.70	33837.12
587.86	33645.20
588.02	33607.75
588.18	33979.90
588.34	33673.29
588.49	33778.61
588.65	33933.09
588.81	33319.87
588.97	33867.55
589.13	33816.06
589.29	34007.98
589.45	33905.00
589.61	34405.88
589.77	34618.86
589.93	33893.30
590.08	33956.49
590.24	33790.31
590.40	33479.02
590.56	34267.78
590.72	33579.67
590.88	33603.07
591.04	34033.73
591.20	34195.23
591.35	33996.28
591.51	34478.43
