SpectraSuite Data File
++++++++++++++++++++++++++++++++++++
Date: Fri Oct 04 11:48:41 GMT-05:00 2013
User: price-jones
Dark Spectrum Present: No
Reference Spectrum Present: No
Number of Sampled Component Spectra: 1
Spectrometers: USB2+H05261
Integration Time (usec): 100000 (USB2+H05261)
Spectra Averaged: 1 (USB2+H05261)
Boxcar Smoothing: 0 (USB2+H05261)
Correct for Electrical Dark: No (USB2+H05261)
Strobe/Lamp Enabled: No (USB2+H05261)
Correct for Detector Non-linearity: No (USB2+H05261)
Correct for Stray Light: No (USB2+H05261)
Number of Pixels in Processed Spectrum: 2048
>>>>>Begin Processed Spectral Data<<<<<
365.73	72.56
365.92	72.56
366.12	72.56
366.32	0.00
366.52	0.00
366.72	0.00
366.91	0.00
367.11	0.00
367.31	0.00
367.51	0.00
367.70	0.00
367.90	0.00
368.10	0.00
368.30	0.00
368.49	0.00
368.69	0.00
368.89	0.00
369.09	0.00
369.28	0.00
369.48	0.00
369.68	0.00
369.87	0.00
370.07	0.00
370.27	44.47
370.47	72.56
370.66	322.99
370.86	397.89
371.06	425.98
371.25	477.47
371.45	421.30
371.65	421.30
371.84	362.78
372.04	489.17
372.24	425.98
372.44	433.00
372.63	498.53
372.83	561.73
373.03	447.04
373.22	498.53
373.42	463.43
373.62	489.17
373.81	507.90
374.01	561.73
374.21	503.22
374.40	543.00
374.60	517.26
374.79	510.24
374.99	547.69
375.19	552.37
375.38	603.86
375.58	592.16
375.78	585.13
375.97	636.63
376.17	629.60
376.37	589.82
376.56	674.07
376.76	622.58
376.95	615.56
377.15	566.41
377.35	610.88
377.54	732.59
377.74	601.52
377.93	603.86
378.13	683.44
378.33	734.93
378.52	716.20
378.72	676.41
378.91	709.18
379.11	603.86
379.31	709.18
379.50	606.20
379.70	814.51
379.89	667.05
380.09	641.31
380.28	702.16
380.48	716.20
380.68	690.46
380.87	688.12
381.07	777.06
381.26	732.59
381.46	741.95
381.65	763.01
381.85	748.97
382.04	795.78
382.24	788.76
382.43	844.93
382.63	746.63
382.83	779.40
383.02	826.21
383.22	826.21
383.41	711.52
383.61	777.06
383.80	786.42
384.00	816.85
384.19	798.12
384.39	828.55
384.58	809.83
384.78	821.53
384.97	844.93
385.17	851.96
385.36	826.21
385.56	894.08
385.75	887.06
385.95	894.08
386.14	966.64
386.34	912.81
386.53	866.00
386.72	835.57
386.92	957.28
387.11	917.49
387.31	1022.81
387.50	877.70
387.70	943.24
387.89	976.00
388.09	1011.11
388.28	933.87
388.48	992.39
388.67	971.32
388.86	997.07
389.06	978.34
389.25	1069.62
389.45	1001.75
389.64	1050.90
389.84	987.71
390.03	1125.80
390.22	1053.24
390.42	1064.94
390.61	1029.84
390.81	971.32
391.00	1104.73
391.19	1254.53
391.39	1128.14
391.58	1093.03
391.78	1177.29
391.97	1200.69
392.16	1146.86
392.36	1252.19
392.55	1254.53
392.75	1102.39
392.94	1135.16
393.13	1214.74
393.33	1135.16
393.52	1144.52
393.71	1364.53
393.91	1359.85
394.10	1203.04
394.29	1308.36
394.49	1261.55
394.68	1254.53
394.88	1291.98
395.07	1336.45
395.26	1324.74
395.46	1245.16
395.65	1324.74
395.84	1329.42
396.04	1460.49
396.23	1413.68
396.42	1376.24
396.62	1411.34
396.81	1380.92
397.00	1401.98
397.19	1476.88
397.39	1427.73
397.58	1455.81
397.77	1425.39
397.97	1547.09
398.16	1563.48
398.35	1523.69
398.55	1521.35
398.74	1486.24
398.93	1519.01
399.12	1617.31
399.32	1551.78
399.51	1582.20
399.70	1696.89
399.90	1636.03
400.09	1661.78
400.28	1626.67
400.47	1607.95
400.67	1568.16
400.86	1715.61
401.05	1666.46
401.24	1696.89
401.44	1732.00
401.63	1722.63
401.82	1804.55
402.01	1689.87
402.21	1776.47
402.40	1832.64
402.59	1776.47
402.78	1764.76
402.97	1753.06
403.17	1827.96
403.36	1907.54
403.55	1954.35
403.74	1923.92
403.93	1998.82
404.13	1935.62
404.32	1982.43
404.51	1837.32
404.70	1933.28
404.89	2050.31
405.09	2083.08
405.28	1998.82
405.47	2012.86
405.66	2062.01
405.85	2108.82
406.05	2069.03
406.24	2059.67
406.43	2155.63
406.62	2080.74
406.81	2202.44
407.00	2160.31
407.20	2057.33
407.39	2143.93
407.58	2132.23
407.77	2221.17
407.96	2183.72
408.15	2263.30
408.34	2230.53
408.54	2207.13
408.73	2377.98
408.92	2282.02
409.11	2380.32
409.30	2483.31
409.49	2445.86
409.68	2452.88
409.87	2373.30
410.07	2506.71
410.26	2441.18
410.45	2504.37
410.64	2495.01
410.83	2551.18
411.02	2731.41
411.21	2647.15
411.40	2555.86
411.59	2644.81
411.78	2693.96
411.98	2677.57
412.17	2708.00
412.36	2740.77
412.55	2773.53
412.74	2850.77
412.93	2960.78
413.12	2827.37
413.31	2995.89
413.50	2911.63
413.69	2965.46
413.88	2972.48
414.07	2995.89
414.26	3098.87
414.45	2923.33
414.64	3049.72
414.83	3070.78
415.02	3169.09
415.22	3232.28
415.41	3199.51
415.60	3208.87
415.79	3246.32
415.98	3339.94
416.17	3325.90
416.36	3253.34
416.55	3398.46
416.74	3290.79
416.93	3438.25
417.12	3510.80
417.31	3613.79
417.50	3510.80
417.69	3618.47
417.88	3574.00
418.07	3618.47
418.26	3805.71
418.45	3669.96
418.64	3763.58
418.83	3805.71
419.02	3763.58
419.21	3815.07
419.39	3878.27
419.58	3702.73
419.77	3625.49
419.96	3880.61
420.15	4028.06
420.34	3749.54
420.53	3819.75
420.72	4058.49
420.91	3974.23
421.10	4011.68
421.29	4072.53
421.48	3985.93
421.67	4079.55
421.86	4058.49
422.05	4060.83
422.24	4142.75
422.43	4074.87
422.61	4161.47
422.80	4243.39
422.99	4128.70
423.18	4065.51
423.37	4086.58
423.56	4124.02
423.75	4109.98
423.94	4095.94
424.13	3852.52
424.32	4002.32
424.50	4217.65
424.69	4304.25
424.88	4271.48
425.07	4093.60
425.26	4187.22
425.45	4168.49
425.64	4334.67
425.83	4142.75
426.01	4269.14
426.20	4168.49
426.39	4318.29
426.58	4208.28
426.77	4344.03
426.96	4341.69
427.15	4339.35
427.33	4390.84
427.52	4365.10
427.71	4472.76
427.90	4435.32
428.09	4528.94
428.28	4432.97
428.46	4624.90
428.65	4489.15
428.84	4636.60
429.03	4550.00
429.22	4444.68
429.40	4461.06
429.59	4753.63
429.78	4613.20
429.97	4444.68
430.16	4622.56
430.34	4777.03
430.53	4755.97
430.72	4826.18
430.91	4660.01
431.10	4755.97
431.28	4826.18
431.47	4865.97
431.66	5071.94
431.85	4788.74
432.03	4980.66
432.22	5111.73
432.41	4882.36
432.60	5043.85
432.79	5013.43
432.97	5022.79
433.16	4978.32
433.35	5067.26
433.54	5060.24
433.72	5266.21
433.91	5125.77
434.10	5179.61
434.28	5247.48
434.47	5116.41
434.66	5172.58
434.85	5320.04
435.03	5359.83
435.22	5364.51
435.41	5558.77
435.59	5364.51
435.78	5518.98
435.97	5472.17
436.16	5467.49
436.34	5556.43
436.53	5488.56
436.72	5659.42
436.90	5483.88
437.09	5626.65
437.28	5411.32
437.46	5628.99
437.65	5778.78
437.84	5799.85
438.02	5689.84
438.21	5738.99
438.40	5682.82
438.58	5863.04
438.77	5820.91
438.96	5865.38
439.14	5947.30
439.33	6017.52
439.52	6108.80
439.70	5998.79
439.89	6146.25
440.08	6218.80
440.26	6125.18
440.45	6209.44
440.63	6464.56
440.82	6537.12
441.01	6406.05
441.19	6621.38
441.38	6595.63
441.57	6544.14
441.75	6633.08
441.94	6590.95
442.12	6640.10
442.31	6843.73
442.50	6789.89
442.68	6682.23
442.87	6869.47
443.05	7000.54
443.24	7110.55
443.43	6967.77
443.61	7082.46
443.80	7178.42
443.98	6963.09
444.17	6820.32
444.35	7218.21
444.54	7066.08
444.73	7143.32
444.91	6942.03
445.10	7112.89
445.28	7155.02
445.47	7023.95
445.65	7232.26
445.84	7002.88
446.02	7166.72
446.21	7108.21
446.39	7166.72
446.58	7389.07
446.77	7286.09
446.95	6995.86
447.14	7265.02
447.32	7220.55
447.51	7274.38
447.69	7194.81
447.88	7225.23
448.06	7339.92
448.25	7234.60
448.43	7335.24
448.62	7377.37
448.80	7386.73
448.99	7363.33
449.17	7447.58
449.36	7412.48
449.54	7384.39
449.73	7770.58
449.91	7534.18
450.10	7597.38
450.28	7801.01
450.46	7625.47
450.65	7667.60
450.83	7801.01
451.02	7625.47
451.20	7786.96
451.39	7915.69
451.57	7564.61
451.76	7700.36
451.94	7929.74
452.13	7995.27
452.31	7957.82
452.49	7740.15
452.68	7908.67
452.86	7903.99
453.05	8161.45
453.23	7899.31
453.42	8091.23
453.60	7733.13
453.78	8135.70
453.97	8051.44
454.15	7866.54
454.34	8203.58
454.52	8322.94
454.70	8133.36
454.89	8409.54
455.07	8278.47
455.26	8386.14
455.44	8589.77
455.62	8339.33
455.81	8699.77
455.99	8542.96
456.17	8561.68
456.36	8652.96
456.54	8805.10
456.73	8704.45
456.91	8910.42
457.09	8730.20
457.28	8992.34
457.46	8636.58
457.64	8973.61
457.83	9109.36
458.01	8905.74
458.19	9114.05
458.38	9085.96
458.56	9027.45
458.74	9107.02
458.93	8994.68
459.11	9085.96
459.29	9142.13
459.48	9001.70
459.66	9004.04
459.84	9139.79
460.03	9455.76
460.21	9364.48
460.39	9254.48
460.57	9263.84
460.76	9352.78
460.94	9579.81
461.12	9430.02
461.31	9423.00
461.49	9699.18
461.67	9362.14
461.85	9837.27
462.04	9661.73
462.22	10396.66
462.40	9966.00
462.59	9664.07
462.77	9755.35
462.95	9797.48
463.13	9874.72
463.32	10076.01
463.50	10174.31
463.68	10019.83
463.86	10078.35
464.05	9820.89
464.23	9881.74
464.41	10085.37
464.59	9837.27
464.78	10092.39
464.96	10047.92
465.14	10101.75
465.32	10384.96
465.50	10396.66
465.69	10375.59
465.87	10410.70
466.05	10501.98
466.23	10366.23
466.41	10431.77
466.60	10600.29
466.78	10406.02
466.96	10546.45
467.14	10333.47
467.32	10361.55
467.51	10782.85
467.69	10532.41
467.87	10766.46
468.05	10740.72
468.23	10595.61
468.41	10635.39
468.60	10731.36
468.78	10822.64
468.96	10654.12
469.14	10836.68
469.32	10857.75
469.50	10691.57
469.69	11084.78
469.87	11328.19
470.05	11393.73
470.23	11227.55
470.41	11332.87
470.59	11241.59
470.77	11063.71
470.95	11459.26
471.14	11524.80
471.32	11309.47
471.50	11740.13
471.68	11438.20
471.86	11541.18
472.04	11822.05
472.22	11840.77
472.40	11903.96
472.58	11852.47
472.77	12037.38
472.95	11934.39
473.13	12521.87
473.31	12156.74
473.49	12056.10
473.67	12079.50
473.85	12358.03
474.03	12346.33
474.21	12535.91
474.39	12556.97
474.57	12552.29
474.75	12894.01
474.93	12833.16
475.12	12781.67
475.30	13048.49
475.48	12952.52
475.66	13116.36
475.84	13020.40
476.02	13076.57
476.20	13111.68
476.38	13327.01
476.56	13610.22
476.74	13617.24
476.92	13783.41
477.10	13816.18
477.28	13942.57
477.46	14029.17
477.64	14265.57
477.82	14218.75
478.00	14490.26
478.18	14721.97
478.36	14668.14
478.54	14600.26
478.72	14691.54
478.90	14895.17
479.08	14993.47
479.26	15192.42
479.44	15246.25
479.62	15126.88
479.80	15559.88
479.98	15555.20
480.16	15836.06
480.34	15653.50
480.52	15941.39
480.70	16140.33
480.88	15896.92
481.06	16222.25
481.24	16114.59
481.41	16353.32
481.59	16592.06
481.77	16554.61
481.95	17006.33
482.13	16814.41
482.31	16849.52
482.49	17069.53
482.67	17439.33
482.85	17495.50
483.03	17593.81
483.21	18129.79
483.39	17928.50
483.57	18017.44
483.74	18146.17
483.92	18085.32
484.10	18462.15
484.28	18768.76
484.46	18693.86
484.64	19033.24
484.82	18761.73
485.00	19168.99
485.18	19515.39
485.35	19971.79
485.53	19779.87
485.71	19616.03
485.89	20269.04
486.07	20130.95
486.25	20058.39
486.43	20517.14
486.61	20486.71
486.78	20467.98
486.96	20624.80
487.14	21308.24
487.32	21282.49
487.50	21762.30
487.68	21528.25
487.85	21668.68
488.03	22057.21
488.21	22321.69
488.39	22237.43
488.57	22359.14
488.75	22696.17
488.92	22881.08
489.10	22911.50
489.28	23075.34
489.46	23466.21
489.64	23536.43
489.81	23754.10
489.99	23950.70
490.17	23772.82
490.35	24521.79
490.53	24147.31
490.70	24720.74
490.88	24741.80
491.06	24999.26
491.24	24917.34
491.41	25017.99
491.59	25242.68
491.77	25429.92
491.95	25654.61
492.13	25860.58
492.30	25965.90
492.48	26031.44
492.66	26464.44
492.84	26335.71
493.01	26485.50
493.19	26799.13
493.37	27061.27
493.54	26895.10
493.72	26955.95
493.90	27269.58
494.08	27400.65
494.25	27566.83
494.43	27505.98
494.61	28006.85
494.79	28322.82
494.96	28364.95
495.14	28180.05
495.32	28547.51
495.49	28540.49
495.67	28800.29
495.85	28769.86
496.02	29317.55
496.20	29127.97
496.38	29364.36
496.55	29371.38
496.73	30089.93
496.91	29673.31
497.09	30033.75
497.26	30260.79
497.44	29848.85
497.62	30157.80
497.79	30941.88
497.97	30651.66
498.14	30932.52
498.32	31094.02
498.50	31335.09
498.67	31697.88
498.85	31356.16
499.03	31641.70
499.20	31901.50
499.38	32109.81
499.56	32196.41
499.73	32411.74
499.91	32156.62
500.08	32741.75
500.26	32598.98
500.44	32598.98
500.61	32737.07
500.79	32573.24
500.97	32921.98
501.14	33521.15
501.32	33104.54
501.49	33408.81
501.67	33223.90
501.84	33549.24
502.02	33703.71
502.20	34340.34
502.37	33998.62
502.55	34110.97
502.72	34115.65
502.90	34658.65
503.07	34424.60
503.25	34504.18
503.43	34597.80
503.60	35005.05
503.78	34909.09
503.95	35019.10
504.13	35061.22
504.30	34967.60
504.48	34656.31
504.65	35288.26
504.83	35690.83
505.01	35639.34
505.18	35473.16
505.36	36062.97
505.53	35849.99
505.71	35880.41
505.88	36493.63
506.06	35981.06
506.23	36704.28
506.41	35988.08
506.58	36732.37
506.76	36779.18
506.93	36861.10
507.11	36692.58
507.28	36816.63
507.46	37010.89
507.63	37256.65
507.81	37280.05
507.98	37376.01
508.16	37249.63
508.33	37411.12
508.50	37956.47
508.68	37837.10
508.85	38466.70
509.03	38054.77
509.20	38129.67
509.38	38759.27
509.55	38768.63
509.73	39056.52
509.90	38689.06
510.08	38525.22
510.25	38948.85
510.42	38824.81
510.60	39335.04
510.77	39541.01
510.95	39639.31
511.12	39166.52
511.30	39782.09
511.47	39725.91
511.64	40105.08
511.82	40114.44
511.99	39952.94
512.17	40669.15
512.34	39854.64
512.51	40470.20
512.69	40957.03
512.86	40645.74
513.04	40697.24
513.21	41013.21
513.38	41141.94
513.56	41198.11
513.73	40823.62
513.90	41551.53
514.08	40828.30
514.25	41532.81
514.43	41731.75
514.60	41855.80
514.77	41928.36
514.95	41855.80
515.12	41682.60
515.29	41841.76
515.47	41862.82
515.64	42045.38
515.81	41804.31
515.99	42611.79
516.16	42637.54
516.33	42873.93
516.51	43005.00
516.68	42546.26
516.85	42700.73
517.03	42796.70
517.20	43337.36
517.37	43229.69
517.54	43283.53
517.72	43480.13
517.89	43157.14
518.06	43283.53
518.24	43316.29
518.41	43232.04
518.58	43707.16
518.75	43676.74
518.93	44037.18
519.10	44142.50
519.27	44376.56
519.45	43772.70
519.62	44037.18
519.79	44318.04
519.96	44402.30
520.14	44737.00
520.31	44435.07
520.48	44486.56
520.65	44491.24
520.83	44907.86
521.00	44926.58
521.17	44772.11
521.34	45069.36
521.52	45081.06
521.69	45359.58
521.86	45326.81
522.03	45427.46
522.20	45614.70
522.38	46021.95
522.55	46033.66
522.72	45736.41
522.89	45916.63
523.07	46157.70
523.24	46157.70
523.41	46415.16
523.58	46052.38
523.75	46494.74
523.92	45879.18
524.10	46604.75
524.27	46656.24
524.44	46607.09
524.61	46993.28
524.78	46979.23
524.96	46806.03
525.13	46658.58
525.30	47054.13
525.47	47271.80
525.64	46738.16
525.81	47131.37
525.98	47119.66
526.16	47461.38
526.33	47351.38
526.50	47777.36
526.67	47543.30
526.84	47503.51
527.01	47529.26
527.18	47445.00
527.36	47800.76
527.53	47990.34
527.70	48364.83
527.87	48053.54
528.04	48353.13
528.21	48158.86
528.38	48098.01
528.55	48350.79
528.72	48472.49
528.89	48657.40
529.07	48760.38
529.24	48325.04
529.41	48912.52
529.58	48322.70
529.75	48058.22
529.92	48767.40
530.09	48886.77
530.26	49151.25
530.43	48861.02
530.60	48395.26
530.77	48804.85
530.94	49336.15
531.11	48781.45
531.28	48631.65
531.46	49008.48
531.63	49455.52
531.80	49165.29
531.97	49673.19
532.14	49612.34
532.31	49586.59
532.48	49214.44
532.65	49570.21
532.82	49387.64
532.99	49862.77
533.16	49792.56
533.33	49963.42
533.50	50309.82
533.67	50492.38
533.84	49766.81
534.01	49909.58
534.18	49677.87
534.35	50543.87
534.52	50176.40
534.69	50534.51
534.86	50522.80
535.03	50557.91
535.20	50567.27
535.37	50471.31
535.54	50635.15
535.71	50560.25
535.88	50731.11
536.05	50901.97
536.22	50635.15
536.38	51093.89
536.55	50576.64
536.72	51068.15
536.89	50684.30
537.06	50815.37
537.23	50806.01
537.40	51201.56
537.57	51480.08
537.74	51026.02
537.91	51456.68
538.08	51510.51
538.25	51316.25
538.42	51257.73
538.59	51597.11
538.75	51484.76
538.92	51505.83
539.09	51681.37
539.26	51674.35
539.43	51709.46
539.60	51922.44
539.77	51894.36
539.94	51870.95
540.11	51585.41
540.28	51995.00
540.44	51859.25
540.61	51746.90
540.78	51896.70
540.95	52161.18
541.12	52041.81
541.29	52083.94
541.46	52055.85
541.62	51861.59
541.79	52507.58
541.96	51854.57
542.13	52285.23
542.30	52378.85
542.47	52390.55
542.63	52275.87
542.80	52388.21
542.97	52552.05
543.14	52704.18
543.31	52971.00
543.48	52928.87
543.64	52774.40
543.81	53155.91
543.98	52978.03
544.15	52971.00
544.32	53324.43
544.48	53247.19
544.65	53130.16
544.82	53034.20
544.99	52853.98
545.16	53286.98
545.32	52956.96
545.49	53509.33
545.66	53528.05
545.83	53511.67
546.00	53689.55
546.16	53371.24
546.33	53045.90
546.50	52903.13
546.67	53343.15
546.83	53151.23
547.00	53544.44
547.17	53551.46
547.34	53586.57
547.50	53731.68
547.67	53785.51
547.84	53766.79
548.00	53895.52
548.17	54113.19
548.34	53766.79
548.51	54239.57
548.67	54003.18
548.84	54164.68
549.01	53872.11
549.18	53797.21
549.34	53865.09
549.51	53947.01
549.68	54024.25
549.84	53944.67
550.01	54527.46
550.18	53984.46
550.34	53939.99
550.51	54574.27
550.68	54375.33
550.84	53853.39
551.01	54337.88
551.18	54298.09
551.34	54167.02
551.51	54082.76
551.68	54487.67
551.84	54459.58
552.01	54326.17
552.18	54183.40
552.34	54550.87
552.51	54784.92
552.68	54202.13
552.84	54562.57
553.01	54604.70
553.18	54543.84
553.34	54609.38
553.51	54930.03
553.67	54749.81
553.84	55042.38
554.01	54892.58
554.17	54700.66
554.34	54707.68
554.51	54782.58
554.67	55107.91
554.84	54855.14
555.00	54918.33
555.17	55124.30
555.33	55143.02
555.50	54993.23
555.67	55243.66
555.83	55161.75
556.00	54925.35
556.16	55089.19
556.33	55070.46
556.50	55126.64
556.66	55262.39
556.83	55065.78
556.99	55423.89
557.16	55409.84
557.32	55356.01
557.49	55559.64
557.65	55194.51
557.82	54979.18
557.98	55306.86
558.15	55253.03
558.32	55547.93
558.48	55559.64
558.65	55620.49
558.81	55554.96
558.98	55157.06
559.14	55526.87
559.31	55620.49
559.47	55636.87
559.64	55554.96
559.80	55887.31
559.97	55716.45
560.13	55671.98
560.30	55576.02
560.46	55634.53
560.63	55679.00
560.79	55779.65
560.96	55793.69
561.12	55716.45
561.29	55693.05
561.45	55767.94
561.61	55913.06
561.78	55891.99
561.94	56090.94
562.11	55955.19
562.27	55877.95
562.44	55578.36
562.60	55852.20
562.77	55824.12
562.93	55908.38
563.10	56222.01
563.26	55838.16
563.42	56207.97
563.59	56030.08
563.75	55927.10
563.92	56100.30
564.08	55976.25
564.24	56189.24
564.41	55952.85
564.57	56074.55
564.74	56112.00
564.90	56121.37
565.07	56079.24
565.23	56371.80
565.39	56222.01
565.56	56203.28
565.72	56107.32
565.88	56069.87
566.05	56119.02
566.21	56193.92
566.38	56306.27
566.54	56196.26
566.70	56542.66
566.87	56381.16
567.03	55990.30
567.19	56685.43
567.36	56322.65
567.52	56072.21
567.68	56355.42
567.85	56086.26
568.01	56025.40
568.17	56310.95
568.34	56404.57
568.50	56683.09
568.66	56324.99
568.83	56327.33
568.99	56329.67
569.15	56217.33
569.32	56523.94
569.48	56339.04
569.64	56512.23
569.81	56453.72
569.97	56261.80
570.13	56580.11
570.30	56233.71
570.46	56725.22
570.62	56486.49
570.78	56353.08
570.95	56285.20
571.11	56519.26
571.27	56264.14
571.43	56458.40
571.60	56598.83
571.76	56439.68
571.92	56748.63
572.09	56647.99
572.25	56516.92
572.41	56580.11
572.57	56736.93
572.74	56734.59
572.90	56624.58
573.06	56378.82
573.22	56530.96
573.38	56657.35
573.55	56472.45
573.71	56992.04
573.87	56568.41
574.03	56713.52
574.20	56961.62
574.36	56715.86
574.52	56591.81
574.68	56306.27
574.84	56659.69
575.01	56563.73
575.17	56825.87
575.33	56865.66
575.49	56655.01
575.65	57064.60
575.82	56835.23
575.98	56893.74
576.14	56940.55
576.30	56919.49
576.46	56781.40
576.62	56460.74
576.79	56793.10
576.95	56893.74
577.11	56966.30
577.27	57045.88
577.43	56985.02
577.59	56727.56
577.75	56818.84
577.92	56701.82
578.08	56729.90
578.24	56645.65
578.40	56605.86
578.56	56837.57
578.72	56650.33
578.88	57095.03
579.04	56996.73
579.21	56942.89
579.37	56875.02
579.53	56863.32
579.69	56685.43
579.85	56942.89
580.01	56910.13
580.17	56746.29
580.33	56790.76
580.49	57284.61
580.65	56978.00
580.82	57293.97
580.98	56825.87
581.14	56765.01
581.30	57176.95
581.46	56708.84
581.62	56982.68
581.78	56708.84
581.94	57186.31
582.10	56842.25
582.26	57102.05
582.42	57062.26
582.58	57022.47
582.74	57006.09
582.90	57080.98
583.06	57057.58
583.22	56935.87
583.38	56994.39
583.54	56947.57
583.70	57151.20
583.86	56589.47
584.02	56896.08
584.18	57029.49
584.34	56952.26
584.50	57137.16
584.66	57123.11
584.82	56818.84
584.98	57158.22
585.14	56647.99
585.30	56830.55
585.46	56919.49
585.62	56638.62
585.78	57090.35
585.94	56804.80
586.10	57083.33
586.26	56882.04
586.42	57066.94
586.58	57249.50
586.74	57137.16
586.90	57083.33
587.06	56762.67
587.22	56912.47
587.38	56879.70
587.54	57303.34
587.70	57279.93
587.86	57155.88
588.02	57090.35
588.18	57249.50
588.34	57195.67
588.49	57127.80
588.65	57247.16
588.81	57235.46
588.97	57233.12
589.13	57073.96
589.29	57006.09
589.45	57165.24
589.61	57333.76
