SpectraSuite Data File
++++++++++++++++++++++++++++++++++++
Date: Fri Oct 04 11:48:39 GMT-05:00 2013
User: price-jones
Dark Spectrum Present: No
Reference Spectrum Present: No
Number of Sampled Component Spectra: 1
Spectrometers: USB2+H05261
Integration Time (usec): 100000 (USB2+H05261)
Spectra Averaged: 1 (USB2+H05261)
Boxcar Smoothing: 0 (USB2+H05261)
Correct for Electrical Dark: No (USB2+H05261)
Strobe/Lamp Enabled: No (USB2+H05261)
Correct for Detector Non-linearity: No (USB2+H05261)
Correct for Stray Light: No (USB2+H05261)
Number of Pixels in Processed Spectrum: 2048
>>>>>Begin Processed Spectral Data<<<<<
365.73	11.70
365.92	11.70
366.12	11.70
366.32	0.00
366.52	0.00
366.72	0.00
366.91	0.00
367.11	0.00
367.31	0.00
367.51	0.00
367.70	7.02
367.90	0.00
368.10	0.00
368.30	0.00
368.49	0.00
368.69	0.00
368.89	0.00
369.09	0.00
369.28	0.00
369.48	0.00
369.68	0.00
369.87	0.00
370.07	0.00
370.27	49.15
370.47	81.92
370.66	395.55
370.86	512.58
371.06	465.77
371.25	566.41
371.45	568.75
371.65	615.56
371.84	580.45
372.04	557.05
372.24	493.85
372.44	587.47
372.63	603.86
372.83	683.44
373.03	592.16
373.22	643.65
373.42	653.01
373.62	688.12
373.81	772.38
374.01	723.23
374.21	718.54
374.40	702.16
374.60	755.99
374.79	730.25
374.99	741.95
375.19	746.63
375.38	844.93
375.58	713.86
375.78	821.53
375.97	826.21
376.17	851.96
376.37	793.44
376.56	842.59
376.76	748.97
376.95	765.36
377.15	795.78
377.35	842.59
377.54	786.42
377.74	781.74
377.93	854.30
378.13	800.46
378.33	842.59
378.52	870.68
378.72	842.59
378.91	936.21
379.11	835.57
379.31	835.57
379.50	793.44
379.70	922.17
379.89	1020.47
380.09	858.98
380.28	940.90
380.48	968.98
380.68	978.34
380.87	908.13
381.07	1004.09
381.26	1008.77
381.46	966.64
381.65	1015.79
381.85	1029.84
382.04	1006.43
382.24	1114.10
382.43	1081.33
382.63	1041.54
382.83	1004.09
383.02	1111.75
383.22	1029.84
383.41	987.71
383.61	1139.84
383.80	1146.86
384.00	1097.71
384.19	1109.41
384.39	1146.86
384.58	1210.06
384.78	1104.73
384.97	1137.50
385.17	1132.82
385.36	1116.44
385.56	1050.90
385.75	1090.69
385.95	1144.52
386.14	1233.46
386.34	1102.39
386.53	1240.48
386.72	1151.54
386.92	1156.22
387.11	1238.14
387.31	1228.78
387.50	1184.31
387.70	1186.65
387.89	1184.31
388.09	1228.78
388.28	1219.42
388.48	1256.87
388.67	1221.76
388.86	1200.69
389.06	1247.51
389.25	1324.74
389.45	1322.40
389.64	1465.18
389.84	1385.60
390.03	1451.13
390.22	1481.56
390.42	1289.64
390.61	1434.75
390.81	1441.77
391.00	1359.85
391.19	1465.18
391.39	1497.94
391.58	1350.49
391.78	1448.79
391.97	1497.94
392.16	1444.11
392.36	1500.28
392.55	1554.12
392.75	1577.52
392.94	1497.94
393.13	1472.20
393.33	1593.90
393.52	1596.25
393.71	1732.00
393.91	1636.03
394.10	1636.03
394.29	1617.31
394.49	1577.52
394.68	1699.23
394.88	1717.95
395.07	1753.06
395.26	1680.50
395.46	1689.87
395.65	1741.36
395.84	1788.17
396.04	1844.34
396.23	1727.32
396.42	1842.00
396.62	1940.30
396.81	1872.43
397.00	1891.15
397.19	1834.98
397.39	1959.03
397.58	2008.18
397.77	1902.86
397.97	1912.22
398.16	1963.71
398.35	1989.46
398.55	2045.63
398.74	2139.25
398.93	2080.74
399.12	2015.20
399.32	1947.33
399.51	2139.25
399.70	2141.59
399.90	2054.99
400.09	2179.04
400.28	2232.87
400.47	2157.97
400.67	2284.36
400.86	2216.49
401.05	2289.04
401.24	2216.49
401.44	2305.43
401.63	2225.85
401.82	2169.68
402.01	2321.81
402.21	2228.19
402.40	2420.11
402.59	2335.85
402.78	2403.73
402.97	2296.07
403.17	2385.01
403.36	2462.24
403.55	2546.50
403.74	2420.11
403.93	2490.33
404.13	2523.10
404.32	2590.97
404.51	2583.95
404.70	2698.64
404.89	2621.40
405.09	2612.04
405.28	2654.17
405.47	2733.75
405.66	2644.81
405.85	2750.13
406.05	2700.98
406.24	2803.96
406.43	2902.26
406.62	2913.97
406.81	2946.73
407.00	2883.54
407.20	2930.35
407.39	2942.05
407.58	3028.65
407.77	2991.20
407.96	3082.49
408.15	3042.70
408.34	3063.76
408.54	3105.89
408.73	3033.33
408.92	3049.72
409.11	3243.98
409.30	3239.30
409.49	3218.24
409.68	3145.68
409.87	3234.62
410.07	3365.69
410.26	3290.79
410.45	3253.34
410.64	3389.10
410.83	3225.26
411.02	3234.62
411.21	3527.19
411.40	3356.33
411.59	3531.87
411.78	3599.74
411.98	3529.53
412.17	3660.60
412.36	3702.73
412.55	3644.21
412.74	3892.31
412.93	3768.26
413.12	3777.62
413.31	4074.87
413.50	3861.88
413.69	3873.59
413.88	4070.19
414.07	3976.57
414.26	4035.08
414.45	4044.45
414.64	4093.60
414.83	4177.86
415.02	4126.36
415.22	4198.92
415.41	4498.51
415.60	4442.34
415.79	4271.48
415.98	4545.32
416.17	4367.44
416.36	4358.08
416.55	4571.07
416.74	4528.94
416.93	4615.54
417.12	4585.11
417.31	4603.83
417.50	4709.16
417.69	4887.04
417.88	4798.10
418.07	4837.89
418.26	4809.80
418.45	4844.91
418.64	5022.79
418.83	4858.95
419.02	4952.57
419.21	4922.15
419.39	5177.26
419.58	4821.50
419.77	4903.42
419.96	5128.11
420.15	5252.16
420.34	5188.97
420.53	5167.90
420.72	5352.81
420.91	5102.37
421.10	5327.06
421.29	5458.13
421.48	5160.88
421.67	5418.34
421.86	5331.74
422.05	5448.77
422.24	5385.57
422.43	5432.38
422.61	5462.81
422.80	5474.51
422.99	5584.52
423.18	5572.82
423.37	5682.82
423.56	5605.58
423.75	5425.36
423.94	5509.62
424.13	5207.69
424.32	5376.21
424.50	5694.52
424.69	5591.54
424.88	5680.48
425.07	5420.68
425.26	5614.95
425.45	5474.51
425.64	5558.77
425.83	5652.39
426.01	5481.53
426.20	5596.22
426.39	5731.97
426.58	5696.86
426.77	5764.74
426.96	5692.18
427.15	5774.10
427.33	5738.99
427.52	5708.57
427.71	5907.51
427.90	5975.39
428.09	5921.56
428.28	5921.56
428.46	6106.46
428.65	6200.08
428.84	6310.08
429.03	6242.21
429.22	6029.22
429.40	6179.01
429.59	6291.36
429.78	6111.14
429.97	6024.54
430.16	6183.70
430.34	6286.68
430.53	6452.86
430.72	6473.92
430.91	6438.81
431.10	6267.95
431.28	6530.09
431.47	6469.24
431.66	6703.29
431.85	6448.18
432.03	6555.84
432.22	6825.00
432.41	6710.32
432.60	6717.34
432.79	6586.27
432.97	6672.87
433.16	6745.42
433.35	6855.43
433.54	6991.18
433.72	7033.31
433.91	6916.28
434.10	7061.40
434.28	6836.70
434.47	6871.81
434.66	6979.48
434.85	7206.51
435.03	7183.10
435.22	7014.59
435.41	7297.79
435.59	7302.47
435.78	7199.49
435.97	7253.32
436.16	7372.69
436.34	7356.30
436.53	7349.28
436.72	7721.43
436.90	7358.64
437.09	7653.55
437.28	7370.35
437.46	7513.12
437.65	7581.00
437.84	7735.47
438.02	7733.13
438.21	7688.66
438.40	7688.66
438.58	7875.90
438.77	8112.30
438.96	8002.29
439.14	8030.38
439.33	8021.02
439.52	8046.76
439.70	8257.41
439.89	8168.47
440.08	8292.52
440.26	8182.51
440.45	8439.97
440.63	8472.74
440.82	8669.34
441.01	8713.81
441.19	8437.63
441.38	8748.92
441.57	8833.18
441.75	8828.50
441.94	9153.84
442.12	9102.34
442.31	9317.67
442.50	9195.96
442.68	9050.85
442.87	9167.88
443.05	9132.77
443.24	9460.45
443.43	9504.92
443.61	9291.93
443.80	9458.10
443.98	9273.20
444.17	8978.30
444.35	9324.69
444.54	9401.93
444.73	9348.10
444.91	9472.15
445.10	9547.05
445.28	9717.90
445.47	9408.95
445.65	9584.49
445.84	9675.77
446.02	9528.32
446.21	9600.88
446.39	9495.55
446.58	9701.52
446.77	9823.23
446.95	9453.42
447.14	9731.95
447.32	9818.55
447.51	9858.34
447.69	9736.63
447.88	9755.35
448.06	9863.02
448.25	9699.18
448.43	9729.61
448.62	9771.74
448.80	9951.96
448.99	9795.14
449.17	9841.95
449.36	9886.42
449.54	10153.24
449.73	10200.05
449.91	10422.41
450.10	10267.93
450.28	10305.38
450.46	10377.94
450.65	10368.57
450.83	10214.10
451.02	10237.50
451.20	10399.00
451.39	10525.39
451.57	10438.79
451.76	10401.34
451.94	10368.57
452.13	10661.14
452.31	10658.80
452.49	10370.91
452.68	10888.17
452.86	10740.72
453.05	10693.91
453.23	10888.17
453.42	10644.76
453.60	10757.10
453.78	10808.59
453.97	10979.45
454.15	10836.68
454.34	10860.09
454.52	11157.33
454.70	10995.84
454.89	11204.14
455.07	11096.48
455.26	11201.80
455.44	11211.17
455.62	11290.74
455.81	11391.39
455.99	11431.18
456.17	11477.99
456.36	11524.80
456.54	11660.55
456.73	11646.51
456.91	11875.88
457.09	12067.80
457.28	12044.40
457.46	11796.30
457.64	12067.80
457.83	12170.79
458.01	12025.67
458.19	12400.16
458.38	12149.72
458.56	12538.25
458.74	12126.32
458.93	12255.04
459.11	12411.86
459.29	12355.69
459.48	12259.73
459.66	12334.62
459.84	12503.14
460.03	12748.90
460.21	12449.31
460.39	12713.79
460.57	12437.61
460.76	12924.44
460.94	13067.21
461.12	12592.08
461.31	12793.37
461.49	12833.16
461.67	12744.22
461.85	13263.82
462.04	13170.19
462.22	13434.68
462.40	13256.79
462.59	13071.89
462.77	13174.88
462.95	13336.37
463.13	13242.75
463.32	13345.73
463.50	13448.72
463.68	13760.01
463.86	13596.17
464.05	13502.55
464.23	13614.90
464.41	13788.10
464.59	13544.68
464.78	14122.79
464.96	13523.62
465.14	13673.41
465.32	13902.78
465.50	13947.25
465.69	13853.63
465.87	13848.95
466.05	13914.48
466.23	14204.71
466.41	13944.91
466.60	14508.98
466.78	13935.55
466.96	14171.94
467.14	14061.94
467.32	14106.41
467.51	14450.47
467.69	13982.36
467.87	14483.24
468.05	14476.21
468.23	14317.06
468.41	14036.19
468.60	14417.70
468.78	14733.67
468.96	14427.06
469.14	14888.15
469.32	15243.91
469.50	14576.86
469.69	15131.56
469.87	15330.51
470.05	15124.54
470.23	14965.39
470.41	15051.99
470.59	15323.49
470.77	15159.65
470.95	15400.72
471.14	15616.05
471.32	15241.57
471.50	15695.63
471.68	15613.71
471.86	15655.84
472.04	15840.75
472.22	15955.43
472.40	15496.69
472.58	16255.02
472.77	16491.41
472.95	16037.35
473.13	16304.17
473.31	16058.42
473.49	16334.60
473.67	16306.51
473.85	16339.28
474.03	17027.40
474.21	16931.44
474.39	16837.81
474.57	17102.29
474.75	16847.18
474.93	17408.90
475.12	17193.58
475.30	17607.85
475.48	17413.59
475.66	17373.80
475.84	17764.67
476.02	18050.21
476.20	17832.54
476.38	17928.50
476.56	18377.89
476.74	18375.55
476.92	18499.59
477.10	18635.35
477.28	18785.14
477.46	18888.12
477.64	18707.90
477.82	19075.37
478.00	19536.45
478.18	19623.05
478.36	19520.07
478.54	19707.31
478.72	19669.86
478.90	20095.84
479.08	20290.10
479.26	20212.87
479.44	20610.76
479.62	20332.23
479.80	20802.68
479.98	21188.87
480.16	21050.78
480.34	21003.97
480.52	21570.38
480.70	21654.64
480.88	21486.12
481.06	21453.35
481.24	21610.17
481.41	22143.81
481.59	22394.25
481.77	22565.10
481.95	22441.06
482.13	23049.60
482.31	22970.02
482.49	23187.69
482.67	23391.31
482.85	23527.06
483.03	24093.47
483.21	24559.24
483.39	24133.26
483.57	24465.62
483.74	24662.22
483.92	24755.85
484.10	24702.01
484.28	25458.01
484.46	25397.15
484.64	25750.57
484.82	25532.90
485.00	25638.23
485.18	26148.46
485.35	26745.30
485.53	26757.00
485.71	26745.30
485.89	27087.02
486.07	26974.67
486.25	27599.60
486.43	27208.73
486.61	27559.81
486.78	28107.49
486.96	27845.35
487.14	28238.56
487.32	28147.28
487.50	28947.75
487.68	28748.80
487.85	29216.91
488.03	29617.14
488.21	30120.35
488.39	30169.51
488.57	30197.59
488.75	30293.55
488.92	30831.88
489.10	30890.39
489.28	31124.44
489.46	31775.11
489.64	31187.64
489.81	32353.23
489.99	32079.38
490.17	32606.00
490.35	32818.99
490.53	32458.55
490.70	33146.67
490.88	33027.30
491.06	33633.50
491.24	33144.33
491.41	33631.16
491.59	33823.08
491.77	34157.78
491.95	34532.26
492.13	34319.28
492.30	34836.53
492.48	34976.97
492.66	34916.11
492.84	35070.59
493.01	35819.56
493.19	35285.92
493.37	35938.93
493.54	36095.74
493.72	36304.05
493.90	36123.83
494.08	36598.96
494.25	37085.79
494.43	37120.90
494.61	37647.52
494.79	37649.86
494.96	37722.41
495.14	38213.93
495.32	38403.51
495.49	38190.52
495.67	38817.78
495.85	38955.88
496.02	39611.23
496.20	39386.54
496.38	39096.31
496.55	39459.09
496.73	40325.09
496.91	39746.98
497.09	40177.64
497.26	40598.93
497.44	40435.10
497.62	40854.05
497.79	41441.53
497.97	40886.82
498.14	41642.81
498.32	41799.63
498.50	41888.57
498.67	42003.25
498.85	41713.03
499.03	41872.18
499.20	42274.76
499.38	42415.19
499.56	42787.33
499.73	42876.27
499.91	43122.03
500.08	43161.82
500.26	43150.12
500.44	43517.58
500.61	43796.10
500.79	43938.88
500.97	43805.47
501.14	44446.77
501.32	44725.30
501.49	44247.83
501.67	44758.06
501.84	44790.83
502.02	44863.39
502.20	44964.03
502.37	45130.21
502.55	45294.05
502.72	45581.93
502.90	45689.60
503.07	45640.45
503.25	46050.04
503.43	45925.99
503.60	46246.65
503.78	46459.63
503.95	46225.58
504.13	46541.55
504.30	46398.78
504.48	45965.78
504.65	47044.77
504.83	47068.17
505.01	47775.02
505.18	47285.84
505.36	47950.56
505.53	47529.26
505.71	47468.40
505.88	48053.54
506.06	47185.20
506.23	48392.92
506.41	48130.78
506.58	48460.79
506.76	48308.66
506.93	48250.14
507.11	48303.98
507.28	48739.32
507.46	48435.05
507.63	49279.98
507.81	49177.00
507.98	48587.18
508.16	49186.36
508.33	49537.44
508.50	49151.25
508.68	50127.25
508.85	50082.78
509.03	49748.09
509.20	49918.95
509.38	50539.19
509.55	49989.16
509.73	50223.22
509.90	50335.56
510.08	50604.72
510.25	50630.47
510.42	50433.86
510.60	50967.51
510.77	51075.17
510.95	51138.36
511.12	51098.58
511.30	50880.91
511.47	51531.57
511.64	51323.27
511.82	51503.49
511.99	51629.88
512.17	51547.96
512.34	51611.15
512.51	51817.12
512.69	51554.98
512.86	51976.28
513.04	52315.65
513.21	52322.68
513.38	52404.59
513.56	52435.02
513.73	52374.17
513.90	52561.41
514.08	52416.30
514.25	52523.96
514.43	52844.62
514.60	52872.70
514.77	52861.00
514.95	52933.56
515.12	52992.07
515.29	52725.25
515.47	53312.72
515.64	53408.68
515.81	53394.64
515.99	53577.20
516.16	53762.11
516.33	53694.23
516.51	53844.02
516.68	53593.59
516.85	53722.32
517.03	53862.75
517.20	54108.50
517.37	54218.51
517.54	54045.31
517.72	54211.49
517.89	54033.61
518.06	54127.23
518.24	54239.57
518.41	54183.40
518.58	54438.52
518.75	54405.75
518.93	54913.65
519.10	54471.29
519.27	54953.44
519.45	54766.20
519.62	54698.32
519.79	54820.03
519.96	54848.11
520.14	54831.73
520.31	54948.76
520.48	55365.37
520.65	54988.55
520.83	55206.22
521.00	55487.08
521.17	55496.44
521.34	55412.18
521.52	55320.90
521.69	55711.77
521.86	55819.44
522.03	55934.12
522.20	55980.93
522.38	55987.95
522.55	55917.74
522.72	56093.28
522.89	56079.24
523.07	56404.57
523.24	56083.92
523.41	56427.98
523.58	56095.62
523.75	56261.80
523.92	56296.91
524.10	56364.78
524.27	56547.34
524.44	56683.09
524.61	56865.66
524.78	56851.61
524.96	56830.55
525.13	56683.09
525.30	56748.63
525.47	56753.31
525.64	56816.50
525.81	56982.68
525.98	57340.78
526.16	57158.22
526.33	57265.89
526.50	57439.09
526.67	57148.86
526.84	57148.86
527.01	57155.88
527.18	57525.69
527.36	57598.24
527.53	57675.48
527.70	57736.34
527.87	57652.08
528.04	57649.74
528.21	57579.52
528.38	57652.08
528.55	57799.53
528.72	57855.70
528.89	57911.88
529.07	57881.45
529.24	57895.49
529.41	57872.09
529.58	57743.36
529.75	57928.26
529.92	58056.99
530.09	58017.20
530.26	58262.96
530.43	58244.23
530.60	58204.44
530.77	58185.72
530.94	58433.81
531.11	58356.58
531.28	58272.32
531.46	58394.03
531.63	58511.05
531.80	58370.62
531.97	58560.20
532.14	58534.46
532.31	58354.24
532.48	58607.01
532.65	58618.72
532.82	58667.87
532.99	58684.25
533.16	58646.80
533.33	58981.50
533.50	59159.38
533.67	59138.32
533.84	58815.32
534.01	58714.68
534.18	58890.22
534.35	59086.82
534.52	58995.54
534.69	58969.80
534.86	59332.58
535.03	59292.79
535.20	59257.68
535.37	59351.30
535.54	59442.59
535.71	59147.68
535.88	59295.13
536.05	59414.50
536.22	59512.80
536.38	59756.22
536.55	59559.61
536.72	59662.60
536.89	59510.46
537.06	59721.11
537.23	59608.76
537.40	59517.48
537.57	59604.08
537.74	59917.71
537.91	59915.37
538.08	60016.02
538.25	59777.28
538.42	59898.99
538.59	60067.51
538.75	59709.41
538.92	59941.12
539.09	60233.69
539.26	60013.68
539.43	60135.38
539.60	60278.16
539.77	60046.44
539.94	60322.63
540.11	60339.01
540.28	60165.81
540.44	60168.15
540.61	60060.49
540.78	59976.23
540.95	60420.93
541.12	60308.58
541.29	60189.22
541.46	60292.20
541.62	60236.03
541.79	60346.03
541.96	60252.41
542.13	60381.14
542.30	60575.40
542.47	60846.91
542.63	60678.39
542.80	60683.07
542.97	60921.80
543.14	61045.85
543.31	60889.04
543.48	60900.74
543.64	61197.99
543.81	61127.77
543.98	61125.43
544.15	61197.99
544.32	61247.14
544.48	61380.55
544.65	61066.92
544.82	61130.11
544.99	60933.51
545.16	61415.66
545.32	61090.32
545.49	61406.30
545.66	61502.26
545.83	61525.66
546.00	61570.13
546.16	61354.80
546.33	61317.35
546.50	60989.68
546.67	61439.06
546.83	61319.70
547.00	61492.89
547.17	61450.77
547.34	61612.26
547.50	61645.03
547.67	62059.30
547.84	61623.96
548.00	61680.14
548.17	61914.19
548.34	61771.42
548.51	61783.12
548.67	61956.32
548.84	61806.53
549.01	61853.34
549.18	61843.98
549.34	61813.55
549.51	61853.34
549.68	61839.29
549.84	61846.32
550.01	62063.99
550.18	61958.66
550.34	62237.19
550.51	62227.82
550.68	61984.41
550.84	61935.26
551.01	62159.95
551.18	62129.52
551.34	62042.92
551.51	62183.35
551.68	62162.29
551.84	62248.89
552.01	61968.02
552.18	62328.47
552.34	62419.75
552.51	62344.85
552.68	62349.53
552.84	62244.21
553.01	62471.24
553.18	62571.88
553.34	62340.17
553.51	62501.67
553.67	62606.99
553.84	62628.05
554.01	62719.34
554.17	62426.77
554.34	62513.37
554.51	62506.35
554.67	62672.52
554.84	62688.91
555.00	62724.02
555.17	62534.43
555.33	62667.84
555.50	62611.67
555.67	62698.27
555.83	62728.70
556.00	62791.89
556.16	63007.22
556.33	62770.83
556.50	62677.21
556.66	62841.04
556.83	62831.68
556.99	63119.57
557.16	63032.97
557.32	63093.82
557.49	63178.08
557.65	62894.88
557.82	62953.39
557.98	63140.63
558.15	62927.64
558.32	63068.08
558.48	62995.52
558.65	63224.89
558.81	63285.75
558.98	63105.52
559.14	63032.97
559.31	63114.89
559.47	63194.46
559.64	63330.22
559.80	63299.79
559.97	63367.66
560.13	63260.00
560.30	63372.34
560.46	63440.22
560.63	63262.34
560.79	63468.31
560.96	63339.58
561.12	63309.15
561.29	63264.68
561.45	63370.00
561.61	63370.00
561.78	63472.99
561.94	63384.05
562.11	63531.50
562.27	63461.29
562.44	63309.15
562.60	63393.41
562.77	63458.94
562.93	63250.64
563.10	63648.53
563.26	63533.84
563.42	63739.81
563.59	63557.25
563.75	63580.65
563.92	63697.68
564.08	63398.09
564.24	63578.31
564.41	63210.85
564.57	63220.21
564.74	63573.63
564.90	63721.08
565.07	63777.26
565.23	63831.09
565.39	63697.68
565.56	63587.67
565.72	63522.14
565.88	63655.55
566.05	63568.95
566.21	63604.06
566.38	63561.93
566.54	63737.47
566.70	63744.49
566.87	63868.54
567.03	63812.37
567.19	63983.22
567.36	63800.66
567.52	63744.49
567.68	63910.67
567.85	63557.25
568.01	63739.81
568.17	63891.94
568.34	63934.07
568.50	63812.37
568.66	64030.04
568.83	64051.10
568.99	63746.83
569.15	63781.94
569.32	63693.00
569.48	63721.08
569.64	63810.03
569.81	63938.75
569.97	63828.75
570.13	63922.37
570.30	64020.67
570.46	64041.74
570.62	63980.88
570.78	63983.22
570.95	63781.94
571.11	63875.56
571.27	63793.64
571.43	63870.88
571.60	63997.27
571.76	64060.46
571.92	64123.66
572.09	64203.24
572.25	64011.31
572.41	63943.44
572.57	64133.02
572.74	64261.75
572.90	63985.57
573.06	64001.95
573.22	64217.28
573.38	63969.18
573.55	64055.78
573.71	64306.22
573.87	64317.92
574.03	64067.48
574.20	64238.34
574.36	64060.46
574.52	64165.79
574.68	64219.62
574.84	64133.02
575.01	64177.49
575.17	64100.25
575.33	64315.58
575.49	64133.02
575.65	64259.41
575.82	64355.37
575.98	64210.26
576.14	64233.66
576.30	64322.60
576.46	64250.05
576.62	64020.67
576.79	64126.00
576.95	64086.21
577.11	64217.28
577.27	64196.21
577.43	64238.34
577.59	64231.32
577.75	64292.18
577.92	64151.74
578.08	64257.07
578.24	64170.47
578.40	64200.89
578.56	64172.81
578.72	64280.47
578.88	64434.95
579.04	64425.59
579.21	64271.11
579.37	64221.96
579.53	64364.73
579.69	64193.87
579.85	64147.06
580.01	64334.31
580.17	64175.15
580.33	64165.79
580.49	64254.73
580.65	64488.78
580.82	64654.96
580.98	64427.93
581.14	64434.95
581.30	64509.85
581.46	64374.09
581.62	64448.99
581.78	64175.15
581.94	64369.41
582.10	64357.71
582.26	64458.35
582.42	64207.92
582.58	64502.82
582.74	64343.67
582.90	64385.80
583.06	64214.94
583.22	64338.99
583.38	64500.48
583.54	64456.01
583.70	64327.28
583.86	64587.08
584.02	64418.56
584.18	64432.61
584.34	64491.12
584.50	64563.68
584.66	64533.25
584.82	64324.94
584.98	64364.73
585.14	64364.73
585.30	64259.41
585.46	64451.33
585.62	64399.84
585.78	64397.50
585.94	64200.89
586.10	64500.48
586.26	64479.42
586.42	64617.51
586.58	64549.63
586.74	64376.43
586.90	64381.12
587.06	64474.74
587.22	64371.75
587.38	64320.26
587.54	64451.33
587.70	64463.03
587.86	64657.30
588.02	64645.60
588.18	64704.11
588.34	64762.62
588.49	64720.49
