SpectraSuite Data File
++++++++++++++++++++++++++++++++++++
Date: Fri Oct 04 11:46:56 GMT-05:00 2013
User: price-jones
Dark Spectrum Present: No
Reference Spectrum Present: No
Number of Sampled Component Spectra: 1
Spectrometers: USB2+H05261
Integration Time (usec): 100000 (USB2+H05261)
Spectra Averaged: 1 (USB2+H05261)
Boxcar Smoothing: 0 (USB2+H05261)
Correct for Electrical Dark: No (USB2+H05261)
Strobe/Lamp Enabled: No (USB2+H05261)
Correct for Detector Non-linearity: No (USB2+H05261)
Correct for Stray Light: No (USB2+H05261)
Number of Pixels in Processed Spectrum: 2048
>>>>>Begin Processed Spectral Data<<<<<
365.73	4.68
365.92	4.68
366.12	4.68
366.32	0.00
366.52	0.00
366.72	0.00
366.91	0.00
367.11	0.00
367.31	0.00
367.51	0.00
367.70	0.00
367.90	0.00
368.10	0.00
368.30	0.00
368.49	0.00
368.69	0.00
368.89	0.00
369.09	0.00
369.28	0.00
369.48	0.00
369.68	0.00
369.87	0.00
370.07	0.00
370.27	21.06
370.47	2.34
370.66	0.00
370.86	0.00
371.06	0.00
371.25	60.85
371.45	42.13
371.65	110.01
371.84	25.75
372.04	74.90
372.24	58.51
372.44	58.51
372.63	81.92
372.83	95.96
373.03	2.34
373.22	58.51
373.42	79.58
373.62	119.37
373.81	112.35
374.01	63.19
374.21	145.11
374.40	93.62
374.60	88.94
374.79	70.22
374.99	81.92
375.19	63.19
375.38	105.32
375.58	131.07
375.78	105.32
375.97	114.69
376.17	74.90
376.37	100.64
376.56	86.60
376.76	194.26
376.95	177.88
377.15	114.69
377.35	170.86
377.54	98.30
377.74	32.77
377.93	18.72
378.13	229.37
378.33	63.19
378.52	86.60
378.72	100.64
378.91	84.26
379.11	56.17
379.31	67.88
379.50	93.62
379.70	60.85
379.89	154.48
380.09	98.30
380.28	77.24
380.48	91.28
380.68	86.60
380.87	74.90
381.07	128.73
381.26	180.22
381.46	168.52
381.65	28.09
381.85	81.92
382.04	124.05
382.24	88.94
382.43	56.17
382.63	49.15
382.83	168.52
383.02	67.88
383.22	156.82
383.41	18.72
383.61	93.62
383.80	56.17
384.00	84.26
384.19	21.06
384.39	44.47
384.58	63.19
384.78	88.94
384.97	86.60
385.17	117.03
385.36	81.92
385.56	124.05
385.75	124.05
385.95	124.05
386.14	84.26
386.34	91.28
386.53	84.26
386.72	133.41
386.92	100.64
387.11	67.88
387.31	131.07
387.50	112.35
387.70	119.37
387.89	0.00
388.09	9.36
388.28	133.41
388.48	70.22
388.67	128.73
388.86	131.07
389.06	107.66
389.25	114.69
389.45	79.58
389.64	84.26
389.84	124.05
390.03	70.22
390.22	88.94
390.42	107.66
390.61	105.32
390.81	102.98
391.00	124.05
391.19	102.98
391.39	142.77
391.58	79.58
391.78	84.26
391.97	53.83
392.16	84.26
392.36	98.30
392.55	86.60
392.75	135.75
392.94	110.01
393.13	65.54
393.33	46.81
393.52	86.60
393.71	124.05
393.91	138.09
394.10	72.56
394.29	117.03
394.49	135.75
394.68	168.52
394.88	147.45
395.07	114.69
395.26	11.70
395.46	60.85
395.65	37.45
395.84	79.58
396.04	126.39
396.23	32.77
396.42	63.19
396.62	86.60
396.81	81.92
397.00	42.13
397.19	110.01
397.39	84.26
397.58	112.35
397.77	65.54
397.97	133.41
398.16	112.35
398.35	168.52
398.55	60.85
398.74	86.60
398.93	37.45
399.12	81.92
399.32	135.75
399.51	117.03
399.70	126.39
399.90	121.71
400.09	133.41
400.28	86.60
400.47	49.15
400.67	149.79
400.86	63.19
401.05	131.07
401.24	194.26
401.44	100.64
401.63	72.56
401.82	154.48
402.01	102.98
402.21	86.60
402.40	117.03
402.59	119.37
402.78	72.56
402.97	65.54
403.17	74.90
403.36	147.45
403.55	105.32
403.74	91.28
403.93	138.09
404.13	140.43
404.32	182.56
404.51	112.35
404.70	145.11
404.89	135.75
405.09	51.49
405.28	67.88
405.47	105.32
405.66	86.60
405.85	77.24
406.05	121.71
406.24	126.39
406.43	149.79
406.62	88.94
406.81	161.50
407.00	86.60
407.20	166.18
407.39	74.90
407.58	102.98
407.77	117.03
407.96	205.97
408.15	126.39
408.34	93.62
408.54	63.19
408.73	126.39
408.92	81.92
409.11	65.54
409.30	126.39
409.49	37.45
409.68	91.28
409.87	77.24
410.07	74.90
410.26	149.79
410.45	72.56
410.64	70.22
410.83	72.56
411.02	74.90
411.21	98.30
411.40	93.62
411.59	147.45
411.78	79.58
411.98	133.41
412.17	177.88
412.36	126.39
412.55	95.96
412.74	117.03
412.93	124.05
413.12	84.26
413.31	173.20
413.50	121.71
413.69	105.32
413.88	119.37
414.07	128.73
414.26	138.09
414.45	105.32
414.64	95.96
414.83	128.73
415.02	152.13
415.22	175.54
415.41	168.52
415.60	170.86
415.79	74.90
415.98	161.50
416.17	98.30
416.36	72.56
416.55	46.81
416.74	28.09
416.93	107.66
417.12	100.64
417.31	70.22
417.50	196.60
417.69	224.69
417.88	149.79
418.07	198.95
418.26	140.43
418.45	128.73
418.64	184.90
418.83	203.63
419.02	212.99
419.21	175.54
419.39	161.50
419.58	180.22
419.77	135.75
419.96	189.58
420.15	241.08
420.34	119.37
420.53	91.28
420.72	138.09
420.91	102.98
421.10	121.71
421.29	124.05
421.48	156.82
421.67	81.92
421.86	74.90
422.05	119.37
422.24	145.11
422.43	114.69
422.61	86.60
422.80	93.62
422.99	105.32
423.18	98.30
423.37	147.45
423.56	67.88
423.75	114.69
423.94	100.64
424.13	126.39
424.32	140.43
424.50	117.03
424.69	173.20
424.88	140.43
425.07	98.30
425.26	147.45
425.45	145.11
425.64	297.25
425.83	142.77
426.01	177.88
426.20	227.03
426.39	163.84
426.58	142.77
426.77	208.31
426.96	161.50
427.15	121.71
427.33	72.56
427.52	135.75
427.71	93.62
427.90	126.39
428.09	107.66
428.28	154.48
428.46	119.37
428.65	138.09
428.84	95.96
429.03	147.45
429.22	86.60
429.40	95.96
429.59	74.90
429.78	117.03
429.97	70.22
430.16	100.64
430.34	30.43
430.53	128.73
430.72	126.39
430.91	198.95
431.10	163.84
431.28	114.69
431.47	145.11
431.66	135.75
431.85	154.48
432.03	142.77
432.22	198.95
432.41	39.79
432.60	147.45
432.79	205.97
432.97	231.71
433.16	287.89
433.35	231.71
433.54	212.99
433.72	117.03
433.91	163.84
434.10	170.86
434.28	194.26
434.47	152.13
434.66	184.90
434.85	121.71
435.03	175.54
435.22	175.54
435.41	180.22
435.59	117.03
435.78	105.32
435.97	131.07
436.16	163.84
436.34	107.66
436.53	175.54
436.72	81.92
436.90	135.75
437.09	112.35
437.28	189.58
437.46	93.62
437.65	98.30
437.84	124.05
438.02	142.77
438.21	107.66
438.40	84.26
438.58	102.98
438.77	180.22
438.96	131.07
439.14	86.60
439.33	119.37
439.52	93.62
439.70	77.24
439.89	145.11
440.08	196.60
440.26	93.62
440.45	95.96
440.63	145.11
440.82	126.39
441.01	147.45
441.19	117.03
441.38	93.62
441.57	126.39
441.75	250.44
441.94	117.03
442.12	65.54
442.31	159.16
442.50	168.52
442.68	126.39
442.87	168.52
443.05	149.79
443.24	159.16
443.43	102.98
443.61	145.11
443.80	166.18
443.98	88.94
444.17	117.03
444.35	102.98
444.54	168.52
444.73	170.86
444.91	154.48
445.10	37.45
445.28	124.05
445.47	140.43
445.65	154.48
445.84	126.39
446.02	177.88
446.21	102.98
446.39	142.77
446.58	154.48
446.77	166.18
446.95	105.32
447.14	114.69
447.32	142.77
447.51	128.73
447.69	166.18
447.88	170.86
448.06	198.95
448.25	140.43
448.43	152.13
448.62	205.97
448.80	194.26
448.99	102.98
449.17	140.43
449.36	154.48
449.54	142.77
449.73	63.19
449.91	131.07
450.10	138.09
450.28	205.97
450.46	241.08
450.65	189.58
450.83	161.50
451.02	201.29
451.20	135.75
451.39	112.35
451.57	53.83
451.76	32.77
451.94	74.90
452.13	133.41
452.31	217.67
452.49	187.24
452.68	88.94
452.86	201.29
453.05	194.26
453.23	110.01
453.42	220.01
453.60	133.41
453.78	110.01
453.97	112.35
454.15	105.32
454.34	194.26
454.52	63.19
454.70	191.92
454.89	128.73
455.07	93.62
455.26	191.92
455.44	102.98
455.62	49.15
455.81	133.41
455.99	154.48
456.17	124.05
456.36	124.05
456.54	175.54
456.73	124.05
456.91	159.16
457.09	168.52
457.28	191.92
457.46	168.52
457.64	149.79
457.83	119.37
458.01	140.43
458.19	131.07
458.38	142.77
458.56	189.58
458.74	138.09
458.93	182.56
459.11	198.95
459.29	135.75
459.48	173.20
459.66	145.11
459.84	124.05
460.03	205.97
460.21	159.16
460.39	187.24
460.57	149.79
460.76	173.20
460.94	126.39
461.12	98.30
461.31	161.50
461.49	154.48
461.67	77.24
461.85	222.35
462.04	114.69
462.22	592.16
462.40	184.90
462.59	203.63
462.77	74.90
462.95	107.66
463.13	182.56
463.32	177.88
463.50	117.03
463.68	124.05
463.86	107.66
464.05	117.03
464.23	182.56
464.41	163.84
464.59	159.16
464.78	126.39
464.96	126.39
465.14	182.56
465.32	140.43
465.50	121.71
465.69	180.22
465.87	166.18
466.05	156.82
466.23	112.35
466.41	126.39
466.60	119.37
466.78	128.73
466.96	154.48
467.14	163.84
467.32	152.13
467.51	175.54
467.69	161.50
467.87	154.48
468.05	191.92
468.23	215.33
468.41	163.84
468.60	105.32
468.78	121.71
468.96	177.88
469.14	184.90
469.32	58.51
469.50	126.39
469.69	189.58
469.87	182.56
470.05	152.13
470.23	234.05
470.41	145.11
470.59	110.01
470.77	124.05
470.95	159.16
471.14	102.98
471.32	133.41
471.50	198.95
471.68	175.54
471.86	91.28
472.04	86.60
472.22	180.22
472.40	117.03
472.58	161.50
472.77	98.30
472.95	135.75
473.13	189.58
473.31	217.67
473.49	100.64
473.67	191.92
473.85	149.79
474.03	203.63
474.21	166.18
474.39	166.18
474.57	175.54
474.75	220.01
474.93	79.58
475.12	107.66
475.30	154.48
475.48	187.24
475.66	163.84
475.84	168.52
476.02	110.01
476.20	154.48
476.38	147.45
476.56	271.50
476.74	161.50
476.92	107.66
477.10	98.30
477.28	121.71
477.46	152.13
477.64	168.52
477.82	238.73
478.00	210.65
478.18	222.35
478.36	152.13
478.54	161.50
478.72	140.43
478.90	102.98
479.08	173.20
479.26	98.30
479.44	100.64
479.62	156.82
479.80	163.84
479.98	100.64
480.16	187.24
480.34	131.07
480.52	154.48
480.70	117.03
480.88	138.09
481.06	170.86
481.24	168.52
481.41	222.35
481.59	203.63
481.77	147.45
481.95	184.90
482.13	203.63
482.31	159.16
482.49	154.48
482.67	194.26
482.85	91.28
483.03	175.54
483.21	119.37
483.39	102.98
483.57	194.26
483.74	215.33
483.92	156.82
484.10	72.56
484.28	180.22
484.46	231.71
484.64	81.92
484.82	152.13
485.00	140.43
485.18	114.69
485.35	154.48
485.53	177.88
485.71	222.35
485.89	126.39
486.07	175.54
486.25	163.84
486.43	145.11
486.61	210.65
486.78	198.95
486.96	126.39
487.14	175.54
487.32	201.29
487.50	168.52
487.68	187.24
487.85	191.92
488.03	131.07
488.21	156.82
488.39	241.08
488.57	152.13
488.75	117.03
488.92	407.25
489.10	198.95
489.28	163.84
489.46	196.60
489.64	203.63
489.81	243.42
489.99	217.67
490.17	177.88
490.35	278.52
490.53	196.60
490.70	163.84
490.88	102.98
491.06	163.84
491.24	142.77
491.41	177.88
491.59	147.45
491.77	177.88
491.95	194.26
492.13	187.24
492.30	184.90
492.48	145.11
492.66	156.82
492.84	112.35
493.01	227.03
493.19	98.30
493.37	243.42
493.54	208.31
493.72	224.69
493.90	138.09
494.08	203.63
494.25	161.50
494.43	191.92
494.61	196.60
494.79	142.77
494.96	166.18
495.14	208.31
495.32	121.71
495.49	161.50
495.67	196.60
495.85	88.94
496.02	189.58
496.20	166.18
496.38	145.11
496.55	156.82
496.73	236.39
496.91	105.32
497.09	110.01
497.26	154.48
497.44	159.16
497.62	135.75
497.79	147.45
497.97	168.52
498.14	98.30
498.32	166.18
498.50	168.52
498.67	184.90
498.85	229.37
499.03	135.75
499.20	182.56
499.38	189.58
499.56	187.24
499.73	210.65
499.91	224.69
500.08	210.65
500.26	133.41
500.44	201.29
500.61	212.99
500.79	180.22
500.97	145.11
501.14	241.08
501.32	217.67
501.49	222.35
501.67	140.43
501.84	215.33
502.02	112.35
502.20	227.03
502.37	138.09
502.55	187.24
502.72	191.92
502.90	175.54
503.07	72.56
503.25	264.48
503.43	271.50
503.60	201.29
503.78	203.63
503.95	159.16
504.13	182.56
504.30	208.31
504.48	273.84
504.65	283.20
504.83	182.56
505.01	245.76
505.18	236.39
505.36	210.65
505.53	175.54
505.71	182.56
505.88	241.08
506.06	208.31
506.23	170.86
506.41	194.26
506.58	189.58
506.76	227.03
506.93	234.05
507.11	222.35
507.28	163.84
507.46	180.22
507.63	149.79
507.81	208.31
507.98	168.52
508.16	269.16
508.33	212.99
508.50	205.97
508.68	229.37
508.85	187.24
509.03	180.22
509.20	252.78
509.38	198.95
509.55	238.73
509.73	257.46
509.90	135.75
510.08	222.35
510.25	322.99
510.42	234.05
510.60	191.92
510.77	222.35
510.95	198.95
511.12	203.63
511.30	201.29
511.47	273.84
511.64	287.89
511.82	215.33
511.99	255.12
512.17	180.22
512.34	205.97
512.51	91.28
512.69	184.90
512.86	152.13
513.04	175.54
513.21	210.65
513.38	191.92
513.56	243.42
513.73	245.76
513.90	243.42
514.08	189.58
514.25	220.01
514.43	266.82
514.60	234.05
514.77	191.92
514.95	245.76
515.12	161.50
515.29	170.86
515.47	297.25
515.64	182.56
515.81	229.37
515.99	220.01
516.16	215.33
516.33	238.73
516.51	147.45
516.68	194.26
516.85	201.29
517.03	187.24
517.20	201.29
517.37	177.88
517.54	280.86
517.72	243.42
517.89	140.43
518.06	156.82
518.24	212.99
518.41	241.08
518.58	222.35
518.75	238.73
518.93	210.65
519.10	189.58
519.27	252.78
519.45	229.37
519.62	224.69
519.79	222.35
519.96	154.48
520.14	215.33
520.31	238.73
520.48	173.20
520.65	196.60
520.83	266.82
521.00	280.86
521.17	266.82
521.34	124.05
521.52	180.22
521.69	205.97
521.86	215.33
522.03	290.23
522.20	273.84
522.38	248.10
522.55	201.29
522.72	177.88
522.89	154.48
523.07	259.80
523.24	271.50
523.41	198.95
523.58	180.22
523.75	180.22
523.92	313.63
524.10	196.60
524.27	189.58
524.44	152.13
524.61	194.26
524.78	152.13
524.96	191.92
525.13	163.84
525.30	220.01
525.47	212.99
525.64	203.63
525.81	145.11
525.98	180.22
526.16	163.84
526.33	145.11
526.50	250.44
526.67	198.95
526.84	170.86
527.01	166.18
527.18	259.80
527.36	217.67
527.53	161.50
527.70	238.73
527.87	201.29
528.04	264.48
528.21	142.77
528.38	217.67
528.55	208.31
528.72	184.90
528.89	262.14
529.07	236.39
529.24	140.43
529.41	266.82
529.58	182.56
529.75	215.33
529.92	231.71
530.09	245.76
530.26	257.46
530.43	248.10
530.60	205.97
530.77	262.14
530.94	227.03
531.11	220.01
531.28	189.58
531.46	196.60
531.63	238.73
531.80	271.50
531.97	203.63
532.14	248.10
532.31	170.86
532.48	227.03
532.65	381.51
532.82	339.38
532.99	353.42
533.16	278.52
533.33	257.46
533.50	287.89
533.67	367.46
533.84	388.53
534.01	451.72
534.18	308.95
534.35	252.78
534.52	227.03
534.69	248.10
534.86	257.46
535.03	301.93
535.20	224.69
535.37	266.82
535.54	285.55
535.71	203.63
535.88	285.55
536.05	203.63
536.22	297.25
536.38	205.97
536.55	212.99
536.72	222.35
536.89	208.31
537.06	128.73
537.23	203.63
537.40	175.54
537.57	220.01
537.74	236.39
537.91	194.26
538.08	215.33
538.25	271.50
538.42	170.86
538.59	250.44
538.75	245.76
538.92	252.78
539.09	344.06
539.26	191.92
539.43	486.83
539.60	1200.69
539.77	1928.60
539.94	1874.77
540.11	1128.14
540.28	709.18
540.44	552.37
540.61	290.23
540.78	241.08
540.95	259.80
541.12	220.01
541.29	208.31
541.46	259.80
541.62	210.65
541.79	222.35
541.96	191.92
542.13	191.92
542.30	182.56
542.47	198.95
542.63	175.54
542.80	236.39
542.97	210.65
543.14	273.84
543.31	177.88
543.48	231.71
543.64	252.78
543.81	287.89
543.98	280.86
544.15	222.35
544.32	229.37
544.48	121.71
544.65	224.69
544.82	217.67
544.99	201.29
545.16	283.20
545.32	201.29
545.49	152.13
545.66	229.37
545.83	182.56
546.00	189.58
546.16	100.64
546.33	220.01
546.50	194.26
546.67	215.33
546.83	245.76
547.00	236.39
547.17	177.88
547.34	173.20
547.50	189.58
547.67	170.86
547.84	140.43
548.00	266.82
548.17	175.54
548.34	205.97
548.51	245.76
548.67	208.31
548.84	220.01
549.01	231.71
549.18	182.56
549.34	201.29
549.51	187.24
549.68	217.67
549.84	102.98
550.01	159.16
550.18	262.14
550.34	280.86
550.51	135.75
550.68	294.91
550.84	182.56
551.01	189.58
551.18	231.71
551.34	145.11
551.51	217.67
551.68	159.16
551.84	210.65
552.01	168.52
552.18	245.76
552.34	236.39
552.51	203.63
552.68	194.26
552.84	173.20
553.01	184.90
553.18	243.42
553.34	182.56
553.51	182.56
553.67	163.84
553.84	205.97
554.01	180.22
554.17	175.54
554.34	194.26
554.51	191.92
554.67	257.46
554.84	243.42
555.00	229.37
555.17	184.90
555.33	194.26
555.50	203.63
555.67	210.65
555.83	147.45
556.00	229.37
556.16	402.57
556.33	166.18
556.50	227.03
556.66	238.73
556.83	124.05
556.99	168.52
557.16	205.97
557.32	175.54
557.49	163.84
557.65	212.99
557.82	198.95
557.98	224.69
558.15	229.37
558.32	198.95
558.48	257.46
558.65	224.69
558.81	170.86
558.98	182.56
559.14	149.79
559.31	159.16
559.47	259.80
559.64	182.56
559.80	203.63
559.97	215.33
560.13	241.08
560.30	196.60
560.46	231.71
560.63	173.20
560.79	227.03
560.96	222.35
561.12	175.54
561.29	161.50
561.45	201.29
561.61	198.95
561.78	245.76
561.94	177.88
562.11	215.33
562.27	166.18
562.44	266.82
562.60	189.58
562.77	182.56
562.93	269.16
563.10	222.35
563.26	262.14
563.42	170.86
563.59	231.71
563.75	227.03
563.92	173.20
564.08	135.75
564.24	184.90
564.41	264.48
564.57	231.71
564.74	147.45
564.90	234.05
565.07	205.97
565.23	266.82
565.39	191.92
565.56	339.38
565.72	220.01
565.88	271.50
566.05	252.78
566.21	201.29
566.38	196.60
566.54	182.56
566.70	170.86
566.87	224.69
567.03	175.54
567.19	264.48
567.36	191.92
567.52	138.09
567.68	205.97
567.85	229.37
568.01	269.16
568.17	205.97
568.34	182.56
568.50	236.39
568.66	147.45
568.83	334.70
568.99	224.69
569.15	220.01
569.32	196.60
569.48	220.01
569.64	243.42
569.81	133.41
569.97	236.39
570.13	224.69
570.30	189.58
570.46	175.54
570.62	229.37
570.78	205.97
570.95	236.39
571.11	243.42
571.27	306.61
571.43	198.95
571.60	203.63
571.76	241.08
571.92	227.03
572.09	187.24
572.25	184.90
572.41	252.78
572.57	229.37
572.74	194.26
572.90	182.56
573.06	154.48
573.22	222.35
573.38	220.01
573.55	273.84
573.71	297.25
573.87	208.31
574.03	243.42
574.20	177.88
574.36	280.86
574.52	299.59
574.68	299.59
574.84	318.31
575.01	257.46
575.17	255.12
575.33	145.11
575.49	271.50
575.65	334.70
575.82	341.72
575.98	566.41
576.14	758.33
576.30	770.04
576.46	631.94
576.62	447.04
576.79	320.65
576.95	358.10
577.11	227.03
577.27	259.80
577.43	320.65
577.59	236.39
577.75	257.46
577.92	266.82
578.08	224.69
578.24	201.29
578.40	322.99
578.56	229.37
578.72	222.35
578.88	266.82
579.04	369.80
579.21	264.48
579.37	238.73
579.53	297.25
579.69	229.37
579.85	245.76
580.01	299.59
580.17	390.87
580.33	409.59
580.49	393.21
580.65	355.76
580.82	353.42
580.98	355.76
581.14	344.06
581.30	418.96
581.46	444.70
581.62	575.77
581.78	723.23
581.94	685.78
582.10	538.32
582.26	430.66
582.42	482.15
582.58	510.24
582.74	407.25
582.90	423.64
583.06	531.30
583.22	472.79
583.38	482.15
583.54	531.30
583.70	690.46
583.86	819.19
584.02	908.13
584.18	1006.43
584.34	1392.62
584.50	3623.15
584.66	28676.24
584.82	61502.26
584.98	65535.00
585.14	65535.00
585.30	61097.34
585.46	38113.28
585.62	23269.61
585.78	10672.84
585.94	4236.37
586.10	1937.96
586.26	1156.22
586.42	997.07
586.58	786.42
586.74	774.72
586.90	683.44
587.06	657.69
587.22	538.32
587.38	629.60
587.54	1352.83
587.70	4163.81
587.86	7180.76
588.02	8402.52
588.18	5837.30
588.34	3527.19
588.49	2319.47
588.65	1329.42
588.81	751.31
588.97	414.27
589.13	367.46
589.29	297.25
589.45	297.25
589.61	348.74
589.77	470.45
589.93	463.43
590.08	578.11
590.24	507.90
590.40	442.36
590.56	348.74
590.72	318.31
590.88	322.99
591.04	330.02
591.20	304.27
591.35	381.51
591.51	301.93
591.67	273.84
591.83	257.46
591.99	337.04
592.15	248.10
592.31	285.55
592.46	287.89
592.62	355.76
592.78	358.10
592.94	266.82
593.10	348.74
593.26	386.19
593.41	353.42
593.57	376.83
593.73	697.48
593.89	3318.88
594.05	9188.94
594.20	14038.53
594.36	13397.23
594.52	8870.63
594.68	5394.93
594.84	3461.65
594.99	1902.86
595.15	826.21
595.31	507.90
595.47	353.42
595.62	299.59
595.78	262.14
595.94	315.97
596.10	367.46
596.25	362.78
596.41	430.66
596.57	266.82
596.73	346.40
596.88	575.77
597.04	1621.99
597.20	2848.43
597.36	3494.42
597.51	2602.68
597.67	1689.87
597.83	1139.84
597.99	823.87
598.14	503.22
598.30	360.44
598.46	266.82
598.61	339.38
598.77	355.76
598.93	325.33
599.09	255.12
599.24	294.91
599.40	269.16
599.56	252.78
599.71	243.42
599.87	231.71
600.03	276.18
600.18	236.39
600.34	248.10
600.50	299.59
600.65	238.73
600.81	191.92
600.97	182.56
601.12	231.71
601.28	297.25
601.44	182.56
601.59	259.80
601.75	210.65
601.91	191.92
602.06	243.42
602.22	269.16
602.37	800.46
602.53	2085.42
602.69	3370.37
602.84	3707.41
603.00	2668.21
603.16	1717.95
603.31	1210.06
603.47	802.80
603.62	414.27
603.78	372.15
603.94	276.18
604.09	205.97
604.25	299.59
604.40	262.14
604.56	234.05
604.71	241.08
604.87	278.52
605.03	353.42
605.18	327.68
605.34	255.12
605.49	308.95
605.65	301.93
605.80	369.80
605.96	304.27
606.12	339.38
606.27	390.87
606.43	271.50
606.58	411.93
606.74	959.62
606.89	4170.83
607.05	8877.65
607.20	12095.89
607.36	9998.77
607.51	6740.74
607.67	4301.90
607.82	2787.58
607.98	1605.61
608.13	866.00
608.29	533.64
608.44	442.36
608.60	421.30
608.75	573.43
608.91	1301.34
609.06	6436.47
609.22	14691.54
609.37	21329.30
609.53	18506.62
609.68	12100.57
609.84	7967.18
609.99	5219.39
610.15	2588.63
610.30	1179.63
610.46	692.80
610.61	493.85
610.76	362.78
610.92	376.83
611.07	297.25
611.23	369.80
611.38	355.76
611.54	236.39
611.69	330.02
611.84	292.57
