SpectraSuite Data File
++++++++++++++++++++++++++++++++++++
Date: Fri Oct 04 11:48:38 GMT-05:00 2013
User: price-jones
Dark Spectrum Present: No
Reference Spectrum Present: No
Number of Sampled Component Spectra: 1
Spectrometers: USB2+H05261
Integration Time (usec): 100000 (USB2+H05261)
Spectra Averaged: 1 (USB2+H05261)
Boxcar Smoothing: 0 (USB2+H05261)
Correct for Electrical Dark: No (USB2+H05261)
Strobe/Lamp Enabled: No (USB2+H05261)
Correct for Detector Non-linearity: No (USB2+H05261)
Correct for Stray Light: No (USB2+H05261)
Number of Pixels in Processed Spectrum: 2048
>>>>>Begin Processed Spectral Data<<<<<
365.73	42.13
365.92	42.13
366.12	42.13
366.32	0.00
366.52	0.00
366.72	0.00
366.91	0.00
367.11	0.00
367.31	0.00
367.51	0.00
367.70	0.00
367.90	0.00
368.10	0.00
368.30	0.00
368.49	0.00
368.69	0.00
368.89	0.00
369.09	0.00
369.28	0.00
369.48	0.00
369.68	0.00
369.87	0.00
370.07	0.00
370.27	0.00
370.47	49.15
370.66	191.92
370.86	194.26
371.06	154.48
371.25	229.37
371.45	159.16
371.65	271.50
371.84	217.67
372.04	152.13
372.24	231.71
372.44	208.31
372.63	238.73
372.83	252.78
373.03	262.14
373.22	238.73
373.42	257.46
373.62	292.57
373.81	327.68
374.01	313.63
374.21	271.50
374.40	308.95
374.60	318.31
374.79	294.91
374.99	159.16
375.19	322.99
375.38	327.68
375.58	339.38
375.78	416.62
375.97	306.61
376.17	386.19
376.37	339.38
376.56	285.55
376.76	332.36
376.95	299.59
377.15	313.63
377.35	390.87
377.54	351.08
377.74	255.12
377.93	250.44
378.13	346.40
378.33	334.70
378.52	301.93
378.72	348.74
378.91	327.68
379.11	304.27
379.31	287.89
379.50	346.40
379.70	353.42
379.89	348.74
380.09	287.89
380.28	339.38
380.48	365.12
380.68	297.25
380.87	280.86
381.07	318.31
381.26	423.64
381.46	348.74
381.65	311.29
381.85	346.40
382.04	374.49
382.24	294.91
382.43	330.02
382.63	390.87
382.83	353.42
383.02	376.83
383.22	397.89
383.41	299.59
383.61	299.59
383.80	365.12
384.00	395.55
384.19	447.04
384.39	407.25
384.58	355.76
384.78	360.44
384.97	383.85
385.17	468.11
385.36	358.10
385.56	404.91
385.75	390.87
385.95	360.44
386.14	393.21
386.34	414.27
386.53	454.06
386.72	369.80
386.92	444.70
387.11	390.87
387.31	491.51
387.50	442.36
387.70	409.59
387.89	486.83
388.09	414.27
388.28	386.19
388.48	451.72
388.67	493.85
388.86	482.15
389.06	526.62
389.25	477.47
389.45	486.83
389.64	458.74
389.84	533.64
390.03	505.56
390.22	482.15
390.42	517.26
390.61	543.00
390.81	491.51
391.00	557.05
391.19	472.79
391.39	496.19
391.58	557.05
391.78	571.09
391.97	507.90
392.16	526.62
392.36	594.50
392.55	545.34
392.75	521.94
392.94	526.62
393.13	545.34
393.33	573.43
393.52	571.09
393.71	603.86
393.91	559.39
394.10	631.94
394.29	634.29
394.49	613.22
394.68	641.31
394.88	657.69
395.07	575.77
395.26	559.39
395.46	627.26
395.65	805.14
395.84	664.71
396.04	716.20
396.23	690.46
396.42	660.03
396.62	667.05
396.81	671.73
397.00	678.76
397.19	683.44
397.39	657.69
397.58	697.48
397.77	758.33
397.97	704.50
398.16	739.61
398.35	770.04
398.55	755.99
398.74	755.99
398.93	723.23
399.12	781.74
399.32	793.44
399.51	798.12
399.70	840.25
399.90	784.08
400.09	744.29
400.28	828.55
400.47	784.08
400.67	901.11
400.86	866.00
401.05	889.40
401.24	887.06
401.44	957.28
401.63	997.07
401.82	784.08
402.01	943.24
402.21	1027.50
402.40	980.68
402.59	926.85
402.78	910.47
402.97	915.15
403.17	1048.56
403.36	957.28
403.55	966.64
403.74	1076.65
403.93	1088.35
404.13	1074.31
404.32	1128.14
404.51	1074.31
404.70	1128.14
404.89	1095.37
405.09	1217.08
405.28	1153.88
405.47	1228.78
405.66	1181.97
405.85	1165.59
406.05	1102.39
406.24	1090.69
406.43	1242.82
406.62	1240.48
406.81	1226.44
407.00	1273.25
407.20	1308.36
407.39	1291.98
407.58	1385.60
407.77	1329.42
407.96	1416.02
408.15	1359.85
408.34	1383.26
408.54	1362.19
408.73	1343.47
408.92	1383.26
409.11	1474.54
409.30	1488.58
409.49	1497.94
409.68	1479.22
409.87	1530.71
410.07	1416.02
410.26	1586.88
410.45	1577.52
410.64	1586.88
410.83	1607.95
411.02	1650.08
411.21	1675.82
411.40	1692.21
411.59	1650.08
411.78	1685.19
411.98	1673.48
412.17	1682.85
412.36	1741.36
412.55	1699.23
412.74	1739.02
412.93	1865.41
413.12	1682.85
413.31	1919.24
413.50	1856.04
413.69	1804.55
413.88	1870.09
414.07	1900.52
414.26	1998.82
414.45	1991.80
414.64	1935.62
414.83	2153.29
415.02	2071.37
415.22	2036.27
415.41	2066.69
415.60	2064.35
415.79	2106.48
415.98	2087.76
416.17	2251.60
416.36	2160.31
416.55	2230.53
416.74	2211.81
416.93	2232.87
417.12	2338.20
417.31	2284.36
417.50	2272.66
417.69	2424.80
417.88	2422.45
418.07	2298.41
418.26	2408.41
418.45	2497.35
418.64	2537.14
418.83	2436.50
419.02	2476.29
419.21	2541.82
419.39	2583.95
419.58	2499.69
419.77	2539.48
419.96	2530.12
420.15	2597.99
420.34	2658.85
420.53	2588.63
420.72	2658.85
420.91	2771.19
421.10	2661.19
421.29	2677.57
421.48	2710.34
421.67	2717.36
421.86	2766.51
422.05	2710.34
422.24	2761.83
422.43	2675.23
422.61	2605.02
422.80	2738.43
422.99	2820.35
423.18	2808.64
423.37	2846.09
423.56	2764.17
423.75	2761.83
423.94	2630.76
424.13	2630.76
424.32	2654.17
424.50	2815.66
424.69	2998.23
424.88	2979.50
425.07	2850.77
425.26	2871.84
425.45	2832.05
425.64	2778.22
425.83	3026.31
426.01	2860.13
426.20	2925.67
426.39	2775.88
426.58	2904.60
426.77	2832.05
426.96	2967.80
427.15	2810.98
427.33	2970.14
427.52	2864.82
427.71	2937.37
427.90	2993.55
428.09	3033.33
428.28	3066.10
428.46	3110.57
428.65	3014.61
428.84	3115.25
429.03	3253.34
429.22	3007.59
429.40	3012.27
429.59	3166.74
429.78	3096.53
429.97	2923.33
430.16	3059.08
430.34	3302.50
430.53	3227.60
430.72	3155.04
430.91	3309.52
431.10	3169.09
431.28	3251.00
431.47	3281.43
431.66	3377.39
431.85	3356.33
432.03	3344.63
432.22	3442.93
432.41	3375.05
432.60	3431.23
432.79	3337.60
432.97	3440.59
433.16	3531.87
433.35	3520.17
433.54	3456.97
433.72	3459.31
433.91	3466.33
434.10	3447.61
434.28	3471.01
434.47	3515.48
434.66	3522.51
434.85	3517.83
435.03	3602.08
435.22	3550.59
435.41	3747.20
435.59	3716.77
435.78	3728.47
435.97	3751.88
436.16	3660.60
436.34	3698.05
436.53	3599.74
436.72	3700.39
436.90	3637.19
437.09	3819.75
437.28	3873.59
437.46	3801.03
437.65	3847.84
437.84	3875.93
438.02	3913.38
438.21	3911.04
438.40	3805.71
438.58	4081.89
438.77	4051.47
438.96	3999.98
439.14	4072.53
439.33	4168.49
439.52	4053.81
439.70	4049.13
439.89	4152.11
440.08	4182.54
440.26	4334.67
440.45	4252.75
440.63	4241.05
440.82	4311.27
441.01	4381.48
441.19	4231.69
441.38	4678.73
441.57	4402.55
441.75	4564.04
441.94	4442.34
442.12	4447.02
442.31	4496.17
442.50	4669.37
442.68	4542.98
442.87	4688.09
443.05	4601.49
443.24	4667.03
443.43	4624.90
443.61	4674.05
443.80	4931.51
443.98	4521.92
444.17	4521.92
444.35	4720.86
444.54	4706.82
444.73	4727.88
444.91	4826.18
445.10	4744.27
445.28	4669.37
445.47	4704.48
445.65	4660.01
445.84	4762.99
446.02	4908.10
446.21	4854.27
446.39	4835.55
446.58	4830.87
446.77	4943.21
446.95	4791.08
447.14	4880.02
447.32	4842.57
447.51	4915.12
447.69	4865.97
447.88	4931.51
448.06	4744.27
448.25	4816.82
448.43	5055.56
448.62	4919.81
448.80	4882.36
448.99	4987.68
449.17	4966.62
449.36	4889.38
449.54	5055.56
449.73	5088.32
449.91	4954.91
450.10	5135.14
450.28	5270.89
450.46	5224.08
450.65	5121.09
450.83	5116.41
451.02	5130.45
451.20	5317.70
451.39	5252.16
451.57	5085.98
451.76	5212.37
451.94	5235.78
452.13	5446.43
452.31	5294.29
452.49	5235.78
452.68	5383.23
452.86	5462.81
453.05	5528.35
453.23	5411.32
453.42	5242.80
453.60	5226.42
453.78	5366.85
453.97	5399.62
454.15	5504.94
454.34	5380.89
454.52	5420.68
454.70	5378.55
454.89	5605.58
455.07	5628.99
455.26	5563.45
455.44	5713.25
455.62	5600.90
455.81	5757.72
455.99	5549.41
456.17	5549.41
456.36	5664.10
456.54	5610.26
456.73	5682.82
456.91	5863.04
457.09	5947.30
457.28	5935.60
457.46	5937.94
457.64	6090.07
457.83	5879.43
458.01	5935.60
458.19	6040.92
458.38	6104.12
458.56	6277.32
458.74	5837.30
458.93	5973.05
459.11	6200.08
459.29	6125.18
459.48	6321.79
459.66	6015.18
459.84	6120.50
460.03	6179.01
460.21	6249.23
460.39	6141.57
460.57	6120.50
460.76	6232.85
460.94	6272.64
461.12	6289.02
461.31	6406.05
461.49	6331.15
461.67	6317.11
461.85	6352.21
462.04	6347.53
462.22	6977.14
462.40	6530.09
462.59	6338.17
462.77	6523.07
462.95	6462.22
463.13	6506.69
463.32	6707.98
463.50	6642.44
463.68	6684.57
463.86	6490.31
464.05	6579.25
464.23	6717.34
464.41	6801.60
464.59	6555.84
464.78	6689.25
464.96	6658.82
465.14	6644.78
465.32	6773.51
465.50	6878.83
465.69	6846.07
465.87	6696.27
466.05	6988.84
466.23	6705.63
466.41	6827.34
466.60	6979.48
466.78	6951.39
466.96	6724.36
467.14	6829.68
467.32	6923.30
467.51	7063.74
467.69	6829.68
467.87	6963.09
468.05	6991.18
468.23	6991.18
468.41	7063.74
468.60	6932.67
468.78	7325.88
468.96	7033.31
469.14	7096.50
469.32	7185.44
469.50	6836.70
469.69	7370.35
469.87	7424.18
470.05	7396.09
470.23	7445.24
470.41	7253.32
470.59	7517.80
470.77	7316.51
470.95	7438.22
471.14	7353.96
471.32	7344.60
471.50	7573.97
471.68	7632.49
471.86	7655.89
472.04	7735.47
472.22	7672.28
472.40	7524.82
472.58	7819.73
472.77	7784.62
472.95	7894.63
473.13	7939.10
473.31	8098.25
473.49	8042.08
473.67	7911.01
473.85	7852.50
474.03	8046.76
474.21	8021.02
474.39	8266.77
474.57	8102.93
474.75	8365.07
474.93	8493.80
475.12	8461.04
475.30	8365.07
475.48	8166.13
475.66	8402.52
475.84	8575.72
476.02	8638.92
476.20	8669.34
476.38	8638.92
476.56	9050.85
476.74	8816.80
476.92	8861.27
477.10	8858.93
477.28	8854.25
477.46	8997.02
477.64	9172.56
477.82	9128.09
478.00	9263.84
478.18	9205.33
478.36	9607.90
478.54	9334.06
478.72	9528.32
478.90	9537.68
479.08	9579.81
479.26	9582.15
479.44	9853.66
479.62	9863.02
479.80	10033.88
479.98	9937.91
480.16	10127.50
480.34	10181.33
480.52	10296.02
480.70	10291.34
480.88	10263.25
481.06	10178.99
481.24	10251.55
481.41	10534.75
481.59	10527.73
481.77	10902.22
481.95	10848.38
482.13	11030.94
482.31	10792.21
482.49	11147.97
482.67	11302.45
482.85	11279.04
483.03	11272.02
483.21	11403.09
483.39	11616.08
483.57	11655.87
483.74	11789.28
483.92	11737.79
484.10	11875.88
484.28	11754.17
484.46	12086.53
484.64	12159.08
484.82	11936.73
485.00	12070.14
485.18	12238.66
485.35	12648.26
485.53	12561.66
485.71	12613.15
485.89	12952.52
486.07	12624.85
486.25	12931.46
486.43	13078.91
486.61	13188.92
486.78	13345.73
486.96	13099.98
487.14	13589.15
487.32	13476.80
487.50	13486.17
487.68	13720.22
487.85	13886.40
488.03	14012.79
488.21	14026.83
488.39	14083.00
488.57	14352.16
488.75	14242.16
488.92	14803.89
489.10	14483.24
489.28	14906.87
489.46	14864.74
489.64	14888.15
489.81	15248.59
489.99	15012.20
490.17	15131.56
490.35	15496.69
490.53	15349.23
490.70	15637.12
490.88	15550.52
491.06	15807.98
491.24	15742.44
491.41	15819.68
491.59	16102.89
491.77	15903.94
491.95	16196.51
492.13	16318.22
492.30	16404.81
492.48	16432.90
492.66	16533.54
492.84	16362.69
493.01	16877.60
493.19	16837.81
493.37	17144.42
493.54	17130.38
493.72	17270.81
493.90	17074.21
494.08	17448.69
494.25	17717.86
494.43	17757.64
494.61	17809.14
494.79	17661.68
494.96	17586.79
495.14	17874.67
495.32	18305.33
495.49	18001.06
495.67	17806.80
495.85	18361.50
496.02	18319.37
496.20	18462.15
496.38	18668.11
496.55	18953.66
496.73	19126.86
496.91	18794.50
497.09	18909.19
497.26	19075.37
497.44	18995.79
497.62	19101.11
497.79	19281.33
497.97	19426.45
498.14	19520.07
498.32	20070.09
498.50	19768.16
498.67	19927.32
498.85	20137.97
499.03	20027.96
499.20	20046.69
499.38	20088.82
499.56	20390.75
499.73	20348.62
499.91	20563.95
500.08	20435.22
500.26	20510.11
500.44	20489.05
500.61	20610.76
500.79	20624.80
500.97	20678.63
501.14	20898.64
501.32	20760.55
501.49	20980.56
501.67	21036.74
501.84	21355.05
502.02	21369.09
502.20	21268.45
502.37	21366.75
502.55	21635.91
502.72	21516.54
502.90	21462.71
503.07	21750.60
503.25	21228.66
503.43	21656.98
503.60	21898.05
503.78	21879.33
503.95	22216.36
504.13	21886.35
504.30	21979.97
504.48	22089.98
504.65	22345.09
504.83	22544.04
505.01	22422.33
505.18	22562.76
505.36	22689.15
505.53	22731.28
505.71	22721.92
505.88	22705.54
506.06	22848.31
506.23	22958.31
506.41	23346.84
506.58	23185.35
506.76	23248.54
506.93	23199.39
507.11	22951.29
507.28	23325.78
507.46	23496.64
507.63	23763.46
507.81	23768.14
507.98	23393.65
508.16	23606.64
508.33	23903.89
508.50	23934.32
508.68	24056.03
508.85	24065.39
509.03	23943.68
509.20	24428.17
509.38	24144.97
509.55	24287.74
509.73	24678.61
509.90	24519.45
510.08	24727.76
510.25	24559.24
510.42	24606.05
510.60	24643.50
510.77	24950.11
510.95	25181.82
511.12	24781.59
511.30	24992.24
511.47	24971.18
511.64	24830.74
511.82	25345.66
511.99	25568.01
512.17	25610.14
512.34	25315.23
512.51	25668.66
512.69	25565.67
512.86	25486.09
513.04	26302.94
513.21	26047.82
513.38	25736.53
513.56	26008.03
513.73	25600.78
513.90	25802.07
514.08	25956.54
514.25	26211.66
514.43	26448.05
514.60	26312.30
514.77	26600.19
514.95	26806.16
515.12	26239.75
515.29	26206.98
515.47	26689.13
515.64	27131.49
515.81	26405.92
515.99	27150.21
516.16	27138.51
516.33	26878.71
516.51	26991.06
516.68	27150.21
516.85	27206.39
517.03	26953.61
517.20	27150.21
517.37	27241.50
517.54	27330.44
517.72	27239.15
517.89	27527.04
518.06	27342.14
518.24	27435.76
518.41	27697.90
518.58	27541.08
518.75	27840.67
518.93	28032.60
519.10	27548.11
519.27	27704.92
519.45	27866.42
519.62	28041.96
519.79	27747.05
519.96	27964.72
520.14	28137.92
520.31	28013.87
520.48	28364.95
520.65	28144.94
520.83	28058.34
521.00	28437.51
521.17	28584.96
521.34	28407.08
521.52	28577.94
521.69	28613.05
521.86	28542.83
522.03	28781.57
522.20	29085.84
522.38	29013.28
522.55	29048.39
522.72	29497.77
522.89	29151.37
523.07	29525.86
523.24	29570.33
523.41	29385.43
523.58	29212.23
523.75	29434.58
523.92	29184.14
524.10	29418.19
524.27	29511.81
524.44	29692.04
524.61	29769.27
524.78	29624.16
524.96	29692.04
525.13	29961.20
525.30	29949.50
525.47	30103.97
525.64	29741.19
525.81	30342.70
525.98	30314.62
526.16	30012.69
526.33	30052.48
526.50	30857.62
526.67	30085.25
526.84	30258.45
527.01	30176.53
527.18	30026.73
527.36	30583.78
527.53	30682.08
527.70	30831.88
527.87	31068.27
528.04	30836.56
528.21	30728.89
528.38	30761.66
528.55	30885.71
528.72	30953.58
528.89	30838.90
529.07	30852.94
529.24	30920.82
529.41	30955.93
529.58	30817.83
529.75	31082.31
529.92	31117.42
530.09	31110.40
530.26	31494.25
530.43	31000.40
530.60	31030.82
530.77	31360.84
530.94	31459.14
531.11	31599.57
531.28	31063.59
531.46	31615.96
531.63	31578.51
531.80	31550.42
531.97	31960.02
532.14	31732.98
532.31	31929.59
532.48	31515.31
532.65	31519.99
532.82	31541.06
532.99	32004.49
533.16	31964.70
533.33	32165.98
533.50	32224.50
533.67	32240.88
533.84	31800.86
534.01	32058.32
534.18	31941.29
534.35	32362.59
534.52	32287.69
534.69	32610.68
534.86	32620.05
535.03	32154.28
535.20	32493.66
535.37	32315.78
535.54	32542.81
535.71	32173.00
535.88	32898.57
536.05	32804.95
536.22	32727.71
536.38	33177.09
536.55	32837.72
536.72	32968.79
536.89	32465.57
537.06	32364.93
537.23	33200.50
537.40	32936.02
537.57	32687.92
537.74	32786.22
537.91	32999.21
538.08	33563.28
538.25	33048.36
538.42	33165.39
538.59	33149.01
538.75	33060.07
538.92	32910.27
539.09	33518.81
539.26	33352.63
539.43	33399.44
539.60	33296.46
539.77	33404.13
539.94	33259.01
540.11	33399.44
540.28	33546.90
540.44	33455.62
540.61	33633.50
540.78	33455.62
540.95	33720.10
541.12	33479.02
541.29	33696.69
541.46	33923.72
541.62	33778.61
541.79	33841.81
541.96	33511.79
542.13	33858.19
542.30	33720.10
542.47	33802.02
542.63	34108.63
542.80	34220.97
542.97	34319.28
543.14	34389.49
543.31	34342.68
543.48	34190.55
543.64	34689.08
543.81	34834.19
543.98	34478.43
544.15	34696.10
544.32	34937.18
544.48	35063.57
544.65	34375.45
544.82	34815.47
544.99	34302.89
545.16	34920.79
545.32	34555.67
545.49	34986.33
545.66	35402.94
545.83	35189.95
546.00	35414.65
546.16	34937.18
546.33	34305.23
546.50	34841.21
546.67	34976.97
546.83	34670.36
547.00	34913.77
547.17	34927.81
547.34	34787.38
547.50	35730.62
547.67	34958.24
547.84	35257.83
548.00	35133.78
548.17	35365.49
548.34	35264.85
548.51	35044.84
548.67	35604.23
548.84	35962.33
549.01	35407.62
549.18	35613.59
549.34	35381.88
549.51	35229.74
549.68	35592.53
549.84	35679.13
550.01	35651.04
550.18	35697.85
550.34	35690.83
550.51	36002.12
550.68	35253.15
550.84	35339.75
551.01	35519.97
551.18	35253.15
551.34	35395.92
551.51	35557.42
551.68	35959.99
551.84	35777.43
552.01	35772.75
552.18	35629.98
552.34	35847.64
552.51	36392.99
552.68	35473.16
552.84	36058.29
553.01	36051.27
553.18	35903.82
553.34	36034.89
553.51	35962.33
553.67	36299.37
553.84	36673.85
554.01	35852.33
554.17	35847.64
554.34	36077.02
554.51	36095.74
554.67	36229.15
554.84	36360.22
555.00	36559.17
555.17	36701.94
555.33	36755.77
555.50	36252.56
555.67	36175.32
555.83	36355.54
556.00	36669.17
556.16	36641.09
556.33	36006.80
556.50	36292.35
556.66	36591.94
556.83	36772.16
556.99	36573.21
557.16	36643.43
557.32	36643.43
557.49	36404.69
557.65	36364.90
557.82	36533.42
557.98	36212.77
558.15	36811.95
558.32	36734.71
558.48	36484.27
558.65	37123.24
558.81	36816.63
558.98	36905.57
559.14	36601.30
559.31	36699.60
559.47	36566.19
559.64	37083.45
559.80	36973.44
559.97	37291.76
560.13	36657.47
560.30	36996.85
560.46	36500.65
560.63	36673.85
560.79	36704.28
560.96	36795.56
561.12	36514.70
561.29	36978.12
561.45	37184.09
561.61	36975.78
561.78	37205.16
561.94	37123.24
562.11	37368.99
562.27	36795.56
562.44	37024.93
562.60	36910.25
562.77	36800.24
562.93	36769.82
563.10	37134.94
563.26	36877.48
563.42	37474.32
563.59	37209.84
563.75	37350.27
563.92	37008.55
564.08	36708.96
564.24	37221.54
564.41	37090.47
564.57	36704.28
564.74	36662.15
564.90	37266.01
565.07	37219.20
565.23	37343.25
565.39	37029.62
565.56	36943.02
565.72	37022.59
565.88	37118.56
566.05	37120.90
566.21	36657.47
566.38	36713.64
566.54	37280.05
566.70	37273.03
566.87	37476.66
567.03	37511.77
567.19	37399.42
567.36	37097.49
567.52	37036.64
567.68	37263.67
567.85	37486.02
568.01	37130.26
568.17	37041.32
568.34	37600.71
568.50	37792.63
568.66	37432.19
568.83	37635.81
568.99	36898.55
569.15	37064.72
569.32	37090.47
569.48	37001.53
569.64	37439.21
569.81	36940.68
569.97	37102.17
570.13	37773.91
570.30	37488.36
570.46	37544.53
570.62	37350.27
570.78	37418.14
570.95	37240.26
571.11	37266.01
571.27	36912.59
571.43	37123.24
571.60	37631.13
571.76	37462.61
571.92	37132.60
572.09	37584.32
572.25	37509.43
572.41	37343.25
572.57	37427.51
572.74	37287.07
572.90	37319.84
573.06	37404.10
573.22	37151.32
573.38	37422.83
573.55	37127.92
573.71	37539.85
573.87	37675.60
574.03	37479.00
574.20	37867.53
574.36	37120.90
574.52	37476.66
574.68	37165.37
574.84	37986.89
575.01	37469.64
575.17	37897.95
575.33	37532.83
575.49	37333.89
575.65	37752.84
575.82	37773.91
575.98	37394.74
576.14	37544.53
576.30	37612.41
576.46	37521.13
576.62	37200.47
576.79	37787.95
576.95	37343.25
577.11	37572.62
577.27	37301.12
577.43	37755.18
577.59	37839.44
577.75	37247.29
577.92	36957.06
578.08	37104.51
578.24	37584.32
578.40	37509.43
578.56	37586.66
578.72	37233.24
578.88	37715.39
579.04	37841.78
579.21	37294.10
579.37	37280.05
579.53	37949.45
579.69	37221.54
579.85	37137.28
580.01	37329.20
580.17	37125.58
580.33	37886.25
580.49	37752.84
580.65	38267.76
580.82	38003.28
580.98	37617.09
581.14	37462.61
581.30	37755.18
581.46	37490.70
581.62	37904.98
581.78	37144.30
581.94	37584.32
582.10	37523.47
582.26	37383.04
582.42	37544.53
582.58	37839.44
582.74	37755.18
582.90	37783.27
583.06	37879.23
583.22	37743.48
583.38	37160.69
583.54	37450.91
583.70	37684.97
583.86	37223.88
584.02	37282.39
584.18	37834.76
584.34	37979.87
584.50	38071.15
584.66	37858.17
584.82	37404.10
584.98	37759.86
585.14	37837.10
585.30	37427.51
585.46	37790.29
585.62	37523.47
585.78	37570.28
585.94	37329.20
586.10	37607.73
586.26	37778.59
586.42	37642.84
586.58	37205.16
586.74	36938.33
586.90	37167.71
587.06	37551.56
587.22	37188.77
587.38	37528.15
587.54	38115.62
587.70	37441.55
587.86	38040.73
588.02	37666.24
588.18	37539.85
588.34	37694.33
588.49	37687.31
588.65	37471.98
588.81	37628.79
588.97	37343.25
589.13	37586.66
589.29	37511.77
589.45	37951.79
589.61	37703.69
589.77	38122.65
589.93	37539.85
590.08	38174.14
590.24	38146.05
590.40	38206.90
590.56	38050.09
590.72	37308.14
590.88	37610.07
591.04	37986.89
591.20	37642.84
591.35	38127.33
