SpectraSuite Data File
++++++++++++++++++++++++++++++++++++
Date: Fri Oct 04 11:48:46 GMT-05:00 2013
User: price-jones
Dark Spectrum Present: No
Reference Spectrum Present: No
Number of Sampled Component Spectra: 1
Spectrometers: USB2+H05261
Integration Time (usec): 100000 (USB2+H05261)
Spectra Averaged: 1 (USB2+H05261)
Boxcar Smoothing: 0 (USB2+H05261)
Correct for Electrical Dark: No (USB2+H05261)
Strobe/Lamp Enabled: No (USB2+H05261)
Correct for Detector Non-linearity: No (USB2+H05261)
Correct for Stray Light: No (USB2+H05261)
Number of Pixels in Processed Spectrum: 2048
>>>>>Begin Processed Spectral Data<<<<<
365.73	74.90
365.92	74.90
366.12	74.90
366.32	7.02
366.52	0.00
366.72	0.00
366.91	0.00
367.11	0.00
367.31	0.00
367.51	0.00
367.70	0.00
367.90	0.00
368.10	0.00
368.30	0.00
368.49	0.00
368.69	0.00
368.89	0.00
369.09	0.00
369.28	0.00
369.48	0.00
369.68	0.00
369.87	25.75
370.07	0.00
370.27	0.00
370.47	112.35
370.66	381.51
370.86	388.53
371.06	358.10
371.25	470.45
371.45	388.53
371.65	482.15
371.84	433.00
372.04	463.43
372.24	411.93
372.44	491.51
372.63	442.36
372.83	528.96
373.03	475.13
373.22	519.60
373.42	543.00
373.62	566.41
373.81	540.66
374.01	531.30
374.21	484.49
374.40	498.53
374.60	554.71
374.79	599.18
374.99	521.94
375.19	571.09
375.38	601.52
375.58	587.47
375.78	580.45
375.97	519.60
376.17	648.33
376.37	615.56
376.56	631.94
376.76	552.37
376.95	589.82
377.15	643.65
377.35	765.36
377.54	695.14
377.74	561.73
377.93	624.92
378.13	571.09
378.33	643.65
378.52	636.63
378.72	660.03
378.91	627.26
379.11	617.90
379.31	655.35
379.50	678.76
379.70	685.78
379.89	723.23
380.09	727.91
380.28	641.31
380.48	685.78
380.68	704.50
380.87	674.07
381.07	800.46
381.26	795.78
381.46	720.88
381.65	716.20
381.85	795.78
382.04	716.20
382.24	720.88
382.43	681.10
382.63	774.72
382.83	688.12
383.02	837.91
383.22	826.21
383.41	788.76
383.61	868.34
383.80	854.30
384.00	798.12
384.19	777.06
384.39	826.21
384.58	851.96
384.78	779.40
384.97	828.55
385.17	837.91
385.36	812.17
385.56	875.36
385.75	870.68
385.95	924.51
386.14	957.28
386.34	915.15
386.53	809.83
386.72	877.70
386.92	964.30
387.11	884.72
387.31	887.06
387.50	887.06
387.70	842.59
387.89	873.02
388.09	889.40
388.28	961.96
388.48	887.06
388.67	1053.24
388.86	945.58
389.06	973.66
389.25	1067.28
389.45	1102.39
389.64	978.34
389.84	987.71
390.03	1015.79
390.22	947.92
390.42	1048.56
390.61	1008.77
390.81	1027.50
391.00	1125.80
391.19	1090.69
391.39	1132.82
391.58	1057.92
391.78	1114.10
391.97	1160.91
392.16	1111.75
392.36	1231.12
392.55	1137.50
392.75	1181.97
392.94	1151.54
393.13	1217.08
393.33	1144.52
393.52	1177.29
393.71	1287.29
393.91	1259.21
394.10	1287.29
394.29	1196.01
394.49	1151.54
394.68	1291.98
394.88	1268.57
395.07	1306.02
395.26	1249.85
395.46	1394.96
395.65	1352.83
395.84	1303.68
396.04	1460.49
396.23	1378.58
396.42	1446.45
396.62	1406.66
396.81	1378.58
397.00	1439.43
397.19	1392.62
397.39	1404.32
397.58	1488.58
397.77	1430.07
397.97	1502.62
398.16	1373.89
398.35	1558.80
398.55	1568.16
398.74	1636.03
398.93	1434.75
399.12	1582.20
399.32	1448.79
399.51	1451.13
399.70	1535.39
399.90	1535.39
400.09	1652.42
400.28	1687.53
400.47	1612.63
400.67	1598.59
400.86	1729.66
401.05	1645.40
401.24	1671.14
401.44	1654.76
401.63	1739.02
401.82	1720.29
402.01	1678.16
402.21	1739.02
402.40	1790.51
402.59	1839.66
402.78	1881.79
402.97	1884.13
403.17	1832.64
403.36	1795.19
403.55	1891.15
403.74	1928.60
403.93	1909.88
404.13	1914.56
404.32	1811.57
404.51	1877.11
404.70	2024.56
404.89	1987.11
405.09	1994.14
405.28	2029.24
405.47	1963.71
405.66	2174.36
405.85	2069.03
406.05	2026.90
406.24	2174.36
406.43	2211.81
406.62	2225.85
406.81	2284.36
407.00	2094.78
407.20	2291.38
407.39	2204.78
407.58	2263.30
407.77	2246.91
407.96	2225.85
408.15	2359.26
408.34	2293.72
408.54	2361.60
408.73	2307.77
408.92	2345.22
409.11	2513.74
409.30	2527.78
409.49	2525.44
409.68	2525.44
409.87	2495.01
410.07	2471.61
410.26	2647.15
410.45	2597.99
410.64	2516.08
410.83	2677.57
411.02	2569.91
411.21	2754.81
411.40	2747.79
411.59	2757.15
411.78	2665.87
411.98	2839.07
412.17	2771.19
412.36	2846.09
412.55	3040.36
412.74	2850.77
412.93	2977.16
413.12	2967.80
413.31	3169.09
413.50	2998.23
413.69	3009.93
413.88	3159.72
414.07	3054.40
414.26	3157.38
414.45	3180.79
414.64	3197.17
414.83	3290.79
415.02	3225.26
415.22	3295.47
415.41	3253.34
415.60	3375.05
415.79	3499.10
415.98	3623.15
416.17	3499.10
416.36	3463.99
416.55	3522.51
416.74	3676.98
416.93	3461.65
417.12	3735.50
417.31	3754.22
417.50	3646.55
417.69	3969.55
417.88	3688.68
418.07	3742.52
418.26	3850.18
418.45	3887.63
418.64	3915.72
418.83	3864.22
419.02	3775.28
419.21	3871.25
419.39	3892.31
419.58	3915.72
419.77	3988.27
419.96	3941.46
420.15	4067.85
420.34	4063.17
420.53	4053.81
420.72	4322.97
420.91	4234.03
421.10	4264.46
421.29	4456.38
421.48	4112.32
421.67	4280.84
421.86	4114.66
422.05	4318.29
422.24	4236.37
422.43	4161.47
422.61	4241.05
422.80	4428.29
422.99	4369.78
423.18	4470.42
423.37	4547.66
423.56	4432.97
423.75	4287.86
423.94	4365.10
424.13	4114.66
424.32	4173.18
424.50	4451.70
424.69	4540.64
424.88	4402.55
425.07	4440.00
425.26	4353.40
425.45	4283.18
425.64	4486.81
425.83	4432.97
426.01	4603.83
426.20	4348.72
426.39	4386.16
426.58	4507.87
426.77	4386.16
426.96	4643.62
427.15	4552.34
427.33	4620.22
427.52	4624.90
427.71	4734.90
427.90	4676.39
428.09	4629.58
428.28	4739.58
428.46	4784.06
428.65	4746.61
428.84	4870.65
429.03	5032.15
429.22	4894.06
429.40	4798.10
429.59	5004.07
429.78	4760.65
429.97	4660.01
430.16	4767.67
430.34	4954.91
430.53	4966.62
430.72	5172.58
430.91	5036.83
431.10	4903.42
431.28	5198.33
431.47	5224.08
431.66	5219.39
431.85	5233.44
432.03	5345.78
432.22	5270.89
432.41	5345.78
432.60	5458.13
432.79	5308.34
432.97	5331.74
433.16	5458.13
433.35	5355.15
433.54	5425.36
433.72	5413.66
433.91	5399.62
434.10	5577.50
434.28	5516.64
434.47	5549.41
434.66	5497.92
434.85	5605.58
435.03	5624.31
435.22	5582.18
435.41	5729.63
435.59	5678.14
435.78	5750.70
435.97	5685.16
436.16	5636.01
436.34	5893.47
436.53	5954.32
436.72	5858.36
436.90	5750.70
437.09	5867.72
437.28	5806.87
437.46	6129.86
437.65	5975.39
437.84	6108.80
438.02	6239.87
438.21	6038.58
438.40	5987.09
438.58	6171.99
438.77	6286.68
438.96	6246.89
439.14	6338.17
439.33	6413.07
439.52	6401.37
439.70	6403.71
439.89	6527.75
440.08	6619.04
440.26	6471.58
440.45	6546.48
440.63	6855.43
440.82	6656.48
441.01	6635.42
441.19	6895.22
441.38	6906.92
441.57	6846.07
441.75	6995.86
441.94	7375.03
442.12	7119.91
442.31	7325.88
442.50	7126.93
442.68	6998.20
442.87	7325.88
443.05	7375.03
443.24	7435.88
443.43	7365.67
443.61	7407.80
443.80	7557.59
443.98	7136.29
444.17	7194.81
444.35	7506.10
444.54	7653.55
444.73	7456.95
444.91	7461.63
445.10	7499.08
445.28	7384.39
445.47	7353.96
445.65	7543.55
445.84	7449.93
446.02	7368.01
446.21	7527.16
446.39	7590.36
446.58	7667.60
446.77	7527.16
446.95	7473.33
447.14	7536.52
447.32	7665.25
447.51	7588.02
447.69	7702.70
447.88	7843.14
448.06	7566.95
448.25	7709.72
448.43	7793.98
448.62	7562.27
448.80	7599.72
448.99	7786.96
449.17	7763.56
449.36	7742.49
449.54	7896.97
449.73	8023.36
449.91	8035.06
450.10	8051.44
450.28	8297.20
450.46	8198.90
450.65	8006.97
450.83	8477.42
451.02	8255.07
451.20	8339.33
451.39	8322.94
451.57	8173.15
451.76	8095.91
451.94	8521.89
452.13	8365.07
452.31	8177.83
452.49	8351.03
452.68	8683.39
452.86	8435.29
453.05	8397.84
453.23	8491.46
453.42	8531.25
453.60	8528.91
453.78	8641.26
453.97	8362.73
454.15	8650.62
454.34	8463.38
454.52	8540.61
454.70	8650.62
454.89	8709.13
455.07	8802.75
455.26	8854.25
455.44	8924.46
455.62	8814.46
455.81	8807.44
455.99	8807.44
456.17	9046.17
456.36	9064.89
456.54	9125.75
456.73	9191.28
456.91	9502.58
457.09	9259.16
457.28	9619.60
457.46	9296.61
457.64	9413.63
457.83	9364.48
458.01	9488.53
458.19	9451.08
458.38	9327.03
458.56	9671.09
458.74	9493.21
458.93	9708.54
459.11	9376.19
459.29	9790.46
459.48	9806.84
459.66	9921.53
459.84	9863.02
460.03	9762.37
460.21	9776.42
460.39	9860.68
460.57	9734.29
460.76	10160.27
460.94	9951.96
461.12	10136.86
461.31	10043.24
461.49	9909.83
461.67	9966.00
461.85	10434.11
462.04	10127.50
462.22	10820.30
462.40	10300.70
462.59	10284.31
462.77	10471.56
462.95	10670.50
463.13	10406.02
463.32	10399.00
463.50	10384.96
463.68	10286.65
463.86	10574.54
464.05	10436.45
464.23	10843.70
464.41	10902.22
464.59	10431.77
464.78	10953.71
464.96	10993.50
465.14	10700.93
465.32	10970.09
465.50	11178.40
465.69	10986.47
465.87	10979.45
466.05	10721.99
466.23	10850.72
466.41	11096.48
466.60	11309.47
466.78	10925.62
466.96	11044.99
467.14	10904.56
467.32	11236.91
467.51	11265.00
467.69	10761.78
467.87	11180.74
468.05	11187.76
468.23	11250.96
468.41	11351.60
468.60	11375.00
468.78	11569.27
468.96	11400.75
469.14	11585.65
469.32	11719.06
469.50	11115.20
469.69	11763.53
469.87	11929.71
470.05	11899.28
470.23	11690.98
470.41	11765.87
470.59	11784.60
470.77	11850.13
470.95	12049.08
471.14	12175.47
471.32	11786.94
471.50	12086.53
471.68	12351.01
471.86	12184.83
472.04	12432.93
472.22	12578.04
472.40	12393.14
472.58	12664.64
472.77	12524.21
472.95	12821.45
473.13	13011.04
473.31	12711.45
473.49	12655.28
473.67	12879.97
473.85	12964.23
474.03	12961.89
474.21	12924.44
474.39	13184.24
474.57	13261.48
474.75	13287.22
474.93	13561.06
475.12	13268.50
475.30	13460.42
475.48	13369.14
475.66	13610.22
475.84	13628.94
476.02	14057.26
476.20	13963.64
476.38	14221.10
476.56	14242.16
476.74	14434.08
476.92	14340.46
477.10	14490.26
477.28	14820.27
477.46	14558.13
477.64	14848.36
477.82	14806.23
478.00	15363.28
478.18	15342.21
478.36	15293.06
478.54	15307.10
478.72	15274.34
478.90	15726.06
479.08	15751.81
479.26	15873.51
479.44	16210.55
479.62	16032.67
479.80	15955.43
479.98	16212.89
480.16	16549.93
480.34	16432.90
480.52	16776.96
480.70	16758.24
480.88	16657.59
481.06	17039.10
481.24	16849.52
481.41	17226.34
481.59	17298.90
481.77	17640.62
481.95	17720.20
482.13	17654.66
482.31	17612.53
482.49	18057.23
482.67	17848.93
482.85	18368.52
483.03	18977.06
483.21	19087.07
483.39	18902.17
483.57	18803.86
483.74	19094.09
483.92	19358.57
484.10	19030.90
484.28	19445.17
484.46	20109.88
484.64	20212.87
484.82	19871.15
485.00	20126.27
485.18	20554.58
485.35	20577.99
485.53	20545.22
485.71	20699.70
485.89	21069.50
486.07	20826.09
486.25	21247.38
486.43	21090.57
486.61	21511.86
486.78	21792.73
486.96	21832.52
487.14	22216.36
487.32	22291.26
487.50	22539.36
487.68	22508.93
487.85	23204.07
488.03	22857.67
488.21	23496.64
488.39	23517.70
488.57	23714.31
488.75	23524.72
488.92	24034.96
489.10	24379.02
489.28	24292.42
489.46	24812.02
489.64	24561.58
489.81	25025.01
489.99	24943.09
490.17	25003.94
490.35	25184.16
490.53	25827.81
490.70	26038.46
490.88	25563.33
491.06	26024.42
491.24	25979.95
491.41	26190.59
491.59	26141.44
491.77	26511.25
491.95	26810.84
492.13	26829.56
492.30	27342.14
492.48	26859.99
492.66	27276.60
492.84	27438.10
493.01	27536.40
493.19	27681.52
493.37	28432.83
493.54	28077.07
493.72	28229.20
493.90	28496.02
494.08	28194.09
494.25	29270.74
494.43	28882.21
494.61	29656.93
494.79	29380.74
494.96	29551.60
495.14	29855.87
495.32	29979.92
495.49	30618.89
495.67	30321.64
495.85	30073.54
496.02	30920.82
496.20	30827.20
496.38	30654.00
496.55	31255.51
496.73	31409.99
496.91	31370.20
497.09	31714.26
497.26	32020.87
497.44	31683.83
497.62	31845.33
497.79	31899.16
497.97	32173.00
498.14	32959.42
498.32	32589.62
498.50	33046.02
498.67	32732.39
498.85	32966.45
499.03	33137.30
499.20	33441.57
499.38	33457.96
499.56	33612.43
499.73	33766.91
499.91	34022.03
500.08	34258.42
500.26	33954.15
500.44	34305.23
500.61	34466.73
500.79	34073.52
500.97	34462.05
501.14	34958.24
501.32	35185.27
501.49	34733.55
501.67	34728.87
501.84	35012.07
502.02	35131.44
502.20	35714.23
502.37	36060.63
502.55	36074.68
502.72	35538.69
502.90	36034.89
503.07	35618.27
503.25	36254.90
503.43	35847.64
503.60	36517.04
503.78	36467.89
503.95	36308.73
504.13	36491.29
504.30	36875.14
504.48	36486.61
504.65	37240.26
504.83	37207.50
505.01	38017.32
505.18	37434.53
505.36	37509.43
505.53	37666.24
505.71	37633.47
505.88	37699.01
506.06	37736.46
506.23	38412.87
506.41	38307.55
506.58	38565.01
506.76	38396.49
506.93	38412.87
507.11	38375.42
507.28	38644.59
507.46	39058.86
507.63	39297.59
507.81	39328.02
507.98	39269.51
508.16	39145.46
508.33	39594.84
508.50	39409.94
508.68	39868.69
508.85	39981.03
509.03	40191.68
509.20	40280.62
509.38	40460.84
509.55	40559.14
509.73	40547.44
509.90	40484.25
510.08	40844.69
510.25	40664.47
510.42	40933.63
510.60	41125.55
510.77	41104.49
510.95	41689.62
511.12	40961.72
511.30	41273.01
511.47	41523.44
511.64	42131.98
511.82	41755.16
511.99	41752.82
512.17	41991.55
512.34	41764.52
512.51	41937.72
512.69	42436.25
512.86	42424.55
513.04	42693.71
513.21	42876.27
513.38	42852.87
513.56	43084.58
513.73	42618.81
513.90	42883.30
514.08	43253.10
514.25	42766.27
514.43	43297.57
514.60	43494.18
514.77	43552.69
514.95	43700.14
515.12	43557.37
515.29	43241.40
515.47	44243.15
515.64	44201.02
515.81	43917.81
515.99	44381.24
516.16	44760.40
516.33	44306.34
516.51	45247.24
516.68	44247.83
516.85	44512.31
517.03	45043.61
517.20	44516.99
517.37	45179.36
517.54	44772.11
517.72	44959.35
517.89	45083.40
518.06	45333.84
518.24	45701.30
518.41	45315.11
518.58	45769.18
518.75	45315.11
518.93	45462.57
519.10	45741.09
519.27	45666.19
519.45	45876.84
519.62	45923.65
519.79	45834.71
519.96	46387.08
520.14	46557.94
520.31	46424.53
520.48	46775.61
520.65	46534.53
520.83	46799.01
521.00	46415.16
521.17	46808.37
521.34	46632.83
521.52	47122.01
521.69	47152.43
521.86	47192.22
522.03	47430.96
522.20	47384.15
522.38	47297.55
522.55	47152.43
522.72	47456.70
522.89	47913.11
523.07	48151.84
523.24	47765.65
523.41	48062.90
523.58	47524.58
523.75	47941.19
523.92	48151.84
524.10	48383.55
524.27	48296.95
524.44	48275.89
524.61	48636.33
524.78	48699.53
524.96	48390.58
525.13	48645.69
525.30	48622.29
525.47	48671.44
525.64	48868.05
525.81	49081.03
525.98	49095.08
526.16	49303.38
526.33	48975.71
526.50	49071.67
526.67	49277.64
526.84	49118.48
527.01	49368.92
527.18	49357.22
527.36	49780.85
527.53	49422.75
527.70	49930.65
527.87	50103.85
528.04	49858.09
528.21	49769.15
528.38	49890.86
528.55	49813.62
528.72	50059.38
528.89	50281.73
529.07	50258.32
529.24	49965.76
529.41	50408.12
529.58	50333.22
529.75	50021.93
529.92	50361.31
530.09	50436.20
530.26	50354.29
530.43	50646.85
530.60	50429.18
530.77	50478.33
530.94	50728.77
531.11	50635.15
531.28	50618.77
531.46	50810.69
531.63	51246.03
531.80	50890.27
531.97	51058.79
532.14	51049.42
532.31	50670.26
532.48	50873.88
532.65	51030.70
532.82	51131.34
532.99	51379.44
533.16	51257.73
533.33	51433.27
533.50	51945.85
533.67	51384.12
533.84	51669.67
534.01	51559.66
534.18	51337.31
534.35	51997.34
534.52	51716.48
534.69	52287.57
534.86	52074.58
535.03	51913.08
535.20	52121.39
535.37	52002.02
535.54	51966.91
535.71	51833.50
535.88	52126.07
536.05	52123.73
536.22	52240.76
536.38	52399.91
536.55	52582.48
536.72	52177.56
536.89	52350.76
537.06	52182.24
537.23	52610.56
537.40	52306.29
537.57	52416.30
537.74	52360.12
537.91	52598.86
538.08	52989.73
538.25	52603.54
538.42	52727.59
538.59	53073.99
538.75	52790.78
538.92	52795.46
539.09	53081.01
539.26	53326.77
539.43	53420.39
539.60	53001.43
539.77	53036.54
539.94	53404.00
540.11	53183.99
540.28	53099.73
540.44	53134.84
540.61	53165.27
540.78	53151.23
540.95	53418.05
541.12	53317.40
541.29	53125.48
541.46	53191.01
541.62	53329.11
541.79	53303.36
541.96	53165.27
542.13	53460.18
542.30	53808.92
542.47	53698.91
542.63	53963.39
542.80	54007.86
542.97	53818.28
543.14	54035.95
543.31	53956.37
543.48	54174.04
543.64	54164.68
543.81	54288.73
543.98	54398.73
544.15	54295.75
544.32	54403.41
544.48	54445.54
544.65	54122.55
544.82	54241.92
544.99	54113.19
545.16	54600.02
545.32	54508.74
545.49	54614.06
545.66	54906.63
545.83	55002.59
546.00	54834.07
546.16	54876.20
546.33	54539.16
546.50	54113.19
546.67	54501.71
546.83	54281.70
547.00	54536.82
547.17	54607.04
547.34	54852.80
547.50	54878.54
547.67	55007.27
547.84	54782.58
548.00	54866.84
548.17	55110.25
548.34	54901.95
548.51	55100.89
548.67	55199.19
548.84	55166.43
549.01	55150.04
549.18	55044.72
549.34	55442.61
549.51	55206.22
549.68	55236.64
549.84	55128.98
550.01	55496.44
550.18	55231.96
550.34	55423.89
550.51	55267.07
550.68	55311.54
550.84	54995.57
551.01	55257.71
551.18	55393.46
551.34	55339.63
551.51	55561.98
551.68	55751.56
551.84	55449.63
552.01	55585.38
552.18	55660.28
552.34	55627.51
552.51	55786.67
552.68	55702.41
552.84	55683.69
553.01	55913.06
553.18	55856.88
553.34	56002.00
553.51	55973.91
553.67	55847.52
553.84	56257.12
554.01	56114.34
554.17	55950.51
554.34	55845.18
554.51	55992.64
554.67	55950.51
554.84	56294.56
555.00	56097.96
555.17	56090.94
555.33	56086.26
555.50	56072.21
555.67	56177.54
555.83	56280.52
556.00	56097.96
556.16	56495.85
556.33	56107.32
556.50	55983.27
556.66	56353.08
556.83	56357.76
556.99	56582.45
557.16	56313.29
557.32	56554.36
557.49	56301.59
557.65	56287.54
557.82	56341.38
557.98	56317.97
558.15	56439.68
558.32	56530.96
558.48	56470.11
558.65	56493.51
558.81	56626.92
558.98	56463.08
559.14	56671.39
559.31	56463.08
559.47	56594.15
559.64	56860.97
559.80	56605.86
559.97	56720.54
560.13	56783.74
560.30	56594.15
560.46	56762.67
560.63	56706.50
560.79	56816.50
560.96	56860.97
561.12	56701.82
561.29	56507.55
561.45	56865.66
561.61	56992.04
561.78	56802.46
561.94	56741.61
562.11	57069.28
562.27	56732.25
562.44	56818.84
562.60	56940.55
562.77	56858.63
562.93	56910.13
563.10	57179.29
563.26	56931.19
563.42	57118.43
563.59	56982.68
563.75	57071.62
563.92	57277.59
564.08	56851.61
564.24	57008.43
564.41	57045.88
564.57	56860.97
564.74	56921.83
564.90	57109.07
565.07	57041.20
565.23	57443.77
565.39	57272.91
565.56	57216.74
565.72	56788.42
565.88	57153.54
566.05	56928.85
566.21	56802.46
566.38	57237.80
566.54	57109.07
566.70	57111.41
566.87	57214.40
567.03	57223.76
567.19	57499.94
567.36	57130.14
567.52	57151.20
567.68	57406.32
567.85	57198.01
568.01	56919.49
568.17	57111.41
568.34	57436.75
568.50	57408.66
568.66	57366.53
568.83	57521.01
568.99	57403.98
569.15	57256.53
569.32	57216.74
569.48	57258.87
569.64	57385.25
569.81	57359.51
569.97	57125.46
570.13	57560.79
570.30	57324.40
570.46	57418.02
570.62	57375.89
570.78	57366.53
570.95	57373.55
571.11	57336.10
571.27	57303.34
571.43	57427.38
571.60	57495.26
571.76	57471.85
571.92	57436.75
572.09	57392.28
572.25	57581.86
572.41	57598.24
572.57	57481.22
572.74	57602.92
572.90	57530.37
573.06	57556.11
573.22	57516.32
573.38	57511.64
573.55	57570.16
573.71	57942.30
573.87	57645.05
574.03	57748.04
574.20	57687.18
574.36	57467.17
574.52	57556.11
574.68	57614.63
574.84	57528.03
575.01	57785.49
575.17	57759.74
575.33	57656.76
575.49	57542.07
575.65	57792.51
575.82	57726.97
575.98	57666.12
576.14	57666.12
576.30	57574.84
576.46	57719.95
576.62	57492.92
576.79	57516.32
576.95	57556.11
577.11	57780.81
577.27	57476.54
577.43	57771.44
577.59	57851.02
577.75	57621.65
577.92	57567.82
578.08	57647.39
578.24	57593.56
578.40	57675.48
578.56	57558.45
578.72	57542.07
578.88	57895.49
579.04	58038.26
579.21	57574.84
579.37	57436.75
579.53	57879.11
579.69	57619.31
579.85	57705.91
580.01	57811.23
580.17	57741.02
580.33	57865.06
580.49	57989.11
580.65	57839.32
580.82	58169.33
580.98	57963.37
581.14	57790.17
581.30	57923.58
581.46	57801.87
581.62	57705.91
581.78	57584.20
581.94	57605.26
582.10	57832.30
582.26	57677.82
582.42	57918.90
582.58	58103.80
582.74	58099.12
582.90	58031.24
583.06	58003.16
583.22	57993.79
583.38	57886.13
583.54	58007.84
583.70	57752.72
583.86	57881.45
584.02	57942.30
584.18	58026.56
584.34	57935.28
584.50	58138.91
584.66	57895.49
584.82	57626.33
584.98	57839.32
585.14	58042.95
585.30	57773.78
585.46	58106.14
585.62	58035.92
585.78	58066.35
585.94	57851.02
586.10	57977.41
586.26	58019.54
586.42	58068.69
586.58	58117.84
586.74	57614.63
586.90	57886.13
587.06	57836.98
587.22	58035.92
587.38	57661.44
587.54	58035.92
587.70	58199.76
587.86	58152.95
588.02	58040.60
588.18	58152.95
588.34	58164.65
588.49	58075.71
588.65	57801.87
588.81	57991.45
588.97	57972.73
589.13	57895.49
589.29	58026.56
589.45	58178.70
589.61	58078.05
