SpectraSuite Data File
++++++++++++++++++++++++++++++++++++
Date: Fri Oct 04 11:48:45 GMT-05:00 2013
User: price-jones
Dark Spectrum Present: No
Reference Spectrum Present: No
Number of Sampled Component Spectra: 1
Spectrometers: USB2+H05261
Integration Time (usec): 100000 (USB2+H05261)
Spectra Averaged: 1 (USB2+H05261)
Boxcar Smoothing: 0 (USB2+H05261)
Correct for Electrical Dark: No (USB2+H05261)
Strobe/Lamp Enabled: No (USB2+H05261)
Correct for Detector Non-linearity: No (USB2+H05261)
Correct for Stray Light: No (USB2+H05261)
Number of Pixels in Processed Spectrum: 2048
>>>>>Begin Processed Spectral Data<<<<<
365.73	65.54
365.92	65.54
366.12	65.54
366.32	0.00
366.52	0.00
366.72	0.00
366.91	0.00
367.11	0.00
367.31	0.00
367.51	0.00
367.70	0.00
367.90	0.00
368.10	0.00
368.30	0.00
368.49	0.00
368.69	0.00
368.89	0.00
369.09	0.00
369.28	0.00
369.48	0.00
369.68	16.38
369.87	56.17
370.07	7.02
370.27	0.00
370.47	161.50
370.66	580.45
370.86	648.33
371.06	585.13
371.25	615.56
371.45	615.56
371.65	674.07
371.84	603.86
372.04	596.84
372.24	692.80
372.44	650.67
372.63	660.03
372.83	706.84
373.03	671.73
373.22	753.65
373.42	830.89
373.62	711.52
373.81	807.48
374.01	755.99
374.21	753.65
374.40	765.36
374.60	833.23
374.79	774.72
374.99	765.36
375.19	802.80
375.38	910.47
375.58	861.32
375.78	793.44
375.97	894.08
376.17	901.11
376.37	870.68
376.56	877.70
376.76	847.27
376.95	849.61
377.15	931.53
377.35	805.14
377.54	840.25
377.74	849.61
377.93	952.60
378.13	917.49
378.33	980.68
378.52	875.36
378.72	1011.11
378.91	1008.77
379.11	908.13
379.31	973.66
379.50	997.07
379.70	1018.13
379.89	1069.62
380.09	903.45
380.28	1048.56
380.48	1057.92
380.68	994.73
380.87	945.58
381.07	980.68
381.26	1151.54
381.46	1123.46
381.65	1095.37
381.85	1111.75
382.04	1174.95
382.24	1100.05
382.43	1064.94
382.63	1123.46
382.83	1238.14
383.02	1153.88
383.22	1184.31
383.41	1109.41
383.61	1188.99
383.80	1275.59
384.00	1118.78
384.19	1167.93
384.39	1306.02
384.58	1193.67
384.78	1224.10
384.97	1329.42
385.17	1291.98
385.36	1277.93
385.56	1254.53
385.75	1313.04
385.95	1282.61
386.14	1261.55
386.34	1266.23
386.53	1249.85
386.72	1317.72
386.92	1320.06
387.11	1416.02
387.31	1320.06
387.50	1413.68
387.70	1390.28
387.89	1420.71
388.09	1430.07
388.28	1423.05
388.48	1448.79
388.67	1439.43
388.86	1462.83
389.06	1401.98
389.25	1469.86
389.45	1514.33
389.64	1444.11
389.84	1526.03
390.03	1516.67
390.22	1577.52
390.42	1565.82
390.61	1643.06
390.81	1551.78
391.00	1591.56
391.19	1568.16
391.39	1722.63
391.58	1643.06
391.78	1624.33
391.97	1739.02
392.16	1647.74
392.36	1776.47
392.55	1734.34
392.75	1722.63
392.94	1636.03
393.13	1678.16
393.33	1853.70
393.52	1792.85
393.71	1827.96
393.91	1830.30
394.10	1668.80
394.29	1886.47
394.49	1898.17
394.68	1865.41
394.88	1980.09
395.07	1956.69
395.26	2026.90
395.46	1923.92
395.65	1928.60
395.84	1942.64
396.04	2167.34
396.23	2050.31
396.42	1961.37
396.62	1942.64
396.81	2036.27
397.00	2057.33
397.19	2150.95
397.39	2141.59
397.58	2134.57
397.77	2289.04
397.97	2211.81
398.16	2141.59
398.35	2129.89
398.55	2146.27
398.74	2232.87
398.93	2204.78
399.12	2225.85
399.32	2223.51
399.51	2221.17
399.70	2361.60
399.90	2347.56
400.09	2413.09
400.28	2368.62
400.47	2406.07
400.67	2415.43
400.86	2455.22
401.05	2389.69
401.24	2541.82
401.44	2513.74
401.63	2523.10
401.82	2495.01
402.01	2523.10
402.21	2635.44
402.40	2602.68
402.59	2520.76
402.78	2562.89
402.97	2705.66
403.17	2513.74
403.36	2682.25
403.55	2738.43
403.74	2820.35
403.93	2850.77
404.13	2963.12
404.32	2818.00
404.51	2796.94
404.70	2946.73
404.89	2775.88
405.09	3023.97
405.28	2956.10
405.47	3026.31
405.66	2895.24
405.85	2904.60
406.05	2984.18
406.24	3009.93
406.43	3042.70
406.62	3129.30
406.81	3218.24
407.00	3129.30
407.20	3105.89
407.39	3016.95
407.58	3206.53
407.77	3283.77
407.96	3346.97
408.15	3314.20
408.34	3307.18
408.54	3361.01
408.73	3368.03
408.92	3461.65
409.11	3403.14
409.30	3501.44
409.49	3550.59
409.68	3576.34
409.87	3501.44
410.07	3637.19
410.26	3595.06
410.45	3520.17
410.64	3550.59
410.83	3850.18
411.02	3681.66
411.21	3819.75
411.40	3740.18
411.59	3744.86
411.78	3864.22
411.98	3913.38
412.17	3948.48
412.36	3927.42
412.55	4077.21
412.74	4152.11
412.93	3999.98
413.12	3955.51
413.31	4248.07
413.50	4145.09
413.69	4198.92
413.88	4294.88
414.07	4154.45
414.26	4353.40
414.45	4344.03
414.64	4573.41
414.83	4585.11
415.02	4547.66
415.22	4531.28
415.41	4641.28
415.60	4587.45
415.79	4734.90
415.98	4798.10
416.17	4910.44
416.36	4725.54
416.55	4805.12
416.74	4875.34
416.93	4919.81
417.12	4987.68
417.31	5036.83
417.50	4983.00
417.69	5179.61
417.88	5078.96
418.07	5205.35
418.26	5160.88
418.45	5179.61
418.64	5280.25
418.83	5430.04
419.02	5296.63
419.21	5343.44
419.39	5362.17
419.58	5455.79
419.77	5392.59
419.96	5621.97
420.15	5453.45
420.34	5397.28
420.53	5640.69
420.72	5624.31
420.91	5760.06
421.10	5701.54
421.29	5720.27
421.48	5668.78
421.67	5788.14
421.86	5713.25
422.05	6024.54
422.24	5959.00
422.43	5858.36
422.61	5940.28
422.80	5991.77
422.99	5888.79
423.18	6047.94
423.37	6087.73
423.56	5933.26
423.75	5977.73
423.94	6001.13
424.13	5472.17
424.32	5692.18
424.50	5973.05
424.69	6193.06
424.88	6057.31
425.07	5989.43
425.26	5792.83
425.45	6040.92
425.64	6099.44
425.83	6017.52
426.01	6282.00
426.20	6143.91
426.39	6092.41
426.58	6071.35
426.77	6296.04
426.96	6291.36
427.15	6258.59
427.33	6347.53
427.52	6319.45
427.71	6235.19
427.90	6356.90
428.09	6406.05
428.28	6389.66
428.46	6445.84
428.65	6509.03
428.84	6633.08
429.03	6740.74
429.22	6497.33
429.40	6614.35
429.59	6555.84
429.78	6490.31
429.97	6525.41
430.16	6403.71
430.34	6801.60
430.53	7115.23
430.72	6939.69
430.91	6740.74
431.10	6902.24
431.28	6984.16
431.47	7124.59
431.66	7197.15
431.85	6984.16
432.03	7234.60
432.22	7211.19
432.41	7019.27
432.60	7396.09
432.79	7197.15
432.97	7407.80
433.16	7276.73
433.35	7309.49
433.54	7438.22
433.72	7461.63
433.91	7405.46
434.10	7480.35
434.28	7529.50
434.47	7660.57
434.66	7705.04
434.85	7681.64
435.03	7644.19
435.22	7590.36
435.41	7911.01
435.59	7922.71
435.78	7873.56
435.97	7796.32
436.16	7911.01
436.34	7822.07
436.53	8049.10
436.72	8140.38
436.90	7901.65
437.09	8109.96
437.28	8002.29
437.46	8140.38
437.65	8219.96
437.84	8287.84
438.02	8439.97
438.21	8257.41
438.40	8360.39
438.58	8578.06
438.77	8545.30
438.96	8517.21
439.14	8664.66
439.33	8641.26
439.52	9008.72
439.70	8828.50
439.89	9107.02
440.08	8945.53
440.26	9050.85
440.45	9275.54
440.63	9275.54
440.82	9324.69
441.01	9312.99
441.19	9413.63
441.38	9420.66
441.57	9614.92
441.75	9729.61
441.94	9631.30
442.12	9650.03
442.31	10031.54
442.50	9984.73
442.68	9830.25
442.87	9977.70
443.05	9921.53
443.24	10167.29
443.43	10221.12
443.61	9956.64
443.80	10431.77
443.98	9895.78
444.17	9788.12
444.35	10115.80
444.54	10394.32
444.73	10223.46
444.91	10083.03
445.10	10349.85
445.28	10300.70
445.47	10104.09
445.65	10408.36
445.84	10448.15
446.02	10619.01
446.21	10237.50
446.39	10342.83
446.58	10293.68
446.77	10427.09
446.95	10413.04
447.14	10457.51
447.32	10541.77
447.51	10391.98
447.69	10410.70
447.88	10785.19
448.06	10551.14
448.25	10518.37
448.43	10731.36
448.62	10658.80
448.80	10450.49
448.99	10621.35
449.17	10927.96
449.36	10703.27
449.54	11068.39
449.73	11164.36
449.91	11220.53
450.10	11260.32
450.28	11342.24
450.46	11257.98
450.65	11112.86
450.83	11115.20
451.02	11372.66
451.20	11428.84
451.39	11442.88
451.57	11325.85
451.76	11412.45
451.94	11515.44
452.13	11522.46
452.31	11735.45
452.49	11384.37
452.68	11559.91
452.86	11620.76
453.05	11768.21
453.23	11721.40
453.42	11433.52
453.60	11658.21
453.78	11782.26
453.97	11723.74
454.15	11674.59
454.34	11686.29
454.52	11831.41
454.70	11995.25
454.89	12140.36
455.07	12049.08
455.26	12121.63
455.44	12252.70
455.62	12514.84
455.81	12297.17
455.99	12390.80
456.17	12463.35
456.36	12606.13
456.54	12622.51
456.73	12823.80
456.91	13067.21
457.09	13001.68
457.28	13231.05
457.46	12814.43
457.64	13242.75
457.83	12957.21
458.01	13025.08
458.19	13022.74
458.38	12987.63
458.56	13748.31
458.74	13202.96
458.93	13348.08
459.11	13376.16
459.29	13593.83
459.48	13479.15
459.66	13680.43
459.84	13666.39
460.03	13701.50
460.21	13743.63
460.39	13596.17
460.57	13451.06
460.76	13949.59
460.94	14223.44
461.12	13884.06
461.31	13858.31
461.49	13771.71
461.67	14097.05
461.85	14345.14
462.04	14202.37
462.22	14780.48
462.40	14677.50
462.59	14413.02
462.77	14476.21
462.95	14530.05
463.13	14415.36
463.32	14464.51
463.50	14672.82
463.68	14757.08
463.86	14581.54
464.05	14626.01
464.23	14766.44
464.41	14848.36
464.59	14686.86
464.78	15192.42
464.96	14881.13
465.14	14658.78
465.32	15199.44
465.50	15316.47
465.69	15222.84
465.87	15049.64
466.05	14991.13
466.23	15070.71
466.41	15403.07
466.60	15843.09
466.78	15314.13
466.96	15115.18
467.14	15353.91
467.32	15391.36
467.51	15683.93
467.69	15431.15
467.87	15318.81
468.05	15810.32
468.23	15257.95
468.41	15702.65
468.60	15751.81
468.78	15903.94
468.96	15836.06
469.14	16091.18
469.32	16465.67
469.50	15578.61
469.69	16369.71
469.87	16374.39
470.05	16313.53
470.23	16526.52
470.41	16250.34
470.59	16596.74
470.77	16575.67
470.95	16470.35
471.14	16816.75
471.32	16627.17
471.50	17142.08
471.68	16987.61
471.86	16985.27
472.04	17121.02
472.22	17717.86
472.40	17343.37
472.58	17582.10
472.77	17287.20
472.95	17811.48
473.13	18225.75
473.31	17750.62
473.49	17848.93
473.67	17902.76
473.85	18148.51
474.03	18705.56
474.21	17991.70
474.39	18405.97
474.57	18595.56
474.75	18567.47
474.93	18867.06
475.12	19021.53
475.30	18497.25
475.48	19063.66
475.66	19201.76
475.84	19332.82
476.02	19428.79
476.20	19538.79
476.38	19683.91
476.56	20266.70
476.74	20142.65
476.92	20058.39
477.10	20149.67
477.28	20444.58
477.46	20624.80
477.64	20704.38
477.82	21109.29
478.00	21205.25
478.18	21156.10
478.36	21839.54
478.54	21865.28
478.72	21738.90
478.90	21848.90
479.08	22354.46
479.26	22401.27
479.44	22237.43
479.62	22377.86
479.80	22764.05
479.98	22939.59
480.16	23295.35
480.34	22773.41
480.52	23527.06
480.70	23599.62
480.88	23398.34
481.06	23639.41
481.24	23651.11
481.41	24095.82
481.59	24776.91
481.77	24514.77
481.95	25081.18
482.13	24678.61
482.31	24833.08
482.49	25364.39
482.67	25570.35
482.85	25703.76
483.03	26370.82
483.21	26635.30
483.39	26850.63
483.57	26394.22
483.74	26518.27
483.92	27440.44
484.10	27173.62
484.28	27772.80
484.46	27667.47
484.64	28350.91
484.82	27653.43
485.00	28418.78
485.18	28957.11
485.35	29071.79
485.53	28833.06
485.71	29244.99
485.89	29617.14
486.07	29310.53
486.25	29319.89
486.43	29738.85
486.61	30452.71
486.78	30756.98
486.96	30848.26
487.14	31264.88
487.32	30998.06
487.50	31419.35
487.68	31534.04
487.85	32095.77
488.03	32601.32
488.21	33137.30
488.39	32861.12
488.57	33057.73
488.75	33193.48
488.92	33436.89
489.10	33542.22
489.28	33816.06
489.46	34595.46
489.64	34370.77
489.81	35115.06
489.99	35044.84
490.17	34878.66
490.35	35646.36
490.53	35730.62
490.70	36219.79
490.88	36273.62
491.06	36814.29
491.24	36701.94
491.41	36746.41
491.59	37170.05
491.77	37148.98
491.95	37895.61
492.13	37722.41
492.30	37919.02
492.48	37958.81
492.66	38417.55
492.84	38562.67
493.01	38890.34
493.19	39189.93
493.37	39232.06
493.54	39168.87
493.72	39468.45
493.90	39665.06
494.08	40095.72
494.25	40032.52
494.43	40495.95
494.61	40989.80
494.79	41478.97
494.96	40802.56
495.14	41385.35
495.32	41872.18
495.49	41982.19
495.67	42422.21
495.85	42911.38
496.02	42651.58
496.20	42738.18
496.38	42848.19
496.55	42974.58
496.73	43812.49
496.91	43632.27
497.09	43419.28
497.26	44383.58
497.44	44388.26
497.62	44254.85
497.79	44949.99
497.97	44919.56
498.14	45485.97
498.32	45078.72
498.50	45460.23
498.67	45839.39
498.85	45441.50
499.03	45956.42
499.20	45923.65
499.38	46387.08
499.56	46143.66
499.73	47075.19
499.91	46754.54
500.08	47070.51
500.26	46450.27
500.44	47124.35
500.61	47147.75
500.79	47283.50
500.97	47611.18
501.14	48247.80
501.32	47978.64
501.49	47899.06
501.67	48170.57
501.84	48161.20
502.02	48383.55
502.20	48912.52
502.37	48856.34
502.55	48886.77
502.72	49216.78
502.90	49265.94
503.07	48999.12
503.25	49439.14
503.43	49123.16
503.60	49794.90
503.78	49916.61
503.95	49876.82
504.13	49846.39
504.30	49645.10
504.48	50000.86
504.65	49963.42
504.83	50586.00
505.01	51367.74
505.18	50810.69
505.36	51372.42
505.53	50829.41
505.71	50864.52
505.88	51129.00
506.06	51243.69
506.23	51557.32
506.41	51243.69
506.58	51976.28
506.76	51494.13
506.93	51927.13
507.11	51646.26
507.28	51854.57
507.46	52121.39
507.63	52289.91
507.81	52528.64
507.98	52348.42
508.16	52282.89
508.33	52444.38
508.50	52313.31
508.68	52626.95
508.85	53111.44
509.03	52814.19
509.20	53329.11
509.38	53109.10
509.55	53474.22
509.73	53413.37
509.90	53579.54
510.08	53792.53
510.25	53670.82
510.42	53612.31
510.60	53755.08
510.77	54167.02
510.95	53890.83
511.12	54075.74
511.30	54157.66
511.47	54340.22
511.64	54482.99
511.82	54391.71
511.99	54438.52
512.17	54382.35
512.34	54468.95
512.51	54656.19
512.69	54885.56
512.86	54642.15
513.04	54962.80
513.21	55395.80
513.38	55360.69
513.56	55360.69
513.73	55264.73
513.90	55152.38
514.08	55440.27
514.25	55398.14
514.43	55859.23
514.60	55608.79
514.77	55632.19
514.95	55805.39
515.12	55554.96
515.29	55573.68
515.47	56051.15
515.64	56128.39
515.81	56207.97
515.99	56292.22
516.16	56357.76
516.33	56336.69
516.51	56399.89
516.68	56261.80
516.85	56437.34
517.03	56624.58
517.20	56699.48
517.37	56666.71
517.54	56823.53
517.72	56846.93
517.89	57013.11
518.06	56868.00
518.24	56893.74
518.41	57104.39
518.58	57165.24
518.75	57080.98
518.93	57403.98
519.10	57214.40
519.27	57457.81
519.45	57062.26
519.62	57382.91
519.79	57361.85
519.96	57598.24
520.14	57783.15
520.31	57724.63
520.48	57785.49
520.65	57818.25
520.83	57989.11
521.00	57909.53
521.17	57738.68
521.34	58253.59
521.52	58220.83
521.69	58230.19
521.86	58365.94
522.03	58361.26
522.20	58351.90
522.38	58394.03
522.55	58286.36
522.72	58377.64
522.89	58616.38
523.07	58784.90
523.24	58457.22
523.41	58899.58
523.58	58773.19
523.75	58810.64
523.92	58677.23
524.10	58749.79
524.27	59068.10
524.44	59114.91
524.61	59278.75
524.78	59243.64
524.96	59154.70
525.13	59140.66
525.30	59187.47
525.47	59440.24
525.64	59147.68
525.81	59447.27
525.98	59693.02
526.16	59746.86
526.33	59620.47
526.50	59812.39
526.67	59437.90
526.84	59643.87
527.01	59641.53
527.18	59831.11
527.36	59903.67
527.53	59798.35
527.70	60238.37
527.87	60123.68
528.04	59774.94
528.21	59973.89
528.38	60142.41
528.55	60140.07
528.72	60198.58
528.89	60158.79
529.07	60367.10
529.24	60200.92
529.41	60275.82
529.58	60343.69
529.75	60315.61
529.92	60575.40
530.09	60509.87
530.26	60636.26
530.43	60514.55
530.60	60474.76
530.77	60619.88
530.94	60542.64
531.11	60727.54
531.28	60402.21
531.46	60617.53
531.63	60846.91
531.80	60844.57
531.97	60963.93
532.14	60938.19
532.31	61057.56
532.48	60966.27
532.65	61062.24
532.82	61034.15
532.99	61118.41
533.16	60966.27
533.33	61448.42
533.50	61333.74
533.67	61312.67
533.84	61197.99
534.01	61216.71
534.18	61209.69
534.35	61432.04
534.52	61733.97
534.69	61661.41
534.86	61778.44
535.03	61560.77
535.20	61654.39
535.37	61722.27
535.54	61752.69
535.71	61691.84
535.88	61647.37
536.05	61694.18
536.22	61827.59
536.38	62021.86
536.55	62049.94
536.72	61731.63
536.89	61717.59
537.06	61925.89
537.23	62003.13
537.40	61872.06
537.57	62073.35
537.74	61979.73
537.91	62344.85
538.08	62305.06
538.25	62169.31
538.42	62183.35
538.59	62284.00
538.75	62085.05
538.92	62159.95
539.09	62494.64
539.26	62702.95
539.43	62628.05
539.60	62625.71
539.77	62293.36
539.94	62656.14
540.11	62691.25
540.28	62651.46
540.44	62536.77
540.61	62775.51
540.78	62672.52
540.95	62625.71
541.12	62583.58
541.29	62721.68
541.46	62599.97
541.62	62602.31
541.79	62827.00
541.96	62695.93
542.13	62756.78
542.30	62827.00
542.47	63082.12
542.63	62883.17
542.80	63107.86
542.97	63157.02
543.14	63168.72
543.31	63419.16
543.48	63135.95
543.64	63482.35
543.81	63444.90
543.98	63660.23
544.15	63571.29
544.32	63550.23
544.48	63685.98
544.65	63552.57
544.82	63372.34
544.99	63288.09
545.16	63463.63
545.32	63529.16
545.49	63917.69
545.66	63833.43
545.83	63786.62
546.00	64006.63
546.16	63887.26
546.33	63517.46
546.50	63608.74
546.67	63826.41
546.83	63561.93
547.00	63814.71
547.17	63793.64
547.34	63873.22
547.50	63922.37
547.67	64168.13
547.84	63992.59
548.00	64135.36
548.17	64144.72
548.34	64011.31
548.51	64175.15
548.67	64254.73
548.84	64264.09
549.01	64331.96
549.18	64320.26
549.34	64104.93
549.51	64151.74
549.68	64207.92
549.84	63973.86
550.01	64301.54
550.18	64095.57
550.34	64458.35
550.51	64481.76
550.68	64556.66
550.84	64313.24
551.01	64488.78
551.18	64526.23
551.34	64385.80
551.51	64544.95
551.68	64516.87
551.84	64676.02
552.01	64491.12
552.18	64638.57
552.34	64629.21
552.51	64755.60
552.68	64774.33
552.84	64706.45
553.01	64750.92
553.18	64860.93
553.34	64917.10
553.51	64851.56
553.67	64839.86
553.84	65155.83
554.01	64935.82
554.17	64984.97
554.34	64893.69
554.51	65085.62
554.67	64984.97
554.84	65031.78
555.00	65008.38
555.17	65006.04
555.33	64945.18
555.50	64856.24
555.67	65221.37
555.83	65071.57
556.00	65336.05
556.16	65385.21
556.33	65249.45
556.50	65296.27
556.66	65333.71
556.83	65298.61
556.99	65387.55
557.16	65410.95
557.32	65331.37
557.49	65535.00
557.65	65078.60
557.82	65457.76
557.98	65275.20
558.15	65366.48
558.32	65535.00
558.48	65378.18
558.65	65535.00
558.81	65535.00
558.98	65523.30
559.14	65464.78
559.31	65300.95
559.47	65464.78
559.64	65535.00
559.80	65535.00
559.97	65535.00
560.13	65535.00
560.30	65535.00
560.46	65535.00
560.63	65535.00
560.79	65535.00
560.96	65535.00
561.12	65535.00
561.29	65535.00
561.45	65535.00
561.61	65535.00
561.78	65535.00
561.94	65535.00
562.11	65535.00
562.27	65535.00
562.44	65535.00
562.60	65535.00
562.77	65535.00
562.93	65535.00
563.10	65535.00
563.26	65535.00
563.42	65535.00
563.59	65535.00
563.75	65535.00
563.92	65535.00
564.08	65535.00
564.24	65535.00
564.41	65535.00
564.57	65535.00
564.74	65535.00
564.90	65535.00
565.07	65535.00
565.23	65535.00
565.39	65535.00
565.56	65535.00
565.72	65535.00
565.88	65535.00
566.05	65535.00
566.21	65535.00
566.38	65535.00
566.54	65535.00
566.70	65535.00
566.87	65535.00
567.03	65535.00
567.19	65535.00
567.36	65535.00
567.52	65535.00
567.68	65535.00
567.85	65535.00
568.01	65535.00
568.17	65535.00
568.34	65535.00
568.50	65535.00
568.66	65535.00
568.83	65535.00
568.99	65535.00
569.15	65535.00
569.32	65535.00
569.48	65535.00
569.64	65535.00
569.81	65535.00
569.97	65535.00
570.13	65535.00
570.30	65535.00
570.46	65535.00
570.62	65535.00
570.78	65535.00
570.95	65535.00
571.11	65535.00
571.27	65535.00
571.43	65535.00
571.60	65535.00
571.76	65535.00
571.92	65535.00
572.09	65535.00
572.25	65535.00
572.41	65535.00
572.57	65535.00
572.74	65535.00
572.90	65535.00
573.06	65535.00
573.22	65535.00
573.38	65535.00
573.55	65535.00
573.71	65535.00
573.87	65535.00
574.03	65535.00
574.20	65535.00
574.36	65535.00
574.52	65535.00
574.68	65535.00
574.84	65535.00
575.01	65535.00
575.17	65535.00
575.33	65535.00
575.49	65535.00
575.65	65535.00
575.82	65535.00
575.98	65535.00
576.14	65535.00
576.30	65535.00
576.46	65535.00
576.62	65535.00
576.79	65535.00
576.95	65535.00
577.11	65535.00
577.27	65535.00
577.43	65535.00
577.59	65535.00
577.75	65535.00
577.92	65535.00
578.08	65535.00
578.24	65535.00
578.40	65535.00
578.56	65535.00
578.72	65535.00
578.88	65535.00
579.04	65535.00
579.21	65535.00
579.37	65535.00
579.53	65535.00
579.69	65535.00
579.85	65535.00
580.01	65535.00
580.17	65535.00
580.33	65535.00
580.49	65535.00
580.65	65535.00
580.82	65535.00
580.98	65535.00
581.14	65535.00
581.30	65535.00
581.46	65535.00
581.62	65535.00
581.78	65535.00
581.94	65535.00
582.10	65535.00
582.26	65535.00
582.42	65535.00
582.58	65535.00
582.74	65535.00
582.90	65535.00
583.06	65535.00
583.22	65535.00
583.38	65535.00
583.54	65535.00
583.70	65535.00
583.86	65535.00
584.02	65535.00
584.18	65535.00
584.34	65535.00
584.50	65535.00
584.66	65535.00
584.82	65535.00
584.98	65535.00
585.14	65535.00
585.30	65535.00
585.46	65535.00
585.62	65535.00
585.78	65535.00
585.94	65535.00
586.10	65535.00
586.26	65535.00
586.42	65535.00
586.58	65535.00
586.74	65535.00
586.90	65535.00
587.06	65535.00
587.22	65535.00
587.38	65535.00
587.54	65535.00
587.70	65535.00
587.86	65535.00
588.02	65535.00
