SpectraSuite Data File
++++++++++++++++++++++++++++++++++++
Date: Fri Oct 04 11:47:00 GMT-05:00 2013
User: price-jones
Dark Spectrum Present: No
Reference Spectrum Present: No
Number of Sampled Component Spectra: 1
Spectrometers: USB2+H05261
Integration Time (usec): 100000 (USB2+H05261)
Spectra Averaged: 1 (USB2+H05261)
Boxcar Smoothing: 0 (USB2+H05261)
Correct for Electrical Dark: No (USB2+H05261)
Strobe/Lamp Enabled: No (USB2+H05261)
Correct for Detector Non-linearity: No (USB2+H05261)
Correct for Stray Light: No (USB2+H05261)
Number of Pixels in Processed Spectrum: 2048
>>>>>Begin Processed Spectral Data<<<<<
365.73	4.68
365.92	4.68
366.12	4.68
366.32	0.00
366.52	0.00
366.72	0.00
366.91	0.00
367.11	0.00
367.31	0.00
367.51	0.00
367.70	14.04
367.90	0.00
368.10	0.00
368.30	0.00
368.49	0.00
368.69	0.00
368.89	0.00
369.09	0.00
369.28	0.00
369.48	0.00
369.68	0.00
369.87	0.00
370.07	0.00
370.27	11.70
370.47	49.15
370.66	0.00
370.86	60.85
371.06	105.32
371.25	133.41
371.45	46.81
371.65	35.11
371.84	28.09
372.04	60.85
372.24	0.00
372.44	86.60
372.63	81.92
372.83	121.71
373.03	133.41
373.22	114.69
373.42	86.60
373.62	86.60
373.81	121.71
374.01	131.07
374.21	121.71
374.40	72.56
374.60	95.96
374.79	102.98
374.99	25.75
375.19	56.17
375.38	135.75
375.58	74.90
375.78	145.11
375.97	72.56
376.17	140.43
376.37	112.35
376.56	126.39
376.76	28.09
376.95	74.90
377.15	135.75
377.35	189.58
377.54	121.71
377.74	133.41
377.93	65.54
378.13	117.03
378.33	51.49
378.52	133.41
378.72	154.48
378.91	102.98
379.11	0.00
379.31	112.35
379.50	42.13
379.70	112.35
379.89	149.79
380.09	102.98
380.28	32.77
380.48	152.13
380.68	88.94
380.87	60.85
381.07	79.58
381.26	159.16
381.46	110.01
381.65	88.94
381.85	126.39
382.04	35.11
382.24	105.32
382.43	100.64
382.63	63.19
382.83	60.85
383.02	124.05
383.22	182.56
383.41	67.88
383.61	102.98
383.80	196.60
384.00	124.05
384.19	53.83
384.39	53.83
384.58	91.28
384.78	156.82
384.97	140.43
385.17	18.72
385.36	23.41
385.56	102.98
385.75	32.77
385.95	46.81
386.14	18.72
386.34	105.32
386.53	53.83
386.72	100.64
386.92	67.88
387.11	84.26
387.31	147.45
387.50	53.83
387.70	124.05
387.89	133.41
388.09	51.49
388.28	147.45
388.48	88.94
388.67	145.11
388.86	145.11
389.06	77.24
389.25	112.35
389.45	105.32
389.64	77.24
389.84	117.03
390.03	102.98
390.22	177.88
390.42	30.43
390.61	35.11
390.81	21.06
391.00	117.03
391.19	65.54
391.39	60.85
391.58	128.73
391.78	91.28
391.97	93.62
392.16	32.77
392.36	142.77
392.55	58.51
392.75	135.75
392.94	142.77
393.13	91.28
393.33	32.77
393.52	156.82
393.71	79.58
393.91	88.94
394.10	58.51
394.29	65.54
394.49	79.58
394.68	177.88
394.88	117.03
395.07	74.90
395.26	72.56
395.46	79.58
395.65	124.05
395.84	119.37
396.04	163.84
396.23	51.49
396.42	98.30
396.62	128.73
396.81	77.24
397.00	100.64
397.19	23.41
397.39	32.77
397.58	100.64
397.77	65.54
397.97	102.98
398.16	140.43
398.35	110.01
398.55	35.11
398.74	126.39
398.93	182.56
399.12	86.60
399.32	117.03
399.51	133.41
399.70	46.81
399.90	119.37
400.09	81.92
400.28	114.69
400.47	147.45
400.67	131.07
400.86	154.48
401.05	138.09
401.24	128.73
401.44	121.71
401.63	107.66
401.82	161.50
402.01	126.39
402.21	112.35
402.40	133.41
402.59	86.60
402.78	102.98
402.97	121.71
403.17	46.81
403.36	28.09
403.55	88.94
403.74	105.32
403.93	138.09
404.13	140.43
404.32	175.54
404.51	67.88
404.70	135.75
404.89	114.69
405.09	163.84
405.28	91.28
405.47	79.58
405.66	126.39
405.85	124.05
406.05	72.56
406.24	37.45
406.43	112.35
406.62	67.88
406.81	142.77
407.00	128.73
407.20	56.17
407.39	133.41
407.58	25.75
407.77	154.48
407.96	159.16
408.15	110.01
408.34	194.26
408.54	30.43
408.73	18.72
408.92	117.03
409.11	191.92
409.30	168.52
409.49	110.01
409.68	126.39
409.87	149.79
410.07	117.03
410.26	67.88
410.45	44.47
410.64	117.03
410.83	91.28
411.02	88.94
411.21	140.43
411.40	133.41
411.59	86.60
411.78	145.11
411.98	42.13
412.17	72.56
412.36	30.43
412.55	84.26
412.74	173.20
412.93	149.79
413.12	53.83
413.31	170.86
413.50	156.82
413.69	81.92
413.88	156.82
414.07	121.71
414.26	133.41
414.45	110.01
414.64	102.98
414.83	107.66
415.02	74.90
415.22	126.39
415.41	170.86
415.60	105.32
415.79	135.75
415.98	177.88
416.17	107.66
416.36	32.77
416.55	72.56
416.74	138.09
416.93	142.77
417.12	124.05
417.31	180.22
417.50	107.66
417.69	159.16
417.88	184.90
418.07	140.43
418.26	173.20
418.45	163.84
418.64	290.23
418.83	238.73
419.02	198.95
419.21	161.50
419.39	100.64
419.58	201.29
419.77	210.65
419.96	142.77
420.15	159.16
420.34	100.64
420.53	152.13
420.72	105.32
420.91	220.01
421.10	44.47
421.29	154.48
421.48	112.35
421.67	81.92
421.86	67.88
422.05	74.90
422.24	98.30
422.43	117.03
422.61	95.96
422.80	163.84
422.99	131.07
423.18	105.32
423.37	135.75
423.56	93.62
423.75	126.39
423.94	72.56
424.13	84.26
424.32	91.28
424.50	112.35
424.69	98.30
424.88	131.07
425.07	135.75
425.26	142.77
425.45	234.05
425.64	262.14
425.83	205.97
426.01	184.90
426.20	177.88
426.39	145.11
426.58	184.90
426.77	142.77
426.96	117.03
427.15	138.09
427.33	198.95
427.52	138.09
427.71	95.96
427.90	112.35
428.09	67.88
428.28	110.01
428.46	117.03
428.65	220.01
428.84	149.79
429.03	163.84
429.22	154.48
429.40	121.71
429.59	156.82
429.78	138.09
429.97	152.13
430.16	98.30
430.34	187.24
430.53	105.32
430.72	124.05
430.91	147.45
431.10	124.05
431.28	117.03
431.47	140.43
431.66	145.11
431.85	107.66
432.03	156.82
432.22	163.84
432.41	149.79
432.60	107.66
432.79	147.45
432.97	271.50
433.16	320.65
433.35	297.25
433.54	280.86
433.72	191.92
433.91	189.58
434.10	140.43
434.28	257.46
434.47	135.75
434.66	184.90
434.85	147.45
435.03	138.09
435.22	166.18
435.41	173.20
435.59	145.11
435.78	114.69
435.97	133.41
436.16	133.41
436.34	159.16
436.53	128.73
436.72	93.62
436.90	163.84
437.09	177.88
437.28	159.16
437.46	163.84
437.65	107.66
437.84	60.85
438.02	114.69
438.21	112.35
438.40	77.24
438.58	145.11
438.77	23.41
438.96	177.88
439.14	110.01
439.33	177.88
439.52	133.41
439.70	241.08
439.89	100.64
440.08	133.41
440.26	91.28
440.45	166.18
440.63	77.24
440.82	168.52
441.01	128.73
441.19	147.45
441.38	128.73
441.57	93.62
441.75	168.52
441.94	163.84
442.12	65.54
442.31	79.58
442.50	49.15
442.68	102.98
442.87	128.73
443.05	107.66
443.24	161.50
443.43	124.05
443.61	227.03
443.80	135.75
443.98	208.31
444.17	126.39
444.35	154.48
444.54	114.69
444.73	119.37
444.91	147.45
445.10	145.11
445.28	117.03
445.47	161.50
445.65	84.26
445.84	107.66
446.02	149.79
446.21	147.45
446.39	110.01
446.58	161.50
446.77	124.05
446.95	210.65
447.14	124.05
447.32	243.42
447.51	168.52
447.69	140.43
447.88	135.75
448.06	156.82
448.25	163.84
448.43	105.32
448.62	98.30
448.80	93.62
448.99	166.18
449.17	152.13
449.36	133.41
449.54	159.16
449.73	91.28
449.91	180.22
450.10	84.26
450.28	224.69
450.46	196.60
450.65	180.22
450.83	119.37
451.02	117.03
451.20	133.41
451.39	138.09
451.57	161.50
451.76	149.79
451.94	107.66
452.13	182.56
452.31	149.79
452.49	173.20
452.68	138.09
452.86	152.13
453.05	88.94
453.23	72.56
453.42	159.16
453.60	84.26
453.78	166.18
453.97	112.35
454.15	131.07
454.34	128.73
454.52	74.90
454.70	140.43
454.89	222.35
455.07	91.28
455.26	173.20
455.44	229.37
455.62	152.13
455.81	203.63
455.99	161.50
456.17	173.20
456.36	51.49
456.54	156.82
456.73	119.37
456.91	189.58
457.09	117.03
457.28	135.75
457.46	161.50
457.64	187.24
457.83	154.48
458.01	124.05
458.19	187.24
458.38	128.73
458.56	159.16
458.74	180.22
458.93	152.13
459.11	110.01
459.29	159.16
459.48	100.64
459.66	163.84
459.84	194.26
460.03	252.78
460.21	215.33
460.39	140.43
460.57	201.29
460.76	142.77
460.94	140.43
461.12	220.01
461.31	187.24
461.49	147.45
461.67	131.07
461.85	175.54
462.04	114.69
462.22	564.07
462.40	145.11
462.59	173.20
462.77	98.30
462.95	182.56
463.13	163.84
463.32	173.20
463.50	126.39
463.68	114.69
463.86	182.56
464.05	119.37
464.23	271.50
464.41	212.99
464.59	107.66
464.78	72.56
464.96	154.48
465.14	152.13
465.32	224.69
465.50	175.54
465.69	159.16
465.87	105.32
466.05	84.26
466.23	145.11
466.41	51.49
466.60	156.82
466.78	102.98
466.96	114.69
467.14	140.43
467.32	53.83
467.51	145.11
467.69	138.09
467.87	203.63
468.05	161.50
468.23	124.05
468.41	187.24
468.60	161.50
468.78	128.73
468.96	198.95
469.14	67.88
469.32	98.30
469.50	93.62
469.69	248.10
469.87	180.22
470.05	105.32
470.23	156.82
470.41	140.43
470.59	140.43
470.77	201.29
470.95	198.95
471.14	191.92
471.32	88.94
471.50	220.01
471.68	163.84
471.86	119.37
472.04	135.75
472.22	126.39
472.40	149.79
472.58	166.18
472.77	88.94
472.95	128.73
473.13	182.56
473.31	210.65
473.49	119.37
473.67	161.50
473.85	140.43
474.03	147.45
474.21	175.54
474.39	133.41
474.57	194.26
474.75	126.39
474.93	173.20
475.12	114.69
475.30	142.77
475.48	131.07
475.66	224.69
475.84	124.05
476.02	131.07
476.20	177.88
476.38	133.41
476.56	161.50
476.74	93.62
476.92	70.22
477.10	156.82
477.28	112.35
477.46	77.24
477.64	168.52
477.82	135.75
478.00	107.66
478.18	147.45
478.36	210.65
478.54	133.41
478.72	222.35
478.90	177.88
479.08	84.26
479.26	53.83
479.44	166.18
479.62	147.45
479.80	166.18
479.98	72.56
480.16	107.66
480.34	142.77
480.52	170.86
480.70	173.20
480.88	128.73
481.06	161.50
481.24	147.45
481.41	133.41
481.59	110.01
481.77	166.18
481.95	131.07
482.13	189.58
482.31	189.58
482.49	147.45
482.67	198.95
482.85	149.79
483.03	121.71
483.21	105.32
483.39	163.84
483.57	229.37
483.74	241.08
483.92	140.43
484.10	105.32
484.28	177.88
484.46	170.86
484.64	161.50
484.82	227.03
485.00	114.69
485.18	121.71
485.35	173.20
485.53	138.09
485.71	175.54
485.89	128.73
486.07	117.03
486.25	175.54
486.43	91.28
486.61	210.65
486.78	276.18
486.96	98.30
487.14	135.75
487.32	121.71
487.50	170.86
487.68	210.65
487.85	152.13
488.03	161.50
488.21	215.33
488.39	184.90
488.57	201.29
488.75	135.75
488.92	353.42
489.10	98.30
489.28	299.59
489.46	168.52
489.64	138.09
489.81	124.05
489.99	166.18
490.17	203.63
490.35	262.14
490.53	124.05
490.70	196.60
490.88	299.59
491.06	140.43
491.24	238.73
491.41	224.69
491.59	187.24
491.77	140.43
491.95	138.09
492.13	128.73
492.30	138.09
492.48	182.56
492.66	224.69
492.84	184.90
493.01	161.50
493.19	145.11
493.37	224.69
493.54	152.13
493.72	156.82
493.90	147.45
494.08	215.33
494.25	196.60
494.43	161.50
494.61	102.98
494.79	126.39
494.96	196.60
495.14	205.97
495.32	135.75
495.49	154.48
495.67	203.63
495.85	161.50
496.02	194.26
496.20	224.69
496.38	215.33
496.55	229.37
496.73	177.88
496.91	147.45
497.09	191.92
497.26	189.58
497.44	215.33
497.62	180.22
497.79	142.77
497.97	102.98
498.14	152.13
498.32	205.97
498.50	105.32
498.67	227.03
498.85	182.56
499.03	170.86
499.20	128.73
499.38	215.33
499.56	163.84
499.73	243.42
499.91	189.58
500.08	208.31
500.26	138.09
500.44	156.82
500.61	287.89
500.79	196.60
500.97	145.11
501.14	208.31
501.32	236.39
501.49	222.35
501.67	215.33
501.84	170.86
502.02	135.75
502.20	182.56
502.37	163.84
502.55	173.20
502.72	222.35
502.90	168.52
503.07	220.01
503.25	255.12
503.43	231.71
503.60	234.05
503.78	238.73
503.95	229.37
504.13	152.13
504.30	189.58
504.48	196.60
504.65	175.54
504.83	212.99
505.01	161.50
505.18	161.50
505.36	159.16
505.53	147.45
505.71	166.18
505.88	220.01
506.06	159.16
506.23	189.58
506.41	201.29
506.58	177.88
506.76	222.35
506.93	203.63
507.11	142.77
507.28	173.20
507.46	196.60
507.63	224.69
507.81	194.26
507.98	264.48
508.16	231.71
508.33	227.03
508.50	241.08
508.68	91.28
508.85	173.20
509.03	212.99
509.20	205.97
509.38	229.37
509.55	252.78
509.73	224.69
509.90	283.20
510.08	196.60
510.25	177.88
510.42	191.92
510.60	175.54
510.77	215.33
510.95	191.92
511.12	201.29
511.30	248.10
511.47	255.12
511.64	278.52
511.82	191.92
511.99	234.05
512.17	170.86
512.34	145.11
512.51	107.66
512.69	264.48
512.86	266.82
513.04	184.90
513.21	184.90
513.38	184.90
513.56	180.22
513.73	210.65
513.90	170.86
514.08	196.60
514.25	187.24
514.43	168.52
514.60	182.56
514.77	241.08
514.95	238.73
515.12	220.01
515.29	220.01
515.47	194.26
515.64	231.71
515.81	156.82
515.99	287.89
516.16	152.13
516.33	234.05
516.51	241.08
516.68	138.09
516.85	166.18
517.03	184.90
517.20	229.37
517.37	154.48
517.54	147.45
517.72	215.33
517.89	196.60
518.06	191.92
518.24	133.41
518.41	196.60
518.58	184.90
518.75	201.29
518.93	234.05
519.10	259.80
519.27	201.29
519.45	173.20
519.62	184.90
519.79	212.99
519.96	227.03
520.14	205.97
520.31	250.44
520.48	248.10
520.65	210.65
520.83	264.48
521.00	229.37
521.17	184.90
521.34	201.29
521.52	203.63
521.69	154.48
521.86	241.08
522.03	231.71
522.20	229.37
522.38	203.63
522.55	135.75
522.72	184.90
522.89	156.82
523.07	238.73
523.24	212.99
523.41	229.37
523.58	180.22
523.75	229.37
523.92	163.84
524.10	196.60
524.27	203.63
524.44	182.56
524.61	234.05
524.78	166.18
524.96	248.10
525.13	170.86
525.30	215.33
525.47	196.60
525.64	229.37
525.81	229.37
525.98	161.50
526.16	236.39
526.33	198.95
526.50	149.79
526.67	271.50
526.84	198.95
527.01	133.41
527.18	196.60
527.36	227.03
527.53	236.39
527.70	212.99
527.87	217.67
528.04	255.12
528.21	180.22
528.38	224.69
528.55	203.63
528.72	255.12
528.89	194.26
529.07	222.35
529.24	273.84
529.41	269.16
529.58	220.01
529.75	212.99
529.92	191.92
530.09	215.33
530.26	238.73
530.43	212.99
530.60	222.35
530.77	227.03
530.94	252.78
531.11	245.76
531.28	294.91
531.46	248.10
531.63	121.71
531.80	241.08
531.97	245.76
532.14	173.20
532.31	215.33
532.48	264.48
532.65	322.99
532.82	395.55
532.99	322.99
533.16	348.74
533.33	285.55
533.50	236.39
533.67	262.14
533.84	423.64
534.01	416.62
534.18	393.21
534.35	301.93
534.52	318.31
534.69	215.33
534.86	243.42
535.03	224.69
535.20	224.69
535.37	142.77
535.54	238.73
535.71	257.46
535.88	266.82
536.05	236.39
536.22	177.88
536.38	196.60
536.55	194.26
536.72	262.14
536.89	220.01
537.06	210.65
537.23	198.95
537.40	208.31
537.57	220.01
537.74	205.97
537.91	227.03
538.08	231.71
538.25	283.20
538.42	215.33
538.59	196.60
538.75	224.69
538.92	215.33
539.09	304.27
539.26	231.71
539.43	458.74
539.60	1188.99
539.77	1816.26
539.94	1774.13
540.11	1188.99
540.28	723.23
540.44	468.11
540.61	327.68
540.78	278.52
540.95	205.97
541.12	255.12
541.29	248.10
541.46	215.33
541.62	255.12
541.79	177.88
541.96	135.75
542.13	257.46
542.30	220.01
542.47	191.92
542.63	245.76
542.80	264.48
542.97	241.08
543.14	224.69
543.31	215.33
543.48	217.67
543.64	168.52
543.81	187.24
543.98	227.03
544.15	170.86
544.32	215.33
544.48	229.37
544.65	156.82
544.82	180.22
544.99	248.10
545.16	217.67
545.32	175.54
545.49	234.05
545.66	231.71
545.83	175.54
546.00	229.37
546.16	208.31
546.33	194.26
546.50	168.52
546.67	287.89
546.83	236.39
547.00	217.67
547.17	231.71
547.34	180.22
547.50	222.35
547.67	156.82
547.84	177.88
548.00	201.29
548.17	208.31
548.34	212.99
548.51	224.69
548.67	131.07
548.84	198.95
549.01	245.76
549.18	215.33
549.34	290.23
549.51	255.12
549.68	243.42
549.84	173.20
550.01	128.73
550.18	315.97
550.34	271.50
550.51	241.08
550.68	250.44
550.84	173.20
551.01	198.95
551.18	203.63
551.34	173.20
551.51	222.35
551.68	217.67
551.84	227.03
552.01	248.10
552.18	191.92
552.34	182.56
552.51	138.09
552.68	217.67
552.84	187.24
553.01	215.33
553.18	184.90
553.34	147.45
553.51	198.95
553.67	189.58
553.84	203.63
554.01	259.80
554.17	196.60
554.34	227.03
554.51	196.60
554.67	212.99
554.84	283.20
555.00	163.84
555.17	234.05
555.33	255.12
555.50	212.99
555.67	252.78
555.83	292.57
556.00	287.89
556.16	351.08
556.33	360.44
556.50	198.95
556.66	163.84
556.83	196.60
556.99	196.60
557.16	276.18
557.32	210.65
557.49	222.35
557.65	220.01
557.82	147.45
557.98	255.12
558.15	269.16
558.32	222.35
558.48	175.54
558.65	215.33
558.81	318.31
558.98	142.77
559.14	208.31
559.31	180.22
559.47	180.22
559.64	189.58
559.80	194.26
559.97	173.20
560.13	180.22
560.30	224.69
560.46	180.22
560.63	191.92
560.79	194.26
560.96	177.88
561.12	210.65
561.29	205.97
561.45	196.60
561.61	222.35
561.78	264.48
561.94	182.56
562.11	170.86
562.27	173.20
562.44	220.01
562.60	222.35
562.77	227.03
562.93	308.95
563.10	224.69
563.26	140.43
563.42	154.48
563.59	222.35
563.75	133.41
563.92	236.39
564.08	220.01
564.24	203.63
564.41	234.05
564.57	203.63
564.74	210.65
564.90	234.05
565.07	243.42
565.23	358.10
565.39	201.29
565.56	243.42
565.72	168.52
565.88	243.42
566.05	170.86
566.21	201.29
566.38	140.43
566.54	229.37
566.70	170.86
566.87	170.86
567.03	147.45
567.19	212.99
567.36	306.61
567.52	177.88
567.68	220.01
567.85	159.16
568.01	231.71
568.17	159.16
568.34	131.07
568.50	255.12
568.66	152.13
568.83	264.48
568.99	173.20
569.15	299.59
569.32	236.39
569.48	212.99
569.64	182.56
569.81	161.50
569.97	201.29
570.13	248.10
570.30	133.41
570.46	161.50
570.62	194.26
570.78	257.46
570.95	201.29
571.11	163.84
571.27	229.37
571.43	271.50
571.60	229.37
571.76	196.60
571.92	138.09
572.09	147.45
572.25	161.50
572.41	220.01
572.57	224.69
572.74	236.39
572.90	224.69
573.06	201.29
573.22	266.82
573.38	159.16
573.55	208.31
573.71	234.05
573.87	149.79
574.03	264.48
574.20	245.76
574.36	278.52
574.52	353.42
574.68	315.97
574.84	280.86
575.01	278.52
575.17	287.89
575.33	191.92
575.49	215.33
575.65	236.39
575.82	379.17
575.98	594.50
576.14	746.63
576.30	884.72
576.46	627.26
576.62	505.56
576.79	386.19
576.95	311.29
577.11	229.37
577.27	220.01
577.43	227.03
577.59	285.55
577.75	245.76
577.92	276.18
578.08	231.71
578.24	236.39
578.40	285.55
578.56	313.63
578.72	330.02
578.88	320.65
579.04	243.42
579.21	308.95
579.37	339.38
579.53	271.50
579.69	259.80
579.85	313.63
580.01	374.49
580.17	367.46
580.33	461.09
580.49	381.51
580.65	362.78
580.82	280.86
580.98	243.42
581.14	292.57
581.30	456.40
581.46	491.51
581.62	655.35
581.78	765.36
581.94	671.73
582.10	552.37
582.26	491.51
582.42	517.26
582.58	353.42
582.74	454.06
582.90	514.92
583.06	498.53
583.22	526.62
583.38	493.85
583.54	500.87
583.70	730.25
583.86	863.66
584.02	868.34
584.18	1156.22
584.34	1437.09
584.50	3873.59
584.66	29366.70
584.82	62122.50
584.98	65535.00
585.14	65535.00
585.30	61991.43
585.46	38349.68
585.62	23613.66
585.78	10642.42
585.94	4002.32
586.10	1994.14
586.26	1177.29
586.42	1015.79
586.58	805.14
586.74	781.74
586.90	648.33
587.06	667.05
587.22	552.37
587.38	496.19
587.54	1413.68
587.70	4236.37
587.86	7274.38
588.02	8463.38
588.18	5874.74
588.34	3702.73
588.49	2387.35
588.65	1455.81
588.81	706.84
588.97	475.13
589.13	369.80
589.29	318.31
589.45	360.44
589.61	395.55
589.77	461.09
589.93	449.38
590.08	489.17
590.24	491.51
590.40	486.83
590.56	458.74
590.72	472.79
590.88	393.21
591.04	325.33
591.20	276.18
591.35	402.57
591.51	339.38
591.67	311.29
591.83	383.85
591.99	341.72
592.15	264.48
592.31	351.08
592.46	285.55
592.62	313.63
592.78	280.86
592.94	301.93
593.10	341.72
593.26	269.16
593.41	369.80
593.57	395.55
593.73	622.58
593.89	3452.29
594.05	9195.96
594.20	14539.41
594.36	13664.05
594.52	8917.44
594.68	5584.52
594.84	3616.13
594.99	1984.77
595.15	954.94
595.31	547.69
595.47	344.06
595.62	327.68
595.78	360.44
595.94	299.59
596.10	397.89
596.25	390.87
596.41	339.38
596.57	355.76
596.73	390.87
596.88	615.56
597.04	1694.55
597.20	2862.48
597.36	3494.42
597.51	2640.12
597.67	1753.06
597.83	1142.18
597.99	730.25
598.14	519.60
598.30	428.32
598.46	318.31
598.61	362.78
598.77	238.73
598.93	297.25
599.09	280.86
599.24	276.18
599.40	236.39
599.56	257.46
599.71	255.12
599.87	297.25
600.03	217.67
600.18	212.99
600.34	243.42
600.50	187.24
600.65	166.18
600.81	243.42
600.97	95.96
601.12	187.24
601.28	332.36
601.44	234.05
601.59	196.60
601.75	159.16
601.91	266.82
602.06	238.73
602.22	344.06
602.37	866.00
602.53	2090.10
602.69	3391.44
602.84	3583.36
603.00	2745.45
603.16	1776.47
603.31	1214.74
603.47	856.64
603.62	437.68
603.78	292.57
603.94	276.18
604.09	280.86
604.25	337.04
604.40	337.04
604.56	224.69
604.71	262.14
604.87	140.43
605.03	276.18
605.18	252.78
605.34	280.86
605.49	245.76
605.65	297.25
605.80	297.25
605.96	358.10
606.12	360.44
606.27	372.15
606.43	301.93
606.58	447.04
606.74	889.40
606.89	4128.70
607.05	8978.30
607.20	12269.09
607.36	10045.58
607.51	6759.47
607.67	4360.42
607.82	2820.35
607.98	1549.43
608.13	840.25
608.29	524.28
608.44	486.83
608.60	423.64
608.75	552.37
608.91	1359.85
609.06	6736.06
609.22	15243.91
609.37	21645.27
609.53	18834.29
609.68	12285.47
609.84	7529.50
609.99	4997.04
610.15	2715.02
610.30	1268.57
610.46	685.78
610.61	521.94
610.76	360.44
610.92	320.65
611.07	353.42
611.23	334.70
611.38	322.99
611.54	273.84
