SpectraSuite Data File
++++++++++++++++++++++++++++++++++++
Date: Fri Oct 04 11:48:30 GMT-05:00 2013
User: price-jones
Dark Spectrum Present: No
Reference Spectrum Present: No
Number of Sampled Component Spectra: 1
Spectrometers: USB2+H05261
Integration Time (usec): 100000 (USB2+H05261)
Spectra Averaged: 1 (USB2+H05261)
Boxcar Smoothing: 0 (USB2+H05261)
Correct for Electrical Dark: No (USB2+H05261)
Strobe/Lamp Enabled: No (USB2+H05261)
Correct for Detector Non-linearity: No (USB2+H05261)
Correct for Stray Light: No (USB2+H05261)
Number of Pixels in Processed Spectrum: 2048
>>>>>Begin Processed Spectral Data<<<<<
365.73	0.00
365.92	0.00
366.12	0.00
366.32	0.00
366.52	0.00
366.72	4.68
366.91	0.00
367.11	0.00
367.31	0.00
367.51	0.00
367.70	0.00
367.90	0.00
368.10	0.00
368.30	0.00
368.49	0.00
368.69	0.00
368.89	0.00
369.09	0.00
369.28	0.00
369.48	0.00
369.68	0.00
369.87	14.04
370.07	0.00
370.27	21.06
370.47	105.32
370.66	344.06
370.86	440.02
371.06	475.13
371.25	526.62
371.45	433.00
371.65	411.93
371.84	418.96
372.04	430.66
372.24	545.34
372.44	540.66
372.63	545.34
372.83	559.39
373.03	587.47
373.22	524.28
373.42	500.87
373.62	528.96
373.81	519.60
374.01	606.20
374.21	662.37
374.40	610.88
374.60	594.50
374.79	692.80
374.99	582.79
375.19	655.35
375.38	557.05
375.58	559.39
375.78	681.10
375.97	660.03
376.17	767.70
376.37	641.31
376.56	620.24
376.76	594.50
376.95	645.99
377.15	760.67
377.35	709.18
377.54	711.52
377.74	664.71
377.93	730.25
378.13	704.50
378.33	723.23
378.52	678.76
378.72	688.12
378.91	779.40
379.11	734.93
379.31	739.61
379.50	711.52
379.70	784.08
379.89	765.36
380.09	786.42
380.28	770.04
380.48	744.29
380.68	758.33
380.87	800.46
381.07	809.83
381.26	826.21
381.46	851.96
381.65	814.51
381.85	770.04
382.04	863.66
382.24	826.21
382.43	770.04
382.63	882.38
382.83	830.89
383.02	868.34
383.22	898.77
383.41	903.45
383.61	870.68
383.80	891.74
384.00	884.72
384.19	870.68
384.39	931.53
384.58	854.30
384.78	947.92
384.97	917.49
385.17	964.30
385.36	929.19
385.56	1020.47
385.75	1015.79
385.95	992.39
386.14	1090.69
386.34	992.39
386.53	971.32
386.72	1022.81
386.92	980.68
387.11	1034.52
387.31	1039.20
387.50	1006.43
387.70	1067.28
387.89	1076.65
388.09	1111.75
388.28	1102.39
388.48	1156.22
388.67	1118.78
388.86	1118.78
389.06	1167.93
389.25	1203.04
389.45	1088.35
389.64	1116.44
389.84	1107.07
390.03	1107.07
390.22	1060.26
390.42	1174.95
390.61	1100.05
390.81	1296.66
391.00	1196.01
391.19	1301.34
391.39	1097.71
391.58	1203.04
391.78	1266.23
391.97	1294.32
392.16	1240.48
392.36	1355.17
392.55	1341.13
392.75	1301.34
392.94	1200.69
393.13	1357.51
393.33	1322.40
393.52	1331.76
393.71	1320.06
393.91	1308.36
394.10	1418.36
394.29	1324.74
394.49	1401.98
394.68	1455.81
394.88	1404.32
395.07	1526.03
395.26	1533.05
395.46	1313.04
395.65	1404.32
395.84	1523.69
396.04	1579.86
396.23	1467.52
396.42	1607.95
396.62	1544.75
396.81	1549.43
397.00	1563.48
397.19	1563.48
397.39	1561.14
397.58	1699.23
397.77	1631.35
397.97	1544.75
398.16	1650.08
398.35	1542.41
398.55	1596.25
398.74	1734.34
398.93	1664.12
399.12	1706.25
399.32	1619.65
399.51	1795.19
399.70	1764.76
399.90	1713.27
400.09	1720.29
400.28	1858.39
400.47	1778.81
400.67	1806.89
400.86	1867.75
401.05	1844.34
401.24	1930.94
401.44	1839.66
401.63	1827.96
401.82	1949.67
402.01	1877.11
402.21	1860.73
402.40	1893.49
402.59	1973.07
402.78	2036.27
402.97	1984.77
403.17	2026.90
403.36	1998.82
403.55	1949.67
403.74	2157.97
403.93	2143.93
404.13	2066.69
404.32	2195.42
404.51	2169.68
404.70	2251.60
404.89	2104.14
405.09	2258.62
405.28	2291.38
405.47	2181.38
405.66	2272.66
405.85	2303.09
406.05	2265.64
406.24	2375.64
406.43	2265.64
406.62	2303.09
406.81	2392.03
407.00	2366.28
407.20	2195.42
407.39	2429.48
407.58	2317.13
407.77	2539.48
407.96	2588.63
408.15	2502.03
408.34	2434.16
408.54	2546.50
408.73	2518.42
408.92	2513.74
409.11	2661.19
409.30	2619.06
409.49	2700.98
409.68	2621.40
409.87	2649.49
410.07	2752.47
410.26	2670.55
410.45	2665.87
410.64	2801.62
410.83	2829.71
411.02	2722.04
411.21	2796.94
411.40	2869.50
411.59	2972.48
411.78	2918.65
411.98	2963.12
412.17	3021.63
412.36	2963.12
412.55	2995.89
412.74	3038.02
412.93	3084.83
413.12	3030.99
413.31	3328.24
413.50	3180.79
413.69	3335.26
413.88	3169.09
414.07	3258.03
414.26	3396.12
414.45	3421.86
414.64	3393.78
414.83	3449.95
415.02	3442.93
415.22	3520.17
415.41	3550.59
415.60	3524.85
415.79	3524.85
415.98	3559.95
416.17	3779.97
416.36	3555.27
416.55	3716.77
416.74	3740.18
416.93	3742.52
417.12	3854.86
417.31	3779.97
417.50	3896.99
417.69	3801.03
417.88	3850.18
418.07	3836.14
418.26	3981.25
418.45	4072.53
418.64	4056.15
418.83	3985.93
419.02	4093.60
419.21	4091.26
419.39	4236.37
419.58	4058.49
419.77	4222.33
419.96	4114.66
420.15	4308.93
420.34	4121.68
420.53	4187.22
420.72	4184.88
420.91	4255.09
421.10	4308.93
421.29	4514.89
421.48	4287.86
421.67	4468.08
421.86	4287.86
422.05	4334.67
422.24	4386.16
422.43	4456.38
422.61	4435.32
422.80	4554.68
422.99	4507.87
423.18	4526.60
423.37	4440.00
423.56	4498.51
423.75	4482.13
423.94	4472.76
424.13	4273.82
424.32	4376.80
424.50	4617.88
424.69	4566.39
424.88	4678.73
425.07	4500.85
425.26	4491.49
425.45	4470.42
425.64	4660.01
425.83	4688.09
426.01	4795.76
426.20	4655.33
426.39	4709.16
426.58	4568.73
426.77	4774.69
426.96	4849.59
427.15	4669.37
427.33	4709.16
427.52	4706.82
427.71	4798.10
427.90	4863.63
428.09	4812.14
428.28	4929.17
428.46	4868.31
428.65	4826.18
428.84	4924.49
429.03	5088.32
429.22	4924.49
429.40	5097.69
429.59	5104.71
429.78	4917.47
429.97	4992.36
430.16	4861.29
430.34	5184.29
430.53	5289.61
430.72	5411.32
430.91	5149.18
431.10	5203.01
431.28	5350.46
431.47	5249.82
431.66	5362.17
431.85	5270.89
432.03	5556.43
432.22	5762.40
432.41	5331.74
432.60	5472.17
432.79	5507.28
432.97	5502.60
433.16	5530.69
433.35	5612.60
433.54	5640.69
433.72	5687.50
433.91	5600.90
434.10	5631.33
434.28	5757.72
434.47	5746.02
434.66	5816.23
434.85	5666.44
435.03	5769.42
435.22	5778.78
435.41	5996.45
435.59	5916.87
435.78	5930.92
435.97	5905.17
436.16	5802.19
436.34	5980.07
436.53	6050.28
436.72	6387.32
436.90	5846.66
437.09	6108.80
437.28	5982.41
437.46	6054.97
437.65	6038.58
437.84	6272.64
438.02	6111.14
438.21	6342.85
438.40	6207.10
438.58	6356.90
438.77	6469.24
438.96	6530.09
439.14	6537.12
439.33	6616.69
439.52	6581.59
439.70	6637.76
439.89	6843.73
440.08	6862.45
440.26	6689.25
440.45	6775.85
440.63	7033.31
440.82	6913.94
441.01	7021.61
441.19	6984.16
441.38	7124.59
441.57	7250.98
441.75	7115.23
441.94	7377.37
442.12	7442.90
442.31	7489.71
442.50	7368.01
442.68	7492.05
442.87	7475.67
443.05	7641.85
443.24	7557.59
443.43	7613.76
443.61	7648.87
443.80	7831.43
443.98	7595.04
444.17	7552.91
444.35	7873.56
444.54	7744.83
444.73	7623.12
444.91	7557.59
445.10	7653.55
445.28	7726.11
445.47	7588.02
445.65	7786.96
445.84	7882.92
446.02	7866.54
446.21	7822.07
446.39	7833.77
446.58	7808.03
446.77	7962.50
446.95	7674.62
447.14	7913.35
447.32	8013.99
447.51	7911.01
447.69	7782.28
447.88	7889.95
448.06	7911.01
448.25	7889.95
448.43	7941.44
448.62	8032.72
448.80	7971.86
448.99	8077.19
449.17	8140.38
449.36	7892.29
449.54	8243.37
449.73	8374.44
449.91	8313.58
450.10	8486.78
450.28	8393.16
450.46	8397.84
450.65	8500.83
450.83	8622.53
451.02	8486.78
451.20	8655.30
451.39	8344.01
451.57	8507.85
451.76	8493.80
451.94	8468.06
452.13	8865.95
452.31	8575.72
452.49	8491.46
452.68	8723.18
452.86	8741.90
453.05	8833.18
453.23	8898.72
453.42	8812.12
453.60	8681.05
453.78	8816.80
453.97	8751.26
454.15	8830.84
454.34	8842.54
454.52	9074.26
454.70	9139.79
454.89	9221.71
455.07	9207.67
455.26	9027.45
455.44	9198.31
455.62	9217.03
455.81	9083.62
455.99	9291.93
456.17	9210.01
456.36	9376.19
456.54	9568.11
456.73	9591.52
456.91	9694.50
457.09	9542.36
457.28	10061.96
457.46	9661.73
457.64	10017.49
457.83	9825.57
458.01	9659.39
458.19	9856.00
458.38	9689.82
458.56	9989.41
458.74	10174.31
458.93	10017.49
459.11	10101.75
459.29	10101.75
459.48	10193.03
459.66	9991.75
459.84	10284.31
460.03	10312.40
460.21	10197.71
460.39	10370.91
460.57	10279.63
460.76	10310.06
460.94	10473.90
461.12	10270.27
461.31	10326.44
461.49	10321.76
461.67	10399.00
461.85	11052.01
462.04	10970.09
462.22	10977.11
462.40	10684.55
462.59	10614.33
462.77	10750.08
462.95	10832.00
463.13	10970.09
463.32	10953.71
463.50	10988.82
463.68	10881.15
463.86	10942.00
464.05	10832.00
464.23	10885.83
464.41	11250.96
464.59	10963.07
464.78	11335.21
464.96	11180.74
465.14	11005.20
465.32	11269.68
465.50	11246.27
465.69	11342.24
465.87	11225.21
466.05	11293.08
466.23	11157.33
466.41	11384.37
466.60	11726.08
466.78	11295.43
466.96	11438.20
467.14	11332.87
467.32	11580.97
467.51	11344.58
467.69	11250.96
467.87	11742.47
468.05	11683.95
468.23	11517.78
468.41	11672.25
468.60	11641.82
468.78	11950.78
468.96	11765.87
469.14	12002.27
469.32	11878.22
469.50	11906.31
469.69	12219.94
469.87	12093.55
470.05	12119.29
470.23	12212.92
470.41	12334.62
470.59	12374.41
470.77	12259.73
470.95	12533.57
471.14	12655.28
471.32	12407.18
471.50	12666.98
471.68	12772.30
471.86	12568.68
472.04	12826.14
472.22	13193.60
472.40	12851.88
472.58	12938.48
472.77	12943.16
472.95	13125.72
473.13	13441.70
473.31	13226.37
473.49	13102.32
473.67	13540.00
473.85	13235.73
474.03	13509.57
474.21	13661.71
474.39	13926.19
474.57	13860.65
474.75	14057.26
474.93	14064.28
475.12	13907.46
475.30	14038.53
475.48	14094.71
475.66	14207.05
475.84	14361.53
476.02	14389.61
476.20	14403.66
476.38	14792.19
476.56	14801.55
476.74	14974.75
476.92	14995.81
477.10	14649.41
477.28	15089.43
477.46	15105.82
477.64	15501.37
477.82	15433.49
478.00	15730.74
478.18	15843.09
478.36	16081.82
478.54	16077.14
478.72	16065.44
478.90	16191.83
479.08	16292.47
479.26	16334.60
479.44	16606.10
479.62	16769.94
479.80	16961.86
479.98	16922.07
480.16	17303.58
480.34	17104.64
480.52	17547.00
480.70	17603.17
480.88	17345.71
481.06	17392.52
481.24	17654.66
481.41	17825.52
481.59	18082.98
481.77	18307.67
481.95	18410.65
482.13	18511.30
482.31	18630.66
482.49	18813.23
482.67	18869.40
482.85	19164.31
483.03	19625.39
483.21	19676.88
483.39	19697.95
483.57	19468.58
483.74	19894.55
483.92	20102.86
484.10	20449.26
484.28	20631.82
484.46	20695.02
484.64	20975.88
484.82	20695.02
485.00	20870.56
485.18	21160.78
485.35	21713.15
485.53	21546.97
485.71	21516.54
485.89	22256.15
486.07	21727.19
486.25	22230.41
486.43	22251.47
486.61	22518.29
486.78	22904.48
486.96	22958.31
487.14	23068.32
487.32	23119.81
487.50	23405.36
487.68	23597.28
487.85	23789.20
488.03	23913.25
488.21	24287.74
488.39	24304.12
488.57	24709.04
488.75	24615.41
488.92	25062.46
489.10	25116.29
489.28	25144.38
489.46	25572.69
489.64	25607.80
489.81	26052.50
489.99	26038.46
490.17	26359.11
490.35	26597.85
490.53	26480.82
490.70	26822.54
490.88	26522.95
491.06	26932.54
491.24	27117.45
491.41	27323.41
491.59	27473.21
491.77	27992.81
491.95	28013.87
492.13	28243.24
492.30	28203.46
492.48	28074.73
492.66	28294.74
492.84	28645.82
493.01	29127.97
493.19	28917.32
493.37	29244.99
493.54	29308.19
493.72	29654.59
493.90	29528.20
494.08	30153.12
494.25	30190.57
494.43	30494.84
494.61	30579.10
494.79	30742.94
494.96	30684.42
495.14	30958.27
495.32	31342.11
495.49	30890.39
495.67	31321.05
495.85	31826.60
496.02	31824.26
496.20	31807.88
496.38	31847.67
496.55	32058.32
496.73	33312.84
496.91	32694.94
497.09	33125.60
497.26	33280.08
497.44	32762.82
497.62	33102.20
497.79	33553.92
497.97	33270.72
498.14	33876.91
498.32	34338.00
498.50	34419.92
498.67	34518.22
498.85	34436.30
499.03	34796.74
499.20	34906.75
499.38	34859.94
499.56	35175.91
499.73	35519.97
499.91	35634.66
500.08	35463.80
500.26	35456.78
500.44	35606.57
500.61	35903.82
500.79	35363.15
500.97	36006.80
501.14	36381.29
501.32	36659.81
501.49	36655.13
501.67	36355.54
501.84	36741.73
502.02	36701.94
502.20	37418.14
502.37	37497.72
502.55	37266.01
502.72	37263.67
502.90	37509.43
503.07	37659.22
503.25	37738.80
503.43	38150.73
503.60	38431.60
503.78	38597.77
503.95	37888.59
504.13	38382.45
504.30	38373.08
504.48	38256.06
504.65	38382.45
504.83	39208.65
505.01	39349.09
505.18	38773.31
505.36	39442.71
505.53	38939.49
505.71	39330.36
505.88	39484.84
506.06	39103.33
506.23	39995.07
506.41	39878.05
506.58	40023.16
506.76	40280.62
506.93	40233.81
507.11	39894.43
507.28	40112.10
507.46	40205.72
507.63	40945.33
507.81	41434.50
507.98	41062.36
508.16	40910.22
508.33	40968.74
508.50	41233.22
508.68	41446.21
508.85	41607.70
509.03	41942.40
509.20	42246.67
509.38	42272.42
509.55	42300.50
509.73	42204.54
509.90	42078.15
510.08	42064.11
510.25	42082.83
510.42	42529.87
510.60	43232.04
510.77	43063.52
510.95	43049.47
511.12	42649.24
511.30	43370.13
511.47	43653.33
511.64	43459.07
511.82	43952.92
511.99	43234.38
512.17	43910.79
512.34	43838.23
512.51	43789.08
512.69	44268.89
512.86	44376.56
513.04	44528.69
513.21	44765.09
513.38	44961.69
513.56	44917.22
513.73	44364.85
513.90	44903.18
514.08	44643.38
514.25	45076.38
514.43	45261.28
514.60	45333.84
514.77	45488.31
514.95	45603.00
515.12	45301.07
515.29	45801.94
515.47	45750.45
515.64	46185.79
515.81	45848.75
515.99	46036.00
516.16	46597.73
516.33	46555.60
516.51	46541.55
516.68	46087.49
516.85	46284.09
517.03	46979.23
517.20	47047.11
517.37	46632.83
517.54	46784.97
517.72	46581.34
517.89	46808.37
518.06	46885.61
518.24	46852.84
518.41	46843.48
518.58	47262.44
518.75	47246.05
518.93	47688.42
519.10	47426.28
519.27	47662.67
519.45	47576.07
519.62	47739.91
519.79	47983.32
519.96	47817.14
520.14	48456.11
520.31	48210.35
520.48	48437.39
520.65	48060.56
520.83	48205.67
521.00	48399.94
521.17	48397.60
521.34	48442.07
521.52	48760.38
521.69	48868.05
521.86	49074.01
522.03	48947.62
522.20	49195.72
522.38	49111.46
522.55	49212.10
522.72	49324.45
522.89	49291.68
523.07	49769.15
523.24	49787.88
523.41	49986.82
523.58	49237.85
523.75	49874.48
523.92	49865.11
524.10	49998.52
524.27	50054.70
524.44	50244.28
524.61	50595.36
524.78	50089.80
524.96	50218.53
525.13	50403.44
525.30	50155.34
525.47	50363.65
525.64	50373.01
525.81	50403.44
525.98	51040.06
526.16	50616.43
526.33	50616.43
526.50	51206.24
526.67	50749.84
526.84	50993.25
527.01	51157.09
527.18	51063.47
527.36	51271.78
527.53	51744.56
527.70	51749.24
527.87	51358.38
528.04	51466.04
528.21	51419.23
528.38	51192.20
528.55	51845.21
528.72	51452.00
528.89	51758.61
529.07	52011.38
529.24	51594.77
529.41	51845.21
529.58	51826.48
529.75	51550.30
529.92	51716.48
530.09	51737.54
530.26	52212.67
530.43	52477.15
530.60	52179.90
530.77	52399.91
530.94	52355.44
531.11	51929.47
531.28	52086.28
531.46	52292.25
531.63	52533.32
531.80	52673.76
531.97	52669.08
532.14	52566.09
532.31	52552.05
532.48	52926.53
532.65	52907.81
532.82	52594.18
532.99	53027.18
533.16	52966.32
533.33	53010.79
533.50	53141.86
533.67	53038.88
533.84	53008.45
534.01	53275.27
534.18	53134.84
534.35	53581.88
534.52	53123.14
534.69	53741.04
534.86	53738.70
535.03	53530.39
535.20	53698.91
535.37	53588.91
535.54	53708.27
535.71	53565.50
535.88	53670.82
536.05	53834.66
536.22	53895.52
536.38	53963.39
536.55	53778.49
536.72	53935.30
536.89	53535.07
537.06	53815.94
537.23	54169.36
537.40	54073.40
537.57	53677.85
537.74	54251.28
537.91	54468.95
538.08	54593.00
538.25	54045.31
538.42	54274.68
538.59	54197.44
538.75	54298.09
538.92	54459.58
539.09	54497.03
539.26	54557.89
539.43	54518.10
539.60	54859.82
539.77	54583.63
539.94	54791.94
540.11	54822.37
540.28	54780.24
540.44	54361.28
540.61	54695.98
540.78	54829.39
540.95	54855.14
541.12	54965.14
541.29	54899.61
541.46	54997.91
541.62	54915.99
541.79	55175.79
541.96	54609.38
542.13	55075.15
542.30	55042.38
542.47	55210.90
542.63	55271.75
542.80	55229.62
542.97	55320.90
543.14	55370.05
543.31	55217.92
543.48	55725.81
543.64	55824.12
543.81	55976.25
543.98	55756.24
544.15	55732.84
544.32	56016.04
544.48	55938.80
544.65	55657.94
544.82	55887.31
544.99	55613.47
545.16	55821.78
545.32	56025.40
545.49	56154.13
545.66	56285.20
545.83	56149.45
546.00	56100.30
546.16	56245.41
546.33	55927.10
546.50	55737.52
546.67	56112.00
546.83	55854.54
547.00	56315.63
547.17	56020.72
547.34	56315.63
547.50	56442.02
547.67	56324.99
547.84	56360.10
548.00	56402.23
548.17	56549.68
548.34	56556.70
548.51	56795.44
548.67	56729.90
548.84	56722.88
549.01	56570.75
549.18	56488.83
549.34	56619.90
549.51	56685.43
549.68	56554.36
549.84	56781.40
550.01	56877.36
550.18	56442.02
550.34	56938.21
550.51	57078.64
550.68	56963.96
550.84	56732.25
551.01	56889.06
551.18	56779.06
551.34	56720.54
551.51	56842.25
551.68	57181.63
551.84	57219.08
552.01	57116.09
552.18	57153.54
552.34	57120.77
552.51	57104.39
552.68	57130.14
552.84	57029.49
553.01	57186.31
553.18	57073.96
553.34	57509.30
553.51	57076.30
553.67	57560.79
553.84	57663.78
554.01	57172.27
554.17	57340.78
554.34	57324.40
554.51	57289.29
554.67	57673.14
554.84	57649.74
555.00	57411.00
555.17	57270.57
555.33	57492.92
555.50	57563.14
555.67	57542.07
555.83	57584.20
556.00	57401.64
556.16	57879.11
556.33	57579.52
556.50	57790.17
556.66	57485.90
556.83	57818.25
556.99	58078.05
557.16	58159.97
557.32	57932.94
557.49	58096.78
557.65	57757.40
557.82	57750.38
557.98	57897.83
558.15	58178.70
558.32	57879.11
558.48	58230.19
558.65	58047.63
558.81	57991.45
558.98	58047.63
559.14	57942.30
559.31	57972.73
559.47	57834.64
559.64	58085.07
559.80	58122.52
559.97	58253.59
560.13	58162.31
560.30	58227.85
560.46	58251.25
560.63	58075.71
560.79	58300.40
560.96	58312.11
561.12	58291.04
561.29	58312.11
561.45	58351.90
561.61	58454.88
561.78	58422.11
561.94	58183.38
562.11	58312.11
562.27	58401.05
562.44	58424.45
562.60	58487.65
562.77	58401.05
562.93	58349.56
563.10	58754.47
563.26	58394.03
563.42	58611.70
563.59	58529.78
563.75	58501.69
563.92	58527.44
564.08	58384.66
564.24	58630.42
564.41	58457.22
564.57	58518.07
564.74	58450.20
564.90	58852.77
565.07	58808.30
565.23	58871.49
565.39	58555.52
565.56	58602.33
565.72	58534.46
565.88	58515.73
566.05	58532.12
566.21	58780.21
566.38	58707.66
566.54	58583.61
566.70	59105.55
566.87	58930.01
567.03	58787.24
567.19	58972.14
567.36	58777.87
567.52	58752.13
567.68	58625.74
567.85	58693.61
568.01	58803.62
568.17	58871.49
568.34	58721.70
568.50	58880.86
568.66	58965.12
568.83	58789.58
568.99	58738.08
569.15	58857.45
569.32	58805.96
569.48	58801.28
569.64	58990.86
569.81	58801.28
569.97	59044.69
570.13	59002.56
570.30	59128.95
570.46	59021.29
570.62	58731.06
570.78	58941.71
570.95	58740.42
571.11	59028.31
571.27	58829.37
571.43	58913.62
571.60	59164.06
571.76	59018.95
571.92	59168.74
572.09	59330.24
572.25	59210.87
572.41	59175.76
572.57	59044.69
572.74	59185.13
572.90	58820.00
573.06	59117.25
573.22	59051.72
573.38	59121.93
573.55	58988.52
573.71	59554.93
573.87	59278.75
574.03	59234.28
574.20	59245.98
574.36	59274.07
574.52	59018.95
574.68	59004.91
574.84	59196.83
575.01	59341.94
575.17	59014.27
575.33	59119.59
575.49	59140.66
575.65	59332.58
575.82	59412.16
575.98	59131.29
576.14	59231.94
576.30	59281.09
576.46	59213.21
576.62	59161.72
576.79	59159.38
576.95	58843.41
577.11	59166.40
577.27	59241.30
577.43	59384.07
577.59	59253.00
577.75	59002.56
577.92	59124.27
578.08	59145.34
578.24	59133.63
578.40	59236.62
578.56	59353.65
578.72	59297.47
578.88	59461.31
579.04	59498.76
579.21	59187.47
579.37	59325.56
579.53	59264.70
579.69	59117.25
579.85	59288.11
580.01	59276.41
580.17	59166.40
580.33	59320.88
580.49	59381.73
580.65	59540.89
580.82	59374.71
580.98	59269.39
581.14	59482.37
581.30	59480.03
581.46	59189.81
581.62	59098.53
581.78	59135.98
581.94	59386.41
582.10	59344.28
582.26	59587.70
582.42	59344.28
582.58	59625.15
582.74	59625.15
582.90	59716.43
583.06	59379.39
583.22	59253.00
583.38	59344.28
583.54	59433.22
583.70	59505.78
583.86	59358.33
584.02	59515.14
584.18	59622.81
584.34	59388.75
584.50	59683.66
584.66	59510.46
584.82	59402.80
584.98	59508.12
585.14	59531.53
585.30	59126.61
585.46	59260.02
585.62	59241.30
585.78	59498.76
585.94	59267.05
586.10	59601.74
586.26	59428.54
586.42	59550.25
586.58	59721.11
586.74	59421.52
586.90	59393.43
587.06	59320.88
587.22	59566.63
587.38	59367.69
587.54	59842.82
587.70	59763.24
587.86	59599.40
588.02	59746.86
588.18	59704.73
588.34	59718.77
588.49	59578.34
588.65	59487.06
588.81	59519.82
588.97	59744.51
589.13	59419.18
589.29	59451.95
