SpectraSuite Data File
++++++++++++++++++++++++++++++++++++
Date: Fri Oct 04 11:48:30 GMT-05:00 2013
User: price-jones
Dark Spectrum Present: No
Reference Spectrum Present: No
Number of Sampled Component Spectra: 1
Spectrometers: USB2+H05261
Integration Time (usec): 100000 (USB2+H05261)
Spectra Averaged: 1 (USB2+H05261)
Boxcar Smoothing: 0 (USB2+H05261)
Correct for Electrical Dark: No (USB2+H05261)
Strobe/Lamp Enabled: No (USB2+H05261)
Correct for Detector Non-linearity: No (USB2+H05261)
Correct for Stray Light: No (USB2+H05261)
Number of Pixels in Processed Spectrum: 2048
>>>>>Begin Processed Spectral Data<<<<<
365.73	18.72
365.92	18.72
366.12	18.72
366.32	0.00
366.52	0.00
366.72	0.00
366.91	0.00
367.11	0.00
367.31	0.00
367.51	0.00
367.70	0.00
367.90	0.00
368.10	0.00
368.30	0.00
368.49	0.00
368.69	0.00
368.89	0.00
369.09	0.00
369.28	0.00
369.48	0.00
369.68	0.00
369.87	0.00
370.07	0.00
370.27	65.54
370.47	46.81
370.66	322.99
370.86	486.83
371.06	491.51
371.25	496.19
371.45	451.72
371.65	402.57
371.84	437.68
372.04	545.34
372.24	430.66
372.44	517.26
372.63	519.60
372.83	540.66
373.03	540.66
373.22	465.77
373.42	531.30
373.62	554.71
373.81	622.58
374.01	587.47
374.21	603.86
374.40	702.16
374.60	631.94
374.79	564.07
374.99	566.41
375.19	683.44
375.38	683.44
375.58	622.58
375.78	711.52
375.97	704.50
376.17	620.24
376.37	695.14
376.56	704.50
376.76	713.86
376.95	730.25
377.15	716.20
377.35	704.50
377.54	791.10
377.74	692.80
377.93	741.95
378.13	676.41
378.33	779.40
378.52	786.42
378.72	718.54
378.91	704.50
379.11	739.61
379.31	671.73
379.50	854.30
379.70	732.59
379.89	840.25
380.09	709.18
380.28	748.97
380.48	732.59
380.68	798.12
380.87	802.80
381.07	777.06
381.26	807.48
381.46	760.67
381.65	802.80
381.85	737.27
382.04	905.79
382.24	959.62
382.43	898.77
382.63	795.78
382.83	882.38
383.02	873.02
383.22	884.72
383.41	940.90
383.61	910.47
383.80	891.74
384.00	896.43
384.19	987.71
384.39	908.13
384.58	870.68
384.78	936.21
384.97	978.34
385.17	994.73
385.36	992.39
385.56	1060.26
385.75	957.28
385.95	905.79
386.14	980.68
386.34	936.21
386.53	1107.07
386.72	994.73
386.92	1090.69
387.11	999.41
387.31	1090.69
387.50	1144.52
387.70	1118.78
387.89	1093.03
388.09	961.96
388.28	1076.65
388.48	1107.07
388.67	1048.56
388.86	1116.44
389.06	1137.50
389.25	1221.76
389.45	1132.82
389.64	1174.95
389.84	1259.21
390.03	1142.18
390.22	1203.04
390.42	1291.98
390.61	1118.78
390.81	1210.06
391.00	1270.91
391.19	1376.24
391.39	1214.74
391.58	1186.65
391.78	1266.23
391.97	1273.25
392.16	1294.32
392.36	1291.98
392.55	1387.94
392.75	1366.87
392.94	1256.87
393.13	1427.73
393.33	1313.04
393.52	1315.38
393.71	1397.30
393.91	1355.17
394.10	1425.39
394.29	1406.66
394.49	1378.58
394.68	1467.52
394.88	1423.05
395.07	1565.82
395.26	1413.68
395.46	1409.00
395.65	1509.65
395.84	1540.07
396.04	1605.61
396.23	1437.09
396.42	1476.88
396.62	1600.93
396.81	1565.82
397.00	1526.03
397.19	1619.65
397.39	1636.03
397.58	1668.80
397.77	1626.67
397.97	1626.67
398.16	1664.12
398.35	1701.57
398.55	1654.76
398.74	1668.80
398.93	1664.12
399.12	1781.15
399.32	1661.78
399.51	1806.89
399.70	1872.43
399.90	1778.81
400.09	1952.01
400.28	1886.47
400.47	1856.04
400.67	1877.11
400.86	1827.96
401.05	1802.21
401.24	1987.11
401.44	1926.26
401.63	1952.01
401.82	1923.92
402.01	1839.66
402.21	1893.49
402.40	2071.37
402.59	2022.22
402.78	2057.33
402.97	1984.77
403.17	2017.54
403.36	1977.75
403.55	2122.87
403.74	2064.35
403.93	2211.81
404.13	2127.55
404.32	2127.55
404.51	2092.44
404.70	2263.30
404.89	2115.84
405.09	2246.91
405.28	2230.53
405.47	2176.70
405.66	2286.70
405.85	2415.43
406.05	2296.07
406.24	2361.60
406.43	2445.86
406.62	2429.48
406.81	2457.56
407.00	2338.20
407.20	2399.05
407.39	2406.07
407.58	2457.56
407.77	2499.69
407.96	2668.21
408.15	2609.70
408.34	2612.04
408.54	2553.52
408.73	2593.31
408.92	2619.06
409.11	2644.81
409.30	2679.91
409.49	2693.96
409.68	2799.28
409.87	2771.19
410.07	2808.64
410.26	2843.75
410.45	2843.75
410.64	2841.41
410.83	2885.88
411.02	2897.58
411.21	3019.29
411.40	2958.44
411.59	3019.29
411.78	3030.99
411.98	2998.23
412.17	3040.36
412.36	3028.65
412.55	3049.72
412.74	3208.87
412.93	3328.24
413.12	3269.73
413.31	3356.33
413.50	3180.79
413.69	3199.51
413.88	3375.05
414.07	3337.60
414.26	3433.57
414.45	3417.18
414.64	3330.58
414.83	3592.72
415.02	3623.15
415.22	3545.91
415.41	3632.51
415.60	3695.71
415.79	3571.66
415.98	3723.79
416.17	3831.46
416.36	3733.15
416.55	3756.56
416.74	3857.20
416.93	3843.16
417.12	3845.50
417.31	3805.71
417.50	3889.97
417.69	3962.53
417.88	4023.38
418.07	3904.01
418.26	3939.12
418.45	4119.34
418.64	4168.49
418.83	4021.04
419.02	4060.83
419.21	4269.14
419.39	4081.89
419.58	3995.29
419.77	4152.11
419.96	4222.33
420.15	4334.67
420.34	4252.75
420.53	4170.83
420.72	4341.69
420.91	4437.66
421.10	4428.29
421.29	4624.90
421.48	4465.74
421.67	4456.38
421.86	4505.53
422.05	4496.17
422.24	4564.04
422.43	4498.51
422.61	4683.41
422.80	4678.73
422.99	4627.24
423.18	4706.82
423.37	4774.69
423.56	4662.35
423.75	4645.96
423.94	4432.97
424.13	4393.19
424.32	4362.76
424.50	4751.29
424.69	4823.84
424.88	4674.05
425.07	4711.50
425.26	4725.54
425.45	4573.41
425.64	4762.99
425.83	4634.26
426.01	4833.21
426.20	4648.30
426.39	4814.48
426.58	4709.16
426.77	4791.08
426.96	4826.18
427.15	4732.56
427.33	4990.02
427.52	5001.72
427.71	4943.21
427.90	5039.17
428.09	5004.07
428.28	5034.49
428.46	4957.25
428.65	4889.38
428.84	5226.42
429.03	5301.31
429.22	5102.37
429.40	5123.43
429.59	5116.41
429.78	5006.41
429.97	5057.90
430.16	4980.66
430.34	5048.54
430.53	5277.91
430.72	5242.80
430.91	5275.57
431.10	5104.71
431.28	5369.19
431.47	5584.52
431.66	5488.56
431.85	5411.32
432.03	5668.78
432.22	5680.48
432.41	5668.78
432.60	5802.19
432.79	5488.56
432.97	5650.05
433.16	5556.43
433.35	5582.18
433.54	5687.50
433.72	5652.39
433.91	5860.70
434.10	5746.02
434.28	5841.98
434.47	6012.84
434.66	6038.58
434.85	5935.60
435.03	5788.14
435.22	6012.84
435.41	6141.57
435.59	5987.09
435.78	6022.20
435.97	6209.44
436.16	6083.05
436.34	6207.10
436.53	6260.93
436.72	6317.11
436.90	6193.06
437.09	6312.42
437.28	6080.71
437.46	6314.77
437.65	6174.33
437.84	6459.88
438.02	6310.08
438.21	6394.34
438.40	6422.43
438.58	6555.84
438.77	6490.31
438.96	6509.03
439.14	6876.49
439.33	6679.89
439.52	6846.07
439.70	6923.30
439.89	6930.33
440.08	6927.99
440.26	7000.54
440.45	6951.39
440.63	7190.13
440.82	7178.42
441.01	7096.50
441.19	7227.57
441.38	7248.64
441.57	7344.60
441.75	7403.11
441.94	7428.86
442.12	7368.01
442.31	7595.04
442.50	7599.72
442.68	7447.58
442.87	7576.31
443.05	7597.38
443.24	7866.54
443.43	7702.70
443.61	7829.09
443.80	8105.28
443.98	7723.77
444.17	7609.08
444.35	7655.89
444.54	7974.21
444.73	7903.99
444.91	7943.78
445.10	8056.12
445.28	7810.37
445.47	7810.37
445.65	7847.82
445.84	7934.42
446.02	7925.05
446.21	8133.36
446.39	7756.54
446.58	8131.02
446.77	8060.80
446.95	7801.01
447.14	7978.89
447.32	8124.00
447.51	7995.27
447.69	8248.05
447.88	8098.25
448.06	8184.85
448.25	8006.97
448.43	8301.88
448.62	8212.94
448.80	8271.45
448.99	8182.51
449.17	8189.53
449.36	8177.83
449.54	8526.57
449.73	8416.57
449.91	8603.81
450.10	8507.85
450.28	8664.66
450.46	8580.40
450.65	8423.59
450.83	8697.43
451.02	8407.20
451.20	8730.20
451.39	8744.24
451.57	8692.75
451.76	8641.26
451.94	8554.66
452.13	8765.31
452.31	8973.61
452.49	8882.33
452.68	8793.39
452.86	8933.82
453.05	8978.30
453.23	8758.28
453.42	8889.35
453.60	8830.84
453.78	9062.55
453.97	8816.80
454.15	9111.71
454.34	9050.85
454.52	9214.69
454.70	9256.82
454.89	9144.47
455.07	9362.14
455.26	9369.16
455.44	9596.20
455.62	9413.63
455.81	9453.42
455.99	9563.43
456.17	9525.98
456.36	9551.73
456.54	9741.31
456.73	9734.29
456.91	9867.70
457.09	10022.17
457.28	10127.50
457.46	9832.59
457.64	9930.89
457.83	10083.03
458.01	9870.04
458.19	10111.11
458.38	10178.99
458.56	10221.12
458.74	10143.88
458.93	10387.30
459.11	10143.88
459.29	10181.33
459.48	10284.31
459.66	10237.50
459.84	10286.65
460.03	10499.64
460.21	10406.02
460.39	10743.06
460.57	10527.73
460.76	10626.03
460.94	10775.83
461.12	10626.03
461.31	10541.77
461.49	10717.31
461.67	10670.50
461.85	11073.07
462.04	10813.28
462.22	11382.03
462.40	10991.16
462.59	10895.19
462.77	11094.14
462.95	11162.01
463.13	11073.07
463.32	11066.05
463.50	11356.28
463.68	11052.01
463.86	11332.87
464.05	11122.23
464.23	11206.48
464.41	11569.27
464.59	11192.44
464.78	11510.75
464.96	11262.66
465.14	11700.34
465.32	11566.93
465.50	11688.64
465.69	11557.57
465.87	11693.32
466.05	11531.82
466.23	11463.94
466.41	11796.30
466.60	11845.45
466.78	11616.08
466.96	11550.54
467.14	11545.86
467.32	11744.81
467.51	11894.60
467.69	11573.95
467.87	11934.39
468.05	11943.75
468.23	11829.07
468.41	11946.09
468.60	12032.69
468.78	12210.57
468.96	11847.79
469.14	12072.48
469.32	12395.48
469.50	12100.57
469.69	12325.26
469.87	12341.64
470.05	12655.28
470.23	12664.64
470.41	12676.34
470.59	12524.21
470.77	12622.51
470.95	12938.48
471.14	12753.58
471.32	12484.42
471.50	12929.12
471.68	12884.65
471.86	13172.54
472.04	13160.83
472.22	13301.26
472.40	13029.76
472.58	13455.74
472.77	13387.86
472.95	13425.31
473.13	13813.84
473.31	13364.46
473.49	13537.66
473.67	13575.11
473.85	13589.15
474.03	14017.47
474.21	13886.40
474.39	14092.37
474.57	13965.98
474.75	14115.77
474.93	14616.65
475.12	14312.38
475.30	14352.16
475.48	14438.76
475.66	14691.54
475.84	14560.47
476.02	14710.27
476.20	14740.69
476.38	15077.73
476.56	15374.98
476.74	15309.44
476.92	15157.31
477.10	15124.54
477.28	15431.15
477.46	15578.61
477.64	15824.36
477.82	15985.86
478.00	16140.33
478.18	16079.48
478.36	16177.78
478.54	16568.65
478.72	16727.81
478.90	16662.27
479.08	17036.76
479.26	16526.52
479.44	17181.87
479.62	17027.40
479.80	17245.07
479.98	17432.31
480.16	17563.38
480.34	17701.47
480.52	18342.78
480.70	17916.80
480.88	17837.22
481.06	18040.85
481.24	18382.57
481.41	18328.74
481.59	18719.60
481.77	18747.69
481.95	18796.84
482.13	18874.08
482.31	18934.93
482.49	19351.55
482.67	19070.68
482.85	19765.82
483.03	19985.83
483.21	20168.40
483.39	20100.52
483.57	20311.17
483.74	20568.63
483.92	20704.38
484.10	20610.76
484.28	20711.40
484.46	21242.70
484.64	21516.54
484.82	21158.44
485.00	21186.53
485.18	21703.79
485.35	22047.85
485.53	21977.63
485.71	22314.67
485.89	22642.34
486.07	22410.63
486.25	22530.00
486.43	22806.18
486.61	22841.29
486.78	23070.66
486.96	23587.92
487.14	23726.01
487.32	23632.39
487.50	24098.16
487.68	24369.66
487.85	24491.37
488.03	24271.36
488.21	24973.52
488.39	24952.45
488.57	25362.04
488.75	25305.87
488.92	25729.51
489.10	25542.27
489.28	25972.92
489.46	26256.13
489.64	25993.99
489.81	26796.79
489.99	26867.01
490.17	26857.65
490.35	27215.75
490.53	27108.08
490.70	27648.75
490.88	27421.72
491.06	27681.52
491.24	27835.99
491.41	28135.58
491.59	28503.04
491.77	28676.24
491.95	28924.34
492.13	28596.67
492.30	29095.20
492.48	28931.36
492.66	29273.08
492.84	29614.80
493.01	29825.45
493.19	29640.54
493.37	30230.36
493.54	30487.82
493.72	30286.53
493.90	30258.45
494.08	30764.00
494.25	30991.03
494.43	31587.87
494.61	31033.16
494.79	31297.64
494.96	31531.70
495.14	31601.91
495.32	31948.31
495.49	31995.12
495.67	32456.21
495.85	32472.59
496.02	32697.28
496.20	32781.54
496.38	32947.72
496.55	32858.78
496.73	33067.09
496.91	33282.42
497.09	33839.47
497.26	33837.12
497.44	33589.03
497.62	34089.90
497.79	34312.25
497.97	34375.45
498.14	34644.61
498.32	34892.71
498.50	35164.21
498.67	35236.77
498.85	35335.07
499.03	35140.80
499.20	35398.26
499.38	35732.96
499.56	36109.78
499.73	36009.14
499.91	36194.04
500.08	36517.04
500.26	36381.29
500.44	36304.05
500.61	36552.15
500.79	36713.64
500.97	37195.79
501.14	37471.98
501.32	37460.27
501.49	37076.43
501.67	37689.65
501.84	37567.94
502.02	37745.82
502.20	37902.64
502.37	38410.53
502.55	38258.40
502.72	38333.29
502.90	38237.33
503.07	38366.06
503.25	38630.54
503.43	38541.60
503.60	39283.55
503.78	39311.64
503.95	39040.14
504.13	39716.55
504.30	39264.83
504.48	38822.47
504.65	39543.35
504.83	39892.09
505.01	40048.91
505.18	40268.92
505.36	40175.30
505.53	40308.71
505.71	40627.02
505.88	40212.74
506.06	40084.01
506.23	41013.21
506.41	40517.01
506.58	41165.34
506.76	40910.22
506.93	41326.84
507.11	40832.99
507.28	41462.59
507.46	41474.29
507.63	41961.12
507.81	41738.77
507.98	42101.56
508.16	41680.26
508.33	41830.05
508.50	42082.83
508.68	42504.13
508.85	42890.32
509.03	42370.72
509.20	42656.26
509.38	43267.14
509.55	43164.16
509.73	43248.42
509.90	43107.99
510.08	43140.75
510.25	42995.64
510.42	43590.14
510.60	43992.71
510.77	43934.20
510.95	44156.55
511.12	43964.62
511.30	44123.78
511.47	44306.34
511.64	44376.56
511.82	44949.99
511.99	44495.92
512.17	44687.85
512.34	44584.86
512.51	44807.22
512.69	45366.60
512.86	45109.14
513.04	45418.10
513.21	45509.38
513.38	45324.47
513.56	45745.77
513.73	45677.90
513.90	45537.46
514.08	46108.55
514.25	46101.53
514.43	46108.55
514.60	46454.95
514.77	46426.87
514.95	46478.36
515.12	46534.53
515.29	46225.58
515.47	46440.91
515.64	47232.01
515.81	46653.90
515.99	47297.55
516.16	47250.74
516.33	47384.15
516.51	47344.36
516.68	47452.02
516.85	47309.25
517.03	47524.58
517.20	47920.13
517.37	47627.56
517.54	47957.58
517.72	47990.34
517.89	47760.97
518.06	47756.29
518.24	47941.19
518.41	48128.44
518.58	48371.85
518.75	48463.13
518.93	48556.75
519.10	48509.94
519.27	48416.32
519.45	48554.41
519.62	48484.20
519.79	48545.05
519.96	48811.87
520.14	48762.72
520.31	48786.13
520.48	49406.37
520.65	49265.94
520.83	49378.28
521.00	49366.58
521.17	49511.69
521.34	49427.43
521.52	49432.11
521.69	49832.35
521.86	50045.33
522.03	50064.06
522.20	49954.05
522.38	49993.84
522.55	50103.85
522.72	50204.49
522.89	50134.28
523.07	50478.33
523.24	50623.45
523.41	50775.58
523.58	50342.58
523.75	50670.26
523.92	50358.97
524.10	50798.99
524.27	50817.71
524.44	51068.15
524.61	51447.32
524.78	51325.61
524.96	51187.52
525.13	51363.06
525.30	51224.96
525.47	51264.75
525.64	51224.96
525.81	51543.28
525.98	51690.73
526.16	51700.09
526.33	51627.54
526.50	51849.89
526.67	51877.97
526.84	51976.28
527.01	51592.43
527.18	51945.85
527.36	51889.68
527.53	52161.18
527.70	52308.63
527.87	52385.87
528.04	51697.75
528.21	51957.55
528.38	52025.43
528.55	52530.98
528.72	52261.82
528.89	52502.90
529.07	52364.81
529.24	52402.25
529.41	52687.80
529.58	52640.99
529.75	52552.05
529.92	52540.35
530.09	52739.29
530.26	52926.53
530.43	52891.43
530.60	52956.96
530.77	52699.50
530.94	53111.44
531.11	53048.24
531.28	53059.94
531.46	53165.27
531.63	53420.39
531.80	53357.19
531.97	53516.35
532.14	53359.53
532.31	53425.07
532.48	53399.32
532.65	53687.21
532.82	53385.28
532.99	53968.07
533.16	53614.65
533.33	53839.34
533.50	54141.27
533.67	53886.15
533.84	54045.31
534.01	53811.26
534.18	53916.58
534.35	54391.71
534.52	53911.90
534.69	54255.96
534.86	54323.83
535.03	54106.16
535.20	54181.06
535.37	54344.90
535.54	54284.04
535.71	54515.76
535.88	54457.24
536.05	54391.71
536.22	54623.42
536.38	54581.29
536.55	54735.77
536.72	54581.29
536.89	54546.18
537.06	54445.54
537.23	54857.48
537.40	54380.01
537.57	54740.45
537.74	54567.25
537.91	54993.23
538.08	55037.70
538.25	54951.10
538.42	54958.12
538.59	55068.12
538.75	55047.06
538.92	55054.08
539.09	55056.42
539.26	54887.90
539.43	55136.00
539.60	55325.58
539.77	55346.65
539.94	55405.16
540.11	55227.28
540.28	55458.99
540.44	55529.21
540.61	55325.58
540.78	55292.82
540.95	55487.08
541.12	55693.05
541.29	55496.44
541.46	55494.10
541.62	55569.00
541.79	55875.61
541.96	55456.65
542.13	55676.66
542.30	55749.22
542.47	55796.03
542.63	55943.48
542.80	55978.59
542.97	56039.45
543.14	56121.37
543.31	56093.28
543.48	56151.79
543.64	56343.72
543.81	56456.06
543.98	56437.34
544.15	56540.32
544.32	56479.47
544.48	56561.39
544.65	56385.85
544.82	56500.53
544.99	56357.76
545.16	56807.14
545.32	56346.06
545.49	56896.08
545.66	56982.68
545.83	56559.05
546.00	56687.78
546.16	56720.54
546.33	56523.94
546.50	56392.87
546.67	56676.07
546.83	56481.81
547.00	56741.61
547.17	56935.87
547.34	56968.64
547.50	56898.42
547.67	57008.43
547.84	57052.90
548.00	57085.67
548.17	57272.91
548.34	57092.69
548.51	57258.87
548.67	57467.17
548.84	57279.93
549.01	57443.77
549.18	57202.69
549.34	57375.89
549.51	57130.14
549.68	57380.57
549.84	57247.16
550.01	57286.95
550.18	57212.06
550.34	57333.76
550.51	57310.36
550.68	57677.82
550.84	57478.88
551.01	57600.58
551.18	57530.37
551.34	57200.35
551.51	57673.14
551.68	57687.18
551.84	57975.07
552.01	57303.34
552.18	57932.94
552.34	57705.91
552.51	57738.68
552.68	57455.47
552.84	57771.44
553.01	57902.51
553.18	57642.71
553.34	57984.43
553.51	57939.96
553.67	58059.33
553.84	58141.25
554.01	58150.61
554.17	58159.97
554.34	58213.80
554.51	58174.02
554.67	58239.55
554.84	58328.49
555.00	58124.86
555.17	58302.74
555.33	58199.76
555.50	58433.81
555.67	58344.87
555.83	58176.36
556.00	58330.83
556.16	58398.71
556.33	58396.37
556.50	58461.90
556.66	58506.37
556.83	58258.27
556.99	58745.11
557.16	58672.55
557.32	58494.67
557.49	58576.59
557.65	58300.40
557.82	58330.83
557.98	58499.35
558.15	58485.31
558.32	58569.57
558.48	58815.32
558.65	58801.28
558.81	58482.97
558.98	58625.74
559.14	58508.71
559.31	58677.23
559.47	58567.23
559.64	58763.83
559.80	59082.14
559.97	58913.62
560.13	58740.42
560.30	58864.47
560.46	58878.52
560.63	58939.37
560.79	58955.75
560.96	59161.72
561.12	58773.19
561.29	58885.54
561.45	58960.44
561.61	58913.62
561.78	58986.18
561.94	58955.75
562.11	59086.82
562.27	58967.46
562.44	58990.86
562.60	59014.27
562.77	58852.77
562.93	59051.72
563.10	59217.89
563.26	59075.12
563.42	59199.17
563.59	59098.53
563.75	59222.58
563.92	59414.50
564.08	59150.02
564.24	59173.42
564.41	59035.33
564.57	59217.89
564.74	58974.48
564.90	59370.03
565.07	59238.96
565.23	59330.24
565.39	59412.16
565.56	59372.37
565.72	59194.49
565.88	59161.72
566.05	59138.32
566.21	59114.91
566.38	59278.75
566.54	59292.79
566.70	59606.42
566.87	59545.57
567.03	59372.37
567.19	59592.38
567.36	59700.04
567.52	59449.61
567.68	59327.90
567.85	59227.26
568.01	59430.88
568.17	59370.03
568.34	59550.25
568.50	59538.55
568.66	59597.06
568.83	59587.70
568.99	59531.53
569.15	59306.83
569.32	59566.63
569.48	59255.34
569.64	59744.51
569.81	59461.31
569.97	59646.21
570.13	59774.94
570.30	59615.79
570.46	59601.74
570.62	59578.34
570.78	59615.79
570.95	59416.84
571.11	59428.54
571.27	59517.48
571.43	59576.00
571.60	59702.38
571.76	59758.56
571.92	59779.62
572.09	59639.19
572.25	59667.28
572.41	59405.14
572.57	59590.04
572.74	59765.58
572.90	59597.06
573.06	59601.74
573.22	59615.79
573.38	59700.04
573.55	59618.13
573.71	60109.64
573.87	59983.25
574.03	59538.55
574.20	59887.29
574.36	59664.94
574.52	59398.12
574.68	59650.89
574.84	59700.04
575.01	59875.58
575.17	59943.46
575.33	59828.77
575.49	59657.91
575.65	59943.46
575.82	60121.34
575.98	59917.71
576.14	59718.77
576.30	59945.80
576.46	59910.69
576.62	59756.22
576.79	59765.58
576.95	59723.45
577.11	59943.46
577.27	59880.27
577.43	59889.63
577.59	59838.14
577.75	59817.07
577.92	59784.30
578.08	59791.33
578.24	59765.58
578.40	59676.64
578.56	59746.86
578.72	59924.74
578.88	60119.00
579.04	59976.23
579.21	59934.10
579.37	59943.46
579.53	59938.78
579.69	59767.92
579.85	59845.16
580.01	59920.05
580.17	59861.54
580.33	59845.16
580.49	60161.13
580.65	59908.35
580.82	59997.29
580.98	59917.71
581.14	59931.76
581.30	60245.39
581.46	59929.42
581.62	59936.44
581.78	59693.02
581.94	59915.37
582.10	59980.91
582.26	60011.34
582.42	59934.10
582.58	60032.40
582.74	60179.85
582.90	60034.74
583.06	59976.23
583.22	60102.62
583.38	59992.61
583.54	60088.57
583.70	60009.00
583.86	60163.47
584.02	59959.84
584.18	60107.30
584.34	60151.77
584.50	60292.20
584.66	59987.93
584.82	59810.05
584.98	59861.54
585.14	60317.95
585.30	59985.59
585.46	59882.61
585.62	59920.05
585.78	60158.79
585.94	59868.56
586.10	60156.45
586.26	60093.25
586.42	60210.28
586.58	60217.30
586.74	60217.30
586.90	60133.04
587.06	59875.58
587.22	60161.13
587.38	59990.27
587.54	60362.42
587.70	60322.63
587.86	60315.61
588.02	60236.03
588.18	60425.61
588.34	60287.52
588.49	60275.82
588.65	60144.75
588.81	60250.07
588.97	60214.96
589.13	60207.94
