SpectraSuite Data File
++++++++++++++++++++++++++++++++++++
Date: Fri Oct 04 11:46:59 GMT-05:00 2013
User: price-jones
Dark Spectrum Present: No
Reference Spectrum Present: No
Number of Sampled Component Spectra: 1
Spectrometers: USB2+H05261
Integration Time (usec): 100000 (USB2+H05261)
Spectra Averaged: 1 (USB2+H05261)
Boxcar Smoothing: 0 (USB2+H05261)
Correct for Electrical Dark: No (USB2+H05261)
Strobe/Lamp Enabled: No (USB2+H05261)
Correct for Detector Non-linearity: No (USB2+H05261)
Correct for Stray Light: No (USB2+H05261)
Number of Pixels in Processed Spectrum: 2048
>>>>>Begin Processed Spectral Data<<<<<
365.73	18.72
365.92	18.72
366.12	18.72
366.32	0.00
366.52	0.00
366.72	0.00
366.91	0.00
367.11	0.00
367.31	0.00
367.51	0.00
367.70	0.00
367.90	0.00
368.10	0.00
368.30	0.00
368.49	0.00
368.69	0.00
368.89	0.00
369.09	0.00
369.28	0.00
369.48	0.00
369.68	0.00
369.87	0.00
370.07	0.00
370.27	11.70
370.47	0.00
370.66	0.00
370.86	0.00
371.06	60.85
371.25	67.88
371.45	0.00
371.65	147.45
371.84	18.72
372.04	42.13
372.24	121.71
372.44	98.30
372.63	58.51
372.83	95.96
373.03	58.51
373.22	65.54
373.42	138.09
373.62	105.32
373.81	58.51
374.01	124.05
374.21	110.01
374.40	135.75
374.60	112.35
374.79	100.64
374.99	114.69
375.19	133.41
375.38	105.32
375.58	56.17
375.78	79.58
375.97	93.62
376.17	112.35
376.37	98.30
376.56	128.73
376.76	51.49
376.95	11.70
377.15	110.01
377.35	18.72
377.54	175.54
377.74	11.70
377.93	51.49
378.13	56.17
378.33	147.45
378.52	88.94
378.72	114.69
378.91	121.71
379.11	60.85
379.31	65.54
379.50	39.79
379.70	140.43
379.89	131.07
380.09	100.64
380.28	102.98
380.48	107.66
380.68	67.88
380.87	65.54
381.07	88.94
381.26	86.60
381.46	91.28
381.65	112.35
381.85	72.56
382.04	114.69
382.24	145.11
382.43	131.07
382.63	119.37
382.83	88.94
383.02	128.73
383.22	107.66
383.41	86.60
383.61	51.49
383.80	60.85
384.00	11.70
384.19	100.64
384.39	140.43
384.58	114.69
384.78	121.71
384.97	86.60
385.17	105.32
385.36	91.28
385.56	46.81
385.75	60.85
385.95	37.45
386.14	147.45
386.34	98.30
386.53	149.79
386.72	131.07
386.92	98.30
387.11	159.16
387.31	112.35
387.50	95.96
387.70	117.03
387.89	117.03
388.09	105.32
388.28	159.16
388.48	84.26
388.67	208.31
388.86	110.01
389.06	25.75
389.25	114.69
389.45	121.71
389.64	93.62
389.84	102.98
390.03	112.35
390.22	95.96
390.42	107.66
390.61	117.03
390.81	56.17
391.00	91.28
391.19	84.26
391.39	112.35
391.58	63.19
391.78	147.45
391.97	119.37
392.16	60.85
392.36	117.03
392.55	74.90
392.75	60.85
392.94	56.17
393.13	168.52
393.33	21.06
393.52	77.24
393.71	175.54
393.91	138.09
394.10	93.62
394.29	128.73
394.49	65.54
394.68	152.13
394.88	156.82
395.07	152.13
395.26	72.56
395.46	79.58
395.65	131.07
395.84	65.54
396.04	166.18
396.23	117.03
396.42	95.96
396.62	56.17
396.81	81.92
397.00	100.64
397.19	121.71
397.39	35.11
397.58	110.01
397.77	107.66
397.97	84.26
398.16	135.75
398.35	133.41
398.55	98.30
398.74	112.35
398.93	149.79
399.12	70.22
399.32	60.85
399.51	74.90
399.70	105.32
399.90	91.28
400.09	147.45
400.28	117.03
400.47	86.60
400.67	77.24
400.86	7.02
401.05	112.35
401.24	135.75
401.44	124.05
401.63	102.98
401.82	147.45
402.01	168.52
402.21	124.05
402.40	81.92
402.59	0.00
402.78	91.28
402.97	117.03
403.17	124.05
403.36	154.48
403.55	44.47
403.74	128.73
403.93	187.24
404.13	180.22
404.32	126.39
404.51	126.39
404.70	119.37
404.89	102.98
405.09	145.11
405.28	107.66
405.47	107.66
405.66	128.73
405.85	208.31
406.05	107.66
406.24	121.71
406.43	152.13
406.62	147.45
406.81	124.05
407.00	51.49
407.20	86.60
407.39	142.77
407.58	161.50
407.77	49.15
407.96	161.50
408.15	100.64
408.34	156.82
408.54	72.56
408.73	37.45
408.92	65.54
409.11	107.66
409.30	67.88
409.49	93.62
409.68	81.92
409.87	88.94
410.07	65.54
410.26	49.15
410.45	170.86
410.64	65.54
410.83	175.54
411.02	168.52
411.21	98.30
411.40	156.82
411.59	168.52
411.78	124.05
411.98	53.83
412.17	56.17
412.36	119.37
412.55	180.22
412.74	119.37
412.93	173.20
413.12	72.56
413.31	119.37
413.50	67.88
413.69	121.71
413.88	159.16
414.07	133.41
414.26	18.72
414.45	102.98
414.64	114.69
414.83	86.60
415.02	102.98
415.22	107.66
415.41	215.33
415.60	156.82
415.79	191.92
415.98	154.48
416.17	107.66
416.36	98.30
416.55	65.54
416.74	100.64
416.93	131.07
417.12	88.94
417.31	63.19
417.50	77.24
417.69	159.16
417.88	212.99
418.07	201.29
418.26	72.56
418.45	208.31
418.64	304.27
418.83	201.29
419.02	205.97
419.21	222.35
419.39	215.33
419.58	173.20
419.77	187.24
419.96	131.07
420.15	196.60
420.34	147.45
420.53	126.39
420.72	126.39
420.91	140.43
421.10	126.39
421.29	126.39
421.48	131.07
421.67	105.32
421.86	102.98
422.05	163.84
422.24	65.54
422.43	128.73
422.61	74.90
422.80	133.41
422.99	107.66
423.18	70.22
423.37	86.60
423.56	98.30
423.75	86.60
423.94	102.98
424.13	51.49
424.32	140.43
424.50	77.24
424.69	124.05
424.88	212.99
425.07	100.64
425.26	212.99
425.45	198.95
425.64	222.35
425.83	217.67
426.01	276.18
426.20	117.03
426.39	51.49
426.58	72.56
426.77	114.69
426.96	117.03
427.15	142.77
427.33	74.90
427.52	147.45
427.71	121.71
427.90	138.09
428.09	72.56
428.28	170.86
428.46	140.43
428.65	81.92
428.84	46.81
429.03	107.66
429.22	140.43
429.40	32.77
429.59	84.26
429.78	163.84
429.97	60.85
430.16	117.03
430.34	117.03
430.53	98.30
430.72	56.17
430.91	140.43
431.10	128.73
431.28	126.39
431.47	145.11
431.66	77.24
431.85	105.32
432.03	110.01
432.22	159.16
432.41	142.77
432.60	124.05
432.79	255.12
432.97	294.91
433.16	292.57
433.35	245.76
433.54	187.24
433.72	128.73
433.91	184.90
434.10	175.54
434.28	173.20
434.47	145.11
434.66	156.82
434.85	119.37
435.03	149.79
435.22	156.82
435.41	220.01
435.59	93.62
435.78	168.52
435.97	121.71
436.16	77.24
436.34	60.85
436.53	105.32
436.72	159.16
436.90	191.92
437.09	159.16
437.28	105.32
437.46	159.16
437.65	147.45
437.84	184.90
438.02	170.86
438.21	119.37
438.40	112.35
438.58	163.84
438.77	88.94
438.96	88.94
439.14	93.62
439.33	102.98
439.52	147.45
439.70	119.37
439.89	147.45
440.08	121.71
440.26	147.45
440.45	173.20
440.63	161.50
440.82	124.05
441.01	135.75
441.19	205.97
441.38	107.66
441.57	182.56
441.75	142.77
441.94	156.82
442.12	98.30
442.31	154.48
442.50	145.11
442.68	74.90
442.87	79.58
443.05	145.11
443.24	112.35
443.43	184.90
443.61	124.05
443.80	182.56
443.98	140.43
444.17	77.24
444.35	128.73
444.54	145.11
444.73	70.22
444.91	133.41
445.10	110.01
445.28	102.98
445.47	156.82
445.65	102.98
445.84	114.69
446.02	147.45
446.21	105.32
446.39	100.64
446.58	152.13
446.77	37.45
446.95	102.98
447.14	135.75
447.32	133.41
447.51	138.09
447.69	135.75
447.88	140.43
448.06	182.56
448.25	133.41
448.43	168.52
448.62	138.09
448.80	128.73
448.99	227.03
449.17	126.39
449.36	79.58
449.54	149.79
449.73	163.84
449.91	187.24
450.10	138.09
450.28	124.05
450.46	119.37
450.65	149.79
450.83	112.35
451.02	112.35
451.20	175.54
451.39	121.71
451.57	117.03
451.76	124.05
451.94	119.37
452.13	138.09
452.31	159.16
452.49	177.88
452.68	88.94
452.86	154.48
453.05	128.73
453.23	147.45
453.42	121.71
453.60	98.30
453.78	121.71
453.97	81.92
454.15	152.13
454.34	74.90
454.52	173.20
454.70	224.69
454.89	182.56
455.07	119.37
455.26	189.58
455.44	170.86
455.62	77.24
455.81	147.45
455.99	170.86
456.17	184.90
456.36	145.11
456.54	65.54
456.73	154.48
456.91	117.03
457.09	42.13
457.28	124.05
457.46	135.75
457.64	168.52
457.83	163.84
458.01	131.07
458.19	168.52
458.38	173.20
458.56	166.18
458.74	128.73
458.93	112.35
459.11	124.05
459.29	163.84
459.48	128.73
459.66	168.52
459.84	124.05
460.03	208.31
460.21	170.86
460.39	72.56
460.57	198.95
460.76	149.79
460.94	149.79
461.12	154.48
461.31	154.48
461.49	98.30
461.67	56.17
461.85	65.54
462.04	159.16
462.22	580.45
462.40	187.24
462.59	107.66
462.77	220.01
462.95	189.58
463.13	117.03
463.32	177.88
463.50	205.97
463.68	189.58
463.86	114.69
464.05	102.98
464.23	189.58
464.41	147.45
464.59	121.71
464.78	121.71
464.96	156.82
465.14	124.05
465.32	159.16
465.50	133.41
465.69	238.73
465.87	159.16
466.05	175.54
466.23	131.07
466.41	142.77
466.60	147.45
466.78	184.90
466.96	208.31
467.14	131.07
467.32	184.90
467.51	163.84
467.69	203.63
467.87	194.26
468.05	105.32
468.23	180.22
468.41	128.73
468.60	114.69
468.78	152.13
468.96	212.99
469.14	184.90
469.32	105.32
469.50	86.60
469.69	184.90
469.87	152.13
470.05	135.75
470.23	173.20
470.41	180.22
470.59	114.69
470.77	133.41
470.95	114.69
471.14	184.90
471.32	191.92
471.50	152.13
471.68	138.09
471.86	180.22
472.04	126.39
472.22	98.30
472.40	107.66
472.58	231.71
472.77	187.24
472.95	110.01
473.13	182.56
473.31	98.30
473.49	198.95
473.67	79.58
473.85	203.63
474.03	152.13
474.21	135.75
474.39	201.29
474.57	205.97
474.75	166.18
474.93	163.84
475.12	126.39
475.30	149.79
475.48	152.13
475.66	170.86
475.84	135.75
476.02	86.60
476.20	208.31
476.38	159.16
476.56	217.67
476.74	112.35
476.92	112.35
477.10	102.98
477.28	234.05
477.46	182.56
477.64	166.18
477.82	170.86
478.00	147.45
478.18	131.07
478.36	149.79
478.54	138.09
478.72	142.77
478.90	208.31
479.08	93.62
479.26	170.86
479.44	154.48
479.62	124.05
479.80	149.79
479.98	147.45
480.16	170.86
480.34	184.90
480.52	105.32
480.70	163.84
480.88	133.41
481.06	180.22
481.24	152.13
481.41	163.84
481.59	203.63
481.77	114.69
481.95	187.24
482.13	266.82
482.31	163.84
482.49	170.86
482.67	147.45
482.85	159.16
483.03	168.52
483.21	224.69
483.39	124.05
483.57	154.48
483.74	194.26
483.92	114.69
484.10	112.35
484.28	119.37
484.46	257.46
484.64	217.67
484.82	98.30
485.00	222.35
485.18	135.75
485.35	180.22
485.53	112.35
485.71	177.88
485.89	163.84
486.07	163.84
486.25	280.86
486.43	222.35
486.61	196.60
486.78	105.32
486.96	124.05
487.14	161.50
487.32	145.11
487.50	65.54
487.68	184.90
487.85	117.03
488.03	180.22
488.21	252.78
488.39	166.18
488.57	212.99
488.75	203.63
488.92	510.24
489.10	194.26
489.28	215.33
489.46	70.22
489.64	177.88
489.81	196.60
489.99	175.54
490.17	135.75
490.35	271.50
490.53	201.29
490.70	133.41
490.88	166.18
491.06	187.24
491.24	189.58
491.41	112.35
491.59	234.05
491.77	126.39
491.95	140.43
492.13	147.45
492.30	180.22
492.48	175.54
492.66	182.56
492.84	191.92
493.01	170.86
493.19	194.26
493.37	278.52
493.54	177.88
493.72	191.92
493.90	184.90
494.08	140.43
494.25	124.05
494.43	191.92
494.61	170.86
494.79	156.82
494.96	191.92
495.14	224.69
495.32	194.26
495.49	93.62
495.67	175.54
495.85	159.16
496.02	215.33
496.20	273.84
496.38	180.22
496.55	234.05
496.73	156.82
496.91	152.13
497.09	182.56
497.26	203.63
497.44	163.84
497.62	133.41
497.79	149.79
497.97	191.92
498.14	114.69
498.32	182.56
498.50	166.18
498.67	205.97
498.85	210.65
499.03	107.66
499.20	182.56
499.38	152.13
499.56	145.11
499.73	255.12
499.91	117.03
500.08	152.13
500.26	215.33
500.44	147.45
500.61	138.09
500.79	191.92
500.97	170.86
501.14	180.22
501.32	208.31
501.49	166.18
501.67	117.03
501.84	168.52
502.02	140.43
502.20	297.25
502.37	175.54
502.55	173.20
502.72	131.07
502.90	297.25
503.07	215.33
503.25	241.08
503.43	222.35
503.60	173.20
503.78	248.10
503.95	163.84
504.13	159.16
504.30	133.41
504.48	180.22
504.65	163.84
504.83	243.42
505.01	191.92
505.18	203.63
505.36	156.82
505.53	154.48
505.71	189.58
505.88	236.39
506.06	205.97
506.23	217.67
506.41	198.95
506.58	147.45
506.76	220.01
506.93	173.20
507.11	245.76
507.28	161.50
507.46	170.86
507.63	231.71
507.81	234.05
507.98	187.24
508.16	187.24
508.33	175.54
508.50	140.43
508.68	191.92
508.85	180.22
509.03	177.88
509.20	227.03
509.38	196.60
509.55	222.35
509.73	191.92
509.90	241.08
510.08	215.33
510.25	173.20
510.42	159.16
510.60	198.95
510.77	215.33
510.95	182.56
511.12	224.69
511.30	285.55
511.47	241.08
511.64	273.84
511.82	173.20
511.99	222.35
512.17	220.01
512.34	128.73
512.51	201.29
512.69	210.65
512.86	255.12
513.04	210.65
513.21	177.88
513.38	245.76
513.56	217.67
513.73	124.05
513.90	168.52
514.08	152.13
514.25	283.20
514.43	236.39
514.60	196.60
514.77	210.65
514.95	170.86
515.12	184.90
515.29	163.84
515.47	248.10
515.64	205.97
515.81	215.33
515.99	262.14
516.16	227.03
516.33	215.33
516.51	161.50
516.68	154.48
516.85	128.73
517.03	231.71
517.20	163.84
517.37	245.76
517.54	163.84
517.72	217.67
517.89	198.95
518.06	138.09
518.24	208.31
518.41	224.69
518.58	259.80
518.75	238.73
518.93	217.67
519.10	161.50
519.27	255.12
519.45	173.20
519.62	238.73
519.79	273.84
519.96	147.45
520.14	280.86
520.31	191.92
520.48	220.01
520.65	189.58
520.83	229.37
521.00	180.22
521.17	252.78
521.34	238.73
521.52	217.67
521.69	257.46
521.86	205.97
522.03	215.33
522.20	276.18
522.38	320.65
522.55	222.35
522.72	203.63
522.89	175.54
523.07	353.42
523.24	236.39
523.41	147.45
523.58	163.84
523.75	182.56
523.92	166.18
524.10	205.97
524.27	154.48
524.44	121.71
524.61	210.65
524.78	262.14
524.96	194.26
525.13	196.60
525.30	299.59
525.47	248.10
525.64	173.20
525.81	189.58
525.98	184.90
526.16	208.31
526.33	163.84
526.50	262.14
526.67	205.97
526.84	156.82
527.01	196.60
527.18	205.97
527.36	243.42
527.53	227.03
527.70	128.73
527.87	243.42
528.04	227.03
528.21	166.18
528.38	212.99
528.55	250.44
528.72	224.69
528.89	175.54
529.07	238.73
529.24	182.56
529.41	222.35
529.58	250.44
529.75	234.05
529.92	248.10
530.09	245.76
530.26	234.05
530.43	252.78
530.60	189.58
530.77	210.65
530.94	229.37
531.11	163.84
531.28	208.31
531.46	241.08
531.63	285.55
531.80	212.99
531.97	257.46
532.14	184.90
532.31	168.52
532.48	299.59
532.65	348.74
532.82	418.96
532.99	348.74
533.16	315.97
533.33	313.63
533.50	273.84
533.67	334.70
533.84	390.87
534.01	444.70
534.18	367.46
534.35	404.91
534.52	330.02
534.69	294.91
534.86	287.89
535.03	201.29
535.20	257.46
535.37	262.14
535.54	227.03
535.71	196.60
535.88	320.65
536.05	285.55
536.22	220.01
536.38	159.16
536.55	215.33
536.72	170.86
536.89	220.01
537.06	245.76
537.23	236.39
537.40	168.52
537.57	140.43
537.74	273.84
537.91	285.55
538.08	255.12
538.25	264.48
538.42	147.45
538.59	294.91
538.75	189.58
538.92	252.78
539.09	215.33
539.26	248.10
539.43	526.62
539.60	1357.51
539.77	2193.08
539.94	2080.74
540.11	1458.15
540.28	851.96
540.44	531.30
540.61	430.66
540.78	231.71
540.95	147.45
541.12	243.42
541.29	201.29
541.46	290.23
541.62	215.33
541.79	198.95
541.96	175.54
542.13	191.92
542.30	227.03
542.47	283.20
542.63	203.63
542.80	210.65
542.97	227.03
543.14	231.71
543.31	208.31
543.48	255.12
543.64	220.01
543.81	234.05
543.98	203.63
544.15	205.97
544.32	184.90
544.48	196.60
544.65	280.86
544.82	264.48
544.99	194.26
545.16	250.44
545.32	236.39
545.49	152.13
545.66	175.54
545.83	182.56
546.00	154.48
546.16	208.31
546.33	241.08
546.50	189.58
546.67	245.76
546.83	133.41
547.00	161.50
547.17	145.11
547.34	194.26
547.50	177.88
547.67	95.96
547.84	198.95
548.00	203.63
548.17	222.35
548.34	196.60
548.51	236.39
548.67	210.65
548.84	248.10
549.01	252.78
549.18	170.86
549.34	159.16
549.51	255.12
549.68	231.71
549.84	201.29
550.01	198.95
550.18	262.14
550.34	353.42
550.51	273.84
550.68	285.55
550.84	180.22
551.01	231.71
551.18	187.24
551.34	187.24
551.51	152.13
551.68	210.65
551.84	184.90
552.01	208.31
552.18	142.77
552.34	217.67
552.51	201.29
552.68	229.37
552.84	243.42
553.01	154.48
553.18	189.58
553.34	168.52
553.51	191.92
553.67	248.10
553.84	299.59
554.01	245.76
554.17	245.76
554.34	194.26
554.51	234.05
554.67	227.03
554.84	236.39
555.00	248.10
555.17	212.99
555.33	266.82
555.50	306.61
555.67	243.42
555.83	229.37
556.00	212.99
556.16	383.85
556.33	255.12
556.50	208.31
556.66	166.18
556.83	175.54
556.99	210.65
557.16	126.39
557.32	187.24
557.49	266.82
557.65	224.69
557.82	168.52
557.98	212.99
558.15	203.63
558.32	124.05
558.48	119.37
558.65	243.42
558.81	212.99
558.98	168.52
559.14	248.10
559.31	278.52
559.47	201.29
559.64	191.92
559.80	229.37
559.97	264.48
560.13	227.03
560.30	229.37
560.46	161.50
560.63	229.37
560.79	252.78
560.96	156.82
561.12	217.67
561.29	173.20
561.45	154.48
561.61	166.18
561.78	330.02
561.94	236.39
562.11	194.26
562.27	224.69
562.44	114.69
562.60	238.73
562.77	273.84
562.93	241.08
563.10	250.44
563.26	217.67
563.42	208.31
563.59	166.18
563.75	203.63
563.92	271.50
564.08	203.63
564.24	278.52
564.41	255.12
564.57	142.77
564.74	250.44
564.90	224.69
565.07	294.91
565.23	337.04
565.39	290.23
565.56	294.91
565.72	224.69
565.88	266.82
566.05	184.90
566.21	208.31
566.38	264.48
566.54	212.99
566.70	248.10
566.87	166.18
567.03	248.10
567.19	203.63
567.36	210.65
567.52	236.39
567.68	222.35
567.85	166.18
568.01	220.01
568.17	180.22
568.34	180.22
568.50	208.31
568.66	124.05
568.83	395.55
568.99	243.42
569.15	236.39
569.32	191.92
569.48	201.29
569.64	142.77
569.81	222.35
569.97	173.20
570.13	203.63
570.30	86.60
570.46	208.31
570.62	236.39
570.78	210.65
570.95	163.84
571.11	245.76
571.27	191.92
571.43	210.65
571.60	241.08
571.76	280.86
571.92	182.56
572.09	135.75
572.25	168.52
572.41	264.48
572.57	205.97
572.74	273.84
572.90	203.63
573.06	187.24
573.22	217.67
573.38	276.18
573.55	189.58
573.71	271.50
573.87	285.55
574.03	180.22
574.20	208.31
574.36	285.55
574.52	374.49
574.68	330.02
574.84	330.02
575.01	264.48
575.17	236.39
575.33	238.73
575.49	210.65
575.65	287.89
575.82	374.49
575.98	760.67
576.14	919.83
576.30	940.90
576.46	772.38
576.62	557.05
576.79	411.93
576.95	304.27
577.11	322.99
577.27	346.40
577.43	266.82
577.59	311.29
577.75	283.20
577.92	198.95
578.08	234.05
578.24	196.60
578.40	273.84
578.56	304.27
578.72	330.02
578.88	341.72
579.04	262.14
579.21	315.97
579.37	273.84
579.53	315.97
579.69	301.93
579.85	334.70
580.01	374.49
580.17	379.17
580.33	397.89
580.49	358.10
580.65	454.06
580.82	421.30
580.98	376.83
581.14	299.59
581.30	407.25
581.46	550.03
581.62	702.16
581.78	875.36
581.94	706.84
582.10	571.09
582.26	482.15
582.42	486.83
582.58	500.87
582.74	472.79
582.90	479.81
583.06	526.62
583.22	545.34
583.38	582.79
583.54	697.48
583.70	812.17
583.86	933.87
584.02	987.71
584.18	1219.42
584.34	1708.59
584.50	4578.09
584.66	34668.02
584.82	65535.00
584.98	65535.00
585.14	65535.00
585.30	65535.00
585.46	45179.36
585.62	28065.36
585.78	12416.54
585.94	4770.01
586.10	2401.39
586.26	1432.41
586.42	1107.07
586.58	903.45
586.74	795.78
586.90	676.41
587.06	669.39
587.22	622.58
587.38	641.31
587.54	1495.60
587.70	5158.54
587.86	8748.92
588.02	9970.68
588.18	7129.27
588.34	4315.95
588.49	2803.96
588.65	1724.97
588.81	866.00
588.97	543.00
589.13	374.49
589.29	327.68
589.45	404.91
589.61	379.17
589.77	540.66
589.93	472.79
590.08	585.13
590.24	550.03
590.40	517.26
590.56	517.26
590.72	421.30
590.88	360.44
591.04	397.89
591.20	463.43
591.35	341.72
591.51	355.76
591.67	304.27
591.83	337.04
591.99	388.53
592.15	301.93
592.31	311.29
592.46	234.05
592.62	308.95
592.78	330.02
592.94	315.97
593.10	320.65
593.26	285.55
593.41	468.11
593.57	482.15
593.73	732.59
593.89	4070.19
594.05	11052.01
594.20	17062.51
594.36	16673.98
594.52	10684.55
594.68	6497.33
594.84	4198.92
594.99	2363.94
595.15	1064.94
595.31	638.97
595.47	482.15
595.62	313.63
595.78	334.70
595.94	339.38
596.10	379.17
596.25	421.30
596.41	414.27
596.57	283.20
596.73	332.36
596.88	683.44
597.04	1982.43
597.20	3461.65
597.36	3927.42
597.51	3042.70
597.67	2001.16
597.83	1345.81
597.99	870.68
598.14	514.92
598.30	482.15
598.46	348.74
598.61	440.02
598.77	315.97
598.93	325.33
599.09	301.93
599.24	337.04
599.40	280.86
599.56	294.91
599.71	212.99
599.87	280.86
600.03	220.01
600.18	215.33
600.34	315.97
600.50	252.78
600.65	215.33
600.81	332.36
600.97	283.20
601.12	205.97
601.28	252.78
601.44	215.33
601.59	280.86
601.75	292.57
601.91	266.82
602.06	322.99
602.22	339.38
602.37	922.17
602.53	2429.48
602.69	3953.16
602.84	4344.03
603.00	3199.51
603.16	2181.38
603.31	1521.35
603.47	947.92
603.62	512.58
603.78	407.25
603.94	341.72
604.09	330.02
604.25	241.08
604.40	278.52
604.56	212.99
604.71	313.63
604.87	198.95
605.03	163.84
605.18	304.27
605.34	299.59
605.49	278.52
605.65	259.80
605.80	210.65
605.96	320.65
606.12	381.51
606.27	348.74
606.43	390.87
606.58	521.94
606.74	1111.75
606.89	4936.19
607.05	10747.74
607.20	14747.72
607.36	11918.01
607.51	7819.73
607.67	4999.38
607.82	3435.91
607.98	1881.79
608.13	938.55
608.29	564.07
608.44	559.39
608.60	564.07
608.75	634.29
608.91	1586.88
609.06	7801.01
609.22	17865.31
609.37	25537.59
609.53	22291.26
609.68	14747.72
609.84	9317.67
609.99	6073.69
610.15	3159.72
610.30	1404.32
610.46	760.67
610.61	653.01
610.76	400.23
610.92	390.87
611.07	301.93
611.23	355.76
611.38	411.93
611.54	341.72
