SpectraSuite Data File
++++++++++++++++++++++++++++++++++++
Date: Fri Oct 04 11:48:36 GMT-05:00 2013
User: price-jones
Dark Spectrum Present: No
Reference Spectrum Present: No
Number of Sampled Component Spectra: 1
Spectrometers: USB2+H05261
Integration Time (usec): 100000 (USB2+H05261)
Spectra Averaged: 1 (USB2+H05261)
Boxcar Smoothing: 0 (USB2+H05261)
Correct for Electrical Dark: No (USB2+H05261)
Strobe/Lamp Enabled: No (USB2+H05261)
Correct for Detector Non-linearity: No (USB2+H05261)
Correct for Stray Light: No (USB2+H05261)
Number of Pixels in Processed Spectrum: 2048
>>>>>Begin Processed Spectral Data<<<<<
365.73	11.70
365.92	11.70
366.12	11.70
366.32	0.00
366.52	0.00
366.72	0.00
366.91	0.00
367.11	0.00
367.31	0.00
367.51	0.00
367.70	0.00
367.90	0.00
368.10	0.00
368.30	0.00
368.49	0.00
368.69	0.00
368.89	0.00
369.09	0.00
369.28	0.00
369.48	0.00
369.68	0.00
369.87	0.00
370.07	0.00
370.27	14.04
370.47	105.32
370.66	86.60
370.86	257.46
371.06	203.63
371.25	285.55
371.45	189.58
371.65	325.33
371.84	170.86
372.04	215.33
372.24	227.03
372.44	278.52
372.63	320.65
372.83	311.29
373.03	255.12
373.22	294.91
373.42	294.91
373.62	252.78
373.81	304.27
374.01	351.08
374.21	304.27
374.40	315.97
374.60	351.08
374.79	280.86
374.99	297.25
375.19	238.73
375.38	280.86
375.58	304.27
375.78	346.40
375.97	355.76
376.17	491.51
376.37	330.02
376.56	301.93
376.76	311.29
376.95	304.27
377.15	348.74
377.35	358.10
377.54	292.57
377.74	257.46
377.93	313.63
378.13	351.08
378.33	372.15
378.52	330.02
378.72	376.83
378.91	308.95
379.11	369.80
379.31	285.55
379.50	393.21
379.70	283.20
379.89	304.27
380.09	259.80
380.28	269.16
380.48	374.49
380.68	311.29
380.87	369.80
381.07	348.74
381.26	423.64
381.46	334.70
381.65	306.61
381.85	381.51
382.04	388.53
382.24	292.57
382.43	388.53
382.63	369.80
382.83	390.87
383.02	423.64
383.22	388.53
383.41	320.65
383.61	397.89
383.80	358.10
384.00	358.10
384.19	365.12
384.39	458.74
384.58	369.80
384.78	409.59
384.97	351.08
385.17	374.49
385.36	402.57
385.56	430.66
385.75	276.18
385.95	451.72
386.14	404.91
386.34	376.83
386.53	435.34
386.72	381.51
386.92	440.02
387.11	393.21
387.31	496.19
387.50	388.53
387.70	461.09
387.89	433.00
388.09	468.11
388.28	486.83
388.48	400.23
388.67	461.09
388.86	451.72
389.06	512.58
389.25	428.32
389.45	425.98
389.64	470.45
389.84	538.32
390.03	512.58
390.22	582.79
390.42	444.70
390.61	428.32
390.81	503.22
391.00	461.09
391.19	603.86
391.39	573.43
391.58	538.32
391.78	489.17
391.97	561.73
392.16	451.72
392.36	638.97
392.55	580.45
392.75	538.32
392.94	477.47
393.13	608.54
393.33	519.60
393.52	683.44
393.71	617.90
393.91	610.88
394.10	510.24
394.29	627.26
394.49	512.58
394.68	610.88
394.88	650.67
395.07	662.37
395.26	617.90
395.46	610.88
395.65	697.48
395.84	664.71
396.04	732.59
396.23	713.86
396.42	622.58
396.62	631.94
396.81	664.71
397.00	657.69
397.19	706.84
397.39	662.37
397.58	697.48
397.77	868.34
397.97	662.37
398.16	746.63
398.35	737.27
398.55	725.57
398.74	758.33
398.93	840.25
399.12	650.67
399.32	779.40
399.51	777.06
399.70	856.64
399.90	828.55
400.09	800.46
400.28	880.04
400.47	901.11
400.67	793.44
400.86	816.85
401.05	770.04
401.24	903.45
401.44	889.40
401.63	938.55
401.82	889.40
402.01	877.70
402.21	887.06
402.40	858.98
402.59	980.68
402.78	898.77
402.97	980.68
403.17	1048.56
403.36	968.98
403.55	999.41
403.74	959.62
403.93	990.05
404.13	1001.75
404.32	1078.99
404.51	1034.52
404.70	1074.31
404.89	1165.59
405.09	1217.08
405.28	1217.08
405.47	1139.84
405.66	1156.22
405.85	1261.55
406.05	1153.88
406.24	1266.23
406.43	1111.75
406.62	1191.33
406.81	1324.74
407.00	1212.40
407.20	1242.82
407.39	1308.36
407.58	1299.00
407.77	1366.87
407.96	1308.36
408.15	1327.08
408.34	1364.53
408.54	1427.73
408.73	1371.55
408.92	1448.79
409.11	1502.62
409.30	1385.60
409.49	1357.51
409.68	1502.62
409.87	1448.79
410.07	1465.18
410.26	1490.92
410.45	1490.92
410.64	1504.96
410.83	1465.18
411.02	1586.88
411.21	1647.74
411.40	1701.57
411.59	1619.65
411.78	1736.68
411.98	1619.65
412.17	1699.23
412.36	1739.02
412.55	1671.14
412.74	1771.79
412.93	1839.66
413.12	1771.79
413.31	1811.57
413.50	1802.21
413.69	1842.00
413.88	1856.04
414.07	1935.62
414.26	1977.75
414.45	1973.07
414.64	1977.75
414.83	1970.73
415.02	2136.91
415.22	1959.03
415.41	2101.80
415.60	2001.16
415.79	2125.21
415.98	2143.93
416.17	2162.66
416.36	2186.06
416.55	2207.13
416.74	2153.29
416.93	2249.25
417.12	2263.30
417.31	2359.26
417.50	2270.32
417.69	2359.26
417.88	2385.01
418.07	2452.88
418.26	2249.25
418.45	2300.75
418.64	2469.27
418.83	2445.86
419.02	2342.88
419.21	2480.97
419.39	2457.56
419.58	2455.22
419.77	2553.52
419.96	2558.21
420.15	2581.61
420.34	2502.03
420.53	2551.18
420.72	2537.14
420.91	2619.06
421.10	2621.40
421.29	2621.40
421.48	2586.29
421.67	2612.04
421.86	2600.34
422.05	2729.06
422.24	2750.13
422.43	2729.06
422.61	2754.81
422.80	2794.60
422.99	2682.25
423.18	2789.92
423.37	2813.32
423.56	2740.77
423.75	2715.02
423.94	2705.66
424.13	2644.81
424.32	2574.59
424.50	2719.70
424.69	2855.45
424.88	2841.41
425.07	2745.45
425.26	2647.15
425.45	2696.30
425.64	2738.43
425.83	2717.36
426.01	2850.77
426.20	2935.03
426.39	2876.52
426.58	2843.75
426.77	2876.52
426.96	2876.52
427.15	2799.28
427.33	2986.52
427.52	2993.55
427.71	2867.16
427.90	2883.54
428.09	2958.44
428.28	2977.16
428.46	2949.08
428.65	3005.25
428.84	3101.21
429.03	3066.10
429.22	2897.58
429.40	3080.14
429.59	2965.46
429.78	3009.93
429.97	2874.18
430.16	2930.35
430.34	3096.53
430.53	3133.98
430.72	3061.42
430.91	3108.23
431.10	3115.25
431.28	3117.59
431.47	3258.03
431.66	3248.66
431.85	3183.13
432.03	3384.41
432.22	3349.31
432.41	3372.71
432.60	3365.69
432.79	3478.04
432.97	3283.77
433.16	3365.69
433.35	3314.20
433.54	3344.63
433.72	3426.54
433.91	3325.90
434.10	3489.74
434.28	3482.72
434.47	3445.27
434.66	3510.80
434.85	3461.65
435.03	3456.97
435.22	3545.91
435.41	3634.85
435.59	3726.13
435.78	3639.53
435.97	3515.48
436.16	3585.70
436.34	3641.87
436.53	3625.49
436.72	3627.83
436.90	3613.79
437.09	3618.47
437.28	3658.26
437.46	3705.07
437.65	3686.34
437.84	3808.05
438.02	3779.97
438.21	3885.29
438.40	3810.39
438.58	3810.39
438.77	4039.76
438.96	3742.52
439.14	3911.04
439.33	4053.81
439.52	3976.57
439.70	4091.26
439.89	4142.75
440.08	4131.05
440.26	4124.02
440.45	4135.73
440.63	4147.43
440.82	4170.83
441.01	4187.22
441.19	4262.12
441.38	4496.17
441.57	4404.89
441.75	4294.88
441.94	4472.76
442.12	4444.68
442.31	4634.26
442.50	4486.81
442.68	4437.66
442.87	4414.25
443.05	4505.53
443.24	4655.33
443.43	4662.35
443.61	4578.09
443.80	4814.48
443.98	4603.83
444.17	4561.70
444.35	4655.33
444.54	4784.06
444.73	4702.14
444.91	4631.92
445.10	4704.48
445.28	4760.65
445.47	4805.12
445.65	4571.07
445.84	4652.98
446.02	4720.86
446.21	4608.51
446.39	4718.52
446.58	4758.31
446.77	4770.01
446.95	4753.63
447.14	4723.20
447.32	4662.35
447.51	4847.25
447.69	4704.48
447.88	4812.14
448.06	4840.23
448.25	4858.95
448.43	4833.21
448.62	4634.26
448.80	4781.71
448.99	4826.18
449.17	4812.14
449.36	4865.97
449.54	4821.50
449.73	4966.62
449.91	5001.72
450.10	4971.30
450.28	5193.65
450.46	5128.11
450.65	5219.39
450.83	5282.59
451.02	4943.21
451.20	5132.79
451.39	5104.71
451.57	5165.56
451.76	5207.69
451.94	5294.29
452.13	5163.22
452.31	5301.31
452.49	5057.90
452.68	5188.97
452.86	5249.82
453.05	5137.48
453.23	5308.34
453.42	5287.27
453.60	5259.18
453.78	5324.72
453.97	5277.91
454.15	5432.38
454.34	5324.72
454.52	5502.60
454.70	5303.65
454.89	5495.58
455.07	5338.76
455.26	5547.07
455.44	5542.39
455.62	5486.22
455.81	5572.82
455.99	5561.11
456.17	5521.32
456.36	5764.74
456.54	5521.32
456.73	5776.44
456.91	5753.04
457.09	5863.04
457.28	5881.77
457.46	5664.10
457.64	5778.78
457.83	5895.81
458.01	5846.66
458.19	5879.43
458.38	5874.74
458.56	5893.47
458.74	5865.38
458.93	6069.01
459.11	5968.37
459.29	5970.71
459.48	6080.71
459.66	5937.94
459.84	6162.63
460.03	6317.11
460.21	5996.45
460.39	6143.91
460.57	6038.58
460.76	6054.97
460.94	6216.46
461.12	6143.91
461.31	6312.42
461.49	6197.74
461.67	6232.85
461.85	6249.23
462.04	6260.93
462.22	6939.69
462.40	6509.03
462.59	6387.32
462.77	6382.64
462.95	6380.30
463.13	6403.71
463.32	6562.86
463.50	6509.03
463.68	6478.60
463.86	6483.28
464.05	6527.75
464.23	6464.56
464.41	6490.31
464.59	6502.01
464.78	6780.53
464.96	6581.59
465.14	6387.32
465.32	6747.76
465.50	6733.72
465.69	6712.66
465.87	6700.95
466.05	6511.37
466.23	6820.32
466.41	6810.96
466.60	6705.63
466.78	6719.68
466.96	6722.02
467.14	6619.04
467.32	6752.45
467.51	6740.74
467.69	6775.85
467.87	7016.93
468.05	6815.64
468.23	6855.43
468.41	6885.86
468.60	6846.07
468.78	7180.76
468.96	6855.43
469.14	7023.95
469.32	7108.21
469.50	6953.73
469.69	7117.57
469.87	7215.87
470.05	7122.25
470.23	7281.41
470.41	7236.94
470.59	7307.15
470.77	7040.33
470.95	7309.49
471.14	7431.20
471.32	7456.95
471.50	7618.44
471.68	7447.58
471.86	7515.46
472.04	7592.70
472.22	7859.52
472.40	7398.43
472.58	7529.50
472.77	7789.30
472.95	7859.52
473.13	8084.21
473.31	7786.96
473.49	7723.77
473.67	7801.01
473.85	7751.85
474.03	8210.60
474.21	7805.69
474.39	7927.39
474.57	8219.96
474.75	8072.51
474.93	8175.49
475.12	8060.80
475.30	8248.05
475.48	8339.33
475.66	8315.92
475.84	8332.31
476.02	8559.34
476.20	8425.93
476.38	8596.79
476.56	8699.77
476.74	8837.86
476.92	8730.20
477.10	8744.24
477.28	8856.59
477.46	8896.38
477.64	8926.80
477.82	9006.38
478.00	9238.09
478.18	9247.46
478.36	9287.25
478.54	9167.88
478.72	9329.38
478.90	9338.74
479.08	9617.26
479.26	9643.01
479.44	9671.09
479.62	9710.88
479.80	9806.84
479.98	9816.21
480.16	9769.40
480.34	9848.97
480.52	10057.28
480.70	10237.50
480.88	9863.02
481.06	10050.26
481.24	10029.20
481.41	10277.29
481.59	10555.82
481.77	10490.28
481.95	10583.90
482.13	10738.38
482.31	10911.58
482.49	10974.77
482.67	10796.89
482.85	10977.11
483.03	11049.67
483.21	11136.27
483.39	11449.90
483.57	11279.04
483.74	11442.88
483.92	11597.35
484.10	11524.80
484.28	11800.98
484.46	11726.08
484.64	12109.93
484.82	11882.90
485.00	12112.27
485.18	12243.34
485.35	12409.52
485.53	12159.08
485.71	12437.61
485.89	12716.13
486.07	12379.09
486.25	12650.60
486.43	12741.88
486.61	12685.70
486.78	13067.21
486.96	12947.84
487.14	13151.47
487.32	13380.84
487.50	13179.56
487.68	13610.22
487.85	13486.17
488.03	13949.59
488.21	13841.93
488.39	13813.84
488.57	13914.48
488.75	13956.61
488.92	14370.89
489.10	14448.13
489.28	14621.33
489.46	14391.95
489.64	14553.45
489.81	14707.93
489.99	15042.62
490.17	14918.57
490.35	15047.30
490.53	15115.18
490.70	15176.03
490.88	15248.59
491.06	15627.76
491.24	15604.35
491.41	15669.89
491.59	15775.21
491.77	15749.46
491.95	16013.95
492.13	15962.45
492.30	15901.60
492.48	15719.04
492.66	16189.49
492.84	16418.86
493.01	16533.54
493.19	16453.97
493.37	16865.90
493.54	16837.81
493.72	16741.85
493.90	16833.13
494.08	17092.93
494.25	17273.15
494.43	17317.62
494.61	17177.19
494.79	17399.54
494.96	17432.31
495.14	17472.10
495.32	17759.98
495.49	17680.41
495.67	18012.76
495.85	18111.07
496.02	18270.22
496.20	18134.47
496.38	18148.51
496.55	18310.01
496.73	18562.79
496.91	18682.16
497.09	18733.65
497.26	18766.42
497.44	18956.00
497.62	18792.16
497.79	19314.10
497.97	18820.25
498.14	19398.36
498.32	19562.20
498.50	19393.68
498.67	19695.61
498.85	19630.07
499.03	19501.34
499.20	19864.13
499.38	20023.28
499.56	19836.04
499.73	19854.76
499.91	20053.71
500.08	20030.30
500.26	19969.45
500.44	20037.33
500.61	20051.37
500.79	20161.37
500.97	20374.36
501.14	20884.60
501.32	20798.00
501.49	20510.11
501.67	20451.60
501.84	21057.80
502.02	20765.23
502.20	21139.72
502.37	21245.04
502.55	20943.11
502.72	21039.08
502.90	21303.56
503.07	21476.76
503.25	21495.48
503.43	21120.99
503.60	21715.49
503.78	21689.74
503.95	21617.19
504.13	21446.33
504.30	21797.41
504.48	21678.04
504.65	21724.85
504.83	22073.59
505.01	22331.05
505.18	22176.58
505.36	22356.80
505.53	22003.38
505.71	22450.42
505.88	22239.77
506.06	22335.73
506.23	22487.87
506.41	22616.60
506.58	22843.63
506.76	22810.86
506.93	22775.75
507.11	22387.22
507.28	23012.15
507.46	23030.87
507.63	23122.15
507.81	23353.87
507.98	23152.58
508.16	23194.71
508.33	23447.49
508.50	23360.89
508.68	23660.48
508.85	23695.58
509.03	23585.58
509.20	23857.08
509.38	23927.30
509.55	24203.48
509.73	23824.31
509.90	23814.95
510.08	24151.99
510.25	24053.69
510.42	24128.58
510.60	24273.70
510.77	24437.53
510.95	24561.58
511.12	24390.72
511.30	24510.09
511.47	24479.66
511.64	24870.53
511.82	25053.09
511.99	24847.13
512.17	24989.90
512.34	24463.28
512.51	25156.08
512.69	25287.15
512.86	25563.33
513.04	25605.46
513.21	25333.96
513.38	25619.50
513.56	25792.70
513.73	25450.99
513.90	25577.37
514.08	25214.59
514.25	25689.72
514.43	26026.76
514.60	26017.40
514.77	25916.75
514.95	26209.32
515.12	25837.17
515.29	26288.90
515.47	26331.03
515.64	26324.01
515.81	26396.56
515.99	26508.91
516.16	26883.39
516.33	26731.26
516.51	26628.27
516.68	26705.51
516.85	26462.10
517.03	26885.73
517.20	26686.79
517.37	26651.68
517.54	26803.82
517.72	26838.92
517.89	27047.23
518.06	26845.94
518.24	27044.89
518.41	26916.16
518.58	27147.87
518.75	27316.39
518.93	27445.12
519.10	27716.62
519.27	27721.30
519.45	27503.64
519.62	27824.29
519.79	27791.52
519.96	27662.79
520.14	27826.63
520.31	27655.77
520.48	28259.63
520.65	27648.75
520.83	28140.26
521.00	28149.62
521.17	28180.05
521.34	28044.30
521.52	28538.15
521.69	28381.34
521.86	28177.71
522.03	28519.43
522.20	28652.84
522.38	28545.17
522.55	28180.05
522.72	28538.15
522.89	28896.25
523.07	28732.42
523.24	28732.42
523.41	28725.39
523.58	28744.12
523.75	28994.56
523.92	28809.65
524.10	29027.32
524.27	29261.38
524.44	29158.39
524.61	29460.32
524.78	29474.37
524.96	29535.22
525.13	29289.46
525.30	29394.79
525.47	29919.07
525.64	29043.71
525.81	29610.12
525.98	30181.21
526.16	29415.85
526.33	29804.38
526.50	29806.72
526.67	29207.55
526.84	29453.30
527.01	29600.76
527.18	30288.87
527.36	29914.39
527.53	30057.16
527.70	30302.92
527.87	30176.53
528.04	29792.68
528.21	29961.20
528.38	30532.29
528.55	30129.72
528.72	30752.30
528.89	30541.65
529.07	30171.85
529.24	30302.92
529.41	30792.09
529.58	30759.32
529.75	30473.78
529.92	30490.16
530.09	30670.38
530.26	30965.29
530.43	30869.33
530.60	30906.77
530.77	30754.64
530.94	31091.68
531.11	30906.77
531.28	30473.78
531.46	30878.69
531.63	31246.15
531.80	30991.03
531.97	31246.15
532.14	31030.82
532.31	31304.67
532.48	31087.00
532.65	31248.49
532.82	31211.04
532.99	31119.76
533.16	31164.23
533.33	31796.18
533.50	31730.64
533.67	31498.93
533.84	31669.79
534.01	31775.11
534.18	31201.68
534.35	31962.36
534.52	31665.11
534.69	31810.22
534.86	32271.31
535.03	31868.73
535.20	32247.90
535.37	32067.68
535.54	31969.38
535.71	31826.60
535.88	32006.83
536.05	32006.83
536.22	32306.41
536.38	32505.36
536.55	32451.53
536.72	32407.06
536.89	32343.86
537.06	32439.82
537.23	32893.89
537.40	32252.58
537.57	32367.27
537.74	32514.72
537.91	32821.33
538.08	32793.25
538.25	32524.08
538.42	33001.55
538.59	32940.70
538.75	32966.45
538.92	32507.70
539.09	32687.92
539.26	32954.74
539.43	32800.27
539.60	32936.02
539.77	32774.52
539.94	32898.57
540.11	32833.04
540.28	33160.71
540.44	33174.75
540.61	32886.87
540.78	32966.45
540.95	32833.04
541.12	33380.72
541.29	33256.67
541.46	33017.94
541.62	33172.41
541.79	33092.83
541.96	32823.67
542.13	33268.37
542.30	33200.50
542.47	33539.88
542.63	33539.88
542.80	33724.78
542.97	33722.44
543.14	33570.30
543.31	33551.58
543.48	33986.92
543.64	34242.04
543.81	33799.68
543.98	34050.11
544.15	33818.40
544.32	34185.86
544.48	34323.96
544.65	34043.09
544.82	33734.14
544.99	33902.66
545.16	33944.79
545.32	34398.85
545.49	34799.08
545.66	34492.47
545.83	34450.35
546.00	34700.78
546.16	34338.00
546.33	34323.96
546.50	34024.37
546.67	34450.35
546.83	34513.54
547.00	34298.21
547.17	34679.72
547.34	34338.00
547.50	34796.74
547.67	34614.18
547.84	34714.83
548.00	34703.12
548.17	34668.02
548.34	34375.45
548.51	34862.28
548.67	35037.82
548.84	35009.73
549.01	34677.38
549.18	34969.94
549.34	34703.12
549.51	35129.10
549.68	34967.60
549.84	34623.54
550.01	35068.25
550.18	35154.85
550.34	35379.54
550.51	35386.56
550.68	35344.43
550.84	34848.24
551.01	34728.87
551.18	34885.68
551.34	35356.13
551.51	34801.43
551.68	35550.40
551.84	35353.79
552.01	35519.97
552.18	35353.79
552.34	35587.85
552.51	35257.83
552.68	35857.01
552.84	35344.43
553.01	35489.54
553.18	35555.08
553.34	35688.49
553.51	35967.01
553.67	35924.88
553.84	35613.59
554.01	35615.93
554.17	35597.21
554.34	36013.82
554.51	35412.31
554.67	35814.88
554.84	36140.21
555.00	35859.35
555.17	35534.01
555.33	35510.61
555.50	35814.88
555.67	35700.19
555.83	35903.82
556.00	35772.75
556.16	36341.50
556.33	35793.81
556.50	36292.35
556.66	36224.47
556.83	36105.10
556.99	36128.51
557.16	36495.97
557.32	36439.80
557.49	36659.81
557.65	35983.40
557.82	36182.34
557.98	36060.63
558.15	36336.82
558.32	35697.85
558.48	35873.39
558.65	36093.40
558.81	36666.83
558.98	36823.65
559.14	36154.26
559.31	35990.42
559.47	36142.55
559.64	36229.15
559.80	36582.57
559.97	36299.37
560.13	36367.24
560.30	36233.83
560.46	36402.35
560.63	36304.05
560.79	36470.23
560.96	36404.69
561.12	36435.12
561.29	36327.45
561.45	36137.87
561.61	36715.98
561.78	36566.19
561.94	36407.03
562.11	36486.61
562.27	36842.37
562.44	35899.14
562.60	36488.95
562.77	36891.52
562.93	36140.21
563.10	36664.49
563.26	36615.34
563.42	36842.37
563.59	36708.96
563.75	36400.01
563.92	36879.82
564.08	36392.99
564.24	36751.09
564.41	36549.81
564.57	36435.12
564.74	36484.27
564.90	37179.41
565.07	36739.39
565.23	36580.23
565.39	36070.00
565.56	36430.44
565.72	36451.50
565.88	36208.09
566.05	36748.75
566.21	36369.58
566.38	36676.19
566.54	36814.29
566.70	36961.74
566.87	37013.23
567.03	36734.71
567.19	36947.70
567.36	36935.99
567.52	36723.01
567.68	36524.06
567.85	36734.71
568.01	36786.20
568.17	36400.01
568.34	37113.87
568.50	36720.66
568.66	37010.89
568.83	36907.91
568.99	36861.10
569.15	36617.68
569.32	36863.44
569.48	36570.87
569.64	36699.60
569.81	36959.40
569.97	36699.60
570.13	37017.91
570.30	36811.95
570.46	36706.62
570.62	36608.32
570.78	36769.82
570.95	36765.14
571.11	36657.47
571.27	36594.28
571.43	36409.37
571.60	36870.46
571.76	37053.02
571.92	37116.22
572.09	37158.34
572.25	37383.04
572.41	36877.48
572.57	37125.58
572.74	37350.27
572.90	36809.61
573.06	37090.47
573.22	36823.65
573.38	37223.88
573.55	36786.20
573.71	37174.73
573.87	37153.66
574.03	37074.09
574.20	37081.11
574.36	36577.89
574.52	36725.35
574.68	37027.28
574.84	37319.84
575.01	36919.61
575.17	36854.08
575.33	37212.18
575.49	37113.87
575.65	37523.47
575.82	37148.98
575.98	36952.38
576.14	36708.96
576.30	36781.52
576.46	37013.23
576.62	36538.10
576.79	36947.70
576.95	36594.28
577.11	37125.58
577.27	37315.16
577.43	37015.57
577.59	37120.90
577.75	36919.61
577.92	36751.09
578.08	36746.41
578.24	36818.97
578.40	36807.26
578.56	37027.28
578.72	36959.40
578.88	37280.05
579.04	37427.51
579.21	36935.99
579.37	37280.05
579.53	37179.41
579.69	36849.39
579.85	37207.50
580.01	36755.77
580.17	36847.05
580.33	37235.58
580.49	37181.75
580.65	37095.15
580.82	37495.38
580.98	37071.75
581.14	36793.22
581.30	37078.77
581.46	36865.78
581.62	37010.89
581.78	36694.92
581.94	36741.73
582.10	36510.02
582.26	36814.29
582.42	37118.56
582.58	37109.19
582.74	37123.24
582.90	37448.57
583.06	36928.97
583.22	36577.89
583.38	37233.24
583.54	37244.94
583.70	36896.20
583.86	37024.93
584.02	36975.78
584.18	37453.25
584.34	37436.87
584.50	37329.20
584.66	37141.96
584.82	36814.29
584.98	37163.03
585.14	37038.98
585.30	37156.00
585.46	36797.90
585.62	37153.66
585.78	37380.70
585.94	37184.09
586.10	36842.37
586.26	37156.00
586.42	37214.52
586.58	37441.55
586.74	37088.13
586.90	36793.22
587.06	36636.41
587.22	36950.04
587.38	36985.15
587.54	36935.99
587.70	37486.02
587.86	37240.26
588.02	37085.79
588.18	37755.18
588.34	37567.94
588.49	37127.92
588.65	37315.16
588.81	37109.19
588.97	37249.63
589.13	37153.66
589.29	37280.05
589.45	37509.43
589.61	37474.32
589.77	37846.46
589.93	37289.42
590.08	37603.05
590.24	37359.63
590.40	36982.80
590.56	37329.20
590.72	36959.40
590.88	37001.53
591.04	37329.20
591.20	37783.27
591.35	37514.11
