SpectraSuite Data File
++++++++++++++++++++++++++++++++++++
Date: Fri Oct 04 11:48:33 GMT-05:00 2013
User: price-jones
Dark Spectrum Present: No
Reference Spectrum Present: No
Number of Sampled Component Spectra: 1
Spectrometers: USB2+H05261
Integration Time (usec): 100000 (USB2+H05261)
Spectra Averaged: 1 (USB2+H05261)
Boxcar Smoothing: 0 (USB2+H05261)
Correct for Electrical Dark: No (USB2+H05261)
Strobe/Lamp Enabled: No (USB2+H05261)
Correct for Detector Non-linearity: No (USB2+H05261)
Correct for Stray Light: No (USB2+H05261)
Number of Pixels in Processed Spectrum: 2048
>>>>>Begin Processed Spectral Data<<<<<
365.73	121.71
365.92	121.71
366.12	121.71
366.32	0.00
366.52	0.00
366.72	0.00
366.91	0.00
367.11	0.00
367.31	0.00
367.51	0.00
367.70	0.00
367.90	0.00
368.10	0.00
368.30	0.00
368.49	0.00
368.69	0.00
368.89	0.00
369.09	0.00
369.28	0.00
369.48	0.00
369.68	0.00
369.87	0.00
370.07	0.00
370.27	0.00
370.47	58.51
370.66	311.29
370.86	327.68
371.06	381.51
371.25	461.09
371.45	299.59
371.65	388.53
371.84	358.10
372.04	372.15
372.24	400.23
372.44	435.34
372.63	465.77
372.83	489.17
373.03	381.51
373.22	479.81
373.42	400.23
373.62	456.40
373.81	472.79
374.01	437.68
374.21	498.53
374.40	491.51
374.60	578.11
374.79	433.00
374.99	531.30
375.19	519.60
375.38	526.62
375.58	620.24
375.78	603.86
375.97	571.09
376.17	552.37
376.37	531.30
376.56	557.05
376.76	507.90
376.95	458.74
377.15	517.26
377.35	594.50
377.54	561.73
377.74	603.86
377.93	571.09
378.13	561.73
378.33	568.75
378.52	592.16
378.72	608.54
378.91	589.82
379.11	561.73
379.31	554.71
379.50	610.88
379.70	622.58
379.89	653.01
380.09	613.22
380.28	585.13
380.48	655.35
380.68	552.37
380.87	594.50
381.07	592.16
381.26	671.73
381.46	599.18
381.65	613.22
381.85	585.13
382.04	683.44
382.24	650.67
382.43	718.54
382.63	685.78
382.83	793.44
383.02	763.01
383.22	706.84
383.41	699.82
383.61	692.80
383.80	699.82
384.00	709.18
384.19	667.05
384.39	744.29
384.58	624.92
384.78	671.73
384.97	699.82
385.17	706.84
385.36	767.70
385.56	800.46
385.75	777.06
385.95	812.17
386.14	772.38
386.34	770.04
386.53	856.64
386.72	772.38
386.92	882.38
387.11	763.01
387.31	851.96
387.50	809.83
387.70	744.29
387.89	844.93
388.09	793.44
388.28	823.87
388.48	763.01
388.67	933.87
388.86	798.12
389.06	786.42
389.25	922.17
389.45	887.06
389.64	905.79
389.84	919.83
390.03	940.90
390.22	922.17
390.42	875.36
390.61	924.51
390.81	891.74
391.00	889.40
391.19	1011.11
391.39	1022.81
391.58	908.13
391.78	1004.09
391.97	1078.99
392.16	976.00
392.36	1041.54
392.55	1088.35
392.75	1060.26
392.94	1074.31
393.13	1043.88
393.33	1011.11
393.52	1020.47
393.71	1109.41
393.91	1118.78
394.10	987.71
394.29	1050.90
394.49	1090.69
394.68	1074.31
394.88	1121.12
395.07	1111.75
395.26	1200.69
395.46	1207.72
395.65	1242.82
395.84	1235.80
396.04	1252.19
396.23	1191.33
396.42	1301.34
396.62	1210.06
396.81	1252.19
397.00	1263.89
397.19	1221.76
397.39	1263.89
397.58	1259.21
397.77	1261.55
397.97	1350.49
398.16	1282.61
398.35	1362.19
398.55	1355.17
398.74	1406.66
398.93	1322.40
399.12	1369.21
399.32	1306.02
399.51	1270.91
399.70	1423.05
399.90	1380.92
400.09	1451.13
400.28	1523.69
400.47	1500.28
400.67	1526.03
400.86	1465.18
401.05	1610.29
401.24	1549.43
401.44	1584.54
401.63	1453.47
401.82	1589.22
402.01	1568.16
402.21	1657.10
402.40	1526.03
402.59	1577.52
402.78	1621.99
402.97	1565.82
403.17	1689.87
403.36	1689.87
403.55	1734.34
403.74	1724.97
403.93	1724.97
404.13	1816.26
404.32	1762.42
404.51	1727.32
404.70	1785.83
404.89	1795.19
405.09	1944.99
405.28	1926.26
405.47	1898.17
405.66	1947.33
405.85	1963.71
406.05	1895.83
406.24	2019.88
406.43	1952.01
406.62	2022.22
406.81	2057.33
407.00	2059.67
407.20	2026.90
407.39	2001.16
407.58	2064.35
407.77	2209.47
407.96	2026.90
408.15	2139.25
408.34	2150.95
408.54	2059.67
408.73	2270.32
408.92	2284.36
409.11	2174.36
409.30	2193.08
409.49	2150.95
409.68	2296.07
409.87	2368.62
410.07	2223.51
410.26	2347.56
410.45	2506.71
410.64	2459.90
410.83	2434.16
411.02	2462.24
411.21	2399.05
411.40	2466.92
411.59	2525.44
411.78	2555.86
411.98	2551.18
412.17	2640.12
412.36	2581.61
412.55	2675.23
412.74	2700.98
412.93	2892.90
413.12	2813.32
413.31	2860.13
413.50	2766.51
413.69	2829.71
413.88	2993.55
414.07	2810.98
414.26	3038.02
414.45	3101.21
414.64	2984.18
414.83	2977.16
415.02	3218.24
415.22	3143.34
415.41	3101.21
415.60	3176.11
415.79	3136.32
415.98	3236.96
416.17	3197.17
416.36	3288.45
416.55	3248.66
416.74	3342.28
416.93	3269.73
417.12	3372.71
417.31	3492.08
417.50	3288.45
417.69	3487.40
417.88	3499.10
418.07	3637.19
418.26	3463.99
418.45	3382.07
418.64	3501.44
418.83	3492.08
419.02	3569.32
419.21	3712.09
419.39	3644.21
419.58	3559.95
419.77	3686.34
419.96	3721.45
420.15	3808.05
420.34	3744.86
420.53	3646.55
420.72	3786.99
420.91	3824.44
421.10	3908.69
421.29	3904.01
421.48	3889.97
421.67	3908.69
421.86	3908.69
422.05	3964.87
422.24	4023.38
422.43	4002.32
422.61	3990.61
422.80	3911.04
422.99	4135.73
423.18	4067.85
423.37	4201.26
423.56	4021.04
423.75	4161.47
423.94	3967.21
424.13	3747.20
424.32	3866.56
424.50	4009.34
424.69	4168.49
424.88	4081.89
425.07	4044.45
425.26	4074.87
425.45	4154.45
425.64	4166.15
425.83	4152.11
426.01	4131.05
426.20	4044.45
426.39	4191.90
426.58	4149.77
426.77	4170.83
426.96	4093.60
427.15	4182.54
427.33	4133.39
427.52	4257.43
427.71	4334.67
427.90	4315.95
428.09	4308.93
428.28	4383.82
428.46	4374.46
428.65	4241.05
428.84	4542.98
429.03	4496.17
429.22	4318.29
429.40	4603.83
429.59	4484.47
429.78	4435.32
429.97	4329.99
430.16	4542.98
430.34	4613.20
430.53	4716.18
430.72	4601.49
430.91	4510.21
431.10	4521.92
431.28	4620.22
431.47	4816.82
431.66	5011.09
431.85	4702.14
432.03	4964.28
432.22	4952.57
432.41	4798.10
432.60	4950.23
432.79	4865.97
432.97	4952.57
433.16	4952.57
433.35	4908.10
433.54	5100.03
433.72	5011.09
433.91	5076.62
434.10	5083.64
434.28	5198.33
434.47	5095.35
434.66	5238.12
434.85	5132.79
435.03	5383.23
435.22	5193.65
435.41	5289.61
435.59	5289.61
435.78	5280.25
435.97	5343.44
436.16	5228.76
436.34	5207.69
436.53	5338.76
436.72	5369.19
436.90	5291.95
437.09	5350.46
437.28	5486.22
437.46	5474.51
437.65	5556.43
437.84	5568.13
438.02	5579.84
438.21	5591.54
438.40	5544.73
438.58	5675.80
438.77	5741.33
438.96	5799.85
439.14	5783.46
439.33	5902.83
439.52	6017.52
439.70	6026.88
439.89	6038.58
440.08	6012.84
440.26	6148.59
440.45	6052.63
440.63	6298.38
440.82	6214.12
441.01	6050.28
441.19	6239.87
441.38	6490.31
441.57	6572.22
441.75	6413.07
441.94	6410.73
442.12	6462.22
442.31	6518.39
442.50	6579.25
442.68	6675.21
442.87	6712.66
443.05	6658.82
443.24	6825.00
443.43	6857.77
443.61	7002.88
443.80	7037.99
443.98	6700.95
444.17	6574.56
444.35	6876.49
444.54	7089.48
444.73	6799.26
444.91	6782.87
445.10	6888.20
445.28	6841.39
445.47	6792.23
445.65	6796.92
445.84	7014.59
446.02	7040.33
446.21	6841.39
446.39	7030.97
446.58	7014.59
446.77	7000.54
446.95	6841.39
447.14	7126.93
447.32	7045.01
447.51	6963.09
447.69	6869.47
447.88	7052.03
448.06	6995.86
448.25	7049.69
448.43	7318.86
448.62	6981.82
448.80	7091.82
448.99	7115.23
449.17	7222.89
449.36	7037.99
449.54	7258.00
449.73	7248.64
449.91	7426.52
450.10	7494.40
450.28	7325.88
450.46	7363.33
450.65	7410.14
450.83	7496.74
451.02	7520.14
451.20	7564.61
451.39	7707.38
451.57	7566.95
451.76	7588.02
451.94	7686.32
452.13	7737.81
452.31	7754.19
452.49	7548.23
452.68	7843.14
452.86	7733.13
453.05	7765.90
453.23	7896.97
453.42	7712.07
453.60	7812.71
453.78	7887.61
453.97	7793.98
454.15	8011.65
454.34	7730.79
454.52	7932.08
454.70	8114.64
454.89	8081.87
455.07	8009.31
455.26	8138.04
455.44	8280.82
455.62	8187.19
455.81	8187.19
455.99	8210.60
456.17	8360.39
456.36	8112.30
456.54	8346.35
456.73	8510.19
456.91	8720.84
457.09	8449.33
457.28	8730.20
457.46	8568.70
457.64	8624.87
457.83	8769.99
458.01	8610.83
458.19	8755.94
458.38	8624.87
458.56	8891.70
458.74	8947.87
458.93	8755.94
459.11	8849.57
459.29	8975.95
459.48	9081.28
459.66	9032.13
459.84	9053.19
460.03	9240.44
460.21	9174.90
460.39	8945.53
460.57	9027.45
460.76	9156.18
460.94	9343.42
461.12	9301.29
461.31	9261.50
461.49	9275.54
461.67	9343.42
461.85	9645.35
462.04	9263.84
462.22	9802.16
462.40	9373.85
462.59	9401.93
462.77	9563.43
462.95	9568.11
463.13	9408.95
463.32	9734.29
463.50	9757.69
463.68	9881.74
463.86	9628.96
464.05	9802.16
464.23	9671.09
464.41	9898.13
464.59	9603.22
464.78	9898.13
464.96	9753.01
465.14	9570.45
465.32	9963.66
465.50	10045.58
465.69	9991.75
465.87	9809.19
466.05	9956.64
466.23	9987.07
466.41	10108.77
466.60	10289.00
466.78	10150.90
466.96	10296.02
467.14	9790.46
467.32	10225.80
467.51	10391.98
467.69	9926.21
467.87	10333.47
468.05	10260.91
468.23	10246.87
468.41	10193.03
468.60	10452.83
468.78	10490.28
468.96	10471.56
469.14	10597.95
469.32	10590.92
469.50	10382.62
469.69	10827.32
469.87	10829.66
470.05	10736.04
470.23	10871.79
470.41	10883.49
470.59	10712.63
470.77	10759.44
470.95	11105.84
471.14	11077.76
471.32	10930.30
471.50	11300.11
471.68	11190.10
471.86	11325.85
472.04	11215.85
472.22	11353.94
472.40	11049.67
472.58	11253.30
472.77	11346.92
472.95	11576.29
473.13	11955.46
473.31	11758.85
473.49	11580.97
473.67	11644.17
473.85	11669.91
474.03	12116.95
474.21	12123.98
474.39	12166.10
474.57	12180.15
474.75	12250.36
474.93	12430.59
475.12	12233.98
475.30	12327.60
475.48	12411.86
475.66	12547.61
475.84	12657.62
476.02	12720.81
476.20	12664.64
476.38	12961.89
476.56	13289.56
476.74	13085.94
476.92	13179.56
477.10	12996.99
477.28	13238.07
477.46	13064.87
477.64	13481.49
477.82	13638.30
478.00	13748.31
478.18	13830.23
478.36	13776.39
478.54	13816.18
478.72	14146.20
478.90	14342.80
479.08	14347.48
479.26	14413.02
479.44	14511.32
479.62	14738.35
479.80	14792.19
479.98	15012.20
480.16	14979.43
480.34	14930.28
480.52	15396.04
480.70	15529.45
480.88	15166.67
481.06	15480.30
481.24	15208.80
481.41	15826.70
481.59	15840.75
481.77	15985.86
481.95	15796.28
482.13	16060.76
482.31	16163.74
482.49	16489.07
482.67	16446.94
482.85	16807.39
483.03	17102.29
483.21	17167.83
483.39	16987.61
483.57	17525.93
483.74	17270.81
483.92	17647.64
484.10	17369.12
484.28	17614.87
484.46	18080.64
484.64	18478.53
484.82	18298.31
485.00	18024.47
485.18	18665.77
485.35	18672.79
485.53	18712.58
485.71	18705.56
485.89	18967.70
486.07	18948.98
486.25	19304.74
486.43	19243.88
486.61	19721.35
486.78	19868.81
486.96	19871.15
487.14	20573.31
487.32	20046.69
487.50	20416.49
487.68	20252.66
487.85	20783.96
488.03	21008.65
488.21	21001.63
488.39	21193.55
488.57	21167.80
488.75	21556.33
488.92	21834.86
489.10	21848.90
489.28	21958.91
489.46	22466.80
489.64	22211.68
489.81	22548.72
489.99	22658.73
490.17	22878.74
490.35	23023.85
490.53	23091.73
490.70	23704.95
490.88	23150.24
491.06	23503.66
491.24	23559.83
491.41	23754.10
491.59	24320.51
491.77	24020.92
491.95	24467.96
492.13	24484.34
492.30	25069.48
492.48	24575.62
492.66	24690.31
492.84	24903.30
493.01	25240.34
493.19	25392.47
493.37	25652.27
493.54	25666.31
493.72	25781.00
493.90	25720.15
494.08	26206.98
494.25	26586.15
494.43	26214.00
494.61	26944.25
494.79	26749.98
494.96	26604.87
495.14	26321.66
495.32	27372.57
495.49	27522.36
495.67	27314.05
495.85	27859.40
496.02	27667.47
496.20	27594.92
496.38	28013.87
496.55	28276.01
496.73	28421.13
496.91	28327.50
497.09	28439.85
497.26	28914.98
497.44	28652.84
497.62	28907.96
497.79	29411.17
497.97	29053.07
498.14	29610.12
498.32	29624.16
498.50	29675.65
498.67	30120.35
498.85	29837.15
499.03	29795.02
499.20	29975.24
499.38	30403.56
499.56	30670.38
499.73	30609.53
499.91	30775.70
500.08	30785.07
500.26	30782.73
500.44	30764.00
500.61	31037.84
500.79	31154.87
500.97	31655.75
501.14	31676.81
501.32	31510.63
501.49	31220.41
501.67	31812.56
501.84	32039.59
502.02	31789.16
502.20	31885.12
502.37	32486.64
502.55	32023.21
502.72	32680.90
502.90	32278.33
503.07	32716.01
503.25	32524.08
503.43	32500.68
503.60	33132.62
503.78	33074.11
503.95	32781.54
504.13	33373.70
504.30	33251.99
504.48	33390.08
504.65	33455.62
504.83	34099.26
505.01	33593.71
505.18	33895.64
505.36	33989.26
505.53	33806.70
505.71	34087.56
505.88	34724.19
506.06	34110.97
506.23	34813.13
506.41	34785.04
506.58	34768.66
506.76	34808.45
506.93	34864.62
507.11	34691.42
507.28	35056.54
507.46	35344.43
507.63	35196.98
507.81	35456.78
507.98	35412.31
508.16	35541.03
508.33	35775.09
508.50	36020.84
508.68	36299.37
508.85	36109.78
509.03	36236.17
509.20	36336.82
509.38	36336.82
509.55	36570.87
509.73	37017.91
509.90	36828.33
510.08	37006.21
510.25	36959.40
510.42	37200.47
510.60	37720.07
510.77	37378.36
510.95	37432.19
511.12	37521.13
511.30	37266.01
511.47	38202.22
511.64	38094.56
511.82	38270.10
511.99	38153.07
512.17	38354.36
512.34	37628.79
512.51	38761.61
512.69	38663.31
512.86	38246.69
513.04	38749.91
513.21	39143.12
513.38	38541.60
513.56	38693.74
513.73	38817.78
513.90	39056.52
514.08	39187.59
514.25	39260.15
514.43	39948.26
514.60	39735.27
514.77	39810.17
514.95	39924.86
515.12	39550.37
515.29	39409.94
515.47	40041.88
515.64	40215.08
515.81	40273.60
515.99	40556.80
516.16	40151.89
516.33	40746.39
516.51	40430.41
516.68	40076.99
516.85	40498.29
517.03	40416.37
517.20	41045.97
517.37	40811.92
517.54	40966.40
517.72	41158.32
517.89	41123.21
518.06	40954.69
518.24	41265.99
518.41	41153.64
518.58	41305.77
518.75	41626.43
518.93	41539.83
519.10	41837.08
519.27	41904.95
519.45	41928.36
519.62	41759.84
519.79	42106.24
519.96	42272.42
520.14	41722.39
520.31	42323.91
520.48	42450.30
520.65	42148.37
520.83	42862.23
521.00	42679.67
521.17	43304.59
521.34	42604.77
521.52	42990.96
521.69	42864.57
521.86	43466.09
522.03	43112.67
522.20	43386.51
522.38	43494.18
522.55	43679.08
522.72	43281.19
522.89	43501.20
523.07	43950.58
523.24	43578.43
523.41	43639.29
523.58	43241.40
523.75	43988.03
523.92	43899.09
524.10	43957.60
524.27	44748.70
524.44	44318.04
524.61	44704.23
524.78	44568.48
524.96	44311.02
525.13	44634.02
525.30	44788.49
525.47	45074.04
525.64	45029.57
525.81	45240.21
525.98	45284.68
526.16	44971.05
526.33	45378.31
526.50	45333.84
526.67	44603.59
526.84	44999.14
527.01	45076.38
527.18	45387.67
527.36	45813.65
527.53	45801.94
527.70	45221.49
527.87	46129.62
528.04	45792.58
528.21	45610.02
528.38	45738.75
528.55	45986.85
528.72	45937.69
528.89	45886.20
529.07	46405.80
529.24	46241.96
529.41	46361.33
529.58	45832.37
529.75	46064.08
529.92	46115.58
530.09	46307.50
530.26	46485.38
530.43	46761.56
530.60	46197.49
530.77	46380.06
530.94	46782.63
531.11	46588.36
531.28	46747.52
531.46	46506.44
531.63	46677.30
531.80	47077.54
531.97	47442.66
532.14	47217.97
532.31	46801.35
532.48	47117.32
532.65	47510.53
532.82	47037.75
532.99	47489.47
533.16	47281.16
533.33	47679.05
533.50	48114.39
533.67	48032.47
533.84	47515.22
534.01	47318.61
534.18	47592.45
534.35	47667.35
534.52	47760.97
534.69	48175.25
534.86	47999.71
535.03	48236.10
535.20	47833.53
535.37	48233.76
535.54	48123.75
535.71	48060.56
535.88	48236.10
536.05	48203.33
536.22	48671.44
536.38	48313.34
536.55	48545.05
536.72	48561.44
536.89	48744.00
537.06	48423.34
537.23	48608.25
537.40	48566.12
537.57	48907.83
537.74	48624.63
537.91	49205.08
538.08	49207.42
538.25	48825.92
538.42	48877.41
538.59	48666.76
538.75	48830.60
538.92	49003.80
539.09	49109.12
539.26	49132.53
539.43	49219.13
539.60	49364.24
539.77	49485.95
539.94	49408.71
540.11	49441.48
540.28	49181.68
540.44	49633.40
540.61	49469.56
540.78	49350.20
540.95	49874.48
541.12	49659.15
541.29	49628.72
541.46	49806.60
541.62	49549.14
541.79	49743.41
541.96	49808.94
542.13	49703.62
542.30	50183.43
542.47	49944.69
542.63	50253.64
542.80	50124.91
542.97	50145.98
543.14	50602.38
543.31	50394.07
543.48	50714.73
543.64	50696.00
543.81	50588.34
543.98	50665.58
544.15	50869.20
544.32	50497.06
544.48	50829.41
544.65	50822.39
544.82	50492.38
544.99	50445.57
545.16	50473.65
545.32	50618.77
545.49	51243.69
545.66	51304.54
545.83	51056.45
546.00	51044.74
546.16	50852.82
546.33	50529.83
546.50	50621.11
546.67	51360.72
546.83	50698.34
547.00	51040.06
547.17	51082.19
547.34	50862.18
547.50	51189.86
547.67	51494.13
547.84	51358.38
548.00	51510.51
548.17	51384.12
548.34	51547.96
548.51	51440.29
548.67	51767.97
548.84	51611.15
549.01	51674.35
549.18	51554.98
549.34	51295.18
549.51	51995.00
549.68	52011.38
549.84	51765.63
550.01	52030.11
550.18	51519.87
550.34	51774.99
550.51	51772.65
550.68	52027.77
550.84	51751.59
551.01	51810.10
551.18	51693.07
551.34	51875.63
551.51	52158.84
551.68	51962.23
551.84	51934.15
552.01	51976.28
552.18	52112.03
552.34	51929.47
552.51	52069.90
552.68	52044.15
552.84	52018.41
553.01	52184.58
553.18	52156.50
553.34	52432.68
553.51	52388.21
553.67	52369.49
553.84	52793.12
554.01	52636.31
554.17	52493.54
554.34	52584.82
554.51	52308.63
554.67	52498.22
554.84	52736.95
555.00	52666.73
555.17	52472.47
555.33	52790.78
555.50	52378.85
555.67	52444.38
555.83	52458.43
556.00	52561.41
556.16	52816.53
556.33	52795.46
556.50	52963.98
556.66	52711.20
556.83	52769.72
556.99	53137.18
557.16	52856.32
557.32	53099.73
557.49	53099.73
557.65	52945.26
557.82	53064.63
557.98	52832.91
558.15	53045.90
558.32	53125.48
558.48	53338.47
558.65	53296.34
558.81	53249.53
558.98	53221.44
559.14	52882.06
559.31	53141.86
559.47	53059.94
559.64	53324.43
559.80	53254.21
559.97	53469.54
560.13	53015.47
560.30	53165.27
560.46	53331.45
560.63	53179.31
560.79	53361.87
560.96	53530.39
561.12	53294.00
561.29	52975.69
561.45	53359.53
561.61	53450.81
561.78	53441.45
561.94	53659.12
562.11	53298.68
562.27	53581.88
562.44	53394.64
562.60	53467.20
562.77	53418.05
562.93	53483.58
563.10	53729.34
563.26	53659.12
563.42	53778.49
563.59	53539.75
563.75	53588.91
563.92	53853.39
564.08	53373.58
564.24	53478.90
564.41	53464.86
564.57	53586.57
564.74	53436.77
564.90	53081.01
565.07	53736.36
565.23	53961.05
565.39	53509.33
565.56	53818.28
565.72	53535.07
565.88	53647.42
566.05	53705.93
566.21	53654.44
566.38	53638.06
566.54	53958.71
566.70	54103.82
566.87	53766.79
567.03	53708.27
567.19	53818.28
567.36	53888.49
567.52	53750.40
567.68	53820.62
567.85	53539.75
568.01	53954.03
568.17	53837.00
568.34	53949.35
568.50	53794.87
568.66	53968.07
568.83	53925.94
568.99	53602.95
569.15	53609.97
569.32	53661.46
569.48	53523.37
569.64	53991.48
569.81	53708.27
569.97	54052.33
570.13	53909.56
570.30	53918.92
570.46	54078.08
570.62	53888.49
570.78	53879.13
570.95	53888.49
571.11	53860.41
571.27	53727.00
571.43	53829.98
571.60	53947.01
571.76	53956.37
571.92	53860.41
572.09	53942.33
572.25	54066.38
572.41	53975.09
572.57	54033.61
572.74	54106.16
572.90	54061.69
573.06	53846.36
573.22	54071.06
573.38	54485.33
573.55	54026.59
573.71	54295.75
573.87	54185.74
574.03	53998.50
574.20	53815.94
574.36	54155.32
574.52	54188.08
574.68	54108.50
574.84	53907.22
575.01	54019.56
575.17	54150.63
575.33	54298.09
575.49	53928.28
575.65	54401.07
575.82	54426.82
575.98	54288.73
576.14	54323.83
576.30	54227.87
576.46	54113.19
576.62	54019.56
576.79	54204.47
576.95	54040.63
577.11	54380.01
577.27	54155.32
577.43	54122.55
577.59	54026.59
577.75	54178.72
577.92	54031.27
578.08	53834.66
578.24	54262.98
578.40	54204.47
578.56	54440.86
578.72	54354.26
578.88	54323.83
579.04	54466.61
579.21	54422.14
579.37	54178.72
579.53	54223.19
579.69	54223.19
579.85	54300.43
580.01	54316.81
580.17	54300.43
580.33	54333.20
580.49	54513.42
580.65	54396.39
580.82	54333.20
580.98	53982.12
581.14	54492.35
581.30	54501.71
581.46	53956.37
581.62	54384.69
581.78	54033.61
581.94	54347.24
582.10	54213.83
582.26	54372.99
582.42	54466.61
582.58	54541.50
582.74	54656.19
582.90	54197.44
583.06	54248.94
583.22	54042.97
583.38	54337.88
583.54	54049.99
583.70	54089.78
583.86	54501.71
584.02	54188.08
584.18	54747.47
584.34	54471.29
584.50	54412.77
584.66	54398.73
584.82	54265.32
584.98	54211.49
585.14	54244.26
585.30	54351.92
585.46	54321.49
585.62	53895.52
585.78	54665.55
585.94	53918.92
586.10	54520.44
586.26	54513.42
586.42	54754.49
586.58	54471.29
586.74	54525.12
586.90	54363.62
587.06	54244.26
587.22	54260.64
587.38	53928.28
587.54	54597.68
587.70	54749.81
587.86	54459.58
588.02	54478.31
588.18	54504.06
588.34	54401.07
588.49	54351.92
588.65	54262.98
588.81	54340.22
588.97	54527.46
589.13	54270.00
589.29	54361.28
589.45	54295.75
589.61	54534.48
589.77	54801.30
589.93	54536.82
