SpectraSuite Data File
++++++++++++++++++++++++++++++++++++
Date: Fri Oct 04 11:47:07 GMT-05:00 2013
User: price-jones
Dark Spectrum Present: No
Reference Spectrum Present: No
Number of Sampled Component Spectra: 1
Spectrometers: USB2+H05261
Integration Time (usec): 100000 (USB2+H05261)
Spectra Averaged: 1 (USB2+H05261)
Boxcar Smoothing: 0 (USB2+H05261)
Correct for Electrical Dark: No (USB2+H05261)
Strobe/Lamp Enabled: No (USB2+H05261)
Correct for Detector Non-linearity: No (USB2+H05261)
Correct for Stray Light: No (USB2+H05261)
Number of Pixels in Processed Spectrum: 2048
>>>>>Begin Processed Spectral Data<<<<<
365.73	32.77
365.92	32.77
366.12	32.77
366.32	0.00
366.52	0.00
366.72	0.00
366.91	0.00
367.11	0.00
367.31	0.00
367.51	0.00
367.70	0.00
367.90	0.00
368.10	0.00
368.30	0.00
368.49	0.00
368.69	0.00
368.89	0.00
369.09	2.34
369.28	11.70
369.48	0.00
369.68	0.00
369.87	0.00
370.07	0.00
370.27	4.68
370.47	0.00
370.66	7.02
370.86	70.22
371.06	81.92
371.25	49.15
371.45	49.15
371.65	86.60
371.84	16.38
372.04	46.81
372.24	56.17
372.44	16.38
372.63	63.19
372.83	145.11
373.03	77.24
373.22	44.47
373.42	46.81
373.62	51.49
373.81	88.94
374.01	131.07
374.21	93.62
374.40	110.01
374.60	102.98
374.79	131.07
374.99	65.54
375.19	74.90
375.38	74.90
375.58	182.56
375.78	100.64
375.97	110.01
376.17	149.79
376.37	105.32
376.56	131.07
376.76	79.58
376.95	140.43
377.15	88.94
377.35	142.77
377.54	147.45
377.74	145.11
377.93	117.03
378.13	91.28
378.33	175.54
378.52	126.39
378.72	161.50
378.91	81.92
379.11	60.85
379.31	51.49
379.50	60.85
379.70	119.37
379.89	154.48
380.09	105.32
380.28	100.64
380.48	117.03
380.68	107.66
380.87	149.79
381.07	74.90
381.26	102.98
381.46	152.13
381.65	119.37
381.85	51.49
382.04	91.28
382.24	112.35
382.43	91.28
382.63	65.54
382.83	39.79
383.02	60.85
383.22	84.26
383.41	21.06
383.61	67.88
383.80	56.17
384.00	140.43
384.19	91.28
384.39	56.17
384.58	91.28
384.78	100.64
384.97	67.88
385.17	56.17
385.36	46.81
385.56	138.09
385.75	91.28
385.95	18.72
386.14	70.22
386.34	100.64
386.53	117.03
386.72	53.83
386.92	102.98
387.11	70.22
387.31	72.56
387.50	4.68
387.70	25.75
387.89	84.26
388.09	107.66
388.28	42.13
388.48	138.09
388.67	154.48
388.86	124.05
389.06	163.84
389.25	140.43
389.45	117.03
389.64	88.94
389.84	124.05
390.03	126.39
390.22	201.29
390.42	119.37
390.61	88.94
390.81	23.41
391.00	56.17
391.19	58.51
391.39	156.82
391.58	131.07
391.78	77.24
391.97	81.92
392.16	9.36
392.36	53.83
392.55	198.95
392.75	79.58
392.94	63.19
393.13	65.54
393.33	58.51
393.52	201.29
393.71	149.79
393.91	124.05
394.10	56.17
394.29	88.94
394.49	102.98
394.68	154.48
394.88	119.37
395.07	102.98
395.26	140.43
395.46	126.39
395.65	152.13
395.84	4.68
396.04	194.26
396.23	23.41
396.42	37.45
396.62	117.03
396.81	100.64
397.00	65.54
397.19	152.13
397.39	72.56
397.58	140.43
397.77	42.13
397.97	177.88
398.16	166.18
398.35	159.16
398.55	39.79
398.74	159.16
398.93	166.18
399.12	74.90
399.32	105.32
399.51	91.28
399.70	112.35
399.90	95.96
400.09	112.35
400.28	110.01
400.47	84.26
400.67	91.28
400.86	91.28
401.05	154.48
401.24	159.16
401.44	145.11
401.63	63.19
401.82	131.07
402.01	11.70
402.21	147.45
402.40	114.69
402.59	42.13
402.78	39.79
402.97	93.62
403.17	166.18
403.36	100.64
403.55	149.79
403.74	170.86
403.93	114.69
404.13	222.35
404.32	138.09
404.51	56.17
404.70	105.32
404.89	110.01
405.09	154.48
405.28	102.98
405.47	110.01
405.66	126.39
405.85	98.30
406.05	53.83
406.24	93.62
406.43	110.01
406.62	98.30
406.81	147.45
407.00	154.48
407.20	128.73
407.39	145.11
407.58	131.07
407.77	100.64
407.96	131.07
408.15	114.69
408.34	121.71
408.54	88.94
408.73	98.30
408.92	119.37
409.11	102.98
409.30	180.22
409.49	93.62
409.68	126.39
409.87	53.83
410.07	88.94
410.26	117.03
410.45	114.69
410.64	100.64
410.83	121.71
411.02	93.62
411.21	112.35
411.40	142.77
411.59	77.24
411.78	95.96
411.98	100.64
412.17	44.47
412.36	74.90
412.55	86.60
412.74	67.88
412.93	149.79
413.12	25.75
413.31	107.66
413.50	107.66
413.69	124.05
413.88	198.95
414.07	135.75
414.26	152.13
414.45	98.30
414.64	142.77
414.83	154.48
415.02	81.92
415.22	205.97
415.41	135.75
415.60	53.83
415.79	159.16
415.98	140.43
416.17	110.01
416.36	107.66
416.55	100.64
416.74	84.26
416.93	114.69
417.12	124.05
417.31	110.01
417.50	156.82
417.69	163.84
417.88	154.48
418.07	91.28
418.26	88.94
418.45	124.05
418.64	269.16
418.83	156.82
419.02	154.48
419.21	175.54
419.39	60.85
419.58	161.50
419.77	184.90
419.96	189.58
420.15	264.48
420.34	124.05
420.53	110.01
420.72	100.64
420.91	84.26
421.10	91.28
421.29	131.07
421.48	142.77
421.67	140.43
421.86	131.07
422.05	131.07
422.24	121.71
422.43	98.30
422.61	131.07
422.80	159.16
422.99	128.73
423.18	124.05
423.37	173.20
423.56	205.97
423.75	187.24
423.94	133.41
424.13	154.48
424.32	110.01
424.50	63.19
424.69	112.35
424.88	189.58
425.07	142.77
425.26	145.11
425.45	217.67
425.64	212.99
425.83	208.31
426.01	208.31
426.20	245.76
426.39	131.07
426.58	147.45
426.77	159.16
426.96	138.09
427.15	152.13
427.33	128.73
427.52	168.52
427.71	173.20
427.90	128.73
428.09	105.32
428.28	107.66
428.46	100.64
428.65	112.35
428.84	161.50
429.03	205.97
429.22	131.07
429.40	7.02
429.59	74.90
429.78	128.73
429.97	119.37
430.16	100.64
430.34	98.30
430.53	110.01
430.72	161.50
430.91	124.05
431.10	42.13
431.28	149.79
431.47	135.75
431.66	121.71
431.85	248.10
432.03	114.69
432.22	198.95
432.41	170.86
432.60	208.31
432.79	131.07
432.97	245.76
433.16	245.76
433.35	124.05
433.54	149.79
433.72	93.62
433.91	128.73
434.10	105.32
434.28	163.84
434.47	145.11
434.66	91.28
434.85	117.03
435.03	114.69
435.22	152.13
435.41	156.82
435.59	149.79
435.78	163.84
435.97	102.98
436.16	166.18
436.34	72.56
436.53	114.69
436.72	187.24
436.90	131.07
437.09	145.11
437.28	70.22
437.46	133.41
437.65	191.92
437.84	175.54
438.02	140.43
438.21	135.75
438.40	140.43
438.58	72.56
438.77	159.16
438.96	177.88
439.14	135.75
439.33	124.05
439.52	79.58
439.70	145.11
439.89	168.52
440.08	107.66
440.26	100.64
440.45	140.43
440.63	32.77
440.82	124.05
441.01	121.71
441.19	210.65
441.38	154.48
441.57	100.64
441.75	182.56
441.94	180.22
442.12	175.54
442.31	135.75
442.50	133.41
442.68	189.58
442.87	133.41
443.05	110.01
443.24	105.32
443.43	168.52
443.61	105.32
443.80	138.09
443.98	67.88
444.17	70.22
444.35	86.60
444.54	88.94
444.73	152.13
444.91	161.50
445.10	170.86
445.28	67.88
445.47	131.07
445.65	51.49
445.84	133.41
446.02	100.64
446.21	133.41
446.39	37.45
446.58	133.41
446.77	180.22
446.95	163.84
447.14	105.32
447.32	117.03
447.51	196.60
447.69	117.03
447.88	133.41
448.06	198.95
448.25	86.60
448.43	110.01
448.62	93.62
448.80	161.50
448.99	128.73
449.17	58.51
449.36	110.01
449.54	65.54
449.73	46.81
449.91	262.14
450.10	170.86
450.28	149.79
450.46	217.67
450.65	173.20
450.83	245.76
451.02	102.98
451.20	231.71
451.39	107.66
451.57	138.09
451.76	119.37
451.94	140.43
452.13	189.58
452.31	149.79
452.49	161.50
452.68	203.63
452.86	182.56
453.05	133.41
453.23	44.47
453.42	39.79
453.60	182.56
453.78	138.09
453.97	56.17
454.15	107.66
454.34	170.86
454.52	191.92
454.70	191.92
454.89	243.42
455.07	67.88
455.26	140.43
455.44	152.13
455.62	184.90
455.81	149.79
455.99	210.65
456.17	131.07
456.36	145.11
456.54	107.66
456.73	149.79
456.91	126.39
457.09	131.07
457.28	149.79
457.46	91.28
457.64	133.41
457.83	93.62
458.01	166.18
458.19	145.11
458.38	203.63
458.56	77.24
458.74	140.43
458.93	147.45
459.11	142.77
459.29	140.43
459.48	135.75
459.66	138.09
459.84	189.58
460.03	191.92
460.21	208.31
460.39	154.48
460.57	105.32
460.76	159.16
460.94	152.13
461.12	231.71
461.31	196.60
461.49	98.30
461.67	112.35
461.85	70.22
462.04	156.82
462.22	610.88
462.40	170.86
462.59	229.37
462.77	135.75
462.95	159.16
463.13	182.56
463.32	194.26
463.50	138.09
463.68	138.09
463.86	88.94
464.05	180.22
464.23	142.77
464.41	77.24
464.59	138.09
464.78	241.08
464.96	91.28
465.14	131.07
465.32	156.82
465.50	138.09
465.69	81.92
465.87	110.01
466.05	182.56
466.23	30.43
466.41	84.26
466.60	95.96
466.78	177.88
466.96	159.16
467.14	133.41
467.32	147.45
467.51	161.50
467.69	205.97
467.87	220.01
468.05	142.77
468.23	161.50
468.41	117.03
468.60	147.45
468.78	107.66
468.96	175.54
469.14	177.88
469.32	126.39
469.50	112.35
469.69	187.24
469.87	100.64
470.05	145.11
470.23	114.69
470.41	161.50
470.59	131.07
470.77	184.90
470.95	60.85
471.14	170.86
471.32	131.07
471.50	107.66
471.68	154.48
471.86	126.39
472.04	110.01
472.22	133.41
472.40	145.11
472.58	88.94
472.77	140.43
472.95	126.39
473.13	184.90
473.31	166.18
473.49	105.32
473.67	107.66
473.85	114.69
474.03	217.67
474.21	135.75
474.39	173.20
474.57	189.58
474.75	182.56
474.93	133.41
475.12	121.71
475.30	184.90
475.48	156.82
475.66	88.94
475.84	81.92
476.02	194.26
476.20	166.18
476.38	194.26
476.56	161.50
476.74	147.45
476.92	173.20
477.10	121.71
477.28	117.03
477.46	88.94
477.64	163.84
477.82	166.18
478.00	203.63
478.18	124.05
478.36	56.17
478.54	168.52
478.72	102.98
478.90	117.03
479.08	142.77
479.26	107.66
479.44	114.69
479.62	142.77
479.80	180.22
479.98	149.79
480.16	140.43
480.34	145.11
480.52	149.79
480.70	91.28
480.88	135.75
481.06	175.54
481.24	100.64
481.41	138.09
481.59	189.58
481.77	159.16
481.95	220.01
482.13	140.43
482.31	161.50
482.49	140.43
482.67	140.43
482.85	175.54
483.03	212.99
483.21	170.86
483.39	105.32
483.57	110.01
483.74	224.69
483.92	133.41
484.10	147.45
484.28	196.60
484.46	208.31
484.64	131.07
484.82	156.82
485.00	166.18
485.18	100.64
485.35	140.43
485.53	198.95
485.71	173.20
485.89	105.32
486.07	119.37
486.25	187.24
486.43	168.52
486.61	180.22
486.78	210.65
486.96	152.13
487.14	159.16
487.32	180.22
487.50	77.24
487.68	170.86
487.85	133.41
488.03	154.48
488.21	194.26
488.39	177.88
488.57	98.30
488.75	196.60
488.92	395.55
489.10	98.30
489.28	229.37
489.46	142.77
489.64	154.48
489.81	166.18
489.99	184.90
490.17	175.54
490.35	198.95
490.53	182.56
490.70	154.48
490.88	154.48
491.06	135.75
491.24	163.84
491.41	194.26
491.59	163.84
491.77	166.18
491.95	166.18
492.13	168.52
492.30	166.18
492.48	121.71
492.66	168.52
492.84	152.13
493.01	159.16
493.19	194.26
493.37	163.84
493.54	121.71
493.72	182.56
493.90	224.69
494.08	184.90
494.25	175.54
494.43	196.60
494.61	152.13
494.79	163.84
494.96	124.05
495.14	168.52
495.32	170.86
495.49	191.92
495.67	231.71
495.85	252.78
496.02	173.20
496.20	231.71
496.38	170.86
496.55	170.86
496.73	184.90
496.91	145.11
497.09	170.86
497.26	229.37
497.44	245.76
497.62	126.39
497.79	156.82
497.97	210.65
498.14	156.82
498.32	147.45
498.50	250.44
498.67	184.90
498.85	212.99
499.03	161.50
499.20	184.90
499.38	175.54
499.56	138.09
499.73	220.01
499.91	170.86
500.08	156.82
500.26	210.65
500.44	224.69
500.61	208.31
500.79	196.60
500.97	163.84
501.14	198.95
501.32	128.73
501.49	175.54
501.67	180.22
501.84	152.13
502.02	173.20
502.20	290.23
502.37	231.71
502.55	173.20
502.72	189.58
502.90	224.69
503.07	222.35
503.25	241.08
503.43	203.63
503.60	191.92
503.78	217.67
503.95	210.65
504.13	234.05
504.30	276.18
504.48	126.39
504.65	189.58
504.83	142.77
505.01	147.45
505.18	154.48
505.36	170.86
505.53	110.01
505.71	238.73
505.88	212.99
506.06	124.05
506.23	163.84
506.41	229.37
506.58	170.86
506.76	161.50
506.93	177.88
507.11	229.37
507.28	220.01
507.46	266.82
507.63	198.95
507.81	161.50
507.98	208.31
508.16	243.42
508.33	248.10
508.50	210.65
508.68	184.90
508.85	154.48
509.03	210.65
509.20	180.22
509.38	236.39
509.55	121.71
509.73	205.97
509.90	222.35
510.08	159.16
510.25	238.73
510.42	124.05
510.60	159.16
510.77	177.88
510.95	245.76
511.12	161.50
511.30	259.80
511.47	283.20
511.64	264.48
511.82	250.44
511.99	210.65
512.17	163.84
512.34	257.46
512.51	189.58
512.69	173.20
512.86	177.88
513.04	145.11
513.21	194.26
513.38	110.01
513.56	159.16
513.73	175.54
513.90	180.22
514.08	229.37
514.25	280.86
514.43	259.80
514.60	245.76
514.77	255.12
514.95	205.97
515.12	208.31
515.29	243.42
515.47	203.63
515.64	184.90
515.81	203.63
515.99	227.03
516.16	259.80
516.33	180.22
516.51	196.60
516.68	229.37
516.85	133.41
517.03	180.22
517.20	194.26
517.37	196.60
517.54	217.67
517.72	203.63
517.89	138.09
518.06	124.05
518.24	257.46
518.41	227.03
518.58	156.82
518.75	252.78
518.93	224.69
519.10	217.67
519.27	203.63
519.45	245.76
519.62	231.71
519.79	257.46
519.96	198.95
520.14	212.99
520.31	184.90
520.48	180.22
520.65	212.99
520.83	248.10
521.00	173.20
521.17	217.67
521.34	187.24
521.52	145.11
521.69	208.31
521.86	198.95
522.03	285.55
522.20	257.46
522.38	126.39
522.55	161.50
522.72	142.77
522.89	229.37
523.07	229.37
523.24	184.90
523.41	166.18
523.58	208.31
523.75	198.95
523.92	154.48
524.10	159.16
524.27	227.03
524.44	243.42
524.61	234.05
524.78	238.73
524.96	243.42
525.13	147.45
525.30	208.31
525.47	276.18
525.64	266.82
525.81	184.90
525.98	189.58
526.16	234.05
526.33	220.01
526.50	173.20
526.67	203.63
526.84	212.99
527.01	128.73
527.18	231.71
527.36	177.88
527.53	142.77
527.70	154.48
527.87	212.99
528.04	205.97
528.21	177.88
528.38	182.56
528.55	210.65
528.72	248.10
528.89	245.76
529.07	257.46
529.24	208.31
529.41	264.48
529.58	290.23
529.75	201.29
529.92	191.92
530.09	110.01
530.26	266.82
530.43	180.22
530.60	159.16
530.77	177.88
530.94	222.35
531.11	198.95
531.28	266.82
531.46	184.90
531.63	203.63
531.80	220.01
531.97	191.92
532.14	210.65
532.31	201.29
532.48	236.39
532.65	304.27
532.82	367.46
532.99	374.49
533.16	266.82
533.33	287.89
533.50	278.52
533.67	325.33
533.84	379.17
534.01	381.51
534.18	292.57
534.35	276.18
534.52	264.48
534.69	262.14
534.86	227.03
535.03	252.78
535.20	292.57
535.37	110.01
535.54	294.91
535.71	271.50
535.88	280.86
536.05	196.60
536.22	283.20
536.38	205.97
536.55	227.03
536.72	184.90
536.89	215.33
537.06	222.35
537.23	273.84
537.40	147.45
537.57	212.99
537.74	231.71
537.91	215.33
538.08	203.63
538.25	189.58
538.42	166.18
538.59	194.26
538.75	259.80
538.92	198.95
539.09	227.03
539.26	248.10
539.43	538.32
539.60	1294.32
539.77	1970.73
539.94	1952.01
540.11	1301.34
540.28	755.99
540.44	510.24
540.61	344.06
540.78	248.10
540.95	182.56
541.12	238.73
541.29	180.22
541.46	252.78
541.62	187.24
541.79	196.60
541.96	159.16
542.13	198.95
542.30	227.03
542.47	227.03
542.63	154.48
542.80	236.39
542.97	224.69
543.14	194.26
543.31	255.12
543.48	278.52
543.64	203.63
543.81	231.71
543.98	227.03
544.15	245.76
544.32	201.29
544.48	255.12
544.65	212.99
544.82	189.58
544.99	135.75
545.16	145.11
545.32	182.56
545.49	238.73
545.66	208.31
545.83	149.79
546.00	128.73
546.16	201.29
546.33	187.24
546.50	166.18
546.67	194.26
546.83	184.90
547.00	187.24
547.17	173.20
547.34	196.60
547.50	229.37
547.67	152.13
547.84	212.99
548.00	196.60
548.17	205.97
548.34	208.31
548.51	283.20
548.67	280.86
548.84	208.31
549.01	177.88
549.18	184.90
549.34	255.12
549.51	220.01
549.68	196.60
549.84	229.37
550.01	271.50
550.18	301.93
550.34	243.42
550.51	205.97
550.68	308.95
550.84	194.26
551.01	250.44
551.18	236.39
551.34	163.84
551.51	175.54
551.68	173.20
551.84	224.69
552.01	243.42
552.18	173.20
552.34	110.01
552.51	215.33
552.68	224.69
552.84	173.20
553.01	196.60
553.18	238.73
553.34	163.84
553.51	217.67
553.67	236.39
553.84	259.80
554.01	229.37
554.17	231.71
554.34	210.65
554.51	154.48
554.67	248.10
554.84	236.39
555.00	205.97
555.17	266.82
555.33	238.73
555.50	154.48
555.67	292.57
555.83	243.42
556.00	236.39
556.16	332.36
556.33	271.50
556.50	168.52
556.66	241.08
556.83	191.92
556.99	212.99
557.16	245.76
557.32	217.67
557.49	187.24
557.65	250.44
557.82	220.01
557.98	196.60
558.15	212.99
558.32	203.63
558.48	170.86
558.65	234.05
558.81	229.37
558.98	189.58
559.14	203.63
559.31	138.09
559.47	215.33
559.64	191.92
559.80	189.58
559.97	128.73
560.13	184.90
560.30	222.35
560.46	177.88
560.63	154.48
560.79	257.46
560.96	201.29
561.12	175.54
561.29	210.65
561.45	187.24
561.61	189.58
561.78	297.25
561.94	243.42
562.11	170.86
562.27	224.69
562.44	110.01
562.60	184.90
562.77	147.45
562.93	271.50
563.10	201.29
563.26	187.24
563.42	301.93
563.59	245.76
563.75	184.90
563.92	229.37
564.08	266.82
564.24	205.97
564.41	266.82
564.57	255.12
564.74	222.35
564.90	227.03
565.07	248.10
565.23	325.33
565.39	271.50
565.56	304.27
565.72	241.08
565.88	264.48
566.05	287.89
566.21	175.54
566.38	266.82
566.54	203.63
566.70	133.41
566.87	170.86
567.03	210.65
567.19	138.09
567.36	212.99
567.52	191.92
567.68	187.24
567.85	271.50
568.01	215.33
568.17	159.16
568.34	161.50
568.50	201.29
568.66	212.99
568.83	315.97
568.99	224.69
569.15	227.03
569.32	191.92
569.48	198.95
569.64	180.22
569.81	220.01
569.97	201.29
570.13	276.18
570.30	175.54
570.46	220.01
570.62	215.33
570.78	187.24
570.95	135.75
571.11	252.78
571.27	266.82
571.43	294.91
571.60	215.33
571.76	215.33
571.92	203.63
572.09	154.48
572.25	248.10
572.41	191.92
572.57	201.29
572.74	250.44
572.90	266.82
573.06	241.08
573.22	210.65
573.38	280.86
573.55	264.48
573.71	229.37
573.87	215.33
574.03	149.79
574.20	290.23
574.36	262.14
574.52	294.91
574.68	318.31
574.84	217.67
575.01	287.89
575.17	278.52
575.33	238.73
575.49	266.82
575.65	248.10
575.82	379.17
575.98	650.67
576.14	812.17
576.30	819.19
576.46	641.31
576.62	514.92
576.79	404.91
576.95	372.15
577.11	292.57
577.27	243.42
577.43	269.16
577.59	273.84
577.75	273.84
577.92	243.42
578.08	236.39
578.24	241.08
578.40	294.91
578.56	313.63
578.72	306.61
578.88	264.48
579.04	245.76
579.21	276.18
579.37	243.42
579.53	231.71
579.69	294.91
579.85	255.12
580.01	379.17
580.17	341.72
580.33	369.80
580.49	383.85
580.65	430.66
580.82	402.57
580.98	386.19
581.14	327.68
581.30	444.70
581.46	491.51
581.62	613.22
581.78	718.54
581.94	774.72
582.10	573.43
582.26	514.92
582.42	500.87
582.58	510.24
582.74	503.22
582.90	423.64
583.06	470.45
583.22	538.32
583.38	645.99
583.54	543.00
583.70	674.07
583.86	772.38
584.02	938.55
584.18	1146.86
584.34	1544.75
584.50	4194.24
584.66	33354.97
584.82	64271.11
584.98	65535.00
585.14	65535.00
585.30	62518.05
585.46	40360.20
585.62	24713.72
585.78	11098.82
585.94	4248.07
586.10	2092.44
586.26	1261.55
586.42	1025.15
586.58	795.78
586.74	716.20
586.90	713.86
587.06	592.16
587.22	594.50
587.38	559.39
587.54	1600.93
587.70	4643.62
587.86	7646.53
588.02	8643.60
588.18	5895.81
588.34	3875.93
588.49	2448.20
588.65	1483.90
588.81	753.65
588.97	425.98
589.13	355.76
589.29	259.80
589.45	351.08
589.61	308.95
589.77	437.68
589.93	510.24
590.08	592.16
590.24	423.64
590.40	510.24
590.56	411.93
590.72	381.51
590.88	367.46
591.04	393.21
591.20	346.40
591.35	456.40
591.51	341.72
591.67	330.02
591.83	311.29
591.99	318.31
592.15	341.72
592.31	346.40
592.46	250.44
592.62	301.93
592.78	220.01
592.94	322.99
593.10	367.46
593.26	301.93
593.41	362.78
593.57	425.98
593.73	688.12
593.89	3791.67
594.05	10204.74
594.20	14792.19
594.36	13900.44
594.52	8887.01
594.68	5549.41
594.84	3602.08
594.99	1914.56
595.15	968.98
595.31	540.66
595.47	313.63
595.62	376.83
595.78	330.02
595.94	374.49
596.10	374.49
596.25	348.74
596.41	435.34
596.57	297.25
596.73	301.93
596.88	587.47
597.04	1877.11
597.20	2963.12
597.36	3541.23
597.51	2684.59
597.67	1720.29
597.83	1170.27
597.99	844.93
598.14	531.30
598.30	351.08
598.46	299.59
598.61	308.95
598.77	379.17
598.93	299.59
599.09	287.89
599.24	280.86
599.40	264.48
599.56	318.31
599.71	285.55
599.87	147.45
600.03	203.63
600.18	220.01
600.34	248.10
600.50	278.52
600.65	241.08
600.81	210.65
600.97	238.73
601.12	220.01
601.28	315.97
601.44	257.46
601.59	229.37
601.75	210.65
601.91	208.31
602.06	234.05
602.22	327.68
602.37	891.74
602.53	2221.17
602.69	3627.83
602.84	3812.73
603.00	2693.96
603.16	1839.66
603.31	1329.42
603.47	755.99
603.62	428.32
603.78	341.72
603.94	358.10
604.09	243.42
604.25	330.02
604.40	238.73
604.56	257.46
604.71	184.90
604.87	257.46
605.03	280.86
605.18	236.39
605.34	243.42
605.49	257.46
605.65	292.57
605.80	231.71
605.96	304.27
606.12	248.10
606.27	271.50
606.43	383.85
606.58	337.04
606.74	1086.01
606.89	4681.07
607.05	9563.43
607.20	12556.97
607.36	10127.50
607.51	6871.81
607.67	4341.69
607.82	2846.09
607.98	1572.84
608.13	793.44
608.29	500.87
608.44	475.13
608.60	416.62
608.75	596.84
608.91	1441.77
609.06	7426.52
609.22	16500.78
609.37	21696.77
609.53	18932.59
609.68	12372.07
609.84	7885.26
609.99	5301.31
610.15	2841.41
610.30	1238.14
610.46	697.48
610.61	414.27
610.76	423.64
610.92	332.36
611.07	306.61
611.23	423.64
611.38	400.23
611.54	301.93
