SpectraSuite Data File
++++++++++++++++++++++++++++++++++++
Date: Fri Oct 04 11:47:02 GMT-05:00 2013
User: price-jones
Dark Spectrum Present: No
Reference Spectrum Present: No
Number of Sampled Component Spectra: 1
Spectrometers: USB2+H05261
Integration Time (usec): 100000 (USB2+H05261)
Spectra Averaged: 1 (USB2+H05261)
Boxcar Smoothing: 0 (USB2+H05261)
Correct for Electrical Dark: No (USB2+H05261)
Strobe/Lamp Enabled: No (USB2+H05261)
Correct for Detector Non-linearity: No (USB2+H05261)
Correct for Stray Light: No (USB2+H05261)
Number of Pixels in Processed Spectrum: 2048
>>>>>Begin Processed Spectral Data<<<<<
365.73	28.09
365.92	28.09
366.12	28.09
366.32	0.00
366.52	0.00
366.72	0.00
366.91	0.00
367.11	0.00
367.31	0.00
367.51	0.00
367.70	0.00
367.90	0.00
368.10	0.00
368.30	0.00
368.49	0.00
368.69	0.00
368.89	0.00
369.09	0.00
369.28	23.41
369.48	0.00
369.68	0.00
369.87	0.00
370.07	0.00
370.27	23.41
370.47	0.00
370.66	0.00
370.86	9.36
371.06	32.77
371.25	63.19
371.45	0.00
371.65	124.05
371.84	70.22
372.04	88.94
372.24	65.54
372.44	53.83
372.63	51.49
372.83	95.96
373.03	114.69
373.22	49.15
373.42	74.90
373.62	84.26
373.81	147.45
374.01	102.98
374.21	145.11
374.40	93.62
374.60	149.79
374.79	126.39
374.99	117.03
375.19	95.96
375.38	110.01
375.58	126.39
375.78	166.18
375.97	140.43
376.17	170.86
376.37	131.07
376.56	95.96
376.76	112.35
376.95	107.66
377.15	149.79
377.35	198.95
377.54	168.52
377.74	53.83
377.93	74.90
378.13	46.81
378.33	81.92
378.52	79.58
378.72	102.98
378.91	126.39
379.11	105.32
379.31	77.24
379.50	117.03
379.70	74.90
379.89	117.03
380.09	117.03
380.28	88.94
380.48	88.94
380.68	58.51
380.87	60.85
381.07	91.28
381.26	126.39
381.46	140.43
381.65	201.29
381.85	166.18
382.04	65.54
382.24	105.32
382.43	56.17
382.63	51.49
382.83	58.51
383.02	100.64
383.22	119.37
383.41	79.58
383.61	30.43
383.80	91.28
384.00	63.19
384.19	16.38
384.39	114.69
384.58	98.30
384.78	77.24
384.97	128.73
385.17	77.24
385.36	63.19
385.56	135.75
385.75	63.19
385.95	112.35
386.14	9.36
386.34	51.49
386.53	98.30
386.72	112.35
386.92	138.09
387.11	152.13
387.31	105.32
387.50	23.41
387.70	145.11
387.89	0.00
388.09	100.64
388.28	2.34
388.48	44.47
388.67	154.48
388.86	124.05
389.06	39.79
389.25	56.17
389.45	72.56
389.64	98.30
389.84	86.60
390.03	60.85
390.22	105.32
390.42	53.83
390.61	42.13
390.81	140.43
391.00	149.79
391.19	126.39
391.39	11.70
391.58	79.58
391.78	23.41
391.97	42.13
392.16	135.75
392.36	117.03
392.55	161.50
392.75	112.35
392.94	119.37
393.13	93.62
393.33	28.09
393.52	140.43
393.71	149.79
393.91	70.22
394.10	88.94
394.29	63.19
394.49	79.58
394.68	79.58
394.88	201.29
395.07	102.98
395.26	25.75
395.46	107.66
395.65	117.03
395.84	93.62
396.04	145.11
396.23	100.64
396.42	124.05
396.62	44.47
396.81	7.02
397.00	25.75
397.19	79.58
397.39	91.28
397.58	105.32
397.77	88.94
397.97	128.73
398.16	86.60
398.35	81.92
398.55	117.03
398.74	114.69
398.93	114.69
399.12	105.32
399.32	128.73
399.51	86.60
399.70	126.39
399.90	84.26
400.09	128.73
400.28	175.54
400.47	65.54
400.67	49.15
400.86	152.13
401.05	56.17
401.24	117.03
401.44	107.66
401.63	86.60
401.82	100.64
402.01	60.85
402.21	91.28
402.40	138.09
402.59	154.48
402.78	72.56
402.97	16.38
403.17	56.17
403.36	184.90
403.55	79.58
403.74	74.90
403.93	126.39
404.13	189.58
404.32	119.37
404.51	98.30
404.70	124.05
404.89	133.41
405.09	184.90
405.28	32.77
405.47	138.09
405.66	119.37
405.85	147.45
406.05	95.96
406.24	49.15
406.43	98.30
406.62	119.37
406.81	110.01
407.00	100.64
407.20	58.51
407.39	147.45
407.58	98.30
407.77	58.51
407.96	128.73
408.15	177.88
408.34	30.43
408.54	28.09
408.73	175.54
408.92	72.56
409.11	156.82
409.30	156.82
409.49	79.58
409.68	28.09
409.87	58.51
410.07	74.90
410.26	2.34
410.45	79.58
410.64	110.01
410.83	39.79
411.02	88.94
411.21	88.94
411.40	152.13
411.59	184.90
411.78	128.73
411.98	58.51
412.17	60.85
412.36	102.98
412.55	133.41
412.74	196.60
412.93	110.01
413.12	100.64
413.31	100.64
413.50	67.88
413.69	154.48
413.88	77.24
414.07	84.26
414.26	119.37
414.45	105.32
414.64	126.39
414.83	98.30
415.02	77.24
415.22	182.56
415.41	177.88
415.60	72.56
415.79	131.07
415.98	93.62
416.17	110.01
416.36	166.18
416.55	196.60
416.74	114.69
416.93	175.54
417.12	91.28
417.31	67.88
417.50	91.28
417.69	177.88
417.88	201.29
418.07	100.64
418.26	196.60
418.45	189.58
418.64	149.79
418.83	250.44
419.02	163.84
419.21	95.96
419.39	86.60
419.58	173.20
419.77	182.56
419.96	194.26
420.15	133.41
420.34	110.01
420.53	42.13
420.72	131.07
420.91	86.60
421.10	128.73
421.29	121.71
421.48	100.64
421.67	110.01
421.86	95.96
422.05	105.32
422.24	152.13
422.43	147.45
422.61	86.60
422.80	70.22
422.99	84.26
423.18	163.84
423.37	135.75
423.56	110.01
423.75	124.05
423.94	142.77
424.13	77.24
424.32	95.96
424.50	124.05
424.69	105.32
424.88	189.58
425.07	119.37
425.26	86.60
425.45	264.48
425.64	231.71
425.83	163.84
426.01	212.99
426.20	124.05
426.39	121.71
426.58	114.69
426.77	70.22
426.96	187.24
427.15	128.73
427.33	95.96
427.52	16.38
427.71	98.30
427.90	128.73
428.09	124.05
428.28	138.09
428.46	53.83
428.65	135.75
428.84	147.45
429.03	138.09
429.22	145.11
429.40	133.41
429.59	163.84
429.78	189.58
429.97	51.49
430.16	74.90
430.34	93.62
430.53	98.30
430.72	168.52
430.91	128.73
431.10	72.56
431.28	168.52
431.47	138.09
431.66	149.79
431.85	65.54
432.03	180.22
432.22	138.09
432.41	142.77
432.60	170.86
432.79	161.50
432.97	311.29
433.16	264.48
433.35	220.01
433.54	166.18
433.72	131.07
433.91	184.90
434.10	126.39
434.28	156.82
434.47	102.98
434.66	133.41
434.85	63.19
435.03	124.05
435.22	135.75
435.41	159.16
435.59	91.28
435.78	128.73
435.97	170.86
436.16	121.71
436.34	119.37
436.53	79.58
436.72	93.62
436.90	102.98
437.09	70.22
437.28	163.84
437.46	74.90
437.65	126.39
437.84	18.72
438.02	182.56
438.21	215.33
438.40	72.56
438.58	117.03
438.77	142.77
438.96	170.86
439.14	98.30
439.33	133.41
439.52	163.84
439.70	95.96
439.89	117.03
440.08	95.96
440.26	112.35
440.45	187.24
440.63	112.35
440.82	98.30
441.01	0.00
441.19	119.37
441.38	159.16
441.57	163.84
441.75	152.13
441.94	152.13
442.12	170.86
442.31	168.52
442.50	135.75
442.68	77.24
442.87	135.75
443.05	91.28
443.24	175.54
443.43	180.22
443.61	177.88
443.80	98.30
443.98	138.09
444.17	159.16
444.35	93.62
444.54	119.37
444.73	86.60
444.91	110.01
445.10	114.69
445.28	121.71
445.47	161.50
445.65	100.64
445.84	131.07
446.02	124.05
446.21	138.09
446.39	124.05
446.58	149.79
446.77	121.71
446.95	84.26
447.14	147.45
447.32	184.90
447.51	128.73
447.69	124.05
447.88	98.30
448.06	203.63
448.25	180.22
448.43	126.39
448.62	198.95
448.80	156.82
448.99	168.52
449.17	168.52
449.36	91.28
449.54	93.62
449.73	84.26
449.91	166.18
450.10	93.62
450.28	250.44
450.46	140.43
450.65	124.05
450.83	91.28
451.02	180.22
451.20	100.64
451.39	156.82
451.57	133.41
451.76	215.33
451.94	112.35
452.13	180.22
452.31	194.26
452.49	126.39
452.68	88.94
452.86	112.35
453.05	224.69
453.23	121.71
453.42	138.09
453.60	112.35
453.78	119.37
453.97	86.60
454.15	163.84
454.34	194.26
454.52	140.43
454.70	140.43
454.89	161.50
455.07	152.13
455.26	159.16
455.44	177.88
455.62	152.13
455.81	100.64
455.99	187.24
456.17	112.35
456.36	133.41
456.54	161.50
456.73	124.05
456.91	201.29
457.09	131.07
457.28	255.12
457.46	189.58
457.64	210.65
457.83	140.43
458.01	236.39
458.19	91.28
458.38	117.03
458.56	159.16
458.74	170.86
458.93	117.03
459.11	140.43
459.29	51.49
459.48	124.05
459.66	145.11
459.84	105.32
460.03	262.14
460.21	203.63
460.39	100.64
460.57	159.16
460.76	189.58
460.94	170.86
461.12	173.20
461.31	110.01
461.49	107.66
461.67	196.60
461.85	163.84
462.04	191.92
462.22	575.77
462.40	182.56
462.59	208.31
462.77	177.88
462.95	170.86
463.13	100.64
463.32	138.09
463.50	105.32
463.68	126.39
463.86	154.48
464.05	133.41
464.23	231.71
464.41	138.09
464.59	100.64
464.78	161.50
464.96	147.45
465.14	187.24
465.32	170.86
465.50	152.13
465.69	159.16
465.87	222.35
466.05	107.66
466.23	102.98
466.41	140.43
466.60	149.79
466.78	133.41
466.96	159.16
467.14	152.13
467.32	191.92
467.51	177.88
467.69	114.69
467.87	149.79
468.05	133.41
468.23	140.43
468.41	236.39
468.60	156.82
468.78	149.79
468.96	241.08
469.14	138.09
469.32	100.64
469.50	128.73
469.69	189.58
469.87	159.16
470.05	124.05
470.23	128.73
470.41	145.11
470.59	203.63
470.77	156.82
470.95	170.86
471.14	72.56
471.32	215.33
471.50	224.69
471.68	124.05
471.86	180.22
472.04	142.77
472.22	117.03
472.40	91.28
472.58	168.52
472.77	110.01
472.95	147.45
473.13	81.92
473.31	79.58
473.49	86.60
473.67	189.58
473.85	133.41
474.03	182.56
474.21	98.30
474.39	126.39
474.57	168.52
474.75	187.24
474.93	220.01
475.12	133.41
475.30	142.77
475.48	166.18
475.66	126.39
475.84	154.48
476.02	145.11
476.20	177.88
476.38	124.05
476.56	187.24
476.74	175.54
476.92	114.69
477.10	175.54
477.28	156.82
477.46	182.56
477.64	124.05
477.82	154.48
478.00	145.11
478.18	142.77
478.36	131.07
478.54	154.48
478.72	124.05
478.90	154.48
479.08	217.67
479.26	142.77
479.44	114.69
479.62	154.48
479.80	184.90
479.98	102.98
480.16	105.32
480.34	121.71
480.52	159.16
480.70	114.69
480.88	177.88
481.06	110.01
481.24	156.82
481.41	161.50
481.59	156.82
481.77	110.01
481.95	184.90
482.13	98.30
482.31	117.03
482.49	147.45
482.67	105.32
482.85	220.01
483.03	187.24
483.21	135.75
483.39	154.48
483.57	182.56
483.74	248.10
483.92	234.05
484.10	170.86
484.28	135.75
484.46	161.50
484.64	72.56
484.82	152.13
485.00	189.58
485.18	121.71
485.35	135.75
485.53	154.48
485.71	124.05
485.89	107.66
486.07	173.20
486.25	166.18
486.43	131.07
486.61	124.05
486.78	152.13
486.96	105.32
487.14	191.92
487.32	177.88
487.50	154.48
487.68	182.56
487.85	138.09
488.03	145.11
488.21	215.33
488.39	95.96
488.57	126.39
488.75	147.45
488.92	463.43
489.10	241.08
489.28	227.03
489.46	149.79
489.64	159.16
489.81	201.29
489.99	138.09
490.17	182.56
490.35	229.37
490.53	154.48
490.70	74.90
490.88	156.82
491.06	107.66
491.24	212.99
491.41	187.24
491.59	182.56
491.77	159.16
491.95	154.48
492.13	161.50
492.30	117.03
492.48	196.60
492.66	112.35
492.84	105.32
493.01	212.99
493.19	161.50
493.37	210.65
493.54	119.37
493.72	95.96
493.90	126.39
494.08	173.20
494.25	152.13
494.43	133.41
494.61	161.50
494.79	147.45
494.96	187.24
495.14	191.92
495.32	128.73
495.49	173.20
495.67	175.54
495.85	198.95
496.02	229.37
496.20	170.86
496.38	215.33
496.55	175.54
496.73	238.73
496.91	168.52
497.09	163.84
497.26	205.97
497.44	224.69
497.62	189.58
497.79	227.03
497.97	217.67
498.14	184.90
498.32	238.73
498.50	205.97
498.67	114.69
498.85	180.22
499.03	194.26
499.20	149.79
499.38	229.37
499.56	173.20
499.73	208.31
499.91	152.13
500.08	166.18
500.26	210.65
500.44	182.56
500.61	173.20
500.79	212.99
500.97	154.48
501.14	149.79
501.32	175.54
501.49	231.71
501.67	252.78
501.84	187.24
502.02	131.07
502.20	173.20
502.37	259.80
502.55	175.54
502.72	191.92
502.90	194.26
503.07	198.95
503.25	229.37
503.43	189.58
503.60	245.76
503.78	248.10
503.95	205.97
504.13	292.57
504.30	173.20
504.48	243.42
504.65	194.26
504.83	163.84
505.01	161.50
505.18	67.88
505.36	140.43
505.53	154.48
505.71	182.56
505.88	217.67
506.06	140.43
506.23	238.73
506.41	145.11
506.58	184.90
506.76	149.79
506.93	255.12
507.11	283.20
507.28	222.35
507.46	285.55
507.63	236.39
507.81	238.73
507.98	208.31
508.16	196.60
508.33	257.46
508.50	145.11
508.68	152.13
508.85	166.18
509.03	173.20
509.20	166.18
509.38	182.56
509.55	252.78
509.73	205.97
509.90	180.22
510.08	114.69
510.25	212.99
510.42	220.01
510.60	205.97
510.77	227.03
510.95	201.29
511.12	234.05
511.30	255.12
511.47	337.04
511.64	285.55
511.82	222.35
511.99	238.73
512.17	198.95
512.34	182.56
512.51	142.77
512.69	161.50
512.86	203.63
513.04	180.22
513.21	208.31
513.38	163.84
513.56	175.54
513.73	203.63
513.90	154.48
514.08	184.90
514.25	255.12
514.43	198.95
514.60	191.92
514.77	184.90
514.95	168.52
515.12	259.80
515.29	227.03
515.47	205.97
515.64	161.50
515.81	194.26
515.99	255.12
516.16	224.69
516.33	250.44
516.51	168.52
516.68	154.48
516.85	215.33
517.03	149.79
517.20	203.63
517.37	145.11
517.54	189.58
517.72	166.18
517.89	208.31
518.06	187.24
518.24	187.24
518.41	292.57
518.58	222.35
518.75	198.95
518.93	184.90
519.10	208.31
519.27	248.10
519.45	241.08
519.62	271.50
519.79	198.95
519.96	180.22
520.14	222.35
520.31	238.73
520.48	166.18
520.65	271.50
520.83	241.08
521.00	215.33
521.17	201.29
521.34	224.69
521.52	149.79
521.69	147.45
521.86	255.12
522.03	280.86
522.20	262.14
522.38	215.33
522.55	210.65
522.72	217.67
522.89	180.22
523.07	248.10
523.24	163.84
523.41	163.84
523.58	229.37
523.75	229.37
523.92	229.37
524.10	241.08
524.27	252.78
524.44	201.29
524.61	147.45
524.78	212.99
524.96	196.60
525.13	238.73
525.30	224.69
525.47	264.48
525.64	236.39
525.81	229.37
525.98	201.29
526.16	208.31
526.33	182.56
526.50	187.24
526.67	173.20
526.84	227.03
527.01	140.43
527.18	166.18
527.36	182.56
527.53	187.24
527.70	276.18
527.87	210.65
528.04	220.01
528.21	168.52
528.38	301.93
528.55	187.24
528.72	245.76
528.89	201.29
529.07	283.20
529.24	198.95
529.41	224.69
529.58	215.33
529.75	220.01
529.92	203.63
530.09	196.60
530.26	215.33
530.43	163.84
530.60	227.03
530.77	238.73
530.94	203.63
531.11	205.97
531.28	184.90
531.46	222.35
531.63	201.29
531.80	285.55
531.97	224.69
532.14	205.97
532.31	283.20
532.48	301.93
532.65	374.49
532.82	362.78
532.99	351.08
533.16	297.25
533.33	236.39
533.50	262.14
533.67	327.68
533.84	510.24
534.01	395.55
534.18	400.23
534.35	376.83
534.52	313.63
534.69	320.65
534.86	163.84
535.03	266.82
535.20	184.90
535.37	152.13
535.54	217.67
535.71	212.99
535.88	292.57
536.05	173.20
536.22	292.57
536.38	187.24
536.55	208.31
536.72	210.65
536.89	147.45
537.06	177.88
537.23	194.26
537.40	248.10
537.57	196.60
537.74	264.48
537.91	189.58
538.08	159.16
538.25	173.20
538.42	212.99
538.59	187.24
538.75	161.50
538.92	203.63
539.09	248.10
539.26	241.08
539.43	557.05
539.60	1303.68
539.77	2005.84
539.94	1987.11
540.11	1235.80
540.28	861.32
540.44	578.11
540.61	327.68
540.78	243.42
540.95	191.92
541.12	208.31
541.29	257.46
541.46	234.05
541.62	236.39
541.79	252.78
541.96	203.63
542.13	145.11
542.30	147.45
542.47	215.33
542.63	177.88
542.80	243.42
542.97	292.57
543.14	236.39
543.31	177.88
543.48	215.33
543.64	257.46
543.81	191.92
543.98	217.67
544.15	205.97
544.32	194.26
544.48	212.99
544.65	205.97
544.82	243.42
544.99	140.43
545.16	245.76
545.32	278.52
545.49	222.35
545.66	259.80
545.83	182.56
546.00	168.52
546.16	149.79
546.33	189.58
546.50	205.97
546.67	212.99
546.83	196.60
547.00	175.54
547.17	173.20
547.34	203.63
547.50	133.41
547.67	198.95
547.84	191.92
548.00	259.80
548.17	236.39
548.34	145.11
548.51	283.20
548.67	217.67
548.84	191.92
549.01	168.52
549.18	227.03
549.34	278.52
549.51	227.03
549.68	224.69
549.84	121.71
550.01	210.65
550.18	304.27
550.34	215.33
550.51	177.88
550.68	229.37
550.84	212.99
551.01	191.92
551.18	278.52
551.34	166.18
551.51	194.26
551.68	166.18
551.84	145.11
552.01	231.71
552.18	198.95
552.34	182.56
552.51	248.10
552.68	161.50
552.84	191.92
553.01	191.92
553.18	257.46
553.34	203.63
553.51	250.44
553.67	196.60
553.84	238.73
554.01	236.39
554.17	212.99
554.34	166.18
554.51	180.22
554.67	173.20
554.84	196.60
555.00	255.12
555.17	201.29
555.33	287.89
555.50	241.08
555.67	222.35
555.83	220.01
556.00	269.16
556.16	428.32
556.33	248.10
556.50	234.05
556.66	220.01
556.83	238.73
556.99	208.31
557.16	238.73
557.32	154.48
557.49	117.03
557.65	159.16
557.82	205.97
557.98	208.31
558.15	121.71
558.32	182.56
558.48	170.86
558.65	149.79
558.81	217.67
558.98	154.48
559.14	224.69
559.31	191.92
559.47	227.03
559.64	196.60
559.80	173.20
559.97	234.05
560.13	212.99
560.30	161.50
560.46	205.97
560.63	227.03
560.79	194.26
560.96	238.73
561.12	133.41
561.29	173.20
561.45	220.01
561.61	189.58
561.78	299.59
561.94	142.77
562.11	191.92
562.27	245.76
562.44	205.97
562.60	173.20
562.77	224.69
562.93	194.26
563.10	149.79
563.26	196.60
563.42	187.24
563.59	245.76
563.75	117.03
563.92	163.84
564.08	152.13
564.24	201.29
564.41	301.93
564.57	229.37
564.74	234.05
564.90	180.22
565.07	243.42
565.23	255.12
565.39	330.02
565.56	318.31
565.72	255.12
565.88	241.08
566.05	229.37
566.21	234.05
566.38	175.54
566.54	189.58
566.70	131.07
566.87	220.01
567.03	184.90
567.19	205.97
567.36	248.10
567.52	131.07
567.68	241.08
567.85	201.29
568.01	166.18
568.17	203.63
568.34	201.29
568.50	245.76
568.66	201.29
568.83	297.25
568.99	229.37
569.15	241.08
569.32	222.35
569.48	168.52
569.64	170.86
569.81	222.35
569.97	133.41
570.13	145.11
570.30	227.03
570.46	133.41
570.62	149.79
570.78	227.03
570.95	147.45
571.11	229.37
571.27	241.08
571.43	210.65
571.60	238.73
571.76	177.88
571.92	222.35
572.09	222.35
572.25	276.18
572.41	273.84
572.57	217.67
572.74	264.48
572.90	238.73
573.06	227.03
573.22	229.37
573.38	292.57
573.55	208.31
573.71	180.22
573.87	133.41
574.03	201.29
574.20	166.18
574.36	327.68
574.52	292.57
574.68	454.06
574.84	292.57
575.01	236.39
575.17	243.42
575.33	227.03
575.49	187.24
575.65	353.42
575.82	421.30
575.98	702.16
576.14	884.72
576.30	915.15
576.46	671.73
576.62	493.85
576.79	369.80
576.95	330.02
577.11	308.95
577.27	255.12
577.43	290.23
577.59	252.78
577.75	201.29
577.92	299.59
578.08	220.01
578.24	241.08
578.40	290.23
578.56	327.68
578.72	292.57
578.88	266.82
579.04	215.33
579.21	285.55
579.37	238.73
579.53	297.25
579.69	301.93
579.85	327.68
580.01	435.34
580.17	393.21
580.33	337.04
580.49	379.17
580.65	400.23
580.82	332.36
580.98	381.51
581.14	388.53
581.30	351.08
581.46	503.22
581.62	706.84
581.78	685.78
581.94	746.63
582.10	517.26
582.26	526.62
582.42	428.32
582.58	468.11
582.74	416.62
582.90	484.49
583.06	442.36
583.22	491.51
583.38	493.85
583.54	514.92
583.70	704.50
583.86	807.48
584.02	870.68
584.18	1207.72
584.34	1675.82
584.50	4379.14
584.66	34162.46
584.82	65256.48
584.98	65535.00
585.14	65535.00
585.30	63772.58
585.46	42389.44
585.62	26122.72
585.78	11634.80
585.94	4463.40
586.10	2209.47
586.26	1460.49
586.42	1039.20
586.58	842.59
586.74	716.20
586.90	753.65
587.06	828.55
587.22	594.50
587.38	641.31
587.54	1474.54
587.70	4755.97
587.86	8114.64
588.02	9001.70
588.18	6408.39
588.34	3878.27
588.49	2626.08
588.65	1582.20
588.81	870.68
588.97	440.02
589.13	325.33
589.29	393.21
589.45	390.87
589.61	269.16
589.77	458.74
589.93	486.83
590.08	454.06
590.24	449.38
590.40	472.79
590.56	421.30
590.72	395.55
590.88	374.49
591.04	407.25
591.20	404.91
591.35	423.64
591.51	393.21
591.67	397.89
591.83	276.18
591.99	362.78
592.15	306.61
592.31	224.69
592.46	278.52
592.62	308.95
592.78	264.48
592.94	257.46
593.10	301.93
593.26	383.85
593.41	337.04
593.57	372.15
593.73	676.41
593.89	4004.66
594.05	10455.17
594.20	15573.92
594.36	14857.72
594.52	9493.21
594.68	5844.32
594.84	3873.59
594.99	2083.08
595.15	919.83
595.31	561.73
595.47	386.19
595.62	325.33
595.78	372.15
595.94	294.91
596.10	379.17
596.25	393.21
596.41	423.64
596.57	379.17
596.73	334.70
596.88	641.31
597.04	1877.11
597.20	3138.66
597.36	3702.73
597.51	2782.90
597.67	1844.34
597.83	1203.04
597.99	840.25
598.14	482.15
598.30	418.96
598.46	306.61
598.61	337.04
598.77	369.80
598.93	313.63
599.09	271.50
599.24	308.95
599.40	248.10
599.56	201.29
599.71	187.24
599.87	198.95
600.03	227.03
600.18	196.60
600.34	241.08
600.50	177.88
600.65	222.35
600.81	264.48
600.97	205.97
601.12	147.45
601.28	220.01
601.44	278.52
601.59	269.16
601.75	308.95
601.91	215.33
602.06	196.60
602.22	393.21
602.37	936.21
602.53	2511.39
602.69	3641.87
602.84	3936.78
603.00	2761.83
603.16	1799.87
603.31	1352.83
603.47	791.10
603.62	411.93
603.78	327.68
603.94	215.33
604.09	276.18
604.25	297.25
604.40	191.92
604.56	201.29
604.71	301.93
604.87	245.76
605.03	269.16
605.18	264.48
605.34	344.06
605.49	234.05
605.65	348.74
605.80	259.80
605.96	205.97
606.12	376.83
606.27	348.74
606.43	351.08
606.58	440.02
606.74	1057.92
606.89	4762.99
607.05	10296.02
607.20	13046.15
607.36	10679.86
607.51	7222.89
607.67	4542.98
607.82	3176.11
607.98	1666.46
608.13	856.64
608.29	587.47
608.44	482.15
608.60	491.51
608.75	617.90
608.91	1483.90
609.06	7606.74
609.22	16989.95
609.37	23002.78
609.53	19798.59
609.68	13074.23
609.84	8472.74
609.99	5556.43
610.15	3016.95
610.30	1252.19
610.46	755.99
610.61	557.05
610.76	388.53
610.92	318.31
611.07	313.63
611.23	484.49
611.38	376.83
611.54	224.69
611.69	285.55
611.84	400.23
