SpectraSuite Data File
++++++++++++++++++++++++++++++++++++
Date: Fri Oct 04 11:48:32 GMT-05:00 2013
User: price-jones
Dark Spectrum Present: No
Reference Spectrum Present: No
Number of Sampled Component Spectra: 1
Spectrometers: USB2+H05261
Integration Time (usec): 100000 (USB2+H05261)
Spectra Averaged: 1 (USB2+H05261)
Boxcar Smoothing: 0 (USB2+H05261)
Correct for Electrical Dark: No (USB2+H05261)
Strobe/Lamp Enabled: No (USB2+H05261)
Correct for Detector Non-linearity: No (USB2+H05261)
Correct for Stray Light: No (USB2+H05261)
Number of Pixels in Processed Spectrum: 2048
>>>>>Begin Processed Spectral Data<<<<<
365.73	11.70
365.92	11.70
366.12	11.70
366.32	0.00
366.52	0.00
366.72	0.00
366.91	0.00
367.11	0.00
367.31	0.00
367.51	0.00
367.70	0.00
367.90	0.00
368.10	0.00
368.30	0.00
368.49	0.00
368.69	0.00
368.89	0.00
369.09	0.00
369.28	0.00
369.48	14.04
369.68	0.00
369.87	0.00
370.07	2.34
370.27	21.06
370.47	70.22
370.66	315.97
370.86	330.02
371.06	505.56
371.25	479.81
371.45	435.34
371.65	465.77
371.84	491.51
372.04	397.89
372.24	463.43
372.44	507.90
372.63	517.26
372.83	606.20
373.03	521.94
373.22	482.15
373.42	500.87
373.62	603.86
373.81	631.94
374.01	580.45
374.21	669.39
374.40	566.41
374.60	711.52
374.79	617.90
374.99	580.45
375.19	503.22
375.38	608.54
375.58	608.54
375.78	718.54
375.97	648.33
376.17	662.37
376.37	669.39
376.56	671.73
376.76	592.16
376.95	645.99
377.15	557.05
377.35	627.26
377.54	711.52
377.74	638.97
377.93	648.33
378.13	631.94
378.33	683.44
378.52	690.46
378.72	763.01
378.91	781.74
379.11	674.07
379.31	746.63
379.50	692.80
379.70	744.29
379.89	821.53
380.09	788.76
380.28	732.59
380.48	671.73
380.68	711.52
380.87	711.52
381.07	690.46
381.26	788.76
381.46	772.38
381.65	781.74
381.85	779.40
382.04	779.40
382.24	842.59
382.43	828.55
382.63	800.46
382.83	809.83
383.02	800.46
383.22	910.47
383.41	816.85
383.61	964.30
383.80	908.13
384.00	828.55
384.19	882.38
384.39	835.57
384.58	929.19
384.78	863.66
384.97	856.64
385.17	1006.43
385.36	983.02
385.56	926.85
385.75	833.23
385.95	891.74
386.14	980.68
386.34	971.32
386.53	922.17
386.72	954.94
386.92	994.73
387.11	1027.50
387.31	1039.20
387.50	987.71
387.70	1034.52
387.89	964.30
388.09	966.64
388.28	1036.86
388.48	1090.69
388.67	1060.26
388.86	1142.18
389.06	1203.04
389.25	1064.94
389.45	1104.73
389.64	1043.88
389.84	1149.20
390.03	1228.78
390.22	1172.61
390.42	1114.10
390.61	1184.31
390.81	1158.57
391.00	1165.59
391.19	1172.61
391.39	1217.08
391.58	1181.97
391.78	1151.54
391.97	1219.42
392.16	1221.76
392.36	1235.80
392.55	1275.59
392.75	1294.32
392.94	1294.32
393.13	1289.64
393.33	1268.57
393.52	1268.57
393.71	1273.25
393.91	1392.62
394.10	1291.98
394.29	1373.89
394.49	1275.59
394.68	1362.19
394.88	1299.00
395.07	1453.47
395.26	1373.89
395.46	1432.41
395.65	1439.43
395.84	1446.45
396.04	1507.30
396.23	1465.18
396.42	1504.96
396.62	1467.52
396.81	1486.24
397.00	1579.86
397.19	1558.80
397.39	1570.50
397.58	1603.27
397.77	1612.63
397.97	1556.46
398.16	1629.01
398.35	1664.12
398.55	1572.84
398.74	1626.67
398.93	1774.13
399.12	1561.14
399.32	1542.41
399.51	1741.36
399.70	1769.44
399.90	1675.82
400.09	1741.36
400.28	1710.93
400.47	1816.26
400.67	1825.62
400.86	1781.15
401.05	1816.26
401.24	1729.66
401.44	1858.39
401.63	1769.44
401.82	1963.71
402.01	1842.00
402.21	1853.70
402.40	1961.37
402.59	1921.58
402.78	1851.36
402.97	1998.82
403.17	1902.86
403.36	1968.39
403.55	2015.20
403.74	1982.43
403.93	2001.16
404.13	2120.53
404.32	2036.27
404.51	2136.91
404.70	2097.12
404.89	2106.48
405.09	2214.15
405.28	2165.00
405.47	2101.80
405.66	2263.30
405.85	2129.89
406.05	2223.51
406.24	2286.70
406.43	2328.83
406.62	2300.75
406.81	2310.11
407.00	2258.62
407.20	2232.87
407.39	2275.00
407.58	2349.90
407.77	2363.94
407.96	2495.01
408.15	2443.52
408.34	2445.86
408.54	2609.70
408.73	2345.22
408.92	2471.61
409.11	2527.78
409.30	2490.33
409.49	2499.69
409.68	2658.85
409.87	2628.42
410.07	2640.12
410.26	2560.55
410.45	2668.21
410.64	2567.57
410.83	2747.79
411.02	2834.39
411.21	2881.20
411.40	2787.58
411.59	2820.35
411.78	2806.30
411.98	2813.32
412.17	2722.04
412.36	2913.97
412.55	2808.64
412.74	2993.55
412.93	2993.55
413.12	2960.78
413.31	3103.55
413.50	3136.32
413.69	2981.84
413.88	3152.70
414.07	3187.81
414.26	3145.68
414.45	3251.00
414.64	3286.11
414.83	3330.58
415.02	3379.73
415.22	3283.77
415.41	3393.78
415.60	3428.88
415.79	3351.65
415.98	3510.80
416.17	3515.48
416.36	3623.15
416.55	3482.72
416.74	3581.02
416.93	3543.57
417.12	3637.19
417.31	3583.36
417.50	3595.06
417.69	3864.22
417.88	3899.33
418.07	3840.82
418.26	3712.09
418.45	3873.59
418.64	4100.62
418.83	3887.63
419.02	3950.82
419.21	3847.84
419.39	4002.32
419.58	3976.57
419.77	3838.48
419.96	3908.69
420.15	4259.78
420.34	4060.83
420.53	4030.40
420.72	4243.39
420.91	4117.00
421.10	4294.88
421.29	4346.37
421.48	4018.70
421.67	4428.29
421.86	4259.78
422.05	4348.72
422.24	4311.27
422.43	4255.09
422.61	4243.39
422.80	4440.00
422.99	4531.28
423.18	4498.51
423.37	4444.68
423.56	4327.65
423.75	4346.37
423.94	4381.48
424.13	4098.28
424.32	4245.73
424.50	4440.00
424.69	4491.49
424.88	4477.44
425.07	4524.26
425.26	4477.44
425.45	4425.95
425.64	4470.42
425.83	4428.29
426.01	4526.60
426.20	4470.42
426.39	4470.42
426.58	4510.21
426.77	4510.21
426.96	4512.55
427.15	4594.47
427.33	4617.88
427.52	4620.22
427.71	4589.79
427.90	4669.37
428.09	4500.85
428.28	4692.77
428.46	4922.15
428.65	4681.07
428.84	4901.08
429.03	4791.08
429.22	4765.33
429.40	4919.81
429.59	4922.15
429.78	4713.84
429.97	4819.16
430.16	4805.12
430.34	4966.62
430.53	5158.54
430.72	5170.24
430.91	5149.18
431.10	4947.89
431.28	4947.89
431.47	5102.37
431.66	5334.08
431.85	5195.99
432.03	5111.73
432.22	5252.16
432.41	5296.63
432.60	5350.46
432.79	5256.84
432.97	5315.36
433.16	5252.16
433.35	5231.10
433.54	5568.13
433.72	5329.40
433.91	5380.89
434.10	5507.28
434.28	5481.53
434.47	5465.15
434.66	5589.20
434.85	5610.26
435.03	5528.35
435.22	5638.35
435.41	5769.42
435.59	5640.69
435.78	5692.18
435.97	5757.72
436.16	5804.53
436.34	5600.90
436.53	5783.46
436.72	5954.32
436.90	5771.76
437.09	5944.96
437.28	5853.68
437.46	6022.20
437.65	5987.09
437.84	6092.41
438.02	6045.60
438.21	6024.54
438.40	5956.66
438.58	6228.17
438.77	6394.34
438.96	6106.46
439.14	6282.00
439.33	6399.02
439.52	6417.75
439.70	6600.31
439.89	6527.75
440.08	6487.96
440.26	6452.86
440.45	6541.80
440.63	6794.58
440.82	6729.04
441.01	6626.06
441.19	6829.68
441.38	6906.92
441.57	6946.71
441.75	6949.05
441.94	7138.63
442.12	6998.20
442.31	7342.26
442.50	7180.76
442.68	7117.57
442.87	7140.97
443.05	7185.44
443.24	7262.68
443.43	7178.42
443.61	7227.57
443.80	7557.59
443.98	7115.23
444.17	7087.14
444.35	7592.70
444.54	7454.61
444.73	7339.92
444.91	7478.01
445.10	7545.89
445.28	7503.76
445.47	7307.15
445.65	7632.49
445.84	7803.35
446.02	7754.19
446.21	7667.60
446.39	7410.14
446.58	7686.32
446.77	7581.00
446.95	7648.87
447.14	7564.61
447.32	7751.85
447.51	7506.10
447.69	7559.93
447.88	7693.34
448.06	7637.17
448.25	7721.43
448.43	7756.54
448.62	7658.23
448.80	7686.32
448.99	7531.84
449.17	7653.55
449.36	7719.09
449.54	8060.80
449.73	8060.80
449.91	8100.59
450.10	8025.70
450.28	7985.91
450.46	7962.50
450.65	8091.23
450.83	8154.43
451.02	8131.02
451.20	8238.69
451.39	8231.66
451.57	8358.05
451.76	8124.00
451.94	8198.90
452.13	8535.93
452.31	8353.37
452.49	8346.35
452.68	8521.89
452.86	8372.10
453.05	8564.02
453.23	8601.47
453.42	8271.45
453.60	8439.97
453.78	8564.02
453.97	8561.68
454.15	8531.25
454.34	8425.93
454.52	8603.81
454.70	8767.65
454.89	8851.91
455.07	8844.88
455.26	8732.54
455.44	8936.17
455.62	8681.05
455.81	8641.26
455.99	8950.21
456.17	8805.10
456.36	9055.53
456.54	9270.86
456.73	9275.54
456.91	9366.82
457.09	9371.50
457.28	9582.15
457.46	9366.82
457.64	9394.91
457.83	9483.85
458.01	9336.40
458.19	9795.14
458.38	9446.40
458.56	9558.75
458.74	9465.13
458.93	9458.10
459.11	9703.86
459.29	9455.76
459.48	9689.82
459.66	9734.29
459.84	9916.85
460.03	10022.17
460.21	9830.25
460.39	9783.44
460.57	9909.83
460.76	9951.96
460.94	10040.90
461.12	10031.54
461.31	10167.29
461.49	10106.43
461.67	10012.81
461.85	10204.74
462.04	10298.36
462.22	10740.72
462.40	10312.40
462.59	10576.88
462.77	10340.49
462.95	10462.19
463.13	10377.94
463.32	10410.70
463.50	10551.14
463.68	10630.71
463.86	10534.75
464.05	10600.29
464.23	10476.24
464.41	10670.50
464.59	10581.56
464.78	10691.57
464.96	10607.31
465.14	10684.55
465.32	10923.28
465.50	10843.70
465.69	10923.28
465.87	10714.97
466.05	10754.76
466.23	10911.58
466.41	11154.99
466.60	11403.09
466.78	10981.79
466.96	10993.50
467.14	10958.39
467.32	11257.98
467.51	11421.81
467.69	10883.49
467.87	11283.72
468.05	11506.07
468.23	11094.14
468.41	11517.78
468.60	11286.06
468.78	11466.28
468.96	11276.70
469.14	11431.18
469.32	11634.80
469.50	11225.21
469.69	11625.44
469.87	11913.33
470.05	11995.25
470.23	12058.44
470.41	11775.24
470.59	11819.71
470.77	12058.44
470.95	12226.96
471.14	12100.57
471.32	11840.77
471.50	12360.37
471.68	12280.79
471.86	12397.82
472.04	12409.52
472.22	12842.52
472.40	12381.43
472.58	12706.77
472.77	12568.68
472.95	13018.06
473.13	13018.06
473.31	12713.79
473.49	12659.96
473.67	12772.30
473.85	13050.83
474.03	13008.70
474.21	13137.43
474.39	13312.97
474.57	13327.01
474.75	13177.22
474.93	13411.27
475.12	13532.98
475.30	13661.71
475.48	13336.37
475.66	13713.20
475.84	13575.11
476.02	13987.04
476.20	13729.58
476.38	14160.24
476.56	14417.70
476.74	14534.73
476.92	14380.25
477.10	14630.69
477.28	14431.74
477.46	14581.54
477.64	14710.27
477.82	14885.81
478.00	15384.34
478.18	15300.08
478.36	15461.58
478.54	15499.03
478.72	15414.77
478.90	15639.46
479.08	15943.73
479.26	15969.48
479.44	16053.73
479.62	16355.66
479.80	16397.79
479.98	16215.23
480.16	16938.46
480.34	16713.77
480.52	17132.72
480.70	17003.99
480.88	16807.39
481.06	17020.38
481.24	17326.99
481.41	17216.98
481.59	17514.23
481.77	17603.17
481.95	17792.75
482.13	17682.75
482.31	17933.18
482.49	18153.20
482.67	18380.23
482.85	18101.70
483.03	18766.42
483.21	18934.93
483.39	19080.05
483.57	18934.93
483.74	19122.18
483.92	19269.63
484.10	19318.78
484.28	19934.34
484.46	19983.49
484.64	20357.98
484.82	19719.01
485.00	20355.64
485.18	20697.36
485.35	20828.43
485.53	20919.71
485.71	21355.05
485.89	20950.14
486.07	21245.04
486.25	21259.09
486.43	21460.37
486.61	21783.37
486.78	21905.07
486.96	22038.48
487.14	22483.19
487.32	22532.34
487.50	22803.84
487.68	22644.68
487.85	23199.39
488.03	23234.50
488.21	23562.17
488.39	23370.25
488.57	23793.89
488.75	23950.70
488.92	24144.97
489.10	24058.37
489.28	24720.74
489.46	24669.25
489.64	24713.72
489.81	24926.71
489.99	25050.75
490.17	25401.83
490.35	25902.71
490.53	25659.29
490.70	25692.06
490.88	25736.53
491.06	26019.74
491.24	26204.64
491.41	26525.29
491.59	26405.92
491.77	27309.37
491.95	26913.82
492.13	26974.67
492.30	27164.26
492.48	27414.69
492.66	27592.58
492.84	27662.79
493.01	27960.04
493.19	27901.53
493.37	28315.80
493.54	28386.02
493.72	28465.60
493.90	28655.18
494.08	28594.32
494.25	29495.43
494.43	29411.17
494.61	29762.25
494.79	29584.37
494.96	29263.72
495.14	29942.47
495.32	30476.12
495.49	30408.24
495.67	30616.55
495.85	30946.56
496.02	30852.94
496.20	31328.07
496.38	31002.74
496.55	31058.91
496.73	31866.39
496.91	31349.14
497.09	31761.07
497.26	32002.14
497.44	31735.32
497.62	32100.45
497.79	32830.69
497.97	32149.60
498.14	33024.96
498.32	33270.72
498.50	32868.14
498.67	33764.57
498.85	32938.36
499.03	33069.43
499.20	33659.24
499.38	33944.79
499.56	33935.43
499.73	33879.25
499.91	34352.04
500.08	34548.65
500.26	34162.46
500.44	34302.89
500.61	34569.71
500.79	34799.08
500.97	34974.63
501.14	35695.51
501.32	35395.92
501.49	34852.92
501.67	35367.84
501.84	35475.50
502.02	35711.89
502.20	35854.67
502.37	36346.18
502.55	36055.95
502.72	36172.98
502.90	36390.65
503.07	36325.11
503.25	36528.74
503.43	36297.03
503.60	36875.14
503.78	36758.11
503.95	36631.72
504.13	37092.81
504.30	36957.06
504.48	37345.59
504.65	37357.29
504.83	37542.19
505.01	37954.13
505.18	37827.74
505.36	38066.47
505.53	37766.88
505.71	38225.63
505.88	38455.00
506.06	37874.55
506.23	38717.14
506.41	38447.98
506.58	38656.29
506.76	39122.05
506.93	38768.63
507.11	38518.20
507.28	38515.86
507.46	38925.45
507.63	39145.46
507.81	39768.04
507.98	39643.99
508.16	39484.84
508.33	39620.59
508.50	40102.74
508.68	39955.29
508.85	40598.93
509.03	40217.43
509.20	40624.68
509.38	40486.59
509.55	41024.91
509.73	40952.35
509.90	40804.90
510.08	41160.66
510.25	41258.96
510.42	41064.70
510.60	41326.84
510.77	41876.86
510.95	41827.71
511.12	41813.67
511.30	41504.72
511.47	41848.78
511.64	41808.99
511.82	42452.64
511.99	41701.32
512.17	42403.49
512.34	42174.11
512.51	42295.82
512.69	42604.77
512.86	42726.48
513.04	43318.64
513.21	43100.97
513.38	43173.52
513.56	43056.50
513.73	43236.72
513.90	43419.28
514.08	43686.10
514.25	43402.89
514.43	43508.22
514.60	44357.83
514.77	44236.12
514.95	44032.50
515.12	43695.46
515.29	44006.75
515.47	44196.34
515.64	44753.38
515.81	44369.54
515.99	44414.01
516.16	44989.78
516.33	44531.03
516.51	45265.96
516.68	44566.14
516.85	44847.00
517.03	45158.30
517.20	45729.39
517.37	45497.67
517.54	45361.92
517.72	46096.85
517.89	45181.70
518.06	45645.13
518.24	45563.21
518.41	45771.52
518.58	45855.78
518.75	45860.46
518.93	46223.24
519.10	46391.76
519.27	46335.59
519.45	46108.55
519.62	46384.74
519.79	46611.77
519.96	47063.49
520.14	47339.68
520.31	46679.64
520.48	46958.17
520.65	46899.65
520.83	47175.84
521.00	46817.74
521.17	46902.00
521.34	47646.29
521.52	47449.68
521.69	47824.17
521.86	47613.52
522.03	47870.98
522.20	47962.26
522.38	48055.88
522.55	47922.47
522.72	47824.17
522.89	48142.48
523.07	48411.64
523.24	48385.89
523.41	48650.38
523.58	47910.77
523.75	48463.13
523.92	48341.42
524.10	48669.10
524.27	48823.58
524.44	48617.61
524.61	49198.06
524.78	49233.17
524.96	48872.73
525.13	49193.38
525.30	49104.44
525.47	49394.67
525.64	49240.19
525.81	49588.93
525.98	49542.12
526.16	49240.19
526.33	49441.48
526.50	50014.91
526.67	49284.66
526.84	49572.55
527.01	49631.06
527.18	49691.91
527.36	50288.75
527.53	50223.22
527.70	50529.83
527.87	50368.33
528.04	50017.25
528.21	50103.85
528.38	50377.69
528.55	50440.89
528.72	50337.90
528.89	50506.42
529.07	50578.98
529.24	50351.94
529.41	50628.13
529.58	50543.87
529.75	50248.96
529.92	50445.57
530.09	51114.96
530.26	50681.96
530.43	50937.08
530.60	50827.07
530.77	51133.68
530.94	51327.95
531.11	50969.85
531.28	51061.13
531.46	51264.75
531.63	51306.88
531.80	51503.49
531.97	51789.03
532.14	51477.74
532.31	51618.17
532.48	51505.83
532.65	51547.96
532.82	51796.06
532.99	51749.24
533.16	51522.21
533.33	52105.01
533.50	52186.92
533.67	52224.37
533.84	52119.05
534.01	51980.96
534.18	51758.61
534.35	52327.36
534.52	51999.68
534.69	52479.49
534.86	52278.21
535.03	52296.93
535.20	52231.40
535.37	52383.53
535.54	52619.92
535.71	52292.25
535.88	52704.18
536.05	52605.88
536.22	53017.82
536.38	52584.82
536.55	52638.65
536.72	53071.65
536.89	53008.45
537.06	53003.77
537.23	52828.23
537.40	52676.10
537.57	53008.45
537.74	52921.85
537.91	53312.72
538.08	53305.70
538.25	52973.34
538.42	53092.71
538.59	53338.47
538.75	53006.11
538.92	53176.97
539.09	53265.91
539.26	53425.07
539.43	53755.08
539.60	53471.88
539.77	53743.38
539.94	53741.04
540.11	53642.74
540.28	53525.71
540.44	53490.60
540.61	53722.32
540.78	53897.86
540.95	54021.90
541.12	53785.51
541.29	54014.88
541.46	53748.06
541.62	53991.48
541.79	53916.58
541.96	53537.41
542.13	53663.80
542.30	54115.53
542.47	54246.60
542.63	54396.39
542.80	54209.15
542.97	54405.75
543.14	54309.79
543.31	54585.97
543.48	54440.86
543.64	54752.15
543.81	54639.81
543.98	54906.63
544.15	54768.54
544.32	54773.22
544.48	54955.78
544.65	54780.24
544.82	54770.88
544.99	54965.14
545.16	54857.48
545.32	55278.77
545.49	54691.30
545.66	55297.50
545.83	55285.79
546.00	55318.56
546.16	55140.68
546.33	54593.00
546.50	54885.56
546.67	55253.03
546.83	55021.31
547.00	54878.54
547.17	55271.75
547.34	55311.54
547.50	55444.95
547.67	55573.68
547.84	55320.90
548.00	55690.71
548.17	55669.64
548.34	55386.44
548.51	55852.20
548.67	55891.99
548.84	55704.75
549.01	55744.54
549.18	55428.57
549.34	55395.80
549.51	55880.29
549.68	55690.71
549.84	55487.08
550.01	55901.36
550.18	55653.26
550.34	55831.14
550.51	55821.78
550.68	56121.37
550.84	55646.24
551.01	55959.87
551.18	55889.65
551.34	55959.87
551.51	55920.08
551.68	55861.57
551.84	56364.78
552.01	55994.98
552.18	56292.22
552.34	56264.14
552.51	56355.42
552.68	56114.34
552.84	56037.11
553.01	56308.61
553.18	56226.69
553.34	56442.02
553.51	56528.62
553.67	56392.87
553.84	56519.26
554.01	56683.09
554.17	56378.82
554.34	56647.99
554.51	56247.75
554.67	56643.30
554.84	56411.59
555.00	56271.16
555.17	56638.62
555.33	56467.76
555.50	56252.44
555.67	56619.90
555.83	56741.61
556.00	56706.50
556.16	56835.23
556.33	56647.99
556.50	56830.55
556.66	56994.39
556.83	56732.25
556.99	57080.98
557.16	57207.37
557.32	56856.29
557.49	56891.40
557.65	56835.23
557.82	56647.99
557.98	56753.31
558.15	57017.79
558.32	56982.68
558.48	57139.50
558.65	56949.92
558.81	56992.04
558.98	57043.54
559.14	56952.26
559.31	57132.48
559.47	57235.46
559.64	57158.22
559.80	57249.50
559.97	57436.75
560.13	57331.42
560.30	57336.10
560.46	57216.74
560.63	57485.90
560.79	57303.34
560.96	57453.13
561.12	57272.91
561.29	57141.84
561.45	57570.16
561.61	57549.09
561.78	57429.72
561.94	57457.81
562.11	57476.54
562.27	57425.04
562.44	57574.84
562.60	57254.18
562.77	57495.26
562.93	57476.54
563.10	57696.55
563.26	57532.71
563.42	57701.23
563.59	57626.33
563.75	57661.44
563.92	57703.57
564.08	57509.30
564.24	57528.03
564.41	57504.62
564.57	57497.60
564.74	57645.05
564.90	57717.61
565.07	57848.68
565.23	57902.51
565.39	57923.58
565.56	57691.86
565.72	57286.95
565.88	57556.11
566.05	57769.10
566.21	57778.46
566.38	57661.44
566.54	57932.94
566.70	58040.60
566.87	57902.51
567.03	57881.45
567.19	58305.09
567.36	57930.60
567.52	57757.40
567.68	57792.51
567.85	57513.98
568.01	57801.87
568.17	57890.81
568.34	57778.46
568.50	58017.20
568.66	58246.57
568.83	57902.51
568.99	57829.96
569.15	57879.11
569.32	57984.43
569.48	58033.58
569.64	57921.24
569.81	57954.00
569.97	58323.81
570.13	58045.29
570.30	57930.60
570.46	57923.58
570.62	57942.30
570.78	58120.18
570.95	57867.40
571.11	57958.69
571.27	57818.25
571.43	58171.67
571.60	58117.84
571.76	58314.45
571.92	58246.57
572.09	58136.57
572.25	58141.25
572.41	57890.81
572.57	57923.58
572.74	58159.97
572.90	57923.58
573.06	58092.10
573.22	57977.41
573.38	58129.54
573.55	58127.20
573.71	58384.66
573.87	58379.98
574.03	58152.95
574.20	58162.31
574.36	58258.27
574.52	58152.95
574.68	57939.96
574.84	58309.77
575.01	58454.88
575.17	58344.87
575.33	58269.98
575.49	58401.05
575.65	58429.13
575.82	58403.39
575.98	58129.54
576.14	58578.93
576.30	58494.67
576.46	57935.28
576.62	58312.11
576.79	58101.46
576.95	58068.69
577.11	58445.52
577.27	58319.13
577.43	58377.64
577.59	58319.13
577.75	58546.16
577.92	58251.25
578.08	58314.45
578.24	58337.85
578.40	58291.04
578.56	58356.58
578.72	58471.26
578.88	58684.25
579.04	58539.14
579.21	58363.60
579.37	58480.63
579.53	58452.54
579.69	58183.38
579.85	58494.67
580.01	58358.92
580.17	58159.97
580.33	58518.07
580.49	58480.63
580.65	58656.17
580.82	58597.65
580.98	58454.88
581.14	58543.82
581.30	58433.81
581.46	58300.40
581.62	58279.34
581.78	58188.06
581.94	58384.66
582.10	58541.48
582.26	58482.97
582.42	58274.66
582.58	58710.00
582.74	58770.85
582.90	58609.35
583.06	58578.93
583.22	58487.65
583.38	58461.90
583.54	58410.41
583.70	58585.95
583.86	58382.32
584.02	58508.71
584.18	58571.91
584.34	58546.16
584.50	58817.66
584.66	58607.01
584.82	58534.46
584.98	58527.44
585.14	58550.84
585.30	58370.62
585.46	58506.37
585.62	58246.57
585.78	58288.70
585.94	58323.81
586.10	58553.18
586.26	58642.12
586.42	58618.72
586.58	58747.45
586.74	58492.33
586.90	58471.26
587.06	58504.03
587.22	58632.76
587.38	58436.16
587.54	58803.62
587.70	58749.79
587.86	58611.70
588.02	58628.08
588.18	58864.47
588.34	58761.49
588.49	58693.61
588.65	58604.67
588.81	58754.47
588.97	58635.10
589.13	58511.05
589.29	58651.48
589.45	58728.72
