SpectraSuite Data File
++++++++++++++++++++++++++++++++++++
Date: Fri Oct 04 11:48:41 GMT-05:00 2013
User: price-jones
Dark Spectrum Present: No
Reference Spectrum Present: No
Number of Sampled Component Spectra: 1
Spectrometers: USB2+H05261
Integration Time (usec): 100000 (USB2+H05261)
Spectra Averaged: 1 (USB2+H05261)
Boxcar Smoothing: 0 (USB2+H05261)
Correct for Electrical Dark: No (USB2+H05261)
Strobe/Lamp Enabled: No (USB2+H05261)
Correct for Detector Non-linearity: No (USB2+H05261)
Correct for Stray Light: No (USB2+H05261)
Number of Pixels in Processed Spectrum: 2048
>>>>>Begin Processed Spectral Data<<<<<
365.73	0.00
365.92	0.00
366.12	0.00
366.32	0.00
366.52	0.00
366.72	11.70
366.91	0.00
367.11	0.00
367.31	0.00
367.51	0.00
367.70	0.00
367.90	0.00
368.10	0.00
368.30	0.00
368.49	0.00
368.69	0.00
368.89	0.00
369.09	0.00
369.28	0.00
369.48	0.00
369.68	0.00
369.87	0.00
370.07	25.75
370.27	21.06
370.47	102.98
370.66	339.38
370.86	444.70
371.06	479.81
371.25	587.47
371.45	472.79
371.65	557.05
371.84	444.70
372.04	566.41
372.24	489.17
372.44	550.03
372.63	543.00
372.83	578.11
373.03	547.69
373.22	521.94
373.42	589.82
373.62	627.26
373.81	617.90
374.01	613.22
374.21	575.77
374.40	648.33
374.60	638.97
374.79	596.84
374.99	592.16
375.19	763.01
375.38	674.07
375.58	674.07
375.78	704.50
375.97	664.71
376.17	709.18
376.37	662.37
376.56	655.35
376.76	709.18
376.95	627.26
377.15	744.29
377.35	688.12
377.54	704.50
377.74	716.20
377.93	709.18
378.13	746.63
378.33	725.57
378.52	718.54
378.72	716.20
378.91	758.33
379.11	741.95
379.31	793.44
379.50	795.78
379.70	779.40
379.89	833.23
380.09	781.74
380.28	763.01
380.48	795.78
380.68	704.50
380.87	840.25
381.07	800.46
381.26	828.55
381.46	847.27
381.65	919.83
381.85	889.40
382.04	880.04
382.24	880.04
382.43	786.42
382.63	858.98
382.83	952.60
383.02	887.06
383.22	929.19
383.41	868.34
383.61	903.45
383.80	880.04
384.00	917.49
384.19	1025.15
384.39	964.30
384.58	950.26
384.78	922.17
384.97	954.94
385.17	1022.81
385.36	952.60
385.56	1032.18
385.75	1008.77
385.95	1006.43
386.14	964.30
386.34	1107.07
386.53	1137.50
386.72	1076.65
386.92	1114.10
387.11	1004.09
387.31	1046.22
387.50	1139.84
387.70	1008.77
387.89	1076.65
388.09	1057.92
388.28	1172.61
388.48	1121.12
388.67	1130.48
388.86	1205.38
389.06	1132.82
389.25	1104.73
389.45	1109.41
389.64	1181.97
389.84	1214.74
390.03	1263.89
390.22	1226.44
390.42	1121.12
390.61	1245.16
390.81	1275.59
391.00	1196.01
391.19	1254.53
391.39	1287.29
391.58	1306.02
391.78	1275.59
391.97	1303.68
392.16	1235.80
392.36	1282.61
392.55	1401.98
392.75	1352.83
392.94	1364.53
393.13	1355.17
393.33	1247.51
393.52	1275.59
393.71	1432.41
393.91	1371.55
394.10	1418.36
394.29	1385.60
394.49	1460.49
394.68	1486.24
394.88	1411.34
395.07	1439.43
395.26	1523.69
395.46	1500.28
395.65	1547.09
395.84	1612.63
396.04	1638.38
396.23	1591.56
396.42	1521.35
396.62	1507.30
396.81	1549.43
397.00	1507.30
397.19	1544.75
397.39	1607.95
397.58	1666.46
397.77	1614.97
397.97	1685.19
398.16	1638.38
398.35	1694.55
398.55	1687.53
398.74	1842.00
398.93	1795.19
399.12	1746.04
399.32	1750.72
399.51	1657.10
399.70	1760.08
399.90	1795.19
400.09	1898.17
400.28	1886.47
400.47	1844.34
400.67	1926.26
400.86	1874.77
401.05	1886.47
401.24	1881.79
401.44	2069.03
401.63	1987.11
401.82	1949.67
402.01	1928.60
402.21	2043.29
402.40	2115.84
402.59	2099.46
402.78	1874.77
402.97	2012.86
403.17	2054.99
403.36	2139.25
403.55	2108.82
403.74	2083.08
403.93	2062.01
404.13	2176.70
404.32	2221.17
404.51	2099.46
404.70	2246.91
404.89	2244.57
405.09	2253.94
405.28	2258.62
405.47	2303.09
405.66	2392.03
405.85	2319.47
406.05	2352.24
406.24	2354.58
406.43	2317.13
406.62	2331.17
406.81	2473.95
407.00	2403.73
407.20	2413.09
407.39	2476.29
407.58	2387.35
407.77	2525.44
407.96	2572.25
408.15	2569.91
408.34	2490.33
408.54	2527.78
408.73	2691.62
408.92	2757.15
409.11	2693.96
409.30	2745.45
409.49	2684.59
409.68	2700.98
409.87	2717.36
410.07	2729.06
410.26	2834.39
410.45	2958.44
410.64	2736.09
410.83	2883.54
411.02	2965.46
411.21	2935.03
411.40	2998.23
411.59	3054.40
411.78	2904.60
411.98	3049.72
412.17	3042.70
412.36	3145.68
412.55	3038.02
412.74	3241.64
412.93	3194.83
413.12	3208.87
413.31	3260.37
413.50	3082.49
413.69	3307.18
413.88	3351.65
414.07	3318.88
414.26	3534.21
414.45	3349.31
414.64	3412.50
414.83	3386.76
415.02	3536.55
415.22	3611.45
415.41	3700.39
415.60	3541.23
415.79	3758.90
415.98	3768.26
416.17	3784.65
416.36	3728.47
416.55	3726.13
416.74	3843.16
416.93	3761.24
417.12	3871.25
417.31	3857.20
417.50	3868.91
417.69	4060.83
417.88	3971.89
418.07	4053.81
418.26	4124.02
418.45	4208.28
418.64	4329.99
418.83	4252.75
419.02	4173.18
419.21	4311.27
419.39	4285.52
419.58	4369.78
419.77	4273.82
419.96	4360.42
420.15	4348.72
420.34	4393.19
420.53	4290.20
420.72	4353.40
420.91	4306.59
421.10	4554.68
421.29	4557.02
421.48	4524.26
421.67	4596.81
421.86	4468.08
422.05	4428.29
422.24	4475.10
422.43	4540.64
422.61	4557.02
422.80	4774.69
422.99	4683.41
423.18	4631.92
423.37	4681.07
423.56	4547.66
423.75	4676.39
423.94	4538.30
424.13	4252.75
424.32	4383.82
424.50	4603.83
424.69	4873.00
424.88	4779.37
425.07	4620.22
425.26	4645.96
425.45	4762.99
425.64	4798.10
425.83	4753.63
426.01	4746.61
426.20	4716.18
426.39	4678.73
426.58	4826.18
426.77	4786.40
426.96	4863.63
427.15	4842.57
427.33	5004.07
427.52	4917.47
427.71	5022.79
427.90	5088.32
428.09	5233.44
428.28	5046.20
428.46	5041.51
428.65	5158.54
428.84	5291.95
429.03	5275.57
429.22	4987.68
429.40	5118.75
429.59	5104.71
429.78	5093.01
429.97	4917.47
430.16	4964.28
430.34	5240.46
430.53	5294.29
430.72	5408.98
430.91	5181.95
431.10	5214.71
431.28	5467.49
431.47	5526.00
431.66	5607.92
431.85	5413.66
432.03	5554.09
432.22	5689.84
432.41	5647.71
432.60	5579.84
432.79	5600.90
432.97	5638.35
433.16	5750.70
433.35	5659.42
433.54	5743.67
433.72	5647.71
433.91	5659.42
434.10	5799.85
434.28	5685.16
434.47	5785.80
434.66	5954.32
434.85	5982.41
435.03	5949.64
435.22	5921.56
435.41	6094.76
435.59	6108.80
435.78	5954.32
435.97	6036.24
436.16	6087.73
436.34	6265.61
436.53	6080.71
436.72	6188.38
436.90	6125.18
437.09	6619.04
437.28	6193.06
437.46	6438.81
437.65	6356.90
437.84	6539.46
438.02	6516.05
438.21	6560.52
438.40	6396.68
438.58	6562.86
438.77	6808.62
438.96	6427.11
439.14	6768.83
439.33	6855.43
439.52	6916.28
439.70	6897.56
439.89	6953.73
440.08	7293.11
440.26	6991.18
440.45	7063.74
440.63	6981.82
440.82	7234.60
441.01	7061.40
441.19	7290.77
441.38	7452.27
441.57	7424.18
441.75	7302.47
441.94	7581.00
442.12	7564.61
442.31	7744.83
442.50	7662.91
442.68	7599.72
442.87	7728.45
443.05	7655.89
443.24	7908.67
443.43	8004.63
443.61	7946.12
443.80	8046.76
443.98	7618.44
444.17	7522.48
444.35	8030.38
444.54	8042.08
444.73	8145.06
444.91	8070.17
445.10	7772.92
445.28	7658.23
445.47	7899.31
445.65	8098.25
445.84	8163.79
446.02	8011.65
446.21	7896.97
446.39	7882.92
446.58	8004.63
446.77	8173.15
446.95	8042.08
447.14	8156.77
447.32	8121.66
447.51	8131.02
447.69	8182.51
447.88	8203.58
448.06	8248.05
448.25	8285.50
448.43	8327.63
448.62	8313.58
448.80	8203.58
448.99	8175.49
449.17	8224.64
449.36	8088.89
449.54	8491.46
449.73	8472.74
449.91	8704.45
450.10	8416.57
450.28	8720.84
450.46	8767.65
450.65	8751.26
450.83	8669.34
451.02	8730.20
451.20	8849.57
451.39	8872.97
451.57	8482.10
451.76	8650.62
451.94	8779.35
452.13	9034.47
452.31	9015.74
452.49	8571.04
452.68	8997.02
452.86	8730.20
453.05	8898.72
453.23	9156.18
453.42	8987.66
453.60	8910.42
453.78	9092.98
453.97	9025.11
454.15	9156.18
454.34	8891.70
454.52	9221.71
454.70	9390.23
454.89	9441.72
455.07	9420.66
455.26	9446.40
455.44	9401.93
455.62	9575.13
455.81	9577.47
455.99	9654.71
456.17	9619.60
456.36	9533.00
456.54	9830.25
456.73	9846.63
456.91	10178.99
457.09	10003.45
457.28	10132.18
457.46	9820.89
457.64	10319.42
457.83	10118.14
458.01	10139.20
458.19	10274.95
458.38	10216.44
458.56	10375.59
458.74	10284.31
458.93	10242.18
459.11	10356.87
459.29	10436.45
459.48	10518.37
459.66	10464.54
459.84	10511.35
460.03	10581.56
460.21	10394.32
460.39	10462.19
460.57	10448.15
460.76	10679.86
460.94	10977.11
461.12	10707.95
461.31	10686.89
461.49	10822.64
461.67	10553.48
461.85	10932.64
462.04	10974.77
462.22	11400.75
462.40	11105.84
462.59	10934.98
462.77	10881.15
462.95	11089.46
463.13	11115.20
463.32	11140.95
463.50	11035.63
463.68	11250.96
463.86	11410.11
464.05	11082.44
464.23	11311.81
464.41	11449.90
464.59	11098.82
464.78	11372.66
464.96	11379.68
465.14	11431.18
465.32	11419.47
465.50	11847.79
465.69	11779.92
465.87	11328.19
466.05	11789.28
466.23	11646.51
466.41	11688.64
466.60	12004.61
466.78	11683.95
466.96	11850.13
467.14	11571.61
467.32	11985.88
467.51	11964.82
467.69	11826.73
467.87	11812.68
468.05	11997.59
468.23	11831.41
468.41	12318.24
468.60	12086.53
468.78	12231.64
468.96	12044.40
469.14	12573.36
469.32	12479.74
469.50	12226.96
469.69	12685.70
469.87	12666.98
470.05	12575.70
470.23	12498.46
470.41	12582.72
470.59	12702.09
470.77	12631.87
470.95	12737.20
471.14	12999.34
471.32	12662.30
471.50	13413.61
471.68	13209.98
471.86	13282.54
472.04	13387.86
472.22	13582.13
472.40	13043.81
472.58	13528.30
472.77	13420.63
472.95	13750.65
473.13	14303.01
473.31	13448.72
473.49	13561.06
473.67	13862.99
473.85	13626.60
474.03	13958.96
474.21	14265.57
474.39	14326.42
474.57	14307.69
474.75	14073.64
474.93	14752.40
475.12	14246.84
475.30	14394.29
475.48	14537.07
475.66	14815.59
475.84	14913.89
476.02	14986.45
476.20	14984.11
476.38	15101.14
476.56	15316.47
476.74	15594.99
476.92	15417.11
477.10	15335.19
477.28	15646.48
477.46	15316.47
477.64	15882.88
477.82	16060.76
478.00	16315.87
478.18	16402.47
478.36	16479.71
478.54	16587.38
478.72	16561.63
478.90	16964.20
479.08	16929.09
479.26	17179.53
479.44	17282.52
479.62	17315.28
479.80	17642.96
479.98	17542.32
480.16	17797.43
480.34	17771.69
480.52	18384.91
480.70	17879.35
480.88	18136.81
481.06	18537.04
481.24	18132.13
481.41	18537.04
481.59	18860.04
481.77	18822.59
481.95	18885.78
482.13	19190.05
482.31	19201.76
482.49	19763.48
482.67	19580.92
482.85	19807.95
483.03	19665.18
483.21	20699.70
483.39	20496.07
483.57	20297.13
483.74	20393.09
483.92	20936.09
484.10	20573.31
484.28	21294.19
484.46	21516.54
484.64	22141.47
484.82	21177.17
485.00	21647.61
485.18	22047.85
485.35	22359.14
485.53	22251.47
485.71	22405.95
485.89	22689.15
486.07	22548.72
486.25	22923.21
486.43	23122.15
486.61	23033.21
486.78	23590.26
486.96	23676.86
487.14	24292.42
487.32	24175.39
487.50	24343.91
487.68	24486.68
487.85	24746.48
488.03	25170.12
488.21	25116.29
488.39	25174.80
488.57	25174.80
488.75	25525.88
488.92	25865.26
489.10	26216.34
489.28	26045.48
489.46	26824.88
489.64	26354.43
489.81	27037.87
489.99	26789.77
490.17	26967.65
490.35	27157.24
490.53	27428.74
490.70	27725.99
490.88	27754.07
491.06	27494.27
491.24	27950.68
491.41	28301.76
491.59	28545.17
491.77	28732.42
491.95	28870.51
492.13	29046.05
492.30	29577.35
492.48	29511.81
492.66	29425.22
492.84	29720.12
493.01	30162.48
493.19	29902.68
493.37	30031.41
493.54	30448.03
493.72	30752.30
493.90	30661.02
494.08	31094.02
494.25	31346.79
494.43	31281.26
494.61	31510.63
494.79	31913.20
494.96	31222.75
495.14	32093.43
495.32	32425.78
495.49	32512.38
495.67	32676.22
495.85	32891.55
496.02	33493.07
496.20	32746.44
496.38	33076.45
496.55	33359.66
496.73	33993.94
496.91	33902.66
497.09	33916.70
497.26	34611.84
497.44	33867.55
497.62	34300.55
497.79	34419.92
497.97	34756.96
498.14	34941.86
498.32	35206.34
498.50	35171.23
498.67	35749.34
498.85	35409.96
499.03	35517.63
499.20	35840.62
499.38	36266.60
499.56	36641.09
499.73	36598.96
499.91	36989.83
500.08	36928.97
500.26	36519.38
500.44	36989.83
500.61	36723.01
500.79	37031.96
500.97	37434.53
501.14	37947.11
501.32	37872.21
501.49	37567.94
501.67	37993.92
501.84	37912.00
502.02	38068.81
502.20	38108.60
502.37	38607.14
502.55	38342.66
502.72	38190.52
502.90	38555.64
503.07	38043.07
503.25	38904.38
503.43	39138.44
503.60	39587.82
503.78	39498.88
503.95	39269.51
504.13	39700.17
504.30	39814.85
504.48	39487.18
504.65	40528.72
504.83	40533.40
505.01	40458.50
505.18	40453.82
505.36	40332.11
505.53	40364.88
505.71	40739.36
505.88	40802.56
506.06	40741.71
506.23	41521.10
506.41	41191.09
506.58	41265.99
506.76	41287.05
506.93	41670.90
507.11	41291.73
507.28	41626.43
507.46	41942.40
507.63	41876.86
507.81	42408.17
507.98	42253.69
508.16	42354.33
508.33	42607.11
508.50	42733.50
508.68	42405.83
508.85	43157.14
509.03	43288.21
509.20	43494.18
509.38	43402.89
509.55	43105.65
509.73	43353.74
509.90	43349.06
510.08	43393.53
510.25	43838.23
510.42	44172.93
510.60	44203.36
510.77	44421.03
510.95	44516.99
511.12	44488.90
511.30	44666.78
511.47	44332.09
511.64	44765.09
511.82	45177.02
511.99	45052.97
512.17	45560.87
512.34	45034.25
512.51	45289.37
512.69	45530.44
512.86	45633.42
513.04	46358.99
513.21	45635.77
513.38	45839.39
513.56	46080.47
513.73	45904.93
513.90	46281.75
514.08	46373.03
514.25	46408.14
514.43	47019.02
514.60	46527.51
514.77	47079.88
514.95	46738.16
515.12	46768.58
515.29	46911.36
515.47	46990.94
515.64	47264.78
515.81	47173.50
515.99	47480.11
516.16	47672.03
516.33	47870.98
516.51	48102.69
516.68	47896.72
516.85	47573.73
517.03	47894.38
517.20	47938.85
517.37	48348.45
517.54	48392.92
517.72	48397.60
517.89	48168.22
518.06	47950.56
518.24	48662.08
518.41	48411.64
518.58	48521.65
518.75	48673.78
518.93	49202.74
519.10	48793.15
519.27	49242.53
519.45	48772.08
519.62	49279.98
519.79	48882.09
519.96	49099.76
520.14	49619.36
520.31	49769.15
520.48	49797.24
520.65	49921.29
520.83	49764.47
521.00	50099.17
521.17	50007.89
521.34	50073.42
521.52	49930.65
521.69	50281.73
521.86	50312.16
522.03	50644.51
522.20	50497.06
522.38	50382.37
522.55	50813.03
522.72	50710.05
522.89	50335.56
523.07	51040.06
523.24	50508.76
523.41	51042.40
523.58	50719.41
523.75	51019.00
523.92	50894.95
524.10	51178.15
524.27	51269.43
524.44	51550.30
524.61	51737.54
524.78	51393.48
524.96	51477.74
525.13	51529.23
525.30	51257.73
525.47	51814.78
525.64	51629.88
525.81	51948.19
525.98	52109.69
526.16	51702.43
526.33	52023.09
526.50	52095.64
526.67	51948.19
526.84	52207.99
527.01	51973.94
527.18	52067.56
527.36	52493.54
527.53	52495.88
527.70	52535.66
527.87	52669.08
528.04	52477.15
528.21	52425.66
528.38	52568.43
528.55	52910.15
528.72	52753.33
528.89	53052.92
529.07	52940.58
529.24	52846.96
529.41	53116.12
529.58	53322.08
529.75	52947.60
529.92	52954.62
530.09	53195.70
530.26	53439.11
530.43	53429.75
530.60	53411.02
530.77	53373.58
530.94	53476.56
531.11	53359.53
531.28	53350.17
531.46	53612.31
531.63	53663.80
531.80	53853.39
531.97	53865.09
532.14	54010.20
532.31	53839.34
532.48	54038.29
532.65	54019.56
532.82	53801.89
532.99	54092.12
533.16	54174.04
533.33	54347.24
533.50	54553.21
533.67	54499.37
533.84	54340.22
534.01	54262.98
534.18	54185.74
534.35	54616.40
534.52	54370.64
534.69	54419.80
534.86	54808.32
535.03	54401.07
535.20	54302.77
535.37	54738.11
535.54	54508.74
535.71	54660.87
535.88	54674.91
536.05	54700.66
536.22	55133.66
536.38	55056.42
536.55	54965.14
536.72	54836.41
536.89	54850.45
537.06	54817.69
537.23	54965.14
537.40	54850.45
537.57	55187.49
537.74	55283.45
537.91	55503.46
538.08	55367.71
538.25	55171.11
538.42	55356.01
538.59	55611.13
538.75	55159.41
538.92	55400.48
539.09	55496.44
539.26	55601.77
539.43	55524.53
539.60	55758.58
539.77	55721.13
539.94	55859.23
540.11	55723.47
540.28	55739.86
540.44	55803.05
540.61	55950.51
540.78	56046.47
540.95	55796.03
541.12	55896.67
541.29	56051.15
541.46	55732.84
541.62	55866.25
541.79	56053.49
541.96	55971.57
542.13	56076.90
542.30	56109.66
542.47	56002.00
542.63	56212.65
542.80	56427.98
542.97	56472.45
543.14	56755.65
543.31	56339.04
543.48	56406.91
543.64	56774.37
543.81	56767.35
543.98	56853.95
544.15	56846.93
544.32	56966.30
544.48	57076.30
544.65	56938.21
544.82	56596.49
544.99	56554.36
545.16	56825.87
545.32	56765.01
545.49	56989.70
545.66	57350.15
545.83	57076.30
546.00	57289.29
546.16	57233.12
546.33	56956.94
546.50	56760.33
546.67	57137.16
546.83	56940.55
547.00	57048.22
547.17	57286.95
547.34	57296.31
547.50	57235.46
547.67	57581.86
547.84	57523.35
548.00	57317.38
548.17	57467.17
548.34	57614.63
548.51	57616.97
548.67	57684.84
548.84	57726.97
549.01	57619.31
549.18	57324.40
549.34	57544.41
549.51	57631.01
549.68	57874.43
549.84	57745.70
550.01	57815.91
550.18	57787.83
550.34	57907.19
550.51	57895.49
550.68	57869.75
550.84	57724.63
551.01	58003.16
551.18	57954.00
551.34	57881.45
551.51	58188.06
551.68	58127.20
551.84	58195.08
552.01	58101.46
552.18	58188.06
552.34	57949.32
552.51	58202.10
552.68	58110.82
552.84	58171.67
553.01	58363.60
553.18	58262.96
553.34	58361.26
553.51	58396.37
553.67	58424.45
553.84	58677.23
554.01	58499.35
554.17	58300.40
554.34	58307.43
554.51	58305.09
554.67	58595.31
554.84	58588.29
555.00	58482.97
555.17	58574.25
555.33	58710.00
555.50	58567.23
555.67	58595.31
555.83	58377.64
556.00	58726.38
556.16	58735.74
556.33	58585.95
556.50	58614.04
556.66	58749.79
556.83	58646.80
556.99	58993.20
557.16	59037.67
557.32	58932.35
557.49	58932.35
557.65	58518.07
557.82	58738.08
557.98	58787.24
558.15	58953.41
558.32	59107.89
558.48	59110.23
558.65	59150.02
558.81	59119.59
558.98	58962.78
559.14	59042.35
559.31	59192.15
559.47	59128.95
559.64	59016.61
559.80	59126.61
559.97	59327.90
560.13	59016.61
560.30	59175.76
560.46	59047.04
560.63	59166.40
560.79	59250.66
560.96	59253.00
561.12	59238.96
561.29	59168.74
561.45	59325.56
561.61	59344.28
561.78	59285.77
561.94	59381.73
562.11	59430.88
562.27	59344.28
562.44	59229.60
562.60	59276.41
562.77	59344.28
562.93	59643.87
563.10	59777.28
563.26	59519.82
563.42	59737.49
563.59	59494.08
563.75	59332.58
563.92	59568.97
564.08	59304.49
564.24	59398.12
564.41	59416.84
564.57	59374.71
564.74	59461.31
564.90	59618.13
565.07	59842.82
565.23	59709.41
565.39	59508.12
565.56	59798.35
565.72	59299.81
565.88	59648.55
566.05	59877.93
566.21	59653.23
566.38	59646.21
566.54	59662.60
566.70	59980.91
566.87	59985.59
567.03	59756.22
567.19	60055.81
567.36	59566.63
567.52	59571.32
567.68	59800.69
567.85	59620.47
568.01	59707.07
568.17	59646.21
568.34	59765.58
568.50	59985.59
568.66	59763.24
568.83	59962.18
568.99	59707.07
569.15	59636.85
569.32	59966.87
569.48	59653.23
569.64	59889.63
569.81	59976.23
569.97	60123.68
570.13	59903.67
570.30	59898.99
570.46	60018.36
570.62	59828.77
570.78	59898.99
570.95	59798.35
571.11	59927.08
571.27	59746.86
571.43	59709.41
571.60	60046.44
571.76	60294.54
571.92	60093.25
572.09	60086.23
572.25	60189.22
572.41	59948.14
572.57	60062.83
572.74	59950.48
572.90	59966.87
573.06	59941.12
573.22	59997.29
573.38	60069.85
573.55	60151.77
573.71	60514.55
573.87	60385.82
574.03	60212.62
574.20	59978.57
574.36	59976.23
574.52	60060.49
574.68	59817.07
574.84	60439.65
575.01	60254.75
575.17	59985.59
575.33	60292.20
575.49	60177.51
575.65	60339.01
575.82	60526.25
575.98	60271.14
576.14	60486.46
576.30	60416.25
576.46	60149.43
576.62	60046.44
576.79	60044.10
576.95	60030.06
577.11	60189.22
577.27	60406.89
577.43	60645.62
577.59	60285.18
577.75	60376.46
577.92	60245.39
578.08	60079.21
578.24	60243.05
578.40	60013.68
578.56	60266.45
578.72	60266.45
578.88	60233.69
579.04	60467.74
579.21	60214.96
579.37	60172.83
579.53	60233.69
579.69	60100.28
579.85	60226.66
580.01	60495.83
580.17	60147.09
580.33	60341.35
580.49	60434.97
580.65	60439.65
580.82	60535.62
580.98	60374.12
581.14	60369.44
581.30	60441.99
581.46	60245.39
581.62	60306.24
581.78	60229.01
581.94	60542.64
582.10	60348.37
582.26	60542.64
582.42	60601.15
582.58	60512.21
582.74	60556.68
582.90	60556.68
583.06	60273.48
583.22	60219.64
583.38	60404.55
583.54	60521.57
583.70	60339.01
583.86	60268.79
584.02	60369.44
584.18	60484.12
584.34	60374.12
584.50	60664.35
584.66	60486.46
584.82	60498.17
584.98	60306.24
585.14	60453.70
585.30	60437.31
585.46	60355.39
585.62	60198.58
585.78	60481.78
585.94	60156.45
586.10	60456.04
586.26	60566.04
586.42	60685.41
586.58	60706.47
586.74	60523.91
586.90	60561.36
587.06	60481.78
587.22	60416.25
587.38	60624.56
587.54	60631.58
587.70	60645.62
587.86	60659.66
588.02	60563.70
588.18	60713.50
588.34	60654.98
588.49	60451.36
588.65	60516.89
588.81	60676.05
588.97	60683.07
589.13	60472.42
