SpectraSuite Data File
++++++++++++++++++++++++++++++++++++
Date: Fri Oct 04 11:48:36 GMT-05:00 2013
User: price-jones
Dark Spectrum Present: No
Reference Spectrum Present: No
Number of Sampled Component Spectra: 1
Spectrometers: USB2+H05261
Integration Time (usec): 100000 (USB2+H05261)
Spectra Averaged: 1 (USB2+H05261)
Boxcar Smoothing: 0 (USB2+H05261)
Correct for Electrical Dark: No (USB2+H05261)
Strobe/Lamp Enabled: No (USB2+H05261)
Correct for Detector Non-linearity: No (USB2+H05261)
Correct for Stray Light: No (USB2+H05261)
Number of Pixels in Processed Spectrum: 2048
>>>>>Begin Processed Spectral Data<<<<<
365.73	9.36
365.92	9.36
366.12	9.36
366.32	0.00
366.52	0.00
366.72	0.00
366.91	0.00
367.11	0.00
367.31	0.00
367.51	0.00
367.70	0.00
367.90	0.00
368.10	0.00
368.30	0.00
368.49	0.00
368.69	0.00
368.89	0.00
369.09	0.00
369.28	0.00
369.48	0.00
369.68	0.00
369.87	0.00
370.07	0.00
370.27	9.36
370.47	100.64
370.66	224.69
370.86	292.57
371.06	304.27
371.25	402.57
371.45	290.23
371.65	344.06
371.84	337.04
372.04	318.31
372.24	402.57
372.44	409.59
372.63	421.30
372.83	458.74
373.03	418.96
373.22	503.22
373.42	440.02
373.62	358.10
373.81	430.66
374.01	458.74
374.21	454.06
374.40	489.17
374.60	463.43
374.79	402.57
374.99	531.30
375.19	442.36
375.38	479.81
375.58	477.47
375.78	472.79
375.97	507.90
376.17	514.92
376.37	482.15
376.56	442.36
376.76	421.30
376.95	479.81
377.15	531.30
377.35	463.43
377.54	477.47
377.74	528.96
377.93	463.43
378.13	458.74
378.33	521.94
378.52	507.90
378.72	550.03
378.91	510.24
379.11	561.73
379.31	526.62
379.50	538.32
379.70	559.39
379.89	561.73
380.09	564.07
380.28	557.05
380.48	533.64
380.68	566.41
380.87	554.71
381.07	554.71
381.26	596.84
381.46	510.24
381.65	709.18
381.85	587.47
382.04	638.97
382.24	599.18
382.43	638.97
382.63	617.90
382.83	594.50
383.02	624.92
383.22	690.46
383.41	650.67
383.61	550.03
383.80	629.60
384.00	638.97
384.19	578.11
384.39	716.20
384.58	596.84
384.78	681.10
384.97	709.18
385.17	746.63
385.36	720.88
385.56	655.35
385.75	667.05
385.95	622.58
386.14	711.52
386.34	763.01
386.53	643.65
386.72	683.44
386.92	746.63
387.11	678.76
387.31	772.38
387.50	638.97
387.70	809.83
387.89	767.70
388.09	723.23
388.28	727.91
388.48	798.12
388.67	842.59
388.86	755.99
389.06	732.59
389.25	779.40
389.45	786.42
389.64	774.72
389.84	826.21
390.03	802.80
390.22	812.17
390.42	718.54
390.61	784.08
390.81	908.13
391.00	929.19
391.19	798.12
391.39	905.79
391.58	842.59
391.78	891.74
391.97	868.34
392.16	966.64
392.36	898.77
392.55	910.47
392.75	917.49
392.94	917.49
393.13	950.26
393.33	964.30
393.52	950.26
393.71	1004.09
393.91	1046.22
394.10	910.47
394.29	1071.97
394.49	1001.75
394.68	1022.81
394.88	1032.18
395.07	1034.52
395.26	1025.15
395.46	1022.81
395.65	1043.88
395.84	1011.11
396.04	1116.44
396.23	1107.07
396.42	1081.33
396.62	1135.16
396.81	1067.28
397.00	1118.78
397.19	1100.05
397.39	1163.25
397.58	1151.54
397.77	1207.72
397.97	1331.76
398.16	1184.31
398.35	1174.95
398.55	1160.91
398.74	1338.79
398.93	1247.51
399.12	1224.10
399.32	1214.74
399.51	1294.32
399.70	1247.51
399.90	1235.80
400.09	1238.14
400.28	1357.51
400.47	1301.34
400.67	1404.32
400.86	1460.49
401.05	1401.98
401.24	1455.81
401.44	1378.58
401.63	1406.66
401.82	1495.60
402.01	1434.75
402.21	1486.24
402.40	1483.90
402.59	1455.81
402.78	1526.03
402.97	1561.14
403.17	1519.01
403.36	1528.37
403.55	1472.20
403.74	1699.23
403.93	1650.08
404.13	1689.87
404.32	1558.80
404.51	1629.01
404.70	1596.25
404.89	1755.40
405.09	1809.23
405.28	1678.16
405.47	1760.08
405.66	1771.79
405.85	1743.70
406.05	1715.61
406.24	1724.97
406.43	1806.89
406.62	1788.17
406.81	1823.28
407.00	1858.39
407.20	1877.11
407.39	1886.47
407.58	1949.67
407.77	1959.03
407.96	1966.05
408.15	2064.35
408.34	2001.16
408.54	2026.90
408.73	2148.61
408.92	2026.90
409.11	2001.16
409.30	2052.65
409.49	2071.37
409.68	2139.25
409.87	2136.91
410.07	2169.68
410.26	2101.80
410.45	2253.94
410.64	2314.79
410.83	2314.79
411.02	2317.13
411.21	2403.73
411.40	2289.04
411.59	2399.05
411.78	2354.58
411.98	2314.79
412.17	2476.29
412.36	2431.82
412.55	2452.88
412.74	2480.97
412.93	2487.99
413.12	2534.80
413.31	2656.51
413.50	2761.83
413.69	2609.70
413.88	2796.94
414.07	2635.44
414.26	2773.53
414.45	2841.41
414.64	2876.52
414.83	2846.09
415.02	2787.58
415.22	2958.44
415.41	3038.02
415.60	2904.60
415.79	3054.40
415.98	2935.03
416.17	3023.97
416.36	3049.72
416.55	3080.14
416.74	3038.02
416.93	3014.61
417.12	3283.77
417.31	3073.12
417.50	3176.11
417.69	3487.40
417.88	3283.77
418.07	3148.02
418.26	3276.75
418.45	3351.65
418.64	3588.04
418.83	3456.97
419.02	3475.70
419.21	3461.65
419.39	3510.80
419.58	3389.10
419.77	3468.67
419.96	3550.59
420.15	3609.11
420.34	3559.95
420.53	3545.91
420.72	3709.75
420.91	3702.73
421.10	3754.22
421.29	3749.54
421.48	3723.79
421.67	3728.47
421.86	3695.71
422.05	3833.80
422.24	3747.20
422.43	3815.07
422.61	3819.75
422.80	3873.59
422.99	3658.26
423.18	3978.91
423.37	3840.82
423.56	3908.69
423.75	3882.95
423.94	3904.01
424.13	3693.37
424.32	3728.47
424.50	3911.04
424.69	4124.02
424.88	3953.16
425.07	3882.95
425.26	3747.20
425.45	3871.25
425.64	3925.08
425.83	3803.37
426.01	3927.42
426.20	3808.05
426.39	3957.85
426.58	3845.50
426.77	3840.82
426.96	3969.55
427.15	4032.74
427.33	4154.45
427.52	4070.19
427.71	4028.06
427.90	4056.15
428.09	4224.67
428.28	4142.75
428.46	4196.58
428.65	4189.56
428.84	4266.80
429.03	4227.01
429.22	4372.12
429.40	4294.88
429.59	4482.13
429.78	4060.83
429.97	4042.11
430.16	4313.61
430.34	4215.30
430.53	4463.40
430.72	4285.52
430.91	4449.36
431.10	4393.19
431.28	4493.83
431.47	4528.94
431.66	4524.26
431.85	4489.15
432.03	4601.49
432.22	4578.09
432.41	4596.81
432.60	4758.31
432.79	4566.39
432.97	4681.07
433.16	4641.28
433.35	4809.80
433.54	4723.20
433.72	4718.52
433.91	4683.41
434.10	4781.71
434.28	4695.11
434.47	4800.44
434.66	5034.49
434.85	4931.51
435.03	4945.55
435.22	4947.89
435.41	5109.39
435.59	5027.47
435.78	5139.82
435.97	4999.38
436.16	5116.41
436.34	4983.00
436.53	5111.73
436.72	5233.44
436.90	5085.98
437.09	5046.20
437.28	5022.79
437.46	5221.74
437.65	5231.10
437.84	5263.86
438.02	5390.25
438.21	5195.99
438.40	5282.59
438.58	5507.28
438.77	5434.72
438.96	5385.57
439.14	5640.69
439.33	5572.82
439.52	5858.36
439.70	5652.39
439.89	5631.33
440.08	5743.67
440.26	5720.27
440.45	5886.45
440.63	5832.62
440.82	5912.19
441.01	5797.51
441.19	6069.01
441.38	5991.77
441.57	6106.46
441.75	5888.79
441.94	6164.97
442.12	6167.31
442.31	6267.95
442.50	6141.57
442.68	6249.23
442.87	6335.83
443.05	6305.40
443.24	6520.73
443.43	6403.71
443.61	6340.51
443.80	6581.59
443.98	6258.59
444.17	6422.43
444.35	6604.99
444.54	6609.67
444.73	6497.33
444.91	6471.58
445.10	6581.59
445.28	6525.41
445.47	6471.58
445.65	6642.44
445.84	6651.80
446.02	6633.08
446.21	6602.65
446.39	6745.42
446.58	6614.35
446.77	6787.55
446.95	6450.52
447.14	6663.51
447.32	6658.82
447.51	6719.68
447.69	6684.57
447.88	6696.27
448.06	6679.89
448.25	6635.42
448.43	6885.86
448.62	6820.32
448.80	6609.67
448.99	6813.30
449.17	6953.73
449.36	6822.66
449.54	7194.81
449.73	7061.40
449.91	7045.01
450.10	7033.31
450.28	7054.37
450.46	7122.25
450.65	7258.00
450.83	7080.12
451.02	7265.02
451.20	7218.21
451.39	7211.19
451.57	7115.23
451.76	7056.72
451.94	7311.83
452.13	7304.81
452.31	7281.41
452.49	7047.35
452.68	7152.68
452.86	7229.91
453.05	7295.45
453.23	7442.90
453.42	7293.11
453.60	7253.32
453.78	7419.50
453.97	7433.54
454.15	7606.74
454.34	7398.43
454.52	7599.72
454.70	7529.50
454.89	7616.10
455.07	7466.31
455.26	7634.83
455.44	7737.81
455.62	7660.57
455.81	7674.62
455.99	7829.09
456.17	7831.43
456.36	7859.52
456.54	8002.29
456.73	7995.27
456.91	8238.69
457.09	8093.57
457.28	8217.62
457.46	8042.08
457.64	8355.71
457.83	8198.90
458.01	8098.25
458.19	8238.69
458.38	8273.79
458.56	8365.07
458.74	8411.89
458.93	8222.30
459.11	8432.95
459.29	8187.19
459.48	8472.74
459.66	8510.19
459.84	8631.90
460.03	8512.53
460.21	8662.32
460.39	8697.43
460.57	8472.74
460.76	8631.90
460.94	8678.71
461.12	8446.99
461.31	8674.03
461.49	8659.98
461.67	8748.92
461.85	8980.64
462.04	8781.69
462.22	9479.17
462.40	9050.85
462.59	8784.03
462.77	8772.33
462.95	9160.86
463.13	9008.72
463.32	9128.09
463.50	9008.72
463.68	9060.21
463.86	9261.50
464.05	8950.21
464.23	9074.26
464.41	9259.16
464.59	9256.82
464.78	9343.42
464.96	9301.29
465.14	9467.47
465.32	9364.48
465.50	9525.98
465.69	9357.46
465.87	9224.05
466.05	9488.53
466.23	9453.42
466.41	9586.83
466.60	9818.55
466.78	9502.58
466.96	9488.53
467.14	9387.89
467.32	9493.21
467.51	9727.27
467.69	9600.88
467.87	9696.84
468.05	9661.73
468.23	9764.72
468.41	9547.05
468.60	9748.33
468.78	10001.11
468.96	9668.75
469.14	10057.28
469.32	9809.19
469.50	9785.78
469.69	10090.05
469.87	10176.65
470.05	10125.16
470.23	10207.08
470.41	10307.72
470.59	10310.06
470.77	10319.42
470.95	10314.74
471.14	10317.08
471.32	10303.04
471.50	10698.59
471.68	10717.31
471.86	10532.41
472.04	10562.84
472.22	10616.67
472.40	10698.59
472.58	10736.04
472.77	10759.44
472.95	10930.30
473.13	11070.73
473.31	10899.87
473.49	11080.10
473.67	11063.71
473.85	11199.46
474.03	11583.31
474.21	11445.22
474.39	11419.47
474.57	11487.35
474.75	11676.93
474.93	11667.57
475.12	11522.46
475.30	11658.21
475.48	11630.12
475.66	11690.98
475.84	11730.76
476.02	11939.07
476.20	11974.18
476.38	12212.92
476.56	12374.41
476.74	12145.04
476.92	12138.02
477.10	12149.72
477.28	12741.88
477.46	12358.03
477.64	12634.21
477.82	12886.99
478.00	13242.75
478.18	13156.15
478.36	13170.19
478.54	13280.20
478.72	13259.13
478.90	13504.89
479.08	13481.49
479.26	13689.79
479.44	13680.43
479.62	13919.17
479.80	13722.56
479.98	14068.96
480.16	14232.80
480.34	14188.33
480.52	14310.04
480.70	14541.75
480.88	14661.12
481.06	14434.08
481.24	14630.69
481.41	14635.37
481.59	15133.90
481.77	15035.60
481.95	14993.47
482.13	15309.44
482.31	15314.13
482.49	15363.28
482.67	15576.27
482.85	15733.08
483.03	15901.60
483.21	16170.76
483.39	16308.85
483.57	16058.42
483.74	16079.48
483.92	16343.96
484.10	16540.57
484.28	16826.11
484.46	17153.79
484.64	17078.89
484.82	16966.54
485.00	16975.91
485.18	17345.71
485.35	17689.77
485.53	17631.26
485.71	17694.45
485.89	18167.24
486.07	17848.93
486.25	18064.25
486.43	18218.73
486.61	18530.02
486.78	18614.28
486.96	18684.50
487.14	19084.73
487.32	18649.39
487.50	19267.29
487.68	19267.29
487.85	19749.44
488.03	19580.92
488.21	20196.48
488.39	19775.19
488.57	19882.85
488.75	20095.84
488.92	20695.02
489.10	20720.76
489.28	21032.05
489.46	21092.91
489.64	20940.77
489.81	21275.47
489.99	21427.60
490.17	21247.38
490.35	21813.79
490.53	21907.41
490.70	21766.98
490.88	21717.83
491.06	21755.28
491.24	21923.80
491.41	22242.11
491.59	22541.70
491.77	22544.04
491.95	22759.37
492.13	23044.91
492.30	22824.90
492.48	23140.88
492.66	23323.44
492.84	23168.96
493.01	23484.94
493.19	23627.71
493.37	24070.07
493.54	24149.65
493.72	24280.72
493.90	24063.05
494.08	24556.90
494.25	24472.64
494.43	24425.83
494.61	24858.83
494.79	25010.96
494.96	25139.69
495.14	25238.00
495.32	25764.62
495.49	25804.41
495.67	25720.15
495.85	26068.89
496.02	26417.63
496.20	26307.62
496.38	26316.98
496.55	26401.24
496.73	26799.13
496.91	26560.40
497.09	26796.79
497.26	27321.07
497.44	27009.78
497.62	27051.91
497.79	27363.20
497.97	27243.84
498.14	27648.75
498.32	27655.77
498.50	27625.34
498.67	27960.04
498.85	28261.97
499.03	28290.06
499.20	28304.10
499.38	28212.82
499.56	28886.89
499.73	29036.69
499.91	28994.56
500.08	28872.85
500.26	28690.29
500.44	29008.60
500.61	29507.13
500.79	29191.16
500.97	29291.80
501.14	29890.98
501.32	29769.27
501.49	29427.56
501.67	29727.14
501.84	30239.72
502.02	30075.88
502.20	30038.44
502.37	30448.03
502.55	30195.25
502.72	30595.48
502.90	30480.80
503.07	30473.78
503.25	30646.97
503.43	31094.02
503.60	31058.91
503.78	30487.82
503.95	30932.52
504.13	31197.00
504.30	31232.11
504.48	31131.47
504.65	31590.21
504.83	31648.72
505.01	32105.13
505.18	31976.40
505.36	31931.93
505.53	31517.65
505.71	32128.53
505.88	32285.35
506.06	31882.78
506.23	32603.66
506.41	32226.84
506.58	32547.49
506.76	32615.37
506.93	32690.26
507.11	32776.86
507.28	32741.75
507.46	32971.13
507.63	33039.00
507.81	33703.71
507.98	33062.41
508.16	33462.64
508.33	33390.08
508.50	33479.02
508.68	33954.15
508.85	34015.01
509.03	33649.88
509.20	34429.28
509.38	34541.63
509.55	34373.11
509.73	34595.46
509.90	34415.24
510.08	34656.31
510.25	34607.16
510.42	34682.06
510.60	34733.55
510.77	35185.27
510.95	34792.06
511.12	34962.92
511.30	35267.19
511.47	35491.88
511.64	35463.80
511.82	35367.84
511.99	35524.65
512.17	35700.19
512.34	35487.20
512.51	36027.87
512.69	36147.23
512.86	36098.08
513.04	36257.24
513.21	36320.43
513.38	36458.52
513.56	36465.55
513.73	36535.76
513.90	36634.06
514.08	36273.62
514.25	36809.61
514.43	36858.76
514.60	37331.54
514.77	37464.96
514.95	37109.19
515.12	37186.43
515.29	37053.02
515.47	37713.05
515.64	37787.95
515.81	37635.81
515.99	37773.91
516.16	38216.27
516.33	38209.25
516.51	38220.95
516.68	37525.81
516.85	38227.97
517.03	38012.64
517.20	38642.24
517.37	38195.20
517.54	38541.60
517.72	38946.51
517.89	38469.04
518.06	38557.99
518.24	38635.22
518.41	38653.95
518.58	39037.80
518.75	39103.33
518.93	38958.22
519.10	39271.85
519.27	39267.17
519.45	39295.25
519.62	39274.19
519.79	39379.51
519.96	39704.85
520.14	40018.48
520.31	39278.87
520.48	39840.60
520.65	39730.59
520.83	40355.52
521.00	39948.26
521.17	40208.06
521.34	40119.12
521.52	40289.98
521.69	40713.62
521.86	40992.14
522.03	40847.03
522.20	40657.45
522.38	40683.19
522.55	40495.95
522.72	40858.73
522.89	40961.72
523.07	41394.71
523.24	41071.72
523.41	41406.42
523.58	41020.23
523.75	41329.18
523.92	41003.85
524.10	41137.26
524.27	41603.02
524.44	41532.81
524.61	41820.69
524.78	42106.24
524.96	41652.17
525.13	41759.84
525.30	41954.10
525.47	42429.23
525.64	41823.03
525.81	42326.25
525.98	42209.22
526.16	42092.19
526.33	42770.95
526.50	42445.62
526.67	42735.84
526.84	42658.60
527.01	42501.79
527.18	42761.59
527.36	42717.12
527.53	43040.11
527.70	43234.38
527.87	43084.58
528.04	42497.11
528.21	42937.13
528.38	42698.39
528.55	43316.29
528.72	42553.28
528.89	43665.03
529.07	43416.94
529.24	43147.78
529.41	43587.80
529.58	43339.70
529.75	43360.76
529.92	43550.35
530.09	43641.63
530.26	43742.27
530.43	44538.05
530.60	43768.02
530.77	43393.53
530.94	44018.46
531.11	43849.94
531.28	44186.97
531.46	44226.76
531.63	44364.85
531.80	44406.98
531.97	44734.66
532.14	44751.04
532.31	44423.37
532.48	44563.80
532.65	44739.34
532.82	44280.60
532.99	44903.18
533.16	44526.35
533.33	45193.40
533.50	45361.92
533.67	44659.76
533.84	45193.40
534.01	44727.64
534.18	44875.09
534.35	45345.54
534.52	44830.62
534.69	45411.07
534.86	45720.02
535.03	45574.91
535.20	45359.58
535.37	45284.68
535.54	45221.49
535.71	45345.54
535.88	45347.88
536.05	45546.82
536.22	45823.01
536.38	45757.47
536.55	45827.69
536.72	45947.06
536.89	45916.63
537.06	46129.62
537.23	46370.69
537.40	45904.93
537.57	46375.37
537.74	46073.45
537.91	46361.33
538.08	46330.90
538.25	46527.51
538.42	46693.69
538.59	46691.35
538.75	46220.90
538.92	46436.23
539.09	46691.35
539.26	46876.25
539.43	46485.38
539.60	46513.47
539.77	46564.96
539.94	47009.66
540.11	46799.01
540.28	46742.84
540.44	46813.05
540.61	47033.07
540.78	46997.96
540.95	47016.68
541.12	47318.61
541.29	46803.69
541.46	46951.15
541.62	46614.11
541.79	47363.08
541.96	47012.00
542.13	47047.11
542.30	46981.57
542.47	47426.28
542.63	47758.63
542.80	47430.96
542.97	48081.63
543.14	48348.45
543.31	48165.88
543.48	48023.11
543.64	48278.23
543.81	48399.94
543.98	48303.98
544.15	47985.66
544.32	48151.84
544.48	48591.86
544.65	48055.88
544.82	48306.32
544.99	48069.92
545.16	48545.05
545.32	48034.81
545.49	48739.32
545.66	48449.09
545.83	48861.02
546.00	48729.95
546.16	48437.39
546.33	48318.02
546.50	48292.27
546.67	48657.40
546.83	48020.77
547.00	48439.73
547.17	48495.90
547.34	48875.07
547.50	48699.53
547.67	49209.76
547.84	48825.92
548.00	48725.27
548.17	49230.83
548.34	49090.40
548.51	49191.04
548.67	49289.34
548.84	49595.95
549.01	49617.02
549.18	49427.43
549.34	49375.94
549.51	48933.58
549.68	49322.11
549.84	48896.13
550.01	49401.69
550.18	49174.66
550.34	48865.70
550.51	49392.33
550.68	49375.94
550.84	49303.38
551.01	49705.96
551.18	49397.01
551.34	49394.67
551.51	49595.95
551.68	50073.42
551.84	49865.11
552.01	49851.07
552.18	49640.42
552.34	49759.79
552.51	49813.62
552.68	49530.42
552.84	49766.81
553.01	49675.53
553.18	49750.43
553.34	49818.30
553.51	49720.00
553.67	50066.40
553.84	50138.96
554.01	50518.12
554.17	50225.56
554.34	50188.11
554.51	49895.54
554.67	50255.98
554.84	50452.59
555.00	50288.75
555.17	50272.37
555.33	50026.61
555.50	50365.99
555.67	50424.50
555.83	49949.37
556.00	50253.64
556.16	50539.19
556.33	50319.18
556.50	50035.97
556.66	50368.33
556.83	50305.13
556.99	50862.18
557.16	50707.71
557.32	50541.53
557.49	50876.22
557.65	50710.05
557.82	50534.51
557.98	50244.28
558.15	50986.23
558.32	50749.84
558.48	50473.65
558.65	50873.88
558.81	50864.52
558.98	50969.85
559.14	50742.81
559.31	50738.13
559.47	51133.68
559.64	51110.28
559.80	51159.43
559.97	50901.97
560.13	50836.44
560.30	51056.45
560.46	51159.43
560.63	50925.38
560.79	51100.92
560.96	51377.10
561.12	50993.25
561.29	50667.92
561.45	50981.55
561.61	50916.01
561.78	51143.05
561.94	51072.83
562.11	51110.28
562.27	50901.97
562.44	51040.06
562.60	51152.41
562.77	50988.57
562.93	51051.76
563.10	51388.80
563.26	51110.28
563.42	51709.46
563.59	51267.09
563.75	51302.20
563.92	51349.01
564.08	50960.48
564.24	51131.34
564.41	51379.44
564.57	51222.62
564.74	51421.57
564.90	51250.71
565.07	51283.48
565.23	51629.88
565.39	51309.22
565.56	51250.71
565.72	51203.90
565.88	51182.84
566.05	51414.55
566.21	51061.13
566.38	51269.43
566.54	51274.12
566.70	51517.53
566.87	52121.39
567.03	51384.12
567.19	51636.90
567.36	51421.57
567.52	51339.65
567.68	51164.11
567.85	51208.58
568.01	51594.77
568.17	51529.23
568.34	51861.59
568.50	51885.00
568.66	51552.64
568.83	52048.83
568.99	51473.06
569.15	51643.92
569.32	51475.40
569.48	51264.75
569.64	51744.56
569.81	51386.46
569.97	51807.76
570.13	51725.84
570.30	51679.03
570.46	51538.60
570.62	51433.27
570.78	51384.12
570.95	51526.89
571.11	51674.35
571.27	51615.83
571.43	51606.47
571.60	51576.04
571.76	51859.25
571.92	51892.02
572.09	51826.48
572.25	51903.72
572.41	51723.50
572.57	51503.49
572.74	51702.43
572.90	51821.80
573.06	51924.78
573.22	52020.75
573.38	51849.89
573.55	51716.48
573.71	51924.78
573.87	51824.14
574.03	51838.18
574.20	52114.37
574.36	51505.83
574.52	51597.11
574.68	51625.20
574.84	51948.19
575.01	52079.26
575.17	52023.09
575.33	51716.48
575.49	52135.43
575.65	52109.69
575.82	51852.23
575.98	51885.00
576.14	51852.23
576.30	51924.78
576.46	51716.48
576.62	51473.06
576.79	51597.11
576.95	51667.33
577.11	51817.12
577.27	51976.28
577.43	52020.75
577.59	51751.59
577.75	51559.66
577.92	51819.46
578.08	51510.51
578.24	52041.81
578.40	51840.53
578.56	51835.84
578.72	52034.79
578.88	52158.84
579.04	52266.50
579.21	51966.91
579.37	52123.73
579.53	52102.67
579.69	51615.83
579.85	51681.37
580.01	51800.74
580.17	51784.35
580.33	51803.08
580.49	52090.96
580.65	52259.48
580.82	52009.04
580.98	52282.89
581.14	51908.40
581.30	52053.51
581.46	51657.96
581.62	51854.57
581.78	51660.30
581.94	52011.38
582.10	51906.06
582.26	52130.75
582.42	52062.88
582.58	51845.21
582.74	51957.55
582.90	52168.20
583.06	52200.97
583.22	51784.35
583.38	51700.09
583.54	51756.27
583.70	51959.89
583.86	52058.20
584.02	51885.00
584.18	52004.36
584.34	51992.66
584.50	51784.35
584.66	51887.34
584.82	51636.90
584.98	51971.60
585.14	52135.43
585.30	52025.43
585.46	51709.46
585.62	51819.46
585.78	52193.95
585.94	51648.60
586.10	52193.95
586.26	52023.09
586.42	52226.71
586.58	52079.26
586.74	52193.95
586.90	51625.20
587.06	51812.44
587.22	51948.19
587.38	52074.58
587.54	52357.78
587.70	52446.72
587.86	52402.25
588.02	52200.97
588.18	52357.78
588.34	52259.48
588.49	52109.69
588.65	52067.56
588.81	51744.56
588.97	52037.13
589.13	51985.64
589.29	52332.04
589.45	52397.57
589.61	52287.57
589.77	52633.97
589.93	52423.32
590.08	52568.43
590.24	52657.37
