SpectraSuite Data File
++++++++++++++++++++++++++++++++++++
Date: Fri Oct 04 11:48:25 GMT-05:00 2013
User: price-jones
Dark Spectrum Present: No
Reference Spectrum Present: No
Number of Sampled Component Spectra: 1
Spectrometers: USB2+H05261
Integration Time (usec): 100000 (USB2+H05261)
Spectra Averaged: 1 (USB2+H05261)
Boxcar Smoothing: 0 (USB2+H05261)
Correct for Electrical Dark: No (USB2+H05261)
Strobe/Lamp Enabled: No (USB2+H05261)
Correct for Detector Non-linearity: No (USB2+H05261)
Correct for Stray Light: No (USB2+H05261)
Number of Pixels in Processed Spectrum: 2048
>>>>>Begin Processed Spectral Data<<<<<
365.73	30.43
365.92	30.43
366.12	30.43
366.32	0.00
366.52	0.00
366.72	0.00
366.91	0.00
367.11	0.00
367.31	0.00
367.51	0.00
367.70	0.00
367.90	0.00
368.10	0.00
368.30	0.00
368.49	0.00
368.69	0.00
368.89	0.00
369.09	0.00
369.28	0.00
369.48	0.00
369.68	0.00
369.87	44.47
370.07	0.00
370.27	0.00
370.47	173.20
370.66	547.69
370.86	557.05
371.06	580.45
371.25	596.84
371.45	568.75
371.65	552.37
371.84	601.52
372.04	645.99
372.24	667.05
372.44	645.99
372.63	678.76
372.83	744.29
373.03	746.63
373.22	748.97
373.42	664.71
373.62	753.65
373.81	781.74
374.01	809.83
374.21	748.97
374.40	741.95
374.60	760.67
374.79	774.72
374.99	702.16
375.19	763.01
375.38	858.98
375.58	802.80
375.78	842.59
375.97	849.61
376.17	950.26
376.37	755.99
376.56	805.14
376.76	842.59
376.95	821.53
377.15	943.24
377.35	816.85
377.54	891.74
377.74	957.28
377.93	896.43
378.13	826.21
378.33	898.77
378.52	915.15
378.72	915.15
378.91	957.28
379.11	940.90
379.31	1025.15
379.50	976.00
379.70	959.62
379.89	1062.60
380.09	992.39
380.28	1022.81
380.48	964.30
380.68	1022.81
380.87	1048.56
381.07	1032.18
381.26	1097.71
381.46	936.21
381.65	1078.99
381.85	1062.60
382.04	1135.16
382.24	1174.95
382.43	1132.82
382.63	1090.69
382.83	1158.57
383.02	1109.41
383.22	1238.14
383.41	1109.41
383.61	1074.31
383.80	1177.29
384.00	1181.97
384.19	1226.44
384.39	1193.67
384.58	1249.85
384.78	1181.97
384.97	1308.36
385.17	1217.08
385.36	1238.14
385.56	1280.27
385.75	1179.63
385.95	1289.64
386.14	1277.93
386.34	1310.70
386.53	1294.32
386.72	1331.76
386.92	1401.98
387.11	1352.83
387.31	1343.47
387.50	1324.74
387.70	1308.36
387.89	1406.66
388.09	1364.53
388.28	1369.21
388.48	1437.09
388.67	1338.79
388.86	1486.24
389.06	1369.21
389.25	1423.05
389.45	1490.92
389.64	1455.81
389.84	1528.37
390.03	1607.95
390.22	1511.99
390.42	1514.33
390.61	1577.52
390.81	1579.86
391.00	1558.80
391.19	1502.62
391.39	1640.72
391.58	1540.07
391.78	1600.93
391.97	1626.67
392.16	1668.80
392.36	1650.08
392.55	1633.69
392.75	1699.23
392.94	1783.49
393.13	1804.55
393.33	1741.36
393.52	1708.59
393.71	1842.00
393.91	1830.30
394.10	1778.81
394.29	1753.06
394.49	1755.40
394.68	1926.26
394.88	1977.75
395.07	1977.75
395.26	1851.36
395.46	1811.57
395.65	1865.41
395.84	1966.05
396.04	1961.37
396.23	1944.99
396.42	2043.29
396.62	2129.89
396.81	1954.35
397.00	2022.22
397.19	2101.80
397.39	2073.71
397.58	2141.59
397.77	2176.70
397.97	2225.85
398.16	2012.86
398.35	2153.29
398.55	2228.19
398.74	2169.68
398.93	2319.47
399.12	2127.55
399.32	2249.25
399.51	2230.53
399.70	2328.83
399.90	2310.11
400.09	2406.07
400.28	2370.96
400.47	2441.18
400.67	2429.48
400.86	2345.22
401.05	2436.50
401.24	2392.03
401.44	2462.24
401.63	2487.99
401.82	2469.27
402.01	2480.97
402.21	2612.04
402.40	2576.93
402.59	2567.57
402.78	2651.83
402.97	2672.89
403.17	2593.31
403.36	2668.21
403.55	2597.99
403.74	2736.09
403.93	2881.20
404.13	2729.06
404.32	2780.56
404.51	2754.81
404.70	2848.43
404.89	2899.92
405.09	2902.26
405.28	2864.82
405.47	2939.71
405.66	2979.50
405.85	3080.14
406.05	2963.12
406.24	3117.59
406.43	3115.25
406.62	3103.55
406.81	3293.13
407.00	3073.12
407.20	3143.34
407.39	3101.21
407.58	3194.83
407.77	3082.49
407.96	3377.39
408.15	3375.05
408.34	3222.92
408.54	3274.41
408.73	3229.94
408.92	3258.03
409.11	3346.97
409.30	3396.12
409.49	3382.07
409.68	3449.95
409.87	3527.19
410.07	3602.08
410.26	3625.49
410.45	3730.81
410.64	3545.91
410.83	3529.53
411.02	3735.50
411.21	3721.45
411.40	3915.72
411.59	3964.87
411.78	3840.82
411.98	3866.56
412.17	3871.25
412.36	3948.48
412.55	4060.83
412.74	4025.72
412.93	4086.58
413.12	4074.87
413.31	4219.99
413.50	4126.36
413.69	4301.90
413.88	4252.75
414.07	4353.40
414.26	4386.16
414.45	4388.50
414.64	4369.78
414.83	4575.75
415.02	4470.42
415.22	4503.19
415.41	4568.73
415.60	4617.88
415.79	4645.96
415.98	4809.80
416.17	4713.84
416.36	4739.58
416.55	4856.61
416.74	4819.16
416.93	4858.95
417.12	4905.76
417.31	5247.48
417.50	4945.55
417.69	5132.79
417.88	5109.39
418.07	5081.30
418.26	5069.60
418.45	5249.82
418.64	5303.65
418.83	5303.65
419.02	5252.16
419.21	5305.99
419.39	5387.91
419.58	5476.85
419.77	5455.79
419.96	5504.94
420.15	5729.63
420.34	5528.35
420.53	5551.75
420.72	5626.65
420.91	5589.20
421.10	5685.16
421.29	5713.25
421.48	5720.27
421.67	5792.83
421.86	5731.97
422.05	5881.77
422.24	5722.61
422.43	5764.74
422.61	5891.13
422.80	5867.72
422.99	5907.51
423.18	6069.01
423.37	5973.05
423.56	5991.77
423.75	5881.77
423.94	5713.25
424.13	5577.50
424.32	5547.07
424.50	5928.58
424.69	6256.25
424.88	6202.42
425.07	6169.65
425.26	5867.72
425.45	5907.51
425.64	6129.86
425.83	6125.18
426.01	6136.88
426.20	5991.77
426.39	6033.90
426.58	6155.61
426.77	6181.35
426.96	6209.44
427.15	6139.23
427.33	6176.67
427.52	6387.32
427.71	6211.78
427.90	6223.48
428.09	6380.30
428.28	6471.58
428.46	6462.22
428.65	6497.33
428.84	6579.25
429.03	6722.02
429.22	6324.13
429.40	6562.86
429.59	6644.78
429.78	6457.54
429.97	6588.61
430.16	6642.44
430.34	6715.00
430.53	6738.40
430.72	6757.13
430.91	6780.53
431.10	6890.54
431.28	6895.22
431.47	6972.46
431.66	7056.72
431.85	6923.30
432.03	7372.69
432.22	7255.66
432.41	7061.40
432.60	7311.83
432.79	7105.87
432.97	7330.56
433.16	7405.46
433.35	7288.43
433.54	7403.11
433.72	7468.65
433.91	7445.24
434.10	7229.91
434.28	7325.88
434.47	7353.96
434.66	7770.58
434.85	7548.23
435.03	7658.23
435.22	7503.76
435.41	8006.97
435.59	7801.01
435.78	7861.86
435.97	7826.75
436.16	7969.52
436.34	7934.42
436.53	7716.75
436.72	8294.86
436.90	7864.20
437.09	8035.06
437.28	7911.01
437.46	8072.51
437.65	8079.53
437.84	8079.53
438.02	8308.90
438.21	8142.72
438.40	8063.15
438.58	8336.99
438.77	8547.64
438.96	8414.23
439.14	8688.07
439.33	8704.45
439.52	8702.11
439.70	8940.85
439.89	8968.93
440.08	8997.02
440.26	9001.70
440.45	9109.36
440.63	9245.12
440.82	9294.27
441.01	9380.87
441.19	9268.52
441.38	9364.48
441.57	9282.56
441.75	9535.34
441.94	9879.40
442.12	9650.03
442.31	9750.67
442.50	9823.23
442.68	9657.05
442.87	9760.03
443.05	9673.43
443.24	10129.84
443.43	9809.19
443.61	9837.27
443.80	10326.44
443.98	9837.27
444.17	9767.06
444.35	10178.99
444.54	10455.17
444.73	10279.63
444.91	10068.98
445.10	10174.31
445.28	10155.58
445.47	9942.60
445.65	10050.26
445.84	10459.85
446.02	10707.95
446.21	10118.14
446.39	10399.00
446.58	10169.63
446.77	10593.26
446.95	10190.69
447.14	10200.05
447.32	10462.19
447.51	10410.70
447.69	10415.38
447.88	10499.64
448.06	10235.16
448.25	10223.46
448.43	10539.43
448.62	10509.01
448.80	10492.62
448.99	10712.63
449.17	10731.36
449.36	10518.37
449.54	10803.91
449.73	10878.81
449.91	10970.09
450.10	11122.23
450.28	11063.71
450.46	11084.78
450.65	10815.62
450.83	11307.13
451.02	11169.04
451.20	11236.91
451.39	11087.12
451.57	11234.57
451.76	11232.23
451.94	11328.19
452.13	11660.55
452.31	11286.06
452.49	11222.87
452.68	11279.04
452.86	11288.40
453.05	11651.19
453.23	11506.07
453.42	11623.10
453.60	11564.59
453.78	11627.78
453.97	11391.39
454.15	11707.36
454.34	11590.33
454.52	11955.46
454.70	11896.94
454.89	12131.00
455.07	11901.62
455.26	12077.16
455.44	12449.31
455.62	12105.25
455.81	12325.26
455.99	12182.49
456.17	12519.53
456.36	12479.74
456.54	12540.59
456.73	12402.50
456.91	12762.94
457.09	12767.62
457.28	13036.78
457.46	12765.28
457.64	13107.00
457.83	13118.70
458.01	12992.31
458.19	13151.47
458.38	13149.13
458.56	13191.26
458.74	13195.94
458.93	13015.72
459.11	13076.57
459.29	13224.03
459.48	13387.86
459.66	13114.02
459.84	13432.33
460.03	13867.67
460.21	13752.99
460.39	13432.33
460.57	13282.54
460.76	13848.95
460.94	13762.35
461.12	13645.32
461.31	13797.46
461.49	13907.46
461.67	13806.82
461.85	14354.51
462.04	14167.26
462.22	14754.74
462.40	14396.64
462.59	14211.73
462.77	14321.74
462.95	14569.83
463.13	14211.73
463.32	14218.75
463.50	14272.59
463.68	14726.65
463.86	14410.68
464.05	14338.12
464.23	14525.36
464.41	14658.78
464.59	14415.36
464.78	14885.81
464.96	14881.13
465.14	14394.29
465.32	14960.70
465.50	14829.63
465.69	15115.18
465.87	15157.31
466.05	15157.31
466.23	15161.99
466.41	15328.17
466.60	15445.20
466.78	14913.89
466.96	15424.13
467.14	15122.20
467.32	15201.78
467.51	15573.92
467.69	15372.64
467.87	15325.83
468.05	15508.39
468.23	15386.68
468.41	15609.03
468.60	15412.43
468.78	15782.23
468.96	15578.61
469.14	15985.86
469.32	15969.48
469.50	15892.24
469.69	15960.11
469.87	16191.83
470.05	16388.43
470.23	16355.66
470.41	16400.13
470.59	16425.88
470.77	16369.71
470.95	16580.36
471.14	16514.82
471.32	16177.78
471.50	16912.71
471.68	16720.79
471.86	16870.58
472.04	17102.29
472.22	17547.00
472.40	16973.56
472.58	17261.45
472.77	17366.78
472.95	17659.34
473.13	17923.82
473.31	17802.11
473.49	17788.07
473.67	17755.30
473.85	17877.01
474.03	18087.66
474.21	18010.42
474.39	18462.15
474.57	18625.98
474.75	18497.25
474.93	18609.60
475.12	18530.02
475.30	18682.16
475.48	18710.24
475.66	18885.78
475.84	19260.27
476.02	19115.16
476.20	19168.99
476.38	19286.01
476.56	19517.73
476.74	20177.76
476.92	19887.53
477.10	19981.15
477.28	20002.22
477.46	20212.87
477.64	20491.39
477.82	20318.19
478.00	20751.19
478.18	21158.44
478.36	21221.64
478.54	21598.46
478.72	21638.25
478.90	21806.77
479.08	21783.37
479.26	22160.19
479.44	22029.12
479.62	22427.01
479.80	22118.06
479.98	22607.23
480.16	22934.91
480.34	22850.65
480.52	22965.34
480.70	23028.53
480.88	23124.49
481.06	23419.40
481.24	23396.00
481.41	23910.91
481.59	24009.22
481.77	24444.56
481.95	24556.90
482.13	24882.24
482.31	24713.72
482.49	25329.28
482.67	24926.71
482.85	25310.55
483.03	25876.96
483.21	26162.51
483.39	26270.17
483.57	26089.95
483.74	26312.30
483.92	26768.71
484.10	26867.01
484.28	26895.10
484.46	27344.48
484.64	28287.71
484.82	27412.35
485.00	27962.38
485.18	28308.78
485.35	28608.37
485.53	28404.74
485.71	28816.68
485.89	29198.18
486.07	29137.33
486.25	29244.99
486.43	29647.57
486.61	29919.07
486.78	30078.22
486.96	30448.03
487.14	30698.47
487.32	30375.47
487.50	31297.64
487.68	31388.92
487.85	31803.20
488.03	32430.46
488.21	32168.32
488.39	32268.97
488.57	32650.47
488.75	33153.69
488.92	33053.05
489.10	33259.01
489.28	33661.58
489.46	34057.14
489.64	33645.20
489.81	34691.42
489.99	34630.57
490.17	34672.70
490.35	35250.81
490.53	35253.15
490.70	35629.98
490.88	35452.09
491.06	36325.11
491.24	35817.22
491.41	35952.97
491.59	36292.35
491.77	36472.57
491.95	37053.02
492.13	37221.54
492.30	37266.01
492.48	37591.34
492.66	37979.87
492.84	37881.57
493.01	38469.04
493.19	38773.31
493.37	39126.74
493.54	38464.36
493.72	39166.52
493.90	39409.94
494.08	39548.03
494.25	39941.24
494.43	40121.46
494.61	40446.80
494.79	40741.71
494.96	40472.54
495.14	40856.39
495.32	41361.95
495.49	41104.49
495.67	41598.34
495.85	42244.33
496.02	41977.51
496.20	42298.16
496.38	42513.49
496.55	42504.13
496.73	43150.12
496.91	42773.29
497.09	43007.34
497.26	43524.60
497.44	43325.66
497.62	43777.38
497.79	44404.64
497.97	43950.58
498.14	44989.78
498.32	44835.30
498.50	45024.89
498.67	45090.42
498.85	45031.91
499.03	45223.83
499.20	45642.79
499.38	45397.03
499.56	46087.49
499.73	46742.84
499.91	46394.10
500.08	46358.99
500.26	46401.12
500.44	46550.91
500.61	46815.40
500.79	47119.66
500.97	47000.30
501.14	47578.41
501.32	47723.52
501.49	47199.24
501.67	47976.30
501.84	47863.96
502.02	48002.05
502.20	48053.54
502.37	48233.76
502.55	48215.04
502.72	48451.43
502.90	48336.74
503.07	48650.38
503.25	48772.08
503.43	48952.30
503.60	49106.78
503.78	49291.68
503.95	49404.03
504.13	49045.93
504.30	49308.07
504.48	49460.20
504.65	49729.36
504.83	49989.16
505.01	50241.94
505.18	50155.34
505.36	50583.66
505.53	50440.89
505.71	50394.07
505.88	50504.08
506.06	50518.12
506.23	50990.91
506.41	50398.76
506.58	51173.47
506.76	51320.93
506.93	51189.86
507.11	50639.83
507.28	51508.17
507.46	51498.81
507.63	51980.96
507.81	51793.71
507.98	51643.92
508.16	51803.08
508.33	51833.50
508.50	52135.43
508.68	52123.73
508.85	52512.26
509.03	52329.70
509.20	52526.30
509.38	52491.19
509.55	53172.29
509.73	53240.17
509.90	52797.80
510.08	52914.83
510.25	53052.92
510.42	53322.08
510.60	53389.96
510.77	53624.01
510.95	53422.73
511.12	53336.13
511.30	53380.60
511.47	53755.08
511.64	53752.74
511.82	53956.37
511.99	53937.65
512.17	54326.17
512.34	54117.87
512.51	54309.79
512.69	54482.99
512.86	54363.62
513.04	54422.14
513.21	54866.84
513.38	54805.98
513.56	54962.80
513.73	54698.32
513.90	54878.54
514.08	54684.28
514.25	54740.45
514.43	55283.45
514.60	55269.41
514.77	55189.83
514.95	55157.06
515.12	55320.90
515.29	55040.04
515.47	55749.22
515.64	55838.16
515.81	55643.90
515.99	56013.70
516.16	55896.67
516.33	56100.30
516.51	56140.09
516.68	55807.73
516.85	55929.44
517.03	56568.41
517.20	56308.61
517.37	56324.99
517.54	56427.98
517.72	56250.09
517.89	56301.59
518.06	56292.22
518.24	56547.34
518.41	56612.88
518.58	56629.26
518.75	56570.75
518.93	56879.70
519.10	56793.10
519.27	56877.36
519.45	56910.13
519.62	57041.20
519.79	57144.18
519.96	56954.60
520.14	57212.06
520.31	57116.09
520.48	57359.51
520.65	57462.49
520.83	57579.52
521.00	57504.62
521.17	57415.68
521.34	57455.47
521.52	57623.99
521.69	57586.54
521.86	57867.40
522.03	57958.69
522.20	57993.79
522.38	57886.13
522.55	58026.56
522.72	58152.95
522.89	57968.05
523.07	58295.72
523.24	58122.52
523.41	58478.28
523.58	58342.53
523.75	58632.76
523.92	58293.38
524.10	58466.58
524.27	58604.67
524.44	58649.14
524.61	58777.87
524.78	59117.25
524.96	58768.51
525.13	58901.92
525.30	58824.68
525.47	58990.86
525.64	58836.39
525.81	59035.33
525.98	59182.79
526.16	59150.02
526.33	59103.21
526.50	59236.62
526.67	58995.54
526.84	59194.49
527.01	59138.32
527.18	59231.94
527.36	59501.10
527.53	59559.61
527.70	59524.50
527.87	59566.63
528.04	59550.25
528.21	59784.30
528.38	59468.33
528.55	59854.52
528.72	59859.20
528.89	59901.33
529.07	59800.69
529.24	59849.84
529.41	59891.97
529.58	59824.09
529.75	59814.73
529.92	59936.44
530.09	59969.21
530.26	60182.19
530.43	60081.55
530.60	59992.61
530.77	60097.94
530.94	60416.25
531.11	59920.05
531.28	60137.72
531.46	60329.65
531.63	60327.31
531.80	60610.51
531.97	60580.09
532.14	60516.89
532.31	60631.58
532.48	60458.38
532.65	60685.41
532.82	60402.21
532.99	60736.90
533.16	60678.39
533.33	60804.78
533.50	61034.15
533.67	60844.57
533.84	60636.26
534.01	60622.22
534.18	60760.31
534.35	61120.75
534.52	61113.73
534.69	61387.57
534.86	61410.98
535.03	61118.41
535.20	61223.73
535.37	61235.44
535.54	61432.04
535.71	61265.86
535.88	61190.97
536.05	61300.97
536.22	61645.03
536.38	61399.27
536.55	61595.88
536.72	61729.29
536.89	61399.27
537.06	61483.53
537.23	61680.14
537.40	61513.96
537.57	61609.92
537.74	61736.31
537.91	61846.32
538.08	61792.48
538.25	61785.46
538.42	61623.96
538.59	61993.77
538.75	61581.84
538.92	61923.55
539.09	61867.38
539.26	62073.35
539.43	62017.17
539.60	62138.88
539.77	61932.92
539.94	62122.50
540.11	61942.28
540.28	62173.99
540.44	62148.24
540.61	61825.25
540.78	62419.75
540.95	62138.88
541.12	62391.66
541.29	62307.40
541.46	62227.82
541.62	62377.62
541.79	62298.04
541.96	62188.03
542.13	62372.94
542.30	62475.92
542.47	62522.73
542.63	62805.94
542.80	62578.90
542.97	62649.12
543.14	62805.94
543.31	62721.68
543.48	62747.42
543.64	63147.65
543.81	62838.70
543.98	62958.07
544.15	63021.26
544.32	63203.83
544.48	63056.37
544.65	63079.78
544.82	62887.85
544.99	62915.94
545.16	62995.52
545.32	63131.27
545.49	63344.26
545.66	63320.85
545.83	63402.77
546.00	63384.05
546.16	63154.68
546.33	63103.18
546.50	63114.89
546.67	63379.37
546.83	63032.97
547.00	63442.56
547.17	63465.97
547.34	63494.05
547.50	63547.89
547.67	63618.10
547.84	63531.50
548.00	63627.46
548.17	63629.80
548.34	63571.29
548.51	63608.74
548.67	63845.13
548.84	63772.58
549.01	63557.25
549.18	63765.56
549.34	63735.13
549.51	63707.04
549.68	63934.07
549.84	63711.72
550.01	63957.48
550.18	63753.85
550.34	64069.82
550.51	63866.20
550.68	63983.22
550.84	63725.77
551.01	64025.35
551.18	63798.32
551.34	63875.56
551.51	64018.33
551.68	64118.98
551.84	64217.28
552.01	63894.28
552.18	64191.53
552.34	64238.34
552.51	64163.45
552.68	64177.49
552.84	64243.02
553.01	64397.50
553.18	64236.00
553.34	64551.98
553.51	64289.84
553.67	64432.61
553.84	64486.44
554.01	64425.59
554.17	64488.78
554.34	64404.52
554.51	64392.82
554.67	64575.38
554.84	64608.15
555.00	64629.21
555.17	64537.93
555.33	64603.47
555.50	64507.50
555.67	64537.93
555.83	64619.85
556.00	64619.85
556.16	64718.15
556.33	64514.53
556.50	64755.60
556.66	64889.01
556.83	64711.13
556.99	64966.25
557.16	65036.47
557.32	64931.14
557.49	64867.95
557.65	64654.96
557.82	64809.43
557.98	64872.63
558.15	64954.55
558.32	65130.09
558.48	64825.82
558.65	65094.98
558.81	64867.95
558.98	64924.12
559.14	64938.16
559.31	64961.57
559.47	64907.74
559.64	64973.27
559.80	65031.78
559.97	65031.78
560.13	64959.23
560.30	65064.55
560.46	65176.90
560.63	65240.09
560.79	65183.92
560.96	65116.04
561.12	65219.03
561.29	65127.75
561.45	65087.96
561.61	65233.07
561.78	65242.43
561.94	65237.75
562.11	65223.71
562.27	65153.49
562.44	65226.05
562.60	65282.22
562.77	65403.93
562.93	65385.21
563.10	65535.00
563.26	65296.27
563.42	65535.00
563.59	65485.85
563.75	65354.78
563.92	65490.53
564.08	65322.01
564.24	65329.03
564.41	65350.10
564.57	65490.53
564.74	65396.91
564.90	65535.00
565.07	65535.00
565.23	65535.00
565.39	65516.28
565.56	65535.00
565.72	65532.66
565.88	65427.34
566.05	65415.63
566.21	65535.00
566.38	65535.00
566.54	65535.00
566.70	65535.00
566.87	65535.00
567.03	65535.00
567.19	65535.00
567.36	65535.00
567.52	65535.00
567.68	65535.00
567.85	65518.62
568.01	65535.00
568.17	65535.00
568.34	65535.00
568.50	65535.00
568.66	65535.00
568.83	65535.00
568.99	65535.00
569.15	65535.00
569.32	65535.00
569.48	65535.00
569.64	65535.00
569.81	65535.00
569.97	65535.00
570.13	65535.00
570.30	65535.00
570.46	65535.00
570.62	65535.00
570.78	65535.00
570.95	65476.49
571.11	65535.00
571.27	65535.00
571.43	65535.00
571.60	65535.00
571.76	65535.00
571.92	65535.00
572.09	65535.00
572.25	65535.00
572.41	65535.00
572.57	65535.00
572.74	65535.00
572.90	65535.00
573.06	65535.00
573.22	65535.00
573.38	65535.00
573.55	65535.00
573.71	65535.00
573.87	65535.00
574.03	65535.00
574.20	65535.00
574.36	65535.00
574.52	65535.00
574.68	65535.00
574.84	65535.00
575.01	65535.00
575.17	65535.00
575.33	65535.00
575.49	65535.00
575.65	65535.00
575.82	65535.00
575.98	65535.00
576.14	65535.00
576.30	65535.00
576.46	65535.00
576.62	65535.00
576.79	65535.00
576.95	65535.00
577.11	65535.00
577.27	65535.00
577.43	65535.00
577.59	65535.00
577.75	65535.00
577.92	65535.00
578.08	65535.00
578.24	65535.00
578.40	65535.00
578.56	65535.00
578.72	65535.00
578.88	65535.00
579.04	65535.00
579.21	65535.00
579.37	65535.00
579.53	65535.00
579.69	65535.00
579.85	65535.00
580.01	65535.00
580.17	65535.00
580.33	65535.00
580.49	65535.00
580.65	65535.00
580.82	65535.00
580.98	65535.00
581.14	65535.00
581.30	65535.00
581.46	65535.00
581.62	65535.00
581.78	65535.00
581.94	65535.00
582.10	65535.00
582.26	65535.00
582.42	65535.00
582.58	65535.00
582.74	65535.00
582.90	65535.00
583.06	65535.00
583.22	65535.00
583.38	65535.00
583.54	65535.00
583.70	65535.00
583.86	65535.00
584.02	65535.00
584.18	65535.00
584.34	65535.00
584.50	65535.00
584.66	65535.00
584.82	65535.00
584.98	65535.00
585.14	65535.00
585.30	65535.00
585.46	65535.00
585.62	65535.00
585.78	65535.00
585.94	65535.00
586.10	65535.00
586.26	65535.00
586.42	65535.00
586.58	65535.00
586.74	65535.00
586.90	65535.00
587.06	65535.00
587.22	65535.00
587.38	65535.00
587.54	65535.00
587.70	65535.00
587.86	65535.00
588.02	65535.00
588.18	65535.00
