SpectraSuite Data File
++++++++++++++++++++++++++++++++++++
Date: Fri Oct 04 11:48:40 GMT-05:00 2013
User: price-jones
Dark Spectrum Present: No
Reference Spectrum Present: No
Number of Sampled Component Spectra: 1
Spectrometers: USB2+H05261
Integration Time (usec): 100000 (USB2+H05261)
Spectra Averaged: 1 (USB2+H05261)
Boxcar Smoothing: 0 (USB2+H05261)
Correct for Electrical Dark: No (USB2+H05261)
Strobe/Lamp Enabled: No (USB2+H05261)
Correct for Detector Non-linearity: No (USB2+H05261)
Correct for Stray Light: No (USB2+H05261)
Number of Pixels in Processed Spectrum: 2048
>>>>>Begin Processed Spectral Data<<<<<
365.73	25.75
365.92	25.75
366.12	25.75
366.32	0.00
366.52	0.00
366.72	0.00
366.91	0.00
367.11	0.00
367.31	0.00
367.51	0.00
367.70	0.00
367.90	0.00
368.10	0.00
368.30	0.00
368.49	0.00
368.69	0.00
368.89	0.00
369.09	0.00
369.28	0.00
369.48	0.00
369.68	0.00
369.87	7.02
370.07	0.00
370.27	14.04
370.47	105.32
370.66	236.39
370.86	346.40
371.06	383.85
371.25	360.44
371.45	299.59
371.65	416.62
371.84	383.85
372.04	400.23
372.24	411.93
372.44	444.70
372.63	423.64
372.83	521.94
373.03	470.45
373.22	498.53
373.42	425.98
373.62	451.72
373.81	470.45
374.01	594.50
374.21	554.71
374.40	510.24
374.60	528.96
374.79	528.96
374.99	540.66
375.19	571.09
375.38	594.50
375.58	580.45
375.78	573.43
375.97	636.63
376.17	589.82
376.37	681.10
376.56	543.00
376.76	538.32
376.95	550.03
377.15	589.82
377.35	599.18
377.54	601.52
377.74	655.35
377.93	573.43
378.13	561.73
378.33	589.82
378.52	526.62
378.72	601.52
378.91	713.86
379.11	669.39
379.31	629.60
379.50	631.94
379.70	674.07
379.89	634.29
380.09	624.92
380.28	688.12
380.48	643.65
380.68	685.78
380.87	678.76
381.07	718.54
381.26	763.01
381.46	638.97
381.65	676.41
381.85	779.40
382.04	685.78
382.24	697.48
382.43	720.88
382.63	725.57
382.83	774.72
383.02	814.51
383.22	720.88
383.41	683.44
383.61	702.16
383.80	919.83
384.00	791.10
384.19	765.36
384.39	809.83
384.58	772.38
384.78	952.60
384.97	856.64
385.17	800.46
385.36	802.80
385.56	842.59
385.75	858.98
385.95	891.74
386.14	851.96
386.34	938.55
386.53	912.81
386.72	870.68
386.92	891.74
387.11	800.46
387.31	922.17
387.50	856.64
387.70	945.58
387.89	873.02
388.09	947.92
388.28	898.77
388.48	966.64
388.67	1011.11
388.86	950.26
389.06	898.77
389.25	1041.54
389.45	968.98
389.64	1062.60
389.84	1027.50
390.03	1001.75
390.22	1128.14
390.42	952.60
390.61	997.07
390.81	1025.15
391.00	973.66
391.19	990.05
391.39	938.55
391.58	1060.26
391.78	980.68
391.97	1086.01
392.16	1123.46
392.36	1071.97
392.55	1064.94
392.75	1158.57
392.94	1156.22
393.13	1125.80
393.33	1125.80
393.52	1088.35
393.71	1153.88
393.91	1181.97
394.10	1170.27
394.29	1116.44
394.49	1217.08
394.68	1254.53
394.88	1238.14
395.07	1212.40
395.26	1198.35
395.46	1128.14
395.65	1217.08
395.84	1317.72
396.04	1369.21
396.23	1376.24
396.42	1336.45
396.62	1313.04
396.81	1200.69
397.00	1327.08
397.19	1324.74
397.39	1462.83
397.58	1362.19
397.77	1366.87
397.97	1411.34
398.16	1401.98
398.35	1432.41
398.55	1355.17
398.74	1369.21
398.93	1488.58
399.12	1495.60
399.32	1537.73
399.51	1530.71
399.70	1626.67
399.90	1472.20
400.09	1493.26
400.28	1540.07
400.47	1607.95
400.67	1633.69
400.86	1629.01
401.05	1680.50
401.24	1664.12
401.44	1654.76
401.63	1633.69
401.82	1617.31
402.01	1715.61
402.21	1598.59
402.40	1685.19
402.59	1652.42
402.78	1624.33
402.97	1748.38
403.17	1710.93
403.36	1769.44
403.55	1689.87
403.74	1816.26
403.93	1781.15
404.13	1837.32
404.32	1837.32
404.51	1867.75
404.70	1865.41
404.89	1996.48
405.09	1982.43
405.28	1870.09
405.47	1877.11
405.66	1942.64
405.85	2015.20
406.05	1959.03
406.24	2026.90
406.43	2071.37
406.62	2064.35
406.81	2125.21
407.00	2080.74
407.20	2045.63
407.39	1954.35
407.58	2195.42
407.77	2214.15
407.96	2258.62
408.15	2172.02
408.34	2249.25
408.54	2214.15
408.73	2249.25
408.92	2162.66
409.11	2366.28
409.30	2312.45
409.49	2284.36
409.68	2307.77
409.87	2406.07
410.07	2382.67
410.26	2403.73
410.45	2429.48
410.64	2427.14
410.83	2422.45
411.02	2485.65
411.21	2382.67
411.40	2548.84
411.59	2630.76
411.78	2612.04
411.98	2588.63
412.17	2691.62
412.36	2516.08
412.55	2637.78
412.74	2726.72
412.93	2605.02
413.12	2693.96
413.31	2935.03
413.50	2871.84
413.69	2813.32
413.88	2890.56
414.07	2881.20
414.26	2796.94
414.45	2928.01
414.64	3035.67
414.83	2972.48
415.02	2930.35
415.22	3038.02
415.41	3145.68
415.60	3009.93
415.79	3173.77
415.98	3234.62
416.17	3276.75
416.36	3145.68
416.55	3246.32
416.74	3176.11
416.93	3370.37
417.12	3330.58
417.31	3428.88
417.50	3358.67
417.69	3496.76
417.88	3478.04
418.07	3503.78
418.26	3459.31
418.45	3517.83
418.64	3618.47
418.83	3651.24
419.02	3588.04
419.21	3616.13
419.39	3616.13
419.58	3545.91
419.77	3688.68
419.96	3861.88
420.15	3709.75
420.34	3765.92
420.53	3775.28
420.72	3803.37
420.91	3772.94
421.10	3871.25
421.29	3885.29
421.48	3691.02
421.67	4070.19
421.86	3815.07
422.05	3946.14
422.24	3885.29
422.43	3810.39
422.61	3892.31
422.80	4084.23
422.99	4124.02
423.18	3978.91
423.37	4051.47
423.56	4053.81
423.75	3934.44
423.94	3803.37
424.13	3801.03
424.32	3829.12
424.50	4074.87
424.69	4135.73
424.88	4093.60
425.07	4025.72
425.26	3817.41
425.45	3908.69
425.64	4077.21
425.83	4131.05
426.01	4248.07
426.20	4145.09
426.39	4140.41
426.58	4028.06
426.77	4124.02
426.96	4124.02
427.15	4056.15
427.33	4107.64
427.52	4306.59
427.71	4257.43
427.90	4421.27
428.09	4348.72
428.28	4287.86
428.46	4360.42
428.65	4304.25
428.84	4388.50
429.03	4454.04
429.22	4458.72
429.40	4510.21
429.59	4552.34
429.78	4367.44
429.97	4362.76
430.16	4512.55
430.34	4650.64
430.53	4564.04
430.72	4678.73
430.91	4538.30
431.10	4594.47
431.28	4753.63
431.47	4868.31
431.66	4739.58
431.85	4908.10
432.03	4861.29
432.22	4997.04
432.41	4760.65
432.60	4798.10
432.79	4840.23
432.97	4915.12
433.16	5020.45
433.35	4777.03
433.54	4973.64
433.72	5104.71
433.91	4959.60
434.10	5093.01
434.28	5062.58
434.47	4968.96
434.66	4975.98
434.85	5254.50
435.03	5317.70
435.22	5327.06
435.41	5341.10
435.59	5125.77
435.78	5198.33
435.97	5369.19
436.16	5226.42
436.34	5289.61
436.53	5303.65
436.72	5483.88
436.90	5331.74
437.09	5394.93
437.28	5273.23
437.46	5444.09
437.65	5308.34
437.84	5537.71
438.02	5547.07
438.21	5603.24
438.40	5277.91
438.58	5722.61
438.77	5715.59
438.96	5671.12
439.14	5837.30
439.33	5757.72
439.52	5809.21
439.70	6012.84
439.89	5998.79
440.08	6120.50
440.26	5973.05
440.45	6024.54
440.63	6139.23
440.82	6230.51
441.01	6179.01
441.19	6427.11
441.38	6455.20
441.57	6228.17
441.75	6296.04
441.94	6516.05
442.12	6476.26
442.31	6567.54
442.50	6651.80
442.68	6553.50
442.87	6462.22
443.05	6635.42
443.24	6675.21
443.43	6813.30
443.61	6738.40
443.80	7169.06
443.98	6810.96
444.17	6569.88
444.35	6698.61
444.54	6895.22
444.73	6857.77
444.91	6789.89
445.10	6923.30
445.28	6705.63
445.47	6810.96
445.65	6848.41
445.84	6853.09
446.02	6988.84
446.21	6787.55
446.39	6799.26
446.58	6935.01
446.77	6956.07
446.95	7007.56
447.14	7028.63
447.32	6932.67
447.51	6909.26
447.69	6960.75
447.88	6939.69
448.06	7047.35
448.25	6860.11
448.43	6918.62
448.62	6827.34
448.80	6984.16
448.99	7260.34
449.17	7316.51
449.36	7211.19
449.54	7281.41
449.73	7346.94
449.91	7330.56
450.10	7517.80
450.28	7473.33
450.46	7653.55
450.65	7508.44
450.83	7515.46
451.02	7456.95
451.20	7452.27
451.39	7515.46
451.57	7508.44
451.76	7452.27
451.94	7655.89
452.13	7761.22
452.31	7557.59
452.49	7620.78
452.68	7599.72
452.86	7674.62
453.05	7918.03
453.23	7939.10
453.42	7702.70
453.60	7616.10
453.78	7686.32
453.97	7939.10
454.15	7714.41
454.34	7784.62
454.52	7866.54
454.70	7988.25
454.89	7971.86
455.07	8065.49
455.26	7885.26
455.44	8006.97
455.62	8388.48
455.81	8313.58
455.99	8290.18
456.17	8271.45
456.36	8152.09
456.54	8409.54
456.73	8236.35
456.91	8493.80
457.09	8500.83
457.28	8535.93
457.46	8517.21
457.64	8711.47
457.83	8685.73
458.01	8444.65
458.19	8606.15
458.38	8697.43
458.56	8872.97
458.74	8847.22
458.93	8674.03
459.11	8793.39
459.29	8887.01
459.48	9004.04
459.66	9050.85
459.84	8999.36
460.03	9252.14
460.21	8947.87
460.39	9228.73
460.57	9174.90
460.76	9268.52
460.94	9137.45
461.12	9158.52
461.31	9282.56
461.49	9167.88
461.67	9092.98
461.85	9453.42
462.04	9394.91
462.22	9994.09
462.40	9373.85
462.59	9589.17
462.77	9673.43
462.95	9451.08
463.13	9689.82
463.32	9462.79
463.50	9783.44
463.68	9680.46
463.86	9645.35
464.05	9528.32
464.23	9678.12
464.41	9685.14
464.59	9776.42
464.78	9970.68
464.96	10012.81
465.14	9750.67
465.32	10111.11
465.50	10017.49
465.69	10120.48
465.87	9947.28
466.05	9809.19
466.23	9958.98
466.41	10153.24
466.60	10375.59
466.78	10008.13
466.96	10125.16
467.14	10040.90
467.32	10200.05
467.51	10415.38
467.69	10017.49
467.87	10377.94
468.05	10408.36
468.23	10347.51
468.41	10277.29
468.60	10370.91
468.78	10427.09
468.96	10342.83
469.14	10611.99
469.32	10473.90
469.50	10551.14
469.69	10642.42
469.87	10827.32
470.05	10745.40
470.23	11019.24
470.41	10885.83
470.59	11108.18
470.77	10993.50
470.95	11279.04
471.14	11194.78
471.32	10817.96
471.50	11279.04
471.68	11180.74
471.86	11358.62
472.04	11227.55
472.22	11536.50
472.40	11091.80
472.58	11307.13
472.77	11365.64
472.95	11602.04
473.13	11747.15
473.31	11632.46
473.49	11688.64
473.67	11644.17
473.85	11796.30
474.03	11988.22
474.21	11784.60
474.39	12257.39
474.57	12327.60
474.75	12311.22
474.93	12421.22
475.12	12315.90
475.30	12341.64
475.48	12432.93
475.66	12631.87
475.84	12468.03
476.02	12613.15
476.20	12751.24
476.38	12952.52
476.56	12905.71
476.74	12989.97
476.92	13263.82
477.10	13277.86
477.28	13252.11
477.46	13184.24
477.64	13439.36
477.82	13778.73
478.00	13947.25
478.18	13729.58
478.36	14015.13
478.54	14125.13
478.72	14143.86
478.90	14441.11
479.08	14602.60
479.26	14499.62
479.44	14796.87
479.62	14806.23
479.80	14768.78
479.98	15009.86
480.16	15220.50
480.34	15330.51
480.52	15257.95
480.70	15365.62
480.88	15389.02
481.06	15571.58
481.24	15583.29
481.41	15716.70
481.59	16037.35
481.77	16240.98
481.95	16109.91
482.13	16252.68
482.31	16257.36
482.49	16477.37
482.67	16779.30
482.85	16922.07
483.03	17011.01
483.21	17102.29
483.39	17579.76
483.57	17345.71
483.74	17554.02
483.92	17790.41
484.10	17738.92
484.28	18417.68
484.46	18345.12
484.64	18565.13
484.82	17933.18
485.00	18228.09
485.18	18824.93
485.35	19143.24
485.53	19091.75
485.71	19094.09
485.89	19377.30
486.07	19178.35
486.25	19335.17
486.43	19328.14
486.61	19800.93
486.78	19974.13
486.96	20187.12
487.14	20386.07
487.32	20212.87
487.50	20610.76
487.68	20912.69
487.85	21071.84
488.03	21179.51
488.21	21481.44
488.39	21359.73
488.57	21600.80
488.75	21598.46
488.92	22059.55
489.10	21919.12
489.28	22427.01
489.46	22625.96
489.64	22396.59
489.81	22951.29
489.99	22920.87
490.17	22986.40
490.35	23426.42
490.53	23716.65
490.70	23817.29
490.88	23557.49
491.06	23838.36
491.24	23501.32
491.41	24407.11
491.59	24421.15
491.77	24095.82
491.95	24758.19
492.13	24500.73
492.30	25170.12
492.48	25010.96
492.66	25097.56
492.84	25083.52
493.01	25563.33
493.19	25507.16
493.37	26106.34
493.54	25825.47
493.72	25912.07
493.90	26302.94
494.08	25975.27
494.25	26778.07
494.43	26749.98
494.61	26867.01
494.79	26981.70
494.96	27033.19
495.14	27009.78
495.32	27164.26
495.49	27335.12
495.67	27831.31
495.85	28006.85
496.02	28198.77
496.20	28135.58
496.38	28341.55
496.55	28659.86
496.73	28973.49
496.91	29013.28
497.09	29102.22
497.26	29060.09
497.44	29029.66
497.62	29275.42
497.79	29750.55
497.97	29509.47
498.14	29865.24
498.32	30377.81
498.50	30066.52
498.67	30586.12
498.85	30670.38
499.03	30796.77
499.20	30829.54
499.38	30464.41
499.56	30993.37
499.73	31023.80
499.91	31096.36
500.08	31297.64
500.26	31077.63
500.44	31545.74
500.61	31304.67
500.79	31707.24
500.97	31770.43
501.14	32596.64
501.32	32074.70
501.49	32261.94
501.67	32287.69
501.84	32320.46
502.02	32446.85
502.20	32404.72
502.37	33111.56
502.55	32697.28
502.72	33251.99
502.90	32980.49
503.07	32751.12
503.25	33542.22
503.43	33111.56
503.60	33507.11
503.78	33755.21
503.95	33495.41
504.13	33701.37
504.30	33876.91
504.48	34054.79
504.65	34251.40
504.83	34548.65
505.01	34614.18
505.18	34176.50
505.36	34967.60
505.53	34094.58
505.71	34513.54
505.88	34913.77
506.06	34597.80
506.23	35049.52
506.41	35164.21
506.58	35407.62
506.76	34850.58
506.93	35573.80
507.11	35365.49
507.28	35868.71
507.46	35629.98
507.63	36266.60
507.81	35882.75
507.98	36397.67
508.16	36229.15
508.33	36034.89
508.50	36315.75
508.68	36350.86
508.85	36718.32
509.03	36598.96
509.20	36854.08
509.38	37029.62
509.55	37610.07
509.73	37551.56
509.90	37373.67
510.08	37530.49
510.25	37371.33
510.42	37528.15
510.60	38220.95
510.77	37944.76
510.95	38078.18
511.12	38176.48
511.30	38031.36
511.47	38239.67
511.64	38649.27
511.82	39241.42
511.99	38557.99
512.17	38700.76
512.34	38253.72
512.51	39115.03
512.69	39292.91
512.86	39133.76
513.04	39332.70
513.21	39622.93
513.38	39524.63
513.56	39662.72
513.73	39454.41
513.90	39660.38
514.08	39988.05
514.25	39758.68
514.43	40151.89
514.60	39950.60
514.77	40116.78
514.95	40491.27
515.12	39592.50
515.29	40264.24
515.47	41148.96
515.64	41078.74
515.81	41074.06
515.99	41139.60
516.16	40837.67
516.33	41535.15
516.51	41610.04
516.68	41125.55
516.85	41048.32
517.03	41631.11
517.20	41848.78
517.37	42415.19
517.54	41460.25
517.72	41537.49
517.89	41563.23
518.06	41715.37
518.24	42031.34
518.41	42021.98
518.58	42270.08
518.75	42197.52
518.93	42642.22
519.10	42476.04
519.27	42693.71
519.45	42267.73
519.62	42485.40
519.79	42541.58
519.96	42887.98
520.14	43346.72
520.31	43054.15
520.48	43358.42
520.65	43138.41
520.83	43524.60
521.00	43540.99
521.17	43498.86
521.34	43257.78
521.52	43445.02
521.69	43290.55
521.86	44147.18
522.03	44023.14
522.20	43920.15
522.38	44371.88
522.55	44636.36
522.72	44142.50
522.89	44584.86
523.07	45326.81
523.24	44823.60
523.41	45127.87
523.58	44165.91
523.75	45476.61
523.92	44559.12
524.10	44512.31
524.27	45155.96
524.44	44872.75
524.61	45755.13
524.78	45102.12
524.96	45691.94
525.13	45153.62
525.30	45457.88
525.47	45558.53
525.64	45500.01
525.81	45837.05
525.98	45963.44
526.16	46183.45
526.33	46047.70
526.50	46298.14
526.67	45773.86
526.84	46288.77
527.01	45918.97
527.18	45865.14
527.36	46014.93
527.53	46527.51
527.70	46974.55
527.87	46831.78
528.04	46665.60
528.21	46604.75
528.38	46436.23
528.55	46843.48
528.72	46981.57
528.89	47028.38
529.07	46850.50
529.24	46410.48
529.41	47084.56
529.58	47021.36
529.75	47168.82
529.92	47103.28
530.09	47601.82
530.26	47463.72
530.43	47938.85
530.60	47690.76
530.77	47349.04
530.94	47763.31
531.11	47203.92
531.28	47372.44
531.46	47746.93
531.63	48193.97
531.80	47990.34
531.97	48135.46
532.14	48362.49
532.31	47737.57
532.48	48126.10
532.65	48048.86
532.82	48149.50
532.99	48545.05
533.16	48348.45
533.33	48425.68
533.50	48751.02
533.67	48421.00
533.84	48638.67
534.01	48549.73
534.18	48648.03
534.35	48690.16
534.52	48924.22
534.69	49074.01
534.86	49425.09
535.03	49104.44
535.20	49254.23
535.37	49368.92
535.54	49240.19
535.71	48884.43
535.88	49371.26
536.05	49565.52
536.22	49570.21
536.38	49364.24
536.55	49474.24
536.72	49469.56
536.89	49366.58
537.06	49418.07
537.23	49818.30
537.40	49179.34
537.57	49806.60
537.74	50000.86
537.91	49935.33
538.08	50066.40
538.25	49811.28
538.42	49918.95
538.59	50094.49
538.75	49691.91
538.92	49846.39
539.09	50272.37
539.26	50302.79
539.43	50178.75
539.60	50464.29
539.77	50328.54
539.94	50422.16
540.11	50405.78
540.28	50330.88
540.44	50365.99
540.61	50438.54
540.78	50609.40
540.95	50742.81
541.12	50798.99
541.29	50885.59
541.46	50621.11
541.62	50452.59
541.79	50927.72
541.96	50426.84
542.13	50822.39
542.30	51021.34
542.47	51435.61
542.63	50876.22
542.80	51260.07
542.97	51297.52
543.14	51423.91
543.31	51327.95
543.48	50951.12
543.64	51805.42
543.81	51688.39
543.98	51613.49
544.15	51498.81
544.32	52072.24
544.48	52090.96
544.65	51650.94
544.82	51826.48
544.99	51873.29
545.16	51854.57
545.32	51810.10
545.49	52095.64
545.66	52587.16
545.83	52254.80
546.00	52364.81
546.16	52217.35
546.33	51849.89
546.50	51477.74
546.67	52226.71
546.83	51955.21
547.00	52215.01
547.17	52395.23
547.34	52053.51
547.50	52299.27
547.67	52697.16
547.84	52507.58
548.00	52488.85
548.17	52514.60
548.34	52584.82
548.51	52879.72
548.67	52739.29
548.84	52825.89
549.01	52619.92
549.18	52315.65
549.34	52608.22
549.51	52648.01
549.68	52781.42
549.84	52420.98
550.01	52863.34
550.18	52844.62
550.34	52992.07
550.51	53207.40
550.68	53034.20
550.84	52938.24
551.01	53263.57
551.18	52919.51
551.34	52772.06
551.51	53546.78
551.68	52832.91
551.84	53291.66
552.01	53193.36
552.18	53371.24
552.34	53371.24
552.51	53675.51
552.68	53090.37
552.84	52999.09
553.01	53626.35
553.18	53258.89
553.34	53645.08
553.51	53495.28
553.67	53670.82
553.84	53656.78
554.01	53787.85
554.17	53876.79
554.34	53511.67
554.51	53598.27
554.67	53918.92
554.84	53549.12
555.00	53689.55
555.17	53792.53
555.33	53858.07
555.50	53663.80
555.67	53916.58
555.83	53808.92
556.00	53820.62
556.16	54213.83
556.33	54120.21
556.50	54045.31
556.66	54117.87
556.83	53862.75
556.99	54244.26
557.16	54412.77
557.32	54061.69
557.49	54344.90
557.65	54021.90
557.82	54092.12
557.98	54122.55
558.15	54049.99
558.32	54328.52
558.48	54106.16
558.65	54164.68
558.81	54171.70
558.98	54328.52
559.14	54419.80
559.31	54213.83
559.47	54244.26
559.64	54466.61
559.80	54515.76
559.97	54527.46
560.13	54298.09
560.30	54291.07
560.46	54593.00
560.63	54452.56
560.79	54815.35
560.96	54852.80
561.12	54497.03
561.29	54347.24
561.45	54625.76
561.61	54756.83
561.78	54499.37
561.94	54887.90
562.11	54710.02
562.27	54490.01
562.44	54574.27
562.60	54848.11
562.77	54777.90
562.93	54663.21
563.10	54913.65
563.26	54700.66
563.42	55051.74
563.59	54817.69
563.75	54794.28
563.92	54862.16
564.08	54810.67
564.24	54873.86
564.41	54735.77
564.57	54590.66
564.74	55035.36
564.90	54541.50
565.07	55164.09
565.23	55112.59
565.39	54930.03
565.56	55098.55
565.72	54876.20
565.88	54798.96
566.05	54616.40
566.21	54878.54
566.38	55096.21
566.54	55227.28
566.70	55044.72
566.87	55154.72
567.03	55000.25
567.19	55391.12
567.36	54995.57
567.52	55042.38
567.68	55241.32
567.85	54944.08
568.01	55100.89
568.17	55082.17
568.34	55231.96
568.50	55248.35
568.66	55257.71
568.83	55358.35
568.99	55208.56
569.15	55004.93
569.32	55187.49
569.48	55241.32
569.64	55327.92
569.81	55288.13
569.97	55255.37
570.13	55440.27
570.30	55192.17
570.46	55192.17
570.62	55140.68
570.78	55222.60
570.95	55164.09
571.11	55210.90
571.27	55140.68
571.43	55325.58
571.60	55494.10
571.76	55222.60
571.92	55573.68
572.09	55377.08
572.25	55529.21
572.41	55257.71
572.57	55276.43
572.74	55496.44
572.90	55206.22
573.06	55384.10
573.22	55477.72
573.38	55629.85
573.55	55379.42
573.71	55650.92
573.87	55812.41
574.03	55398.14
574.20	55529.21
574.36	55494.10
574.52	55386.44
574.68	55482.40
574.84	55536.23
575.01	55751.56
575.17	55711.77
575.33	55758.58
575.49	55679.00
575.65	55826.46
575.82	55655.60
575.98	55363.03
576.14	55842.84
576.30	55751.56
576.46	55559.64
576.62	55334.95
576.79	55531.55
576.95	55547.93
577.11	55725.81
577.27	55522.19
577.43	55714.11
577.59	55557.30
577.75	55674.32
577.92	55370.05
578.08	55337.29
578.24	55274.09
578.40	55569.00
578.56	55496.44
578.72	55536.23
578.88	55742.20
579.04	55936.46
579.21	55358.35
579.37	55496.44
579.53	55746.88
579.69	55402.82
579.85	55536.23
580.01	55781.99
580.17	55662.62
580.33	55725.81
580.49	55826.46
580.65	55969.23
580.82	55959.87
580.98	55625.17
581.14	55870.93
581.30	55915.40
581.46	55664.96
581.62	55414.52
581.78	55648.58
581.94	55807.73
582.10	55597.09
582.26	55964.55
582.42	55770.28
582.58	56165.84
582.74	55756.24
582.90	56097.96
583.06	55781.99
583.22	55671.98
583.38	55753.90
583.54	55781.99
583.70	56027.74
583.86	55821.78
584.02	55957.53
584.18	55889.65
584.34	55955.19
584.50	55985.61
584.66	55821.78
584.82	55863.91
584.98	55812.41
585.14	55721.13
585.30	55859.23
585.46	55524.53
585.62	55501.12
585.78	55805.39
585.94	55880.29
586.10	55793.69
586.26	55601.77
586.42	55931.78
586.58	55917.74
586.74	55641.56
586.90	55634.53
587.06	55723.47
587.22	55742.20
587.38	55758.58
587.54	56147.11
587.70	55990.30
587.86	55943.48
588.02	55936.46
588.18	56055.83
588.34	55683.69
588.49	55934.12
588.65	55817.10
588.81	55688.37
588.97	55814.76
589.13	55870.93
589.29	55980.93
589.45	56114.34
589.61	55959.87
589.77	56273.50
