SpectraSuite Data File
++++++++++++++++++++++++++++++++++++
Date: Fri Oct 04 11:48:47 GMT-05:00 2013
User: price-jones
Dark Spectrum Present: No
Reference Spectrum Present: No
Number of Sampled Component Spectra: 1
Spectrometers: USB2+H05261
Integration Time (usec): 100000 (USB2+H05261)
Spectra Averaged: 1 (USB2+H05261)
Boxcar Smoothing: 0 (USB2+H05261)
Correct for Electrical Dark: No (USB2+H05261)
Strobe/Lamp Enabled: No (USB2+H05261)
Correct for Detector Non-linearity: No (USB2+H05261)
Correct for Stray Light: No (USB2+H05261)
Number of Pixels in Processed Spectrum: 2048
>>>>>Begin Processed Spectral Data<<<<<
365.73	51.49
365.92	51.49
366.12	51.49
366.32	0.00
366.52	0.00
366.72	28.09
366.91	14.04
367.11	0.00
367.31	0.00
367.51	0.00
367.70	0.00
367.90	0.00
368.10	0.00
368.30	0.00
368.49	0.00
368.69	0.00
368.89	0.00
369.09	0.00
369.28	0.00
369.48	0.00
369.68	9.36
369.87	11.70
370.07	0.00
370.27	0.00
370.47	117.03
370.66	245.76
370.86	285.55
371.06	358.10
371.25	423.64
371.45	280.86
371.65	409.59
371.84	374.49
372.04	346.40
372.24	379.17
372.44	362.78
372.63	353.42
372.83	393.21
373.03	358.10
373.22	447.04
373.42	447.04
373.62	444.70
373.81	463.43
374.01	409.59
374.21	498.53
374.40	444.70
374.60	484.49
374.79	447.04
374.99	498.53
375.19	425.98
375.38	416.62
375.58	582.79
375.78	517.26
375.97	498.53
376.17	538.32
376.37	526.62
376.56	454.06
376.76	503.22
376.95	510.24
377.15	500.87
377.35	507.90
377.54	587.47
377.74	447.04
377.93	505.56
378.13	564.07
378.33	594.50
378.52	526.62
378.72	596.84
378.91	505.56
379.11	517.26
379.31	550.03
379.50	636.63
379.70	624.92
379.89	566.41
380.09	568.75
380.28	519.60
380.48	526.62
380.68	550.03
380.87	580.45
381.07	596.84
381.26	653.01
381.46	564.07
381.65	634.29
381.85	587.47
382.04	559.39
382.24	580.45
382.43	601.52
382.63	643.65
382.83	629.60
383.02	648.33
383.22	716.20
383.41	676.41
383.61	671.73
383.80	692.80
384.00	648.33
384.19	629.60
384.39	660.03
384.58	638.97
384.78	720.88
384.97	702.16
385.17	603.86
385.36	669.39
385.56	727.91
385.75	669.39
385.95	692.80
386.14	737.27
386.34	706.84
386.53	685.78
386.72	674.07
386.92	765.36
387.11	795.78
387.31	847.27
387.50	809.83
387.70	660.03
387.89	765.36
388.09	706.84
388.28	798.12
388.48	767.70
388.67	847.27
388.86	763.01
389.06	816.85
389.25	884.72
389.45	854.30
389.64	823.87
389.84	793.44
390.03	798.12
390.22	884.72
390.42	823.87
390.61	741.95
390.81	791.10
391.00	1004.09
391.19	924.51
391.39	936.21
391.58	863.66
391.78	856.64
391.97	919.83
392.16	882.38
392.36	954.94
392.55	992.39
392.75	903.45
392.94	903.45
393.13	971.32
393.33	943.24
393.52	943.24
393.71	950.26
393.91	1011.11
394.10	1032.18
394.29	997.07
394.49	917.49
394.68	978.34
394.88	947.92
395.07	1074.31
395.26	1097.71
395.46	957.28
395.65	1067.28
395.84	1069.62
396.04	1188.99
396.23	1107.07
396.42	1135.16
396.62	1107.07
396.81	1153.88
397.00	1135.16
397.19	1200.69
397.39	1207.72
397.58	1193.67
397.77	1125.80
397.97	1205.38
398.16	1205.38
398.35	1212.40
398.55	1181.97
398.74	1299.00
398.93	1331.76
399.12	1233.46
399.32	1217.08
399.51	1320.06
399.70	1397.30
399.90	1385.60
400.09	1413.68
400.28	1392.62
400.47	1437.09
400.67	1383.26
400.86	1413.68
401.05	1371.55
401.24	1439.43
401.44	1427.73
401.63	1420.71
401.82	1526.03
402.01	1362.19
402.21	1507.30
402.40	1448.79
402.59	1425.39
402.78	1467.52
402.97	1493.26
403.17	1579.86
403.36	1500.28
403.55	1612.63
403.74	1556.46
403.93	1621.99
404.13	1598.59
404.32	1652.42
404.51	1636.03
404.70	1720.29
404.89	1575.18
405.09	1811.57
405.28	1668.80
405.47	1755.40
405.66	1729.66
405.85	1788.17
406.05	1657.10
406.24	1739.02
406.43	1818.60
406.62	1818.60
406.81	1874.77
407.00	1872.43
407.20	1851.36
407.39	1760.08
407.58	1987.11
407.77	1872.43
407.96	2012.86
408.15	1956.69
408.34	1921.58
408.54	2066.69
408.73	2101.80
408.92	2047.97
409.11	2101.80
409.30	1944.99
409.49	2118.18
409.68	2069.03
409.87	2073.71
410.07	2279.68
410.26	2340.54
410.45	2193.08
410.64	2106.48
410.83	2291.38
411.02	2305.43
411.21	2279.68
411.40	2338.20
411.59	2401.39
411.78	2342.88
411.98	2438.84
412.17	2495.01
412.36	2392.03
412.55	2499.69
412.74	2574.59
412.93	2579.27
413.12	2413.09
413.31	2649.49
413.50	2560.55
413.69	2691.62
413.88	2724.38
414.07	2612.04
414.26	2792.26
414.45	2794.60
414.64	2663.53
414.83	2794.60
415.02	2792.26
415.22	2771.19
415.41	2906.95
415.60	2977.16
415.79	2867.16
415.98	2920.99
416.17	2920.99
416.36	3016.95
416.55	3042.70
416.74	3218.24
416.93	3103.55
417.12	3091.85
417.31	3117.59
417.50	3096.53
417.69	3337.60
417.88	3330.58
418.07	3162.06
418.26	3279.09
418.45	3283.77
418.64	3445.27
418.83	3318.88
419.02	3428.88
419.21	3449.95
419.39	3382.07
419.58	3365.69
419.77	3389.10
419.96	3538.89
420.15	3578.68
420.34	3442.93
420.53	3435.91
420.72	3522.51
420.91	3679.32
421.10	3625.49
421.29	3789.33
421.48	3566.98
421.67	3744.86
421.86	3646.55
422.05	3658.26
422.24	3618.47
422.43	3595.06
422.61	3712.09
422.80	3779.97
422.99	3920.40
423.18	3744.86
423.37	3819.75
423.56	3789.33
423.75	3850.18
423.94	3744.86
424.13	3541.23
424.32	3569.32
424.50	3691.02
424.69	3990.61
424.88	3960.19
425.07	3662.94
425.26	3758.90
425.45	3723.79
425.64	3735.50
425.83	3801.03
426.01	3981.25
426.20	3808.05
426.39	3990.61
426.58	3920.40
426.77	3742.52
426.96	3817.41
427.15	3824.44
427.33	4004.66
427.52	3904.01
427.71	3950.82
427.90	3941.46
428.09	4098.28
428.28	4126.36
428.46	4077.21
428.65	4152.11
428.84	4344.03
429.03	4231.69
429.22	4102.96
429.40	4205.94
429.59	4276.16
429.78	4243.39
429.97	3892.31
430.16	4241.05
430.34	4248.07
430.53	4308.93
430.72	4306.59
430.91	4273.82
431.10	4161.47
431.28	4418.93
431.47	4496.17
431.66	4528.94
431.85	4388.50
432.03	4472.76
432.22	4699.80
432.41	4498.51
432.60	4587.45
432.79	4587.45
432.97	4636.60
433.16	4631.92
433.35	4594.47
433.54	4786.40
433.72	4741.93
433.91	4713.84
434.10	4725.54
434.28	4620.22
434.47	4781.71
434.66	4957.25
434.85	4975.98
435.03	4961.94
435.22	4676.39
435.41	4957.25
435.59	4814.48
435.78	4800.44
435.97	4915.12
436.16	4933.85
436.34	5041.51
436.53	5186.63
436.72	5029.81
436.90	4908.10
437.09	5111.73
437.28	4908.10
437.46	5184.29
437.65	5043.85
437.84	5228.76
438.02	5219.39
438.21	5233.44
438.40	5238.12
438.58	5441.75
438.77	5324.72
438.96	5418.34
439.14	5507.28
439.33	5612.60
439.52	5479.19
439.70	5535.37
439.89	5598.56
440.08	5750.70
440.26	5699.20
440.45	5696.86
440.63	6064.33
440.82	5853.68
441.01	5792.83
441.19	5900.49
441.38	6005.81
441.57	5928.58
441.75	6094.76
441.94	6237.53
442.12	6139.23
442.31	6171.99
442.50	6179.01
442.68	6127.52
442.87	6148.59
443.05	6279.66
443.24	6214.12
443.43	6312.42
443.61	6274.98
443.80	6644.78
443.98	6375.62
444.17	6071.35
444.35	6289.02
444.54	6483.28
444.73	6429.45
444.91	6551.16
445.10	6483.28
445.28	6574.56
445.47	6497.33
445.65	6565.20
445.84	6445.84
446.02	6569.88
446.21	6422.43
446.39	6539.46
446.58	6672.87
446.77	6544.14
446.95	6314.77
447.14	6408.39
447.32	6555.84
447.51	6614.35
447.69	6565.20
447.88	6679.89
448.06	6579.25
448.25	6647.12
448.43	6810.96
448.62	6586.27
448.80	6537.12
448.99	6555.84
449.17	6881.18
449.36	6773.51
449.54	6906.92
449.73	6942.03
449.91	6869.47
450.10	6930.33
450.28	6937.35
450.46	6988.84
450.65	6967.77
450.83	7063.74
451.02	7014.59
451.20	7098.84
451.39	7192.47
451.57	7262.68
451.76	7077.78
451.94	7061.40
452.13	7213.53
452.31	7140.97
452.49	7084.80
452.68	7178.42
452.86	7344.60
453.05	7304.81
453.23	7311.83
453.42	7438.22
453.60	7112.89
453.78	7438.22
453.97	7349.28
454.15	7297.79
454.34	7262.68
454.52	7365.67
454.70	7478.01
454.89	7499.08
455.07	7426.52
455.26	7396.09
455.44	7604.40
455.62	7676.96
455.81	7644.19
455.99	7714.41
456.17	7712.07
456.36	7756.54
456.54	8098.25
456.73	7943.78
456.91	8142.72
457.09	7957.82
457.28	8187.19
457.46	8063.15
457.64	8196.56
457.83	8056.12
458.01	8035.06
458.19	8308.90
458.38	8095.91
458.56	8245.71
458.74	8304.22
458.93	8271.45
459.11	8126.34
459.29	8383.80
459.48	8252.73
459.66	8463.38
459.84	8498.49
460.03	8580.40
460.21	8416.57
460.39	8585.08
460.57	8573.38
460.76	8634.24
460.94	8568.70
461.12	8622.53
461.31	8683.39
461.49	8645.94
461.67	8442.31
461.85	8772.33
462.04	8959.57
462.22	9268.52
462.40	8830.84
462.59	8952.55
462.77	8908.08
462.95	9032.13
463.13	8879.99
463.32	8823.82
463.50	8966.59
463.68	9193.62
463.86	8987.66
464.05	8861.27
464.23	9001.70
464.41	9303.63
464.59	9132.77
464.78	9245.12
464.96	9057.87
465.14	9378.53
465.32	9270.86
465.50	9287.25
465.69	9280.22
465.87	9210.01
466.05	9345.76
466.23	9284.91
466.41	9343.42
466.60	9689.82
466.78	9511.94
466.96	9369.16
467.14	9366.82
467.32	9666.41
467.51	9628.96
467.69	9315.33
467.87	9687.48
468.05	9865.36
468.23	9315.33
468.41	9741.31
468.60	9638.33
468.78	9612.58
468.96	9610.24
469.14	9694.50
469.32	9947.28
469.50	9900.47
469.69	10026.86
469.87	10054.94
470.05	10174.31
470.23	10094.73
470.41	10008.13
470.59	10244.52
470.77	10022.17
470.95	10246.87
471.14	10532.41
471.32	10298.36
471.50	10595.61
471.68	10457.51
471.86	10251.55
472.04	10611.99
472.22	10832.00
472.40	10375.59
472.58	10853.06
472.77	10644.76
472.95	10967.75
473.13	10927.96
473.31	10946.69
473.49	10808.59
473.67	10855.40
473.85	10911.58
474.03	11236.91
474.21	10956.05
474.39	11077.76
474.57	11398.41
474.75	11503.73
474.93	11609.06
475.12	11580.97
475.30	11665.23
475.48	11393.73
475.66	11723.74
475.84	11559.91
476.02	11803.32
476.20	11817.36
476.38	12098.23
476.56	12093.55
476.74	12245.68
476.92	12161.42
477.10	12147.38
477.28	12470.37
477.46	12472.71
477.64	12393.14
477.82	12877.63
478.00	12894.01
478.18	12987.63
478.36	13034.44
478.54	13062.53
478.72	13226.37
478.90	13415.95
479.08	13621.92
479.26	13500.21
479.44	13607.87
479.62	13570.43
479.80	13923.85
479.98	13788.10
480.16	13923.85
480.34	13991.72
480.52	14141.52
480.70	14504.30
480.88	14036.19
481.06	14391.95
481.24	14516.00
481.41	14530.05
481.59	15021.56
481.77	15250.93
481.95	14913.89
482.13	15051.99
482.31	15171.35
482.49	15335.19
482.67	15410.09
482.85	15524.77
483.03	15857.13
483.21	16119.27
483.39	16336.94
483.57	16198.85
483.74	16243.32
483.92	16393.11
484.10	16580.36
484.28	16585.04
484.46	16915.05
484.64	17261.45
484.82	16669.30
485.00	17301.24
485.18	17334.01
485.35	17441.67
485.53	17516.57
485.71	17427.63
485.89	18031.49
486.07	17996.38
486.25	18057.23
486.43	18354.48
486.61	18302.99
486.78	18483.21
486.96	18625.98
487.14	18979.40
487.32	19061.32
487.50	18876.42
487.68	19323.46
487.85	19484.96
488.03	19576.24
488.21	19985.83
488.39	20084.14
488.57	19983.49
488.75	20093.50
488.92	20556.93
489.10	20135.63
489.28	20725.44
489.46	20814.38
489.64	20929.07
489.81	21277.81
489.99	21296.53
490.17	21366.75
490.35	21645.27
490.53	21338.66
490.70	21820.81
490.88	21638.25
491.06	22169.55
491.24	22061.89
491.41	22071.25
491.59	22642.34
491.77	22391.91
491.95	22717.24
492.13	23080.02
492.30	22871.72
492.48	23260.24
492.66	23138.54
492.84	23246.20
493.01	23653.45
493.19	23723.67
493.37	23941.34
493.54	23936.66
493.72	24219.86
493.90	24334.55
494.08	24350.93
494.25	24819.04
494.43	24641.16
494.61	25020.33
494.79	24994.58
494.96	25104.59
495.14	25158.42
495.32	25343.32
495.49	25759.94
495.67	25811.43
495.85	25717.81
496.02	25996.33
496.20	26214.00
496.38	25696.74
496.55	26120.38
496.73	27009.78
496.91	26518.27
497.09	26705.51
497.26	26841.26
497.44	26904.46
497.62	26845.94
497.79	27098.72
497.97	27335.12
498.14	27789.18
498.32	27988.13
498.50	27969.40
498.67	28095.79
498.85	27899.19
499.03	28294.74
499.20	28151.96
499.38	28208.14
499.56	28568.58
499.73	29106.90
499.91	28760.50
500.08	28807.31
500.26	28940.72
500.44	29034.35
500.61	28964.13
500.79	29076.48
500.97	29333.93
501.14	29778.64
501.32	29364.36
501.49	29532.88
501.67	30075.88
501.84	29958.86
502.02	29989.28
502.20	30403.56
502.37	30621.23
502.55	30431.65
502.72	30309.94
502.90	30405.90
503.07	30630.59
503.25	30742.94
503.43	30745.28
503.60	31084.65
503.78	31288.28
503.95	30955.93
504.13	31007.42
504.30	30969.97
504.48	31325.73
504.65	31470.84
504.83	31761.07
505.01	32137.90
505.18	31964.70
505.36	32217.47
505.53	31484.89
505.71	32053.64
505.88	32280.67
506.06	31812.56
506.23	32467.91
506.41	32535.79
506.58	32877.51
506.76	32809.63
506.93	33034.32
507.11	32514.72
507.28	33291.78
507.46	33071.77
507.63	33516.47
507.81	33448.60
507.98	33310.50
508.16	33385.40
508.33	33464.98
508.50	33776.27
508.68	34195.23
508.85	34206.93
509.03	34178.84
509.20	34291.19
509.38	34305.23
509.55	34288.85
509.73	34539.29
509.90	34558.01
510.08	34419.92
510.25	34501.84
510.42	34787.38
510.60	34637.59
510.77	34972.28
510.95	35335.07
511.12	35077.61
511.30	35091.65
511.47	35468.48
511.64	35370.18
511.82	35587.85
511.99	35732.96
512.17	35819.56
512.34	35590.19
512.51	36233.83
512.69	36383.63
512.86	36299.37
513.04	36257.24
513.21	36879.82
513.38	36603.64
513.56	37053.02
513.73	36474.91
513.90	36428.10
514.08	36697.26
514.25	36865.78
514.43	37139.62
514.60	37167.71
514.77	37390.06
514.95	37479.00
515.12	37308.14
515.29	37060.04
515.47	37624.11
515.64	37598.37
515.81	37432.19
515.99	37766.88
516.16	38410.53
516.33	38169.46
516.51	37883.91
516.68	37827.74
516.85	38124.99
517.03	38401.17
517.20	38291.16
517.37	38787.36
517.54	38794.38
517.72	38787.36
517.89	38686.71
518.06	38440.96
518.24	39108.01
518.41	39000.35
518.58	39199.29
518.75	39072.90
518.93	39068.22
519.10	39192.27
519.27	39452.07
519.45	39250.78
519.62	39321.00
519.79	39267.17
519.96	39901.45
520.14	40053.59
520.31	40194.02
520.48	39988.05
520.65	39754.00
520.83	39775.06
521.00	39974.01
521.17	40144.87
521.34	40091.04
521.52	40123.80
521.69	40397.65
521.86	40591.91
522.03	40582.55
522.20	40737.02
522.38	40795.54
522.55	40961.72
522.72	41015.55
522.89	41291.73
523.07	41504.72
523.24	41612.38
523.41	41184.07
523.58	41141.94
523.75	41308.11
523.92	41109.17
524.10	41514.08
524.27	41486.00
524.44	41792.61
524.61	42506.47
524.78	42080.49
524.96	42143.69
525.13	42010.28
525.30	42548.60
525.47	42494.77
525.64	42429.23
525.81	42508.81
525.98	42443.27
526.16	42260.71
526.33	42733.50
526.50	42642.22
526.67	42660.94
526.84	42824.78
527.01	42721.80
527.18	43208.63
527.36	43241.40
527.53	42967.55
527.70	43622.90
527.87	43388.85
528.04	43278.85
528.21	42852.87
528.38	43360.76
528.55	43828.87
528.72	43777.38
528.89	43962.28
529.07	43653.33
529.24	43168.84
529.41	44095.69
529.58	43515.24
529.75	43477.79
529.92	43929.51
530.09	44076.97
530.26	44259.53
530.43	44392.94
530.60	43641.63
530.77	43672.06
530.94	44154.21
531.11	44067.61
531.28	44240.81
531.46	44409.32
531.63	44140.16
531.80	44378.90
531.97	44669.12
532.14	44626.99
532.31	45041.27
532.48	44432.73
532.65	44722.96
532.82	44402.30
532.99	44935.95
533.16	44865.73
533.33	45188.72
533.50	45448.52
533.67	45457.88
533.84	44879.77
534.01	45375.97
534.18	45212.13
534.35	46047.70
534.52	45385.33
534.69	45542.14
534.86	46148.34
535.03	45993.87
535.20	46005.57
535.37	45794.92
535.54	46068.76
535.71	45797.26
535.88	45757.47
536.05	45670.87
536.22	46492.40
536.38	46295.80
536.55	46518.15
536.72	46340.27
536.89	46010.25
537.06	45933.01
537.23	46080.47
537.40	46106.21
537.57	46637.51
537.74	46457.29
537.91	46806.03
538.08	46658.58
538.25	46642.20
538.42	46541.55
538.59	46887.95
538.75	46646.88
538.92	46876.25
539.09	46883.27
539.26	46464.32
539.43	46719.43
539.60	47178.18
539.77	47112.64
539.94	47309.25
540.11	47239.03
540.28	47037.75
540.44	46836.46
540.61	46791.99
540.78	47409.89
540.95	47585.43
541.12	47416.91
541.29	47524.58
541.46	47393.51
541.62	47246.05
541.79	47320.95
541.96	47529.26
542.13	47765.65
542.30	48051.20
542.47	48079.28
542.63	47728.20
542.80	47838.21
542.97	48081.63
543.14	48016.09
543.31	48376.53
543.48	48130.78
543.64	48535.69
543.81	48666.76
543.98	48577.82
544.15	48830.60
544.32	48697.19
544.48	48664.42
544.65	48376.53
544.82	48786.13
544.99	48149.50
545.16	49151.25
545.32	48832.94
545.49	48739.32
545.66	48992.09
545.83	49106.78
546.00	49254.23
546.16	49165.29
546.33	48755.70
546.50	48669.10
546.67	49081.03
546.83	48687.82
547.00	49205.08
547.17	49162.95
547.34	49097.42
547.50	49296.36
547.67	49518.71
547.84	49303.38
548.00	49617.02
548.17	49745.75
548.34	49528.08
548.51	49408.71
548.67	49628.72
548.84	49514.03
549.01	49694.25
549.18	49579.57
549.34	49462.54
549.51	49579.57
549.68	49916.61
549.84	49450.84
550.01	49698.94
550.18	49537.44
550.34	50361.31
550.51	49989.16
550.68	50232.58
550.84	49635.74
551.01	50258.32
551.18	49804.26
551.34	49701.28
551.51	49820.64
551.68	50064.06
551.84	50356.63
552.01	50080.44
552.18	50480.67
552.34	50244.28
552.51	50508.76
552.68	50050.02
552.84	50377.69
553.01	50618.77
553.18	50314.50
553.34	50593.02
553.51	50394.07
553.67	50721.75
553.84	50593.02
554.01	50742.81
554.17	50539.19
554.34	50237.26
554.51	50487.70
554.67	50796.65
554.84	50595.36
555.00	50738.13
555.17	50649.19
555.33	50827.07
555.50	50515.78
555.67	50534.51
555.83	50972.19
556.00	50670.26
556.16	50953.46
556.33	50773.24
556.50	51047.08
556.66	50838.78
556.83	50894.95
556.99	51194.54
557.16	51501.15
557.32	51061.13
557.49	51206.24
557.65	50784.94
557.82	50866.86
557.98	50958.14
558.15	50988.57
558.32	51180.49
558.48	51124.32
558.65	51449.66
558.81	51180.49
558.98	51117.30
559.14	51447.32
559.31	51126.66
559.47	51171.13
559.64	51201.56
559.80	51285.82
559.97	51531.57
560.13	51210.92
560.30	51475.40
560.46	51639.24
560.63	51398.16
560.79	51664.99
560.96	51695.41
561.12	51363.06
561.29	51437.95
561.45	51512.85
561.61	51613.49
561.78	51442.63
561.94	51707.12
562.11	51807.76
562.27	51517.53
562.44	51426.25
562.60	51576.04
562.77	51601.79
562.93	51856.91
563.10	51803.08
563.26	51594.77
563.42	51611.15
563.59	51592.43
563.75	51725.84
563.92	51599.45
564.08	51512.85
564.24	51517.53
564.41	51648.60
564.57	51604.13
564.74	51594.77
564.90	52121.39
565.07	52163.52
565.23	52177.56
565.39	52048.83
565.56	51810.10
565.72	51817.12
565.88	51922.44
566.05	51660.30
566.21	51702.43
566.38	51901.38
566.54	51901.38
566.70	52549.71
566.87	52383.53
567.03	51821.80
567.19	52196.29
567.36	51983.30
567.52	51931.81
567.68	52086.28
567.85	51929.47
568.01	52107.35
568.17	51948.19
568.34	51882.66
568.50	52301.61
568.66	52294.59
568.83	52416.30
568.99	52175.22
569.15	52067.56
569.32	52231.40
569.48	52069.90
569.64	52229.05
569.81	52502.90
569.97	52133.09
570.13	52016.07
570.30	52046.49
570.46	52467.79
570.62	52406.94
570.78	52238.42
570.95	52072.24
571.11	52034.79
571.27	52317.99
571.43	52554.39
571.60	52374.17
571.76	52336.72
571.92	52460.77
572.09	52332.04
572.25	52584.82
572.41	52399.91
572.57	52493.54
572.74	52540.35
572.90	52362.46
573.06	52231.40
573.22	52622.26
573.38	52404.59
573.55	52477.15
573.71	52692.48
573.87	52706.52
574.03	52542.69
574.20	52392.89
574.36	52428.00
574.52	52317.99
574.68	52266.50
574.84	52561.41
575.01	52561.41
575.17	52428.00
575.33	52596.52
575.49	52371.83
575.65	52619.92
575.82	52446.72
575.98	52196.29
576.14	52470.13
576.30	52706.52
576.46	52463.11
576.62	52453.75
576.79	52413.96
576.95	52446.72
577.11	52664.39
577.27	52357.78
577.43	52589.50
577.59	52484.17
577.75	52484.17
577.92	52252.46
578.08	52521.62
578.24	52456.09
578.40	52404.59
578.56	52556.73
578.72	52538.01
578.88	52905.47
579.04	52643.33
579.21	52577.79
579.37	52514.60
579.53	52776.74
579.69	52481.83
579.85	52676.10
580.01	52528.64
580.17	52463.11
580.33	52743.97
580.49	52807.17
580.65	52729.93
580.82	52718.23
580.98	52783.76
581.14	52762.70
581.30	52252.46
581.46	52484.17
581.62	52538.01
581.78	52432.68
581.94	52905.47
582.10	52456.09
582.26	52449.06
582.42	52509.92
582.58	52505.24
582.74	53031.86
582.90	52732.27
583.06	52779.08
583.22	52868.02
583.38	52755.68
583.54	52542.69
583.70	52360.12
583.86	52931.22
584.02	52762.70
584.18	53097.39
584.34	53066.97
584.50	53066.97
584.66	52746.31
584.82	52364.81
584.98	52704.18
585.14	52540.35
585.30	52535.66
585.46	52729.93
585.62	52765.04
585.78	52814.19
585.94	52863.34
586.10	52863.34
586.26	52903.13
586.42	52760.36
586.58	52940.58
586.74	52868.02
586.90	52626.95
587.06	52622.26
587.22	52760.36
587.38	52750.99
587.54	52856.32
587.70	53141.86
587.86	52961.64
588.02	53043.56
588.18	53179.31
588.34	52971.00
588.49	52947.60
588.65	52783.76
588.81	52484.17
588.97	53102.07
589.13	52589.50
589.29	52851.64
589.45	53214.42
589.61	52779.08
589.77	53331.45
589.93	53179.31
590.08	53174.63
590.24	53130.16
