SpectraSuite Data File
++++++++++++++++++++++++++++++++++++
Date: Fri Oct 04 11:48:35 GMT-05:00 2013
User: price-jones
Dark Spectrum Present: No
Reference Spectrum Present: No
Number of Sampled Component Spectra: 1
Spectrometers: USB2+H05261
Integration Time (usec): 100000 (USB2+H05261)
Spectra Averaged: 1 (USB2+H05261)
Boxcar Smoothing: 0 (USB2+H05261)
Correct for Electrical Dark: No (USB2+H05261)
Strobe/Lamp Enabled: No (USB2+H05261)
Correct for Detector Non-linearity: No (USB2+H05261)
Correct for Stray Light: No (USB2+H05261)
Number of Pixels in Processed Spectrum: 2048
>>>>>Begin Processed Spectral Data<<<<<
365.73	37.45
365.92	37.45
366.12	37.45
366.32	0.00
366.52	0.00
366.72	0.00
366.91	0.00
367.11	0.00
367.31	0.00
367.51	0.00
367.70	0.00
367.90	0.00
368.10	0.00
368.30	0.00
368.49	0.00
368.69	0.00
368.89	0.00
369.09	0.00
369.28	0.00
369.48	0.00
369.68	0.00
369.87	0.00
370.07	0.00
370.27	0.00
370.47	44.47
370.66	320.65
370.86	339.38
371.06	311.29
371.25	320.65
371.45	304.27
371.65	376.83
371.84	444.70
372.04	358.10
372.24	337.04
372.44	379.17
372.63	449.38
372.83	468.11
373.03	479.81
373.22	388.53
373.42	425.98
373.62	456.40
373.81	458.74
374.01	566.41
374.21	500.87
374.40	451.72
374.60	437.68
374.79	526.62
374.99	475.13
375.19	440.02
375.38	514.92
375.58	528.96
375.78	585.13
375.97	538.32
376.17	594.50
376.37	458.74
376.56	592.16
376.76	528.96
376.95	433.00
377.15	631.94
377.35	566.41
377.54	491.51
377.74	463.43
377.93	491.51
378.13	524.28
378.33	507.90
378.52	585.13
378.72	631.94
378.91	627.26
379.11	573.43
379.31	538.32
379.50	594.50
379.70	692.80
379.89	566.41
380.09	580.45
380.28	559.39
380.48	617.90
380.68	629.60
380.87	638.97
381.07	594.50
381.26	648.33
381.46	552.37
381.65	723.23
381.85	664.71
382.04	573.43
382.24	699.82
382.43	648.33
382.63	725.57
382.83	620.24
383.02	688.12
383.22	767.70
383.41	699.82
383.61	636.63
383.80	737.27
384.00	723.23
384.19	678.76
384.39	709.18
384.58	770.04
384.78	774.72
384.97	741.95
385.17	662.37
385.36	662.37
385.56	732.59
385.75	758.33
385.95	760.67
386.14	800.46
386.34	802.80
386.53	720.88
386.72	734.93
386.92	741.95
387.11	847.27
387.31	716.20
387.50	812.17
387.70	779.40
387.89	784.08
388.09	856.64
388.28	821.53
388.48	858.98
388.67	856.64
388.86	809.83
389.06	772.38
389.25	891.74
389.45	884.72
389.64	849.61
389.84	943.24
390.03	971.32
390.22	882.38
390.42	851.96
390.61	858.98
390.81	891.74
391.00	884.72
391.19	973.66
391.39	947.92
391.58	976.00
391.78	1022.81
391.97	1015.79
392.16	903.45
392.36	1053.24
392.55	1076.65
392.75	957.28
392.94	1001.75
393.13	1006.43
393.33	1018.13
393.52	1074.31
393.71	1050.90
393.91	1074.31
394.10	1053.24
394.29	1102.39
394.49	1036.86
394.68	1090.69
394.88	1100.05
395.07	1174.95
395.26	1050.90
395.46	1235.80
395.65	1088.35
395.84	1266.23
396.04	1242.82
396.23	1142.18
396.42	1172.61
396.62	1331.76
396.81	1177.29
397.00	1181.97
397.19	1266.23
397.39	1217.08
397.58	1273.25
397.77	1163.25
397.97	1224.10
398.16	1217.08
398.35	1231.12
398.55	1277.93
398.74	1256.87
398.93	1369.21
399.12	1427.73
399.32	1313.04
399.51	1406.66
399.70	1315.38
399.90	1430.07
400.09	1411.34
400.28	1451.13
400.47	1453.47
400.67	1523.69
400.86	1488.58
401.05	1490.92
401.24	1486.24
401.44	1497.94
401.63	1586.88
401.82	1582.20
402.01	1533.05
402.21	1472.20
402.40	1474.54
402.59	1537.73
402.78	1668.80
402.97	1638.38
403.17	1708.59
403.36	1664.12
403.55	1708.59
403.74	1736.68
403.93	1708.59
404.13	1694.55
404.32	1703.91
404.51	1671.14
404.70	1776.47
404.89	1720.29
405.09	1806.89
405.28	1923.92
405.47	1893.49
405.66	1837.32
405.85	1987.11
406.05	1874.77
406.24	1909.88
406.43	1907.54
406.62	1989.46
406.81	1989.46
407.00	1928.60
407.20	1900.52
407.39	1877.11
407.58	2085.42
407.77	2015.20
407.96	1975.41
408.15	2040.95
408.34	2221.17
408.54	2223.51
408.73	2214.15
408.92	2218.83
409.11	2345.22
409.30	2260.96
409.49	2125.21
409.68	2216.49
409.87	2176.70
410.07	2363.94
410.26	2335.85
410.45	2349.90
410.64	2438.84
410.83	2434.16
411.02	2296.07
411.21	2513.74
411.40	2408.41
411.59	2438.84
411.78	2567.57
411.98	2513.74
412.17	2612.04
412.36	2436.50
412.55	2672.89
412.74	2644.81
412.93	2743.11
413.12	2658.85
413.31	2825.03
413.50	2752.47
413.69	2787.58
413.88	2853.11
414.07	2778.22
414.26	2888.22
414.45	2963.12
414.64	3042.70
414.83	3061.42
415.02	3169.09
415.22	2995.89
415.41	3131.64
415.60	3042.70
415.79	3122.27
415.98	3052.06
416.17	3211.22
416.36	3248.66
416.55	3236.96
416.74	3412.50
416.93	3342.28
417.12	3398.46
417.31	3370.37
417.50	3454.63
417.69	3473.36
417.88	3456.97
418.07	3440.59
418.26	3506.12
418.45	3398.46
418.64	3555.27
418.83	3695.71
419.02	3538.89
419.21	3674.64
419.39	3721.45
419.58	3819.75
419.77	3658.26
419.96	3646.55
420.15	3796.35
420.34	3723.79
420.53	3693.37
420.72	3815.07
420.91	3955.51
421.10	3728.47
421.29	3978.91
421.48	3836.14
421.67	4014.02
421.86	3850.18
422.05	4007.00
422.24	3955.51
422.43	3847.84
422.61	4060.83
422.80	3941.46
422.99	4046.79
423.18	3953.16
423.37	4021.04
423.56	4112.32
423.75	4095.94
423.94	3960.19
424.13	3796.35
424.32	3941.46
424.50	4072.53
424.69	4147.43
424.88	4011.68
425.07	4016.36
425.26	4009.34
425.45	3985.93
425.64	3990.61
425.83	4039.76
426.01	4257.43
426.20	4166.15
426.39	4138.07
426.58	4086.58
426.77	3988.27
426.96	4297.22
427.15	4264.46
427.33	4201.26
427.52	4219.99
427.71	4447.02
427.90	4346.37
428.09	4308.93
428.28	4318.29
428.46	4271.48
428.65	4407.23
428.84	4592.13
429.03	4484.47
429.22	4325.31
429.40	4470.42
429.59	4397.87
429.78	4407.23
429.97	4351.06
430.16	4325.31
430.34	4519.57
430.53	4755.97
430.72	4667.03
430.91	4748.95
431.10	4596.81
431.28	4713.84
431.47	4638.94
431.66	4894.06
431.85	4798.10
432.03	4751.29
432.22	4823.84
432.41	4709.16
432.60	4751.29
432.79	4793.42
432.97	5020.45
433.16	4987.68
433.35	4933.85
433.54	4882.36
433.72	5043.85
433.91	5004.07
434.10	5069.60
434.28	5015.77
434.47	5226.42
434.66	5036.83
434.85	5135.14
435.03	5069.60
435.22	5050.88
435.41	5350.46
435.59	5303.65
435.78	5228.76
435.97	5259.18
436.16	5160.88
436.34	5369.19
436.53	5423.02
436.72	5383.23
436.90	5352.81
437.09	5439.40
437.28	5336.42
437.46	5343.44
437.65	5593.88
437.84	5397.28
438.02	5511.96
438.21	5549.41
438.40	5446.43
438.58	5891.13
438.77	5731.97
438.96	5661.76
439.14	5837.30
439.33	5872.40
439.52	5968.37
439.70	5942.62
439.89	5886.45
440.08	6057.31
440.26	5989.43
440.45	6108.80
440.63	6092.41
440.82	6284.34
441.01	6190.72
441.19	6354.55
441.38	6291.36
441.57	6356.90
441.75	6394.34
441.94	6427.11
442.12	6574.56
442.31	6707.98
442.50	6609.67
442.68	6619.04
442.87	6509.03
443.05	6593.29
443.24	6843.73
443.43	6654.14
443.61	6703.29
443.80	6881.18
443.98	6843.73
444.17	6384.98
444.35	6731.38
444.54	6984.16
444.73	6745.42
444.91	6757.13
445.10	6897.56
445.28	6773.51
445.47	6750.10
445.65	6832.02
445.84	6874.15
446.02	6839.05
446.21	6825.00
446.39	6930.33
446.58	6832.02
446.77	7117.57
446.95	6888.20
447.14	6775.85
447.32	6834.36
447.51	6998.20
447.69	7084.80
447.88	6930.33
448.06	7077.78
448.25	6984.16
448.43	7166.72
448.62	7054.37
448.80	7220.55
448.99	7094.16
449.17	7225.23
449.36	7119.91
449.54	7288.43
449.73	7393.75
449.91	7527.16
450.10	7363.33
450.28	7456.95
450.46	7351.62
450.65	7180.76
450.83	7501.42
451.02	7620.78
451.20	7620.78
451.39	7744.83
451.57	7492.05
451.76	7566.95
451.94	7552.91
452.13	7859.52
452.31	7705.04
452.49	7585.68
452.68	7651.21
452.86	7590.36
453.05	7714.41
453.23	7831.43
453.42	7784.62
453.60	7716.75
453.78	7880.58
453.97	7751.85
454.15	7969.52
454.34	7756.54
454.52	7943.78
454.70	7960.16
454.89	7843.14
455.07	8140.38
455.26	8124.00
455.44	7962.50
455.62	8081.87
455.81	8023.36
455.99	8322.94
456.17	8182.51
456.36	8329.97
456.54	8444.65
456.73	8334.65
456.91	8589.77
457.09	8531.25
457.28	8758.28
457.46	8659.98
457.64	8622.53
457.83	8580.40
458.01	8538.27
458.19	8596.79
458.38	8580.40
458.56	8601.47
458.74	8716.16
458.93	8875.31
459.11	8711.47
459.29	8681.05
459.48	8828.50
459.66	8828.50
459.84	9039.15
460.03	9081.28
460.21	8952.55
460.39	9027.45
460.57	9053.19
460.76	9071.92
460.94	9158.52
461.12	8933.82
461.31	8915.10
461.49	9394.91
461.67	9205.33
461.85	9408.95
462.04	9357.46
462.22	9919.19
462.40	9530.66
462.59	9525.98
462.77	9635.99
462.95	9479.17
463.13	9385.55
463.32	9626.62
463.50	9607.90
463.68	9785.78
463.86	9638.33
464.05	9664.07
464.23	9507.26
464.41	9671.09
464.59	9598.54
464.78	9884.08
464.96	9619.60
465.14	9757.69
465.32	9942.60
465.50	9839.61
465.69	9905.15
465.87	9806.84
466.05	9760.03
466.23	9881.74
466.41	9958.98
466.60	10359.21
466.78	9921.53
466.96	9984.73
467.14	9919.19
467.32	10195.37
467.51	10209.42
467.69	9989.41
467.87	10293.68
468.05	10251.55
468.23	10387.30
468.41	10232.82
468.60	10422.41
468.78	10597.95
468.96	10246.87
469.14	10424.75
469.32	10370.91
469.50	10581.56
469.69	10792.21
469.87	10752.42
470.05	10703.27
470.23	10862.43
470.41	10590.92
470.59	10981.79
470.77	10757.10
470.95	10799.23
471.14	10977.11
471.32	11000.52
471.50	11061.37
471.68	11131.59
471.86	10963.07
472.04	11169.04
472.22	11517.78
472.40	11276.70
472.58	11330.53
472.77	11265.00
472.95	11583.31
473.13	11784.60
473.31	11557.57
473.49	11559.91
473.67	11485.01
473.85	11705.02
474.03	11793.96
474.21	11812.68
474.39	12077.16
474.57	11999.93
474.75	12187.17
474.93	12297.17
475.12	12079.50
475.30	12346.33
475.48	12325.26
475.66	12573.36
475.84	12248.02
476.02	12671.66
476.20	12674.00
476.38	12882.31
476.56	12901.03
476.74	13088.28
476.92	12821.45
477.10	13142.11
477.28	13132.75
477.46	13479.15
477.64	13329.35
477.82	13420.63
478.00	13736.60
478.18	13781.07
478.36	13935.55
478.54	14214.07
478.72	13965.98
478.90	14188.33
479.08	14572.18
479.26	14527.71
479.44	14345.14
479.62	14532.39
479.80	14588.56
479.98	14618.99
480.16	14764.10
480.34	15042.62
480.52	15063.69
480.70	15255.61
480.88	15260.29
481.06	15463.92
481.24	15473.28
481.41	15391.36
481.59	15910.96
481.77	15868.83
481.95	15885.22
482.13	16042.03
482.31	16121.61
482.49	16339.28
482.67	16631.85
482.85	16627.17
483.03	16882.28
483.21	16968.88
483.39	17116.34
483.57	17156.13
483.74	17216.98
483.92	17324.65
484.10	17181.87
484.28	17610.19
484.46	17862.97
484.64	18391.93
484.82	18045.53
485.00	18197.67
485.18	18644.71
485.35	18841.31
485.53	18874.08
485.71	18806.20
485.89	19101.11
486.07	18670.45
486.25	18864.72
486.43	19304.74
486.61	19201.76
486.78	19445.17
486.96	19716.67
487.14	19871.15
487.32	19924.98
487.50	20357.98
487.68	20126.27
487.85	20744.17
488.03	20517.14
488.21	21039.08
488.39	20961.84
488.57	21315.26
488.75	21420.58
488.92	21624.21
489.10	21715.49
489.28	21902.73
489.46	22221.05
489.64	22015.08
489.81	22436.38
489.99	22181.26
490.17	22544.04
490.35	22838.95
490.53	22906.82
490.70	23541.11
490.88	23014.49
491.06	23606.64
491.24	23426.42
491.41	23501.32
491.59	23831.33
491.77	23814.95
491.95	24367.32
492.13	24493.71
492.30	24404.77
492.48	24332.21
492.66	24526.47
492.84	24599.03
493.01	25022.67
493.19	24910.32
493.37	25465.03
493.54	25518.86
493.72	25846.54
493.90	25865.26
494.08	25605.46
494.25	26237.41
494.43	26230.38
494.61	26485.50
494.79	26771.05
494.96	26279.54
495.14	26771.05
495.32	26639.98
495.49	26796.79
495.67	27379.59
495.85	27527.04
496.02	27667.47
496.20	27894.50
496.38	27770.46
496.55	27566.83
496.73	28589.64
496.91	28158.99
497.09	28524.11
497.26	28608.37
497.44	28507.72
497.62	28460.91
497.79	28896.25
497.97	29123.29
498.14	29516.50
498.32	29457.98
498.50	29469.69
498.67	29790.34
498.85	29560.97
499.03	29670.97
499.20	30022.05
499.38	29816.08
499.56	30113.33
499.73	30052.48
499.91	30279.51
500.08	30635.27
500.26	30176.53
500.44	30918.48
500.61	30047.80
500.79	31030.82
500.97	31075.29
501.14	31494.25
501.32	31578.51
501.49	31438.08
501.67	31527.02
501.84	31630.00
502.02	31814.90
502.20	32350.88
502.37	32072.36
502.55	31835.97
502.72	31929.59
502.90	32329.82
503.07	32268.97
503.25	32783.88
503.43	32568.55
503.60	32613.02
503.78	32711.33
503.95	32559.19
504.13	33053.05
504.30	33216.88
504.48	32615.37
504.65	33088.15
504.83	33392.42
505.01	34024.37
505.18	33621.80
505.36	34199.91
505.53	33905.00
505.71	34120.33
505.88	33792.65
506.06	33954.15
506.23	34628.23
506.41	34534.60
506.58	34754.61
506.76	34829.51
506.93	34609.50
507.11	34560.35
507.28	34817.81
507.46	35023.78
507.63	35309.32
507.81	35519.97
507.98	34911.43
508.16	35297.62
508.33	35065.91
508.50	35419.33
508.68	35798.49
508.85	36168.30
509.03	35742.32
509.20	36538.10
509.38	36495.97
509.55	36369.58
509.73	36692.58
509.90	36123.83
510.08	36474.91
510.25	36594.28
510.42	36926.63
510.60	37134.94
510.77	37158.34
510.95	37237.92
511.12	37251.97
511.30	36952.38
511.47	37354.95
511.64	37537.51
511.82	37914.34
511.99	37729.44
512.17	37745.82
512.34	37706.03
512.51	38295.85
512.69	38321.59
512.86	38363.72
513.04	38230.31
513.21	38892.68
513.38	38705.44
513.56	38932.47
513.73	38698.42
513.90	38983.96
514.08	39079.92
514.25	39002.69
514.43	39093.97
514.60	39524.63
514.77	39281.21
514.95	39634.63
515.12	39360.79
515.29	39529.31
515.47	39739.96
515.64	40051.25
515.81	40315.73
515.99	40170.61
516.16	40353.18
516.33	40360.20
516.51	40697.24
516.68	40151.89
516.85	39966.99
517.03	40533.40
517.20	40648.08
517.37	40570.85
517.54	40748.73
517.72	40428.07
517.89	40704.26
518.06	40718.30
518.24	41254.28
518.41	40816.60
518.58	41139.60
518.75	41212.15
518.93	41333.86
519.10	41785.58
519.27	41425.14
519.45	41392.37
519.62	41081.08
519.79	41439.18
519.96	41748.14
520.14	42249.01
520.31	41752.82
520.48	42356.67
520.65	42021.98
520.83	42305.18
521.00	42445.62
521.17	42323.91
521.34	42293.48
521.52	42494.77
521.69	42803.72
521.86	42937.13
522.03	42796.70
522.20	43072.88
522.38	43356.08
522.55	43454.39
522.72	43166.50
522.89	42906.70
523.07	43487.15
523.24	43515.24
523.41	43473.11
523.58	43377.15
523.75	44032.50
523.92	43772.70
524.10	43716.53
524.27	44091.01
524.44	44289.96
524.61	44329.75
524.78	44130.80
524.96	44615.29
525.13	44273.57
525.30	44296.98
525.47	44657.42
525.64	44626.99
525.81	44858.71
525.98	45242.56
526.16	44945.31
526.33	44282.94
526.50	44980.42
526.67	45088.08
526.84	44907.86
527.01	44554.44
527.18	45064.67
527.36	44949.99
527.53	45209.79
527.70	45673.21
527.87	45560.87
528.04	45427.46
528.21	45418.10
528.38	45654.49
528.55	45951.74
528.72	45390.01
528.89	45977.48
529.07	45663.85
529.24	45853.44
529.41	46225.58
529.58	45900.25
529.75	45909.61
529.92	46265.37
530.09	46007.91
530.26	46326.22
530.43	46270.05
530.60	46202.18
530.77	46440.91
530.94	46937.10
531.11	46440.91
531.28	46728.80
531.46	46583.68
531.63	46864.55
531.80	46869.23
531.97	47129.03
532.14	47206.26
532.31	46564.96
532.48	46784.97
532.65	46897.31
532.82	46983.91
532.99	47082.22
533.16	46946.47
533.33	47571.39
533.50	47477.77
533.67	47112.64
533.84	47271.80
534.01	47323.29
534.18	47016.68
534.35	47730.54
534.52	47559.69
534.69	47585.43
534.86	48374.19
535.03	47676.71
535.20	48004.39
535.37	47686.07
535.54	48055.88
535.71	47728.20
535.88	48140.14
536.05	48437.39
536.22	48308.66
536.38	48140.14
536.55	48285.25
536.72	48535.69
536.89	48217.38
537.06	48428.02
537.23	48294.61
537.40	48142.48
537.57	48107.37
537.74	48575.48
537.91	49116.14
538.08	48992.09
538.25	48587.18
538.42	48641.01
538.59	48837.62
538.75	48622.29
538.92	48727.61
539.09	49003.80
539.26	49160.61
539.43	49179.34
539.60	49324.45
539.77	49167.63
539.94	49345.51
540.11	49169.97
540.28	49319.77
540.44	49214.44
540.61	49048.27
540.78	49268.28
540.95	49282.32
541.12	49815.96
541.29	49397.01
541.46	49319.77
541.62	49666.17
541.79	49294.02
541.96	49366.58
542.13	49694.25
542.30	49736.38
542.47	50021.93
542.63	49986.82
542.80	50342.58
542.97	50316.84
543.14	50330.88
543.31	50501.74
543.48	50190.45
543.64	50445.57
543.81	50829.41
543.98	50574.30
544.15	50817.71
544.32	50763.88
544.48	50733.45
544.65	50426.84
544.82	50651.53
544.99	50335.56
545.16	50527.48
545.32	50621.11
545.49	51143.05
545.66	51063.47
545.83	51098.58
546.00	50798.99
546.16	50941.76
546.33	50351.94
546.50	50232.58
546.67	50787.28
546.83	50644.51
547.00	51262.41
547.17	50754.52
547.34	51136.02
547.50	50937.08
547.67	51192.20
547.84	51178.15
548.00	51398.16
548.17	51356.03
548.34	51414.55
548.51	51351.35
548.67	51379.44
548.84	51679.03
549.01	51393.48
549.18	51131.34
549.34	50955.80
549.51	51178.15
549.68	51444.98
549.84	51716.48
550.01	51793.71
550.18	51599.45
550.34	51892.02
550.51	51814.78
550.68	51835.84
550.84	51569.02
551.01	51803.08
551.18	51852.23
551.34	51814.78
551.51	51990.32
551.68	51915.42
551.84	51831.16
552.01	51957.55
552.18	51753.93
552.34	51826.48
552.51	52062.88
552.68	52168.20
552.84	52196.29
553.01	52521.62
553.18	51889.68
553.34	52341.40
553.51	51969.26
553.67	52608.22
553.84	52622.26
554.01	52495.88
554.17	52222.03
554.34	52383.53
554.51	52547.37
554.67	52554.39
554.84	52325.02
555.00	52385.87
555.17	52446.72
555.33	52514.60
555.50	52495.88
555.67	52348.42
555.83	52584.82
556.00	52863.34
556.16	52748.65
556.33	52502.90
556.50	52383.53
556.66	52755.68
556.83	52612.90
556.99	52996.75
557.16	52966.32
557.32	53062.29
557.49	53034.20
557.65	52322.68
557.82	52800.15
557.98	52687.80
558.15	53015.47
558.32	52861.00
558.48	52818.87
558.65	53389.96
558.81	53045.90
558.98	52996.75
559.14	52786.10
559.31	52858.66
559.47	52896.11
559.64	53003.77
559.80	53031.86
559.97	53221.44
560.13	53141.86
560.30	53305.70
560.46	53345.49
560.63	53228.46
560.79	53254.21
560.96	53188.67
561.12	53022.50
561.29	53202.72
561.45	53331.45
561.61	53368.90
561.78	53661.46
561.94	53127.82
562.11	53263.57
562.27	53378.26
562.44	53188.67
562.60	53343.15
562.77	53174.63
562.93	53319.74
563.10	53563.16
563.26	52952.28
563.42	53872.11
563.59	53263.57
563.75	53240.17
563.92	53359.53
564.08	53518.69
564.24	53495.28
564.41	53265.91
564.57	53315.06
564.74	53502.31
564.90	53450.81
565.07	53741.04
565.23	53715.29
565.39	53600.61
565.56	53727.00
565.72	53385.28
565.88	53523.37
566.05	53614.65
566.21	53502.31
566.38	53509.33
566.54	53647.42
566.70	53951.69
566.87	53659.12
567.03	53694.23
567.19	53888.49
567.36	53595.93
567.52	53680.19
567.68	53801.89
567.85	53340.81
568.01	53624.01
568.17	53577.20
568.34	54052.33
568.50	53801.89
568.66	53581.88
568.83	54251.28
568.99	53607.63
569.15	53890.83
569.32	53616.99
569.48	53399.32
569.64	53811.26
569.81	53923.60
569.97	54010.20
570.13	53844.02
570.30	53904.88
570.46	54110.85
570.62	53729.34
570.78	53820.62
570.95	53675.51
571.11	53944.67
571.27	53757.42
571.43	53785.51
571.60	54031.27
571.76	53839.34
571.92	54017.22
572.09	53844.02
572.25	53935.30
572.41	54012.54
572.57	53993.82
572.74	54401.07
572.90	53832.32
573.06	54005.52
573.22	53806.58
573.38	53705.93
573.55	54031.27
573.71	54321.49
573.87	54466.61
574.03	53932.96
574.20	54120.21
574.36	53942.33
574.52	53975.09
574.68	54129.57
574.84	54164.68
575.01	54122.55
575.17	54106.16
575.33	54092.12
575.49	54199.79
575.65	54127.23
575.82	54122.55
575.98	54047.65
576.14	54209.15
576.30	54096.80
576.46	54293.41
576.62	53970.41
576.79	54047.65
576.95	53649.76
577.11	54288.73
577.27	54110.85
577.43	54298.09
577.59	54110.85
577.75	54136.59
577.92	53846.36
578.08	53734.02
578.24	54160.00
578.40	54199.79
578.56	54319.15
578.72	54237.23
578.88	54394.05
579.04	54482.99
579.21	54248.94
579.37	54096.80
579.53	54365.96
579.69	53904.88
579.85	53820.62
580.01	54096.80
580.17	54230.21
580.33	54232.55
580.49	54199.79
580.65	54534.48
580.82	54326.17
580.98	54012.54
581.14	53916.58
581.30	54330.86
581.46	54178.72
581.62	54155.32
581.78	53996.16
581.94	54267.66
582.10	54232.55
582.26	54082.76
582.42	54092.12
582.58	54485.33
582.74	54288.73
582.90	54452.56
583.06	54232.55
583.22	54380.01
583.38	54482.99
583.54	54487.67
583.70	54265.32
583.86	54136.59
584.02	54244.26
584.18	54546.18
584.34	54506.40
584.50	54335.54
584.66	54131.91
584.82	54157.66
584.98	54368.30
585.14	54279.36
585.30	54384.69
585.46	54333.20
585.62	54288.73
585.78	54550.87
585.94	54078.08
586.10	54241.92
586.26	54213.83
586.42	54417.46
586.58	54321.49
586.74	54174.04
586.90	54066.38
587.06	54232.55
587.22	54490.01
587.38	54106.16
587.54	54487.67
587.70	54389.37
587.86	54323.83
588.02	54518.10
588.18	54607.04
588.34	54464.27
588.49	54305.11
588.65	54284.04
588.81	54384.69
588.97	54447.88
589.13	54169.36
589.29	54616.40
589.45	54585.97
589.61	54426.82
589.77	54808.32
589.93	54766.20
590.08	54677.25
