SpectraSuite Data File
++++++++++++++++++++++++++++++++++++
Date: Fri Oct 04 11:48:28 GMT-05:00 2013
User: price-jones
Dark Spectrum Present: No
Reference Spectrum Present: No
Number of Sampled Component Spectra: 1
Spectrometers: USB2+H05261
Integration Time (usec): 100000 (USB2+H05261)
Spectra Averaged: 1 (USB2+H05261)
Boxcar Smoothing: 0 (USB2+H05261)
Correct for Electrical Dark: No (USB2+H05261)
Strobe/Lamp Enabled: No (USB2+H05261)
Correct for Detector Non-linearity: No (USB2+H05261)
Correct for Stray Light: No (USB2+H05261)
Number of Pixels in Processed Spectrum: 2048
>>>>>Begin Processed Spectral Data<<<<<
365.73	60.85
365.92	60.85
366.12	60.85
366.32	0.00
366.52	0.00
366.72	0.00
366.91	0.00
367.11	0.00
367.31	0.00
367.51	0.00
367.70	0.00
367.90	0.00
368.10	0.00
368.30	0.00
368.49	0.00
368.69	0.00
368.89	0.00
369.09	0.00
369.28	0.00
369.48	0.00
369.68	0.00
369.87	0.00
370.07	21.06
370.27	28.09
370.47	84.26
370.66	395.55
370.86	414.27
371.06	428.32
371.25	468.11
371.45	346.40
371.65	472.79
371.84	407.25
372.04	484.49
372.24	433.00
372.44	470.45
372.63	524.28
372.83	545.34
373.03	526.62
373.22	564.07
373.42	510.24
373.62	554.71
373.81	514.92
374.01	512.58
374.21	547.69
374.40	545.34
374.60	643.65
374.79	550.03
374.99	683.44
375.19	543.00
375.38	547.69
375.58	606.20
375.78	620.24
375.97	617.90
376.17	690.46
376.37	688.12
376.56	681.10
376.76	709.18
376.95	557.05
377.15	653.01
377.35	688.12
377.54	634.29
377.74	718.54
377.93	582.79
378.13	702.16
378.33	636.63
378.52	671.73
378.72	685.78
378.91	692.80
379.11	683.44
379.31	702.16
379.50	765.36
379.70	816.85
379.89	725.57
380.09	739.61
380.28	709.18
380.48	748.97
380.68	678.76
380.87	720.88
381.07	734.93
381.26	739.61
381.46	737.27
381.65	751.31
381.85	723.23
382.04	758.33
382.24	777.06
382.43	870.68
382.63	795.78
382.83	758.33
383.02	877.70
383.22	910.47
383.41	835.57
383.61	954.94
383.80	837.91
384.00	919.83
384.19	882.38
384.39	858.98
384.58	868.34
384.78	774.72
384.97	910.47
385.17	875.36
385.36	896.43
385.56	971.32
385.75	945.58
385.95	922.17
386.14	1053.24
386.34	901.11
386.53	959.62
386.72	968.98
386.92	905.79
387.11	976.00
387.31	1041.54
387.50	1001.75
387.70	943.24
387.89	910.47
388.09	985.37
388.28	1041.54
388.48	924.51
388.67	1029.84
388.86	1025.15
389.06	1114.10
389.25	1034.52
389.45	1081.33
389.64	1013.45
389.84	1111.75
390.03	1088.35
390.22	1135.16
390.42	1078.99
390.61	1130.48
390.81	1048.56
391.00	1132.82
391.19	1198.35
391.39	1053.24
391.58	1210.06
391.78	1233.46
391.97	1191.33
392.16	1125.80
392.36	1235.80
392.55	1273.25
392.75	1350.49
392.94	1200.69
393.13	1301.34
393.33	1186.65
393.52	1179.63
393.71	1277.93
393.91	1334.11
394.10	1277.93
394.29	1256.87
394.49	1282.61
394.68	1343.47
394.88	1308.36
395.07	1397.30
395.26	1427.73
395.46	1322.40
395.65	1378.58
395.84	1427.73
396.04	1558.80
396.23	1390.28
396.42	1385.60
396.62	1483.90
396.81	1378.58
397.00	1540.07
397.19	1516.67
397.39	1460.49
397.58	1589.22
397.77	1600.93
397.97	1469.86
398.16	1502.62
398.35	1521.35
398.55	1577.52
398.74	1582.20
398.93	1586.88
399.12	1561.14
399.32	1579.86
399.51	1502.62
399.70	1668.80
399.90	1582.20
400.09	1717.95
400.28	1661.78
400.47	1664.12
400.67	1839.66
400.86	1724.97
401.05	1834.98
401.24	1680.50
401.44	1795.19
401.63	1837.32
401.82	1872.43
402.01	1771.79
402.21	1820.94
402.40	1846.68
402.59	1858.39
402.78	1867.75
402.97	1933.28
403.17	1898.17
403.36	1914.56
403.55	1905.20
403.74	2026.90
403.93	1914.56
404.13	2012.86
404.32	1961.37
404.51	1989.46
404.70	2045.63
404.89	2064.35
405.09	2062.01
405.28	2050.31
405.47	2101.80
405.66	2160.31
405.85	2062.01
406.05	2167.34
406.24	2188.40
406.43	2134.57
406.62	2200.10
406.81	2317.13
407.00	2218.83
407.20	2312.45
407.39	2324.15
407.58	2275.00
407.77	2349.90
407.96	2387.35
408.15	2525.44
408.34	2293.72
408.54	2389.69
408.73	2387.35
408.92	2354.58
409.11	2509.05
409.30	2495.01
409.49	2424.80
409.68	2457.56
409.87	2569.91
410.07	2464.58
410.26	2586.29
410.45	2588.63
410.64	2661.19
410.83	2665.87
411.02	2738.43
411.21	2796.94
411.40	2658.85
411.59	2803.96
411.78	2745.45
411.98	2766.51
412.17	2794.60
412.36	2801.62
412.55	2871.84
412.74	2949.08
412.93	3009.93
413.12	2871.84
413.31	3157.38
413.50	2977.16
413.69	3068.44
413.88	3150.36
414.07	3112.91
414.26	3152.70
414.45	3133.98
414.64	3199.51
414.83	3267.39
415.02	3300.16
415.22	3262.71
415.41	3426.54
415.60	3274.41
415.79	3391.44
415.98	3517.83
416.17	3566.98
416.36	3353.99
416.55	3447.61
416.74	3478.04
416.93	3562.30
417.12	3576.34
417.31	3585.70
417.50	3445.27
417.69	3716.77
417.88	3765.92
418.07	3836.14
418.26	3763.58
418.45	3847.84
418.64	3887.63
418.83	3831.46
419.02	3819.75
419.21	3992.95
419.39	3861.88
419.58	3705.07
419.77	3740.18
419.96	3988.27
420.15	4128.70
420.34	4058.49
420.53	3871.25
420.72	4124.02
420.91	4168.49
421.10	4259.78
421.29	4070.19
421.48	4142.75
421.67	4287.86
421.86	4241.05
422.05	4196.58
422.24	4140.41
422.43	4306.59
422.61	4358.08
422.80	4407.23
422.99	4248.07
423.18	4362.76
423.37	4348.72
423.56	4376.80
423.75	4395.53
423.94	4198.92
424.13	3920.40
424.32	4112.32
424.50	4404.89
424.69	4624.90
424.88	4435.32
425.07	4248.07
425.26	4264.46
425.45	4369.78
425.64	4372.12
425.83	4367.44
426.01	4376.80
426.20	4470.42
426.39	4365.10
426.58	4353.40
426.77	4397.87
426.96	4456.38
427.15	4404.89
427.33	4774.69
427.52	4400.21
427.71	4468.08
427.90	4739.58
428.09	4674.05
428.28	4603.83
428.46	4634.26
428.65	4760.65
428.84	4936.19
429.03	4908.10
429.22	4655.33
429.40	4751.29
429.59	4880.02
429.78	4690.43
429.97	4667.03
430.16	4725.54
430.34	4894.06
430.53	4929.17
430.72	4868.31
430.91	4954.91
431.10	4968.96
431.28	5001.72
431.47	5137.48
431.66	5186.63
431.85	5090.67
432.03	5165.56
432.22	5118.75
432.41	5165.56
432.60	5301.31
432.79	4987.68
432.97	5228.76
433.16	5102.37
433.35	5247.48
433.54	5184.29
433.72	5275.57
433.91	5439.40
434.10	5416.00
434.28	5425.36
434.47	5343.44
434.66	5348.12
434.85	5430.04
435.03	5497.92
435.22	5469.83
435.41	5727.29
435.59	5619.63
435.78	5626.65
435.97	5561.11
436.16	5762.40
436.34	5607.92
436.53	5631.33
436.72	5666.44
436.90	5696.86
437.09	5710.91
437.28	5767.08
437.46	5872.40
437.65	5884.11
437.84	6073.69
438.02	5912.19
438.21	5963.68
438.40	5795.17
438.58	6061.99
438.77	6209.44
438.96	6129.86
439.14	6141.57
439.33	6125.18
439.52	6197.74
439.70	6480.94
439.89	6356.90
440.08	6555.84
440.26	6502.01
440.45	6401.37
440.63	6567.54
440.82	6740.74
441.01	6670.53
441.19	6904.58
441.38	6719.68
441.57	7080.12
441.75	6801.60
441.94	7056.72
442.12	7040.33
442.31	6970.12
442.50	7035.65
442.68	7047.35
442.87	6951.39
443.05	7112.89
443.24	7375.03
443.43	7349.28
443.61	7115.23
443.80	7470.99
443.98	7040.33
444.17	7124.59
444.35	7330.56
444.54	7370.35
444.73	7220.55
444.91	7585.68
445.10	7276.73
445.28	7199.49
445.47	7548.23
445.65	7316.51
445.84	7386.73
446.02	7536.52
446.21	7506.10
446.39	7438.22
446.58	7527.16
446.77	7510.78
446.95	7178.42
447.14	7463.97
447.32	7435.88
447.51	7297.79
447.69	7445.24
447.88	7475.67
448.06	7513.12
448.25	7424.18
448.43	7541.21
448.62	7534.18
448.80	7599.72
448.99	7651.21
449.17	7625.47
449.36	7782.28
449.54	7789.30
449.73	7939.10
449.91	7978.89
450.10	7934.42
450.28	7906.33
450.46	7955.48
450.65	7913.35
450.83	7995.27
451.02	7920.37
451.20	8161.45
451.39	7981.23
451.57	8166.13
451.76	8124.00
451.94	8166.13
452.13	8219.96
452.31	8320.60
452.49	8231.66
452.68	8196.56
452.86	8273.79
453.05	8212.94
453.23	8360.39
453.42	8468.06
453.60	8201.24
453.78	8210.60
453.97	8472.74
454.15	8407.20
454.34	8381.46
454.52	8557.00
454.70	8477.42
454.89	8540.61
455.07	8664.66
455.26	8603.81
455.44	8753.60
455.62	8557.00
455.81	8678.71
455.99	8877.65
456.17	8877.65
456.36	8938.51
456.54	9121.07
456.73	9062.55
456.91	9036.81
457.09	9158.52
457.28	9315.33
457.46	9104.68
457.64	9261.50
457.83	9233.41
458.01	9352.78
458.19	9497.89
458.38	9277.88
458.56	9401.93
458.74	9441.72
458.93	9437.04
459.11	9401.93
459.29	9509.60
459.48	9619.60
459.66	9572.79
459.84	9668.75
460.03	10010.47
460.21	9760.03
460.39	9661.73
460.57	9741.31
460.76	9734.29
460.94	9879.40
461.12	9795.14
461.31	9975.36
461.49	10111.11
461.67	9963.66
461.85	10160.27
462.04	10026.86
462.22	10548.79
462.40	10160.27
462.59	10251.55
462.77	10375.59
462.95	10361.55
463.13	10141.54
463.32	10328.78
463.50	10387.30
463.68	10630.71
463.86	10368.57
464.05	10347.51
464.23	10237.50
464.41	10483.26
464.59	10244.52
464.78	10509.01
464.96	10511.35
465.14	10532.41
465.32	10808.59
465.50	10518.37
465.69	10988.82
465.87	10628.37
466.05	10675.18
466.23	10602.63
466.41	10750.08
466.60	11222.87
466.78	10869.45
466.96	10693.91
467.14	10897.53
467.32	10972.43
467.51	11082.44
467.69	10850.72
467.87	11300.11
468.05	11325.85
468.23	10934.98
468.41	11044.99
468.60	11208.83
468.78	11290.74
468.96	11030.94
469.14	11417.13
469.32	11475.65
469.50	11204.14
469.69	11625.44
469.87	11669.91
470.05	11559.91
470.23	11695.66
470.41	11571.61
470.59	11723.74
470.77	11789.28
470.95	11681.61
471.14	12016.31
471.32	11501.39
471.50	12198.87
471.68	12107.59
471.86	12037.38
472.04	12215.26
472.22	12409.52
472.40	12322.92
472.58	12369.73
472.77	12320.58
472.95	12428.24
473.13	12985.29
473.31	12542.93
473.49	12278.45
473.67	12594.42
473.85	12779.32
474.03	12992.31
474.21	13018.06
474.39	13018.06
474.57	13327.01
474.75	13378.50
474.93	13657.03
475.12	13224.03
475.30	13439.36
475.48	13453.40
475.66	13483.83
475.84	13331.69
476.02	13610.22
476.20	13579.79
476.38	13916.83
476.56	14167.26
476.74	13937.89
476.92	14101.73
477.10	14497.28
477.28	14401.32
477.46	14328.76
477.64	14750.06
477.82	14717.29
478.00	15211.14
478.18	14785.16
478.36	15126.88
478.54	15396.04
478.72	15257.95
478.90	15243.91
479.08	15906.28
479.26	15559.88
479.44	15674.57
479.62	15885.22
479.80	16084.16
479.98	15833.72
480.16	16402.47
480.34	16154.38
480.52	16744.19
480.70	16898.67
480.88	16727.81
481.06	16671.64
481.24	16666.95
481.41	17205.28
481.59	17420.61
481.77	17319.96
481.95	17399.54
482.13	17287.20
482.31	17860.63
482.49	18003.40
482.67	17998.72
482.85	18291.29
483.03	18118.09
483.21	18527.68
483.39	18733.65
483.57	18616.62
483.74	18799.18
483.92	19042.60
484.10	18881.10
484.28	19374.95
484.46	19700.29
484.64	19653.48
484.82	19480.28
485.00	20032.65
485.18	20196.48
485.35	20594.37
485.53	20479.69
485.71	20465.64
485.89	20891.62
486.07	20559.27
486.25	20767.57
486.43	20868.22
486.61	21252.06
486.78	21521.23
486.96	21343.35
487.14	22010.40
487.32	22087.64
487.50	22366.16
487.68	22185.94
487.85	22937.25
488.03	22742.99
488.21	22911.50
488.39	23124.49
488.57	23531.75
488.75	23138.54
488.92	23763.46
489.10	24006.87
489.28	23843.04
489.46	24308.80
489.64	24159.01
489.81	24769.89
489.99	24498.39
490.17	24971.18
490.35	25188.85
490.53	24765.21
490.70	25673.34
490.88	25729.51
491.06	25605.46
491.24	26073.57
491.41	25762.28
491.59	26274.85
491.77	26277.19
491.95	26642.32
492.13	26768.71
492.30	27028.51
492.48	26932.54
492.66	27248.52
492.84	27131.49
493.01	27353.84
493.19	27623.00
493.37	27536.40
493.54	27934.29
493.72	28350.91
493.90	27955.36
494.08	28624.75
494.25	28900.94
494.43	28671.56
494.61	29240.31
494.79	29078.82
494.96	28975.83
495.14	29280.10
495.32	29729.48
495.49	29788.00
495.67	29731.83
495.85	30043.12
496.02	30492.50
496.20	30696.13
496.38	30689.10
496.55	30515.90
496.73	30986.35
496.91	30838.90
497.09	31395.95
497.26	31587.87
497.44	30972.31
497.62	31672.13
497.79	32257.26
497.97	32091.09
498.14	32095.77
498.32	32634.09
498.50	32498.34
498.67	32706.65
498.85	32643.45
499.03	32879.85
499.20	32957.08
499.38	33425.19
499.56	33099.86
499.73	33701.37
499.91	33769.25
500.08	33984.58
500.26	33212.20
500.44	34038.41
500.61	33652.22
500.79	34040.75
500.97	34354.38
501.14	34700.78
501.32	34813.13
501.49	34333.32
501.67	34693.76
501.84	34892.71
502.02	34630.57
502.20	35002.71
502.37	35309.32
502.55	35168.89
502.72	35709.55
502.90	35782.11
503.07	35644.02
503.25	36051.27
503.43	35538.69
503.60	36018.50
503.78	36229.15
503.95	36226.81
504.13	36472.57
504.30	36526.40
504.48	36732.37
504.65	36706.62
504.83	37038.98
505.01	37088.13
505.18	37209.84
505.36	37193.45
505.53	37249.63
505.71	37635.81
505.88	37268.35
506.06	37530.49
506.23	37823.06
506.41	37546.87
506.58	37809.01
506.76	38202.22
506.93	38405.85
507.11	38103.92
507.28	38291.16
507.46	38682.03
507.63	38651.61
507.81	39077.58
507.98	39077.58
508.16	38679.69
508.33	39028.43
508.50	39358.45
508.68	39510.58
508.85	39835.92
509.03	39569.10
509.20	39541.01
509.38	39945.92
509.55	40093.38
509.73	39695.49
509.90	40360.20
510.08	40502.97
510.25	40367.22
510.42	40603.61
510.60	40917.25
510.77	40800.22
510.95	40872.78
511.12	40959.38
511.30	41228.54
511.47	41155.98
511.64	41029.59
511.82	41820.69
511.99	41502.38
512.17	41949.42
512.34	41645.15
512.51	42139.00
512.69	42291.14
512.86	41979.85
513.04	42506.47
513.21	42293.48
513.38	42733.50
513.56	42859.89
513.73	42511.15
513.90	42550.94
514.08	43058.84
514.25	42740.52
514.43	42817.76
514.60	43295.23
514.77	43353.74
514.95	43606.52
515.12	43157.14
515.29	43442.68
515.47	43316.29
515.64	43618.22
515.81	44105.06
515.99	43997.39
516.16	44371.88
516.33	43943.56
516.51	44615.29
516.68	44175.27
516.85	44486.56
517.03	44163.57
517.20	44662.10
517.37	44734.66
517.54	45247.24
517.72	44566.14
517.89	44526.35
518.06	45041.27
518.24	45041.27
518.41	44619.97
518.58	45284.68
518.75	44839.98
518.93	45502.35
519.10	45294.05
519.27	45909.61
519.45	45492.99
519.62	45640.45
519.79	45642.79
519.96	46124.94
520.14	45860.46
520.31	45745.77
520.48	46396.44
520.65	46073.45
520.83	46122.60
521.00	46291.12
521.17	46216.22
521.34	46513.47
521.52	46775.61
521.69	46375.37
521.86	46684.33
522.03	47540.96
522.20	47187.54
522.38	47100.94
522.55	47157.11
522.72	47175.84
522.89	47634.58
523.07	48048.86
523.24	47562.03
523.41	47833.53
523.58	47430.96
523.75	47819.49
523.92	47693.10
524.10	48025.45
524.27	48011.41
524.44	48170.57
524.61	48399.94
524.78	48350.79
524.96	48339.08
525.13	48339.08
525.30	48460.79
525.47	48348.45
525.64	48477.18
525.81	48722.93
525.98	48739.32
526.16	48729.95
526.33	48816.55
526.50	49272.96
526.67	49024.86
526.84	49174.66
527.01	48985.07
527.18	49275.30
527.36	49162.95
527.53	49415.73
527.70	49675.53
527.87	49659.15
528.04	49331.47
528.21	49652.12
528.38	49492.97
528.55	49841.71
528.72	49780.85
528.89	49773.83
529.07	49720.00
529.24	49818.30
529.41	50415.14
529.58	49776.17
529.75	50176.40
529.92	50153.00
530.09	50157.68
530.26	50780.26
530.43	50354.29
530.60	50335.56
530.77	50471.31
530.94	50773.24
531.11	50258.32
531.28	50349.60
531.46	50707.71
531.63	50447.91
531.80	50857.50
531.97	50894.95
532.14	51051.76
532.31	51023.68
532.48	50974.53
532.65	50834.10
532.82	50927.72
532.99	51281.14
533.16	51070.49
533.33	51292.84
533.50	51536.26
533.67	51262.41
533.84	51377.10
534.01	51524.55
534.18	51297.52
534.35	51683.71
534.52	51767.97
534.69	51608.81
534.86	51655.62
535.03	51639.24
535.20	51789.03
535.37	51866.27
535.54	52055.85
535.71	51870.95
535.88	51880.31
536.05	51983.30
536.22	52222.03
536.38	52491.19
536.55	52062.88
536.72	52589.50
536.89	52151.82
537.06	52453.75
537.23	52465.45
537.40	52390.55
537.57	52317.99
537.74	52516.94
537.91	52863.34
538.08	52949.94
538.25	52451.41
538.42	52664.39
538.59	52832.91
538.75	52772.06
538.92	52727.59
539.09	52856.32
539.26	52956.96
539.43	53249.53
539.60	53408.68
539.77	52830.57
539.94	53209.74
540.11	53008.45
540.28	52952.28
540.44	52945.26
540.61	53069.31
540.78	53305.70
540.95	53296.34
541.12	53647.42
541.29	53284.64
541.46	53506.99
541.62	53373.58
541.79	53378.26
541.96	53099.73
542.13	53181.65
542.30	53359.53
542.47	53464.86
542.63	53832.32
542.80	54042.97
542.97	53961.05
543.14	54007.86
543.31	53881.47
543.48	53998.50
543.64	54316.81
543.81	54433.84
543.98	54120.21
544.15	54358.94
544.32	54253.62
544.48	54670.23
544.65	54312.13
544.82	54340.22
544.99	54080.42
545.16	54363.62
545.32	54473.63
545.49	54759.17
545.66	54728.75
545.83	54518.10
546.00	54684.28
546.16	54667.89
546.33	54162.34
546.50	54087.44
546.67	54564.91
546.83	54408.09
547.00	54340.22
547.17	54738.11
547.34	54602.36
547.50	54621.08
547.67	55206.22
547.84	54756.83
548.00	54962.80
548.17	55107.91
548.34	54997.91
548.51	55334.95
548.67	55323.24
548.84	55028.34
549.01	55238.98
549.18	54904.29
549.34	55049.40
549.51	55098.55
549.68	55189.83
549.84	55180.47
550.01	55423.89
550.18	55288.13
550.34	55407.50
550.51	55468.36
550.68	55578.36
550.84	55089.19
551.01	55547.93
551.18	55451.97
551.34	55133.66
551.51	55330.26
551.68	55730.50
551.84	56011.36
552.01	55648.58
552.18	55973.91
552.34	55753.90
552.51	55868.59
552.68	55505.80
552.84	55561.98
553.01	55901.36
553.18	55810.07
553.34	55894.33
553.51	55896.67
553.67	56009.02
553.84	56112.00
554.01	55906.04
554.17	55852.20
554.34	56076.90
554.51	56189.24
554.67	56088.60
554.84	56332.01
555.00	56147.11
555.17	56189.24
555.33	56287.54
555.50	56037.11
555.67	56341.38
555.83	56259.46
556.00	56231.37
556.16	56245.41
556.33	56119.02
556.50	56154.13
556.66	56329.67
556.83	56058.17
556.99	56650.33
557.16	56718.20
557.32	56687.78
557.49	56633.94
557.65	56264.14
557.82	56516.92
557.98	56530.96
558.15	56528.62
558.32	56575.43
558.48	56596.49
558.65	56549.68
558.81	56769.69
558.98	56575.43
559.14	56601.18
559.31	56608.20
559.47	56676.07
559.64	56811.82
559.80	56982.68
559.97	56711.18
560.13	56596.49
560.30	56626.92
560.46	56699.48
560.63	56788.42
560.79	56828.21
560.96	57085.67
561.12	56870.34
561.29	56975.66
561.45	56802.46
561.61	56800.12
561.78	56952.26
561.94	57041.20
562.11	56940.55
562.27	56757.99
562.44	57038.86
562.60	56921.83
562.77	56949.92
562.93	57109.07
563.10	57212.06
563.26	57045.88
563.42	57240.14
563.59	57031.83
563.75	56985.02
563.92	57102.05
564.08	57080.98
564.24	57242.48
564.41	56914.81
564.57	57057.58
564.74	57132.48
564.90	57242.48
565.07	57205.03
565.23	57134.82
565.39	57408.66
565.56	57284.61
565.72	56891.40
565.88	57216.74
566.05	57151.20
566.21	57263.55
566.38	57066.94
566.54	57593.56
566.70	57523.35
566.87	57352.49
567.03	57310.36
567.19	57511.64
567.36	57228.44
567.52	57476.54
567.68	57399.30
567.85	57223.76
568.01	57223.76
568.17	57326.74
568.34	57275.25
568.50	57443.77
568.66	57469.51
568.83	57633.35
568.99	57457.81
569.15	57389.94
569.32	57347.81
569.48	57371.21
569.64	57579.52
569.81	57432.07
569.97	57623.99
570.13	57661.44
570.30	57743.36
570.46	57588.88
570.62	57654.42
570.78	57546.75
570.95	57635.69
571.11	57712.93
571.27	57336.10
571.43	57626.33
571.60	57773.78
571.76	57783.15
571.92	57677.82
572.09	57717.61
572.25	57586.54
572.41	57633.35
572.57	57523.35
572.74	57574.84
572.90	57705.91
573.06	57436.75
573.22	57556.11
573.38	57687.18
573.55	57736.34
573.71	58014.86
573.87	58012.52
574.03	57567.82
574.20	57993.79
574.36	57708.25
574.52	57563.14
574.68	57544.41
574.84	57902.51
575.01	57951.66
575.17	58045.29
575.33	57942.30
575.49	57986.77
575.65	57942.30
575.82	57907.19
575.98	58019.54
576.14	58159.97
576.30	57841.66
576.46	57752.72
576.62	57846.34
576.79	57656.76
576.95	57649.74
577.11	57890.81
577.27	57757.40
577.43	57860.38
577.59	58031.24
577.75	57970.39
577.92	57710.59
578.08	57811.23
578.24	57694.21
578.40	57766.76
578.56	57773.78
578.72	57865.06
578.88	58082.73
579.04	58138.91
579.21	57979.75
579.37	57888.47
579.53	58113.16
579.69	57860.38
579.85	57911.88
580.01	58174.02
580.17	57799.53
580.33	58005.50
580.49	58136.57
580.65	58136.57
580.82	58110.82
580.98	58064.01
581.14	57897.83
581.30	58033.58
581.46	57893.15
581.62	57977.41
581.78	57858.04
581.94	57921.24
582.10	58087.42
582.26	58218.49
582.42	58129.54
582.58	58108.48
582.74	58277.00
582.90	58181.04
583.06	58171.67
583.22	58038.26
583.38	58073.37
583.54	58183.38
583.70	57946.98
583.86	58047.63
584.02	57860.38
584.18	58361.26
584.34	58244.23
584.50	58398.71
584.66	58225.51
584.82	57841.66
584.98	57965.71
585.14	58171.67
585.30	58183.38
585.46	58054.65
585.62	57872.09
585.78	58237.21
585.94	57890.81
586.10	58124.86
586.26	58096.78
586.42	58269.98
586.58	58209.12
586.74	57961.03
586.90	58258.27
587.06	58127.20
587.22	58190.40
587.38	58019.54
587.54	58372.96
587.70	58314.45
587.86	58159.97
588.02	58253.59
588.18	58387.00
588.34	58529.78
588.49	58253.59
588.65	58124.86
588.81	58394.03
588.97	58202.10
589.13	57954.00
589.29	58258.27
589.45	58319.13
