SpectraSuite Data File
++++++++++++++++++++++++++++++++++++
Date: Fri Oct 04 11:47:04 GMT-05:00 2013
User: price-jones
Dark Spectrum Present: No
Reference Spectrum Present: No
Number of Sampled Component Spectra: 1
Spectrometers: USB2+H05261
Integration Time (usec): 100000 (USB2+H05261)
Spectra Averaged: 1 (USB2+H05261)
Boxcar Smoothing: 0 (USB2+H05261)
Correct for Electrical Dark: No (USB2+H05261)
Strobe/Lamp Enabled: No (USB2+H05261)
Correct for Detector Non-linearity: No (USB2+H05261)
Correct for Stray Light: No (USB2+H05261)
Number of Pixels in Processed Spectrum: 2048
>>>>>Begin Processed Spectral Data<<<<<
365.73	11.70
365.92	11.70
366.12	11.70
366.32	0.00
366.52	0.00
366.72	0.00
366.91	0.00
367.11	0.00
367.31	0.00
367.51	0.00
367.70	0.00
367.90	0.00
368.10	0.00
368.30	0.00
368.49	0.00
368.69	0.00
368.89	0.00
369.09	0.00
369.28	0.00
369.48	0.00
369.68	0.00
369.87	0.00
370.07	0.00
370.27	25.75
370.47	0.00
370.66	0.00
370.86	42.13
371.06	30.43
371.25	65.54
371.45	30.43
371.65	79.58
371.84	110.01
372.04	58.51
372.24	0.00
372.44	11.70
372.63	81.92
372.83	196.60
373.03	135.75
373.22	44.47
373.42	126.39
373.62	88.94
373.81	88.94
374.01	142.77
374.21	156.82
374.40	74.90
374.60	128.73
374.79	86.60
374.99	138.09
375.19	124.05
375.38	67.88
375.58	98.30
375.78	65.54
375.97	112.35
376.17	168.52
376.37	93.62
376.56	177.88
376.76	100.64
376.95	74.90
377.15	2.34
377.35	91.28
377.54	88.94
377.74	86.60
377.93	70.22
378.13	112.35
378.33	72.56
378.52	138.09
378.72	58.51
378.91	100.64
379.11	42.13
379.31	110.01
379.50	60.85
379.70	72.56
379.89	63.19
380.09	119.37
380.28	119.37
380.48	72.56
380.68	102.98
380.87	100.64
381.07	63.19
381.26	49.15
381.46	102.98
381.65	154.48
381.85	131.07
382.04	91.28
382.24	84.26
382.43	42.13
382.63	44.47
382.83	42.13
383.02	88.94
383.22	79.58
383.41	84.26
383.61	44.47
383.80	72.56
384.00	88.94
384.19	196.60
384.39	110.01
384.58	60.85
384.78	128.73
384.97	105.32
385.17	63.19
385.36	21.06
385.56	100.64
385.75	67.88
385.95	42.13
386.14	131.07
386.34	93.62
386.53	124.05
386.72	166.18
386.92	119.37
387.11	93.62
387.31	152.13
387.50	32.77
387.70	117.03
387.89	133.41
388.09	124.05
388.28	107.66
388.48	53.83
388.67	86.60
388.86	131.07
389.06	98.30
389.25	86.60
389.45	133.41
389.64	65.54
389.84	105.32
390.03	140.43
390.22	63.19
390.42	135.75
390.61	32.77
390.81	56.17
391.00	98.30
391.19	131.07
391.39	91.28
391.58	74.90
391.78	121.71
391.97	100.64
392.16	60.85
392.36	110.01
392.55	147.45
392.75	14.04
392.94	126.39
393.13	65.54
393.33	124.05
393.52	107.66
393.71	98.30
393.91	91.28
394.10	84.26
394.29	91.28
394.49	126.39
394.68	184.90
394.88	102.98
395.07	77.24
395.26	128.73
395.46	112.35
395.65	110.01
395.84	72.56
396.04	194.26
396.23	117.03
396.42	128.73
396.62	114.69
396.81	124.05
397.00	93.62
397.19	128.73
397.39	107.66
397.58	121.71
397.77	95.96
397.97	102.98
398.16	112.35
398.35	110.01
398.55	124.05
398.74	56.17
398.93	112.35
399.12	81.92
399.32	173.20
399.51	70.22
399.70	67.88
399.90	74.90
400.09	98.30
400.28	86.60
400.47	70.22
400.67	147.45
400.86	74.90
401.05	44.47
401.24	72.56
401.44	117.03
401.63	154.48
401.82	84.26
402.01	67.88
402.21	98.30
402.40	77.24
402.59	70.22
402.78	102.98
402.97	72.56
403.17	67.88
403.36	58.51
403.55	67.88
403.74	65.54
403.93	100.64
404.13	102.98
404.32	145.11
404.51	112.35
404.70	145.11
404.89	63.19
405.09	222.35
405.28	105.32
405.47	74.90
405.66	112.35
405.85	156.82
406.05	74.90
406.24	70.22
406.43	140.43
406.62	163.84
406.81	173.20
407.00	187.24
407.20	65.54
407.39	95.96
407.58	44.47
407.77	168.52
407.96	74.90
408.15	65.54
408.34	67.88
408.54	65.54
408.73	131.07
408.92	154.48
409.11	128.73
409.30	98.30
409.49	133.41
409.68	159.16
409.87	49.15
410.07	56.17
410.26	102.98
410.45	44.47
410.64	114.69
410.83	32.77
411.02	86.60
411.21	140.43
411.40	105.32
411.59	105.32
411.78	205.97
411.98	117.03
412.17	91.28
412.36	166.18
412.55	161.50
412.74	114.69
412.93	135.75
413.12	88.94
413.31	67.88
413.50	126.39
413.69	140.43
413.88	91.28
414.07	91.28
414.26	100.64
414.45	166.18
414.64	126.39
414.83	124.05
415.02	86.60
415.22	88.94
415.41	191.92
415.60	77.24
415.79	98.30
415.98	168.52
416.17	100.64
416.36	65.54
416.55	133.41
416.74	98.30
416.93	114.69
417.12	147.45
417.31	189.58
417.50	194.26
417.69	163.84
417.88	175.54
418.07	126.39
418.26	135.75
418.45	175.54
418.64	299.59
418.83	175.54
419.02	217.67
419.21	170.86
419.39	182.56
419.58	138.09
419.77	175.54
419.96	159.16
420.15	189.58
420.34	117.03
420.53	105.32
420.72	194.26
420.91	133.41
421.10	133.41
421.29	88.94
421.48	131.07
421.67	154.48
421.86	93.62
422.05	114.69
422.24	86.60
422.43	100.64
422.61	88.94
422.80	95.96
422.99	70.22
423.18	79.58
423.37	145.11
423.56	159.16
423.75	180.22
423.94	140.43
424.13	100.64
424.32	70.22
424.50	163.84
424.69	110.01
424.88	170.86
425.07	126.39
425.26	182.56
425.45	222.35
425.64	191.92
425.83	243.42
426.01	238.73
426.20	93.62
426.39	93.62
426.58	128.73
426.77	133.41
426.96	79.58
427.15	159.16
427.33	114.69
427.52	138.09
427.71	126.39
427.90	128.73
428.09	91.28
428.28	121.71
428.46	140.43
428.65	65.54
428.84	117.03
429.03	142.77
429.22	114.69
429.40	95.96
429.59	156.82
429.78	145.11
429.97	60.85
430.16	203.63
430.34	184.90
430.53	147.45
430.72	112.35
430.91	107.66
431.10	102.98
431.28	159.16
431.47	119.37
431.66	114.69
431.85	102.98
432.03	133.41
432.22	173.20
432.41	149.79
432.60	229.37
432.79	159.16
432.97	262.14
433.16	264.48
433.35	182.56
433.54	114.69
433.72	131.07
433.91	154.48
434.10	187.24
434.28	149.79
434.47	128.73
434.66	152.13
434.85	135.75
435.03	102.98
435.22	182.56
435.41	184.90
435.59	177.88
435.78	124.05
435.97	124.05
436.16	210.65
436.34	121.71
436.53	119.37
436.72	177.88
436.90	133.41
437.09	100.64
437.28	149.79
437.46	131.07
437.65	72.56
437.84	182.56
438.02	107.66
438.21	191.92
438.40	117.03
438.58	131.07
438.77	182.56
438.96	107.66
439.14	110.01
439.33	154.48
439.52	93.62
439.70	88.94
439.89	147.45
440.08	95.96
440.26	93.62
440.45	184.90
440.63	119.37
440.82	102.98
441.01	119.37
441.19	140.43
441.38	154.48
441.57	63.19
441.75	147.45
441.94	252.78
442.12	161.50
442.31	107.66
442.50	170.86
442.68	133.41
442.87	128.73
443.05	102.98
443.24	117.03
443.43	126.39
443.61	198.95
443.80	154.48
443.98	98.30
444.17	121.71
444.35	110.01
444.54	140.43
444.73	117.03
444.91	147.45
445.10	117.03
445.28	128.73
445.47	65.54
445.65	93.62
445.84	77.24
446.02	91.28
446.21	105.32
446.39	117.03
446.58	154.48
446.77	79.58
446.95	140.43
447.14	147.45
447.32	203.63
447.51	110.01
447.69	117.03
447.88	175.54
448.06	140.43
448.25	107.66
448.43	177.88
448.62	133.41
448.80	175.54
448.99	110.01
449.17	105.32
449.36	131.07
449.54	128.73
449.73	145.11
449.91	121.71
450.10	182.56
450.28	173.20
450.46	133.41
450.65	191.92
450.83	147.45
451.02	128.73
451.20	175.54
451.39	114.69
451.57	170.86
451.76	98.30
451.94	117.03
452.13	156.82
452.31	180.22
452.49	168.52
452.68	154.48
452.86	119.37
453.05	187.24
453.23	269.16
453.42	159.16
453.60	163.84
453.78	121.71
453.97	70.22
454.15	168.52
454.34	126.39
454.52	91.28
454.70	142.77
454.89	161.50
455.07	72.56
455.26	166.18
455.44	95.96
455.62	180.22
455.81	161.50
455.99	145.11
456.17	180.22
456.36	168.52
456.54	168.52
456.73	142.77
456.91	170.86
457.09	147.45
457.28	201.29
457.46	210.65
457.64	170.86
457.83	112.35
458.01	149.79
458.19	145.11
458.38	102.98
458.56	102.98
458.74	95.96
458.93	138.09
459.11	131.07
459.29	212.99
459.48	163.84
459.66	142.77
459.84	154.48
460.03	210.65
460.21	100.64
460.39	142.77
460.57	191.92
460.76	147.45
460.94	126.39
461.12	145.11
461.31	194.26
461.49	166.18
461.67	91.28
461.85	124.05
462.04	107.66
462.22	624.92
462.40	166.18
462.59	189.58
462.77	124.05
462.95	194.26
463.13	159.16
463.32	196.60
463.50	149.79
463.68	161.50
463.86	100.64
464.05	161.50
464.23	131.07
464.41	177.88
464.59	77.24
464.78	65.54
464.96	49.15
465.14	100.64
465.32	70.22
465.50	166.18
465.69	93.62
465.87	161.50
466.05	117.03
466.23	102.98
466.41	131.07
466.60	135.75
466.78	91.28
466.96	208.31
467.14	138.09
467.32	95.96
467.51	138.09
467.69	110.01
467.87	208.31
468.05	203.63
468.23	238.73
468.41	126.39
468.60	161.50
468.78	173.20
468.96	117.03
469.14	84.26
469.32	84.26
469.50	189.58
469.69	135.75
469.87	210.65
470.05	95.96
470.23	93.62
470.41	107.66
470.59	112.35
470.77	212.99
470.95	231.71
471.14	140.43
471.32	105.32
471.50	110.01
471.68	128.73
471.86	156.82
472.04	140.43
472.22	154.48
472.40	110.01
472.58	133.41
472.77	142.77
472.95	91.28
473.13	166.18
473.31	198.95
473.49	163.84
473.67	145.11
473.85	152.13
474.03	119.37
474.21	142.77
474.39	184.90
474.57	107.66
474.75	140.43
474.93	187.24
475.12	180.22
475.30	91.28
475.48	88.94
475.66	203.63
475.84	131.07
476.02	187.24
476.20	187.24
476.38	149.79
476.56	238.73
476.74	159.16
476.92	154.48
477.10	77.24
477.28	112.35
477.46	154.48
477.64	166.18
477.82	142.77
478.00	194.26
478.18	142.77
478.36	119.37
478.54	100.64
478.72	128.73
478.90	138.09
479.08	138.09
479.26	56.17
479.44	152.13
479.62	121.71
479.80	168.52
479.98	65.54
480.16	208.31
480.34	175.54
480.52	70.22
480.70	203.63
480.88	138.09
481.06	72.56
481.24	119.37
481.41	215.33
481.59	210.65
481.77	91.28
481.95	149.79
482.13	196.60
482.31	175.54
482.49	60.85
482.67	133.41
482.85	173.20
483.03	161.50
483.21	105.32
483.39	203.63
483.57	220.01
483.74	182.56
483.92	194.26
484.10	142.77
484.28	159.16
484.46	243.42
484.64	170.86
484.82	168.52
485.00	205.97
485.18	152.13
485.35	159.16
485.53	91.28
485.71	241.08
485.89	182.56
486.07	168.52
486.25	220.01
486.43	196.60
486.61	154.48
486.78	95.96
486.96	161.50
487.14	98.30
487.32	168.52
487.50	212.99
487.68	156.82
487.85	142.77
488.03	210.65
488.21	149.79
488.39	196.60
488.57	168.52
488.75	154.48
488.92	393.21
489.10	201.29
489.28	154.48
489.46	156.82
489.64	196.60
489.81	161.50
489.99	243.42
490.17	102.98
490.35	248.10
490.53	189.58
490.70	124.05
490.88	196.60
491.06	124.05
491.24	159.16
491.41	203.63
491.59	191.92
491.77	173.20
491.95	93.62
492.13	201.29
492.30	198.95
492.48	184.90
492.66	175.54
492.84	145.11
493.01	154.48
493.19	124.05
493.37	184.90
493.54	173.20
493.72	241.08
493.90	121.71
494.08	163.84
494.25	262.14
494.43	182.56
494.61	217.67
494.79	224.69
494.96	173.20
495.14	110.01
495.32	117.03
495.49	255.12
495.67	189.58
495.85	159.16
496.02	142.77
496.20	208.31
496.38	194.26
496.55	166.18
496.73	154.48
496.91	180.22
497.09	173.20
497.26	187.24
497.44	257.46
497.62	161.50
497.79	252.78
497.97	203.63
498.14	152.13
498.32	229.37
498.50	117.03
498.67	161.50
498.85	189.58
499.03	215.33
499.20	147.45
499.38	262.14
499.56	241.08
499.73	217.67
499.91	191.92
500.08	217.67
500.26	243.42
500.44	191.92
500.61	177.88
500.79	201.29
500.97	145.11
501.14	257.46
501.32	180.22
501.49	201.29
501.67	220.01
501.84	142.77
502.02	65.54
502.20	117.03
502.37	182.56
502.55	194.26
502.72	250.44
502.90	201.29
503.07	212.99
503.25	229.37
503.43	255.12
503.60	184.90
503.78	142.77
503.95	255.12
504.13	140.43
504.30	227.03
504.48	168.52
504.65	241.08
504.83	166.18
505.01	191.92
505.18	276.18
505.36	114.69
505.53	166.18
505.71	245.76
505.88	297.25
506.06	161.50
506.23	215.33
506.41	184.90
506.58	203.63
506.76	208.31
506.93	173.20
507.11	196.60
507.28	166.18
507.46	93.62
507.63	196.60
507.81	238.73
507.98	163.84
508.16	280.86
508.33	243.42
508.50	191.92
508.68	255.12
508.85	187.24
509.03	128.73
509.20	86.60
509.38	187.24
509.55	241.08
509.73	187.24
509.90	198.95
510.08	161.50
510.25	210.65
510.42	248.10
510.60	231.71
510.77	145.11
510.95	236.39
511.12	152.13
511.30	259.80
511.47	276.18
511.64	337.04
511.82	203.63
511.99	194.26
512.17	191.92
512.34	229.37
512.51	159.16
512.69	234.05
512.86	212.99
513.04	196.60
513.21	245.76
513.38	196.60
513.56	210.65
513.73	243.42
513.90	175.54
514.08	138.09
514.25	250.44
514.43	227.03
514.60	156.82
514.77	243.42
514.95	278.52
515.12	194.26
515.29	168.52
515.47	212.99
515.64	243.42
515.81	259.80
515.99	280.86
516.16	238.73
516.33	234.05
516.51	205.97
516.68	168.52
516.85	222.35
517.03	161.50
517.20	168.52
517.37	259.80
517.54	119.37
517.72	175.54
517.89	159.16
518.06	177.88
518.24	224.69
518.41	278.52
518.58	280.86
518.75	203.63
518.93	194.26
519.10	245.76
519.27	175.54
519.45	306.61
519.62	168.52
519.79	180.22
519.96	262.14
520.14	173.20
520.31	257.46
520.48	198.95
520.65	234.05
520.83	255.12
521.00	194.26
521.17	135.75
521.34	152.13
521.52	131.07
521.69	173.20
521.86	184.90
522.03	245.76
522.20	222.35
522.38	147.45
522.55	140.43
522.72	177.88
522.89	257.46
523.07	220.01
523.24	205.97
523.41	156.82
523.58	231.71
523.75	93.62
523.92	154.48
524.10	184.90
524.27	180.22
524.44	203.63
524.61	203.63
524.78	245.76
524.96	156.82
525.13	194.26
525.30	189.58
525.47	236.39
525.64	133.41
525.81	259.80
525.98	238.73
526.16	182.56
526.33	149.79
526.50	142.77
526.67	182.56
526.84	180.22
527.01	182.56
527.18	166.18
527.36	248.10
527.53	187.24
527.70	234.05
527.87	203.63
528.04	241.08
528.21	159.16
528.38	257.46
528.55	229.37
528.72	152.13
528.89	245.76
529.07	210.65
529.24	255.12
529.41	283.20
529.58	217.67
529.75	194.26
529.92	231.71
530.09	262.14
530.26	238.73
530.43	191.92
530.60	245.76
530.77	196.60
530.94	184.90
531.11	243.42
531.28	252.78
531.46	227.03
531.63	231.71
531.80	222.35
531.97	177.88
532.14	184.90
532.31	245.76
532.48	276.18
532.65	304.27
532.82	433.00
532.99	430.66
533.16	374.49
533.33	320.65
533.50	243.42
533.67	278.52
533.84	428.32
534.01	435.34
534.18	430.66
534.35	318.31
534.52	224.69
534.69	339.38
534.86	184.90
535.03	198.95
535.20	250.44
535.37	229.37
535.54	224.69
535.71	224.69
535.88	252.78
536.05	198.95
536.22	271.50
536.38	220.01
536.55	203.63
536.72	189.58
536.89	243.42
537.06	194.26
537.23	220.01
537.40	201.29
537.57	163.84
537.74	217.67
537.91	208.31
538.08	184.90
538.25	278.52
538.42	229.37
538.59	203.63
538.75	205.97
538.92	264.48
539.09	215.33
539.26	210.65
539.43	519.60
539.60	1444.11
539.77	2190.74
539.94	2092.44
540.11	1371.55
540.28	760.67
540.44	571.09
540.61	297.25
540.78	222.35
540.95	220.01
541.12	217.67
541.29	194.26
541.46	238.73
541.62	208.31
541.79	154.48
541.96	177.88
542.13	210.65
542.30	245.76
542.47	194.26
542.63	201.29
542.80	184.90
542.97	234.05
543.14	191.92
543.31	217.67
543.48	138.09
543.64	238.73
543.81	170.86
543.98	189.58
544.15	217.67
544.32	222.35
544.48	231.71
544.65	173.20
544.82	236.39
544.99	182.56
545.16	217.67
545.32	175.54
545.49	149.79
545.66	182.56
545.83	257.46
546.00	220.01
546.16	212.99
546.33	110.01
546.50	198.95
546.67	173.20
546.83	238.73
547.00	198.95
547.17	278.52
547.34	212.99
547.50	212.99
547.67	175.54
547.84	156.82
548.00	189.58
548.17	227.03
548.34	215.33
548.51	252.78
548.67	224.69
548.84	259.80
549.01	212.99
549.18	173.20
549.34	201.29
549.51	231.71
549.68	238.73
549.84	187.24
550.01	257.46
550.18	353.42
550.34	297.25
550.51	245.76
550.68	259.80
550.84	229.37
551.01	248.10
551.18	306.61
551.34	250.44
551.51	177.88
551.68	194.26
551.84	187.24
552.01	205.97
552.18	215.33
552.34	234.05
552.51	205.97
552.68	250.44
552.84	229.37
553.01	245.76
553.18	187.24
553.34	264.48
553.51	110.01
553.67	231.71
553.84	196.60
554.01	196.60
554.17	280.86
554.34	208.31
554.51	205.97
554.67	262.14
554.84	243.42
555.00	269.16
555.17	273.84
555.33	280.86
555.50	278.52
555.67	243.42
555.83	252.78
556.00	283.20
556.16	440.02
556.33	203.63
556.50	222.35
556.66	149.79
556.83	203.63
556.99	180.22
557.16	180.22
557.32	145.11
557.49	173.20
557.65	161.50
557.82	217.67
557.98	187.24
558.15	152.13
558.32	208.31
558.48	215.33
558.65	238.73
558.81	243.42
558.98	182.56
559.14	220.01
559.31	187.24
559.47	222.35
559.64	231.71
559.80	175.54
559.97	191.92
560.13	110.01
560.30	241.08
560.46	210.65
560.63	177.88
560.79	229.37
560.96	194.26
561.12	180.22
561.29	215.33
561.45	159.16
561.61	156.82
561.78	196.60
561.94	154.48
562.11	187.24
562.27	229.37
562.44	170.86
562.60	241.08
562.77	243.42
562.93	243.42
563.10	271.50
563.26	201.29
563.42	212.99
563.59	168.52
563.75	156.82
563.92	201.29
564.08	163.84
564.24	177.88
564.41	257.46
564.57	203.63
564.74	238.73
564.90	222.35
565.07	248.10
565.23	252.78
565.39	306.61
565.56	241.08
565.72	250.44
565.88	238.73
566.05	220.01
566.21	215.33
566.38	294.91
566.54	166.18
566.70	217.67
566.87	238.73
567.03	196.60
567.19	241.08
567.36	234.05
567.52	227.03
567.68	198.95
567.85	222.35
568.01	180.22
568.17	231.71
568.34	220.01
568.50	271.50
568.66	255.12
568.83	297.25
568.99	224.69
569.15	208.31
569.32	154.48
569.48	201.29
569.64	177.88
569.81	217.67
569.97	142.77
570.13	126.39
570.30	124.05
570.46	241.08
570.62	234.05
570.78	231.71
570.95	250.44
571.11	245.76
571.27	271.50
571.43	201.29
571.60	170.86
571.76	229.37
571.92	203.63
572.09	224.69
572.25	241.08
572.41	222.35
572.57	227.03
572.74	297.25
572.90	301.93
573.06	243.42
573.22	210.65
573.38	294.91
573.55	229.37
573.71	264.48
573.87	252.78
574.03	187.24
574.20	262.14
574.36	388.53
574.52	332.36
574.68	365.12
574.84	322.99
575.01	266.82
575.17	290.23
575.33	287.89
575.49	229.37
575.65	367.46
575.82	376.83
575.98	767.70
576.14	877.70
576.30	922.17
576.46	681.10
576.62	533.64
576.79	454.06
576.95	315.97
577.11	299.59
577.27	248.10
577.43	248.10
577.59	325.33
577.75	285.55
577.92	353.42
578.08	271.50
578.24	215.33
578.40	236.39
578.56	264.48
578.72	327.68
578.88	276.18
579.04	337.04
579.21	191.92
579.37	203.63
579.53	313.63
579.69	280.86
579.85	376.83
580.01	337.04
580.17	421.30
580.33	437.68
580.49	447.04
580.65	447.04
580.82	339.38
580.98	374.49
581.14	388.53
581.30	404.91
581.46	423.64
581.62	718.54
581.78	744.29
581.94	713.86
582.10	641.31
582.26	482.15
582.42	491.51
582.58	463.43
582.74	482.15
582.90	503.22
583.06	554.71
583.22	580.45
583.38	561.73
583.54	627.26
583.70	763.01
583.86	940.90
584.02	1001.75
584.18	1301.34
584.34	1680.50
584.50	4706.82
584.66	37500.06
584.82	65535.00
584.98	65535.00
585.14	65535.00
585.30	64523.89
585.46	43393.53
585.62	26848.29
585.78	12430.59
585.94	4718.52
586.10	2209.47
586.26	1474.54
586.42	1132.82
586.58	887.06
586.74	704.50
586.90	748.97
587.06	676.41
587.22	634.29
587.38	704.50
587.54	1617.31
587.70	5158.54
587.86	8461.04
588.02	9331.72
588.18	6628.40
588.34	4060.83
588.49	2729.06
588.65	1605.61
588.81	830.89
588.97	568.75
589.13	456.40
589.29	337.04
589.45	386.19
589.61	414.27
589.77	486.83
589.93	538.32
590.08	547.69
590.24	531.30
590.40	512.58
590.56	528.96
590.72	428.32
590.88	414.27
591.04	411.93
591.20	344.06
591.35	369.80
591.51	344.06
591.67	390.87
591.83	269.16
591.99	330.02
592.15	285.55
592.31	322.99
592.46	292.57
592.62	313.63
592.78	287.89
592.94	241.08
593.10	294.91
593.26	339.38
593.41	348.74
593.57	383.85
593.73	746.63
593.89	4318.29
594.05	11274.36
594.20	16215.23
594.36	15211.14
594.52	10026.86
594.68	6111.14
594.84	4023.38
594.99	2064.35
595.15	1039.20
595.31	524.28
595.47	416.62
595.62	276.18
595.78	369.80
595.94	362.78
596.10	393.21
596.25	278.52
596.41	409.59
596.57	334.70
596.73	362.78
596.88	681.10
597.04	1989.46
597.20	3372.71
597.36	3831.46
597.51	2890.56
597.67	1902.86
597.83	1259.21
597.99	847.27
598.14	552.37
598.30	393.21
598.46	344.06
598.61	327.68
598.77	299.59
598.93	355.76
599.09	362.78
599.24	327.68
599.40	280.86
599.56	257.46
599.71	173.20
599.87	313.63
600.03	301.93
600.18	215.33
600.34	187.24
600.50	177.88
600.65	224.69
600.81	234.05
600.97	201.29
601.12	250.44
601.28	252.78
601.44	259.80
601.59	294.91
601.75	262.14
601.91	252.78
602.06	276.18
602.22	442.36
602.37	952.60
602.53	2581.61
602.69	3882.95
602.84	3985.93
603.00	2906.95
603.16	2136.91
603.31	1378.58
603.47	837.91
603.62	505.56
603.78	414.27
603.94	332.36
604.09	294.91
604.25	351.08
604.40	276.18
604.56	210.65
604.71	203.63
604.87	245.76
605.03	271.50
605.18	264.48
605.34	318.31
605.49	318.31
605.65	308.95
605.80	238.73
605.96	299.59
606.12	355.76
606.27	435.34
606.43	311.29
606.58	447.04
606.74	1170.27
606.89	5378.55
607.05	10698.59
607.20	13977.68
607.36	11047.33
607.51	7510.78
607.67	4842.57
607.82	3239.30
607.98	1668.80
608.13	950.26
608.29	552.37
608.44	496.19
608.60	550.03
608.75	608.54
608.91	1530.71
609.06	8177.83
609.22	18010.42
609.37	24269.01
609.53	21003.97
609.68	13621.92
609.84	8774.67
609.99	5741.33
610.15	2986.52
610.30	1394.96
610.46	739.61
610.61	533.64
610.76	423.64
610.92	388.53
611.07	341.72
611.23	397.89
611.38	449.38
611.54	297.25
611.69	320.65
