SpectraSuite Data File
++++++++++++++++++++++++++++++++++++
Date: Fri Oct 04 11:48:30 GMT-05:00 2013
User: price-jones
Dark Spectrum Present: No
Reference Spectrum Present: No
Number of Sampled Component Spectra: 1
Spectrometers: USB2+H05261
Integration Time (usec): 100000 (USB2+H05261)
Spectra Averaged: 1 (USB2+H05261)
Boxcar Smoothing: 0 (USB2+H05261)
Correct for Electrical Dark: No (USB2+H05261)
Strobe/Lamp Enabled: No (USB2+H05261)
Correct for Detector Non-linearity: No (USB2+H05261)
Correct for Stray Light: No (USB2+H05261)
Number of Pixels in Processed Spectrum: 2048
>>>>>Begin Processed Spectral Data<<<<<
365.73	0.00
365.92	0.00
366.12	0.00
366.32	0.00
366.52	0.00
366.72	0.00
366.91	0.00
367.11	0.00
367.31	0.00
367.51	0.00
367.70	0.00
367.90	0.00
368.10	0.00
368.30	0.00
368.49	0.00
368.69	0.00
368.89	0.00
369.09	0.00
369.28	0.00
369.48	0.00
369.68	0.00
369.87	0.00
370.07	0.00
370.27	32.77
370.47	86.60
370.66	210.65
370.86	306.61
371.06	280.86
371.25	381.51
371.45	327.68
371.65	278.52
371.84	262.14
372.04	241.08
372.24	362.78
372.44	315.97
372.63	322.99
372.83	365.12
373.03	386.19
373.22	393.21
373.42	311.29
373.62	374.49
373.81	367.46
374.01	428.32
374.21	393.21
374.40	402.57
374.60	362.78
374.79	400.23
374.99	383.85
375.19	402.57
375.38	390.87
375.58	482.15
375.78	402.57
375.97	440.02
376.17	493.85
376.37	400.23
376.56	409.59
376.76	416.62
376.95	400.23
377.15	358.10
377.35	489.17
377.54	414.27
377.74	447.04
377.93	538.32
378.13	479.81
378.33	479.81
378.52	444.70
378.72	475.13
378.91	381.51
379.11	472.79
379.31	423.64
379.50	475.13
379.70	491.51
379.89	540.66
380.09	416.62
380.28	479.81
380.48	489.17
380.68	538.32
380.87	458.74
381.07	521.94
381.26	594.50
381.46	475.13
381.65	430.66
381.85	526.62
382.04	554.71
382.24	524.28
382.43	543.00
382.63	505.56
382.83	454.06
383.02	526.62
383.22	528.96
383.41	589.82
383.61	599.18
383.80	547.69
384.00	561.73
384.19	559.39
384.39	660.03
384.58	580.45
384.78	667.05
384.97	622.58
385.17	660.03
385.36	622.58
385.56	587.47
385.75	669.39
385.95	564.07
386.14	638.97
386.34	671.73
386.53	662.37
386.72	599.18
386.92	622.58
387.11	624.92
387.31	674.07
387.50	613.22
387.70	603.86
387.89	709.18
388.09	706.84
388.28	599.18
388.48	631.94
388.67	716.20
388.86	688.12
389.06	655.35
389.25	716.20
389.45	671.73
389.64	718.54
389.84	697.48
390.03	676.41
390.22	774.72
390.42	774.72
390.61	795.78
390.81	751.31
391.00	697.48
391.19	737.27
391.39	772.38
391.58	788.76
391.78	758.33
391.97	847.27
392.16	805.14
392.36	781.74
392.55	809.83
392.75	828.55
392.94	807.48
393.13	868.34
393.33	770.04
393.52	833.23
393.71	924.51
393.91	840.25
394.10	732.59
394.29	788.76
394.49	812.17
394.68	901.11
394.88	844.93
395.07	875.36
395.26	978.34
395.46	924.51
395.65	903.45
395.84	936.21
396.04	912.81
396.23	884.72
396.42	866.00
396.62	983.02
396.81	966.64
397.00	990.05
397.19	915.15
397.39	990.05
397.58	1034.52
397.77	1008.77
397.97	1048.56
398.16	1027.50
398.35	1114.10
398.55	1090.69
398.74	1041.54
398.93	1062.60
399.12	1036.86
399.32	1076.65
399.51	1064.94
399.70	1156.22
399.90	1074.31
400.09	1149.20
400.28	1172.61
400.47	1156.22
400.67	1205.38
400.86	1163.25
401.05	1177.29
401.24	1219.42
401.44	1252.19
401.63	1224.10
401.82	1291.98
402.01	1160.91
402.21	1275.59
402.40	1268.57
402.59	1362.19
402.78	1170.27
402.97	1299.00
403.17	1273.25
403.36	1263.89
403.55	1352.83
403.74	1345.81
403.93	1451.13
404.13	1350.49
404.32	1385.60
404.51	1322.40
404.70	1418.36
404.89	1387.94
405.09	1420.71
405.28	1401.98
405.47	1359.85
405.66	1523.69
405.85	1392.62
406.05	1418.36
406.24	1558.80
406.43	1593.90
406.62	1528.37
406.81	1570.50
407.00	1561.14
407.20	1565.82
407.39	1465.18
407.58	1603.27
407.77	1675.82
407.96	1678.16
408.15	1621.99
408.34	1593.90
408.54	1647.74
408.73	1739.02
408.92	1661.78
409.11	1776.47
409.30	1689.87
409.49	1717.95
409.68	1703.91
409.87	1760.08
410.07	1746.04
410.26	1811.57
410.45	1813.92
410.64	1802.21
410.83	1874.77
411.02	1809.23
411.21	1961.37
411.40	1858.39
411.59	1949.67
411.78	1975.41
411.98	1961.37
412.17	1956.69
412.36	1949.67
412.55	2122.87
412.74	2005.84
412.93	2179.04
413.12	1982.43
413.31	2125.21
413.50	2165.00
413.69	2174.36
413.88	2193.08
414.07	2188.40
414.26	2228.19
414.45	2188.40
414.64	2193.08
414.83	2293.72
415.02	2307.77
415.22	2368.62
415.41	2443.52
415.60	2375.64
415.79	2415.43
415.98	2392.03
416.17	2485.65
416.36	2457.56
416.55	2551.18
416.74	2499.69
416.93	2499.69
417.12	2635.44
417.31	2562.89
417.50	2546.50
417.69	2637.78
417.88	2689.28
418.07	2597.99
418.26	2579.27
418.45	2733.75
418.64	2754.81
418.83	2836.73
419.02	2759.49
419.21	2745.45
419.39	2745.45
419.58	2803.96
419.77	2827.37
419.96	2916.31
420.15	2834.39
420.34	2902.26
420.53	2696.30
420.72	3014.61
420.91	2977.16
421.10	2892.90
421.29	2995.89
421.48	2885.88
421.67	2974.82
421.86	2965.46
422.05	2939.71
422.24	3030.99
422.43	2967.80
422.61	2986.52
422.80	3087.17
422.99	2970.14
423.18	3038.02
423.37	3080.14
423.56	3061.42
423.75	3052.06
423.94	3150.36
424.13	2850.77
424.32	2939.71
424.50	3066.10
424.69	3101.21
424.88	3136.32
425.07	3019.29
425.26	3007.59
425.45	3030.99
425.64	2977.16
425.83	3021.63
426.01	3136.32
426.20	3049.72
426.39	3180.79
426.58	3143.34
426.77	3255.69
426.96	3124.62
427.15	3047.38
427.33	3183.13
427.52	3356.33
427.71	3330.58
427.90	3283.77
428.09	3243.98
428.28	3112.91
428.46	3239.30
428.65	3400.80
428.84	3482.72
429.03	3361.01
429.22	3274.41
429.40	3382.07
429.59	3473.36
429.78	3206.53
429.97	3349.31
430.16	3267.39
430.34	3522.51
430.53	3473.36
430.72	3475.70
430.91	3576.34
431.10	3440.59
431.28	3595.06
431.47	3660.60
431.66	3599.74
431.85	3520.17
432.03	3534.21
432.22	3723.79
432.41	3655.92
432.60	3719.11
432.79	3669.96
432.97	3676.98
433.16	3648.90
433.35	3651.24
433.54	3812.73
433.72	3852.52
433.91	3824.44
434.10	3754.22
434.28	3646.55
434.47	3850.18
434.66	3698.05
434.85	3840.82
435.03	3906.35
435.22	3922.74
435.41	3953.16
435.59	3894.65
435.78	4086.58
435.97	3964.87
436.16	3885.29
436.34	3960.19
436.53	3974.23
436.72	4072.53
436.90	4135.73
437.09	4095.94
437.28	4079.55
437.46	4191.90
437.65	4142.75
437.84	4381.48
438.02	4159.13
438.21	4152.11
438.40	4124.02
438.58	4063.17
438.77	4327.65
438.96	4423.61
439.14	4339.35
439.33	4402.55
439.52	4491.49
439.70	4435.32
439.89	4528.94
440.08	4755.97
440.26	4542.98
440.45	4669.37
440.63	4636.60
440.82	4744.27
441.01	4807.46
441.19	4767.67
441.38	4952.57
441.57	4681.07
441.75	4746.61
441.94	4952.57
442.12	4983.00
442.31	5022.79
442.50	5060.24
442.68	4809.80
442.87	4917.47
443.05	4978.32
443.24	5179.61
443.43	5034.49
443.61	5170.24
443.80	5064.92
443.98	5130.45
444.17	4784.06
444.35	5064.92
444.54	5156.20
444.73	5210.03
444.91	5200.67
445.10	5139.82
445.28	5135.14
445.47	4957.25
445.65	5203.01
445.84	5210.03
446.02	5399.62
446.21	5242.80
446.39	5249.82
446.58	5289.61
446.77	5179.61
446.95	5114.07
447.14	5289.61
447.32	5266.21
447.51	5233.44
447.69	5256.84
447.88	5378.55
448.06	5394.93
448.25	5348.12
448.43	5385.57
448.62	5366.85
448.80	5254.50
448.99	5416.00
449.17	5376.21
449.36	5430.04
449.54	5401.96
449.73	5444.09
449.91	5701.54
450.10	5565.79
450.28	5708.57
450.46	5551.75
450.65	5661.76
450.83	5837.30
451.02	5612.60
451.20	5816.23
451.39	5727.29
451.57	5640.69
451.76	5647.71
451.94	5820.91
452.13	5767.08
452.31	5870.06
452.49	5675.80
452.68	5788.14
452.86	5771.76
453.05	5865.38
453.23	5865.38
453.42	5790.49
453.60	5694.52
453.78	5806.87
453.97	5867.72
454.15	5813.89
454.34	6031.56
454.52	6066.67
454.70	5959.00
454.89	6115.82
455.07	6228.17
455.26	6092.41
455.44	6099.44
455.62	6176.67
455.81	6050.28
455.99	6342.85
456.17	6113.48
456.36	6132.20
456.54	6356.90
456.73	6277.32
456.91	6422.43
457.09	6347.53
457.28	6562.86
457.46	6347.53
457.64	6445.84
457.83	6523.07
458.01	6511.37
458.19	6635.42
458.38	6462.22
458.56	6616.69
458.74	6658.82
458.93	6551.16
459.11	6668.19
459.29	6626.06
459.48	6740.74
459.66	6764.15
459.84	6698.61
460.03	6764.15
460.21	6754.79
460.39	6808.62
460.57	6834.36
460.76	6619.04
460.94	6897.56
461.12	6892.88
461.31	6911.60
461.49	6850.75
461.67	6869.47
461.85	7042.67
462.04	7000.54
462.22	7543.55
462.40	6932.67
462.59	7213.53
462.77	7162.04
462.95	6993.52
463.13	7087.14
463.32	7449.93
463.50	7330.56
463.68	7138.63
463.86	7274.38
464.05	6993.52
464.23	7206.51
464.41	7478.01
464.59	7234.60
464.78	7428.86
464.96	7232.26
465.14	7314.17
465.32	7564.61
465.50	7548.23
465.69	7375.03
465.87	7382.05
466.05	7494.40
466.23	7634.83
466.41	7485.03
466.60	7616.10
466.78	7470.99
466.96	7515.46
467.14	7564.61
467.32	7653.55
467.51	7639.51
467.69	7765.90
467.87	7466.31
468.05	7602.06
468.23	7688.66
468.41	7683.98
468.60	7655.89
468.78	7761.22
468.96	7749.51
469.14	7840.79
469.32	8016.33
469.50	7730.79
469.69	7964.84
469.87	8205.92
470.05	8241.03
470.23	8058.46
470.41	8152.09
470.59	8374.44
470.77	8152.09
470.95	8252.73
471.14	8170.81
471.32	8091.23
471.50	8468.06
471.68	8397.84
471.86	8320.60
472.04	8407.20
472.22	8767.65
472.40	8554.66
472.58	8336.99
472.77	8477.42
472.95	8734.88
473.13	9004.04
473.31	8814.46
473.49	8580.40
473.67	8659.98
473.85	8580.40
474.03	8978.30
474.21	8851.91
474.39	9034.47
474.57	9207.67
474.75	9202.99
474.93	9259.16
475.12	9404.27
475.30	9298.95
475.48	9270.86
475.66	9329.38
475.84	9577.47
476.02	9483.85
476.20	9493.21
476.38	9771.74
476.56	9907.49
476.74	9692.16
476.92	9750.67
477.10	9745.99
477.28	9961.32
477.46	9949.62
477.64	10101.75
477.82	10221.12
478.00	10406.02
478.18	10478.58
478.36	10452.83
478.54	10359.21
478.72	10525.39
478.90	10787.53
479.08	10782.85
479.26	10789.87
479.44	11059.03
479.62	11178.40
479.80	11274.36
479.98	11082.44
480.16	11180.74
480.34	11084.78
480.52	11543.52
480.70	11595.01
480.88	11400.75
481.06	11293.08
481.24	11630.12
481.41	11583.31
481.59	11878.22
481.77	11875.88
481.95	11957.80
482.13	12138.02
482.31	12063.12
482.49	12119.29
482.67	12334.62
482.85	12512.50
483.03	12699.75
483.21	12901.03
483.39	12788.69
483.57	12821.45
483.74	12964.23
483.92	12894.01
484.10	13266.16
484.28	13174.88
484.46	13310.63
484.64	13762.35
484.82	13432.33
485.00	13750.65
485.18	13837.25
485.35	13998.74
485.53	13905.12
485.71	14029.17
485.89	14181.31
486.07	14406.00
486.25	14406.00
486.43	14417.70
486.61	14546.43
486.78	14789.85
486.96	14792.19
487.14	14974.75
487.32	14794.53
487.50	15332.85
487.68	15410.09
487.85	15599.67
488.03	15777.55
488.21	16039.69
488.39	15948.41
488.57	16072.46
488.75	16154.38
488.92	16301.83
489.10	16334.60
489.28	16634.19
489.46	16758.24
489.64	16711.42
489.81	16863.56
489.99	16788.66
490.17	16966.54
490.35	17252.09
490.53	17413.59
490.70	17266.13
490.88	17334.01
491.06	17427.63
491.24	17390.18
491.41	17926.16
491.59	17764.67
491.77	17949.57
491.95	18310.01
492.13	18333.42
492.30	18164.90
492.48	18539.38
492.66	18237.45
492.84	18625.98
493.01	18728.97
493.19	18766.42
493.37	19007.49
493.54	19030.90
493.72	19257.93
493.90	19037.92
494.08	19396.02
494.25	19510.71
494.43	19803.27
494.61	19896.89
494.79	20051.37
494.96	19946.05
495.14	20025.62
495.32	20198.82
495.49	20046.69
495.67	20475.01
495.85	20655.23
496.02	20858.85
496.20	21034.39
496.38	21013.33
496.55	20781.62
496.73	21387.82
496.91	21259.09
497.09	21509.52
497.26	21507.18
497.44	21516.54
497.62	21776.34
497.79	21699.11
497.97	21991.67
498.14	22113.38
498.32	22635.32
498.50	22047.85
498.67	22539.36
498.85	22162.53
499.03	22820.22
499.20	22656.39
499.38	22876.40
499.56	22740.64
499.73	22862.35
499.91	23012.15
500.08	23122.15
500.26	23051.94
500.44	22979.38
500.61	23281.31
500.79	23466.21
500.97	23744.73
501.14	23611.32
501.32	23714.31
501.49	24016.24
501.67	23632.39
501.84	23803.25
502.02	23896.87
502.20	24065.39
502.37	24348.59
502.55	24203.48
502.72	24254.97
502.90	24395.40
503.07	23939.00
503.25	24404.77
503.43	24343.91
503.60	24666.91
503.78	24645.84
503.95	25118.63
504.13	24741.80
504.30	24980.54
504.48	24732.44
504.65	25102.25
504.83	25355.02
505.01	25575.03
505.18	25310.55
505.36	25619.50
505.53	25701.42
505.71	25322.26
505.88	25443.96
506.06	25509.50
506.23	25795.04
506.41	25678.02
506.58	25958.88
506.76	25820.79
506.93	26087.61
507.11	25935.48
507.28	26164.85
507.46	26450.39
507.63	26522.95
507.81	26670.40
507.98	26565.08
508.16	26515.93
508.33	26988.72
508.50	27133.83
508.68	26801.47
508.85	27414.69
509.03	27063.61
509.20	27353.84
509.38	27915.57
509.55	27552.79
509.73	27480.23
509.90	27482.57
510.08	27714.28
510.25	27821.95
510.42	27833.65
510.60	27929.61
510.77	28013.87
510.95	27798.54
511.12	27946.00
511.30	27758.75
511.47	28201.11
511.64	28299.42
511.82	28788.59
511.99	28575.60
512.17	28608.37
512.34	28379.00
512.51	28732.42
512.69	29130.31
512.86	28746.46
513.04	28982.85
513.21	29144.35
513.38	28891.57
513.56	29479.05
513.73	29142.01
513.90	28886.89
514.08	29228.61
514.25	29252.02
514.43	29635.86
514.60	29762.25
514.77	29443.94
514.95	29649.91
515.12	29659.27
515.29	29500.11
515.47	30045.46
515.64	30270.15
515.81	30228.02
515.99	30389.52
516.16	30618.89
516.33	30314.62
516.51	30239.72
516.68	30361.43
516.85	30553.35
517.03	30614.21
517.20	30962.95
517.37	30768.68
517.54	30913.80
517.72	31030.82
517.89	30934.86
518.06	30726.55
518.24	30803.79
518.41	31236.79
518.58	31398.29
518.75	31079.97
518.93	31307.01
519.10	31124.44
519.27	31789.16
519.45	30845.92
519.62	31503.61
519.79	31505.95
519.96	31779.79
520.14	31906.18
520.31	31569.15
520.48	32105.13
520.65	31770.43
520.83	31971.72
521.00	32051.30
521.17	32222.16
521.34	32517.06
521.52	32294.71
521.69	32835.38
521.86	32921.98
522.03	32552.17
522.20	32425.78
522.38	32659.84
522.55	32577.92
522.72	32706.65
522.89	32563.87
523.07	33034.32
523.24	33034.32
523.41	32692.60
523.58	32566.21
523.75	33184.12
523.92	33303.48
524.10	33528.17
524.27	33549.24
524.44	33670.95
524.61	33621.80
524.78	33872.23
524.96	33933.09
525.13	33558.60
525.30	33605.41
525.47	34038.41
525.64	33333.91
525.81	34291.19
525.98	34085.22
526.16	34249.06
526.33	34007.98
526.50	34436.30
526.67	33659.24
526.84	34476.09
527.01	34197.57
527.18	34220.97
527.36	34586.10
527.53	34450.35
527.70	34974.63
527.87	34548.65
528.04	34696.10
528.21	34660.99
528.38	34838.87
528.55	34913.77
528.72	34925.47
528.89	35243.79
529.07	34878.66
529.24	34953.56
529.41	35021.44
529.58	35063.57
529.75	35175.91
529.92	35002.71
530.09	34677.38
530.26	35117.40
530.43	35407.62
530.60	35222.72
530.77	35335.07
530.94	35562.10
531.11	35330.39
531.28	35438.05
531.46	35573.80
531.63	35622.95
531.80	35866.37
531.97	36058.29
532.14	36149.57
532.31	36215.11
532.48	36044.25
532.65	36041.91
532.82	35971.69
532.99	36135.53
533.16	36552.15
533.33	36374.27
533.50	36414.05
533.67	36500.65
533.84	35995.10
534.01	36222.13
534.18	36224.47
534.35	36781.52
534.52	36444.48
534.69	36821.31
534.86	37301.12
535.03	36928.97
535.20	37104.51
535.37	36840.03
535.54	36938.33
535.71	36879.82
535.88	36947.70
536.05	37158.34
536.22	36975.78
536.38	37038.98
536.55	37202.82
536.72	37273.03
536.89	36987.49
537.06	36982.80
537.23	37596.03
537.40	37277.71
537.57	37589.00
537.74	37628.79
537.91	37596.03
538.08	38047.75
538.25	37317.50
538.42	37509.43
538.59	37811.35
538.75	37567.94
538.92	37769.22
539.09	38078.18
539.26	38108.60
539.43	37729.44
539.60	37977.53
539.77	37900.29
539.94	38232.65
540.11	37921.36
540.28	37940.08
540.44	38033.71
540.61	38408.19
540.78	38181.16
540.95	38363.72
541.12	38403.51
541.29	38487.77
541.46	38375.42
541.62	38246.69
541.79	38508.83
541.96	38249.03
542.13	38370.74
542.30	38469.04
542.47	38672.67
542.63	38600.12
542.80	39592.50
542.97	38911.41
543.14	38904.38
543.31	39049.50
543.48	39030.77
543.64	39550.37
543.81	39468.45
543.98	39578.46
544.15	39838.26
544.32	39798.47
544.48	39508.24
544.65	39704.85
544.82	39405.26
544.99	39304.62
545.16	39756.34
545.32	39597.18
545.49	39648.68
545.66	40130.83
545.83	40027.84
546.00	40161.25
546.16	39966.99
546.33	39232.06
546.50	39590.16
546.67	39796.13
546.83	39466.11
547.00	40032.52
547.17	40130.83
547.34	40095.72
547.50	40051.25
547.67	40591.91
547.84	40336.79
548.00	40357.86
548.17	40643.40
548.34	40184.66
548.51	40629.36
548.67	40603.61
548.84	40587.23
549.01	40334.45
549.18	40182.32
549.34	40105.08
549.51	40467.86
549.68	40638.72
549.84	40278.28
550.01	40907.88
550.18	40430.41
550.34	40371.90
550.51	41060.02
550.68	40790.86
550.84	40638.72
551.01	40781.49
551.18	40416.37
551.34	40465.52
551.51	40746.39
551.68	40786.18
551.84	41116.19
552.01	41010.87
552.18	40821.28
552.34	40971.08
552.51	41354.93
552.68	41008.53
552.84	41350.24
553.01	41127.89
553.18	41174.70
553.34	41378.33
553.51	41635.79
553.67	41507.06
553.84	41188.75
554.01	41579.62
554.17	41652.17
554.34	41715.37
554.51	41734.09
554.67	41027.25
554.84	41706.01
555.00	41544.51
555.17	41855.80
555.33	41572.60
555.50	42139.00
555.67	41668.56
555.83	41949.42
556.00	41593.66
556.16	41944.74
556.33	41780.90
556.50	42225.60
556.66	42375.40
556.83	41581.96
556.99	42183.48
557.16	42150.71
557.32	42183.48
557.49	42073.47
557.65	41951.76
557.82	42007.94
557.98	42426.89
558.15	42476.04
558.32	42335.61
558.48	42384.76
558.65	42033.68
558.81	42557.96
558.98	41918.99
559.14	42394.12
559.31	42557.96
559.47	42476.04
559.64	42469.02
559.80	42660.94
559.97	42419.87
560.13	41968.15
560.30	42410.51
560.46	42321.57
560.63	42525.19
560.79	42747.54
560.96	42714.78
561.12	42710.10
561.29	42394.12
561.45	42417.53
561.61	42796.70
561.78	42576.69
561.94	42670.31
562.11	43112.67
562.27	42637.54
562.44	42429.23
562.60	42602.43
562.77	42740.52
562.93	42682.01
563.10	42941.81
563.26	42895.00
563.42	43203.95
563.59	42642.22
563.75	42848.19
563.92	42810.74
564.08	42932.45
564.24	42679.67
564.41	42965.21
564.57	42766.27
564.74	42843.51
564.90	42981.60
565.07	43021.39
565.23	43105.65
565.39	42911.38
565.56	43164.16
565.72	42682.01
565.88	42988.62
566.05	43089.26
566.21	42557.96
566.38	43426.30
566.54	43271.82
566.70	43540.99
566.87	43412.26
567.03	43295.23
567.19	43325.66
567.36	43159.48
567.52	42995.64
567.68	43285.87
567.85	43157.14
568.01	43009.68
568.17	42878.61
568.34	43014.37
568.50	43646.31
568.66	43625.25
568.83	43311.61
568.99	43421.62
569.15	43131.39
569.32	42822.44
569.48	43339.70
569.64	43213.31
569.81	43150.12
569.97	43297.57
570.13	43241.40
570.30	43540.99
570.46	43154.80
570.62	43306.93
570.78	43824.19
570.95	43351.40
571.11	43613.54
571.27	43253.10
571.43	43320.98
571.60	43543.33
571.76	43704.82
571.92	43466.09
572.09	43021.39
572.25	43442.68
572.41	43540.99
572.57	43311.61
572.74	43510.56
572.90	43592.48
573.06	43400.55
573.22	43138.41
573.38	43456.73
573.55	43374.81
573.71	43810.15
573.87	44369.54
574.03	42939.47
574.20	43433.32
574.36	43082.24
574.52	43302.25
574.68	43533.96
574.84	43299.91
575.01	43849.94
575.17	43826.53
575.33	43924.83
575.49	43531.62
575.65	44163.57
575.82	43735.25
575.98	43803.13
576.14	44245.49
576.30	44282.94
576.46	43569.07
576.62	43372.47
576.79	43690.78
576.95	43798.44
577.11	43777.38
577.27	43480.13
577.43	44002.07
577.59	43957.60
577.75	43707.16
577.92	43636.95
578.08	43576.09
578.24	43517.58
578.40	43482.47
578.56	43452.05
578.72	43658.01
578.88	43934.20
579.04	44006.75
579.21	43941.22
579.37	43725.89
579.53	43662.69
579.69	43548.01
579.85	43613.54
580.01	43803.13
580.17	43810.15
580.33	43650.99
580.49	43562.05
580.65	44460.82
580.82	43798.44
580.98	43866.32
581.14	43653.33
581.30	44013.77
581.46	43683.76
581.62	43772.70
581.78	43157.14
581.94	43845.26
582.10	43922.49
582.26	44215.06
582.42	43730.57
582.58	44252.51
582.74	44348.47
582.90	43934.20
583.06	43931.86
583.22	44219.74
583.38	44369.54
583.54	43597.16
583.70	43660.35
583.86	43924.83
584.02	43929.51
584.18	44114.42
584.34	43906.11
584.50	44151.87
584.66	44339.11
584.82	43622.90
584.98	43522.26
585.14	43847.60
585.30	43681.42
585.46	43438.00
585.62	43887.39
585.78	43636.95
585.94	43643.97
586.10	43669.72
586.26	43985.69
586.42	44147.18
586.58	44252.51
586.74	43658.01
586.90	43508.22
587.06	43470.77
587.22	44320.38
587.38	43938.88
587.54	43924.83
587.70	44421.03
587.86	44350.81
588.02	43976.33
588.18	44498.26
588.34	43927.17
588.49	43784.40
588.65	44243.15
588.81	43941.22
588.97	43943.56
589.13	44004.41
589.29	43826.53
589.45	44608.27
589.61	44107.40
589.77	44163.57
589.93	44259.53
590.08	44624.65
590.24	44481.88
590.40	44264.21
590.56	44973.39
590.72	44027.82
590.88	44219.74
