SpectraSuite Data File
++++++++++++++++++++++++++++++++++++
Date: Fri Oct 04 11:48:31 GMT-05:00 2013
User: price-jones
Dark Spectrum Present: No
Reference Spectrum Present: No
Number of Sampled Component Spectra: 1
Spectrometers: USB2+H05261
Integration Time (usec): 100000 (USB2+H05261)
Spectra Averaged: 1 (USB2+H05261)
Boxcar Smoothing: 0 (USB2+H05261)
Correct for Electrical Dark: No (USB2+H05261)
Strobe/Lamp Enabled: No (USB2+H05261)
Correct for Detector Non-linearity: No (USB2+H05261)
Correct for Stray Light: No (USB2+H05261)
Number of Pixels in Processed Spectrum: 2048
>>>>>Begin Processed Spectral Data<<<<<
365.73	0.00
365.92	0.00
366.12	0.00
366.32	0.00
366.52	0.00
366.72	0.00
366.91	0.00
367.11	0.00
367.31	0.00
367.51	0.00
367.70	0.00
367.90	0.00
368.10	0.00
368.30	4.68
368.49	0.00
368.69	0.00
368.89	0.00
369.09	0.00
369.28	0.00
369.48	0.00
369.68	0.00
369.87	0.00
370.07	0.00
370.27	16.38
370.47	98.30
370.66	395.55
370.86	482.15
371.06	458.74
371.25	566.41
371.45	435.34
371.65	421.30
371.84	440.02
372.04	524.28
372.24	550.03
372.44	517.26
372.63	507.90
372.83	524.28
373.03	550.03
373.22	585.13
373.42	566.41
373.62	547.69
373.81	601.52
374.01	596.84
374.21	603.86
374.40	587.47
374.60	610.88
374.79	554.71
374.99	678.76
375.19	697.48
375.38	643.65
375.58	547.69
375.78	730.25
375.97	727.91
376.17	734.93
376.37	662.37
376.56	683.44
376.76	671.73
376.95	711.52
377.15	704.50
377.35	732.59
377.54	753.65
377.74	664.71
377.93	709.18
378.13	702.16
378.33	770.04
378.52	725.57
378.72	699.82
378.91	711.52
379.11	690.46
379.31	805.14
379.50	755.99
379.70	819.19
379.89	777.06
380.09	730.25
380.28	889.40
380.48	854.30
380.68	791.10
380.87	786.42
381.07	732.59
381.26	816.85
381.46	774.72
381.65	823.87
381.85	968.98
382.04	823.87
382.24	882.38
382.43	863.66
382.63	833.23
382.83	842.59
383.02	1025.15
383.22	945.58
383.41	945.58
383.61	858.98
383.80	868.34
384.00	961.96
384.19	940.90
384.39	866.00
384.58	905.79
384.78	966.64
384.97	1013.45
385.17	919.83
385.36	1027.50
385.56	952.60
385.75	1018.13
385.95	1032.18
386.14	1018.13
386.34	985.37
386.53	985.37
386.72	905.79
386.92	1097.71
387.11	1020.47
387.31	1020.47
387.50	1067.28
387.70	1034.52
387.89	1125.80
388.09	1121.12
388.28	1029.84
388.48	1095.37
388.67	1083.67
388.86	1067.28
389.06	1109.41
389.25	1181.97
389.45	1181.97
389.64	1071.97
389.84	1198.35
390.03	1188.99
390.22	1252.19
390.42	1219.42
390.61	1203.04
390.81	1240.48
391.00	1200.69
391.19	1231.12
391.39	1214.74
391.58	1254.53
391.78	1245.16
391.97	1469.86
392.16	1196.01
392.36	1259.21
392.55	1224.10
392.75	1306.02
392.94	1308.36
393.13	1341.13
393.33	1348.15
393.52	1334.11
393.71	1483.90
393.91	1460.49
394.10	1387.94
394.29	1371.55
394.49	1357.51
394.68	1352.83
394.88	1397.30
395.07	1488.58
395.26	1427.73
395.46	1486.24
395.65	1535.39
395.84	1526.03
396.04	1605.61
396.23	1521.35
396.42	1575.18
396.62	1572.84
396.81	1544.75
397.00	1474.54
397.19	1589.22
397.39	1633.69
397.58	1680.50
397.77	1561.14
397.97	1640.72
398.16	1666.46
398.35	1685.19
398.55	1732.00
398.74	1748.38
398.93	1774.13
399.12	1839.66
399.32	1666.46
399.51	1612.63
399.70	1755.40
399.90	1830.30
400.09	1799.87
400.28	1839.66
400.47	1820.94
400.67	1863.07
400.86	1872.43
401.05	1879.45
401.24	1956.69
401.44	1963.71
401.63	1895.83
401.82	1923.92
402.01	1998.82
402.21	2026.90
402.40	1919.24
402.59	1909.88
402.78	2019.88
402.97	2033.93
403.17	2122.87
403.36	2104.14
403.55	2080.74
403.74	2031.58
403.93	2200.10
404.13	2127.55
404.32	2228.19
404.51	2183.72
404.70	2319.47
404.89	2165.00
405.09	2237.55
405.28	2300.75
405.47	2289.04
405.66	2427.14
405.85	2326.49
406.05	2282.02
406.24	2275.00
406.43	2349.90
406.62	2417.77
406.81	2480.97
407.00	2382.67
407.20	2485.65
407.39	2406.07
407.58	2401.39
407.77	2459.90
407.96	2473.95
408.15	2729.06
408.34	2480.97
408.54	2633.10
408.73	2588.63
408.92	2614.38
409.11	2471.61
409.30	2642.46
409.49	2672.89
409.68	2719.70
409.87	2658.85
410.07	2869.50
410.26	2846.09
410.45	2782.90
410.64	2775.88
410.83	2960.78
411.02	2731.41
411.21	2937.37
411.40	2904.60
411.59	2986.52
411.78	2986.52
411.98	2881.20
412.17	3000.57
412.36	3173.77
412.55	3007.59
412.74	3098.87
412.93	3176.11
413.12	3124.62
413.31	3323.56
413.50	3368.03
413.69	3293.13
413.88	3386.76
414.07	3356.33
414.26	3328.24
414.45	3342.28
414.64	3328.24
414.83	3569.32
415.02	3426.54
415.22	3447.61
415.41	3471.01
415.60	3705.07
415.79	3639.53
415.98	3777.62
416.17	3786.99
416.36	3770.60
416.55	3623.15
416.74	3775.28
416.93	3854.86
417.12	3742.52
417.31	3892.31
417.50	3829.12
417.69	4049.13
417.88	4077.21
418.07	4070.19
418.26	3992.95
418.45	3976.57
418.64	4156.79
418.83	4198.92
419.02	4011.68
419.21	4243.39
419.39	4229.35
419.58	4173.18
419.77	4271.48
419.96	4318.29
420.15	4278.50
420.34	4332.33
420.53	4245.73
420.72	4362.76
420.91	4402.55
421.10	4442.34
421.29	4566.39
421.48	4355.74
421.67	4425.95
421.86	4318.29
422.05	4585.11
422.24	4507.87
422.43	4372.12
422.61	4479.79
422.80	4667.03
422.99	4629.58
423.18	4641.28
423.37	4631.92
423.56	4566.39
423.75	4652.98
423.94	4585.11
424.13	4397.87
424.32	4456.38
424.50	4596.81
424.69	4685.75
424.88	4739.58
425.07	4662.35
425.26	4610.86
425.45	4493.83
425.64	4702.14
425.83	4706.82
426.01	4732.56
426.20	4758.31
426.39	4767.67
426.58	4844.91
426.77	4613.20
426.96	4741.93
427.15	4882.36
427.33	4896.40
427.52	4765.33
427.71	4910.44
427.90	4770.01
428.09	4882.36
428.28	4884.70
428.46	5172.58
428.65	5025.13
428.84	5109.39
429.03	4945.55
429.22	4990.02
429.40	5013.43
429.59	5226.42
429.78	5062.58
429.97	5032.15
430.16	5025.13
430.34	5317.70
430.53	5404.30
430.72	5315.36
430.91	5376.21
431.10	5193.65
431.28	5467.49
431.47	5423.02
431.66	5348.12
431.85	5495.58
432.03	5446.43
432.22	5710.91
432.41	5537.71
432.60	5645.37
432.79	5535.37
432.97	5614.95
433.16	5565.79
433.35	5600.90
433.54	5713.25
433.72	5820.91
433.91	5710.91
434.10	5818.57
434.28	5802.19
434.47	5741.33
434.66	5834.96
434.85	5905.17
435.03	5753.04
435.22	5963.68
435.41	6162.63
435.59	5954.32
435.78	6207.10
435.97	6022.20
436.16	6246.89
436.34	6015.18
436.53	6249.23
436.72	6373.28
436.90	6132.20
437.09	6267.95
437.28	6155.61
437.46	6298.38
437.65	6136.88
437.84	6502.01
438.02	6197.74
438.21	6403.71
438.40	6324.13
438.58	6443.49
438.77	6651.80
438.96	6630.74
439.14	6691.59
439.33	6799.26
439.52	6843.73
439.70	6726.70
439.89	6958.41
440.08	6895.22
440.26	6944.37
440.45	6956.07
440.63	7096.50
440.82	7215.87
441.01	7063.74
441.19	7124.59
441.38	7339.92
441.57	7276.73
441.75	7461.63
441.94	7400.77
442.12	7541.21
442.31	7449.93
442.50	7548.23
442.68	7698.02
442.87	7698.02
443.05	7887.61
443.24	7878.24
443.43	7791.64
443.61	8049.10
443.80	7899.31
443.98	7602.06
444.17	7389.07
444.35	7796.32
444.54	7896.97
444.73	7824.41
444.91	7985.91
445.10	7999.95
445.28	7681.64
445.47	7812.71
445.65	7873.56
445.84	8030.38
446.02	8011.65
446.21	7709.72
446.39	7969.52
446.58	8166.13
446.77	8049.10
446.95	7948.46
447.14	7925.05
447.32	8100.59
447.51	7990.59
447.69	8028.04
447.88	8100.59
448.06	8006.97
448.25	8044.42
448.43	8070.17
448.62	7934.42
448.80	8170.81
448.99	8180.17
449.17	8510.19
449.36	8290.18
449.54	8332.31
449.73	8456.36
449.91	8428.27
450.10	8557.00
450.28	8833.18
450.46	8449.33
450.65	8615.51
450.83	8683.39
451.02	8566.36
451.20	8688.07
451.39	8882.33
451.57	8741.90
451.76	8627.21
451.94	8781.69
452.13	8798.07
452.31	8957.23
452.49	8641.26
452.68	8868.29
452.86	9011.06
453.05	9064.89
453.23	8973.61
453.42	8877.65
453.60	8894.04
453.78	9029.79
453.97	8929.14
454.15	8994.68
454.34	8842.54
454.52	9210.01
454.70	9081.28
454.89	9200.65
455.07	9102.34
455.26	9444.06
455.44	9329.38
455.62	9366.82
455.81	9394.91
455.99	9465.13
456.17	9647.69
456.36	9502.58
456.54	9940.26
456.73	9776.42
456.91	10003.45
457.09	9792.80
457.28	10160.27
457.46	9923.87
457.64	9631.30
457.83	9870.04
458.01	9745.99
458.19	10005.79
458.38	9996.43
458.56	10099.41
458.74	10099.41
458.93	10267.93
459.11	10202.40
459.29	9966.00
459.48	10211.76
459.66	10499.64
459.84	10520.71
460.03	10586.24
460.21	10436.45
460.39	10527.73
460.57	10340.49
460.76	10391.98
460.94	10696.25
461.12	10719.65
461.31	10658.80
461.49	10745.40
461.67	10614.33
461.85	10906.90
462.04	10771.15
462.22	11438.20
462.40	11023.92
462.59	10977.11
462.77	10977.11
462.95	11145.63
463.13	11012.22
463.32	11089.46
463.50	11517.78
463.68	11089.46
463.86	11272.02
464.05	10998.18
464.23	11248.61
464.41	11314.15
464.59	11042.65
464.78	11522.46
464.96	11218.19
465.14	11066.05
465.32	11477.99
465.50	11534.16
465.69	11421.81
465.87	11379.68
466.05	11339.90
466.23	11571.61
466.41	11606.72
466.60	11845.45
466.78	11735.45
466.96	11681.61
467.14	11531.82
467.32	11651.19
467.51	12084.19
467.69	11798.64
467.87	11791.62
468.05	12088.87
468.23	11922.69
468.41	11894.60
468.60	12126.32
468.78	12084.19
468.96	12060.78
469.14	12292.49
469.32	12477.40
469.50	12053.76
469.69	12299.52
469.87	12585.06
470.05	12533.57
470.23	12571.02
470.41	12416.54
470.59	12655.28
470.77	12620.17
470.95	12744.22
471.14	12685.70
471.32	12531.23
471.50	13078.91
471.68	13057.85
471.86	13188.92
472.04	13167.85
472.22	13415.95
472.40	12898.69
472.58	13242.75
472.77	13437.02
472.95	13359.78
473.13	13827.88
473.31	13579.79
473.49	13635.96
473.67	13530.64
473.85	13532.98
474.03	14057.26
474.21	13851.29
474.39	14066.62
474.57	14169.60
474.75	14242.16
474.93	14204.71
475.12	14403.66
475.30	14485.58
475.48	14326.42
475.66	14274.93
475.84	14492.60
476.02	14869.42
476.20	14579.20
476.38	14937.30
476.56	15407.75
476.74	15159.65
476.92	15157.31
477.10	14941.98
477.28	15330.51
477.46	15353.91
477.64	15840.75
477.82	15896.92
478.00	15913.30
478.18	16063.10
478.36	16112.25
478.54	16336.94
478.72	16643.55
478.90	16765.26
479.08	16723.13
479.26	17078.89
479.44	16954.84
479.62	16966.54
479.80	17078.89
479.98	17317.62
480.16	17528.27
480.34	17734.24
480.52	17715.51
480.70	17783.39
480.88	17781.05
481.06	17956.59
481.24	17942.55
481.41	18080.64
481.59	18693.86
481.77	18684.50
481.95	18747.69
482.13	18780.46
482.31	19089.41
482.49	19356.23
482.67	19311.76
482.85	19583.26
483.03	19906.26
483.21	20046.69
483.39	20147.33
483.57	19800.93
483.74	20180.10
483.92	20585.01
484.10	20350.96
484.28	21139.72
484.46	21319.94
484.64	21481.44
484.82	21118.65
485.00	21202.91
485.18	21668.68
485.35	21979.97
485.53	22223.39
485.71	21790.39
485.89	22427.01
486.07	22335.73
486.25	22408.29
486.43	22998.10
486.61	22883.42
486.78	23199.39
486.96	23524.72
487.14	23826.65
487.32	23587.92
487.50	23861.76
487.68	24077.09
487.85	24254.97
488.03	24491.37
488.21	25036.71
488.39	24650.52
488.57	25027.35
488.75	25355.02
488.92	25692.06
489.10	25565.67
489.28	25855.90
489.46	26249.11
489.64	25958.88
489.81	26375.50
489.99	26967.65
490.17	26604.87
490.35	27180.64
490.53	27147.87
490.70	27379.59
490.88	27321.07
491.06	27728.33
491.24	27587.89
491.41	27737.69
491.59	28217.50
491.77	28257.29
491.95	28622.41
492.13	28746.46
492.30	29003.92
492.48	29163.08
492.66	29057.75
492.84	29551.60
493.01	29502.45
493.19	29696.72
493.37	30050.14
493.54	30426.96
493.72	30003.33
493.90	30157.80
494.08	30962.95
494.25	31365.52
494.43	31358.50
494.61	31405.31
494.79	31599.57
494.96	30976.99
495.14	32100.45
495.32	31693.19
495.49	32046.62
495.67	32472.59
495.85	32327.48
496.02	32350.88
496.20	32662.18
496.38	32678.56
496.55	33184.12
496.73	33392.42
496.91	33212.20
497.09	33745.84
497.26	34003.30
497.44	33862.87
497.62	33993.94
497.79	34274.80
497.97	34094.58
498.14	34478.43
498.32	34555.67
498.50	35042.50
498.67	35117.40
498.85	34904.41
499.03	35318.68
499.20	35653.38
499.38	35648.70
499.56	36070.00
499.73	35976.37
499.91	36114.47
500.08	36851.73
500.26	36006.80
500.44	36474.91
500.61	36875.14
500.79	36432.78
500.97	36964.08
501.14	37151.32
501.32	37230.90
501.49	36985.15
501.67	37024.93
501.84	37729.44
502.02	37593.68
502.20	38036.05
502.37	38085.20
502.55	38054.77
502.72	38345.00
502.90	38263.08
503.07	38134.35
503.25	38778.00
503.43	38431.60
503.60	38859.91
503.78	39119.71
503.95	38998.01
504.13	39077.58
504.30	39241.42
504.48	38962.90
504.65	39550.37
504.83	39494.20
505.01	39880.39
505.18	39920.18
505.36	40189.34
505.53	39758.68
505.71	39955.29
505.88	40774.47
506.06	40088.70
506.23	40582.55
506.41	41081.08
506.58	40615.32
506.76	40755.75
506.93	40800.22
507.11	40807.24
507.28	41226.20
507.46	41148.96
507.63	41521.10
507.81	41902.61
507.98	41823.03
508.16	42176.45
508.33	41923.68
508.50	42014.96
508.68	42150.71
508.85	42572.00
509.03	42237.31
509.20	42948.83
509.38	42927.77
509.55	43187.56
509.73	42941.81
509.90	43178.20
510.08	43091.60
510.25	43005.00
510.42	43442.68
510.60	43538.65
510.77	43878.02
510.95	44355.49
511.12	43604.18
511.30	44065.27
511.47	44577.84
511.64	44233.78
511.82	44910.20
511.99	44563.80
512.17	44964.03
512.34	44652.74
512.51	45137.23
512.69	44598.91
512.86	45310.43
513.04	45436.82
513.21	45539.80
513.38	45581.93
513.56	45628.74
513.73	45567.89
513.90	45804.28
514.08	45406.39
514.25	45914.29
514.43	46358.99
514.60	45820.67
514.77	46473.68
514.95	46494.74
515.12	46178.77
515.29	46197.49
515.47	46679.64
515.64	46752.20
515.81	46623.47
515.99	46876.25
516.16	47295.21
516.33	47234.35
516.51	47629.90
516.68	47016.68
516.85	47206.26
517.03	47407.55
517.20	47952.90
517.37	48006.73
517.54	47466.06
517.72	47426.28
517.89	47503.51
518.06	47711.82
518.24	47952.90
518.41	48074.60
518.58	48341.42
518.75	48151.84
518.93	48598.88
519.10	48296.95
519.27	48451.43
519.45	48282.91
519.62	48402.28
519.79	48624.63
519.96	48800.17
520.14	49102.10
520.31	48889.11
520.48	49492.97
520.65	49008.48
520.83	49184.02
521.00	48985.07
521.17	49380.62
521.34	49382.96
521.52	49722.34
521.69	49757.45
521.86	49881.50
522.03	49617.02
522.20	49996.18
522.38	49818.30
522.55	50078.10
522.72	50054.70
522.89	50202.15
523.07	50380.03
523.24	50241.94
523.41	50433.86
523.58	50328.54
523.75	50473.65
523.92	50497.06
524.10	50906.65
524.27	50829.41
524.44	51028.36
524.61	51192.20
524.78	51004.95
524.96	50543.87
525.13	51143.05
525.30	51262.41
525.47	51253.05
525.64	51309.22
525.81	51653.28
525.98	51657.96
526.16	51484.76
526.33	51655.62
526.50	51648.60
526.67	51253.05
526.84	51688.39
527.01	51487.10
527.18	51868.61
527.36	52058.20
527.53	51826.48
527.70	52289.91
527.87	52114.37
528.04	52119.05
528.21	52212.67
528.38	52252.46
528.55	52430.34
528.72	52353.10
528.89	52486.51
529.07	52678.44
529.24	52498.22
529.41	52397.57
529.58	52701.84
529.75	52568.43
529.92	52636.31
530.09	52762.70
530.26	52872.70
530.43	52949.94
530.60	52910.15
530.77	52989.73
530.94	53073.99
531.11	52900.79
531.28	52971.00
531.46	53071.65
531.63	53214.42
531.80	53176.97
531.97	53811.26
532.14	53457.84
532.31	53446.13
532.48	53364.21
532.65	53478.90
532.82	53329.11
532.99	53378.26
533.16	53738.70
533.33	53497.62
533.50	53834.66
533.67	54040.63
533.84	53755.08
534.01	53687.21
534.18	53586.57
534.35	54213.83
534.52	53841.68
534.69	54234.89
534.86	54478.31
535.03	53963.39
535.20	54270.00
535.37	54349.58
535.54	54309.79
535.71	54422.14
535.88	54211.49
536.05	54316.81
536.22	54389.37
536.38	54585.97
536.55	54464.27
536.72	54649.17
536.89	54543.84
537.06	54384.69
537.23	54419.80
537.40	54754.49
537.57	54461.93
537.74	54670.23
537.91	55065.78
538.08	55054.08
538.25	54733.43
538.42	55037.70
538.59	55063.44
538.75	54621.08
538.92	54775.56
539.09	55086.85
539.26	55309.20
539.43	55344.31
539.60	55257.71
539.77	55320.90
539.94	55348.99
540.11	55393.46
540.28	55327.92
540.44	55332.60
540.61	55313.88
540.78	55311.54
540.95	55463.67
541.12	55608.79
541.29	55604.11
541.46	55777.31
541.62	55426.23
541.79	55580.70
541.96	55353.67
542.13	55491.76
542.30	55505.80
542.47	55945.83
542.63	56072.21
542.80	55917.74
542.97	56135.41
543.14	56076.90
543.31	55976.25
543.48	56039.45
543.64	56273.50
543.81	56397.55
543.98	56313.29
544.15	56545.00
544.32	56486.49
544.48	56500.53
544.65	56552.02
544.82	56566.07
544.99	56112.00
545.16	56474.79
545.32	56425.64
545.49	56708.84
545.66	56884.38
545.83	56584.79
546.00	57003.75
546.16	56753.31
546.33	56420.95
546.50	56219.67
546.67	56697.14
546.83	56528.62
547.00	56605.86
547.17	56919.49
547.34	56722.88
547.50	56985.02
547.67	56956.94
547.84	56947.57
548.00	57029.49
548.17	57223.76
548.34	57162.90
548.51	57324.40
548.67	57183.97
548.84	57448.45
549.01	57293.97
549.18	57312.70
549.34	56907.79
549.51	57233.12
549.68	57364.19
549.84	57090.35
550.01	57560.79
550.18	57134.82
550.34	57708.25
550.51	57312.70
550.68	57499.94
550.84	57502.28
551.01	57591.22
551.18	57350.15
551.34	57415.68
551.51	57497.60
551.68	57495.26
551.84	57460.15
552.01	57595.90
552.18	57963.37
552.34	57511.64
552.51	57829.96
552.68	57673.14
552.84	57687.18
553.01	57965.71
553.18	57551.43
553.34	57984.43
553.51	57848.68
553.67	58038.26
553.84	58265.30
554.01	57925.92
554.17	58220.83
554.34	58117.84
554.51	58092.10
554.67	58326.15
554.84	58164.65
555.00	58078.05
555.17	57991.45
555.33	58218.49
555.50	57879.11
555.67	58354.24
555.83	58178.70
556.00	58347.21
556.16	58279.34
556.33	58403.39
556.50	58333.17
556.66	58492.33
556.83	58272.32
556.99	58347.21
557.16	58492.33
557.32	58478.28
557.49	58452.54
557.65	58209.12
557.82	58433.81
557.98	58445.52
558.15	58422.11
558.32	58522.76
558.48	58482.97
558.65	58637.44
558.81	58623.40
558.98	58541.48
559.14	58630.42
559.31	58829.37
559.47	58585.95
559.64	58562.54
559.80	58761.49
559.97	58958.09
560.13	58684.25
560.30	58962.78
560.46	58653.82
560.63	58864.47
560.79	58707.66
560.96	58855.11
561.12	58803.62
561.29	58789.58
561.45	59002.56
561.61	58969.80
561.78	58979.16
561.94	58974.48
562.11	59138.32
562.27	58908.94
562.44	59044.69
562.60	59018.95
562.77	59126.61
562.93	59178.10
563.10	59337.26
563.26	59091.51
563.42	59260.02
563.59	59105.55
563.75	59334.92
563.92	59018.95
564.08	59082.14
564.24	59213.21
564.41	59011.93
564.57	59175.76
564.74	59105.55
564.90	59267.05
565.07	59124.27
565.23	59416.84
565.39	59395.77
565.56	59260.02
565.72	59025.97
565.88	58986.18
566.05	59171.08
566.21	59229.60
566.38	59185.13
566.54	59306.83
566.70	59484.72
566.87	59480.03
567.03	59255.34
567.19	59550.25
567.36	59416.84
567.52	59253.00
567.68	59405.14
567.85	59157.04
568.01	59344.28
568.17	59341.94
568.34	59447.27
568.50	59632.17
568.66	59678.98
568.83	59739.83
568.99	59540.89
569.15	59250.66
569.32	59491.74
569.48	59311.52
569.64	59618.13
569.81	59435.56
569.97	59435.56
570.13	59641.53
570.30	59611.10
570.46	59550.25
570.62	59545.57
570.78	59433.22
570.95	59381.73
571.11	59613.44
571.27	59482.37
571.43	59599.40
571.60	59716.43
571.76	59487.06
571.92	59735.15
572.09	59931.76
572.25	59767.92
572.41	59341.94
572.57	59646.21
572.74	59529.19
572.90	59547.91
573.06	59517.48
573.22	59690.68
573.38	59667.28
573.55	59819.41
573.71	59948.14
573.87	59856.86
574.03	59849.84
574.20	59873.24
574.36	59494.08
574.52	59592.38
574.68	59643.87
574.84	59770.26
575.01	59847.50
575.17	59810.05
575.33	59728.13
575.49	59592.38
575.65	59817.07
575.82	59943.46
575.98	59796.01
576.14	60074.53
576.30	60069.85
576.46	59877.93
576.62	59767.92
576.79	59718.77
576.95	59718.77
577.11	59831.11
577.27	59950.48
577.43	59929.42
577.59	59728.13
577.75	59697.70
577.92	59620.47
578.08	59831.11
578.24	59648.55
578.40	59749.20
578.56	59969.21
578.72	59882.61
578.88	59936.44
579.04	60023.04
579.21	59875.58
579.37	59985.59
579.53	59985.59
579.69	59798.35
579.85	60069.85
580.01	59877.93
580.17	59725.79
580.33	59957.50
580.49	59943.46
580.65	60119.00
580.82	60224.32
580.98	59873.24
581.14	60067.51
581.30	60116.66
581.46	59952.82
581.62	59622.81
581.78	59901.33
581.94	60062.83
582.10	59898.99
582.26	60116.66
582.42	60104.96
582.58	60186.88
582.74	60090.91
582.90	60196.24
583.06	59973.89
583.22	60097.94
583.38	60142.41
583.54	60037.08
583.70	60006.65
583.86	60009.00
584.02	60037.08
584.18	60245.39
584.34	60023.04
584.50	60245.39
584.66	60009.00
584.82	59859.20
584.98	59957.50
585.14	59964.52
585.30	59910.69
585.46	59964.52
585.62	59863.88
585.78	60044.10
585.94	59831.11
586.10	59866.22
586.26	60126.02
586.42	60348.37
586.58	60207.94
586.74	59971.55
586.90	59901.33
587.06	59943.46
587.22	60074.53
587.38	60133.04
587.54	60245.39
587.70	60219.64
587.86	60245.39
588.02	60360.08
588.18	60266.45
588.34	60168.15
588.49	60245.39
588.65	60004.31
588.81	60334.33
588.97	60484.12
589.13	60116.66
