SpectraSuite Data File
++++++++++++++++++++++++++++++++++++
Date: Fri Oct 04 11:48:41 GMT-05:00 2013
User: price-jones
Dark Spectrum Present: No
Reference Spectrum Present: No
Number of Sampled Component Spectra: 1
Spectrometers: USB2+H05261
Integration Time (usec): 100000 (USB2+H05261)
Spectra Averaged: 1 (USB2+H05261)
Boxcar Smoothing: 0 (USB2+H05261)
Correct for Electrical Dark: No (USB2+H05261)
Strobe/Lamp Enabled: No (USB2+H05261)
Correct for Detector Non-linearity: No (USB2+H05261)
Correct for Stray Light: No (USB2+H05261)
Number of Pixels in Processed Spectrum: 2048
>>>>>Begin Processed Spectral Data<<<<<
365.73	0.00
365.92	0.00
366.12	0.00
366.32	0.00
366.52	0.00
366.72	0.00
366.91	0.00
367.11	0.00
367.31	0.00
367.51	2.34
367.70	0.00
367.90	0.00
368.10	0.00
368.30	0.00
368.49	0.00
368.69	11.70
368.89	0.00
369.09	0.00
369.28	0.00
369.48	0.00
369.68	0.00
369.87	0.00
370.07	23.41
370.27	28.09
370.47	147.45
370.66	285.55
370.86	290.23
371.06	320.65
371.25	315.97
371.45	301.93
371.65	428.32
371.84	304.27
372.04	353.42
372.24	411.93
372.44	381.51
372.63	367.46
372.83	381.51
373.03	437.68
373.22	358.10
373.42	435.34
373.62	423.64
373.81	397.89
374.01	486.83
374.21	514.92
374.40	484.49
374.60	519.60
374.79	402.57
374.99	437.68
375.19	470.45
375.38	587.47
375.58	475.13
375.78	517.26
375.97	475.13
376.17	547.69
376.37	461.09
376.56	496.19
376.76	507.90
376.95	470.45
377.15	489.17
377.35	484.49
377.54	552.37
377.74	484.49
377.93	510.24
378.13	575.77
378.33	580.45
378.52	503.22
378.72	608.54
378.91	486.83
379.11	571.09
379.31	601.52
379.50	531.30
379.70	505.56
379.89	585.13
380.09	561.73
380.28	606.20
380.48	540.66
380.68	512.58
380.87	580.45
381.07	589.82
381.26	566.41
381.46	603.86
381.65	606.20
381.85	657.69
382.04	657.69
382.24	634.29
382.43	620.24
382.63	610.88
382.83	615.56
383.02	681.10
383.22	734.93
383.41	615.56
383.61	676.41
383.80	664.71
384.00	643.65
384.19	695.14
384.39	727.91
384.58	664.71
384.78	655.35
384.97	671.73
385.17	709.18
385.36	688.12
385.56	725.57
385.75	610.88
385.95	669.39
386.14	688.12
386.34	725.57
386.53	664.71
386.72	660.03
386.92	837.91
387.11	720.88
387.31	702.16
387.50	788.76
387.70	676.41
387.89	814.51
388.09	711.52
388.28	823.87
388.48	788.76
388.67	765.36
388.86	894.08
389.06	805.14
389.25	772.38
389.45	770.04
389.64	866.00
389.84	821.53
390.03	896.43
390.22	840.25
390.42	896.43
390.61	884.72
390.81	870.68
391.00	840.25
391.19	924.51
391.39	936.21
391.58	873.02
391.78	950.26
391.97	880.04
392.16	854.30
392.36	1006.43
392.55	917.49
392.75	947.92
392.94	990.05
393.13	961.96
393.33	889.40
393.52	994.73
393.71	1053.24
393.91	936.21
394.10	1071.97
394.29	1011.11
394.49	898.77
394.68	1001.75
394.88	1001.75
395.07	1034.52
395.26	1121.12
395.46	1149.20
395.65	1039.20
395.84	1109.41
396.04	1174.95
396.23	1193.67
396.42	1125.80
396.62	1050.90
396.81	1144.52
397.00	1200.69
397.19	1050.90
397.39	1149.20
397.58	1200.69
397.77	1196.01
397.97	1259.21
398.16	1254.53
398.35	1308.36
398.55	1212.40
398.74	1177.29
398.93	1217.08
399.12	1198.35
399.32	1212.40
399.51	1158.57
399.70	1364.53
399.90	1252.19
400.09	1383.26
400.28	1273.25
400.47	1350.49
400.67	1406.66
400.86	1430.07
401.05	1245.16
401.24	1387.94
401.44	1409.00
401.63	1462.83
401.82	1416.02
402.01	1434.75
402.21	1362.19
402.40	1486.24
402.59	1476.88
402.78	1497.94
402.97	1493.26
403.17	1551.78
403.36	1488.58
403.55	1516.67
403.74	1582.20
403.93	1544.75
404.13	1643.06
404.32	1640.72
404.51	1694.55
404.70	1647.74
404.89	1568.16
405.09	1666.46
405.28	1703.91
405.47	1682.85
405.66	1600.93
405.85	1713.27
406.05	1701.57
406.24	1757.74
406.43	1886.47
406.62	1830.30
406.81	1867.75
407.00	1806.89
407.20	1870.09
407.39	1856.04
407.58	1806.89
407.77	1907.54
407.96	1935.62
408.15	2005.84
408.34	1912.22
408.54	2024.56
408.73	1954.35
408.92	1998.82
409.11	2040.95
409.30	2113.50
409.49	2008.18
409.68	2026.90
409.87	2069.03
410.07	2179.04
410.26	2150.95
410.45	2087.76
410.64	2216.49
410.83	2104.14
411.02	2188.40
411.21	2228.19
411.40	2160.31
411.59	2289.04
411.78	2204.78
411.98	2267.98
412.17	2272.66
412.36	2338.20
412.55	2485.65
412.74	2476.29
412.93	2431.82
413.12	2352.24
413.31	2485.65
413.50	2602.68
413.69	2612.04
413.88	2651.83
414.07	2614.38
414.26	2630.76
414.45	2654.17
414.64	2654.17
414.83	2583.95
415.02	2827.37
415.22	2829.71
415.41	2757.15
415.60	2860.13
415.79	2902.26
415.98	2778.22
416.17	2892.90
416.36	2890.56
416.55	2944.39
416.74	2913.97
416.93	3038.02
417.12	3061.42
417.31	3045.04
417.50	3009.93
417.69	3157.38
417.88	3138.66
418.07	3148.02
418.26	3173.77
418.45	3164.40
418.64	3133.98
418.83	3194.83
419.02	3276.75
419.21	3405.48
419.39	3314.20
419.58	3276.75
419.77	3300.16
419.96	3363.35
420.15	3398.46
420.34	3449.95
420.53	3377.39
420.72	3506.12
420.91	3527.19
421.10	3522.51
421.29	3499.10
421.48	3389.10
421.67	3538.89
421.86	3463.99
422.05	3641.87
422.24	3454.63
422.43	3466.33
422.61	3655.92
422.80	3599.74
422.99	3585.70
423.18	3662.94
423.37	3721.45
423.56	3625.49
423.75	3658.26
423.94	3585.70
424.13	3461.65
424.32	3494.42
424.50	3676.98
424.69	3658.26
424.88	3618.47
425.07	3637.19
425.26	3676.98
425.45	3674.64
425.64	3632.51
425.83	3772.94
426.01	3850.18
426.20	3705.07
426.39	3721.45
426.58	3772.94
426.77	3744.86
426.96	3749.54
427.15	3772.94
427.33	3826.78
427.52	3744.86
427.71	3859.54
427.90	3985.93
428.09	3915.72
428.28	3885.29
428.46	3892.31
428.65	4049.13
428.84	4081.89
429.03	4011.68
429.22	3866.56
429.40	4072.53
429.59	4102.96
429.78	3911.04
429.97	3833.80
430.16	4030.40
430.34	4056.15
430.53	4159.13
430.72	4072.53
430.91	4241.05
431.10	4135.73
431.28	4280.84
431.47	4351.06
431.66	4304.25
431.85	4269.14
432.03	4271.48
432.22	4440.00
432.41	4231.69
432.60	4491.49
432.79	4393.19
432.97	4479.79
433.16	4580.43
433.35	4486.81
433.54	4341.69
433.72	4444.68
433.91	4507.87
434.10	4491.49
434.28	4526.60
434.47	4667.03
434.66	4587.45
434.85	4685.75
435.03	4589.79
435.22	4755.97
435.41	4919.81
435.59	4873.00
435.78	4784.06
435.97	4830.87
436.16	4889.38
436.34	4823.84
436.53	4884.70
436.72	4887.04
436.90	4809.80
437.09	5097.69
437.28	4812.14
437.46	4959.60
437.65	4819.16
437.84	5020.45
438.02	5013.43
438.21	4968.96
438.40	4983.00
438.58	5205.35
438.77	5219.39
438.96	5071.94
439.14	5291.95
439.33	5376.21
439.52	5397.28
439.70	5343.44
439.89	5451.11
440.08	5434.72
440.26	5462.81
440.45	5729.63
440.63	5544.73
440.82	5673.46
441.01	5708.57
441.19	5659.42
441.38	5551.75
441.57	5734.31
441.75	5610.26
441.94	5937.94
442.12	5851.34
442.31	5970.71
442.50	6005.81
442.68	5898.15
442.87	5827.93
443.05	6115.82
443.24	6108.80
443.43	6169.65
443.61	6122.84
443.80	6328.81
443.98	6181.35
444.17	5905.17
444.35	6282.00
444.54	6260.93
444.73	6186.04
444.91	6228.17
445.10	6279.66
445.28	6153.27
445.47	6106.46
445.65	6045.60
445.84	6246.89
446.02	6389.66
446.21	6207.10
446.39	6221.14
446.58	6487.96
446.77	6214.12
446.95	6171.99
447.14	6324.13
447.32	6256.25
447.51	6305.40
447.69	6382.64
447.88	6499.67
448.06	6349.87
448.25	6375.62
448.43	6520.73
448.62	6340.51
448.80	6375.62
448.99	6590.95
449.17	6452.86
449.36	6565.20
449.54	6499.67
449.73	6600.31
449.91	6640.10
450.10	6733.72
450.28	6717.34
450.46	6696.27
450.65	6663.51
450.83	6892.88
451.02	6862.45
451.20	7007.56
451.39	6883.52
451.57	6881.18
451.76	6780.53
451.94	7068.42
452.13	7112.89
452.31	6820.32
452.49	6829.68
452.68	7030.97
452.86	7002.88
453.05	7080.12
453.23	7091.82
453.42	7000.54
453.60	6848.41
453.78	7103.53
453.97	6890.54
454.15	6967.77
454.34	7019.27
454.52	7360.98
454.70	7258.00
454.89	7157.36
455.07	7201.83
455.26	7325.88
455.44	7393.75
455.62	7307.15
455.81	7435.88
455.99	7421.84
456.17	7300.13
456.36	7447.58
456.54	7499.08
456.73	7749.51
456.91	7714.41
457.09	7683.98
457.28	7906.33
457.46	7665.25
457.64	8011.65
457.83	7627.81
458.01	7641.85
458.19	7911.01
458.38	7793.98
458.56	8161.45
458.74	7976.55
458.93	8091.23
459.11	8065.49
459.29	8219.96
459.48	8245.71
459.66	8124.00
459.84	8042.08
460.03	8236.35
460.21	8182.51
460.39	8231.66
460.57	8152.09
460.76	8311.24
460.94	8294.86
461.12	8390.82
461.31	8336.99
461.49	8439.97
461.67	8449.33
461.85	8496.14
462.04	8592.11
462.22	8840.20
462.40	8587.43
462.59	8510.19
462.77	8641.26
462.95	8676.37
463.13	8641.26
463.32	8744.24
463.50	8489.12
463.68	8849.57
463.86	8732.54
464.05	8809.78
464.23	8711.47
464.41	8709.13
464.59	8603.81
464.78	8819.14
464.96	8875.31
465.14	8856.59
465.32	9076.60
465.50	9254.48
465.69	9163.20
465.87	8826.16
466.05	9039.15
466.23	9083.62
466.41	9050.85
466.60	9357.46
466.78	9259.16
466.96	9287.25
467.14	9130.43
467.32	9231.07
467.51	9488.53
467.69	8950.21
467.87	9322.35
468.05	9366.82
468.23	9261.50
468.41	9298.95
468.60	9399.59
468.78	9455.76
468.96	9451.08
469.14	9561.09
469.32	9757.69
469.50	9404.27
469.69	9750.67
469.87	9680.46
470.05	9870.04
470.23	9598.54
470.41	9792.80
470.59	10005.79
470.77	9856.00
470.95	10026.86
471.14	9942.60
471.32	9991.75
471.50	10190.69
471.68	10155.58
471.86	10260.91
472.04	10230.48
472.22	10389.64
472.40	10061.96
472.58	10153.24
472.77	10237.50
472.95	10623.69
473.13	10934.98
473.31	10703.27
473.49	10520.71
473.67	10668.16
473.85	10497.30
474.03	10738.38
474.21	10717.31
474.39	10817.96
474.57	11066.05
474.75	11084.78
474.93	11087.12
475.12	10939.66
475.30	11077.76
475.48	11281.38
475.66	11262.66
475.84	11215.85
476.02	11506.07
476.20	11578.63
476.38	11609.06
476.56	11688.64
476.74	11854.81
476.92	11726.08
477.10	11779.92
477.28	12112.27
477.46	11847.79
477.64	12009.29
477.82	12343.99
478.00	12461.01
478.18	12556.97
478.36	12849.54
478.54	12821.45
478.72	12807.41
478.90	12985.29
479.08	12816.77
479.26	13067.21
479.44	13324.67
479.62	13128.06
479.80	13434.68
479.98	13476.80
480.16	13755.33
480.34	13523.62
480.52	13989.38
480.70	13860.65
480.88	13542.34
481.06	14155.56
481.24	13743.63
481.41	14022.15
481.59	14649.41
481.77	14506.64
481.95	14647.07
482.13	14785.16
482.31	14628.35
482.49	14937.30
482.67	14995.81
482.85	15105.82
483.03	15433.49
483.21	15695.63
483.39	15351.57
483.57	15508.39
483.74	15426.47
483.92	15887.56
484.10	15999.90
484.28	16219.91
484.46	16500.78
484.64	16706.74
484.82	16484.39
485.00	16393.11
485.18	16968.88
485.35	17202.94
485.53	17287.20
485.71	17149.11
485.89	17495.50
486.07	17158.47
486.25	17404.22
486.43	17408.90
486.61	17685.09
486.78	17891.06
486.96	17872.33
487.14	18691.52
487.32	18190.64
487.50	18504.28
487.68	18628.32
487.85	18956.00
488.03	19089.41
488.21	19192.39
488.39	19068.34
488.57	19328.14
488.75	19609.01
488.92	19742.42
489.10	19892.21
489.28	20039.67
489.46	20215.21
489.64	19822.00
489.81	20900.98
489.99	20641.18
490.17	20673.95
490.35	21025.03
490.53	20936.09
490.70	21317.60
490.88	21102.27
491.06	21245.04
491.24	21165.46
491.41	21600.80
491.59	21984.65
491.77	21949.54
491.95	22155.51
492.13	21956.57
492.30	22714.90
492.48	21956.57
492.66	22448.08
492.84	22616.60
493.01	22888.10
493.19	23103.43
493.37	23365.57
493.54	23117.47
493.72	23531.75
493.90	23555.15
494.08	23543.45
494.25	23922.62
494.43	23992.83
494.61	24390.72
494.79	24215.18
494.96	24198.80
495.14	24533.50
495.32	24709.04
495.49	24891.60
495.67	24725.42
495.85	25305.87
496.02	25795.04
496.20	25553.97
496.38	25617.16
496.55	25228.63
496.73	26342.73
496.91	26113.36
497.09	26148.46
497.26	26457.42
497.44	26108.68
497.62	26169.53
497.79	26621.25
497.97	26450.39
498.14	27154.90
498.32	26838.92
498.50	26998.08
498.67	27250.86
498.85	27056.59
499.03	27269.58
499.20	27559.81
499.38	27592.58
499.56	28510.07
499.73	27889.82
499.91	27779.82
500.08	27751.73
500.26	27974.08
500.44	28149.62
500.61	27798.54
500.79	28526.45
500.97	28334.53
501.14	28826.04
501.32	28786.25
501.49	28662.20
501.67	28730.08
501.84	29172.44
502.02	28896.25
502.20	29041.37
502.37	29411.17
502.55	29556.28
502.72	29371.38
502.90	29755.23
503.07	29500.11
503.25	29720.12
503.43	29944.81
503.60	30352.07
503.78	29998.65
503.95	30024.39
504.13	30270.15
504.30	30345.05
504.48	30387.18
504.65	30656.34
504.83	30969.97
505.01	30855.28
505.18	31138.49
505.36	30677.40
505.53	30817.83
505.71	31147.85
505.88	31094.02
506.06	30892.73
506.23	31524.68
506.41	31346.79
506.58	31541.06
506.76	31768.09
506.93	32215.13
507.11	31463.82
507.28	32065.34
507.46	32320.46
507.63	32121.51
507.81	32467.91
507.98	32128.53
508.16	32098.11
508.33	32648.13
508.50	32706.65
508.68	32875.16
508.85	33247.31
509.03	33071.77
509.20	32917.29
509.38	33429.87
509.55	33333.91
509.73	33237.95
509.90	33589.03
510.08	33448.60
510.25	34073.52
510.42	33720.10
510.60	34274.80
510.77	33809.04
510.95	34246.72
511.12	33879.25
511.30	34068.84
511.47	34160.12
511.64	34522.90
511.82	34848.24
511.99	34792.06
512.17	34726.53
512.34	34766.32
512.51	35278.89
512.69	35140.80
512.86	35178.25
513.04	35363.15
513.21	35323.36
513.38	35482.52
513.56	35627.63
513.73	35489.54
513.90	35875.73
514.08	36182.34
514.25	35913.18
514.43	35847.64
514.60	36006.80
514.77	35606.57
514.95	35978.72
515.12	35819.56
515.29	36044.25
515.47	36919.61
515.64	37038.98
515.81	36346.18
515.99	36957.06
516.16	37357.29
516.33	37109.19
516.51	37181.75
516.68	36542.78
516.85	36741.73
517.03	36989.83
517.20	37401.76
517.37	37422.83
517.54	37266.01
517.72	37631.13
517.89	37858.17
518.06	37811.35
518.24	37935.40
518.41	37930.72
518.58	37951.79
518.75	37839.44
518.93	38047.75
519.10	37883.91
519.27	38337.98
519.45	38607.14
519.62	38532.24
519.79	38426.92
519.96	38815.44
520.14	38822.47
520.31	38635.22
520.48	38948.85
520.65	39192.27
520.83	38707.78
521.00	38848.21
521.17	39079.92
521.34	39054.18
521.52	39253.12
521.69	39131.42
521.86	39739.96
522.03	39730.59
522.20	39388.88
522.38	39927.20
522.55	39976.35
522.72	40041.88
522.89	39714.21
523.07	39959.97
523.24	40114.44
523.41	40467.86
523.58	40243.17
523.75	40524.04
523.92	40243.17
524.10	40215.08
524.27	40690.21
524.44	40254.87
524.61	40828.30
524.78	41118.53
524.96	40865.75
525.13	41088.10
525.30	41064.70
525.47	40889.16
525.64	40856.39
525.81	41008.53
525.98	41567.91
526.16	41380.67
526.33	41287.05
526.50	41607.70
526.67	41640.47
526.84	41432.16
527.01	41949.42
527.18	41263.64
527.36	41975.17
527.53	42195.18
527.70	42499.45
527.87	41675.58
528.04	41902.61
528.21	41954.10
528.38	41926.02
528.55	42405.83
528.72	42614.13
528.89	42607.11
529.07	42391.78
529.24	42464.34
529.41	42808.40
529.58	42106.24
529.75	42169.43
529.92	42469.02
530.09	43124.37
530.26	42836.48
530.43	42801.38
530.60	42506.47
530.77	43051.81
530.94	42801.38
531.11	42836.48
531.28	42567.32
531.46	43182.88
531.63	43409.92
531.80	43573.75
531.97	43686.10
532.14	43285.87
532.31	43611.20
532.48	43470.77
532.65	43517.58
532.82	43229.69
532.99	44069.95
533.16	43669.72
533.33	44374.22
533.50	44484.22
533.67	44472.52
533.84	44013.77
534.01	43819.51
534.18	43681.42
534.35	44245.49
534.52	44311.02
534.69	45137.23
534.86	44467.84
535.03	43983.35
535.20	44554.44
535.37	44811.90
535.54	44334.43
535.71	44488.90
535.88	45022.54
536.05	44949.99
536.22	44938.29
536.38	45378.31
536.55	45462.57
536.72	44919.56
536.89	44851.69
537.06	45305.75
537.23	45228.51
537.40	45551.51
537.57	45331.50
537.74	45303.41
537.91	45764.49
538.08	45579.59
538.25	45359.58
538.42	45401.71
538.59	45560.87
538.75	45565.55
538.92	45516.40
539.09	45633.42
539.26	46202.18
539.43	45731.73
539.60	46045.36
539.77	46031.32
539.94	46384.74
540.11	46103.87
540.28	46143.66
540.44	46183.45
540.61	46220.90
540.78	45904.93
540.95	46712.41
541.12	46492.40
541.29	46220.90
541.46	46459.63
541.62	46667.94
541.79	46522.83
541.96	46319.20
542.13	46232.60
542.30	46880.93
542.47	46960.51
542.63	46550.91
542.80	46679.64
542.97	47353.72
543.14	47545.64
543.31	47283.50
543.48	47342.02
543.64	47318.61
543.81	47129.03
543.98	47199.24
544.15	47437.98
544.32	47625.22
544.48	47775.02
544.65	47533.94
544.82	47388.83
544.99	47447.34
545.16	47753.95
545.32	47683.73
545.49	48023.11
545.66	48233.76
545.83	48259.51
546.00	48072.26
546.16	47679.05
546.33	47772.67
546.50	47611.18
546.67	47922.47
546.83	47746.93
547.00	47966.94
547.17	48090.99
547.34	48053.54
547.50	48151.84
547.67	48231.42
547.84	48395.26
548.00	48233.76
548.17	48570.80
548.34	48594.20
548.51	48594.20
548.67	48500.58
548.84	49003.80
549.01	48540.37
549.18	48601.22
549.34	48662.08
549.51	48865.70
549.68	48774.42
549.84	48531.01
550.01	48844.64
550.18	48767.40
550.34	48783.79
550.51	49081.03
550.68	48978.05
550.84	48409.30
551.01	48854.00
551.18	48800.17
551.34	48825.92
551.51	48591.86
551.68	49104.44
551.84	49591.27
552.01	49289.34
552.18	49340.83
552.34	49146.57
552.51	49387.64
552.68	49223.81
552.84	48999.12
553.01	49502.33
553.18	49298.70
553.34	49712.98
553.51	49602.97
553.67	49574.89
553.84	49734.04
554.01	49907.24
554.17	49925.97
554.34	49691.91
554.51	49757.45
554.67	49937.67
554.84	49806.60
555.00	49909.58
555.17	49858.09
555.33	49729.36
555.50	49961.08
555.67	49860.43
555.83	49696.59
556.00	49715.32
556.16	50195.13
556.33	50047.68
556.50	49916.61
556.66	50183.43
556.83	49762.13
556.99	50506.42
557.16	50485.36
557.32	50307.47
557.49	50309.82
557.65	49951.71
557.82	50115.55
557.98	50326.20
558.15	50255.98
558.32	50543.87
558.48	50234.92
558.65	50068.74
558.81	50555.57
558.98	50342.58
559.14	50436.20
559.31	50377.69
559.47	50459.61
559.64	50642.17
559.80	50623.45
559.97	50562.59
560.13	50148.32
560.30	50546.21
560.46	50625.79
560.63	50475.99
560.79	50443.23
560.96	50925.38
561.12	50649.19
561.29	50431.52
561.45	50756.86
561.61	50604.72
561.78	50494.72
561.94	50586.00
562.11	50892.61
562.27	50553.23
562.44	50522.80
562.60	50703.03
562.77	50761.54
562.93	50885.59
563.10	51086.87
563.26	51026.02
563.42	51374.76
563.59	50815.37
563.75	51009.64
563.92	51150.07
564.08	50911.33
564.24	51061.13
564.41	50981.55
564.57	51194.54
564.74	51239.01
564.90	51126.66
565.07	50894.95
565.23	51016.66
565.39	51241.35
565.56	51208.58
565.72	50967.51
565.88	51325.61
566.05	50981.55
566.21	50937.08
566.38	51140.71
566.54	51358.38
566.70	51454.34
566.87	51395.82
567.03	51337.31
567.19	51515.19
567.36	51173.47
567.52	51278.80
567.68	51573.70
567.85	51473.06
568.01	51086.87
568.17	51035.38
568.34	51386.46
568.50	51550.30
568.66	51386.46
568.83	51309.22
568.99	51435.61
569.15	51461.36
569.32	51494.13
569.48	51028.36
569.64	51484.76
569.81	51203.90
569.97	51370.08
570.13	51494.13
570.30	51407.53
570.46	51569.02
570.62	51379.44
570.78	51227.31
570.95	51414.55
571.11	51311.56
571.27	51559.66
571.43	51452.00
571.60	51239.01
571.76	51419.23
571.92	51718.82
572.09	51938.83
572.25	51463.70
572.41	51772.65
572.57	51484.76
572.74	51901.38
572.90	51302.20
573.06	51552.64
573.22	51817.12
573.38	51737.54
573.55	51784.35
573.71	51948.19
573.87	51894.36
574.03	51318.59
574.20	51863.93
574.36	51533.92
574.52	51365.40
574.68	51683.71
574.84	52037.13
575.01	52013.73
575.17	51789.03
575.33	51777.33
575.49	51239.01
575.65	51749.24
575.82	51882.66
575.98	51650.94
576.14	51700.09
576.30	52137.77
576.46	51828.82
576.62	51554.98
576.79	51906.06
576.95	51475.40
577.11	51819.46
577.27	51877.97
577.43	52020.75
577.59	51955.21
577.75	51880.31
577.92	51484.76
578.08	51578.39
578.24	51889.68
578.40	51686.05
578.56	51959.89
578.72	51702.43
578.88	52165.86
579.04	52158.84
579.21	52100.32
579.37	51803.08
579.53	52067.56
579.69	51477.74
579.85	51597.11
580.01	51821.80
580.17	51915.42
580.33	52095.64
580.49	52252.46
580.65	52163.52
580.82	51913.08
580.98	51770.31
581.14	52037.13
581.30	51702.43
581.46	51767.97
581.62	51873.29
581.78	51463.70
581.94	52097.98
582.10	51845.21
582.26	52114.37
582.42	52030.11
582.58	52168.20
582.74	52027.77
582.90	52107.35
583.06	52334.38
583.22	51508.17
583.38	52133.09
583.54	52224.37
583.70	52102.67
583.86	51922.44
584.02	52177.56
584.18	52053.51
584.34	52198.63
584.50	52296.93
584.66	52002.02
584.82	52002.02
584.98	51786.69
585.14	52119.05
585.30	51756.27
585.46	51941.17
585.62	51683.71
585.78	52413.96
585.94	51704.77
586.10	51889.68
586.26	52212.67
586.42	51927.13
586.58	51971.60
586.74	52142.45
586.90	52006.70
587.06	51791.37
587.22	51929.47
587.38	52149.48
587.54	51784.35
587.70	52090.96
587.86	52142.45
588.02	52112.03
588.18	52388.21
588.34	52254.80
588.49	52126.07
588.65	51976.28
588.81	51995.00
588.97	52437.36
589.13	52053.51
589.29	51863.93
589.45	52147.14
589.61	52542.69
589.77	52561.41
589.93	52502.90
590.08	52350.76
590.24	52432.68
