SpectraSuite Data File
++++++++++++++++++++++++++++++++++++
Date: Fri Oct 04 11:48:34 GMT-05:00 2013
User: price-jones
Dark Spectrum Present: No
Reference Spectrum Present: No
Number of Sampled Component Spectra: 1
Spectrometers: USB2+H05261
Integration Time (usec): 100000 (USB2+H05261)
Spectra Averaged: 1 (USB2+H05261)
Boxcar Smoothing: 0 (USB2+H05261)
Correct for Electrical Dark: No (USB2+H05261)
Strobe/Lamp Enabled: No (USB2+H05261)
Correct for Detector Non-linearity: No (USB2+H05261)
Correct for Stray Light: No (USB2+H05261)
Number of Pixels in Processed Spectrum: 2048
>>>>>Begin Processed Spectral Data<<<<<
365.73	32.77
365.92	32.77
366.12	32.77
366.32	0.00
366.52	0.00
366.72	21.06
366.91	0.00
367.11	0.00
367.31	0.00
367.51	0.00
367.70	0.00
367.90	0.00
368.10	0.00
368.30	0.00
368.49	0.00
368.69	0.00
368.89	0.00
369.09	0.00
369.28	0.00
369.48	0.00
369.68	9.36
369.87	23.41
370.07	4.68
370.27	32.77
370.47	126.39
370.66	477.47
370.86	505.56
371.06	575.77
371.25	575.77
371.45	582.79
371.65	554.71
371.84	606.20
372.04	592.16
372.24	657.69
372.44	620.24
372.63	645.99
372.83	732.59
373.03	650.67
373.22	667.05
373.42	704.50
373.62	627.26
373.81	779.40
374.01	730.25
374.21	748.97
374.40	744.29
374.60	791.10
374.79	786.42
374.99	795.78
375.19	830.89
375.38	842.59
375.58	908.13
375.78	833.23
375.97	753.65
376.17	870.68
376.37	877.70
376.56	812.17
376.76	812.17
376.95	809.83
377.15	856.64
377.35	880.04
377.54	835.57
377.74	936.21
377.93	940.90
378.13	884.72
378.33	968.98
378.52	898.77
378.72	973.66
378.91	973.66
379.11	959.62
379.31	940.90
379.50	875.36
379.70	1006.43
379.89	1071.97
380.09	908.13
380.28	980.68
380.48	983.02
380.68	992.39
380.87	950.26
381.07	959.62
381.26	1032.18
381.46	1069.62
381.65	1121.12
381.85	1048.56
382.04	1032.18
382.24	1053.24
382.43	1074.31
382.63	1090.69
382.83	1165.59
383.02	1109.41
383.22	1174.95
383.41	1151.54
383.61	1228.78
383.80	1142.18
384.00	1130.48
384.19	1102.39
384.39	1210.06
384.58	1238.14
384.78	1128.14
384.97	1163.25
385.17	1203.04
385.36	1273.25
385.56	1210.06
385.75	1334.11
385.95	1373.89
386.14	1205.38
386.34	1226.44
386.53	1266.23
386.72	1303.68
386.92	1303.68
387.11	1380.92
387.31	1345.81
387.50	1390.28
387.70	1320.06
387.89	1380.92
388.09	1219.42
388.28	1329.42
388.48	1434.75
388.67	1392.62
388.86	1490.92
389.06	1469.86
389.25	1542.41
389.45	1409.00
389.64	1455.81
389.84	1542.41
390.03	1446.45
390.22	1554.12
390.42	1507.30
390.61	1451.13
390.81	1598.59
391.00	1598.59
391.19	1638.38
391.39	1584.54
391.58	1589.22
391.78	1598.59
391.97	1694.55
392.16	1617.31
392.36	1645.40
392.55	1647.74
392.75	1640.72
392.94	1689.87
393.13	1633.69
393.33	1708.59
393.52	1739.02
393.71	1816.26
393.91	1706.25
394.10	1612.63
394.29	1764.76
394.49	1856.04
394.68	1872.43
394.88	1783.49
395.07	1830.30
395.26	1823.28
395.46	1888.81
395.65	2019.88
395.84	1966.05
396.04	2019.88
396.23	2108.82
396.42	1961.37
396.62	2001.16
396.81	2052.65
397.00	2019.88
397.19	2029.24
397.39	2064.35
397.58	2132.23
397.77	2043.29
397.97	2050.31
398.16	2062.01
398.35	2047.97
398.55	2125.21
398.74	2200.10
398.93	2139.25
399.12	2251.60
399.32	2115.84
399.51	2134.57
399.70	2265.64
399.90	2331.17
400.09	2312.45
400.28	2263.30
400.47	2293.72
400.67	2340.54
400.86	2410.75
401.05	2396.71
401.24	2338.20
401.44	2464.58
401.63	2532.46
401.82	2537.14
402.01	2401.39
402.21	2464.58
402.40	2558.21
402.59	2553.52
402.78	2595.65
402.97	2647.15
403.17	2703.32
403.36	2586.29
403.55	2644.81
403.74	2766.51
403.93	2761.83
404.13	2661.19
404.32	2780.56
404.51	2731.41
404.70	2733.75
404.89	2693.96
405.09	2827.37
405.28	2944.39
405.47	2747.79
405.66	2949.08
405.85	2967.80
406.05	2923.33
406.24	2967.80
406.43	3047.38
406.62	3014.61
406.81	3136.32
407.00	3117.59
407.20	2935.03
407.39	3077.80
407.58	3136.32
407.77	3248.66
407.96	3265.05
408.15	3302.50
408.34	3159.72
408.54	3365.69
408.73	3311.86
408.92	3342.28
409.11	3330.58
409.30	3272.07
409.49	3459.31
409.68	3480.38
409.87	3428.88
410.07	3602.08
410.26	3754.22
410.45	3506.12
410.64	3655.92
410.83	3581.02
411.02	3524.85
411.21	3679.32
411.40	3854.86
411.59	3735.50
411.78	3801.03
411.98	3779.97
412.17	3791.67
412.36	3962.53
412.55	3880.61
412.74	3990.61
412.93	4102.96
413.12	4004.66
413.31	4189.56
413.50	4121.68
413.69	4175.52
413.88	4287.86
414.07	4276.16
414.26	4362.76
414.45	4327.65
414.64	4374.46
414.83	4528.94
415.02	4348.72
415.22	4542.98
415.41	4657.67
415.60	4475.10
415.79	4638.94
415.98	4762.99
416.17	4718.52
416.36	4652.98
416.55	4760.65
416.74	5032.15
416.93	4828.53
417.12	5022.79
417.31	4849.59
417.50	4905.76
417.69	5064.92
417.88	5245.14
418.07	5282.59
418.26	5095.35
418.45	5118.75
418.64	5350.46
418.83	5235.78
419.02	5338.76
419.21	5336.42
419.39	5540.05
419.58	5231.10
419.77	5362.17
419.96	5509.62
420.15	5397.28
420.34	5373.87
420.53	5521.32
420.72	5741.33
420.91	5542.39
421.10	5633.67
421.29	5710.91
421.48	5582.18
421.67	5795.17
421.86	5703.89
422.05	5809.21
422.24	5645.37
422.43	5722.61
422.61	5968.37
422.80	5987.09
422.99	5856.02
423.18	5888.79
423.37	5996.45
423.56	5968.37
423.75	5748.36
423.94	5713.25
424.13	5401.96
424.32	5589.20
424.50	5954.32
424.69	6066.67
424.88	6054.97
425.07	5912.19
425.26	5825.59
425.45	5811.55
425.64	5937.94
425.83	5989.43
426.01	6087.73
426.20	5858.36
426.39	6029.22
426.58	6153.27
426.77	6066.67
426.96	6033.90
427.15	6146.25
427.33	6258.59
427.52	6324.13
427.71	6253.91
427.90	6331.15
428.09	6389.66
428.28	6303.06
428.46	6396.68
428.65	6429.45
428.84	6640.10
429.03	6604.99
429.22	6450.52
429.40	6509.03
429.59	6621.38
429.78	6368.60
429.97	6349.87
430.16	6600.31
430.34	6544.14
430.53	6827.34
430.72	6869.47
430.91	6890.54
431.10	6764.15
431.28	6787.55
431.47	7157.36
431.66	7045.01
431.85	6836.70
432.03	6984.16
432.22	7129.27
432.41	7103.53
432.60	6984.16
432.79	6958.41
432.97	7234.60
433.16	7178.42
433.35	7190.13
433.54	7428.86
433.72	7234.60
433.91	7145.66
434.10	7452.27
434.28	7466.31
434.47	7470.99
434.66	7513.12
434.85	7569.29
435.03	7531.84
435.22	7581.00
435.41	8105.28
435.59	7770.58
435.78	7744.83
435.97	7815.05
436.16	7868.88
436.34	7962.50
436.53	7775.26
436.72	8046.76
436.90	7850.16
437.09	8142.72
437.28	8060.80
437.46	8006.97
437.65	8119.32
437.84	8198.90
438.02	8212.94
438.21	8084.21
438.40	8084.21
438.58	8496.14
438.77	8491.46
438.96	8461.04
439.14	8725.52
439.33	8652.96
439.52	8905.74
439.70	8835.52
439.89	8861.27
440.08	8835.52
440.26	9081.28
440.45	8982.98
440.63	9095.32
440.82	9116.39
441.01	9170.22
441.19	9181.92
441.38	9252.14
441.57	9399.59
441.75	9476.83
441.94	9621.94
442.12	9387.89
442.31	9858.34
442.50	9643.01
442.68	9624.28
442.87	9919.19
443.05	9865.36
443.24	10036.22
443.43	9937.91
443.61	10064.30
443.80	10310.06
443.98	9762.37
444.17	9650.03
444.35	9966.00
444.54	10113.45
444.73	10319.42
444.91	10090.05
445.10	10146.22
445.28	10202.40
445.47	9987.07
445.65	10115.80
445.84	10097.07
446.02	10162.61
446.21	10083.03
446.39	10223.46
446.58	10483.26
446.77	10237.50
446.95	10045.58
447.14	10188.35
447.32	10434.11
447.51	10279.63
447.69	10207.08
447.88	10333.47
448.06	10139.20
448.25	10406.02
448.43	10525.39
448.62	10279.63
448.80	10235.16
448.99	10602.63
449.17	10759.44
449.36	10604.97
449.54	10864.77
449.73	10909.24
449.91	10956.05
450.10	11063.71
450.28	10890.51
450.46	10956.05
450.65	11215.85
450.83	11218.19
451.02	11059.03
451.20	11094.14
451.39	11213.51
451.57	11091.80
451.76	10937.32
451.94	11335.21
452.13	11527.14
452.31	11164.36
452.49	10965.41
452.68	11351.60
452.86	11218.19
453.05	11456.92
453.23	11791.62
453.42	11559.91
453.60	11386.71
453.78	11728.42
453.97	11246.27
454.15	11571.61
454.34	11609.06
454.52	12011.63
454.70	11932.05
454.89	11967.16
455.07	11786.94
455.26	11885.24
455.44	12180.15
455.62	11894.60
455.81	12032.69
455.99	12362.71
456.17	12451.65
456.36	12421.22
456.54	12566.34
456.73	12681.02
456.91	12748.90
457.09	12690.38
457.28	13179.56
457.46	12617.83
457.64	12762.94
457.83	12922.10
458.01	12704.43
458.19	12996.99
458.38	12863.58
458.56	13111.68
458.74	13212.32
458.93	13231.05
459.11	13109.34
459.29	13046.15
459.48	13006.36
459.66	13247.43
459.84	13158.49
460.03	13561.06
460.21	13507.23
460.39	13474.46
460.57	13319.99
460.76	13584.47
460.94	13666.39
461.12	13729.58
461.31	13767.03
461.49	13568.09
461.67	13811.50
461.85	14097.05
462.04	14097.05
462.22	14410.68
462.40	14225.78
462.59	14230.46
462.77	13909.80
462.95	14293.65
463.13	14441.11
463.32	14143.86
463.50	14277.27
463.68	14370.89
463.86	14497.28
464.05	14546.43
464.23	14546.43
464.41	14478.55
464.59	14312.38
464.78	14951.34
464.96	14546.43
465.14	14518.34
465.32	14759.42
465.50	14930.28
465.69	15012.20
465.87	14764.10
466.05	14710.27
466.23	14745.38
466.41	14925.60
466.60	15332.85
466.78	15023.90
466.96	15098.80
467.14	15054.33
467.32	15215.82
467.51	15712.02
467.69	15007.52
467.87	15351.57
468.05	15484.98
468.23	15218.16
468.41	15487.32
468.60	15428.81
468.78	15419.45
468.96	15330.51
469.14	15515.41
469.32	15824.36
469.50	15639.46
469.69	16173.10
469.87	16226.93
470.05	15978.84
470.23	16175.44
470.41	16086.50
470.59	16362.69
470.77	16011.60
470.95	16280.77
471.14	16449.28
471.32	16130.97
471.50	17032.08
471.68	16610.78
471.86	16793.34
472.04	16893.99
472.22	17188.89
472.40	16901.01
472.58	16999.31
472.77	17013.35
472.95	17179.53
473.13	17919.14
473.31	17137.40
473.49	17453.37
473.67	17376.14
473.85	17312.94
474.03	17872.33
474.21	17703.81
474.39	18298.31
474.57	18108.72
474.75	18354.48
474.93	18583.85
475.12	18757.05
475.30	18504.28
475.48	18649.39
475.66	18719.60
475.84	18806.20
476.02	19147.92
476.20	19068.34
476.38	19573.90
476.56	19578.58
476.74	19627.73
476.92	19384.32
477.10	19683.91
477.28	20023.28
477.46	19779.87
477.64	19978.81
477.82	20514.80
478.00	20802.68
478.18	20936.09
478.36	20893.96
478.54	21350.37
478.72	21195.89
478.90	21490.80
479.08	21565.70
479.26	21720.17
479.44	22036.14
479.62	22277.22
479.80	22293.60
479.98	22162.53
480.16	22918.53
480.34	22740.64
480.52	22754.69
480.70	23183.01
480.88	22845.97
481.06	23295.35
481.24	23515.36
481.41	23955.38
481.59	23751.76
481.77	23917.93
481.95	24369.66
482.13	24467.96
482.31	24416.47
482.49	24903.30
482.67	25036.71
482.85	25125.65
483.03	25841.85
483.21	25788.02
483.39	26106.34
483.57	25916.75
483.74	26401.24
483.92	26668.06
484.10	26661.04
484.28	26977.01
484.46	27255.54
484.64	27950.68
484.82	27342.14
485.00	27531.72
485.18	28343.89
485.35	28243.24
485.53	28371.97
485.71	28402.40
485.89	29345.64
486.07	29214.57
486.25	29144.35
486.43	29553.94
486.61	29762.25
486.78	30232.70
486.96	29958.86
487.14	30707.83
487.32	30567.40
487.50	30506.54
487.68	31173.60
487.85	31508.29
488.03	31770.43
488.21	32411.74
488.39	32266.63
488.57	32505.36
488.75	32545.15
488.92	32739.41
489.10	33097.52
489.28	33518.81
489.46	33745.84
489.64	33832.44
489.81	34412.90
489.99	34117.99
490.17	34511.20
490.35	34616.52
490.53	35129.10
490.70	35204.00
490.88	35559.76
491.06	35608.91
491.24	35505.93
491.41	35749.34
491.59	36187.02
491.77	36559.17
491.95	36507.68
492.13	36821.31
492.30	37069.40
492.48	37319.84
492.66	37432.19
492.84	37654.54
493.01	38157.75
493.19	38455.00
493.37	38462.02
493.54	38827.15
493.72	39051.84
493.90	39009.71
494.08	39412.28
494.25	39646.33
494.43	39840.60
494.61	40238.49
494.79	40273.60
494.96	40189.34
495.14	40570.85
495.32	41104.49
495.49	40964.06
495.67	41553.87
495.85	41989.21
496.02	41567.91
496.20	42256.03
496.38	42066.45
496.55	42246.67
496.73	43182.88
496.91	42375.40
497.09	42873.93
497.26	43707.16
497.44	43306.93
497.62	43714.19
497.79	43828.87
497.97	43611.20
498.14	43817.17
498.32	44540.39
498.50	44734.66
498.67	45076.38
498.85	44664.44
499.03	44952.33
499.20	44957.01
499.38	45125.53
499.56	45916.63
499.73	45972.80
499.91	46092.17
500.08	46246.65
500.26	45872.16
500.44	46028.98
500.61	46600.07
500.79	46424.53
500.97	46848.16
501.14	47632.24
501.32	47538.62
501.49	47196.90
501.67	47168.82
501.84	47358.40
502.02	47447.34
502.20	47985.66
502.37	48432.71
502.55	47924.81
502.72	48425.68
502.90	48311.00
503.07	48460.79
503.25	48552.07
503.43	48292.27
503.60	48935.92
503.78	48877.41
503.95	49148.91
504.13	49153.59
504.30	49294.02
504.48	49015.50
504.65	49329.13
504.83	49773.83
505.01	50078.10
505.18	50305.13
505.36	49925.97
505.53	50026.61
505.71	50398.76
505.88	50066.40
506.06	49991.50
506.23	50571.96
506.41	50754.52
506.58	50766.22
506.76	50822.39
506.93	50761.54
507.11	50806.01
507.28	51203.90
507.46	51306.88
507.63	51311.56
507.81	51646.26
507.98	51562.00
508.16	51765.63
508.33	51814.78
508.50	51920.10
508.68	51861.59
508.85	52364.81
509.03	52350.76
509.20	52566.09
509.38	52835.25
509.55	52835.25
509.73	52486.51
509.90	53092.71
510.08	52898.45
510.25	52938.24
510.42	53036.54
510.60	53361.87
510.77	53109.10
510.95	53301.02
511.12	53069.31
511.30	53364.21
511.47	53607.63
511.64	53792.53
511.82	53656.78
511.99	53687.21
512.17	53942.33
512.34	54094.46
512.51	54213.83
512.69	54244.26
512.86	54405.75
513.04	54461.93
513.21	54169.36
513.38	54789.60
513.56	54759.17
513.73	54319.15
513.90	54578.95
514.08	54464.27
514.25	54899.61
514.43	54892.58
514.60	54969.82
514.77	54784.92
514.95	55550.27
515.12	55131.32
515.29	55042.38
515.47	55035.36
515.64	55348.99
515.81	55707.09
515.99	55803.05
516.16	55793.69
516.33	55655.60
516.51	55992.64
516.68	55826.46
516.85	55686.03
517.03	56257.12
517.20	56313.29
517.37	56324.99
517.54	56320.31
517.72	56306.27
517.89	55971.57
518.06	56219.67
518.24	56233.71
518.41	56261.80
518.58	56559.05
518.75	56282.86
518.93	56671.39
519.10	56629.26
519.27	56734.59
519.45	56549.68
519.62	56945.23
519.79	56891.40
519.96	56657.35
520.14	57038.86
520.31	56858.63
520.48	57251.84
520.65	57027.15
520.83	57525.69
521.00	57392.28
521.17	57251.84
521.34	57303.34
521.52	57542.07
521.69	57516.32
521.86	57801.87
522.03	57872.09
522.20	57836.98
522.38	57715.27
522.55	57900.17
522.72	57893.15
522.89	58080.39
523.07	58419.77
523.24	58035.92
523.41	58094.44
523.58	58000.82
523.75	58253.59
523.92	58220.83
524.10	58279.34
524.27	58349.56
524.44	58592.97
524.61	58728.72
524.78	58745.11
524.96	58590.63
525.13	58663.19
525.30	58543.82
525.47	58852.77
525.64	58658.51
525.81	58930.01
525.98	58983.84
526.16	58913.62
526.33	59032.99
526.50	59157.04
526.67	58983.84
526.84	59138.32
527.01	58817.66
527.18	59128.95
527.36	59444.93
527.53	59306.83
527.70	59552.59
527.87	59370.03
528.04	59501.10
528.21	59283.43
528.38	59412.16
528.55	59735.15
528.72	59564.29
528.89	59662.60
529.07	59550.25
529.24	59611.10
529.41	59833.46
529.58	59690.68
529.75	59660.26
529.92	59828.77
530.09	59765.58
530.26	60086.23
530.43	60076.87
530.60	60046.44
530.77	60121.34
530.94	60343.69
531.11	60011.34
531.28	60177.51
531.46	60245.39
531.63	60095.60
531.80	60301.56
531.97	60575.40
532.14	60404.55
532.31	60357.74
532.48	60463.06
532.65	60346.03
532.82	60231.35
532.99	60657.32
533.16	60537.96
533.33	60830.52
533.50	60849.25
533.67	60807.12
533.84	60683.07
534.01	60650.30
534.18	60563.70
534.35	61041.17
534.52	60949.89
534.69	61022.45
534.86	61160.54
535.03	60896.06
535.20	61130.11
535.37	61052.87
535.54	61111.39
535.71	61165.22
535.88	61092.66
536.05	61073.94
536.22	61090.32
536.38	61289.27
536.55	61368.85
536.72	61488.21
536.89	61268.20
537.06	61499.92
537.23	61598.22
537.40	61347.78
537.57	61352.46
537.74	61464.81
537.91	61801.85
538.08	61780.78
538.25	61553.75
538.42	61715.25
538.59	61745.67
538.75	61368.85
538.92	61427.36
539.09	61869.72
539.26	61752.69
539.43	61743.33
539.60	62042.92
539.77	61921.21
539.94	62054.62
540.11	61886.10
540.28	62024.20
540.44	62000.79
540.61	62024.20
540.78	61984.41
540.95	62351.87
541.12	62089.73
541.29	62089.73
541.46	62061.64
541.62	62159.95
541.79	62234.84
541.96	62078.03
542.13	62337.83
542.30	62445.49
542.47	62569.54
542.63	62539.11
542.80	62693.59
542.97	62735.72
543.14	62834.02
543.31	62733.38
543.48	62824.66
543.64	62939.35
543.81	63105.52
543.98	63054.03
544.15	62852.75
544.32	62864.45
544.48	63000.20
544.65	63035.31
544.82	62787.21
544.99	62843.38
545.16	63002.54
545.32	62995.52
545.49	63257.66
545.66	63381.71
545.83	63185.10
546.00	63334.90
546.16	63238.93
546.33	63070.42
546.50	62922.96
546.67	63114.89
546.83	62990.84
547.00	63203.83
547.17	63121.91
547.34	63355.96
547.50	63407.45
547.67	63494.05
547.84	63351.28
548.00	63552.57
548.17	63634.48
548.34	63585.33
548.51	63728.11
548.67	63580.65
548.84	63412.13
549.01	63552.57
549.18	63721.08
549.34	63454.26
549.51	63753.85
549.68	63800.66
549.84	63697.68
550.01	63936.41
550.18	63767.90
550.34	63994.93
550.51	64053.44
550.68	63936.41
550.84	63833.43
551.01	63964.50
551.18	63718.74
551.34	63831.09
551.51	63882.58
551.68	63913.01
551.84	64090.89
552.01	64060.46
552.18	64193.87
552.34	64034.72
552.51	64135.36
552.68	64168.13
552.84	64001.95
553.01	64250.05
553.18	64081.53
553.34	64271.11
553.51	64015.99
553.67	64226.64
553.84	64458.35
554.01	64404.52
554.17	64608.15
554.34	64289.84
554.51	64287.49
554.67	64547.29
554.84	64406.86
555.00	64413.88
555.17	64542.61
555.33	64453.67
555.50	64460.69
555.67	64285.15
555.83	64615.17
556.00	64601.13
556.16	64764.96
556.33	64587.08
556.50	64460.69
556.66	64800.07
556.83	64491.12
556.99	64928.80
557.16	64856.24
557.32	64743.90
557.49	64619.85
557.65	64463.03
557.82	64652.62
557.98	64823.48
558.15	64636.23
558.32	64886.67
558.48	64750.92
558.65	64865.61
558.81	65197.96
558.98	64942.84
559.14	65034.13
559.31	64746.24
559.47	64753.26
559.64	65094.98
559.80	65041.15
559.97	65148.81
560.13	65076.26
560.30	65064.55
560.46	65286.90
560.63	65221.37
560.79	65212.01
560.96	65263.50
561.12	65036.47
561.29	65048.17
561.45	64949.87
561.61	65197.96
561.78	65195.62
561.94	65174.56
562.11	65092.64
562.27	65008.38
562.44	65286.90
562.60	65221.37
562.77	65350.10
562.93	65298.61
563.10	65485.85
563.26	65373.50
563.42	65474.15
563.59	65535.00
563.75	65502.23
563.92	65471.81
564.08	65307.97
564.24	65408.61
564.41	65221.37
564.57	65265.84
564.74	65420.31
564.90	65373.50
565.07	65535.00
565.23	65483.51
565.39	65436.70
565.56	65462.44
565.72	65324.35
565.88	65427.34
566.05	65424.99
566.21	65350.10
566.38	65432.02
566.54	65530.32
566.70	65535.00
566.87	65535.00
567.03	65535.00
567.19	65535.00
567.36	65535.00
567.52	65474.15
567.68	65535.00
567.85	65535.00
568.01	65535.00
568.17	65535.00
568.34	65535.00
568.50	65535.00
568.66	65535.00
568.83	65535.00
568.99	65535.00
569.15	65535.00
569.32	65535.00
569.48	65380.52
569.64	65535.00
569.81	65535.00
569.97	65535.00
570.13	65535.00
570.30	65535.00
570.46	65535.00
570.62	65535.00
570.78	65535.00
570.95	65535.00
571.11	65535.00
571.27	65535.00
571.43	65535.00
571.60	65535.00
571.76	65535.00
571.92	65535.00
572.09	65535.00
572.25	65535.00
572.41	65535.00
572.57	65535.00
572.74	65535.00
572.90	65535.00
573.06	65535.00
573.22	65535.00
573.38	65535.00
573.55	65535.00
573.71	65535.00
573.87	65535.00
574.03	65535.00
574.20	65535.00
574.36	65535.00
574.52	65535.00
574.68	65535.00
574.84	65535.00
575.01	65535.00
575.17	65535.00
575.33	65535.00
575.49	65535.00
575.65	65535.00
575.82	65535.00
575.98	65535.00
576.14	65535.00
576.30	65535.00
576.46	65535.00
576.62	65535.00
576.79	65535.00
576.95	65535.00
577.11	65535.00
577.27	65535.00
577.43	65535.00
577.59	65535.00
577.75	65535.00
577.92	65535.00
578.08	65535.00
578.24	65535.00
578.40	65535.00
578.56	65535.00
578.72	65535.00
578.88	65535.00
579.04	65535.00
579.21	65535.00
579.37	65535.00
579.53	65535.00
579.69	65535.00
579.85	65535.00
580.01	65535.00
580.17	65535.00
580.33	65535.00
580.49	65535.00
580.65	65535.00
580.82	65535.00
580.98	65535.00
581.14	65535.00
581.30	65535.00
581.46	65535.00
581.62	65535.00
581.78	65535.00
581.94	65535.00
582.10	65535.00
582.26	65535.00
582.42	65535.00
582.58	65535.00
582.74	65535.00
582.90	65535.00
583.06	65535.00
583.22	65535.00
583.38	65535.00
583.54	65535.00
583.70	65535.00
583.86	65535.00
584.02	65535.00
584.18	65535.00
584.34	65535.00
584.50	65535.00
584.66	65535.00
584.82	65535.00
584.98	65535.00
585.14	65535.00
585.30	65535.00
585.46	65535.00
585.62	65535.00
585.78	65535.00
585.94	65535.00
586.10	65535.00
586.26	65535.00
586.42	65535.00
586.58	65535.00
586.74	65535.00
586.90	65535.00
587.06	65535.00
587.22	65535.00
587.38	65535.00
587.54	65535.00
587.70	65535.00
587.86	65535.00
588.02	65535.00
588.18	65535.00
