SpectraSuite Data File
++++++++++++++++++++++++++++++++++++
Date: Fri Oct 04 11:48:29 GMT-05:00 2013
User: price-jones
Dark Spectrum Present: No
Reference Spectrum Present: No
Number of Sampled Component Spectra: 1
Spectrometers: USB2+H05261
Integration Time (usec): 100000 (USB2+H05261)
Spectra Averaged: 1 (USB2+H05261)
Boxcar Smoothing: 0 (USB2+H05261)
Correct for Electrical Dark: No (USB2+H05261)
Strobe/Lamp Enabled: No (USB2+H05261)
Correct for Detector Non-linearity: No (USB2+H05261)
Correct for Stray Light: No (USB2+H05261)
Number of Pixels in Processed Spectrum: 2048
>>>>>Begin Processed Spectral Data<<<<<
365.73	4.68
365.92	4.68
366.12	4.68
366.32	0.00
366.52	0.00
366.72	0.00
366.91	0.00
367.11	0.00
367.31	0.00
367.51	0.00
367.70	0.00
367.90	0.00
368.10	0.00
368.30	0.00
368.49	0.00
368.69	0.00
368.89	0.00
369.09	0.00
369.28	0.00
369.48	0.00
369.68	0.00
369.87	0.00
370.07	0.00
370.27	0.00
370.47	67.88
370.66	397.89
370.86	425.98
371.06	433.00
371.25	500.87
371.45	447.04
371.65	430.66
371.84	503.22
372.04	512.58
372.24	568.75
372.44	418.96
372.63	561.73
372.83	650.67
373.03	540.66
373.22	512.58
373.42	568.75
373.62	564.07
373.81	631.94
374.01	688.12
374.21	617.90
374.40	685.78
374.60	674.07
374.79	629.60
374.99	543.00
375.19	653.01
375.38	645.99
375.58	716.20
375.78	615.56
375.97	660.03
376.17	725.57
376.37	690.46
376.56	643.65
376.76	723.23
376.95	755.99
377.15	720.88
377.35	772.38
377.54	702.16
377.74	683.44
377.93	638.97
378.13	704.50
378.33	720.88
378.52	716.20
378.72	683.44
378.91	751.31
379.11	755.99
379.31	774.72
379.50	711.52
379.70	788.76
379.89	793.44
380.09	802.80
380.28	767.70
380.48	758.33
380.68	814.51
380.87	774.72
381.07	793.44
381.26	887.06
381.46	716.20
381.65	791.10
381.85	856.64
382.04	828.55
382.24	823.87
382.43	800.46
382.63	873.02
382.83	854.30
383.02	957.28
383.22	882.38
383.41	819.19
383.61	961.96
383.80	924.51
384.00	833.23
384.19	910.47
384.39	917.49
384.58	837.91
384.78	994.73
384.97	905.79
385.17	961.96
385.36	1008.77
385.56	966.64
385.75	952.60
385.95	980.68
386.14	999.41
386.34	952.60
386.53	987.71
386.72	1015.79
386.92	1034.52
387.11	1104.73
387.31	1053.24
387.50	1032.18
387.70	1027.50
387.89	1034.52
388.09	1048.56
388.28	983.02
388.48	1170.27
388.67	1165.59
388.86	1086.01
389.06	1137.50
389.25	1111.75
389.45	1153.88
389.64	1121.12
389.84	1170.27
390.03	1188.99
390.22	1181.97
390.42	1095.37
390.61	1130.48
390.81	1102.39
391.00	1198.35
391.19	1228.78
391.39	1167.93
391.58	1252.19
391.78	1158.57
391.97	1327.08
392.16	1219.42
392.36	1221.76
392.55	1238.14
392.75	1364.53
392.94	1296.66
393.13	1345.81
393.33	1280.27
393.52	1341.13
393.71	1437.09
393.91	1362.19
394.10	1345.81
394.29	1387.94
394.49	1401.98
394.68	1366.87
394.88	1420.71
395.07	1430.07
395.26	1409.00
395.46	1390.28
395.65	1465.18
395.84	1565.82
396.04	1554.12
396.23	1544.75
396.42	1490.92
396.62	1579.86
396.81	1645.40
397.00	1565.82
397.19	1643.06
397.39	1572.84
397.58	1563.48
397.77	1652.42
397.97	1703.91
398.16	1631.35
398.35	1678.16
398.55	1727.32
398.74	1617.31
398.93	1769.44
399.12	1710.93
399.32	1692.21
399.51	1671.14
399.70	1811.57
399.90	1790.51
400.09	1769.44
400.28	1720.29
400.47	1963.71
400.67	1909.88
400.86	1856.04
401.05	1816.26
401.24	1809.23
401.44	1874.77
401.63	1954.35
401.82	1914.56
402.01	1914.56
402.21	1949.67
402.40	1923.92
402.59	1970.73
402.78	2005.84
402.97	2040.95
403.17	2019.88
403.36	2040.95
403.55	2090.10
403.74	2143.93
403.93	2106.48
404.13	2167.34
404.32	2132.23
404.51	2186.06
404.70	2099.46
404.89	2165.00
405.09	2251.60
405.28	2300.75
405.47	2258.62
405.66	2284.36
405.85	2345.22
406.05	2331.17
406.24	2317.13
406.43	2258.62
406.62	2331.17
406.81	2473.95
407.00	2370.96
407.20	2361.60
407.39	2441.18
407.58	2396.71
407.77	2331.17
407.96	2490.33
408.15	2469.27
408.34	2478.63
408.54	2579.27
408.73	2595.65
408.92	2560.55
409.11	2656.51
409.30	2738.43
409.49	2668.21
409.68	2736.09
409.87	2642.46
410.07	2738.43
410.26	2719.70
410.45	2778.22
410.64	2860.13
410.83	2836.73
411.02	2855.45
411.21	2911.63
411.40	2874.18
411.59	2928.01
411.78	2972.48
411.98	3084.83
412.17	2972.48
412.36	3063.76
412.55	3145.68
412.74	3180.79
412.93	3187.81
413.12	3129.30
413.31	3236.96
413.50	3218.24
413.69	3251.00
413.88	3243.98
414.07	3267.39
414.26	3332.92
414.45	3290.79
414.64	3407.82
414.83	3559.95
415.02	3363.35
415.22	3538.89
415.41	3496.76
415.60	3487.40
415.79	3735.50
415.98	3662.94
416.17	3625.49
416.36	3644.21
416.55	3772.94
416.74	3740.18
416.93	3765.92
417.12	3796.35
417.31	4007.00
417.50	3810.39
417.69	3969.55
417.88	3962.53
418.07	3878.27
418.26	4107.64
418.45	4264.46
418.64	4194.24
418.83	4189.56
419.02	4184.88
419.21	4166.15
419.39	4189.56
419.58	4086.58
419.77	4147.43
419.96	4337.01
420.15	4362.76
420.34	4306.59
420.53	4301.90
420.72	4531.28
420.91	4262.12
421.10	4411.91
421.29	4547.66
421.48	4255.09
421.67	4524.26
421.86	4582.77
422.05	4484.47
422.24	4517.23
422.43	4290.20
422.61	4601.49
422.80	4521.92
422.99	4491.49
423.18	4697.46
423.37	4695.11
423.56	4580.43
423.75	4622.56
423.94	4507.87
424.13	4388.50
424.32	4404.89
424.50	4601.49
424.69	4678.73
424.88	4819.16
425.07	4655.33
425.26	4550.00
425.45	4660.01
425.64	4638.94
425.83	4660.01
426.01	4706.82
426.20	4561.70
426.39	4695.11
426.58	4676.39
426.77	4812.14
426.96	4835.55
427.15	4730.22
427.33	4847.25
427.52	4765.33
427.71	4912.78
427.90	4971.30
428.09	4807.46
428.28	4947.89
428.46	5090.67
428.65	5074.28
428.84	5214.71
429.03	5165.56
429.22	5022.79
429.40	5090.67
429.59	5282.59
429.78	5083.64
429.97	4842.57
430.16	5207.69
430.34	5219.39
430.53	5352.81
430.72	5397.28
430.91	5481.53
431.10	5238.12
431.28	5301.31
431.47	5448.77
431.66	5465.15
431.85	5341.10
432.03	5535.37
432.22	5668.78
432.41	5652.39
432.60	5568.13
432.79	5584.52
432.97	5652.39
433.16	5561.11
433.35	5533.03
433.54	5731.97
433.72	5755.38
433.91	5570.48
434.10	5879.43
434.28	5577.50
434.47	5886.45
434.66	5914.53
434.85	5898.15
435.03	5881.77
435.22	5851.34
435.41	6069.01
435.59	6108.80
435.78	6080.71
435.97	5984.75
436.16	6113.48
436.34	6076.03
436.53	6064.33
436.72	6363.92
436.90	6258.59
437.09	6113.48
437.28	6214.12
437.46	6230.51
437.65	6307.74
437.84	6375.62
438.02	6354.55
438.21	6396.68
438.40	6422.43
438.58	6670.53
438.77	6670.53
438.96	6483.28
439.14	6747.76
439.33	6740.74
439.52	6834.36
439.70	6883.52
439.89	6899.90
440.08	6834.36
440.26	6986.50
440.45	7005.22
440.63	6988.84
440.82	7218.21
441.01	7180.76
441.19	7295.45
441.38	7332.90
441.57	7311.83
441.75	7461.63
441.94	7412.48
442.12	7541.21
442.31	7510.78
442.50	7625.47
442.68	7522.48
442.87	7538.87
443.05	7637.17
443.24	7829.09
443.43	7831.43
443.61	7840.79
443.80	7976.55
443.98	7648.87
444.17	7599.72
444.35	7911.01
444.54	8009.31
444.73	7878.24
444.91	7840.79
445.10	7796.32
445.28	8051.44
445.47	7985.91
445.65	7955.48
445.84	7943.78
446.02	8121.66
446.21	8046.76
446.39	8028.04
446.58	8166.13
446.77	8154.43
446.95	8011.65
447.14	8042.08
447.32	8147.40
447.51	8037.40
447.69	8173.15
447.88	7939.10
448.06	8243.37
448.25	8194.22
448.43	8175.49
448.62	8060.80
448.80	8210.60
448.99	8191.88
449.17	8177.83
449.36	8332.31
449.54	8472.74
449.73	8407.20
449.91	8540.61
450.10	8486.78
450.28	8578.06
450.46	8477.42
450.65	8631.90
450.83	8688.07
451.02	8725.52
451.20	8603.81
451.39	8793.39
451.57	8690.41
451.76	8571.04
451.94	8861.27
452.13	8994.68
452.31	8875.31
452.49	8861.27
452.68	8837.86
452.86	8840.20
453.05	8877.65
453.23	8987.66
453.42	8940.85
453.60	8847.22
453.78	9055.53
453.97	8954.89
454.15	9055.53
454.34	8966.59
454.52	9284.91
454.70	9315.33
454.89	9296.61
455.07	9273.20
455.26	9383.21
455.44	9556.41
455.62	9495.55
455.81	9476.83
455.99	9380.87
456.17	9472.15
456.36	9486.19
456.54	9813.87
456.73	9680.46
456.91	9895.78
457.09	9811.53
457.28	10115.80
457.46	9682.80
457.64	10057.28
457.83	10024.51
458.01	10054.94
458.19	10094.73
458.38	9944.94
458.56	10122.82
458.74	10181.33
458.93	10354.53
459.11	10403.68
459.29	10104.09
459.48	10263.25
459.66	10377.94
459.84	10434.11
460.03	10588.58
460.21	10586.24
460.39	10513.69
460.57	10387.30
460.76	10480.92
460.94	10724.33
461.12	10633.05
461.31	10766.46
461.49	10579.22
461.67	10700.93
461.85	10979.45
462.04	10864.77
462.22	11393.73
462.40	10988.82
462.59	10918.60
462.77	11052.01
462.95	10911.58
463.13	11096.48
463.32	11042.65
463.50	11316.49
463.68	11012.22
463.86	11199.46
464.05	10885.83
464.23	11126.91
464.41	11349.26
464.59	10916.26
464.78	11602.04
464.96	11279.04
465.14	11274.36
465.32	11377.34
465.50	11653.53
465.69	11485.01
465.87	11667.57
466.05	11606.72
466.23	11562.25
466.41	11756.51
466.60	11805.66
466.78	11932.05
466.96	11583.31
467.14	11709.70
467.32	11578.63
467.51	12196.53
467.69	11639.48
467.87	11651.19
468.05	11857.15
468.23	11562.25
468.41	11817.36
468.60	12030.35
468.78	12149.72
468.96	11819.71
469.14	12245.68
469.32	12315.90
469.50	12060.78
469.69	12355.69
469.87	12519.53
470.05	12334.62
470.23	12390.80
470.41	12266.75
470.59	12657.62
470.77	12388.46
470.95	12814.43
471.14	12868.27
471.32	12456.33
471.50	12835.50
471.68	12926.78
471.86	13111.68
472.04	13287.22
472.22	13453.40
472.40	13006.36
472.58	13114.02
472.77	13195.94
472.95	13488.51
473.13	13790.44
473.31	13315.31
473.49	13226.37
473.67	13617.24
473.85	13860.65
474.03	13827.88
474.21	14108.75
474.39	14188.33
474.57	14090.02
474.75	14319.40
474.93	14415.36
475.12	14008.11
475.30	14590.90
475.48	14436.42
475.66	14602.60
475.84	14677.50
476.02	14572.18
476.20	14511.32
476.38	15068.37
476.56	15129.22
476.74	15424.13
476.92	15145.61
477.10	15295.40
477.28	15620.74
477.46	15522.43
477.64	15681.59
477.82	15903.94
478.00	16276.09
478.18	16109.91
478.36	16596.74
478.54	16423.54
478.72	16404.81
478.90	16570.99
479.08	16847.18
479.26	17074.21
479.44	17256.77
479.62	16924.41
479.80	17202.94
479.98	17397.20
480.16	17628.92
480.34	17500.19
480.52	17837.22
480.70	17989.36
480.88	17671.04
481.06	18106.38
481.24	18108.72
481.41	18291.29
481.59	18345.12
481.77	18771.10
481.95	18815.57
482.13	18998.13
482.31	18750.03
482.49	19248.57
482.67	19307.08
482.85	19667.52
483.03	20081.80
483.21	19894.55
483.39	20224.57
483.57	20074.77
483.74	20224.57
483.92	20603.74
484.10	20475.01
484.28	21055.46
484.46	21008.65
484.64	21518.89
484.82	21294.19
485.00	21467.39
485.18	21876.99
485.35	22188.28
485.53	22185.94
485.71	21984.65
485.89	22394.25
486.07	22843.63
486.25	22298.28
486.43	22845.97
486.61	23068.32
486.78	23075.34
486.96	23138.54
487.14	23740.05
487.32	23630.05
487.50	23955.38
487.68	23960.06
487.85	24229.23
488.03	24786.27
488.21	24856.49
488.39	24809.68
488.57	25123.31
488.75	25329.28
488.92	25472.05
489.10	25539.93
489.28	25797.38
489.46	26319.32
489.64	26019.74
489.81	26644.66
489.99	26775.73
490.17	27098.72
490.35	26993.40
490.53	27161.92
490.70	27351.50
490.88	27435.76
491.06	27693.22
491.24	27763.43
491.41	28313.46
491.59	28163.67
491.77	28446.87
491.95	28355.59
492.13	28666.88
492.30	28861.15
492.48	28716.03
492.66	29287.12
492.84	29408.83
493.01	29359.68
493.19	29340.96
493.37	30103.97
493.54	30244.40
493.72	30239.72
493.90	30239.72
494.08	30670.38
494.25	31484.89
494.43	31126.78
494.61	31402.97
494.79	31721.28
494.96	31253.17
495.14	31693.19
495.32	31903.84
495.49	31871.07
495.67	32353.23
495.85	32643.45
496.02	32561.53
496.20	32524.08
496.38	33179.43
496.55	32828.35
496.73	33766.91
496.91	33472.00
497.09	33680.31
497.26	34007.98
497.44	33476.68
497.62	34071.18
497.79	34148.42
497.97	34099.26
498.14	34555.67
498.32	34988.67
498.50	35042.50
498.67	35185.27
498.85	35180.59
499.03	35239.11
499.20	35510.61
499.38	35454.44
499.56	35711.89
499.73	36135.53
499.91	36435.12
500.08	36194.04
500.26	35791.47
500.44	36687.90
500.61	36687.90
500.79	36769.82
500.97	37050.68
501.14	37296.44
501.32	37331.54
501.49	37102.17
501.67	37235.58
501.84	37436.87
502.02	37853.48
502.20	38113.28
502.37	38419.89
502.55	38160.09
502.72	38204.56
502.90	37893.27
503.07	38288.82
503.25	38700.76
503.43	38281.80
503.60	38705.44
503.78	39210.99
503.95	38618.84
504.13	38808.42
504.30	38981.62
504.48	39431.01
504.65	39225.04
504.83	39632.29
505.01	40423.39
505.18	39903.79
505.36	40025.50
505.53	39971.67
505.71	39934.22
505.88	40289.98
506.06	40538.08
506.23	40727.66
506.41	40779.15
506.58	40882.14
506.76	41010.87
506.93	40975.76
507.11	41001.50
507.28	41167.68
507.46	41511.74
507.63	41408.76
507.81	42206.88
507.98	41869.84
508.16	41841.76
508.33	42216.24
508.50	41954.10
508.68	42471.36
508.85	42871.59
509.03	42321.57
509.20	43007.34
509.38	42967.55
509.55	42909.04
509.73	42735.84
509.90	43524.60
510.08	43164.16
510.25	43325.66
510.42	43442.68
510.60	43744.61
510.77	44006.75
510.95	44322.72
511.12	43606.52
511.30	44020.80
511.47	44294.64
511.64	44580.18
511.82	44350.81
511.99	44336.77
512.17	44816.58
512.34	44484.22
512.51	44800.19
512.69	44896.16
512.86	44729.98
513.04	45364.26
513.21	45382.99
513.38	45759.81
513.56	45724.71
513.73	45675.55
513.90	45806.62
514.08	45642.79
514.25	46010.25
514.43	46106.21
514.60	45808.96
514.77	45972.80
514.95	46256.01
515.12	46571.98
515.29	46686.67
515.47	46829.44
515.64	46799.01
515.81	46745.18
515.99	46887.95
516.16	47316.27
516.33	47229.67
516.51	47550.32
516.68	47239.03
516.85	47103.28
517.03	47199.24
517.20	47784.38
517.37	47657.99
517.54	47625.22
517.72	47470.75
517.89	47838.21
518.06	47966.94
518.24	48053.54
518.41	47990.34
518.58	48041.84
518.75	48193.97
518.93	48179.93
519.10	48406.96
519.27	48575.48
519.45	48224.40
519.62	48753.36
519.79	48903.15
519.96	48893.79
520.14	49296.36
520.31	48849.32
520.48	49265.94
520.65	49312.75
520.83	49078.69
521.00	48783.79
521.17	49092.74
521.34	49551.48
521.52	49757.45
521.69	49530.42
521.86	49977.46
522.03	50155.34
522.20	50122.57
522.38	49937.67
522.55	50167.04
522.72	50138.96
522.89	50398.76
523.07	50452.59
523.24	50735.79
523.41	50473.65
523.58	50239.60
523.75	50834.10
523.92	50396.42
524.10	50883.25
524.27	50878.57
524.44	50995.59
524.61	50981.55
524.78	51187.52
524.96	51224.96
525.13	51274.12
525.30	50890.27
525.47	51248.37
525.64	51285.82
525.81	51477.74
525.98	51414.55
526.16	51772.65
526.33	51374.76
526.50	51662.64
526.67	51849.89
526.84	52023.09
527.01	51903.72
527.18	51842.87
527.36	52130.75
527.53	51835.84
527.70	52238.42
527.87	52329.70
528.04	52245.44
528.21	52100.32
528.38	52053.51
528.55	52334.38
528.72	52215.01
528.89	52392.89
529.07	52449.06
529.24	52554.39
529.41	52846.96
529.58	52533.32
529.75	52481.83
529.92	52545.03
530.09	52446.72
530.26	53006.11
530.43	53155.91
530.60	52980.37
530.77	53027.18
530.94	53165.27
531.11	52767.38
531.28	53034.20
531.46	53013.13
531.63	53441.45
531.80	53343.15
531.97	53654.44
532.14	53560.82
532.31	53439.11
532.48	53532.73
532.65	53509.33
532.82	53284.64
532.99	53546.78
533.16	53364.21
533.33	53743.38
533.50	54099.14
533.67	54073.40
533.84	53741.04
534.01	53820.62
534.18	53635.72
534.35	54197.44
534.52	54138.93
534.69	53970.41
534.86	54227.87
535.03	54232.55
535.20	54237.23
535.37	54436.18
535.54	54298.09
535.71	54223.19
535.88	54279.36
536.05	54279.36
536.22	54536.82
536.38	54574.27
536.55	54684.28
536.72	54703.00
536.89	54593.00
537.06	54644.49
537.23	54637.47
537.40	54482.99
537.57	54536.82
537.74	54798.96
537.91	55058.76
538.08	55180.47
538.25	54831.73
538.42	55054.08
538.59	54843.43
538.75	54855.14
538.92	54997.91
539.09	54784.92
539.26	54993.23
539.43	55224.94
539.60	55601.77
539.77	55124.30
539.94	55449.63
540.11	55365.37
540.28	55510.49
540.44	55398.14
540.61	55283.45
540.78	55374.73
540.95	55569.00
541.12	55828.80
541.29	55786.67
541.46	55669.64
541.62	55700.07
541.79	55489.42
541.96	55236.64
542.13	55608.79
542.30	56076.90
542.47	55707.09
542.63	56004.34
542.80	56170.52
542.97	55781.99
543.14	55917.74
543.31	55997.32
543.48	56151.79
543.64	56207.97
543.81	56467.76
543.98	56582.45
544.15	56612.88
544.32	56713.52
544.48	56643.30
544.65	56498.19
544.82	56460.74
544.99	56107.32
545.16	56313.29
545.32	56619.90
545.49	56928.85
545.66	56800.12
545.83	56781.40
546.00	56893.74
546.16	56793.10
546.33	56444.36
546.50	56334.35
546.67	56636.28
546.83	56505.21
547.00	56858.63
547.17	56907.79
547.34	56877.36
547.50	57109.07
547.67	57214.40
547.84	57017.79
548.00	57202.69
548.17	57097.37
548.34	57017.79
548.51	57446.11
548.67	57144.18
548.84	57315.04
549.01	57420.36
549.18	57359.51
549.34	57205.03
549.51	57399.30
549.68	57205.03
549.84	57228.44
550.01	57460.15
550.18	57240.14
550.34	57574.84
550.51	57556.11
550.68	57598.24
550.84	57401.64
551.01	57521.01
551.18	57492.92
551.34	57209.71
551.51	57645.05
551.68	57876.77
551.84	57790.17
552.01	57750.38
552.18	57659.10
552.34	57591.22
552.51	57916.56
552.68	57626.33
552.84	57481.22
553.01	57968.05
553.18	57963.37
553.34	57717.61
553.51	57869.75
553.67	57963.37
553.84	58122.52
554.01	58108.48
554.17	58169.33
554.34	57879.11
554.51	58047.63
554.67	58031.24
554.84	58120.18
555.00	58066.35
555.17	58171.67
555.33	58192.74
555.50	58258.27
555.67	58340.19
555.83	58143.59
556.00	58300.40
556.16	58513.39
556.33	58323.81
556.50	58335.51
556.66	58120.18
556.83	58260.62
556.99	58670.21
557.16	58546.16
557.32	58546.16
557.49	58651.48
557.65	58110.82
557.82	58480.63
557.98	58630.42
558.15	58471.26
558.32	58548.50
558.48	58382.32
558.65	58459.56
558.81	58597.65
558.98	58794.26
559.14	58609.35
559.31	58314.45
559.47	58588.29
559.64	58733.40
559.80	58815.32
559.97	58915.96
560.13	58702.98
560.30	58904.26
560.46	58925.33
560.63	58684.25
560.79	58892.56
560.96	59061.08
561.12	59021.29
561.29	58618.72
561.45	58810.64
561.61	59133.63
561.78	59018.95
561.94	58810.64
562.11	58955.75
562.27	58810.64
562.44	58850.43
562.60	59054.06
562.77	58951.07
562.93	59255.34
563.10	59334.92
563.26	58859.79
563.42	59128.95
563.59	59274.07
563.75	59135.98
563.92	59124.27
564.08	59098.53
564.24	58997.88
564.41	58951.07
564.57	58925.33
564.74	59152.36
564.90	59313.86
565.07	59147.68
565.23	59203.85
565.39	59189.81
565.56	59224.92
565.72	59040.01
565.88	59318.54
566.05	58920.65
566.21	59135.98
566.38	59220.23
566.54	59475.35
566.70	59793.67
566.87	59384.07
567.03	59388.75
567.19	59580.68
567.36	59330.24
567.52	59227.26
567.68	59423.86
567.85	59379.39
568.01	59210.87
568.17	59253.00
568.34	59238.96
568.50	59648.55
568.66	59695.36
568.83	59545.57
568.99	59447.27
569.15	59393.43
569.32	59580.68
569.48	59391.09
569.64	59458.97
569.81	59302.15
569.97	59487.06
570.13	59583.02
570.30	59435.56
570.46	59412.16
570.62	59512.80
570.78	59573.66
570.95	59636.85
571.11	59618.13
571.27	59393.43
571.43	59494.08
571.60	59746.86
571.76	59597.06
571.92	59814.73
572.09	59695.36
572.25	59798.35
572.41	59683.66
572.57	59484.72
572.74	59772.60
572.90	59515.14
573.06	59711.75
573.22	59494.08
573.38	59636.85
573.55	59784.30
573.71	59854.52
573.87	59917.71
574.03	59700.04
574.20	59700.04
574.36	59700.04
574.52	59442.59
574.68	59505.78
574.84	59693.02
575.01	59657.91
575.17	59840.48
575.33	59819.41
575.49	59877.93
575.65	60023.04
575.82	59985.59
575.98	59559.61
576.14	60102.62
576.30	59929.42
576.46	59676.64
576.62	59718.77
576.79	59711.75
576.95	59627.49
577.11	59655.57
577.27	59992.61
577.43	60027.72
577.59	59922.40
577.75	59821.75
577.92	59704.73
578.08	59693.02
578.24	59688.34
578.40	59854.52
578.56	59964.52
578.72	59625.15
578.88	60102.62
579.04	59992.61
579.21	59999.63
579.37	59728.13
579.53	59908.35
579.69	59852.18
579.85	59767.92
580.01	59898.99
580.17	60041.76
580.33	59896.65
580.49	60151.77
580.65	59999.63
580.82	60130.70
580.98	59992.61
581.14	59999.63
581.30	60004.31
581.46	59821.75
581.62	59718.77
581.78	60051.12
581.94	60046.44
582.10	60114.32
582.26	60083.89
582.42	60095.60
582.58	59980.91
582.74	60018.36
582.90	60158.79
583.06	60130.70
583.22	59950.48
583.38	59987.93
583.54	59955.16
583.70	60067.51
583.86	59999.63
584.02	59955.16
584.18	60175.17
584.34	60095.60
584.50	60441.99
584.66	59950.48
584.82	59831.11
584.98	59997.29
585.14	60023.04
585.30	59950.48
585.46	59817.07
585.62	59908.35
585.78	60147.09
585.94	60163.47
586.10	60114.32
586.26	60086.23
586.42	60217.30
586.58	60186.88
586.74	60144.75
586.90	59987.93
587.06	59838.14
587.22	60121.34
587.38	60140.07
587.54	60156.45
587.70	60336.67
587.86	60186.88
588.02	60184.54
588.18	60374.12
588.34	60205.60
588.49	60247.73
588.65	59931.76
588.81	60114.32
588.97	60137.72
589.13	60259.43
589.29	60179.85
