SpectraSuite Data File
++++++++++++++++++++++++++++++++++++
Date: Fri Oct 04 11:47:06 GMT-05:00 2013
User: price-jones
Dark Spectrum Present: No
Reference Spectrum Present: No
Number of Sampled Component Spectra: 1
Spectrometers: USB2+H05261
Integration Time (usec): 100000 (USB2+H05261)
Spectra Averaged: 1 (USB2+H05261)
Boxcar Smoothing: 0 (USB2+H05261)
Correct for Electrical Dark: No (USB2+H05261)
Strobe/Lamp Enabled: No (USB2+H05261)
Correct for Detector Non-linearity: No (USB2+H05261)
Correct for Stray Light: No (USB2+H05261)
Number of Pixels in Processed Spectrum: 2048
>>>>>Begin Processed Spectral Data<<<<<
365.73	9.36
365.92	9.36
366.12	9.36
366.32	0.00
366.52	0.00
366.72	0.00
366.91	0.00
367.11	0.00
367.31	0.00
367.51	0.00
367.70	0.00
367.90	0.00
368.10	0.00
368.30	0.00
368.49	0.00
368.69	0.00
368.89	0.00
369.09	0.00
369.28	0.00
369.48	0.00
369.68	28.09
369.87	0.00
370.07	39.79
370.27	0.00
370.47	2.34
370.66	53.83
370.86	0.00
371.06	32.77
371.25	56.17
371.45	39.79
371.65	102.98
371.84	28.09
372.04	74.90
372.24	51.49
372.44	21.06
372.63	44.47
372.83	135.75
373.03	88.94
373.22	142.77
373.42	67.88
373.62	121.71
373.81	168.52
374.01	93.62
374.21	93.62
374.40	42.13
374.60	135.75
374.79	98.30
374.99	49.15
375.19	65.54
375.38	133.41
375.58	91.28
375.78	72.56
375.97	135.75
376.17	163.84
376.37	72.56
376.56	145.11
376.76	102.98
376.95	56.17
377.15	63.19
377.35	131.07
377.54	84.26
377.74	49.15
377.93	124.05
378.13	79.58
378.33	63.19
378.52	161.50
378.72	194.26
378.91	95.96
379.11	133.41
379.31	60.85
379.50	25.75
379.70	154.48
379.89	23.41
380.09	70.22
380.28	128.73
380.48	11.70
380.68	11.70
380.87	147.45
381.07	126.39
381.26	180.22
381.46	105.32
381.65	35.11
381.85	4.68
382.04	28.09
382.24	124.05
382.43	65.54
382.63	49.15
382.83	74.90
383.02	86.60
383.22	105.32
383.41	79.58
383.61	140.43
383.80	77.24
384.00	138.09
384.19	46.81
384.39	44.47
384.58	110.01
384.78	70.22
384.97	126.39
385.17	84.26
385.36	107.66
385.56	91.28
385.75	63.19
385.95	102.98
386.14	105.32
386.34	117.03
386.53	81.92
386.72	187.24
386.92	86.60
387.11	114.69
387.31	133.41
387.50	107.66
387.70	77.24
387.89	135.75
388.09	107.66
388.28	84.26
388.48	98.30
388.67	93.62
388.86	145.11
389.06	51.49
389.25	152.13
389.45	135.75
389.64	131.07
389.84	149.79
390.03	102.98
390.22	30.43
390.42	0.00
390.61	93.62
390.81	56.17
391.00	88.94
391.19	152.13
391.39	126.39
391.58	145.11
391.78	117.03
391.97	135.75
392.16	67.88
392.36	156.82
392.55	128.73
392.75	63.19
392.94	95.96
393.13	112.35
393.33	81.92
393.52	117.03
393.71	110.01
393.91	163.84
394.10	32.77
394.29	91.28
394.49	112.35
394.68	91.28
394.88	84.26
395.07	105.32
395.26	91.28
395.46	98.30
395.65	46.81
395.84	95.96
396.04	184.90
396.23	84.26
396.42	95.96
396.62	98.30
396.81	91.28
397.00	112.35
397.19	56.17
397.39	119.37
397.58	112.35
397.77	93.62
397.97	86.60
398.16	88.94
398.35	107.66
398.55	95.96
398.74	79.58
398.93	107.66
399.12	58.51
399.32	166.18
399.51	86.60
399.70	145.11
399.90	131.07
400.09	114.69
400.28	93.62
400.47	105.32
400.67	168.52
400.86	95.96
401.05	117.03
401.24	145.11
401.44	166.18
401.63	119.37
401.82	114.69
402.01	117.03
402.21	147.45
402.40	133.41
402.59	9.36
402.78	51.49
402.97	131.07
403.17	133.41
403.36	131.07
403.55	105.32
403.74	79.58
403.93	70.22
404.13	138.09
404.32	149.79
404.51	98.30
404.70	25.75
404.89	42.13
405.09	163.84
405.28	117.03
405.47	79.58
405.66	170.86
405.85	138.09
406.05	67.88
406.24	74.90
406.43	88.94
406.62	77.24
406.81	142.77
407.00	152.13
407.20	86.60
407.39	72.56
407.58	107.66
407.77	145.11
407.96	107.66
408.15	131.07
408.34	117.03
408.54	135.75
408.73	147.45
408.92	145.11
409.11	110.01
409.30	173.20
409.49	107.66
409.68	44.47
409.87	131.07
410.07	102.98
410.26	65.54
410.45	67.88
410.64	79.58
410.83	74.90
411.02	105.32
411.21	79.58
411.40	77.24
411.59	95.96
411.78	117.03
411.98	117.03
412.17	84.26
412.36	133.41
412.55	110.01
412.74	135.75
412.93	117.03
413.12	67.88
413.31	126.39
413.50	184.90
413.69	152.13
413.88	138.09
414.07	119.37
414.26	107.66
414.45	126.39
414.64	100.64
414.83	152.13
415.02	161.50
415.22	131.07
415.41	220.01
415.60	117.03
415.79	170.86
415.98	133.41
416.17	124.05
416.36	180.22
416.55	117.03
416.74	201.29
416.93	154.48
417.12	56.17
417.31	67.88
417.50	133.41
417.69	152.13
417.88	182.56
418.07	156.82
418.26	65.54
418.45	156.82
418.64	194.26
418.83	215.33
419.02	107.66
419.21	161.50
419.39	149.79
419.58	161.50
419.77	95.96
419.96	154.48
420.15	100.64
420.34	184.90
420.53	124.05
420.72	140.43
420.91	42.13
421.10	93.62
421.29	135.75
421.48	135.75
421.67	100.64
421.86	124.05
422.05	149.79
422.24	142.77
422.43	51.49
422.61	44.47
422.80	95.96
422.99	88.94
423.18	126.39
423.37	168.52
423.56	60.85
423.75	114.69
423.94	88.94
424.13	79.58
424.32	117.03
424.50	124.05
424.69	189.58
424.88	173.20
425.07	128.73
425.26	180.22
425.45	173.20
425.64	138.09
425.83	210.65
426.01	184.90
426.20	166.18
426.39	198.95
426.58	133.41
426.77	147.45
426.96	161.50
427.15	119.37
427.33	79.58
427.52	117.03
427.71	119.37
427.90	112.35
428.09	154.48
428.28	140.43
428.46	81.92
428.65	91.28
428.84	149.79
429.03	142.77
429.22	60.85
429.40	102.98
429.59	114.69
429.78	98.30
429.97	117.03
430.16	140.43
430.34	154.48
430.53	112.35
430.72	149.79
430.91	67.88
431.10	81.92
431.28	81.92
431.47	102.98
431.66	156.82
431.85	60.85
432.03	100.64
432.22	161.50
432.41	121.71
432.60	180.22
432.79	170.86
432.97	182.56
433.16	159.16
433.35	145.11
433.54	133.41
433.72	95.96
433.91	63.19
434.10	140.43
434.28	173.20
434.47	138.09
434.66	198.95
434.85	77.24
435.03	119.37
435.22	147.45
435.41	187.24
435.59	191.92
435.78	100.64
435.97	131.07
436.16	135.75
436.34	117.03
436.53	140.43
436.72	142.77
436.90	117.03
437.09	187.24
437.28	133.41
437.46	173.20
437.65	102.98
437.84	180.22
438.02	149.79
438.21	138.09
438.40	119.37
438.58	145.11
438.77	138.09
438.96	105.32
439.14	142.77
439.33	88.94
439.52	110.01
439.70	114.69
439.89	142.77
440.08	119.37
440.26	126.39
440.45	175.54
440.63	131.07
440.82	124.05
441.01	63.19
441.19	95.96
441.38	95.96
441.57	117.03
441.75	196.60
441.94	105.32
442.12	81.92
442.31	117.03
442.50	93.62
442.68	210.65
442.87	124.05
443.05	119.37
443.24	145.11
443.43	175.54
443.61	159.16
443.80	117.03
443.98	215.33
444.17	187.24
444.35	112.35
444.54	147.45
444.73	121.71
444.91	128.73
445.10	154.48
445.28	159.16
445.47	163.84
445.65	117.03
445.84	147.45
446.02	98.30
446.21	114.69
446.39	93.62
446.58	131.07
446.77	91.28
446.95	114.69
447.14	140.43
447.32	114.69
447.51	156.82
447.69	212.99
447.88	140.43
448.06	187.24
448.25	135.75
448.43	74.90
448.62	126.39
448.80	126.39
448.99	110.01
449.17	149.79
449.36	126.39
449.54	180.22
449.73	121.71
449.91	196.60
450.10	18.72
450.28	154.48
450.46	173.20
450.65	131.07
450.83	220.01
451.02	187.24
451.20	154.48
451.39	124.05
451.57	28.09
451.76	49.15
451.94	114.69
452.13	117.03
452.31	152.13
452.49	100.64
452.68	117.03
452.86	102.98
453.05	201.29
453.23	131.07
453.42	86.60
453.60	121.71
453.78	154.48
453.97	145.11
454.15	175.54
454.34	191.92
454.52	102.98
454.70	107.66
454.89	128.73
455.07	133.41
455.26	131.07
455.44	166.18
455.62	166.18
455.81	117.03
455.99	117.03
456.17	177.88
456.36	72.56
456.54	161.50
456.73	100.64
456.91	81.92
457.09	135.75
457.28	102.98
457.46	84.26
457.64	234.05
457.83	93.62
458.01	145.11
458.19	124.05
458.38	135.75
458.56	203.63
458.74	149.79
458.93	142.77
459.11	159.16
459.29	170.86
459.48	224.69
459.66	154.48
459.84	149.79
460.03	255.12
460.21	152.13
460.39	121.71
460.57	131.07
460.76	156.82
460.94	126.39
461.12	173.20
461.31	117.03
461.49	152.13
461.67	107.66
461.85	154.48
462.04	93.62
462.22	617.90
462.40	166.18
462.59	220.01
462.77	110.01
462.95	131.07
463.13	135.75
463.32	191.92
463.50	156.82
463.68	189.58
463.86	156.82
464.05	124.05
464.23	175.54
464.41	201.29
464.59	107.66
464.78	140.43
464.96	70.22
465.14	131.07
465.32	105.32
465.50	154.48
465.69	177.88
465.87	95.96
466.05	168.52
466.23	145.11
466.41	81.92
466.60	205.97
466.78	98.30
466.96	168.52
467.14	126.39
467.32	128.73
467.51	128.73
467.69	189.58
467.87	147.45
468.05	138.09
468.23	187.24
468.41	163.84
468.60	149.79
468.78	147.45
468.96	189.58
469.14	149.79
469.32	91.28
469.50	98.30
469.69	166.18
469.87	110.01
470.05	138.09
470.23	212.99
470.41	119.37
470.59	117.03
470.77	65.54
470.95	126.39
471.14	191.92
471.32	205.97
471.50	231.71
471.68	126.39
471.86	93.62
472.04	147.45
472.22	114.69
472.40	107.66
472.58	147.45
472.77	98.30
472.95	156.82
473.13	175.54
473.31	154.48
473.49	177.88
473.67	152.13
473.85	145.11
474.03	107.66
474.21	212.99
474.39	182.56
474.57	163.84
474.75	161.50
474.93	138.09
475.12	196.60
475.30	182.56
475.48	152.13
475.66	147.45
475.84	42.13
476.02	163.84
476.20	170.86
476.38	177.88
476.56	152.13
476.74	212.99
476.92	149.79
477.10	100.64
477.28	229.37
477.46	159.16
477.64	147.45
477.82	133.41
478.00	142.77
478.18	140.43
478.36	138.09
478.54	170.86
478.72	201.29
478.90	102.98
479.08	131.07
479.26	194.26
479.44	161.50
479.62	135.75
479.80	180.22
479.98	110.01
480.16	140.43
480.34	140.43
480.52	124.05
480.70	140.43
480.88	201.29
481.06	117.03
481.24	124.05
481.41	175.54
481.59	161.50
481.77	100.64
481.95	180.22
482.13	248.10
482.31	166.18
482.49	107.66
482.67	142.77
482.85	140.43
483.03	131.07
483.21	117.03
483.39	135.75
483.57	138.09
483.74	208.31
483.92	159.16
484.10	154.48
484.28	168.52
484.46	224.69
484.64	205.97
484.82	142.77
485.00	95.96
485.18	168.52
485.35	203.63
485.53	208.31
485.71	170.86
485.89	133.41
486.07	161.50
486.25	140.43
486.43	138.09
486.61	175.54
486.78	135.75
486.96	166.18
487.14	161.50
487.32	170.86
487.50	149.79
487.68	255.12
487.85	138.09
488.03	126.39
488.21	194.26
488.39	95.96
488.57	159.16
488.75	163.84
488.92	440.02
489.10	175.54
489.28	170.86
489.46	110.01
489.64	196.60
489.81	203.63
489.99	128.73
490.17	175.54
490.35	271.50
490.53	126.39
490.70	138.09
490.88	220.01
491.06	135.75
491.24	180.22
491.41	191.92
491.59	196.60
491.77	166.18
491.95	154.48
492.13	184.90
492.30	154.48
492.48	110.01
492.66	189.58
492.84	196.60
493.01	145.11
493.19	198.95
493.37	182.56
493.54	194.26
493.72	154.48
493.90	215.33
494.08	177.88
494.25	175.54
494.43	231.71
494.61	152.13
494.79	93.62
494.96	170.86
495.14	170.86
495.32	259.80
495.49	198.95
495.67	203.63
495.85	163.84
496.02	152.13
496.20	189.58
496.38	173.20
496.55	149.79
496.73	224.69
496.91	177.88
497.09	205.97
497.26	217.67
497.44	159.16
497.62	95.96
497.79	250.44
497.97	229.37
498.14	245.76
498.32	152.13
498.50	189.58
498.67	245.76
498.85	191.92
499.03	114.69
499.20	205.97
499.38	259.80
499.56	229.37
499.73	161.50
499.91	191.92
500.08	208.31
500.26	210.65
500.44	168.52
500.61	149.79
500.79	173.20
500.97	280.86
501.14	262.14
501.32	180.22
501.49	180.22
501.67	252.78
501.84	245.76
502.02	210.65
502.20	250.44
502.37	236.39
502.55	180.22
502.72	168.52
502.90	222.35
503.07	177.88
503.25	175.54
503.43	168.52
503.60	182.56
503.78	163.84
503.95	191.92
504.13	156.82
504.30	149.79
504.48	196.60
504.65	234.05
504.83	191.92
505.01	243.42
505.18	163.84
505.36	173.20
505.53	234.05
505.71	231.71
505.88	252.78
506.06	255.12
506.23	138.09
506.41	191.92
506.58	194.26
506.76	205.97
506.93	159.16
507.11	224.69
507.28	236.39
507.46	175.54
507.63	184.90
507.81	201.29
507.98	168.52
508.16	149.79
508.33	184.90
508.50	215.33
508.68	191.92
508.85	266.82
509.03	191.92
509.20	194.26
509.38	208.31
509.55	168.52
509.73	156.82
509.90	217.67
510.08	173.20
510.25	278.52
510.42	173.20
510.60	203.63
510.77	196.60
510.95	168.52
511.12	269.16
511.30	278.52
511.47	203.63
511.64	220.01
511.82	271.50
511.99	212.99
512.17	114.69
512.34	145.11
512.51	159.16
512.69	196.60
512.86	266.82
513.04	170.86
513.21	205.97
513.38	212.99
513.56	220.01
513.73	152.13
513.90	201.29
514.08	177.88
514.25	154.48
514.43	133.41
514.60	280.86
514.77	177.88
514.95	266.82
515.12	114.69
515.29	159.16
515.47	203.63
515.64	220.01
515.81	177.88
515.99	163.84
516.16	175.54
516.33	252.78
516.51	203.63
516.68	189.58
516.85	180.22
517.03	175.54
517.20	220.01
517.37	241.08
517.54	229.37
517.72	124.05
517.89	182.56
518.06	114.69
518.24	278.52
518.41	269.16
518.58	205.97
518.75	217.67
518.93	189.58
519.10	236.39
519.27	215.33
519.45	161.50
519.62	187.24
519.79	161.50
519.96	135.75
520.14	191.92
520.31	201.29
520.48	180.22
520.65	257.46
520.83	248.10
521.00	252.78
521.17	166.18
521.34	245.76
521.52	201.29
521.69	245.76
521.86	217.67
522.03	243.42
522.20	198.95
522.38	159.16
522.55	189.58
522.72	161.50
522.89	273.84
523.07	280.86
523.24	166.18
523.41	198.95
523.58	208.31
523.75	184.90
523.92	175.54
524.10	264.48
524.27	248.10
524.44	283.20
524.61	182.56
524.78	217.67
524.96	229.37
525.13	194.26
525.30	262.14
525.47	156.82
525.64	252.78
525.81	182.56
525.98	212.99
526.16	243.42
526.33	191.92
526.50	241.08
526.67	201.29
526.84	110.01
527.01	131.07
527.18	128.73
527.36	245.76
527.53	170.86
527.70	252.78
527.87	102.98
528.04	262.14
528.21	243.42
528.38	191.92
528.55	212.99
528.72	322.99
528.89	330.02
529.07	168.52
529.24	177.88
529.41	327.68
529.58	203.63
529.75	215.33
529.92	224.69
530.09	159.16
530.26	248.10
530.43	215.33
530.60	243.42
530.77	212.99
530.94	163.84
531.11	248.10
531.28	222.35
531.46	191.92
531.63	194.26
531.80	196.60
531.97	208.31
532.14	175.54
532.31	306.61
532.48	210.65
532.65	259.80
532.82	229.37
532.99	238.73
533.16	243.42
533.33	259.80
533.50	203.63
533.67	243.42
533.84	306.61
534.01	271.50
534.18	255.12
534.35	294.91
534.52	245.76
534.69	231.71
534.86	222.35
535.03	170.86
535.20	191.92
535.37	238.73
535.54	231.71
535.71	212.99
535.88	175.54
536.05	133.41
536.22	159.16
536.38	196.60
536.55	138.09
536.72	224.69
536.89	142.77
537.06	159.16
537.23	163.84
537.40	222.35
537.57	154.48
537.74	229.37
537.91	224.69
538.08	210.65
538.25	217.67
538.42	189.58
538.59	224.69
538.75	156.82
538.92	147.45
539.09	189.58
539.26	231.71
539.43	339.38
539.60	748.97
539.77	1001.75
539.94	1001.75
540.11	592.16
540.28	472.79
540.44	339.38
540.61	315.97
540.78	210.65
540.95	189.58
541.12	205.97
541.29	182.56
541.46	294.91
541.62	196.60
541.79	231.71
541.96	142.77
542.13	194.26
542.30	100.64
542.47	266.82
542.63	210.65
542.80	205.97
542.97	210.65
543.14	154.48
543.31	140.43
543.48	191.92
543.64	215.33
543.81	194.26
543.98	163.84
544.15	133.41
544.32	208.31
544.48	147.45
544.65	177.88
544.82	177.88
544.99	173.20
545.16	182.56
545.32	208.31
545.49	212.99
545.66	290.23
545.83	39.79
546.00	245.76
546.16	177.88
546.33	252.78
546.50	198.95
546.67	264.48
546.83	182.56
547.00	191.92
547.17	128.73
547.34	145.11
547.50	166.18
547.67	203.63
547.84	156.82
548.00	257.46
548.17	140.43
548.34	231.71
548.51	229.37
548.67	229.37
548.84	175.54
549.01	184.90
549.18	283.20
549.34	224.69
549.51	215.33
549.68	262.14
549.84	154.48
550.01	175.54
550.18	313.63
550.34	264.48
550.51	161.50
550.68	212.99
550.84	177.88
551.01	224.69
551.18	210.65
551.34	159.16
551.51	212.99
551.68	198.95
551.84	212.99
552.01	257.46
552.18	257.46
552.34	215.33
552.51	212.99
552.68	220.01
552.84	191.92
553.01	177.88
553.18	236.39
553.34	234.05
553.51	163.84
553.67	180.22
553.84	271.50
554.01	212.99
554.17	220.01
554.34	119.37
554.51	257.46
554.67	217.67
554.84	241.08
555.00	208.31
555.17	215.33
555.33	245.76
555.50	189.58
555.67	194.26
555.83	194.26
556.00	210.65
556.16	395.55
556.33	224.69
556.50	189.58
556.66	215.33
556.83	245.76
556.99	156.82
557.16	222.35
557.32	245.76
557.49	189.58
557.65	126.39
557.82	177.88
557.98	269.16
558.15	159.16
558.32	198.95
558.48	145.11
558.65	182.56
558.81	210.65
558.98	229.37
559.14	245.76
559.31	220.01
559.47	161.50
559.64	208.31
559.80	217.67
559.97	126.39
560.13	208.31
560.30	231.71
560.46	227.03
560.63	243.42
560.79	177.88
560.96	227.03
561.12	196.60
561.29	154.48
561.45	194.26
561.61	212.99
561.78	283.20
561.94	234.05
562.11	166.18
562.27	252.78
562.44	184.90
562.60	201.29
562.77	163.84
562.93	234.05
563.10	210.65
563.26	156.82
563.42	264.48
563.59	257.46
563.75	189.58
563.92	250.44
564.08	147.45
564.24	271.50
564.41	255.12
564.57	170.86
564.74	152.13
564.90	215.33
565.07	215.33
565.23	166.18
565.39	152.13
565.56	215.33
565.72	259.80
565.88	210.65
566.05	210.65
566.21	168.52
566.38	229.37
566.54	191.92
566.70	142.77
566.87	212.99
567.03	205.97
567.19	198.95
567.36	241.08
567.52	217.67
567.68	210.65
567.85	175.54
568.01	227.03
568.17	224.69
568.34	114.69
568.50	238.73
568.66	238.73
568.83	231.71
568.99	222.35
569.15	238.73
569.32	170.86
569.48	173.20
569.64	147.45
569.81	128.73
569.97	184.90
570.13	236.39
570.30	126.39
570.46	163.84
570.62	231.71
570.78	187.24
570.95	135.75
571.11	248.10
571.27	262.14
571.43	107.66
571.60	149.79
571.76	142.77
571.92	262.14
572.09	170.86
572.25	180.22
572.41	262.14
572.57	180.22
572.74	194.26
572.90	145.11
573.06	215.33
573.22	180.22
573.38	175.54
573.55	168.52
573.71	241.08
573.87	191.92
574.03	184.90
574.20	212.99
574.36	201.29
574.52	250.44
574.68	257.46
574.84	248.10
575.01	189.58
575.17	149.79
575.33	191.92
575.49	243.42
575.65	163.84
575.82	301.93
575.98	442.36
576.14	517.26
576.30	454.06
576.46	463.43
576.62	414.27
576.79	264.48
576.95	299.59
577.11	250.44
577.27	208.31
577.43	163.84
577.59	229.37
577.75	227.03
577.92	194.26
578.08	170.86
578.24	124.05
578.40	255.12
578.56	243.42
578.72	177.88
578.88	280.86
579.04	210.65
579.21	196.60
579.37	234.05
579.53	133.41
579.69	250.44
579.85	187.24
580.01	227.03
580.17	255.12
580.33	227.03
580.49	348.74
580.65	308.95
580.82	292.57
580.98	222.35
581.14	175.54
581.30	297.25
581.46	334.70
581.62	421.30
581.78	395.55
581.94	365.12
582.10	353.42
582.26	215.33
582.42	283.20
582.58	341.72
582.74	327.68
582.90	351.08
583.06	313.63
583.22	259.80
583.38	341.72
583.54	395.55
583.70	435.34
583.86	421.30
584.02	498.53
584.18	603.86
584.34	760.67
584.50	2122.87
584.66	15000.49
584.82	37886.25
584.98	50674.94
585.14	44652.74
585.30	27922.59
585.46	16730.15
585.62	10274.95
585.78	4842.57
585.94	2031.58
586.10	968.98
586.26	615.56
586.42	592.16
586.58	465.77
586.74	447.04
586.90	423.64
587.06	409.59
587.22	362.78
587.38	358.10
587.54	767.70
587.70	2209.47
587.86	3557.61
588.02	3648.90
588.18	2658.85
588.34	1753.06
588.49	1088.35
588.65	725.57
588.81	430.66
588.97	308.95
589.13	280.86
589.29	304.27
589.45	212.99
589.61	255.12
589.77	330.02
589.93	290.23
590.08	297.25
590.24	299.59
590.40	369.80
590.56	320.65
590.72	208.31
590.88	255.12
591.04	222.35
591.20	278.52
591.35	255.12
591.51	201.29
591.67	294.91
591.83	245.76
591.99	236.39
592.15	255.12
592.31	203.63
592.46	156.82
592.62	248.10
592.78	173.20
592.94	215.33
593.10	205.97
593.26	292.57
593.41	215.33
593.57	283.20
593.73	416.62
593.89	1832.64
594.05	4589.79
594.20	6239.87
594.36	5951.98
594.52	3892.31
594.68	2555.86
594.84	1675.82
594.99	887.06
595.15	472.79
595.31	341.72
595.47	320.65
595.62	147.45
595.78	198.95
595.94	250.44
596.10	297.25
596.25	301.93
596.41	248.10
596.57	236.39
596.73	248.10
596.88	416.62
597.04	894.08
597.20	1394.96
597.36	1638.38
597.51	1308.36
597.67	882.38
597.83	550.03
597.99	484.49
598.14	306.61
598.30	308.95
598.46	252.78
598.61	264.48
598.77	217.67
598.93	215.33
599.09	234.05
599.24	229.37
599.40	229.37
599.56	238.73
599.71	217.67
599.87	205.97
600.03	177.88
600.18	201.29
600.34	194.26
600.50	135.75
600.65	191.92
600.81	177.88
600.97	208.31
601.12	217.67
601.28	205.97
601.44	170.86
601.59	208.31
601.75	196.60
601.91	194.26
602.06	215.33
602.22	344.06
602.37	514.92
602.53	1139.84
602.69	1720.29
602.84	1727.32
603.00	1221.76
603.16	940.90
603.31	610.88
603.47	470.45
603.62	337.04
603.78	217.67
603.94	196.60
604.09	191.92
604.25	196.60
604.40	198.95
604.56	175.54
604.71	196.60
604.87	182.56
605.03	220.01
605.18	131.07
605.34	255.12
605.49	236.39
605.65	154.48
605.80	243.42
605.96	217.67
606.12	278.52
606.27	262.14
606.43	252.78
606.58	313.63
606.74	571.09
606.89	2303.09
607.05	4493.83
607.20	5554.09
607.36	4479.79
607.51	3014.61
607.67	1975.41
607.82	1425.39
607.98	727.91
608.13	414.27
608.29	355.76
608.44	400.23
608.60	325.33
608.75	360.44
608.91	814.51
609.06	3550.59
609.22	7335.24
609.37	9217.03
609.53	7843.14
609.68	5392.59
609.84	3529.53
609.99	2415.43
610.15	1263.89
610.30	594.50
610.46	479.81
610.61	367.46
610.76	313.63
610.92	266.82
611.07	205.97
611.23	320.65
611.38	259.80
611.54	236.39
611.69	266.82
611.84	191.92
612.00	243.42
