SpectraSuite Data File
++++++++++++++++++++++++++++++++++++
Date: Fri Oct 04 11:48:35 GMT-05:00 2013
User: price-jones
Dark Spectrum Present: No
Reference Spectrum Present: No
Number of Sampled Component Spectra: 1
Spectrometers: USB2+H05261
Integration Time (usec): 100000 (USB2+H05261)
Spectra Averaged: 1 (USB2+H05261)
Boxcar Smoothing: 0 (USB2+H05261)
Correct for Electrical Dark: No (USB2+H05261)
Strobe/Lamp Enabled: No (USB2+H05261)
Correct for Detector Non-linearity: No (USB2+H05261)
Correct for Stray Light: No (USB2+H05261)
Number of Pixels in Processed Spectrum: 2048
>>>>>Begin Processed Spectral Data<<<<<
365.73	11.70
365.92	11.70
366.12	11.70
366.32	0.00
366.52	0.00
366.72	0.00
366.91	0.00
367.11	0.00
367.31	0.00
367.51	0.00
367.70	0.00
367.90	0.00
368.10	0.00
368.30	0.00
368.49	0.00
368.69	0.00
368.89	0.00
369.09	0.00
369.28	0.00
369.48	0.00
369.68	0.00
369.87	0.00
370.07	23.41
370.27	18.72
370.47	182.56
370.66	292.57
370.86	379.17
371.06	397.89
371.25	388.53
371.45	376.83
371.65	486.83
371.84	369.80
372.04	421.30
372.24	437.68
372.44	351.08
372.63	503.22
372.83	430.66
373.03	470.45
373.22	472.79
373.42	397.89
373.62	505.56
373.81	528.96
374.01	484.49
374.21	524.28
374.40	496.19
374.60	580.45
374.79	540.66
374.99	561.73
375.19	564.07
375.38	627.26
375.58	533.64
375.78	601.52
375.97	538.32
376.17	603.86
376.37	587.47
376.56	566.41
376.76	617.90
376.95	582.79
377.15	514.92
377.35	655.35
377.54	589.82
377.74	566.41
377.93	594.50
378.13	660.03
378.33	622.58
378.52	514.92
378.72	603.86
378.91	669.39
379.11	667.05
379.31	596.84
379.50	601.52
379.70	676.41
379.89	622.58
380.09	615.56
380.28	578.11
380.48	662.37
380.68	599.18
380.87	596.84
381.07	617.90
381.26	704.50
381.46	599.18
381.65	634.29
381.85	594.50
382.04	681.10
382.24	695.14
382.43	716.20
382.63	641.31
382.83	723.23
383.02	711.52
383.22	767.70
383.41	657.69
383.61	739.61
383.80	767.70
384.00	741.95
384.19	725.57
384.39	748.97
384.58	711.52
384.78	795.78
384.97	763.01
385.17	739.61
385.36	807.48
385.56	765.36
385.75	702.16
385.95	737.27
386.14	814.51
386.34	812.17
386.53	837.91
386.72	807.48
386.92	880.04
387.11	870.68
387.31	854.30
387.50	896.43
387.70	777.06
387.89	919.83
388.09	861.32
388.28	826.21
388.48	870.68
388.67	915.15
388.86	884.72
389.06	854.30
389.25	915.15
389.45	950.26
389.64	898.77
389.84	917.49
390.03	961.96
390.22	968.98
390.42	997.07
390.61	1001.75
390.81	985.37
391.00	997.07
391.19	1076.65
391.39	1011.11
391.58	936.21
391.78	1062.60
391.97	1062.60
392.16	1067.28
392.36	1036.86
392.55	1142.18
392.75	1034.52
392.94	1032.18
393.13	1032.18
393.33	1043.88
393.52	1102.39
393.71	1179.63
393.91	1203.04
394.10	1095.37
394.29	1135.16
394.49	1158.57
394.68	1174.95
394.88	1076.65
395.07	1203.04
395.26	1179.63
395.46	1226.44
395.65	1299.00
395.84	1254.53
396.04	1200.69
396.23	1242.82
396.42	1174.95
396.62	1320.06
396.81	1369.21
397.00	1261.55
397.19	1294.32
397.39	1320.06
397.58	1434.75
397.77	1261.55
397.97	1385.60
398.16	1366.87
398.35	1430.07
398.55	1350.49
398.74	1411.34
398.93	1490.92
399.12	1441.77
399.32	1427.73
399.51	1474.54
399.70	1650.08
399.90	1563.48
400.09	1549.43
400.28	1593.90
400.47	1575.18
400.67	1692.21
400.86	1624.33
401.05	1577.52
401.24	1650.08
401.44	1577.52
401.63	1614.97
401.82	1636.03
402.01	1650.08
402.21	1579.86
402.40	1757.74
402.59	1839.66
402.78	1703.91
402.97	1774.13
403.17	1741.36
403.36	1839.66
403.55	1823.28
403.74	1778.81
403.93	1797.53
404.13	1937.96
404.32	1877.11
404.51	1872.43
404.70	1980.09
404.89	1980.09
405.09	1982.43
405.28	1881.79
405.47	1919.24
405.66	1952.01
405.85	2036.27
406.05	1970.73
406.24	2026.90
406.43	1994.14
406.62	2045.63
406.81	2118.18
407.00	2216.49
407.20	1968.39
407.39	2125.21
407.58	2143.93
407.77	2235.21
407.96	2176.70
408.15	2179.04
408.34	2202.44
408.54	2267.98
408.73	2251.60
408.92	2258.62
409.11	2370.96
409.30	2366.28
409.49	2317.13
409.68	2466.92
409.87	2459.90
410.07	2389.69
410.26	2443.52
410.45	2506.71
410.64	2436.50
410.83	2586.29
411.02	2640.12
411.21	2616.72
411.40	2628.42
411.59	2668.21
411.78	2665.87
411.98	2633.10
412.17	2822.69
412.36	2745.45
412.55	2775.88
412.74	2825.03
412.93	2836.73
413.12	2874.18
413.31	2916.31
413.50	3073.12
413.69	2778.22
413.88	2995.89
414.07	2958.44
414.26	3021.63
414.45	3227.60
414.64	3082.49
414.83	3332.92
415.02	3267.39
415.22	3314.20
415.41	3349.31
415.60	3276.75
415.79	3262.71
415.98	3309.52
416.17	3365.69
416.36	3419.52
416.55	3478.04
416.74	3459.31
416.93	3435.91
417.12	3492.08
417.31	3506.12
417.50	3463.99
417.69	3611.45
417.88	3658.26
418.07	3616.13
418.26	3786.99
418.45	3749.54
418.64	3726.13
418.83	3873.59
419.02	3651.24
419.21	3850.18
419.39	3885.29
419.58	3801.03
419.77	3962.53
419.96	3906.35
420.15	3932.10
420.34	3932.10
420.53	3913.38
420.72	4102.96
420.91	4004.66
421.10	4227.01
421.29	4243.39
421.48	4016.36
421.67	4079.55
421.86	4243.39
422.05	4128.70
422.24	4098.28
422.43	4208.28
422.61	4304.25
422.80	4224.67
422.99	4238.71
423.18	4119.34
423.37	4372.12
423.56	4393.19
423.75	4287.86
423.94	4133.39
424.13	4044.45
424.32	4056.15
424.50	4292.54
424.69	4374.46
424.88	4416.59
425.07	4262.12
425.26	4245.73
425.45	4276.16
425.64	4259.78
425.83	4229.35
426.01	4538.30
426.20	4278.50
426.39	4430.63
426.58	4437.66
426.77	4219.99
426.96	4482.13
427.15	4484.47
427.33	4472.76
427.52	4390.84
427.71	4507.87
427.90	4599.15
428.09	4552.34
428.28	4557.02
428.46	4643.62
428.65	4624.90
428.84	4851.93
429.03	4751.29
429.22	4692.77
429.40	4720.86
429.59	4695.11
429.78	4444.68
429.97	4531.28
430.16	4624.90
430.34	4978.32
430.53	4952.57
430.72	4968.96
430.91	4896.40
431.10	4807.46
431.28	4950.23
431.47	4943.21
431.66	5146.84
431.85	5001.72
432.03	5137.48
432.22	5327.06
432.41	5088.32
432.60	5242.80
432.79	5158.54
432.97	5273.23
433.16	5156.20
433.35	5165.56
433.54	5357.49
433.72	5348.12
433.91	5296.63
434.10	5263.86
434.28	5277.91
434.47	5518.98
434.66	5448.77
434.85	5469.83
435.03	5542.39
435.22	5472.17
435.41	5717.93
435.59	5544.73
435.78	5671.12
435.97	5455.79
436.16	5603.24
436.34	5509.62
436.53	5582.18
436.72	5874.74
436.90	5694.52
437.09	5781.12
437.28	5685.16
437.46	5678.14
437.65	5778.78
437.84	5727.29
438.02	5863.04
438.21	5858.36
438.40	5774.10
438.58	5916.87
438.77	6282.00
438.96	6059.65
439.14	6146.25
439.33	6129.86
439.52	6237.53
439.70	6314.77
439.89	6413.07
440.08	6448.18
440.26	6413.07
440.45	6410.73
440.63	6511.37
440.82	6506.69
441.01	6513.71
441.19	6661.16
441.38	6956.07
441.57	6684.57
441.75	6623.72
441.94	7007.56
442.12	7019.27
442.31	7026.29
442.50	6930.33
442.68	6904.58
442.87	7192.47
443.05	6974.80
443.24	7232.26
443.43	7246.30
443.61	7206.51
443.80	7316.51
443.98	7138.63
444.17	6841.39
444.35	7169.06
444.54	7325.88
444.73	7119.91
444.91	7190.13
445.10	7323.54
445.28	7241.62
445.47	7101.19
445.65	7180.76
445.84	7199.49
446.02	7321.20
446.21	7302.47
446.39	7353.96
446.58	7377.37
446.77	7243.96
446.95	7192.47
447.14	7342.26
447.32	7463.97
447.51	7440.56
447.69	7290.77
447.88	7470.99
448.06	7435.88
448.25	7325.88
448.43	7520.14
448.62	7386.73
448.80	7592.70
448.99	7676.96
449.17	7487.37
449.36	7382.05
449.54	7826.75
449.73	7651.21
449.91	7728.45
450.10	7756.54
450.28	7880.58
450.46	7812.71
450.65	7915.69
450.83	7857.18
451.02	7747.17
451.20	8002.29
451.39	7936.76
451.57	7911.01
451.76	7955.48
451.94	8133.36
452.13	8369.76
452.31	8074.85
452.49	8030.38
452.68	8212.94
452.86	8058.46
453.05	8278.47
453.23	8262.09
453.42	8194.22
453.60	8124.00
453.78	8318.26
453.97	8212.94
454.15	8177.83
454.34	8189.53
454.52	8446.99
454.70	8575.72
454.89	8578.06
455.07	8500.83
455.26	8517.21
455.44	8596.79
455.62	8493.80
455.81	8606.15
455.99	8549.98
456.17	8737.22
456.36	8643.60
456.54	8905.74
456.73	8990.00
456.91	9032.13
457.09	9015.74
457.28	9387.89
457.46	8823.82
457.64	9123.41
457.83	9085.96
458.01	9071.92
458.19	9163.20
458.38	8992.34
458.56	9355.12
458.74	9392.57
458.93	9167.88
459.11	9261.50
459.29	9298.95
459.48	9509.60
459.66	9530.66
459.84	9425.34
460.03	9708.54
460.21	9628.96
460.39	9593.86
460.57	9797.48
460.76	9451.08
460.94	9605.56
461.12	9549.39
461.31	9919.19
461.49	9734.29
461.67	9729.61
461.85	10284.31
462.04	9919.19
462.22	10434.11
462.40	10008.13
462.59	9900.47
462.77	10274.95
462.95	10141.54
463.13	10019.83
463.32	10085.37
463.50	10101.75
463.68	10286.65
463.86	10176.65
464.05	10057.28
464.23	10162.61
464.41	10436.45
464.59	10068.98
464.78	10569.86
464.96	10190.69
465.14	10176.65
465.32	10466.88
465.50	10567.52
465.69	10574.54
465.87	10394.32
466.05	10387.30
466.23	10647.10
466.41	10537.09
466.60	10913.92
466.78	10518.37
466.96	10480.92
467.14	10539.43
467.32	10813.28
467.51	10773.49
467.69	10602.63
467.87	10721.99
468.05	10785.19
468.23	10595.61
468.41	10759.44
468.60	10977.11
468.78	11131.59
468.96	10888.17
469.14	11105.84
469.32	11131.59
469.50	10782.85
469.69	11318.83
469.87	11555.22
470.05	11370.32
470.23	11351.60
470.41	11375.00
470.59	11379.68
470.77	11431.18
470.95	11632.46
471.14	11770.55
471.32	11496.71
471.50	11845.45
471.68	11679.27
471.86	12046.74
472.04	11946.09
472.22	12028.01
472.40	11747.15
472.58	11798.64
472.77	11992.90
472.95	12149.72
473.13	12695.07
473.31	11997.59
473.49	12116.95
473.67	12573.36
473.85	12414.20
474.03	12528.89
474.21	12477.40
474.39	12819.11
474.57	12582.72
474.75	12725.49
474.93	12931.46
475.12	12849.54
475.30	12966.57
475.48	12985.29
475.66	13214.66
475.84	13287.22
476.02	13481.49
476.20	13497.87
476.38	13540.00
476.56	13834.91
476.74	13584.47
476.92	13741.29
477.10	13741.29
477.28	13884.06
477.46	13949.59
477.64	14164.92
477.82	14459.83
478.00	14464.51
478.18	14459.83
478.36	15101.14
478.54	14824.95
478.72	14775.80
478.90	14956.02
479.08	15030.92
479.26	15428.81
479.44	15325.83
479.62	15456.90
479.80	15384.34
479.98	15641.80
480.16	16004.58
480.34	15695.63
480.52	15939.05
480.70	15981.18
480.88	16051.39
481.06	16114.59
481.24	16358.00
481.41	16428.22
481.59	16882.28
481.77	16751.21
481.95	17348.05
482.13	17415.93
482.31	17174.85
482.49	17294.22
482.67	17612.53
482.85	17860.63
483.03	17774.03
483.21	18031.49
483.39	17970.63
483.57	17921.48
483.74	18101.70
483.92	18476.19
484.10	18588.53
484.28	18897.49
484.46	19019.19
484.64	19105.79
484.82	18731.31
485.00	19239.20
485.18	19503.68
485.35	19861.79
485.53	19711.99
485.71	19878.17
485.89	20493.73
486.07	20180.10
486.25	20156.69
486.43	20489.05
486.61	20425.86
486.78	20798.00
486.96	21008.65
487.14	21177.17
487.32	21422.92
487.50	21776.34
487.68	21446.33
487.85	21872.31
488.03	22181.26
488.21	22258.49
488.39	22284.24
488.57	22513.61
488.75	22609.58
488.92	23136.20
489.10	23000.44
489.28	23323.44
489.46	23175.98
489.64	23339.82
489.81	24123.90
489.99	23924.96
490.17	24039.64
490.35	24376.68
490.53	24276.04
490.70	24617.75
490.88	24652.86
491.06	24779.25
491.24	24870.53
491.41	25275.45
491.59	25507.16
491.77	25165.44
491.95	25535.24
492.13	25638.23
492.30	26134.42
492.48	25736.53
492.66	26022.08
492.84	26295.92
493.01	26389.54
493.19	26925.52
493.37	26993.40
493.54	27072.98
493.72	27138.51
493.90	27117.45
494.08	27730.67
494.25	27571.51
494.43	27817.27
494.61	27960.04
494.79	28322.82
494.96	28196.43
495.14	28364.95
495.32	28680.92
495.49	28606.03
495.67	28847.10
495.85	28980.51
496.02	29439.26
496.20	29181.80
496.38	29460.32
496.55	29493.09
496.73	30157.80
496.91	29846.51
497.09	30068.86
497.26	30258.45
497.44	30176.53
497.62	30316.96
497.79	30668.04
497.97	30710.17
498.14	31309.35
498.32	31330.41
498.50	31503.61
498.67	31491.91
498.85	31400.63
499.03	31527.02
499.20	31810.22
499.38	32098.11
499.56	32032.57
499.73	32212.79
499.91	32114.49
500.08	32552.17
500.26	32009.17
500.44	32669.20
500.61	32943.04
500.79	32879.85
500.97	33523.49
501.14	33486.04
501.32	33556.26
501.49	33586.69
501.67	33450.94
501.84	34092.24
502.02	33914.36
502.20	33809.04
502.37	34356.72
502.55	34000.96
502.72	33951.81
502.90	34132.03
503.07	33895.64
503.25	34565.03
503.43	34190.55
503.60	35208.68
503.78	34745.25
503.95	34909.09
504.13	34838.87
504.30	35447.41
504.48	35016.75
504.65	35189.95
504.83	35901.48
505.01	36105.10
505.18	35477.84
505.36	35852.33
505.53	35725.94
505.71	35541.03
505.88	36472.57
506.06	35784.45
506.23	36751.09
506.41	36477.25
506.58	36725.35
506.76	36774.50
506.93	37015.57
507.11	36514.70
507.28	36807.26
507.46	37092.81
507.63	37167.71
507.81	37226.22
507.98	37593.68
508.16	37504.74
508.33	37975.19
508.50	37682.62
508.68	37830.08
508.85	37846.46
509.03	37930.72
509.20	38557.99
509.38	38667.99
509.55	38675.01
509.73	38876.30
509.90	38546.28
510.08	38761.61
510.25	39103.33
510.42	39297.59
510.60	39222.70
510.77	39264.83
510.95	39423.98
511.12	39040.14
511.30	39391.22
511.47	39686.12
511.64	39531.65
511.82	39810.17
511.99	40191.68
512.17	40273.60
512.34	39995.07
512.51	40575.53
512.69	40538.08
512.86	40575.53
513.04	41020.23
513.21	40678.51
513.38	41134.92
513.56	41050.66
513.73	40947.67
513.90	41137.26
514.08	40954.69
514.25	41347.90
514.43	41427.48
514.60	41703.67
514.77	41511.74
514.95	41886.23
515.12	41385.35
515.29	41478.97
515.47	41935.38
515.64	42045.38
515.81	42003.25
515.99	42370.72
516.16	42878.61
516.33	42192.84
516.51	42443.27
516.68	42454.98
516.85	42553.28
517.03	42782.65
517.20	42883.30
517.37	43051.81
517.54	43105.65
517.72	43047.13
517.89	42997.98
518.06	42925.42
518.24	43173.52
518.41	43278.85
518.58	43679.08
518.75	43452.05
518.93	43983.35
519.10	44046.54
519.27	43646.31
519.45	43695.46
519.62	44201.02
519.79	44074.63
519.96	44109.74
520.14	44762.75
520.31	44163.57
520.48	44641.04
520.65	44383.58
520.83	44729.98
521.00	44729.98
521.17	45113.83
521.34	45059.99
521.52	45043.61
521.69	45298.73
521.86	45380.65
522.03	45436.82
522.20	45490.65
522.38	45399.37
522.55	45382.99
522.72	45233.19
522.89	45668.53
523.07	45904.93
523.24	45958.76
523.41	45785.56
523.58	45780.88
523.75	45911.95
523.92	46120.26
524.10	46054.72
524.27	45773.86
524.44	46127.28
524.61	46639.86
524.78	46763.90
524.96	46635.17
525.13	46141.32
525.30	46827.10
525.47	47035.41
525.64	46672.62
525.81	46986.25
525.98	47217.97
526.16	46972.21
526.33	46894.97
526.50	47269.46
526.67	47030.72
526.84	47295.21
527.01	47512.88
527.18	47634.58
527.36	47683.73
527.53	47796.08
527.70	47831.19
527.87	48123.75
528.04	47676.71
528.21	47775.02
528.38	47775.02
528.55	48044.18
528.72	47824.17
528.89	48126.10
529.07	47980.98
529.24	47751.61
529.41	48282.91
529.58	47945.87
529.75	48055.88
529.92	48629.31
530.09	48406.96
530.26	48325.04
530.43	48498.24
530.60	48573.14
530.77	48641.01
530.94	48884.43
531.11	48788.47
531.28	48952.30
531.46	48830.60
531.63	49132.53
531.80	49212.10
531.97	49104.44
532.14	49581.91
532.31	49132.53
532.48	49279.98
532.65	49336.15
532.82	49345.51
532.99	49572.55
533.16	49460.20
533.33	49357.22
533.50	49771.49
533.67	49734.04
533.84	49322.11
534.01	49991.50
534.18	49326.79
534.35	50115.55
534.52	49776.17
534.69	50167.04
534.86	50003.20
535.03	49947.03
535.20	49951.71
535.37	49968.10
535.54	50403.44
535.71	50136.62
535.88	50344.92
536.05	50333.22
536.22	50277.05
536.38	50518.12
536.55	50351.94
536.72	50721.75
536.89	50567.27
537.06	50508.76
537.23	50387.05
537.40	50473.65
537.57	50637.49
537.74	50541.53
537.91	50995.59
538.08	50731.11
538.25	50625.79
538.42	50707.71
538.59	51175.81
538.75	50600.04
538.92	51105.60
539.09	51236.67
539.26	51196.88
539.43	51229.65
539.60	51161.77
539.77	51121.98
539.94	51519.87
540.11	51505.83
540.28	51391.14
540.44	51627.54
540.61	51325.61
540.78	51267.09
540.95	51505.83
541.12	51573.70
541.29	51559.66
541.46	51580.73
541.62	51470.72
541.79	51505.83
541.96	51533.92
542.13	51215.60
542.30	52245.44
542.47	52032.45
542.63	52114.37
542.80	51978.62
542.97	52081.60
543.14	52226.71
543.31	52306.29
543.48	52051.17
543.64	52622.26
543.81	52545.03
543.98	52563.75
544.15	52397.57
544.32	52727.59
544.48	52734.61
544.65	52711.20
544.82	52610.56
544.99	52390.55
545.16	52741.63
545.32	52687.80
545.49	52992.07
545.66	52980.37
545.83	53160.59
546.00	52678.44
546.16	52926.53
546.33	52587.16
546.50	52371.83
546.67	53139.52
546.83	52573.11
547.00	52793.12
547.17	52945.26
547.34	53226.12
547.50	53102.07
547.67	53315.06
547.84	52926.53
548.00	53249.53
548.17	53474.22
548.34	53160.59
548.51	53359.53
548.67	53453.15
548.84	53247.19
549.01	53111.44
549.18	53595.93
549.34	53492.94
549.51	53427.41
549.68	53523.37
549.84	53546.78
550.01	53734.02
550.18	53518.69
550.34	53659.12
550.51	53783.17
550.68	53661.46
550.84	53340.81
551.01	53752.74
551.18	53441.45
551.34	53577.20
551.51	53530.39
551.68	53958.71
551.84	53991.48
552.01	53626.35
552.18	54052.33
552.34	53876.79
552.51	53918.92
552.68	53907.22
552.84	54054.67
553.01	54143.61
553.18	53790.19
553.34	54078.08
553.51	54363.62
553.67	54288.73
553.84	54035.95
554.01	54302.77
554.17	54225.53
554.34	54272.34
554.51	54260.64
554.67	54525.12
554.84	54183.40
555.00	54342.56
555.17	54241.92
555.33	54494.69
555.50	54183.40
555.67	54270.00
555.83	54457.24
556.00	54377.67
556.16	54827.05
556.33	54298.09
556.50	54295.75
556.66	54798.96
556.83	54541.50
556.99	54997.91
557.16	54576.61
557.32	54824.71
557.49	54670.23
557.65	54363.62
557.82	54618.74
557.98	54522.78
558.15	54574.27
558.32	54841.09
558.48	54686.62
558.65	54684.28
558.81	54955.78
558.98	54773.22
559.14	54618.74
559.31	54836.41
559.47	54979.18
559.64	55047.06
559.80	54939.39
559.97	54967.48
560.13	55011.95
560.30	54937.05
560.46	55016.63
560.63	55054.08
560.79	55227.28
560.96	55243.66
561.12	54934.71
561.29	54710.02
561.45	55079.83
561.61	55140.68
561.78	55281.11
561.94	55199.19
562.11	55246.00
562.27	54885.56
562.44	54878.54
562.60	54813.01
562.77	55231.96
562.93	54866.84
563.10	55255.37
563.26	55009.61
563.42	55304.52
563.59	55379.42
563.75	55152.38
563.92	55367.71
564.08	55131.32
564.24	55400.48
564.41	55079.83
564.57	55131.32
564.74	55339.63
564.90	55395.80
565.07	55393.46
565.23	55398.14
565.39	55501.12
565.56	55529.21
565.72	55510.49
565.88	55379.42
566.05	55339.63
566.21	55381.76
566.38	55400.48
566.54	55686.03
566.70	55536.23
566.87	55917.74
567.03	55269.41
567.19	55798.37
567.36	55608.79
567.52	55442.61
567.68	55332.60
567.85	55306.86
568.01	55304.52
568.17	55547.93
568.34	55807.73
568.50	55735.18
568.66	55543.25
568.83	55648.58
568.99	55671.98
569.15	55526.87
569.32	55470.70
569.48	55288.13
569.64	55503.46
569.81	55639.22
569.97	55515.17
570.13	55592.40
570.30	55576.02
570.46	55498.78
570.62	55587.72
570.78	55576.02
570.95	55695.39
571.11	55552.62
571.27	55442.61
571.43	55501.12
571.60	55580.70
571.76	55913.06
571.92	55807.73
572.09	55716.45
572.25	55561.98
572.41	55585.38
572.57	55611.13
572.74	55760.92
572.90	55571.34
573.06	55554.96
573.22	55735.18
573.38	55690.71
573.55	55716.45
573.71	56095.62
573.87	55964.55
574.03	55875.61
574.20	55891.99
574.36	55561.98
574.52	55924.76
574.68	55681.34
574.84	56048.81
575.01	55948.17
575.17	55941.14
575.33	56273.50
575.49	55866.25
575.65	56107.32
575.82	55763.26
575.98	55906.04
576.14	55924.76
576.30	55749.22
576.46	55765.60
576.62	55688.37
576.79	55899.01
576.95	55819.44
577.11	55896.67
577.27	56018.38
577.43	56039.45
577.59	56076.90
577.75	56002.00
577.92	55613.47
578.08	55753.90
578.24	55620.49
578.40	55950.51
578.56	55859.23
578.72	55765.60
578.88	56186.90
579.04	56100.30
579.21	56083.92
579.37	55856.88
579.53	55941.14
579.69	55835.82
579.85	55894.33
580.01	55838.16
580.17	55679.00
580.33	55779.65
580.49	55772.63
580.65	56051.15
580.82	56100.30
580.98	56004.34
581.14	56039.45
581.30	55971.57
581.46	55987.95
581.62	55884.97
581.78	55718.79
581.94	56170.52
582.10	55700.07
582.26	55976.25
582.42	55964.55
582.58	56151.79
582.74	55992.64
582.90	55803.05
583.06	55966.89
583.22	55746.88
583.38	55913.06
583.54	56135.41
583.70	55936.46
583.86	55978.59
584.02	55948.17
584.18	56226.69
584.34	56163.50
584.50	56088.60
584.66	56154.13
584.82	55746.88
584.98	55959.87
585.14	56158.81
585.30	55962.21
585.46	56090.94
585.62	56060.51
585.78	55936.46
585.94	55800.71
586.10	56100.30
586.26	55976.25
586.42	56039.45
586.58	56147.11
586.74	55859.23
586.90	55901.36
587.06	55957.53
587.22	56109.66
587.38	55891.99
587.54	56207.97
587.70	56411.59
587.86	56236.05
588.02	56364.78
588.18	56280.52
588.34	56308.61
588.49	56364.78
588.65	56224.35
588.81	56252.44
588.97	56289.88
589.13	56156.47
589.29	56240.73
589.45	56392.87
589.61	56395.21
