SpectraSuite Data File
++++++++++++++++++++++++++++++++++++
Date: Fri Oct 04 11:48:24 GMT-05:00 2013
User: price-jones
Dark Spectrum Present: No
Reference Spectrum Present: No
Number of Sampled Component Spectra: 1
Spectrometers: USB2+H05261
Integration Time (usec): 100000 (USB2+H05261)
Spectra Averaged: 1 (USB2+H05261)
Boxcar Smoothing: 0 (USB2+H05261)
Correct for Electrical Dark: No (USB2+H05261)
Strobe/Lamp Enabled: No (USB2+H05261)
Correct for Detector Non-linearity: No (USB2+H05261)
Correct for Stray Light: No (USB2+H05261)
Number of Pixels in Processed Spectrum: 2048
>>>>>Begin Processed Spectral Data<<<<<
365.73	56.17
365.92	56.17
366.12	56.17
366.32	0.00
366.52	0.00
366.72	0.00
366.91	0.00
367.11	0.00
367.31	0.00
367.51	0.00
367.70	0.00
367.90	0.00
368.10	0.00
368.30	0.00
368.49	0.00
368.69	0.00
368.89	0.00
369.09	0.00
369.28	0.00
369.48	0.00
369.68	9.36
369.87	21.06
370.07	0.00
370.27	37.45
370.47	140.43
370.66	320.65
370.86	428.32
371.06	484.49
371.25	507.90
371.45	407.25
371.65	573.43
371.84	454.06
372.04	575.77
372.24	514.92
372.44	519.60
372.63	638.97
372.83	613.22
373.03	645.99
373.22	629.60
373.42	664.71
373.62	645.99
373.81	699.82
374.01	699.82
374.21	709.18
374.40	692.80
374.60	660.03
374.79	653.01
374.99	667.05
375.19	697.48
375.38	753.65
375.58	683.44
375.78	770.04
375.97	819.19
376.17	788.76
376.37	791.10
376.56	732.59
376.76	758.33
376.95	755.99
377.15	795.78
377.35	786.42
377.54	772.38
377.74	770.04
377.93	767.70
378.13	716.20
378.33	823.87
378.52	819.19
378.72	786.42
378.91	849.61
379.11	802.80
379.31	753.65
379.50	835.57
379.70	898.77
379.89	828.55
380.09	819.19
380.28	833.23
380.48	915.15
380.68	800.46
380.87	894.08
381.07	919.83
381.26	1039.20
381.46	952.60
381.65	961.96
381.85	931.53
382.04	1060.26
382.24	950.26
382.43	887.06
382.63	866.00
382.83	861.32
383.02	1097.71
383.22	1069.62
383.41	978.34
383.61	1057.92
383.80	1081.33
384.00	1008.77
384.19	1048.56
384.39	1057.92
384.58	947.92
384.78	945.58
384.97	1060.26
385.17	994.73
385.36	1027.50
385.56	976.00
385.75	1102.39
385.95	1104.73
386.14	1116.44
386.34	1055.58
386.53	1086.01
386.72	1123.46
386.92	1151.54
387.11	1137.50
387.31	1200.69
387.50	1203.04
387.70	1207.72
387.89	1139.84
388.09	1160.91
388.28	1200.69
388.48	1156.22
388.67	1233.46
388.86	1270.91
389.06	1266.23
389.25	1203.04
389.45	1233.46
389.64	1294.32
389.84	1270.91
390.03	1352.83
390.22	1357.51
390.42	1324.74
390.61	1299.00
390.81	1284.95
391.00	1310.70
391.19	1409.00
391.39	1331.76
391.58	1371.55
391.78	1364.53
391.97	1423.05
392.16	1434.75
392.36	1493.26
392.55	1563.48
392.75	1383.26
392.94	1394.96
393.13	1488.58
393.33	1514.33
393.52	1371.55
393.71	1516.67
393.91	1528.37
394.10	1483.90
394.29	1486.24
394.49	1509.65
394.68	1633.69
394.88	1610.29
395.07	1694.55
395.26	1647.74
395.46	1558.80
395.65	1647.74
395.84	1694.55
396.04	1781.15
396.23	1785.83
396.42	1692.21
396.62	1764.76
396.81	1732.00
397.00	1647.74
397.19	1767.10
397.39	1774.13
397.58	1792.85
397.77	1825.62
397.97	1811.57
398.16	1888.81
398.35	1902.86
398.55	1968.39
398.74	1912.22
398.93	1844.34
399.12	1888.81
399.32	1944.99
399.51	1970.73
399.70	2031.58
399.90	2022.22
400.09	2012.86
400.28	2094.78
400.47	2054.99
400.67	2080.74
400.86	2120.53
401.05	2101.80
401.24	2120.53
401.44	2143.93
401.63	2097.12
401.82	2242.23
402.01	2150.95
402.21	2235.21
402.40	2279.68
402.59	2202.44
402.78	2317.13
402.97	2331.17
403.17	2373.30
403.36	2289.04
403.55	2267.98
403.74	2403.73
403.93	2307.77
404.13	2385.01
404.32	2340.54
404.51	2307.77
404.70	2457.56
404.89	2480.97
405.09	2583.95
405.28	2478.63
405.47	2565.23
405.66	2539.48
405.85	2595.65
406.05	2569.91
406.24	2558.21
406.43	2665.87
406.62	2558.21
406.81	2717.36
407.00	2689.28
407.20	2675.23
407.39	2771.19
407.58	2850.77
407.77	2871.84
407.96	2834.39
408.15	2792.26
408.34	2846.09
408.54	2843.75
408.73	2860.13
408.92	2909.29
409.11	2993.55
409.30	2939.71
409.49	2986.52
409.68	2970.14
409.87	2883.54
410.07	3225.26
410.26	3091.85
410.45	3094.19
410.64	3070.78
410.83	3143.34
411.02	3096.53
411.21	3323.56
411.40	3215.90
411.59	3293.13
411.78	3400.80
411.98	3391.44
412.17	3358.67
412.36	3361.01
412.55	3461.65
412.74	3559.95
412.93	3562.30
413.12	3440.59
413.31	3637.19
413.50	3501.44
413.69	3574.00
413.88	3826.78
414.07	3749.54
414.26	3702.73
414.45	3756.56
414.64	3751.88
414.83	3859.54
415.02	3887.63
415.22	3779.97
415.41	3859.54
415.60	4021.04
415.79	3836.14
415.98	4112.32
416.17	4053.81
416.36	4028.06
416.55	4044.45
416.74	4269.14
416.93	4278.50
417.12	4269.14
417.31	4301.90
417.50	4248.07
417.69	4547.66
417.88	4313.61
418.07	4308.93
418.26	4386.16
418.45	4395.53
418.64	4496.17
418.83	4454.04
419.02	4358.08
419.21	4606.17
419.39	4624.90
419.58	4547.66
419.77	4477.44
419.96	4678.73
420.15	4779.37
420.34	4671.71
420.53	4901.08
420.72	4795.76
420.91	4950.23
421.10	4933.85
421.29	4884.70
421.48	4894.06
421.67	4943.21
421.86	4975.98
422.05	4905.76
422.24	4917.47
422.43	5043.85
422.61	4990.02
422.80	4964.28
422.99	5170.24
423.18	5064.92
423.37	5184.29
423.56	5095.35
423.75	5123.43
423.94	4994.70
424.13	4762.99
424.32	4908.10
424.50	5200.67
424.69	5217.05
424.88	5083.64
425.07	5149.18
425.26	5041.51
425.45	5060.24
425.64	5177.26
425.83	5081.30
426.01	5350.46
426.20	5207.69
426.39	5203.01
426.58	5282.59
426.77	5198.33
426.96	5324.72
427.15	5252.16
427.33	5399.62
427.52	5472.17
427.71	5270.89
427.90	5397.28
428.09	5383.23
428.28	5481.53
428.46	5561.11
428.65	5659.42
428.84	5830.27
429.03	5727.29
429.22	5624.31
429.40	5724.95
429.59	5823.25
429.78	5383.23
429.97	5408.98
430.16	5607.92
430.34	5746.02
430.53	5949.64
430.72	5898.15
430.91	5785.80
431.10	5783.46
431.28	6038.58
431.47	5980.07
431.66	5989.43
431.85	5776.44
432.03	6223.48
432.22	6132.20
432.41	6345.19
432.60	6087.73
432.79	6115.82
432.97	6195.40
433.16	6370.94
433.35	6176.67
433.54	6366.26
433.72	6214.12
433.91	6246.89
434.10	6338.17
434.28	6359.24
434.47	6459.88
434.66	6303.06
434.85	6621.38
435.03	6553.50
435.22	6553.50
435.41	6782.87
435.59	6665.85
435.78	6612.01
435.97	6612.01
436.16	6752.45
436.34	6686.91
436.53	6822.66
436.72	6956.07
436.90	6672.87
437.09	6911.60
437.28	6761.81
437.46	6890.54
437.65	7028.63
437.84	6981.82
438.02	7103.53
438.21	7082.46
438.40	6930.33
438.58	7255.66
438.77	7220.55
438.96	7222.89
439.14	7485.03
439.33	7337.58
439.52	7590.36
439.70	7379.71
439.89	7623.12
440.08	7583.34
440.26	7719.09
440.45	7758.88
440.63	7754.19
440.82	7845.48
441.01	7864.20
441.19	7836.11
441.38	7985.91
441.57	8074.85
441.75	8180.17
441.94	8346.35
442.12	8461.04
442.31	8449.33
442.50	8418.91
442.68	8336.99
442.87	8379.12
443.05	8344.01
443.24	8594.45
443.43	8503.17
443.61	8657.64
443.80	8856.59
443.98	8702.11
444.17	8168.47
444.35	8786.37
444.54	8676.37
444.73	8669.34
444.91	8566.36
445.10	8585.08
445.28	8720.84
445.47	8603.81
445.65	8901.06
445.84	8816.80
446.02	8833.18
446.21	8760.63
446.39	8767.65
446.58	8889.35
446.77	8706.79
446.95	8695.09
447.14	8725.52
447.32	8858.93
447.51	8849.57
447.69	8980.64
447.88	8847.22
448.06	8950.21
448.25	8938.51
448.43	8933.82
448.62	8905.74
448.80	8802.75
448.99	8961.91
449.17	9202.99
449.36	9170.22
449.54	9214.69
449.73	9453.42
449.91	9411.29
450.10	9425.34
450.28	9603.22
450.46	9289.59
450.65	9411.29
450.83	9558.75
451.02	9554.07
451.20	9563.43
451.39	9699.18
451.57	9455.76
451.76	9530.66
451.94	9652.37
452.13	9834.93
452.31	9818.55
452.49	9633.64
452.68	9954.30
452.86	9863.02
453.05	10015.15
453.23	9982.38
453.42	9703.86
453.60	9757.69
453.78	9898.13
453.97	9823.23
454.15	9937.91
454.34	10015.15
454.52	10239.84
454.70	10272.61
454.89	10249.21
455.07	10312.40
455.26	10289.00
455.44	10382.62
455.62	10331.12
455.81	10345.17
455.99	10544.11
456.17	10499.64
456.36	10485.60
456.54	10544.11
456.73	10740.72
456.91	10934.98
457.09	10754.76
457.28	11281.38
457.46	10630.71
457.64	10895.19
457.83	10876.47
458.01	11056.69
458.19	11265.00
458.38	11005.20
458.56	11286.06
458.74	11321.17
458.93	11396.07
459.11	11403.09
459.29	11166.70
459.48	11391.39
459.66	11360.96
459.84	11449.90
460.03	11784.60
460.21	11506.07
460.39	11648.85
460.57	11375.00
460.76	11639.48
460.94	11648.85
461.12	11660.55
461.31	11573.95
461.49	11681.61
461.67	11805.66
461.85	11988.22
462.04	12098.23
462.22	12507.82
462.40	12063.12
462.59	12084.19
462.77	12273.77
462.95	12226.96
463.13	12374.41
463.32	12229.30
463.50	12301.86
463.68	12212.92
463.86	12219.94
464.05	11943.75
464.23	12306.54
464.41	12568.68
464.59	12280.79
464.78	12552.29
464.96	12432.93
465.14	12400.16
465.32	12669.32
465.50	12709.11
465.69	12819.11
465.87	12423.56
466.05	12409.52
466.23	12713.79
466.41	12849.54
466.60	13074.23
466.78	12695.07
466.96	12905.71
467.14	12922.10
467.32	12812.09
467.51	13432.33
467.69	12833.16
467.87	13200.62
468.05	13062.53
468.23	13064.87
468.41	13104.66
468.60	13465.10
468.78	13474.46
468.96	13444.04
469.14	13411.27
469.32	13736.60
469.50	12910.40
469.69	13701.50
469.87	13877.04
470.05	13771.71
470.23	13760.01
470.41	13511.91
470.59	13813.84
470.77	13795.12
470.95	13930.87
471.14	13891.08
471.32	14036.19
471.50	14354.51
471.68	14466.85
471.86	14267.91
472.04	14417.70
472.22	14492.60
472.40	14417.70
472.58	14354.51
472.77	14581.54
472.95	14710.27
473.13	15379.66
473.31	14698.56
473.49	14860.06
473.67	14927.94
473.85	15374.98
474.03	15255.61
474.21	15400.72
474.39	15494.35
474.57	15534.14
474.75	15541.16
474.93	15974.16
475.12	15606.69
475.30	15789.25
475.48	15854.79
475.66	16074.80
475.84	16182.46
476.02	16222.25
476.20	15859.47
476.38	16791.00
476.56	16664.61
476.74	16877.60
476.92	16800.37
477.10	16587.38
477.28	17109.32
477.46	16973.56
477.64	17207.62
477.82	17619.55
478.00	18017.44
478.18	17624.23
478.36	18171.92
478.54	18284.26
478.72	18108.72
478.90	18347.46
479.08	18342.78
479.26	18576.83
479.44	18794.50
479.62	19000.47
479.80	19147.92
479.98	19101.11
480.16	19426.45
480.34	19105.79
480.52	19625.39
480.70	19641.78
480.88	19836.04
481.06	19836.04
481.24	19576.24
481.41	20198.82
481.59	20374.36
481.77	20765.23
481.95	20589.69
482.13	20477.35
482.31	20868.22
482.49	21245.04
482.67	21095.25
482.85	21694.43
483.03	21975.29
483.21	21912.10
483.39	22333.39
483.57	22225.73
483.74	22593.19
483.92	22410.63
484.10	22675.11
484.28	22963.00
484.46	23520.04
484.64	23714.31
484.82	23489.62
485.00	23672.18
485.18	24374.34
485.35	24306.46
485.53	24444.56
485.71	24449.24
485.89	24851.81
486.07	24788.61
486.25	24842.45
486.43	24650.52
486.61	25205.23
486.78	25663.97
486.96	25731.85
487.14	26419.97
487.32	26068.89
487.50	26487.84
487.68	26569.76
487.85	26979.36
488.03	27082.34
488.21	27388.95
488.39	27274.26
488.57	27524.70
488.75	27550.45
488.92	28533.47
489.10	28357.93
489.28	28741.78
489.46	29060.09
489.64	28692.63
489.81	29659.27
489.99	29532.88
490.17	29546.92
490.35	29963.54
490.53	29982.26
490.70	30469.09
490.88	30195.25
491.06	30988.69
491.24	30466.75
491.41	30534.63
491.59	31283.60
491.77	31192.32
491.95	31655.75
492.13	31686.17
492.30	31962.36
492.48	32025.55
492.66	31779.79
492.84	32084.06
493.01	32985.17
493.19	32528.77
493.37	33294.12
493.54	33060.07
493.72	33450.94
493.90	33537.54
494.08	34235.02
494.25	34220.97
494.43	34265.44
494.61	34139.05
494.79	34902.07
494.96	34569.71
495.14	34960.58
495.32	35058.88
495.49	35033.14
495.67	35690.83
495.85	35849.99
496.02	36072.34
496.20	35838.28
496.38	36311.07
496.55	36156.60
496.73	36989.83
496.91	37261.33
497.09	37207.50
497.26	37336.23
497.44	37078.77
497.62	37635.81
497.79	37935.40
497.97	37792.63
498.14	38309.89
498.32	38761.61
498.50	38480.75
498.67	39098.65
498.85	38951.20
499.03	38499.47
499.20	38911.41
499.38	39089.29
499.56	39501.22
499.73	39772.72
499.91	39821.87
500.08	39920.18
500.26	39868.69
500.44	40060.61
500.61	40212.74
500.79	40594.25
500.97	40652.76
501.14	41015.55
501.32	41357.27
501.49	40650.42
501.67	41134.92
501.84	40835.33
502.02	41567.91
502.20	41359.61
502.37	42225.60
502.55	41757.50
502.72	41811.33
502.90	41881.55
503.07	41968.15
503.25	42534.56
503.43	42508.81
503.60	42857.55
503.78	42705.41
503.95	42813.08
504.13	42866.91
504.30	42902.02
504.48	42803.72
504.65	43035.43
504.83	43646.31
505.01	43739.93
505.18	43936.54
505.36	44275.91
505.53	43658.01
505.71	44467.84
505.88	44500.61
506.06	44123.78
506.23	44774.45
506.41	44421.03
506.58	44921.90
506.76	44095.69
506.93	44861.05
507.11	44619.97
507.28	45425.12
507.46	44949.99
507.63	45738.75
507.81	46010.25
507.98	45162.98
508.16	45478.95
508.33	45872.16
508.50	46014.93
508.68	46288.77
508.85	46726.46
509.03	46698.37
509.20	47112.64
509.38	46948.81
509.55	46782.63
509.73	46953.49
509.90	46777.95
510.08	46939.44
510.25	47166.48
510.42	47545.64
510.60	47021.36
510.77	47419.25
510.95	48004.39
511.12	47440.32
511.30	47803.10
511.47	48392.92
511.64	48406.96
511.82	48706.55
511.99	48402.28
512.17	48720.59
512.34	48774.42
512.51	48498.24
512.69	49132.53
512.86	49008.48
513.04	49074.01
513.21	49413.39
513.38	49216.78
513.56	49565.52
513.73	49048.27
513.90	49514.03
514.08	49577.23
514.25	49787.88
514.43	49549.14
514.60	50007.89
514.77	50000.86
514.95	50014.91
515.12	50057.04
515.29	50138.96
515.47	50351.94
515.64	50782.60
515.81	50099.17
515.99	50773.24
516.16	50815.37
516.33	50845.80
516.51	50827.07
516.68	50586.00
516.85	51051.76
517.03	50906.65
517.20	51154.75
517.37	51391.14
517.54	51201.56
517.72	51636.90
517.89	51231.99
518.06	51208.58
518.24	51522.21
518.41	51412.21
518.58	51552.64
518.75	51531.57
518.93	51896.70
519.10	51941.17
519.27	52163.52
519.45	52184.58
519.62	51971.60
519.79	52184.58
519.96	52420.98
520.14	52446.72
520.31	52257.14
520.48	52851.64
520.65	52399.91
520.83	52811.85
521.00	52769.72
521.17	52650.35
521.34	52521.62
521.52	53008.45
521.69	52882.06
521.86	53371.24
522.03	53385.28
522.20	53296.34
522.38	53221.44
522.55	53317.40
522.72	53441.45
522.89	53401.66
523.07	53631.04
523.24	53408.68
523.41	53745.72
523.58	53638.06
523.75	53822.96
523.92	53687.21
524.10	53640.40
524.27	54288.73
524.44	54103.82
524.61	54387.03
524.78	54286.39
524.96	54195.10
525.13	54270.00
525.30	54370.64
525.47	54468.95
525.64	54333.20
525.81	54602.36
525.98	54415.11
526.16	54651.51
526.33	54604.70
526.50	54813.01
526.67	54756.83
526.84	54607.04
527.01	54543.84
527.18	54983.86
527.36	54997.91
527.53	55468.36
527.70	55306.86
527.87	55489.42
528.04	55119.62
528.21	55021.31
528.38	55299.84
528.55	55334.95
528.72	55035.36
528.89	55351.33
529.07	55449.63
529.24	55435.59
529.41	55447.29
529.58	55620.49
529.75	55447.29
529.92	55669.64
530.09	55627.51
530.26	55627.51
530.43	55564.32
530.60	55800.71
530.77	55908.38
530.94	55854.54
531.11	55767.94
531.28	56013.70
531.46	55997.32
531.63	56404.57
531.80	56451.38
531.97	56516.92
532.14	56217.33
532.31	56308.61
532.48	56240.73
532.65	56317.97
532.82	56294.56
532.99	56266.48
533.16	56432.66
533.33	56498.19
533.50	56701.82
533.67	56683.09
533.84	56530.96
534.01	56540.32
534.18	56697.14
534.35	56914.81
534.52	56865.66
534.69	56963.96
534.86	57123.11
535.03	56750.97
535.20	57038.86
535.37	57109.07
535.54	56966.30
535.71	57027.15
535.88	56973.32
536.05	57092.69
536.22	57399.30
536.38	57340.78
536.55	57324.40
536.72	57471.85
536.89	57038.86
537.06	57029.49
537.23	57317.38
537.40	57338.44
537.57	57560.79
537.74	57368.87
537.91	57787.83
538.08	57712.93
538.25	57539.73
538.42	57392.28
538.59	57822.93
538.75	57546.75
538.92	57682.50
539.09	57785.49
539.26	57914.22
539.43	57888.47
539.60	57918.90
539.77	57977.41
539.94	58225.51
540.11	57909.53
540.28	58232.53
540.44	58038.26
540.61	57939.96
540.78	58110.82
540.95	58192.74
541.12	58272.32
541.29	58262.96
541.46	58225.51
541.62	58143.59
541.79	58148.27
541.96	57860.38
542.13	58211.46
542.30	58560.20
542.47	58492.33
542.63	58773.19
542.80	58513.39
542.97	58855.11
543.14	58618.72
543.31	58719.36
543.48	58607.01
543.64	58993.20
543.81	58878.52
543.98	58742.77
544.15	58745.11
544.32	59194.49
544.48	58986.18
544.65	58815.32
544.82	58993.20
544.99	58962.78
545.16	59065.76
545.32	58962.78
545.49	59386.41
545.66	59374.71
545.83	59330.24
546.00	59346.62
546.16	59327.90
546.33	59150.02
546.50	58986.18
546.67	59320.88
546.83	59028.31
547.00	59309.18
547.17	59313.86
547.34	59374.71
547.50	59512.80
547.67	59725.79
547.84	59557.27
548.00	59728.13
548.17	59650.89
548.34	59650.89
548.51	59817.07
548.67	59730.47
548.84	59667.28
549.01	59737.49
549.18	59667.28
549.34	59681.32
549.51	59669.62
549.68	59814.73
549.84	59788.98
550.01	59934.10
550.18	59714.09
550.34	59779.62
550.51	59980.91
550.68	60200.92
550.84	59868.56
551.01	60058.15
551.18	59920.05
551.34	59896.65
551.51	59978.57
551.68	60060.49
551.84	60161.13
552.01	60186.88
552.18	60083.89
552.34	60119.00
552.51	60369.44
552.68	60088.57
552.84	60219.64
553.01	60355.39
553.18	60111.98
553.34	60453.70
553.51	60495.83
553.67	60523.91
553.84	60807.12
554.01	60563.70
554.17	60631.58
554.34	60540.30
554.51	60371.78
554.67	60608.17
554.84	60811.80
555.00	60432.63
555.17	60591.79
555.33	60914.78
555.50	60671.37
555.67	60626.90
555.83	60526.25
556.00	60542.64
556.16	60762.65
556.33	60711.16
556.50	60863.29
556.66	60910.10
556.83	60802.44
556.99	60966.27
557.16	60938.19
557.32	61038.83
557.49	61071.60
557.65	60844.57
557.82	60790.73
557.98	60856.27
558.15	60933.51
558.32	61064.58
558.48	61153.52
558.65	61209.69
558.81	61167.56
558.98	61113.73
559.14	61249.48
559.31	60949.89
559.47	61069.26
559.64	61221.39
559.80	61052.87
559.97	61242.46
560.13	61085.64
560.30	61179.26
560.46	61188.63
560.63	61109.05
560.79	61130.11
560.96	61223.73
561.12	61303.31
561.29	61387.57
561.45	61158.20
561.61	61310.33
561.78	61446.08
561.94	61382.89
562.11	61488.21
562.27	61359.48
562.44	61422.68
562.60	61647.37
562.77	61432.04
562.93	61446.08
563.10	61609.92
563.26	61467.15
563.42	61708.22
563.59	61539.71
563.75	61572.47
563.92	61628.65
564.08	61455.45
564.24	61546.73
564.41	61513.96
564.57	61436.72
564.74	61511.62
564.90	61743.33
565.07	61719.93
565.23	61694.18
565.39	61762.06
565.56	61897.81
565.72	61523.32
565.88	61443.74
566.05	61528.00
566.21	61567.79
566.38	61731.63
566.54	61813.55
566.70	61862.70
566.87	62092.07
567.03	61787.80
567.19	62000.79
567.36	61839.29
567.52	61645.03
567.68	61675.46
567.85	61621.62
568.01	61649.71
568.17	61743.33
568.34	62141.22
568.50	61963.34
568.66	62003.13
568.83	62124.84
568.99	61818.23
569.15	61687.16
569.32	61612.26
569.48	61733.97
569.64	61855.68
569.81	61942.28
569.97	61970.36
570.13	62021.86
570.30	61930.58
570.46	61984.41
570.62	61904.83
570.78	61909.51
570.95	61764.40
571.11	61965.68
571.27	61883.76
571.43	61914.19
571.60	61963.34
571.76	62122.50
571.92	61991.43
572.09	62045.26
572.25	61888.45
572.41	62232.50
572.57	61858.02
572.74	62234.84
572.90	61752.69
573.06	61998.45
573.22	61961.00
573.38	62152.93
573.55	62033.56
573.71	62401.02
573.87	62408.04
574.03	62127.18
574.20	61925.89
574.36	61829.93
574.52	61970.36
574.68	62059.30
574.84	62138.88
575.01	62099.09
575.17	62173.99
575.33	62211.44
575.49	62307.40
575.65	62443.15
575.82	62541.45
575.98	62078.03
576.14	62305.06
576.30	62202.08
576.46	61865.04
576.62	62148.24
576.79	62361.23
576.95	62122.50
577.11	62211.44
577.27	62269.95
577.43	62403.36
577.59	62291.02
577.75	62141.22
577.92	62085.05
578.08	62120.16
578.24	62379.96
578.40	62040.58
578.56	62424.43
578.72	62314.42
578.88	62436.13
579.04	62534.43
579.21	62291.02
579.37	62295.70
579.53	62431.45
579.69	62110.80
579.85	62300.38
580.01	62309.74
580.17	62150.59
580.33	62326.13
580.49	62574.22
580.65	62368.26
580.82	62529.75
580.98	62188.03
581.14	62401.02
581.30	62504.01
581.46	62237.19
581.62	62237.19
581.78	62178.67
581.94	62501.67
582.10	62281.66
582.26	62466.56
582.42	62178.67
582.58	62454.86
582.74	62590.61
582.90	62653.80
583.06	62508.69
583.22	62298.04
583.38	62639.76
583.54	62309.74
583.70	62253.57
583.86	62286.34
584.02	62501.67
584.18	62499.33
584.34	62492.30
584.50	62496.98
584.66	62429.11
584.82	62408.04
584.98	62583.58
585.14	62361.23
585.30	62438.47
585.46	62386.98
585.62	62429.11
585.78	62553.16
585.94	62291.02
586.10	62562.52
586.26	62541.45
586.42	62592.95
586.58	62728.70
586.74	62461.88
586.90	62239.53
587.06	62314.42
587.22	62621.03
587.38	62459.54
587.54	62611.67
587.70	62592.95
587.86	62688.91
588.02	62649.12
588.18	62681.89
588.34	62637.42
588.49	62614.01
588.65	62438.47
588.81	62447.83
