SpectraSuite Data File
++++++++++++++++++++++++++++++++++++
Date: Fri Oct 04 11:48:24 GMT-05:00 2013
User: price-jones
Dark Spectrum Present: No
Reference Spectrum Present: No
Number of Sampled Component Spectra: 1
Spectrometers: USB2+H05261
Integration Time (usec): 100000 (USB2+H05261)
Spectra Averaged: 1 (USB2+H05261)
Boxcar Smoothing: 0 (USB2+H05261)
Correct for Electrical Dark: No (USB2+H05261)
Strobe/Lamp Enabled: No (USB2+H05261)
Correct for Detector Non-linearity: No (USB2+H05261)
Correct for Stray Light: No (USB2+H05261)
Number of Pixels in Processed Spectrum: 2048
>>>>>Begin Processed Spectral Data<<<<<
365.73	16.38
365.92	16.38
366.12	16.38
366.32	0.00
366.52	0.00
366.72	0.00
366.91	0.00
367.11	0.00
367.31	0.00
367.51	0.00
367.70	0.00
367.90	0.00
368.10	0.00
368.30	0.00
368.49	0.00
368.69	0.00
368.89	0.00
369.09	0.00
369.28	0.00
369.48	0.00
369.68	0.00
369.87	0.00
370.07	25.75
370.27	0.00
370.47	191.92
370.66	435.34
370.86	463.43
371.06	557.05
371.25	566.41
371.45	489.17
371.65	568.75
371.84	568.75
372.04	458.74
372.24	550.03
372.44	489.17
372.63	550.03
372.83	603.86
373.03	606.20
373.22	592.16
373.42	692.80
373.62	657.69
373.81	688.12
374.01	634.29
374.21	711.52
374.40	760.67
374.60	718.54
374.79	685.78
374.99	748.97
375.19	716.20
375.38	734.93
375.58	711.52
375.78	858.98
375.97	732.59
376.17	821.53
376.37	800.46
376.56	805.14
376.76	779.40
376.95	760.67
377.15	784.08
377.35	786.42
377.54	826.21
377.74	833.23
377.93	777.06
378.13	753.65
378.33	877.70
378.52	943.24
378.72	926.85
378.91	830.89
379.11	805.14
379.31	823.87
379.50	924.51
379.70	779.40
379.89	898.77
380.09	896.43
380.28	896.43
380.48	936.21
380.68	945.58
380.87	880.04
381.07	983.02
381.26	976.00
381.46	973.66
381.65	1039.20
381.85	997.07
382.04	1055.58
382.24	1020.47
382.43	985.37
382.63	889.40
382.83	1095.37
383.02	1067.28
383.22	945.58
383.41	1004.09
383.61	1008.77
383.80	1025.15
384.00	1055.58
384.19	1032.18
384.39	1163.25
384.58	1128.14
384.78	1074.31
384.97	1207.72
385.17	1128.14
385.36	1097.71
385.56	1142.18
385.75	1095.37
385.95	1170.27
386.14	1109.41
386.34	1135.16
386.53	1184.31
386.72	1125.80
386.92	1179.63
387.11	1263.89
387.31	1277.93
387.50	1247.51
387.70	1130.48
387.89	1235.80
388.09	1270.91
388.28	1299.00
388.48	1313.04
388.67	1329.42
388.86	1289.64
389.06	1299.00
389.25	1350.49
389.45	1359.85
389.64	1392.62
389.84	1277.93
390.03	1392.62
390.22	1383.26
390.42	1336.45
390.61	1369.21
390.81	1315.38
391.00	1392.62
391.19	1394.96
391.39	1359.85
391.58	1514.33
391.78	1441.77
391.97	1511.99
392.16	1462.83
392.36	1514.33
392.55	1519.01
392.75	1446.45
392.94	1514.33
393.13	1572.84
393.33	1558.80
393.52	1568.16
393.71	1675.82
393.91	1603.27
394.10	1577.52
394.29	1668.80
394.49	1650.08
394.68	1717.95
394.88	1563.48
395.07	1750.72
395.26	1668.80
395.46	1703.91
395.65	1727.32
395.84	1771.79
396.04	1823.28
396.23	1778.81
396.42	1734.34
396.62	1694.55
396.81	1741.36
397.00	1834.98
397.19	1888.81
397.39	1720.29
397.58	1743.70
397.77	1839.66
397.97	1914.56
398.16	1921.58
398.35	1905.20
398.55	1956.69
398.74	1888.81
398.93	2047.97
399.12	2031.58
399.32	2047.97
399.51	2045.63
399.70	2087.76
399.90	2106.48
400.09	2085.42
400.28	2080.74
400.47	2057.33
400.67	2253.94
400.86	2094.78
401.05	2211.81
401.24	2237.55
401.44	2260.96
401.63	2169.68
401.82	2235.21
402.01	2211.81
402.21	2335.85
402.40	2169.68
402.59	2235.21
402.78	2366.28
402.97	2382.67
403.17	2469.27
403.36	2385.01
403.55	2356.92
403.74	2445.86
403.93	2464.58
404.13	2534.80
404.32	2462.24
404.51	2478.63
404.70	2490.33
404.89	2511.39
405.09	2738.43
405.28	2534.80
405.47	2661.19
405.66	2675.23
405.85	2689.28
406.05	2651.83
406.24	2785.24
406.43	2888.22
406.62	2745.45
406.81	2787.58
407.00	2675.23
407.20	2813.32
407.39	2855.45
407.58	2743.11
407.77	2885.88
407.96	2899.92
408.15	3087.17
408.34	2857.79
408.54	2946.73
408.73	2906.95
408.92	3122.27
409.11	3110.57
409.30	3119.93
409.49	3190.15
409.68	3157.38
409.87	3084.83
410.07	3251.00
410.26	3117.59
410.45	3199.51
410.64	3187.81
410.83	3286.11
411.02	3267.39
411.21	3424.20
411.40	3286.11
411.59	3265.05
411.78	3440.59
411.98	3332.92
412.17	3482.72
412.36	3438.25
412.55	3625.49
412.74	3618.47
412.93	3478.04
413.12	3487.40
413.31	3770.60
413.50	3667.62
413.69	3777.62
413.88	3796.35
414.07	3831.46
414.26	3770.60
414.45	3782.31
414.64	3882.95
414.83	4058.49
415.02	3896.99
415.22	4170.83
415.41	4088.92
415.60	4138.07
415.79	4002.32
415.98	4334.67
416.17	4278.50
416.36	4203.60
416.55	4315.95
416.74	4369.78
416.93	4496.17
417.12	4418.93
417.31	4447.02
417.50	4283.18
417.69	4561.70
417.88	4568.73
418.07	4526.60
418.26	4573.41
418.45	4622.56
418.64	4725.54
418.83	4741.93
419.02	4641.28
419.21	4650.64
419.39	4758.31
419.58	4702.14
419.77	4702.14
419.96	4940.87
420.15	4894.06
420.34	4903.42
420.53	4959.60
420.72	4940.87
420.91	5027.47
421.10	5074.28
421.29	5158.54
421.48	4854.27
421.67	4931.51
421.86	5172.58
422.05	5146.84
422.24	5128.11
422.43	5301.31
422.61	5247.48
422.80	5378.55
422.99	5305.99
423.18	5245.14
423.37	5280.25
423.56	5287.27
423.75	5268.55
423.94	5128.11
424.13	4898.74
424.32	5025.13
424.50	5205.35
424.69	5390.25
424.88	5378.55
425.07	5434.72
425.26	5139.82
425.45	5313.02
425.64	5242.80
425.83	5305.99
426.01	5387.91
426.20	5310.68
426.39	5277.91
426.58	5411.32
426.77	5298.97
426.96	5603.24
427.15	5511.96
427.33	5366.85
427.52	5558.77
427.71	5699.20
427.90	5481.53
428.09	5638.35
428.28	5647.71
428.46	5713.25
428.65	5816.23
428.84	5867.72
429.03	5853.68
429.22	5614.95
429.40	5865.38
429.59	6012.84
429.78	5577.50
429.97	5621.97
430.16	5605.58
430.34	6003.47
430.53	5994.11
430.72	5954.32
430.91	5989.43
431.10	6052.63
431.28	6183.70
431.47	6083.05
431.66	6345.19
431.85	6080.71
432.03	6356.90
432.22	6403.71
432.41	6230.51
432.60	6413.07
432.79	6370.94
432.97	6462.22
433.16	6324.13
433.35	6476.26
433.54	6413.07
433.72	6523.07
433.91	6506.69
434.10	6438.81
434.28	6506.69
434.47	6717.34
434.66	6661.16
434.85	6757.13
435.03	6794.58
435.22	6867.13
435.41	6906.92
435.59	6722.02
435.78	6949.05
435.97	6977.14
436.16	6935.01
436.34	6862.45
436.53	6958.41
436.72	7101.19
436.90	6942.03
437.09	7155.02
437.28	7117.57
437.46	7208.85
437.65	7178.42
437.84	7276.73
438.02	7220.55
438.21	7288.43
438.40	7335.24
438.58	7496.74
438.77	7506.10
438.96	7398.43
439.14	7723.77
439.33	7744.83
439.52	7669.94
439.70	7779.94
439.89	7639.51
440.08	7850.16
440.26	7822.07
440.45	7960.16
440.63	7981.23
440.82	8269.11
441.01	8084.21
441.19	8257.41
441.38	8428.27
441.57	8444.65
441.75	8376.78
441.94	8454.02
442.12	8578.06
442.31	8922.12
442.50	8608.49
442.68	8720.84
442.87	8629.56
443.05	8765.31
443.24	9029.79
443.43	8706.79
443.61	8966.59
443.80	9352.78
443.98	8837.86
444.17	8545.30
444.35	8994.68
444.54	9156.18
444.73	9095.32
444.91	8931.48
445.10	9202.99
445.28	9018.08
445.47	9034.47
445.65	8903.40
445.84	9081.28
446.02	9008.72
446.21	9121.07
446.39	8933.82
446.58	9270.86
446.77	9184.26
446.95	8788.71
447.14	9008.72
447.32	9327.03
447.51	8959.57
447.69	9188.94
447.88	9074.26
448.06	9217.03
448.25	9324.69
448.43	9303.63
448.62	9217.03
448.80	9315.33
448.99	9352.78
449.17	9444.06
449.36	9404.27
449.54	9657.05
449.73	9741.31
449.91	9797.48
450.10	9504.92
450.28	9760.03
450.46	9666.41
450.65	9856.00
450.83	9879.40
451.02	9825.57
451.20	9720.24
451.39	10024.51
451.57	9776.42
451.76	9724.93
451.94	10085.37
452.13	10083.03
452.31	10026.86
452.49	9902.81
452.68	10244.52
452.86	10200.05
453.05	10349.85
453.23	10366.23
453.42	10061.96
453.60	10221.12
453.78	10307.72
453.97	10244.52
454.15	10352.19
454.34	10195.37
454.52	10441.13
454.70	10270.27
454.89	10712.63
455.07	10628.37
455.26	10855.40
455.44	10654.12
455.62	10799.23
455.81	10846.04
455.99	10977.11
456.17	10944.34
456.36	11040.31
456.54	10869.45
456.73	11056.69
456.91	11311.81
457.09	11194.78
457.28	11477.99
457.46	11239.25
457.64	11426.50
457.83	11384.37
458.01	11269.68
458.19	11681.61
458.38	11140.95
458.56	11737.79
458.74	11541.18
458.93	11538.84
459.11	11756.51
459.29	11599.70
459.48	11838.43
459.66	11522.46
459.84	12084.19
460.03	11901.62
460.21	12173.13
460.39	11997.59
460.57	11791.62
460.76	12161.42
460.94	12142.70
461.12	12098.23
461.31	12320.58
461.49	12093.55
461.67	12147.38
461.85	12561.66
462.04	12278.45
462.22	12762.94
462.40	12404.84
462.59	12496.12
462.77	12734.85
462.95	12386.12
463.13	12793.37
463.32	12519.53
463.50	12847.20
463.68	12882.31
463.86	12575.70
464.05	12578.04
464.23	12746.56
464.41	12823.80
464.59	12521.87
464.78	13104.66
464.96	12931.46
465.14	12844.86
465.32	13296.58
465.50	13188.92
465.69	13245.09
465.87	13209.98
466.05	13474.46
466.23	13298.92
466.41	13556.38
466.60	13776.39
466.78	13268.50
466.96	13174.88
467.14	13453.40
467.32	13668.73
467.51	13767.03
467.69	13298.92
467.87	13432.33
468.05	13848.95
468.23	13474.46
468.41	13544.68
468.60	13568.09
468.78	14139.18
468.96	13685.11
469.14	13757.67
469.32	14054.92
469.50	13745.97
469.69	14373.23
469.87	14347.48
470.05	14216.41
470.23	14438.76
470.41	14202.37
470.59	14443.45
470.77	14340.46
470.95	14607.28
471.14	14616.65
471.32	14249.18
471.50	14897.51
471.68	14946.66
471.86	14684.52
472.04	15007.52
472.22	15529.45
472.40	14841.34
472.58	15295.40
472.77	15197.10
472.95	15492.01
473.13	15681.59
473.31	15262.63
473.49	15428.81
473.67	15585.63
473.85	15506.05
474.03	15847.77
474.21	16100.55
474.39	16032.67
474.57	16240.98
474.75	16217.57
474.93	16622.48
475.12	16505.46
475.30	16393.11
475.48	16531.20
475.66	16608.44
475.84	16795.68
476.02	16645.89
476.20	16809.73
476.38	17266.13
476.56	17451.03
476.74	17551.68
476.92	17322.30
477.10	17472.10
477.28	17708.49
477.46	17816.16
477.64	18335.76
477.82	18263.20
478.00	18698.54
478.18	18302.99
478.36	18523.00
478.54	18824.93
478.72	18759.39
478.90	18721.95
479.08	19178.35
479.26	19232.18
479.44	19229.84
479.62	19819.66
479.80	19857.10
479.98	19714.33
480.16	20182.44
480.34	20070.09
480.52	20692.68
480.70	20166.06
480.88	20119.24
481.06	20563.95
481.24	20477.35
481.41	21202.91
481.59	21099.93
481.77	21209.93
481.95	21561.02
482.13	21673.36
482.31	21427.60
482.49	22059.55
482.67	22242.11
482.85	22527.66
483.03	22848.31
483.21	22920.87
483.39	23044.91
483.57	23000.44
483.74	23129.17
483.92	23484.94
484.10	23358.55
484.28	24095.82
484.46	24388.38
484.64	24465.62
484.82	24065.39
485.00	24151.99
485.18	24795.64
485.35	25326.94
485.53	25336.30
485.71	25432.26
485.89	26082.93
486.07	25759.94
486.25	25895.69
486.43	25940.16
486.61	26490.18
486.78	26302.94
486.96	26490.18
487.14	27185.32
487.32	26977.01
487.50	27637.05
487.68	27648.75
487.85	27761.09
488.03	27995.15
488.21	28582.62
488.39	28402.40
488.57	28690.29
488.75	28933.70
488.92	28992.22
489.10	29635.86
489.28	29584.37
489.46	30103.97
489.64	30045.46
489.81	30286.53
489.99	30852.94
490.17	30616.55
490.35	30824.86
490.53	31250.83
490.70	31297.64
490.88	31524.68
491.06	32009.17
491.24	31653.40
491.41	31842.99
491.59	32322.80
491.77	32425.78
491.95	32985.17
492.13	33088.15
492.30	33401.79
492.48	33256.67
492.66	33167.73
492.84	33656.90
493.01	33916.70
493.19	33624.14
493.37	34153.10
493.54	34792.06
493.72	34670.36
493.90	34579.07
494.08	34986.33
494.25	35543.38
494.43	35693.17
494.61	35651.04
494.79	36252.56
494.96	36257.24
495.14	36168.30
495.32	36519.38
495.49	36676.19
495.67	36589.59
495.85	36884.50
496.02	37207.50
496.20	37436.87
496.38	37436.87
496.55	37565.60
496.73	38185.84
496.91	38078.18
497.09	38391.81
497.26	38436.28
497.44	38705.44
497.62	38831.83
497.79	39203.97
497.97	39079.92
498.14	39665.06
498.32	39894.43
498.50	40500.63
498.67	40224.45
498.85	40006.78
499.03	40086.36
499.20	40683.19
499.38	40531.06
499.56	41193.43
499.73	41329.18
499.91	41427.48
500.08	41462.59
500.26	41598.34
500.44	41361.95
500.61	41706.01
500.79	41921.34
500.97	42274.76
501.14	42614.13
501.32	42204.54
501.49	41855.80
501.67	42494.77
501.84	42976.92
502.02	42831.80
502.20	43487.15
502.37	43636.95
502.55	43250.76
502.72	43569.07
502.90	43929.51
503.07	43674.40
503.25	43650.99
503.43	43983.35
503.60	43995.05
503.78	44500.61
503.95	44432.73
504.13	44472.52
504.30	44608.27
504.48	44477.20
504.65	44828.28
504.83	45261.28
505.01	45406.39
505.18	45284.68
505.36	45769.18
505.53	45635.77
505.71	45790.24
505.88	45701.30
506.06	45600.66
506.23	46209.20
506.41	46258.35
506.58	46260.69
506.76	46691.35
506.93	46761.56
507.11	46485.38
507.28	46248.99
507.46	46885.61
507.63	47260.10
507.81	47210.95
507.98	47065.83
508.16	47175.84
508.33	47515.22
508.50	47929.49
508.68	47650.97
508.85	48198.65
509.03	47655.65
509.20	48175.25
509.38	48559.09
509.55	48641.01
509.73	48523.99
509.90	48931.24
510.08	48460.79
510.25	48844.64
510.42	49139.55
510.60	49172.31
510.77	49478.92
510.95	49392.33
511.12	49392.33
511.30	49357.22
511.47	49928.31
511.64	49593.61
511.82	50263.00
511.99	49673.19
512.17	49811.28
512.34	50218.53
512.51	50244.28
512.69	50351.94
512.86	50225.56
513.04	50637.49
513.21	50997.93
513.38	50731.11
513.56	50738.13
513.73	50630.47
513.90	50878.57
514.08	50782.60
514.25	51124.32
514.43	51484.76
514.60	51442.63
514.77	51262.41
514.95	51423.91
515.12	51365.40
515.29	51274.12
515.47	51941.17
515.64	51952.87
515.81	51941.17
515.99	52055.85
516.16	52207.99
516.33	52535.66
516.51	52353.10
516.68	51920.10
516.85	52236.08
517.03	52479.49
517.20	52704.18
517.37	52608.22
517.54	52608.22
517.72	52732.27
517.89	52638.65
518.06	52989.73
518.24	52907.81
518.41	52853.98
518.58	52882.06
518.75	53034.20
518.93	53258.89
519.10	53188.67
519.27	53394.64
519.45	53104.41
519.62	53511.67
519.79	53200.38
519.96	53645.08
520.14	53401.66
520.31	53546.78
520.48	53766.79
520.65	53727.00
520.83	54042.97
521.00	53825.30
521.17	53808.92
521.34	54073.40
521.52	53954.03
521.69	54253.62
521.86	54206.81
522.03	54770.88
522.20	54611.72
522.38	54721.72
522.55	54789.60
522.72	54784.92
522.89	54642.15
523.07	54937.05
523.24	54677.25
523.41	55182.81
523.58	54597.68
523.75	54763.85
523.92	55096.21
524.10	54932.37
524.27	55178.13
524.44	55356.01
524.61	55702.41
524.78	55482.40
524.96	55430.91
525.13	55215.58
525.30	55269.41
525.47	55749.22
525.64	55590.06
525.81	55700.07
525.98	55805.39
526.16	55760.92
526.33	55723.47
526.50	56095.62
526.67	55838.16
526.84	56018.38
527.01	55976.25
527.18	56158.81
527.36	56140.09
527.53	56481.81
527.70	56465.42
527.87	56474.79
528.04	55985.61
528.21	56640.96
528.38	56355.42
528.55	56350.74
528.72	56711.18
528.89	56612.88
529.07	56619.90
529.24	56505.21
529.41	56530.96
529.58	56898.42
529.75	56463.08
529.92	56442.02
530.09	56940.55
530.26	56858.63
530.43	57038.86
530.60	56835.23
530.77	56959.28
530.94	57167.58
531.11	56935.87
531.28	57095.03
531.46	57036.51
531.63	57301.00
531.80	57167.58
531.97	57293.97
532.14	57645.05
532.31	57216.74
532.48	57488.24
532.65	57614.63
532.82	57141.84
532.99	57633.35
533.16	57457.81
533.33	57893.15
533.50	58092.10
533.67	57841.66
533.84	57832.30
534.01	57712.93
534.18	57584.20
534.35	57918.90
534.52	57832.30
534.69	58234.87
534.86	58188.06
535.03	57719.95
535.20	57958.69
535.37	58239.55
535.54	58417.43
535.71	58064.01
535.88	57965.71
536.05	58445.52
536.22	58274.66
536.38	58429.13
536.55	58646.80
536.72	58539.14
536.89	58284.02
537.06	58464.24
537.23	58466.58
537.40	58550.84
537.57	58356.58
537.74	58637.44
537.91	58796.60
538.08	58614.04
538.25	58749.79
538.42	58625.74
538.59	58721.70
538.75	58731.06
538.92	58941.71
539.09	58820.00
539.26	58770.85
539.43	59068.10
539.60	58951.07
539.77	58763.83
539.94	58965.12
540.11	59028.31
540.28	59405.14
540.44	59030.65
540.61	59124.27
540.78	59107.89
540.95	59374.71
541.12	59304.49
541.29	59346.62
541.46	59353.65
541.62	59276.41
541.79	59306.83
541.96	59311.52
542.13	59426.20
542.30	59285.77
542.47	59540.89
542.63	59693.02
542.80	59583.02
542.97	59852.18
543.14	59765.58
543.31	59758.56
543.48	59784.30
543.64	59950.48
543.81	60140.07
543.98	59941.12
544.15	60076.87
544.32	60212.62
544.48	60189.22
544.65	59868.56
544.82	60278.16
544.99	59882.61
545.16	60086.23
545.32	60149.43
545.49	60369.44
545.66	60554.34
545.83	60671.37
546.00	60427.95
546.16	60409.23
546.33	59966.87
546.50	59983.25
546.67	60563.70
546.83	60079.21
547.00	60439.65
547.17	60257.09
547.34	60399.86
547.50	60692.43
547.67	60764.99
547.84	60533.28
548.00	60575.40
548.17	60643.28
548.34	60647.96
548.51	61066.92
548.67	60865.63
548.84	60860.95
549.01	60587.11
549.18	61064.58
549.34	60788.39
549.51	60790.73
549.68	60673.71
549.84	60849.25
550.01	61038.83
550.18	60839.89
550.34	60970.96
550.51	61048.19
550.68	61127.77
550.84	60685.41
551.01	60900.74
551.18	61045.85
551.34	60898.40
551.51	60924.14
551.68	61057.56
551.84	61284.59
552.01	61123.09
552.18	61223.73
552.34	61027.13
552.51	61448.42
552.68	61251.82
552.84	61118.41
553.01	61518.64
553.18	61336.08
553.34	61310.33
553.51	61460.13
553.67	61446.08
553.84	61748.01
554.01	61792.48
554.17	61598.22
554.34	61588.86
554.51	61556.09
554.67	61645.03
554.84	61811.21
555.00	61740.99
555.17	61698.86
555.33	61766.74
555.50	61731.63
555.67	61563.11
555.83	61888.45
556.00	61698.86
556.16	62003.13
556.33	61764.40
556.50	61602.90
556.66	61909.51
556.83	61851.00
556.99	62211.44
557.16	61872.06
557.32	62117.82
557.49	61984.41
557.65	61991.43
557.82	61797.16
557.98	61806.53
558.15	62094.41
558.32	62155.27
558.48	62148.24
558.65	62286.34
558.81	62131.86
558.98	62185.69
559.14	62122.50
559.31	62173.99
559.47	61991.43
559.64	62166.97
559.80	62185.69
559.97	62248.89
560.13	62026.54
560.30	62115.48
560.46	62232.50
560.63	62035.90
560.79	62237.19
560.96	62347.19
561.12	62379.96
561.29	62171.65
561.45	62342.51
561.61	62396.34
561.78	62452.51
561.94	62632.74
562.11	62389.32
562.27	62562.52
562.44	62316.76
562.60	62375.28
562.77	62625.71
562.93	62347.19
563.10	62695.93
563.26	62564.86
563.42	62880.83
563.59	62630.40
563.75	62548.48
563.92	62827.00
564.08	62553.16
564.24	62742.74
564.41	62473.58
564.57	62567.20
564.74	62646.78
564.90	62658.48
565.07	62721.68
565.23	62728.70
565.39	62794.23
565.56	62920.62
565.72	62709.97
565.88	62702.95
566.05	62803.59
566.21	62663.16
566.38	62742.74
566.54	62784.87
566.70	62986.16
566.87	63061.05
567.03	62796.57
567.19	63288.09
567.36	62878.49
567.52	62883.17
567.68	62726.36
567.85	62712.31
568.01	62831.68
568.17	62906.58
568.34	63009.56
568.50	62791.89
568.66	62777.85
568.83	62995.52
568.99	62794.23
569.15	62808.28
569.32	62937.01
569.48	62946.37
569.64	62995.52
569.81	62927.64
569.97	62803.59
570.13	63030.63
570.30	62969.77
570.46	63100.84
570.62	62976.79
570.78	62915.94
570.95	62883.17
571.11	63107.86
571.27	63018.92
571.43	63068.08
571.60	63171.06
571.76	63131.27
571.92	63327.87
572.09	63229.57
572.25	63196.80
572.41	63182.76
572.57	63084.46
572.74	63058.71
572.90	62815.30
573.06	63072.76
573.22	63182.76
573.38	63224.89
573.55	63112.55
573.71	63529.16
573.87	63409.79
574.03	63091.48
574.20	63168.72
574.36	63238.93
574.52	63281.06
574.68	63243.62
574.84	63152.33
575.01	63267.02
575.17	63238.93
575.33	63173.40
575.49	63283.40
575.65	63430.86
575.82	63388.73
575.98	63187.44
576.14	63491.71
576.30	63362.98
576.46	63220.21
576.62	63194.46
576.79	63362.98
576.95	63166.38
577.11	63201.49
577.27	63348.94
577.43	63370.00
577.59	63124.25
577.75	63360.64
577.92	63414.47
578.08	63295.11
578.24	63124.25
578.40	63313.83
578.56	63355.96
578.72	63440.22
578.88	63582.99
579.04	63550.23
579.21	63318.51
579.37	63454.26
579.53	63437.88
579.69	63229.57
579.85	63255.32
580.01	63360.64
580.17	63164.04
580.33	63330.22
580.49	63533.84
580.65	63559.59
580.82	63662.57
580.98	63477.67
581.14	63398.09
581.30	63522.14
581.46	63484.69
581.62	63393.41
581.78	63236.59
581.94	63515.12
582.10	63414.47
582.26	63421.50
582.42	63400.43
582.58	63508.10
582.74	63629.80
582.90	63489.37
583.06	63519.80
583.22	63419.16
583.38	63634.48
583.54	63498.73
583.70	63215.53
583.86	63465.97
584.02	63594.70
584.18	63674.27
584.34	63601.72
584.50	63678.96
584.66	63622.78
584.82	63529.16
584.98	63636.83
585.14	63468.31
585.30	63433.20
585.46	63447.24
585.62	63330.22
585.78	63702.36
585.94	63370.00
586.10	63618.10
586.26	63587.67
586.42	63725.77
586.58	63917.69
586.74	63461.29
586.90	63543.20
587.06	63634.48
587.22	63664.91
587.38	63646.19
587.54	63826.41
587.70	63931.73
587.86	63709.38
588.02	63758.53
588.18	63948.12
588.34	63716.40
588.49	63636.83
588.65	63482.35
