SpectraSuite Data File
++++++++++++++++++++++++++++++++++++
Date: Fri Oct 04 11:48:37 GMT-05:00 2013
User: price-jones
Dark Spectrum Present: No
Reference Spectrum Present: No
Number of Sampled Component Spectra: 1
Spectrometers: USB2+H05261
Integration Time (usec): 100000 (USB2+H05261)
Spectra Averaged: 1 (USB2+H05261)
Boxcar Smoothing: 0 (USB2+H05261)
Correct for Electrical Dark: No (USB2+H05261)
Strobe/Lamp Enabled: No (USB2+H05261)
Correct for Detector Non-linearity: No (USB2+H05261)
Correct for Stray Light: No (USB2+H05261)
Number of Pixels in Processed Spectrum: 2048
>>>>>Begin Processed Spectral Data<<<<<
365.73	79.58
365.92	79.58
366.12	79.58
366.32	0.00
366.52	0.00
366.72	0.00
366.91	0.00
367.11	0.00
367.31	0.00
367.51	0.00
367.70	0.00
367.90	18.72
368.10	0.00
368.30	0.00
368.49	0.00
368.69	0.00
368.89	0.00
369.09	0.00
369.28	0.00
369.48	0.00
369.68	0.00
369.87	0.00
370.07	0.00
370.27	14.04
370.47	46.81
370.66	105.32
370.86	170.86
371.06	201.29
371.25	126.39
371.45	79.58
371.65	161.50
371.84	117.03
372.04	159.16
372.24	156.82
372.44	182.56
372.63	154.48
372.83	173.20
373.03	177.88
373.22	175.54
373.42	124.05
373.62	126.39
373.81	154.48
374.01	187.24
374.21	203.63
374.40	149.79
374.60	208.31
374.79	170.86
374.99	203.63
375.19	231.71
375.38	198.95
375.58	252.78
375.78	227.03
375.97	145.11
376.17	248.10
376.37	196.60
376.56	194.26
376.76	187.24
376.95	145.11
377.15	170.86
377.35	154.48
377.54	175.54
377.74	248.10
377.93	180.22
378.13	182.56
378.33	175.54
378.52	149.79
378.72	215.33
378.91	194.26
379.11	182.56
379.31	203.63
379.50	191.92
379.70	271.50
379.89	177.88
380.09	145.11
380.28	138.09
380.48	175.54
380.68	198.95
380.87	159.16
381.07	166.18
381.26	231.71
381.46	182.56
381.65	210.65
381.85	215.33
382.04	189.58
382.24	238.73
382.43	159.16
382.63	177.88
382.83	191.92
383.02	238.73
383.22	294.91
383.41	194.26
383.61	220.01
383.80	191.92
384.00	224.69
384.19	191.92
384.39	198.95
384.58	231.71
384.78	205.97
384.97	217.67
385.17	227.03
385.36	290.23
385.56	271.50
385.75	154.48
385.95	229.37
386.14	243.42
386.34	222.35
386.53	259.80
386.72	224.69
386.92	212.99
387.11	241.08
387.31	301.93
387.50	229.37
387.70	191.92
387.89	238.73
388.09	224.69
388.28	173.20
388.48	231.71
388.67	236.39
388.86	280.86
389.06	262.14
389.25	266.82
389.45	227.03
389.64	269.16
389.84	304.27
390.03	283.20
390.22	294.91
390.42	257.46
390.61	280.86
390.81	241.08
391.00	217.67
391.19	315.97
391.39	241.08
391.58	294.91
391.78	290.23
391.97	245.76
392.16	292.57
392.36	355.76
392.55	299.59
392.75	283.20
392.94	245.76
393.13	236.39
393.33	273.84
393.52	346.40
393.71	313.63
393.91	348.74
394.10	304.27
394.29	308.95
394.49	330.02
394.68	383.85
394.88	397.89
395.07	351.08
395.26	409.59
395.46	440.02
395.65	348.74
395.84	409.59
396.04	407.25
396.23	421.30
396.42	332.36
396.62	414.27
396.81	425.98
397.00	348.74
397.19	454.06
397.39	404.91
397.58	470.45
397.77	414.27
397.97	339.38
398.16	402.57
398.35	416.62
398.55	475.13
398.74	470.45
398.93	461.09
399.12	512.58
399.32	421.30
399.51	524.28
399.70	435.34
399.90	484.49
400.09	444.70
400.28	608.54
400.47	585.13
400.67	545.34
400.86	472.79
401.05	531.30
401.24	547.69
401.44	585.13
401.63	442.36
401.82	540.66
402.01	475.13
402.21	540.66
402.40	566.41
402.59	585.13
402.78	592.16
402.97	498.53
403.17	641.31
403.36	592.16
403.55	676.41
403.74	596.84
403.93	638.97
404.13	734.93
404.32	603.86
404.51	571.09
404.70	671.73
404.89	688.12
405.09	627.26
405.28	624.92
405.47	697.48
405.66	758.33
405.85	772.38
406.05	737.27
406.24	732.59
406.43	777.06
406.62	788.76
406.81	868.34
407.00	753.65
407.20	812.17
407.39	798.12
407.58	812.17
407.77	842.59
407.96	837.91
408.15	973.66
408.34	868.34
408.54	873.02
408.73	837.91
408.92	978.34
409.11	795.78
409.30	936.21
409.49	863.66
409.68	980.68
409.87	952.60
410.07	1083.67
410.26	1043.88
410.45	947.92
410.64	1118.78
410.83	1008.77
411.02	997.07
411.21	1200.69
411.40	1111.75
411.59	1184.31
411.78	1118.78
411.98	1217.08
412.17	1146.86
412.36	1217.08
412.55	1142.18
412.74	1196.01
412.93	1256.87
413.12	1151.54
413.31	1207.72
413.50	1165.59
413.69	1306.02
413.88	1287.29
414.07	1317.72
414.26	1327.08
414.45	1324.74
414.64	1390.28
414.83	1418.36
415.02	1404.32
415.22	1455.81
415.41	1500.28
415.60	1430.07
415.79	1409.00
415.98	1437.09
416.17	1467.52
416.36	1437.09
416.55	1472.20
416.74	1462.83
416.93	1509.65
417.12	1474.54
417.31	1619.65
417.50	1626.67
417.69	1710.93
417.88	1678.16
418.07	1636.03
418.26	1706.25
418.45	1699.23
418.64	1720.29
418.83	1706.25
419.02	1664.12
419.21	1734.34
419.39	1668.80
419.58	1732.00
419.77	1732.00
419.96	1832.64
420.15	1872.43
420.34	1732.00
420.53	1813.92
420.72	1926.26
420.91	1837.32
421.10	1907.54
421.29	1781.15
421.48	1811.57
421.67	1802.21
421.86	1809.23
422.05	1975.41
422.24	1811.57
422.43	1923.92
422.61	1849.02
422.80	1949.67
422.99	1963.71
423.18	1886.47
423.37	1963.71
423.56	1923.92
423.75	1923.92
423.94	1856.04
424.13	1750.72
424.32	1863.07
424.50	1933.28
424.69	1935.62
424.88	2047.97
425.07	1966.05
425.26	1895.83
425.45	1916.90
425.64	1881.79
425.83	1980.09
426.01	1954.35
426.20	1888.81
426.39	2010.52
426.58	1954.35
426.77	1987.11
426.96	2010.52
427.15	1952.01
427.33	1975.41
427.52	2059.67
427.71	2010.52
427.90	2160.31
428.09	1961.37
428.28	2125.21
428.46	2080.74
428.65	2101.80
428.84	2225.85
429.03	2183.72
429.22	2033.93
429.40	2176.70
429.59	2176.70
429.78	2005.84
429.97	2057.33
430.16	2118.18
430.34	2165.00
430.53	2275.00
430.72	2228.19
430.91	2235.21
431.10	2160.31
431.28	2342.88
431.47	2230.53
431.66	2207.13
431.85	2258.62
432.03	2242.23
432.22	2420.11
432.41	2270.32
432.60	2340.54
432.79	2225.85
432.97	2377.98
433.16	2293.72
433.35	2335.85
433.54	2319.47
433.72	2417.77
433.91	2370.96
434.10	2457.56
434.28	2352.24
434.47	2368.62
434.66	2560.55
434.85	2434.16
435.03	2530.12
435.22	2455.22
435.41	2679.91
435.59	2544.16
435.78	2466.92
435.97	2483.31
436.16	2605.02
436.34	2612.04
436.53	2509.05
436.72	2597.99
436.90	2628.42
437.09	2621.40
437.28	2583.95
437.46	2616.72
437.65	2626.08
437.84	2658.85
438.02	2623.74
438.21	2630.76
438.40	2642.46
438.58	2759.49
438.77	2794.60
438.96	2670.55
439.14	2766.51
439.33	2780.56
439.52	2970.14
439.70	2850.77
439.89	2736.09
440.08	2949.08
440.26	2956.10
440.45	2890.56
440.63	2867.16
440.82	2963.12
441.01	2960.78
441.19	2977.16
441.38	3016.95
441.57	2913.97
441.75	3019.29
441.94	3108.23
442.12	3084.83
442.31	3192.49
442.50	3119.93
442.68	3117.59
442.87	3098.87
443.05	3265.05
443.24	3206.53
443.43	3204.19
443.61	3253.34
443.80	3206.53
443.98	3173.77
444.17	3152.70
444.35	3358.67
444.54	3353.99
444.73	3274.41
444.91	3398.46
445.10	3225.26
445.28	3213.56
445.47	3255.69
445.65	3255.69
445.84	3328.24
446.02	3272.07
446.21	3236.96
446.39	3297.81
446.58	3370.37
446.77	3178.45
446.95	3349.31
447.14	3269.73
447.32	3353.99
447.51	3330.58
447.69	3389.10
447.88	3370.37
448.06	3447.61
448.25	3208.87
448.43	3330.58
448.62	3356.33
448.80	3318.88
448.99	3314.20
449.17	3447.61
449.36	3389.10
449.54	3506.12
449.73	3566.98
449.91	3520.17
450.10	3428.88
450.28	3562.30
450.46	3695.71
450.65	3616.13
450.83	3543.57
451.02	3559.95
451.20	3503.78
451.39	3592.72
451.57	3562.30
451.76	3616.13
451.94	3613.79
452.13	3742.52
452.31	3688.68
452.49	3515.48
452.68	3810.39
452.86	3665.28
453.05	3604.42
453.23	3646.55
453.42	3794.01
453.60	3676.98
453.78	3681.66
453.97	3726.13
454.15	3779.97
454.34	3794.01
454.52	3782.31
454.70	3850.18
454.89	3784.65
455.07	3705.07
455.26	3866.56
455.44	3904.01
455.62	3758.90
455.81	3985.93
455.99	3932.10
456.17	3976.57
456.36	3889.97
456.54	3920.40
456.73	4063.17
456.91	4109.98
457.09	3978.91
457.28	4140.41
457.46	3953.16
457.64	4126.36
457.83	4156.79
458.01	4009.34
458.19	4140.41
458.38	4030.40
458.56	4018.70
458.74	3988.27
458.93	4266.80
459.11	4201.26
459.29	4131.05
459.48	4271.48
459.66	4231.69
459.84	4358.08
460.03	4472.76
460.21	4283.18
460.39	4198.92
460.57	4194.24
460.76	4315.95
460.94	4390.84
461.12	4234.03
461.31	4468.08
461.49	4456.38
461.67	4369.78
461.85	4578.09
462.04	4554.68
462.22	4880.02
462.40	4528.94
462.59	4542.98
462.77	4528.94
462.95	4676.39
463.13	4444.68
463.32	4667.03
463.50	4531.28
463.68	4601.49
463.86	4608.51
464.05	4538.30
464.23	4475.10
464.41	4578.09
464.59	4442.34
464.78	4622.56
464.96	4641.28
465.14	4610.86
465.32	4690.43
465.50	4671.71
465.69	4720.86
465.87	4613.20
466.05	4671.71
466.23	4833.21
466.41	4716.18
466.60	4844.91
466.78	4727.88
466.96	4905.76
467.14	4592.13
467.32	4877.68
467.51	4898.74
467.69	4770.01
467.87	4770.01
468.05	4968.96
468.23	4901.08
468.41	4833.21
468.60	4727.88
468.78	4896.40
468.96	4816.82
469.14	4990.02
469.32	4858.95
469.50	4784.06
469.69	4987.68
469.87	4990.02
470.05	5118.75
470.23	5069.60
470.41	5055.56
470.59	5088.32
470.77	5083.64
470.95	5102.37
471.14	5114.07
471.32	5100.03
471.50	5352.81
471.68	5315.36
471.86	5256.84
472.04	5296.63
472.22	5392.59
472.40	5313.02
472.58	5280.25
472.77	5296.63
472.95	5434.72
473.13	5406.64
473.31	5324.72
473.49	5357.49
473.67	5455.79
473.85	5516.64
474.03	5603.24
474.21	5631.33
474.39	5636.01
474.57	5685.16
474.75	5860.70
474.93	5844.32
475.12	5886.45
475.30	5650.05
475.48	5671.12
475.66	5673.46
475.84	5832.62
476.02	5809.21
476.20	5891.13
476.38	6043.26
476.56	6242.21
476.74	6141.57
476.92	5991.77
477.10	6127.52
477.28	6296.04
477.46	6195.40
477.64	6291.36
477.82	6413.07
478.00	6368.60
478.18	6520.73
478.36	6541.80
478.54	6494.99
478.72	6548.82
478.90	6544.14
479.08	6534.78
479.26	6881.18
479.44	6715.00
479.62	6846.07
479.80	6693.93
479.98	6745.42
480.16	6806.28
480.34	7030.97
480.52	7199.49
480.70	7124.59
480.88	7042.67
481.06	7206.51
481.24	7115.23
481.41	7307.15
481.59	7314.17
481.77	7405.46
481.95	7337.58
482.13	7520.14
482.31	7520.14
482.49	7468.65
482.67	7789.30
482.85	7588.02
483.03	7854.84
483.21	7831.43
483.39	7929.74
483.57	7875.90
483.74	7901.65
483.92	8013.99
484.10	7850.16
484.28	8402.52
484.46	8219.96
484.64	8404.86
484.82	8325.29
485.00	8327.63
485.18	8683.39
485.35	8739.56
485.53	8692.75
485.71	8807.44
485.89	8980.64
486.07	8688.07
486.25	8870.63
486.43	8936.17
486.61	8858.93
486.78	9228.73
486.96	9130.43
487.14	9359.80
487.32	9289.59
487.50	9200.65
487.68	9411.29
487.85	9441.72
488.03	9645.35
488.21	9788.12
488.39	9565.77
488.57	9973.02
488.75	9919.19
488.92	10071.33
489.10	9891.10
489.28	10010.47
489.46	10125.16
489.64	10279.63
489.81	10328.78
489.99	10242.18
490.17	10221.12
490.35	10476.24
490.53	10368.57
490.70	10775.83
490.88	10691.57
491.06	10864.77
491.24	10717.31
491.41	10710.29
491.59	10993.50
491.77	10974.77
491.95	11040.31
492.13	11253.30
492.30	11314.15
492.48	11304.79
492.66	11246.27
492.84	11400.75
493.01	11564.59
493.19	11318.83
493.37	11367.98
493.54	11747.15
493.72	11889.92
493.90	11875.88
494.08	11836.09
494.25	11882.90
494.43	12051.42
494.61	12121.63
494.79	12135.68
494.96	12140.36
495.14	12133.34
495.32	12484.42
495.49	12400.16
495.67	12400.16
495.85	12613.15
496.02	12702.09
496.20	12542.93
496.38	12615.49
496.55	12681.02
496.73	12940.82
496.91	13027.42
497.09	12954.87
497.26	12961.89
497.44	12863.58
497.62	13202.96
497.79	13308.29
497.97	13142.11
498.14	13556.38
498.32	13465.10
498.50	13645.32
498.67	13645.32
498.85	13275.52
499.03	13675.75
499.20	13769.37
499.38	13785.76
499.56	13916.83
499.73	13984.70
499.91	13937.89
500.08	14083.00
500.26	13596.17
500.44	14171.94
500.61	14001.08
500.79	14101.73
500.97	13989.38
501.14	14221.10
501.32	14497.28
501.49	14504.30
501.67	14359.19
501.84	14347.48
502.02	14637.71
502.20	14658.78
502.37	14696.22
502.55	14476.21
502.72	14827.29
502.90	14726.65
503.07	14572.18
503.25	15105.82
503.43	14724.31
503.60	15122.20
503.78	14920.92
503.95	15047.30
504.13	15054.33
504.30	15066.03
504.48	15225.18
504.65	15419.45
504.83	15194.76
505.01	15503.71
505.18	15571.58
505.36	15239.23
505.53	15461.58
505.71	15618.39
505.88	15515.41
506.06	15351.57
506.23	15782.23
506.41	15569.24
506.58	15934.37
506.76	15793.94
506.93	15695.63
507.11	16013.95
507.28	16133.31
507.46	16250.34
507.63	15843.09
507.81	16025.65
507.98	16126.29
508.16	16027.99
508.33	16306.51
508.50	16081.82
508.68	16411.84
508.85	16587.38
509.03	16306.51
509.20	16528.86
509.38	16526.52
509.55	16917.39
509.73	16943.14
509.90	16945.48
510.08	16957.18
510.25	16772.28
510.42	17046.12
510.60	17128.04
510.77	17142.08
510.95	17383.16
511.12	16957.18
511.30	16856.54
511.47	17319.96
511.64	17235.70
511.82	17444.01
511.99	17507.21
512.17	17446.35
512.34	16978.25
512.51	17446.35
512.69	17507.21
512.86	17490.82
513.04	17568.06
513.21	17860.63
513.38	17862.97
513.56	17874.67
513.73	17748.28
513.90	17781.05
514.08	18155.54
514.25	18031.49
514.43	17919.14
514.60	17958.93
514.77	18162.56
514.95	18167.24
515.12	18113.41
515.29	18249.16
515.47	18473.85
515.64	18530.02
515.81	18352.14
515.99	18782.80
516.16	18546.40
516.33	18368.52
516.51	18614.28
516.68	18487.89
516.85	18604.92
517.03	18838.97
517.20	19073.03
517.37	18728.97
517.54	19136.22
517.72	18757.05
517.89	18497.25
518.06	18930.25
518.24	18941.96
518.41	18944.30
518.58	19225.16
518.75	19047.28
518.93	19243.88
519.10	19108.13
519.27	19407.72
519.45	19159.63
519.62	18986.43
519.79	19337.51
519.96	19527.09
520.14	19489.64
520.31	19314.10
520.48	19800.93
520.65	19433.47
520.83	19735.40
521.00	19609.01
521.17	19843.06
521.34	19634.75
521.52	20011.58
521.69	19894.55
521.86	20032.65
522.03	19920.30
522.20	19812.63
522.38	20086.48
522.55	20210.53
522.72	20112.22
522.89	19927.32
523.07	20587.35
523.24	20334.57
523.41	20290.10
523.58	19988.18
523.75	20114.56
523.92	20013.92
524.10	20341.60
524.27	20570.97
524.44	20526.50
524.61	20432.88
524.78	20400.11
524.96	20706.72
525.13	20533.52
525.30	20580.33
525.47	20643.52
525.64	20814.38
525.81	20891.62
525.98	20929.07
526.16	20872.90
526.33	20833.11
526.50	21032.05
526.67	20692.68
526.84	20671.61
527.01	20638.84
527.18	20987.58
527.36	21282.49
527.53	21132.70
527.70	21371.43
527.87	21149.08
528.04	21132.70
528.21	21135.04
528.38	21099.93
528.55	21158.44
528.72	21233.34
528.89	21446.33
529.07	21436.97
529.24	21071.84
529.41	21486.12
529.58	21399.52
529.75	21497.82
529.92	21399.52
530.09	21769.32
530.26	21532.93
530.43	21626.55
530.60	21764.64
530.77	21720.17
530.94	21785.71
531.11	21795.07
531.28	21214.62
531.46	21472.07
531.63	22080.61
531.80	21584.42
531.97	21858.26
532.14	21956.57
532.31	22097.00
532.48	22038.48
532.65	22064.23
532.82	21975.29
532.99	21928.48
533.16	22136.79
533.33	22382.54
533.50	22298.28
533.67	22141.47
533.84	21818.47
534.01	21776.34
534.18	21884.01
534.35	22506.59
534.52	22073.59
534.69	22539.36
534.86	22410.63
535.03	22260.84
535.20	22459.78
535.37	22302.96
535.54	22239.77
535.71	22251.47
535.88	22576.81
536.05	22419.99
536.22	22827.24
536.38	22771.07
536.55	22525.32
536.72	22537.02
536.89	22597.87
537.06	22815.54
537.23	22656.39
537.40	22871.72
537.57	22869.37
537.74	22838.95
537.91	22984.06
538.08	23005.13
538.25	22841.29
538.42	23061.30
538.59	23087.04
538.75	22913.84
538.92	22946.61
539.09	23101.09
539.26	23089.38
539.43	23246.20
539.60	23531.75
539.77	23281.31
539.94	23157.26
540.11	23096.41
540.28	23520.04
540.44	23285.99
540.61	23199.39
540.78	22927.89
540.95	23702.61
541.12	23529.41
541.29	23536.43
541.46	23360.89
541.62	23112.79
541.79	23337.48
541.96	23346.84
542.13	23491.96
542.30	23653.45
542.47	23559.83
542.63	23463.87
542.80	23936.66
542.97	23824.31
543.14	23864.10
543.31	23545.79
543.48	23915.59
543.64	23817.29
543.81	23960.06
543.98	24016.24
544.15	23939.00
544.32	24135.60
544.48	23934.32
544.65	24067.73
544.82	23995.17
544.99	23625.37
545.16	24056.03
545.32	24072.41
545.49	24292.42
545.66	24397.74
545.83	24407.11
546.00	24215.18
546.16	24301.78
546.33	23648.77
546.50	23988.15
546.67	23913.25
546.83	24137.94
547.00	24444.56
547.17	24191.78
547.34	24397.74
547.50	24702.01
547.67	24706.70
547.84	24428.17
548.00	24421.15
548.17	24531.15
548.34	24159.01
548.51	24517.11
548.67	24713.72
548.84	24613.07
549.01	24603.71
549.18	24943.09
549.34	24676.27
549.51	24393.06
549.68	24325.19
549.84	24592.01
550.01	24641.16
550.18	24720.74
550.34	24870.53
550.51	24563.92
550.68	24699.67
550.84	24573.28
551.01	25020.33
551.18	24704.35
551.34	24802.66
551.51	24718.40
551.68	24805.00
551.84	25177.14
552.01	24790.95
552.18	25455.67
552.34	24755.85
552.51	24767.55
552.68	24837.76
552.84	25097.56
553.01	25043.73
553.18	24947.77
553.34	25104.59
553.51	25163.10
553.67	25053.09
553.84	25373.75
554.01	25270.76
554.17	25139.69
554.34	25064.80
554.51	25369.07
554.67	25284.81
554.84	25425.24
555.00	25132.67
555.17	25153.74
555.33	25528.22
555.50	24978.20
555.67	25074.16
555.83	25090.54
556.00	25130.33
556.16	25799.73
556.33	25509.50
556.50	25317.57
556.66	25270.76
556.83	25132.67
556.99	25406.52
557.16	25752.91
557.32	25507.16
557.49	25322.26
557.65	25256.72
557.82	25254.38
557.98	25216.93
558.15	25404.17
558.32	25312.89
558.48	25338.64
558.65	25422.90
558.81	25673.34
558.98	25568.01
559.14	25296.51
559.31	25610.14
559.47	25378.43
559.64	25223.95
559.80	25570.35
559.97	25752.91
560.13	25572.69
560.30	25469.71
560.46	25633.55
560.63	25317.57
560.79	25830.15
560.96	25764.62
561.12	25340.98
561.29	25493.12
561.45	25762.28
561.61	25757.60
561.78	25717.81
561.94	25436.94
562.11	25523.54
562.27	25404.17
562.44	25563.33
562.60	25481.41
562.77	25509.50
562.93	25790.36
563.10	25778.66
563.26	25404.17
563.42	25748.23
563.59	25851.22
563.75	25509.50
563.92	26181.23
564.08	25518.86
564.24	25312.89
564.41	25230.98
564.57	25621.84
564.74	25713.13
564.90	25790.36
565.07	25694.40
565.23	25825.47
565.39	25659.29
565.56	25820.79
565.72	25458.01
565.88	25511.84
566.05	25436.94
566.21	25497.80
566.38	25542.27
566.54	25883.98
566.70	25642.91
566.87	25888.67
567.03	25621.84
567.19	26438.69
567.36	25626.53
567.52	25834.83
567.68	25610.14
567.85	25642.91
568.01	25453.33
568.17	25809.09
568.34	25881.64
568.50	26029.10
568.66	25886.32
568.83	26099.31
568.99	25839.51
569.15	25773.98
569.32	25844.20
569.48	25928.45
569.64	25818.45
569.81	25685.04
569.97	25979.95
570.13	26211.66
570.30	26029.10
570.46	25872.28
570.62	25528.22
570.78	25680.36
570.95	25687.38
571.11	26001.01
571.27	25612.48
571.43	25989.31
571.60	25715.47
571.76	25813.77
571.92	25902.71
572.09	25621.84
572.25	26073.57
572.41	26096.97
572.57	25977.61
572.74	26106.34
572.90	25692.06
573.06	26005.69
573.22	26115.70
573.38	25958.88
573.55	26155.49
573.71	26108.68
573.87	26178.89
574.03	25853.56
574.20	26141.44
574.36	25755.26
574.52	25799.73
574.68	26118.04
574.84	25975.27
575.01	26347.41
575.17	25949.52
575.33	26036.12
575.49	26363.79
575.65	26111.02
575.82	26087.61
575.98	25905.05
576.14	25928.45
576.30	26436.35
576.46	26115.70
576.62	25694.40
576.79	26204.64
576.95	25694.40
577.11	26071.23
577.27	25902.71
577.43	25834.83
577.59	26024.42
577.75	26164.85
577.92	25935.48
578.08	25736.53
578.24	25907.39
578.40	26082.93
578.56	25923.77
578.72	26052.50
578.88	26153.15
579.04	26139.10
579.21	25982.29
579.37	26192.94
579.53	26197.62
579.69	25858.24
579.85	25993.99
580.01	25820.79
580.17	25876.96
580.33	25972.92
580.49	26019.74
580.65	25993.99
580.82	26178.89
580.98	26050.16
581.14	26267.83
581.30	26174.21
581.46	26141.44
581.62	25916.75
581.78	25919.09
581.94	26202.30
582.10	25942.50
582.26	26515.93
582.42	26185.91
582.58	26101.65
582.74	26328.69
582.90	26480.82
583.06	26148.46
583.22	25956.54
583.38	25806.75
583.54	25792.70
583.70	26101.65
583.86	26199.96
584.02	25912.07
584.18	26010.37
584.34	26033.78
584.50	26647.00
584.66	26176.55
584.82	26012.71
584.98	26401.24
585.14	25706.10
585.30	26199.96
585.46	26253.79
585.62	25841.85
585.78	26003.35
585.94	25745.89
586.10	26321.66
586.26	26012.71
586.42	26075.91
586.58	26153.15
586.74	26064.21
586.90	25823.13
587.06	25851.22
587.22	26508.91
587.38	26005.69
587.54	26228.04
587.70	26375.50
587.86	26221.02
588.02	26082.93
588.18	26192.94
588.34	25919.09
588.49	26277.19
588.65	26005.69
588.81	26270.17
588.97	26078.25
589.13	26066.55
589.29	26604.87
589.45	26150.81
589.61	26583.80
589.77	26286.56
589.93	26508.91
590.08	26277.19
590.24	26483.16
590.40	26422.31
590.56	26288.90
590.72	26059.52
590.88	25853.56
591.04	26548.70
591.20	26628.27
591.35	26604.87
591.51	26867.01
591.67	26490.18
591.83	26541.68
591.99	26394.22
592.15	26499.55
