SpectraSuite Data File
++++++++++++++++++++++++++++++++++++
Date: Fri Oct 04 11:47:06 GMT-05:00 2013
User: price-jones
Dark Spectrum Present: No
Reference Spectrum Present: No
Number of Sampled Component Spectra: 1
Spectrometers: USB2+H05261
Integration Time (usec): 100000 (USB2+H05261)
Spectra Averaged: 1 (USB2+H05261)
Boxcar Smoothing: 0 (USB2+H05261)
Correct for Electrical Dark: No (USB2+H05261)
Strobe/Lamp Enabled: No (USB2+H05261)
Correct for Detector Non-linearity: No (USB2+H05261)
Correct for Stray Light: No (USB2+H05261)
Number of Pixels in Processed Spectrum: 2048
>>>>>Begin Processed Spectral Data<<<<<
365.73	28.09
365.92	28.09
366.12	28.09
366.32	0.00
366.52	0.00
366.72	0.00
366.91	0.00
367.11	0.00
367.31	0.00
367.51	0.00
367.70	0.00
367.90	0.00
368.10	0.00
368.30	0.00
368.49	0.00
368.69	0.00
368.89	0.00
369.09	0.00
369.28	0.00
369.48	0.00
369.68	0.00
369.87	7.02
370.07	0.00
370.27	77.24
370.47	0.00
370.66	0.00
370.86	11.70
371.06	42.13
371.25	79.58
371.45	51.49
371.65	51.49
371.84	70.22
372.04	2.34
372.24	114.69
372.44	72.56
372.63	46.81
372.83	149.79
373.03	105.32
373.22	114.69
373.42	95.96
373.62	65.54
373.81	18.72
374.01	102.98
374.21	105.32
374.40	56.17
374.60	117.03
374.79	84.26
374.99	72.56
375.19	84.26
375.38	110.01
375.58	112.35
375.78	110.01
375.97	168.52
376.17	114.69
376.37	147.45
376.56	46.81
376.76	42.13
376.95	114.69
377.15	81.92
377.35	126.39
377.54	128.73
377.74	53.83
377.93	86.60
378.13	58.51
378.33	79.58
378.52	119.37
378.72	152.13
378.91	91.28
379.11	161.50
379.31	28.09
379.50	81.92
379.70	163.84
379.89	149.79
380.09	65.54
380.28	9.36
380.48	58.51
380.68	9.36
380.87	32.77
381.07	65.54
381.26	14.04
381.46	161.50
381.65	100.64
381.85	77.24
382.04	168.52
382.24	28.09
382.43	147.45
382.63	42.13
382.83	77.24
383.02	95.96
383.22	77.24
383.41	105.32
383.61	110.01
383.80	0.00
384.00	65.54
384.19	72.56
384.39	63.19
384.58	65.54
384.78	88.94
384.97	42.13
385.17	107.66
385.36	65.54
385.56	110.01
385.75	72.56
385.95	124.05
386.14	114.69
386.34	91.28
386.53	95.96
386.72	42.13
386.92	37.45
387.11	124.05
387.31	98.30
387.50	67.88
387.70	119.37
387.89	86.60
388.09	131.07
388.28	105.32
388.48	88.94
388.67	86.60
388.86	86.60
389.06	98.30
389.25	93.62
389.45	86.60
389.64	23.41
389.84	84.26
390.03	93.62
390.22	67.88
390.42	42.13
390.61	91.28
390.81	16.38
391.00	161.50
391.19	117.03
391.39	93.62
391.58	72.56
391.78	138.09
391.97	117.03
392.16	42.13
392.36	126.39
392.55	93.62
392.75	56.17
392.94	112.35
393.13	117.03
393.33	51.49
393.52	72.56
393.71	227.03
393.91	114.69
394.10	95.96
394.29	131.07
394.49	93.62
394.68	168.52
394.88	177.88
395.07	149.79
395.26	30.43
395.46	133.41
395.65	95.96
395.84	166.18
396.04	131.07
396.23	74.90
396.42	114.69
396.62	138.09
396.81	37.45
397.00	56.17
397.19	163.84
397.39	32.77
397.58	105.32
397.77	131.07
397.97	88.94
398.16	74.90
398.35	70.22
398.55	86.60
398.74	53.83
398.93	88.94
399.12	51.49
399.32	131.07
399.51	49.15
399.70	140.43
399.90	86.60
400.09	81.92
400.28	107.66
400.47	56.17
400.67	110.01
400.86	72.56
401.05	124.05
401.24	107.66
401.44	177.88
401.63	114.69
401.82	140.43
402.01	95.96
402.21	114.69
402.40	138.09
402.59	84.26
402.78	91.28
402.97	138.09
403.17	93.62
403.36	100.64
403.55	138.09
403.74	93.62
403.93	133.41
404.13	133.41
404.32	110.01
404.51	58.51
404.70	84.26
404.89	128.73
405.09	46.81
405.28	95.96
405.47	79.58
405.66	72.56
405.85	170.86
406.05	95.96
406.24	79.58
406.43	72.56
406.62	140.43
406.81	117.03
407.00	156.82
407.20	65.54
407.39	154.48
407.58	77.24
407.77	95.96
407.96	138.09
408.15	131.07
408.34	86.60
408.54	95.96
408.73	70.22
408.92	39.79
409.11	138.09
409.30	131.07
409.49	93.62
409.68	124.05
409.87	53.83
410.07	154.48
410.26	166.18
410.45	56.17
410.64	60.85
410.83	112.35
411.02	88.94
411.21	67.88
411.40	147.45
411.59	86.60
411.78	145.11
411.98	145.11
412.17	74.90
412.36	46.81
412.55	79.58
412.74	145.11
412.93	74.90
413.12	100.64
413.31	18.72
413.50	93.62
413.69	35.11
413.88	152.13
414.07	79.58
414.26	93.62
414.45	210.65
414.64	95.96
414.83	84.26
415.02	210.65
415.22	121.71
415.41	114.69
415.60	91.28
415.79	117.03
415.98	128.73
416.17	107.66
416.36	117.03
416.55	102.98
416.74	91.28
416.93	177.88
417.12	86.60
417.31	124.05
417.50	93.62
417.69	177.88
417.88	177.88
418.07	177.88
418.26	154.48
418.45	112.35
418.64	149.79
418.83	177.88
419.02	121.71
419.21	51.49
419.39	159.16
419.58	131.07
419.77	168.52
419.96	95.96
420.15	184.90
420.34	121.71
420.53	100.64
420.72	100.64
420.91	182.56
421.10	131.07
421.29	131.07
421.48	168.52
421.67	182.56
421.86	25.75
422.05	67.88
422.24	79.58
422.43	105.32
422.61	131.07
422.80	102.98
422.99	93.62
423.18	124.05
423.37	84.26
423.56	102.98
423.75	147.45
423.94	100.64
424.13	88.94
424.32	107.66
424.50	124.05
424.69	177.88
424.88	194.26
425.07	86.60
425.26	170.86
425.45	198.95
425.64	161.50
425.83	201.29
426.01	170.86
426.20	217.67
426.39	98.30
426.58	65.54
426.77	154.48
426.96	182.56
427.15	191.92
427.33	124.05
427.52	37.45
427.71	107.66
427.90	133.41
428.09	142.77
428.28	95.96
428.46	86.60
428.65	107.66
428.84	105.32
429.03	124.05
429.22	131.07
429.40	140.43
429.59	147.45
429.78	163.84
429.97	105.32
430.16	154.48
430.34	67.88
430.53	124.05
430.72	72.56
430.91	161.50
431.10	156.82
431.28	79.58
431.47	110.01
431.66	166.18
431.85	56.17
432.03	180.22
432.22	131.07
432.41	161.50
432.60	124.05
432.79	156.82
432.97	175.54
433.16	180.22
433.35	243.42
433.54	117.03
433.72	187.24
433.91	203.63
434.10	166.18
434.28	154.48
434.47	135.75
434.66	203.63
434.85	100.64
435.03	114.69
435.22	128.73
435.41	175.54
435.59	217.67
435.78	156.82
435.97	102.98
436.16	163.84
436.34	131.07
436.53	154.48
436.72	131.07
436.90	135.75
437.09	131.07
437.28	86.60
437.46	128.73
437.65	231.71
437.84	63.19
438.02	187.24
438.21	145.11
438.40	166.18
438.58	112.35
438.77	156.82
438.96	119.37
439.14	112.35
439.33	112.35
439.52	86.60
439.70	105.32
439.89	154.48
440.08	142.77
440.26	88.94
440.45	128.73
440.63	149.79
440.82	159.16
441.01	126.39
441.19	152.13
441.38	126.39
441.57	168.52
441.75	100.64
441.94	126.39
442.12	112.35
442.31	114.69
442.50	159.16
442.68	156.82
442.87	102.98
443.05	98.30
443.24	95.96
443.43	126.39
443.61	100.64
443.80	95.96
443.98	124.05
444.17	126.39
444.35	95.96
444.54	161.50
444.73	166.18
444.91	217.67
445.10	152.13
445.28	159.16
445.47	140.43
445.65	119.37
445.84	110.01
446.02	133.41
446.21	149.79
446.39	156.82
446.58	203.63
446.77	138.09
446.95	154.48
447.14	161.50
447.32	196.60
447.51	156.82
447.69	248.10
447.88	124.05
448.06	145.11
448.25	159.16
448.43	49.15
448.62	102.98
448.80	163.84
448.99	88.94
449.17	156.82
449.36	63.19
449.54	184.90
449.73	126.39
449.91	177.88
450.10	180.22
450.28	198.95
450.46	168.52
450.65	121.71
450.83	133.41
451.02	93.62
451.20	133.41
451.39	91.28
451.57	147.45
451.76	124.05
451.94	187.24
452.13	163.84
452.31	187.24
452.49	142.77
452.68	114.69
452.86	135.75
453.05	166.18
453.23	128.73
453.42	119.37
453.60	67.88
453.78	184.90
453.97	112.35
454.15	107.66
454.34	149.79
454.52	98.30
454.70	184.90
454.89	212.99
455.07	84.26
455.26	114.69
455.44	161.50
455.62	107.66
455.81	140.43
455.99	191.92
456.17	95.96
456.36	170.86
456.54	166.18
456.73	149.79
456.91	142.77
457.09	166.18
457.28	173.20
457.46	208.31
457.64	124.05
457.83	84.26
458.01	42.13
458.19	140.43
458.38	152.13
458.56	149.79
458.74	126.39
458.93	121.71
459.11	72.56
459.29	51.49
459.48	135.75
459.66	215.33
459.84	128.73
460.03	187.24
460.21	170.86
460.39	81.92
460.57	100.64
460.76	98.30
460.94	140.43
461.12	198.95
461.31	88.94
461.49	168.52
461.67	121.71
461.85	180.22
462.04	147.45
462.22	547.69
462.40	70.22
462.59	126.39
462.77	161.50
462.95	154.48
463.13	147.45
463.32	166.18
463.50	229.37
463.68	161.50
463.86	119.37
464.05	177.88
464.23	194.26
464.41	65.54
464.59	131.07
464.78	149.79
464.96	149.79
465.14	138.09
465.32	112.35
465.50	168.52
465.69	196.60
465.87	98.30
466.05	156.82
466.23	93.62
466.41	117.03
466.60	131.07
466.78	77.24
466.96	163.84
467.14	191.92
467.32	145.11
467.51	220.01
467.69	145.11
467.87	252.78
468.05	154.48
468.23	201.29
468.41	222.35
468.60	168.52
468.78	175.54
468.96	175.54
469.14	191.92
469.32	91.28
469.50	135.75
469.69	105.32
469.87	189.58
470.05	131.07
470.23	131.07
470.41	98.30
470.59	98.30
470.77	215.33
470.95	147.45
471.14	175.54
471.32	212.99
471.50	180.22
471.68	173.20
471.86	238.73
472.04	154.48
472.22	189.58
472.40	142.77
472.58	177.88
472.77	156.82
472.95	191.92
473.13	187.24
473.31	145.11
473.49	88.94
473.67	112.35
473.85	170.86
474.03	163.84
474.21	161.50
474.39	170.86
474.57	182.56
474.75	191.92
474.93	154.48
475.12	100.64
475.30	138.09
475.48	224.69
475.66	173.20
475.84	142.77
476.02	173.20
476.20	159.16
476.38	91.28
476.56	175.54
476.74	105.32
476.92	154.48
477.10	210.65
477.28	138.09
477.46	70.22
477.64	135.75
477.82	133.41
478.00	135.75
478.18	215.33
478.36	166.18
478.54	86.60
478.72	95.96
478.90	93.62
479.08	175.54
479.26	294.91
479.44	156.82
479.62	152.13
479.80	84.26
479.98	168.52
480.16	100.64
480.34	163.84
480.52	88.94
480.70	102.98
480.88	177.88
481.06	74.90
481.24	138.09
481.41	105.32
481.59	222.35
481.77	173.20
481.95	168.52
482.13	184.90
482.31	173.20
482.49	187.24
482.67	217.67
482.85	163.84
483.03	149.79
483.21	133.41
483.39	110.01
483.57	102.98
483.74	170.86
483.92	121.71
484.10	236.39
484.28	138.09
484.46	177.88
484.64	98.30
484.82	184.90
485.00	175.54
485.18	184.90
485.35	145.11
485.53	194.26
485.71	138.09
485.89	163.84
486.07	128.73
486.25	189.58
486.43	152.13
486.61	154.48
486.78	84.26
486.96	182.56
487.14	100.64
487.32	184.90
487.50	177.88
487.68	234.05
487.85	105.32
488.03	191.92
488.21	255.12
488.39	201.29
488.57	182.56
488.75	147.45
488.92	421.30
489.10	131.07
489.28	264.48
489.46	184.90
489.64	147.45
489.81	159.16
489.99	149.79
490.17	208.31
490.35	236.39
490.53	161.50
490.70	203.63
490.88	168.52
491.06	215.33
491.24	154.48
491.41	264.48
491.59	187.24
491.77	142.77
491.95	100.64
492.13	152.13
492.30	215.33
492.48	198.95
492.66	168.52
492.84	166.18
493.01	173.20
493.19	187.24
493.37	175.54
493.54	215.33
493.72	217.67
493.90	201.29
494.08	203.63
494.25	124.05
494.43	175.54
494.61	117.03
494.79	135.75
494.96	170.86
495.14	201.29
495.32	210.65
495.49	168.52
495.67	126.39
495.85	182.56
496.02	147.45
496.20	203.63
496.38	205.97
496.55	126.39
496.73	259.80
496.91	191.92
497.09	259.80
497.26	215.33
497.44	196.60
497.62	131.07
497.79	177.88
497.97	173.20
498.14	175.54
498.32	147.45
498.50	222.35
498.67	170.86
498.85	227.03
499.03	194.26
499.20	194.26
499.38	126.39
499.56	168.52
499.73	241.08
499.91	156.82
500.08	133.41
500.26	135.75
500.44	131.07
500.61	208.31
500.79	262.14
500.97	208.31
501.14	259.80
501.32	149.79
501.49	280.86
501.67	187.24
501.84	191.92
502.02	121.71
502.20	217.67
502.37	142.77
502.55	203.63
502.72	222.35
502.90	154.48
503.07	154.48
503.25	198.95
503.43	114.69
503.60	177.88
503.78	250.44
503.95	152.13
504.13	147.45
504.30	177.88
504.48	250.44
504.65	224.69
504.83	173.20
505.01	154.48
505.18	135.75
505.36	191.92
505.53	140.43
505.71	182.56
505.88	182.56
506.06	264.48
506.23	201.29
506.41	142.77
506.58	208.31
506.76	205.97
506.93	147.45
507.11	177.88
507.28	168.52
507.46	131.07
507.63	175.54
507.81	189.58
507.98	159.16
508.16	224.69
508.33	187.24
508.50	191.92
508.68	229.37
508.85	161.50
509.03	201.29
509.20	217.67
509.38	245.76
509.55	252.78
509.73	220.01
509.90	180.22
510.08	196.60
510.25	257.46
510.42	156.82
510.60	182.56
510.77	217.67
510.95	215.33
511.12	100.64
511.30	222.35
511.47	217.67
511.64	241.08
511.82	278.52
511.99	161.50
512.17	215.33
512.34	187.24
512.51	203.63
512.69	149.79
512.86	287.89
513.04	212.99
513.21	163.84
513.38	149.79
513.56	175.54
513.73	184.90
513.90	177.88
514.08	212.99
514.25	212.99
514.43	205.97
514.60	168.52
514.77	152.13
514.95	191.92
515.12	124.05
515.29	252.78
515.47	236.39
515.64	210.65
515.81	177.88
515.99	229.37
516.16	121.71
516.33	238.73
516.51	182.56
516.68	220.01
516.85	124.05
517.03	161.50
517.20	220.01
517.37	102.98
517.54	170.86
517.72	180.22
517.89	166.18
518.06	163.84
518.24	241.08
518.41	212.99
518.58	131.07
518.75	191.92
518.93	126.39
519.10	182.56
519.27	231.71
519.45	175.54
519.62	243.42
519.79	220.01
519.96	180.22
520.14	168.52
520.31	205.97
520.48	198.95
520.65	187.24
520.83	208.31
521.00	250.44
521.17	194.26
521.34	117.03
521.52	194.26
521.69	215.33
521.86	189.58
522.03	189.58
522.20	304.27
522.38	142.77
522.55	280.86
522.72	201.29
522.89	205.97
523.07	220.01
523.24	231.71
523.41	154.48
523.58	194.26
523.75	142.77
523.92	140.43
524.10	191.92
524.27	166.18
524.44	159.16
524.61	182.56
524.78	177.88
524.96	210.65
525.13	283.20
525.30	238.73
525.47	177.88
525.64	126.39
525.81	231.71
525.98	198.95
526.16	184.90
526.33	173.20
526.50	140.43
526.67	142.77
526.84	189.58
527.01	142.77
527.18	212.99
527.36	208.31
527.53	177.88
527.70	238.73
527.87	187.24
528.04	243.42
528.21	191.92
528.38	196.60
528.55	294.91
528.72	196.60
528.89	248.10
529.07	231.71
529.24	210.65
529.41	222.35
529.58	212.99
529.75	138.09
529.92	243.42
530.09	140.43
530.26	189.58
530.43	222.35
530.60	234.05
530.77	224.69
530.94	187.24
531.11	229.37
531.28	229.37
531.46	259.80
531.63	184.90
531.80	175.54
531.97	189.58
532.14	147.45
532.31	194.26
532.48	231.71
532.65	311.29
532.82	273.84
532.99	315.97
533.16	201.29
533.33	229.37
533.50	313.63
533.67	264.48
533.84	348.74
534.01	365.12
534.18	297.25
534.35	252.78
534.52	297.25
534.69	208.31
534.86	189.58
535.03	257.46
535.20	212.99
535.37	203.63
535.54	238.73
535.71	203.63
535.88	231.71
536.05	238.73
536.22	149.79
536.38	102.98
536.55	231.71
536.72	287.89
536.89	205.97
537.06	37.45
537.23	241.08
537.40	173.20
537.57	198.95
537.74	255.12
537.91	212.99
538.08	159.16
538.25	140.43
538.42	194.26
538.59	203.63
538.75	163.84
538.92	245.76
539.09	259.80
539.26	182.56
539.43	369.80
539.60	753.65
539.77	1160.91
539.94	1228.78
540.11	809.83
540.28	566.41
540.44	315.97
540.61	308.95
540.78	287.89
540.95	231.71
541.12	182.56
541.29	152.13
541.46	276.18
541.62	234.05
541.79	210.65
541.96	196.60
542.13	220.01
542.30	224.69
542.47	147.45
542.63	222.35
542.80	184.90
542.97	292.57
543.14	229.37
543.31	236.39
543.48	152.13
543.64	231.71
543.81	191.92
543.98	243.42
544.15	222.35
544.32	262.14
544.48	180.22
544.65	201.29
544.82	205.97
544.99	177.88
545.16	212.99
545.32	212.99
545.49	255.12
545.66	224.69
545.83	180.22
546.00	187.24
546.16	184.90
546.33	184.90
546.50	133.41
546.67	236.39
546.83	198.95
547.00	248.10
547.17	100.64
547.34	133.41
547.50	220.01
547.67	161.50
547.84	182.56
548.00	264.48
548.17	168.52
548.34	124.05
548.51	227.03
548.67	252.78
548.84	147.45
549.01	180.22
549.18	306.61
549.34	220.01
549.51	294.91
549.68	217.67
549.84	163.84
550.01	180.22
550.18	280.86
550.34	229.37
550.51	224.69
550.68	222.35
550.84	191.92
551.01	238.73
551.18	201.29
551.34	229.37
551.51	166.18
551.68	217.67
551.84	262.14
552.01	203.63
552.18	168.52
552.34	271.50
552.51	163.84
552.68	196.60
552.84	191.92
553.01	205.97
553.18	290.23
553.34	238.73
553.51	212.99
553.67	145.11
553.84	273.84
554.01	231.71
554.17	166.18
554.34	259.80
554.51	189.58
554.67	191.92
554.84	238.73
555.00	212.99
555.17	180.22
555.33	220.01
555.50	259.80
555.67	234.05
555.83	191.92
556.00	191.92
556.16	339.38
556.33	203.63
556.50	173.20
556.66	269.16
556.83	170.86
556.99	189.58
557.16	257.46
557.32	166.18
557.49	184.90
557.65	191.92
557.82	180.22
557.98	154.48
558.15	194.26
558.32	184.90
558.48	210.65
558.65	170.86
558.81	189.58
558.98	189.58
559.14	205.97
559.31	203.63
559.47	215.33
559.64	287.89
559.80	252.78
559.97	124.05
560.13	187.24
560.30	140.43
560.46	262.14
560.63	212.99
560.79	177.88
560.96	128.73
561.12	182.56
561.29	273.84
561.45	276.18
561.61	210.65
561.78	294.91
561.94	215.33
562.11	227.03
562.27	191.92
562.44	191.92
562.60	220.01
562.77	194.26
562.93	238.73
563.10	196.60
563.26	112.35
563.42	203.63
563.59	196.60
563.75	156.82
563.92	255.12
564.08	266.82
564.24	304.27
564.41	175.54
564.57	182.56
564.74	215.33
564.90	177.88
565.07	236.39
565.23	196.60
565.39	238.73
565.56	229.37
565.72	189.58
565.88	117.03
566.05	166.18
566.21	154.48
566.38	252.78
566.54	217.67
566.70	231.71
566.87	189.58
567.03	161.50
567.19	187.24
567.36	208.31
567.52	173.20
567.68	203.63
567.85	241.08
568.01	161.50
568.17	194.26
568.34	191.92
568.50	194.26
568.66	205.97
568.83	311.29
568.99	191.92
569.15	208.31
569.32	220.01
569.48	177.88
569.64	105.32
569.81	177.88
569.97	220.01
570.13	194.26
570.30	245.76
570.46	147.45
570.62	182.56
570.78	138.09
570.95	173.20
571.11	222.35
571.27	131.07
571.43	198.95
571.60	180.22
571.76	255.12
571.92	243.42
572.09	119.37
572.25	269.16
572.41	227.03
572.57	252.78
572.74	170.86
572.90	229.37
573.06	234.05
573.22	259.80
573.38	215.33
573.55	191.92
573.71	250.44
573.87	313.63
574.03	236.39
574.20	290.23
574.36	304.27
574.52	327.68
574.68	287.89
574.84	276.18
575.01	238.73
575.17	217.67
575.33	205.97
575.49	227.03
575.65	290.23
575.82	313.63
575.98	493.85
576.14	554.71
576.30	568.75
576.46	435.34
576.62	273.84
576.79	339.38
576.95	290.23
577.11	262.14
577.27	154.48
577.43	201.29
577.59	210.65
577.75	198.95
577.92	170.86
578.08	229.37
578.24	222.35
578.40	212.99
578.56	184.90
578.72	285.55
578.88	264.48
579.04	208.31
579.21	217.67
579.37	231.71
579.53	299.59
579.69	236.39
579.85	159.16
580.01	294.91
580.17	322.99
580.33	353.42
580.49	308.95
580.65	320.65
580.82	269.16
580.98	283.20
581.14	339.38
581.30	224.69
581.46	351.08
581.62	456.40
581.78	470.45
581.94	383.85
582.10	383.85
582.26	297.25
582.42	428.32
582.58	362.78
582.74	318.31
582.90	409.59
583.06	425.98
583.22	404.91
583.38	416.62
583.54	451.72
583.70	512.58
583.86	578.11
584.02	596.84
584.18	819.19
584.34	961.96
584.50	2609.70
584.66	20175.42
584.82	49137.21
584.98	59210.87
585.14	55187.49
585.30	37406.44
585.46	22696.17
585.62	13886.40
585.78	6424.77
585.94	2483.31
586.10	1221.76
586.26	753.65
586.42	627.26
586.58	540.66
586.74	545.34
586.90	435.34
587.06	428.32
587.22	433.00
587.38	428.32
587.54	1048.56
587.70	2963.12
587.86	4589.79
588.02	5029.81
588.18	3620.81
588.34	2207.13
588.49	1458.15
588.65	833.23
588.81	514.92
588.97	400.23
589.13	285.55
589.29	320.65
589.45	320.65
589.61	276.18
589.77	339.38
589.93	308.95
590.08	367.46
590.24	402.57
590.40	362.78
590.56	365.12
590.72	208.31
590.88	184.90
591.04	250.44
591.20	325.33
591.35	257.46
591.51	234.05
591.67	241.08
591.83	250.44
591.99	283.20
592.15	234.05
592.31	215.33
592.46	154.48
592.62	285.55
592.78	255.12
592.94	224.69
593.10	250.44
593.26	311.29
593.41	283.20
593.57	334.70
593.73	470.45
593.89	2492.67
594.05	5771.76
594.20	8367.42
594.36	8006.97
594.52	5149.18
594.68	3272.07
594.84	2148.61
594.99	1315.38
595.15	585.13
595.31	470.45
595.47	278.52
595.62	355.76
595.78	220.01
595.94	273.84
596.10	294.91
596.25	308.95
596.41	369.80
596.57	194.26
596.73	220.01
596.88	440.02
597.04	1172.61
597.20	1954.35
597.36	2022.22
597.51	1582.20
597.67	1050.90
597.83	737.27
597.99	578.11
598.14	344.06
598.30	250.44
598.46	203.63
598.61	290.23
598.77	301.93
598.93	304.27
599.09	198.95
599.24	262.14
599.40	269.16
599.56	241.08
599.71	210.65
599.87	152.13
600.03	187.24
600.18	250.44
600.34	222.35
600.50	208.31
600.65	135.75
600.81	255.12
600.97	217.67
601.12	152.13
601.28	222.35
601.44	215.33
601.59	173.20
601.75	217.67
601.91	203.63
602.06	187.24
602.22	292.57
602.37	629.60
602.53	1366.87
602.69	2054.99
602.84	2157.97
603.00	1638.38
603.16	1100.05
603.31	744.29
603.47	564.07
603.62	315.97
603.78	276.18
603.94	280.86
604.09	220.01
604.25	266.82
604.40	238.73
604.56	252.78
604.71	280.86
604.87	184.90
605.03	229.37
605.18	269.16
605.34	236.39
605.49	217.67
605.65	182.56
605.80	196.60
605.96	243.42
606.12	231.71
606.27	250.44
606.43	292.57
606.58	273.84
606.74	702.16
606.89	2918.65
607.05	5645.37
607.20	7087.14
607.36	5778.78
607.51	3911.04
607.67	2516.08
607.82	1715.61
607.98	912.81
608.13	559.39
608.29	372.15
608.44	383.85
608.60	337.04
608.75	402.57
608.91	1013.45
609.06	4760.65
609.22	9434.70
609.37	12451.65
609.53	10534.75
609.68	7028.63
609.84	4664.69
609.99	3105.89
610.15	1645.40
610.30	847.27
610.46	416.62
610.61	353.42
610.76	231.71
610.92	425.98
611.07	276.18
611.23	283.20
611.38	304.27
611.54	191.92
611.69	259.80
611.84	297.25
612.00	294.91
612.15	313.63
