SpectraSuite Data File
++++++++++++++++++++++++++++++++++++
Date: Fri Oct 04 11:48:22 GMT-05:00 2013
User: price-jones
Dark Spectrum Present: No
Reference Spectrum Present: No
Number of Sampled Component Spectra: 1
Spectrometers: USB2+H05261
Integration Time (usec): 100000 (USB2+H05261)
Spectra Averaged: 1 (USB2+H05261)
Boxcar Smoothing: 0 (USB2+H05261)
Correct for Electrical Dark: No (USB2+H05261)
Strobe/Lamp Enabled: No (USB2+H05261)
Correct for Detector Non-linearity: No (USB2+H05261)
Correct for Stray Light: No (USB2+H05261)
Number of Pixels in Processed Spectrum: 2048
>>>>>Begin Processed Spectral Data<<<<<
365.73	42.13
365.92	42.13
366.12	42.13
366.32	0.00
366.52	0.00
366.72	0.00
366.91	0.00
367.11	0.00
367.31	0.00
367.51	0.00
367.70	0.00
367.90	0.00
368.10	0.00
368.30	0.00
368.49	0.00
368.69	0.00
368.89	0.00
369.09	0.00
369.28	0.00
369.48	0.00
369.68	0.00
369.87	0.00
370.07	0.00
370.27	0.00
370.47	79.58
370.66	346.40
370.86	442.36
371.06	442.36
371.25	421.30
371.45	379.17
371.65	486.83
371.84	468.11
372.04	456.40
372.24	468.11
372.44	594.50
372.63	627.26
372.83	592.16
373.03	528.96
373.22	514.92
373.42	578.11
373.62	571.09
373.81	592.16
374.01	636.63
374.21	599.18
374.40	550.03
374.60	601.52
374.79	606.20
374.99	660.03
375.19	622.58
375.38	678.76
375.58	650.67
375.78	706.84
375.97	622.58
376.17	660.03
376.37	638.97
376.56	695.14
376.76	697.48
376.95	660.03
377.15	727.91
377.35	697.48
377.54	751.31
377.74	655.35
377.93	664.71
378.13	681.10
378.33	763.01
378.52	748.97
378.72	699.82
378.91	690.46
379.11	720.88
379.31	660.03
379.50	725.57
379.70	739.61
379.89	716.20
380.09	748.97
380.28	751.31
380.48	744.29
380.68	667.05
380.87	727.91
381.07	819.19
381.26	753.65
381.46	793.44
381.65	858.98
381.85	784.08
382.04	798.12
382.24	826.21
382.43	844.93
382.63	833.23
382.83	814.51
383.02	887.06
383.22	833.23
383.41	854.30
383.61	741.95
383.80	840.25
384.00	840.25
384.19	875.36
384.39	898.77
384.58	828.55
384.78	908.13
384.97	943.24
385.17	950.26
385.36	898.77
385.56	964.30
385.75	990.05
385.95	943.24
386.14	1053.24
386.34	884.72
386.53	968.98
386.72	919.83
386.92	1008.77
387.11	1053.24
387.31	1022.81
387.50	983.02
387.70	1011.11
387.89	978.34
388.09	1001.75
388.28	1090.69
388.48	1062.60
388.67	1039.20
388.86	1107.07
389.06	1104.73
389.25	1198.35
389.45	1097.71
389.64	1114.10
389.84	1109.41
390.03	1186.65
390.22	1142.18
390.42	1123.46
390.61	1125.80
390.81	1041.54
391.00	1308.36
391.19	1231.12
391.39	1221.76
391.58	1198.35
391.78	1184.31
391.97	1207.72
392.16	1214.74
392.36	1261.55
392.55	1261.55
392.75	1217.08
392.94	1324.74
393.13	1317.72
393.33	1291.98
393.52	1306.02
393.71	1334.11
393.91	1254.53
394.10	1275.59
394.29	1350.49
394.49	1345.81
394.68	1385.60
394.88	1383.26
395.07	1495.60
395.26	1476.88
395.46	1500.28
395.65	1502.62
395.84	1420.71
396.04	1502.62
396.23	1411.34
396.42	1504.96
396.62	1575.18
396.81	1544.75
397.00	1511.99
397.19	1483.90
397.39	1558.80
397.58	1682.85
397.77	1540.07
397.97	1673.48
398.16	1682.85
398.35	1680.50
398.55	1666.46
398.74	1664.12
398.93	1741.36
399.12	1666.46
399.32	1661.78
399.51	1722.63
399.70	1851.36
399.90	1795.19
400.09	1820.94
400.28	1879.45
400.47	1916.90
400.67	1860.73
400.86	1881.79
401.05	2003.50
401.24	1926.26
401.44	1900.52
401.63	2001.16
401.82	1968.39
402.01	1863.07
402.21	2033.93
402.40	2012.86
402.59	2040.95
402.78	2115.84
402.97	2054.99
403.17	2094.78
403.36	2132.23
403.55	2108.82
403.74	2071.37
403.93	2263.30
404.13	2162.66
404.32	2136.91
404.51	2157.97
404.70	2256.28
404.89	2225.85
405.09	2239.89
405.28	2188.40
405.47	2340.54
405.66	2422.45
405.85	2408.41
406.05	2380.32
406.24	2422.45
406.43	2497.35
406.62	2480.97
406.81	2614.38
407.00	2518.42
407.20	2511.39
407.39	2401.39
407.58	2483.31
407.77	2480.97
407.96	2497.35
408.15	2602.68
408.34	2623.74
408.54	2679.91
408.73	2644.81
408.92	2920.99
409.11	2745.45
409.30	2775.88
409.49	2867.16
409.68	2806.30
409.87	2759.49
410.07	2796.94
410.26	2965.46
410.45	2953.76
410.64	2935.03
410.83	2949.08
411.02	2932.69
411.21	2963.12
411.40	2995.89
411.59	3052.06
411.78	3124.62
411.98	3075.46
412.17	3187.81
412.36	3206.53
412.55	3323.56
412.74	3311.86
412.93	3433.57
413.12	3353.99
413.31	3426.54
413.50	3452.29
413.69	3426.54
413.88	3452.29
414.07	3632.51
414.26	3557.61
414.45	3662.94
414.64	3485.06
414.83	3803.37
415.02	3691.02
415.22	3803.37
415.41	3735.50
415.60	3730.81
415.79	3925.08
415.98	3857.20
416.17	3943.80
416.36	3873.59
416.55	3997.64
416.74	4011.68
416.93	4095.94
417.12	4044.45
417.31	3925.08
417.50	4060.83
417.69	4369.78
417.88	4257.43
418.07	4264.46
418.26	4360.42
418.45	4393.19
418.64	4339.35
418.83	4428.29
419.02	4304.25
419.21	4554.68
419.39	4531.28
419.58	4454.04
419.77	4393.19
419.96	4606.17
420.15	4629.58
420.34	4517.23
420.53	4472.76
420.72	4695.11
420.91	4767.67
421.10	4814.48
421.29	4812.14
421.48	4519.57
421.67	4830.87
421.86	4814.48
422.05	4753.63
422.24	4809.80
422.43	4660.01
422.61	5020.45
422.80	5001.72
422.99	4968.96
423.18	4938.53
423.37	4994.70
423.56	4851.93
423.75	4957.25
423.94	4833.21
424.13	4575.75
424.32	4779.37
424.50	4877.68
424.69	4968.96
424.88	5123.43
425.07	4992.36
425.26	4898.74
425.45	5046.20
425.64	4957.25
425.83	5025.13
426.01	5050.88
426.20	5034.49
426.39	4910.44
426.58	5064.92
426.77	5025.13
426.96	5020.45
427.15	4947.89
427.33	5125.77
427.52	5142.16
427.71	5357.49
427.90	5221.74
428.09	5153.86
428.28	5383.23
428.46	5380.89
428.65	5205.35
428.84	5355.15
429.03	5530.69
429.22	5275.57
429.40	5488.56
429.59	5533.03
429.78	5198.33
429.97	5156.20
430.16	5266.21
430.34	5692.18
430.53	5617.29
430.72	5657.07
430.91	5570.48
431.10	5626.65
431.28	5837.30
431.47	5760.06
431.66	5832.62
431.85	5753.04
432.03	5926.24
432.22	6061.99
432.41	5951.98
432.60	6115.82
432.79	5884.11
432.97	5959.00
433.16	6204.76
433.35	5956.66
433.54	6038.58
433.72	6207.10
433.91	6090.07
434.10	6094.76
434.28	6174.33
434.47	6143.91
434.66	6406.05
434.85	6328.81
435.03	6314.77
435.22	6120.50
435.41	6347.53
435.59	6525.41
435.78	6502.01
435.97	6429.45
436.16	6600.31
436.34	6628.40
436.53	6413.07
436.72	6703.29
436.90	6569.88
437.09	6736.06
437.28	6546.48
437.46	6808.62
437.65	6757.13
437.84	6822.66
438.02	6675.21
438.21	6668.19
438.40	6944.37
438.58	7124.59
438.77	7077.78
438.96	7077.78
439.14	7218.21
439.33	7330.56
439.52	7297.79
439.70	7276.73
439.89	7365.67
440.08	7183.10
440.26	7424.18
440.45	7506.10
440.63	7585.68
440.82	7779.94
441.01	7616.10
441.19	7852.50
441.38	7922.71
441.57	7887.61
441.75	7939.10
441.94	8086.55
442.12	8121.66
442.31	8210.60
442.50	8294.86
442.68	7960.16
442.87	7985.91
443.05	8269.11
443.24	8287.84
443.43	8355.71
443.61	8285.50
443.80	8695.09
443.98	8114.64
444.17	8121.66
444.35	8369.76
444.54	8638.92
444.73	8589.77
444.91	8465.72
445.10	8573.38
445.28	8416.57
445.47	8325.29
445.65	8475.08
445.84	8442.31
446.02	8542.96
446.21	8603.81
446.39	8582.74
446.58	8697.43
446.77	8711.47
446.95	8327.63
447.14	8659.98
447.32	8695.09
447.51	8386.14
447.69	8585.08
447.88	8645.94
448.06	8720.84
448.25	8622.53
448.43	8706.79
448.62	8491.46
448.80	8795.73
448.99	8854.25
449.17	8849.57
449.36	8842.54
449.54	8758.28
449.73	9081.28
449.91	8980.64
450.10	9212.35
450.28	8987.66
450.46	9376.19
450.65	9167.88
450.83	9296.61
451.02	9074.26
451.20	9320.01
451.39	9364.48
451.57	9369.16
451.76	9305.97
451.94	9275.54
452.13	9467.47
452.31	9296.61
452.49	9266.18
452.68	9455.76
452.86	9390.23
453.05	9872.38
453.23	9645.35
453.42	9572.79
453.60	9664.07
453.78	9673.43
453.97	9692.16
454.15	9788.12
454.34	9528.32
454.52	9699.18
454.70	9921.53
454.89	9970.68
455.07	9902.81
455.26	10022.17
455.44	10047.92
455.62	10024.51
455.81	10174.31
455.99	10036.22
456.17	10310.06
456.36	9982.38
456.54	10120.48
456.73	10429.43
456.91	10492.62
457.09	10534.75
457.28	10619.01
457.46	10499.64
457.64	10579.22
457.83	10729.02
458.01	10429.43
458.19	10815.62
458.38	10595.61
458.56	10803.91
458.74	11154.99
458.93	10665.82
459.11	11028.60
459.29	11016.90
459.48	10853.06
459.66	10977.11
459.84	11059.03
460.03	11150.31
460.21	11037.97
460.39	11403.09
460.57	11126.91
460.76	11286.06
460.94	11454.58
461.12	11454.58
461.31	11173.72
461.49	11377.34
461.67	11304.79
461.85	11620.76
462.04	11335.21
462.22	12013.97
462.40	11800.98
462.59	11686.29
462.77	11756.51
462.95	11765.87
463.13	11847.79
463.32	11843.11
463.50	12032.69
463.68	11978.86
463.86	11873.54
464.05	11889.92
464.23	12042.06
464.41	12205.89
464.59	11616.08
464.78	12009.29
464.96	12131.00
465.14	11943.75
465.32	12159.08
465.50	12360.37
465.69	12442.29
465.87	12149.72
466.05	12248.02
466.23	12650.60
466.41	12404.84
466.60	12556.97
466.78	12308.88
466.96	12552.29
467.14	12617.83
467.32	12507.82
467.51	12435.27
467.69	12388.46
467.87	12671.66
468.05	12828.48
468.23	12786.35
468.41	12828.48
468.60	12695.07
468.78	13287.22
468.96	12657.62
469.14	13158.49
469.32	13408.93
469.50	12898.69
469.69	13427.65
469.87	13380.84
470.05	13371.48
470.23	13537.66
470.41	13252.11
470.59	13247.43
470.77	13357.44
470.95	13678.09
471.14	13530.64
471.32	13696.82
471.50	13862.99
471.68	13895.76
471.86	13870.01
472.04	14146.20
472.22	14164.92
472.40	13874.70
472.58	13949.59
472.77	14099.39
472.95	14516.00
473.13	14839.00
473.31	14263.22
473.49	14251.52
473.67	14810.91
473.85	14466.85
474.03	14876.44
474.21	15133.90
474.39	15115.18
474.57	14974.75
474.75	15321.15
474.93	15564.56
475.12	15321.15
475.30	15236.89
475.48	15396.04
475.66	15791.59
475.84	15597.33
476.02	16025.65
476.20	15831.38
476.38	16208.21
476.56	16222.25
476.74	16102.89
476.92	16198.85
477.10	16409.50
477.28	16458.65
477.46	16346.30
477.64	16538.23
477.82	16905.69
478.00	17151.45
478.18	17193.58
478.36	17298.90
478.54	17462.74
478.72	17591.47
478.90	17692.11
479.08	17778.71
479.26	17858.29
479.44	18188.30
479.62	18221.07
479.80	18457.46
479.98	18703.22
480.16	18895.14
480.34	18537.04
480.52	19190.05
480.70	18970.04
480.88	19023.87
481.06	19239.20
481.24	19206.44
481.41	19428.79
481.59	19910.94
481.77	20051.37
481.95	19751.78
482.13	20126.27
482.31	20051.37
482.49	20755.87
482.67	20765.23
482.85	21015.67
483.03	21329.30
483.21	21130.36
483.39	21458.03
483.57	21572.72
483.74	21553.99
483.92	21851.24
484.10	21846.56
484.28	22349.78
484.46	22630.64
484.64	23218.11
484.82	22427.01
485.00	22677.45
485.18	23147.90
485.35	23798.57
485.53	23351.52
485.71	23271.95
485.89	24081.77
486.07	24196.46
486.25	23976.45
486.43	24184.76
486.61	24538.18
486.78	24947.77
486.96	24767.55
487.14	25113.95
487.32	25348.00
487.50	25184.16
487.68	25497.80
487.85	25577.37
488.03	26405.92
488.21	26237.41
488.39	26654.02
488.57	26492.52
488.75	26792.11
488.92	27243.84
489.10	27358.52
489.28	27489.59
489.46	27522.36
489.64	27725.99
489.81	28510.07
489.99	28098.13
490.17	28425.81
490.35	28765.18
490.53	28706.67
490.70	29329.25
490.88	28905.62
491.06	29296.49
491.24	29371.38
491.41	29376.06
491.59	29425.22
491.77	29848.85
491.95	30560.37
492.13	30803.79
492.30	30792.09
492.48	30951.24
492.66	30969.97
492.84	30981.67
493.01	31751.71
493.19	31328.07
493.37	31737.66
493.54	31835.97
493.72	32144.92
493.90	32189.39
494.08	32367.27
494.25	32861.12
494.43	32816.65
494.61	33083.47
494.79	32975.81
494.96	33436.89
495.14	33738.82
495.32	33830.10
495.49	33993.94
495.67	34419.92
495.85	34401.19
496.02	34541.63
496.20	35009.73
496.38	35136.12
496.55	34759.30
496.73	35503.59
496.91	35641.68
497.09	35903.82
497.26	35824.24
497.44	35590.19
497.62	36098.08
497.79	36280.64
497.97	36044.25
498.14	37198.13
498.32	37235.58
498.50	36718.32
498.67	37373.67
498.85	37181.75
499.03	37661.56
499.20	37411.12
499.38	37572.62
499.56	37935.40
499.73	38515.86
499.91	38572.03
500.08	38286.48
500.26	38195.20
500.44	38550.96
500.61	38546.28
500.79	38630.54
500.97	39124.40
501.14	39449.73
501.32	39461.43
501.49	39618.25
501.67	39746.98
501.84	39807.83
502.02	39864.00
502.20	40369.56
502.37	40252.53
502.55	40126.14
502.72	40360.20
502.90	40428.07
503.07	39803.15
503.25	40790.86
503.43	40868.09
503.60	40940.65
503.78	41806.65
503.95	41036.61
504.13	41432.16
504.30	41160.66
504.48	41574.94
504.65	41897.93
504.83	42047.72
505.01	42211.56
505.18	42085.17
505.36	42609.45
505.53	42246.67
505.71	42567.32
505.88	42553.28
506.06	42560.30
506.23	43124.37
506.41	42766.27
506.58	43442.68
506.76	42787.33
506.93	43798.44
507.11	43360.76
507.28	43484.81
507.46	43601.84
507.63	44048.88
507.81	44175.27
507.98	43732.91
508.16	44229.10
508.33	44121.44
508.50	44079.31
508.68	44472.52
508.85	45010.84
509.03	45083.40
509.20	45240.21
509.38	45263.62
509.55	44992.12
509.73	45495.33
509.90	45703.64
510.08	45425.12
510.25	45860.46
510.42	45933.01
510.60	45689.60
510.77	46466.66
510.95	46527.51
511.12	46368.35
511.30	46082.81
511.47	46312.18
511.64	46433.89
511.82	47049.45
511.99	47037.75
512.17	46974.55
512.34	46775.61
512.51	47152.43
512.69	47538.62
512.86	47435.64
513.04	47466.06
513.21	48266.53
513.38	47695.44
513.56	47594.79
513.73	47697.78
513.90	47676.71
514.08	48027.79
514.25	47957.58
514.43	48114.39
514.60	48793.15
514.77	48603.56
514.95	48971.03
515.12	48512.28
515.29	48662.08
515.47	48959.33
515.64	49024.86
515.81	49090.40
515.99	49071.67
516.16	49429.77
516.33	49694.25
516.51	49542.12
516.68	49146.57
516.85	49378.28
517.03	49918.95
517.20	49535.10
517.37	49989.16
517.54	49738.72
517.72	49820.64
517.89	49806.60
518.06	49783.19
518.24	50202.15
518.41	50050.02
518.58	50696.00
518.75	50232.58
518.93	50501.74
519.10	50354.29
519.27	50564.93
519.45	50546.21
519.62	50621.11
519.79	50817.71
519.96	50586.00
520.14	50948.78
520.31	50848.14
520.48	51227.31
520.65	51246.03
520.83	51192.20
521.00	51618.17
521.17	51367.74
521.34	51239.01
521.52	51501.15
521.69	51531.57
521.86	51826.48
522.03	51784.35
522.20	51866.27
522.38	52018.41
522.55	52076.92
522.72	51936.49
522.89	52163.52
523.07	52575.45
523.24	52245.44
523.41	52662.05
523.58	52362.46
523.75	52605.88
523.92	52392.89
524.10	52596.52
524.27	52596.52
524.44	52989.73
524.61	53001.43
524.78	52949.94
524.96	52963.98
525.13	53158.25
525.30	53338.47
525.47	53097.39
525.64	53043.56
525.81	53249.53
525.98	53294.00
526.16	53514.01
526.33	53324.43
526.50	53783.17
526.67	53221.44
526.84	53193.36
527.01	53469.54
527.18	53598.27
527.36	53626.35
527.53	53888.49
527.70	53839.34
527.87	53729.34
528.04	53844.02
528.21	53968.07
528.38	53965.73
528.55	54197.44
528.72	54136.59
528.89	54330.86
529.07	54101.48
529.24	54052.33
529.41	54279.36
529.58	54033.61
529.75	54288.73
529.92	54845.77
530.09	54454.90
530.26	54508.74
530.43	54625.76
530.60	54621.08
530.77	54616.40
530.94	54742.79
531.11	54569.59
531.28	54665.55
531.46	54763.85
531.63	55117.28
531.80	54911.31
531.97	55033.02
532.14	55283.45
532.31	54986.21
532.48	55147.70
532.65	55407.50
532.82	54988.55
532.99	55370.05
533.16	55363.03
533.33	55297.50
533.50	55618.15
533.67	55606.45
533.84	55210.90
534.01	55526.87
534.18	55473.04
534.35	55632.19
534.52	55779.65
534.69	55721.13
534.86	55845.18
535.03	55800.71
535.20	55707.09
535.37	55810.07
535.54	55608.79
535.71	55648.58
535.88	55938.80
536.05	56079.24
536.22	56130.73
536.38	56205.62
536.55	56168.18
536.72	56161.15
536.89	55945.83
537.06	56278.18
537.23	56051.15
537.40	56186.90
537.57	55992.64
537.74	56193.92
537.91	56526.28
538.08	56339.04
538.25	56268.82
538.42	56626.92
538.59	56584.79
538.75	56320.31
538.92	56582.45
539.09	56687.78
539.26	56650.33
539.43	56638.62
539.60	56858.63
539.77	56652.67
539.94	56825.87
540.11	56872.68
540.28	56783.74
540.44	56921.83
540.61	56844.59
540.78	56945.23
540.95	56912.47
541.12	56853.95
541.29	57202.69
541.46	56914.81
541.62	56924.17
541.79	56961.62
541.96	56896.08
542.13	57176.95
542.30	57151.20
542.47	57286.95
542.63	57279.93
542.80	57485.90
542.97	57368.87
543.14	57420.36
543.31	57420.36
543.48	57371.21
543.64	57736.34
543.81	57675.48
543.98	57642.71
544.15	57698.89
544.32	57982.09
544.48	57956.35
544.65	57811.23
544.82	57605.26
544.99	57485.90
545.16	57874.43
545.32	57607.61
545.49	58143.59
545.66	58300.40
545.83	58227.85
546.00	58227.85
546.16	57991.45
546.33	57916.56
546.50	57773.78
546.67	58110.82
546.83	57769.10
547.00	58159.97
547.17	58286.36
547.34	58333.17
547.50	58211.46
547.67	58497.01
547.84	58220.83
548.00	58356.58
548.17	58550.84
548.34	58468.92
548.51	58749.79
548.67	58585.95
548.84	58602.33
549.01	58728.72
549.18	58499.35
549.34	58501.69
549.51	58431.47
549.68	58616.38
549.84	58604.67
550.01	58588.29
550.18	58541.48
550.34	58824.68
550.51	58850.43
550.68	58932.35
550.84	58478.28
551.01	58773.19
551.18	58705.32
551.34	58880.86
551.51	58899.58
551.68	58974.48
551.84	59030.65
552.01	58885.54
552.18	59145.34
552.34	58866.81
552.51	58974.48
552.68	58941.71
552.84	58988.52
553.01	59154.70
553.18	59192.15
553.34	58976.82
553.51	59229.60
553.67	59194.49
553.84	59290.45
554.01	59316.20
554.17	59220.23
554.34	59213.21
554.51	59454.29
554.67	59517.48
554.84	59316.20
555.00	59199.17
555.17	59320.88
555.33	59590.04
555.50	59386.41
555.67	59538.55
555.83	59236.62
556.00	59171.08
556.16	59625.15
556.33	59480.03
556.50	59381.73
556.66	59742.17
556.83	59681.32
556.99	59601.74
557.16	59873.24
557.32	59576.00
557.49	59756.22
557.65	59529.19
557.82	59477.69
557.98	59634.51
558.15	59695.36
558.32	59770.26
558.48	59693.02
558.65	59913.03
558.81	59711.75
558.98	59824.09
559.14	59716.43
559.31	59622.81
559.47	59936.44
559.64	60104.96
559.80	59721.11
559.97	60111.98
560.13	59756.22
560.30	59955.16
560.46	59922.40
560.63	59969.21
560.79	60046.44
560.96	60037.08
561.12	59898.99
561.29	60069.85
561.45	60004.31
561.61	60135.38
561.78	60133.04
561.94	60200.92
562.11	60219.64
562.27	60198.58
562.44	60060.49
562.60	60076.87
562.77	60013.68
562.93	60177.51
563.10	60308.58
563.26	60126.02
563.42	60451.36
563.59	60266.45
563.75	60151.77
563.92	60364.76
564.08	60020.70
564.24	60224.32
564.41	60271.14
564.57	60266.45
564.74	60210.28
564.90	60357.74
565.07	60404.55
565.23	60437.31
565.39	60416.25
565.56	60301.56
565.72	60350.71
565.88	60104.96
566.05	60313.26
566.21	60261.77
566.38	60186.88
566.54	60392.84
566.70	60537.96
566.87	60739.24
567.03	60451.36
567.19	60610.51
567.36	60336.67
567.52	60390.50
567.68	60236.03
567.85	60353.05
568.01	60463.06
568.17	60577.75
568.34	60535.62
568.50	60535.62
568.66	60441.99
568.83	60383.48
568.99	60516.89
569.15	60420.93
569.32	60378.80
569.48	60329.65
569.64	60669.03
569.81	60486.46
569.97	60666.69
570.13	60683.07
570.30	60554.34
570.46	60858.61
570.62	60640.94
570.78	60236.03
570.95	60413.91
571.11	60493.49
571.27	60378.80
571.43	60479.44
571.60	60734.56
571.76	60598.81
571.92	60568.38
572.09	60748.60
572.25	60973.30
572.41	60643.28
572.57	60830.52
572.74	60776.69
572.90	60610.51
573.06	60533.28
573.22	60800.10
573.38	61041.17
573.55	60945.21
573.71	61008.40
573.87	60659.66
574.03	60776.69
574.20	60729.88
574.36	60636.26
574.52	60535.62
574.68	60882.02
574.84	60779.03
575.01	60987.34
575.17	60755.63
575.33	60680.73
575.49	60844.57
575.65	60828.18
575.82	60851.59
575.98	60741.58
576.14	60640.94
576.30	60736.90
576.46	60704.13
576.62	60687.75
576.79	60748.60
576.95	60807.12
577.11	60860.95
577.27	61123.09
577.43	60853.93
577.59	60872.65
577.75	60935.85
577.92	60566.04
578.08	60741.58
578.24	60882.02
578.40	60729.88
578.56	61010.74
578.72	60989.68
578.88	61102.03
579.04	61078.62
579.21	61003.72
579.37	60790.73
579.53	61048.19
579.69	60666.69
579.85	60786.05
580.01	60849.25
580.17	60793.07
580.33	60870.31
580.49	60992.02
580.65	61148.84
580.82	61097.34
580.98	60928.83
581.14	61036.49
581.30	60987.34
581.46	60956.91
581.62	60699.45
581.78	60767.33
581.94	60982.66
582.10	60807.12
582.26	61123.09
582.42	61179.26
582.58	60999.04
582.74	61148.84
582.90	61097.34
583.06	61087.98
583.22	60910.10
583.38	60961.59
583.54	61116.07
583.70	60835.20
583.86	60786.05
584.02	60931.17
584.18	61172.24
584.34	60952.23
584.50	61172.24
584.66	61034.15
584.82	60851.59
584.98	61216.71
585.14	60947.55
585.30	60865.63
585.46	60996.70
585.62	60940.53
585.78	61272.88
585.94	60987.34
586.10	61015.43
586.26	61165.22
586.42	61090.32
586.58	61057.56
586.74	60977.98
586.90	60846.91
587.06	60865.63
587.22	60874.99
587.38	61029.47
587.54	61095.00
587.70	61095.00
587.86	61106.71
588.02	61209.69
588.18	61425.02
588.34	61106.71
588.49	60987.34
588.65	61027.13
588.81	61029.47
588.97	61195.65
589.13	61153.52
