SpectraSuite Data File
++++++++++++++++++++++++++++++++++++
Date: Fri Oct 04 11:48:38 GMT-05:00 2013
User: price-jones
Dark Spectrum Present: No
Reference Spectrum Present: No
Number of Sampled Component Spectra: 1
Spectrometers: USB2+H05261
Integration Time (usec): 100000 (USB2+H05261)
Spectra Averaged: 1 (USB2+H05261)
Boxcar Smoothing: 0 (USB2+H05261)
Correct for Electrical Dark: No (USB2+H05261)
Strobe/Lamp Enabled: No (USB2+H05261)
Correct for Detector Non-linearity: No (USB2+H05261)
Correct for Stray Light: No (USB2+H05261)
Number of Pixels in Processed Spectrum: 2048
>>>>>Begin Processed Spectral Data<<<<<
365.73	0.00
365.92	0.00
366.12	0.00
366.32	0.00
366.52	0.00
366.72	0.00
366.91	0.00
367.11	0.00
367.31	0.00
367.51	0.00
367.70	0.00
367.90	0.00
368.10	0.00
368.30	0.00
368.49	0.00
368.69	0.00
368.89	0.00
369.09	0.00
369.28	0.00
369.48	0.00
369.68	0.00
369.87	0.00
370.07	9.36
370.27	11.70
370.47	37.45
370.66	224.69
370.86	280.86
371.06	182.56
371.25	229.37
371.45	320.65
371.65	360.44
371.84	259.80
372.04	334.70
372.24	311.29
372.44	395.55
372.63	313.63
372.83	428.32
373.03	327.68
373.22	362.78
373.42	306.61
373.62	372.15
373.81	355.76
374.01	369.80
374.21	386.19
374.40	433.00
374.60	416.62
374.79	402.57
374.99	344.06
375.19	404.91
375.38	418.96
375.58	388.53
375.78	334.70
375.97	390.87
376.17	524.28
376.37	486.83
376.56	440.02
376.76	388.53
376.95	330.02
377.15	423.64
377.35	468.11
377.54	393.21
377.74	409.59
377.93	367.46
378.13	421.30
378.33	461.09
378.52	493.85
378.72	393.21
378.91	400.23
379.11	458.74
379.31	447.04
379.50	421.30
379.70	517.26
379.89	463.43
380.09	465.77
380.28	442.36
380.48	484.49
380.68	454.06
380.87	433.00
381.07	526.62
381.26	561.73
381.46	505.56
381.65	533.64
381.85	477.47
382.04	472.79
382.24	461.09
382.43	430.66
382.63	524.28
382.83	444.70
383.02	517.26
383.22	547.69
383.41	477.47
383.61	552.37
383.80	540.66
384.00	533.64
384.19	561.73
384.39	547.69
384.58	552.37
384.78	543.00
384.97	533.64
385.17	540.66
385.36	582.79
385.56	512.58
385.75	524.28
385.95	566.41
386.14	592.16
386.34	540.66
386.53	589.82
386.72	603.86
386.92	645.99
387.11	603.86
387.31	582.79
387.50	638.97
387.70	564.07
387.89	575.77
388.09	594.50
388.28	636.63
388.48	645.99
388.67	662.37
388.86	568.75
389.06	582.79
389.25	650.67
389.45	739.61
389.64	648.33
389.84	664.71
390.03	685.78
390.22	688.12
390.42	674.07
390.61	650.67
390.81	678.76
391.00	683.44
391.19	863.66
391.39	720.88
391.58	706.84
391.78	716.20
391.97	734.93
392.16	678.76
392.36	807.48
392.55	793.44
392.75	751.31
392.94	788.76
393.13	851.96
393.33	770.04
393.52	713.86
393.71	863.66
393.91	807.48
394.10	828.55
394.29	765.36
394.49	753.65
394.68	814.51
394.88	861.32
395.07	849.61
395.26	830.89
395.46	884.72
395.65	861.32
395.84	880.04
396.04	931.53
396.23	903.45
396.42	917.49
396.62	840.25
396.81	926.85
397.00	919.83
397.19	929.19
397.39	933.87
397.58	1006.43
397.77	924.51
397.97	882.38
398.16	931.53
398.35	1036.86
398.55	1025.15
398.74	1029.84
398.93	1034.52
399.12	1029.84
399.32	1050.90
399.51	1067.28
399.70	1095.37
399.90	1123.46
400.09	1123.46
400.28	1076.65
400.47	1090.69
400.67	1181.97
400.86	1193.67
401.05	1114.10
401.24	1284.95
401.44	1170.27
401.63	1083.67
401.82	1200.69
402.01	1111.75
402.21	1198.35
402.40	1324.74
402.59	1322.40
402.78	1299.00
402.97	1348.15
403.17	1385.60
403.36	1301.34
403.55	1336.45
403.74	1366.87
403.93	1324.74
404.13	1404.32
404.32	1327.08
404.51	1411.34
404.70	1460.49
404.89	1409.00
405.09	1469.86
405.28	1500.28
405.47	1467.52
405.66	1533.05
405.85	1444.11
406.05	1561.14
406.24	1565.82
406.43	1614.97
406.62	1643.06
406.81	1654.76
407.00	1607.95
407.20	1526.03
407.39	1687.53
407.58	1673.48
407.77	1724.97
407.96	1797.53
408.15	1736.68
408.34	1720.29
408.54	1657.10
408.73	1739.02
408.92	1762.42
409.11	1856.04
409.30	1846.68
409.49	1809.23
409.68	1842.00
409.87	1909.88
410.07	1886.47
410.26	1895.83
410.45	1905.20
410.64	1888.81
410.83	1963.71
411.02	1923.92
411.21	2132.23
411.40	2047.97
411.59	2054.99
411.78	2104.14
411.98	2207.13
412.17	2052.65
412.36	2122.87
412.55	2143.93
412.74	2249.25
412.93	2232.87
413.12	2214.15
413.31	2377.98
413.50	2279.68
413.69	2363.94
413.88	2466.92
414.07	2483.31
414.26	2445.86
414.45	2480.97
414.64	2586.29
414.83	2480.97
415.02	2525.44
415.22	2569.91
415.41	2513.74
415.60	2569.91
415.79	2593.31
415.98	2715.02
416.17	2850.77
416.36	2665.87
416.55	2693.96
416.74	2874.18
416.93	2815.66
417.12	2825.03
417.31	2904.60
417.50	2801.62
417.69	2935.03
417.88	2825.03
418.07	2871.84
418.26	2923.33
418.45	3000.57
418.64	2963.12
418.83	3073.12
419.02	2986.52
419.21	3117.59
419.39	3138.66
419.58	3073.12
419.77	2951.42
419.96	3087.17
420.15	3180.79
420.34	3063.76
420.53	3068.44
420.72	3365.69
420.91	3143.34
421.10	3258.03
421.29	3337.60
421.48	3330.58
421.67	3372.71
421.86	3239.30
422.05	3293.13
422.24	3262.71
422.43	3314.20
422.61	3318.88
422.80	3440.59
422.99	3499.10
423.18	3375.05
423.37	3496.76
423.56	3447.61
423.75	3468.67
423.94	3417.18
424.13	3190.15
424.32	3243.98
424.50	3482.72
424.69	3557.61
424.88	3447.61
425.07	3454.63
425.26	3295.47
425.45	3363.35
425.64	3468.67
425.83	3463.99
426.01	3456.97
426.20	3478.04
426.39	3545.91
426.58	3616.13
426.77	3527.19
426.96	3517.83
427.15	3705.07
427.33	3630.17
427.52	3574.00
427.71	3646.55
427.90	3653.58
428.09	3581.02
428.28	3723.79
428.46	3756.56
428.65	3611.45
428.84	3714.43
429.03	3913.38
429.22	3761.24
429.40	3911.04
429.59	3822.09
429.78	3595.06
429.97	3707.41
430.16	3653.58
430.34	3812.73
430.53	3943.80
430.72	3740.18
430.91	3934.44
431.10	3988.27
431.28	4063.17
431.47	4131.05
431.66	4187.22
431.85	3985.93
432.03	3960.19
432.22	4159.13
432.41	4039.76
432.60	4154.45
432.79	4126.36
432.97	4049.13
433.16	4154.45
433.35	4266.80
433.54	4351.06
433.72	4276.16
433.91	4105.30
434.10	4266.80
434.28	4241.05
434.47	4269.14
434.66	4486.81
434.85	4383.82
435.03	4393.19
435.22	4287.86
435.41	4505.53
435.59	4421.27
435.78	4428.29
435.97	4559.36
436.16	4437.66
436.34	4521.92
436.53	4582.77
436.72	4739.58
436.90	4477.44
437.09	4692.77
437.28	4568.73
437.46	4671.71
437.65	4814.48
437.84	4751.29
438.02	4699.80
438.21	4760.65
438.40	4725.54
438.58	4685.75
438.77	4889.38
438.96	4889.38
439.14	5011.09
439.33	5053.22
439.52	5128.11
439.70	5057.90
439.89	5121.09
440.08	4961.94
440.26	5203.01
440.45	5186.63
440.63	5226.42
440.82	5245.14
441.01	5048.54
441.19	5420.68
441.38	5460.47
441.57	5411.32
441.75	5507.28
441.94	5385.57
442.12	5430.04
442.31	5586.86
442.50	5631.33
442.68	5556.43
442.87	5584.52
443.05	5586.86
443.24	5671.12
443.43	5797.51
443.61	5631.33
443.80	6115.82
443.98	5638.35
444.17	5493.24
444.35	5867.72
444.54	5888.79
444.73	5776.44
444.91	5762.40
445.10	5746.02
445.28	5753.04
445.47	5762.40
445.65	5724.95
445.84	5881.77
446.02	6015.18
446.21	5949.64
446.39	5846.66
446.58	5863.04
446.77	6019.86
446.95	5844.32
447.14	5909.85
447.32	6064.33
447.51	5856.02
447.69	5867.72
447.88	5921.56
448.06	5928.58
448.25	6015.18
448.43	5755.38
448.62	6012.84
448.80	6043.26
448.99	6099.44
449.17	5963.68
449.36	5818.57
449.54	6193.06
449.73	6274.98
449.91	6209.44
450.10	6183.70
450.28	6310.08
450.46	6326.47
450.65	6317.11
450.83	6214.12
451.02	6338.17
451.20	6494.99
451.39	6363.92
451.57	6551.16
451.76	6361.58
451.94	6319.45
452.13	6487.96
452.31	6408.39
452.49	6326.47
452.68	6499.67
452.86	6525.41
453.05	6579.25
453.23	6609.67
453.42	6530.09
453.60	6544.14
453.78	6623.72
453.97	6548.82
454.15	6509.03
454.34	6609.67
454.52	6684.57
454.70	6715.00
454.89	6817.98
455.07	6827.34
455.26	6827.34
455.44	6810.96
455.62	6743.08
455.81	6773.51
455.99	7033.31
456.17	6890.54
456.36	6918.62
456.54	7068.42
456.73	7059.06
456.91	7180.76
457.09	7243.96
457.28	7290.77
457.46	7148.00
457.64	7463.97
457.83	7215.87
458.01	7218.21
458.19	7445.24
458.38	7424.18
458.56	7435.88
458.74	7360.98
458.93	7311.83
459.11	7185.44
459.29	7382.05
459.48	7473.33
459.66	7332.90
459.84	7634.83
460.03	7618.44
460.21	7459.29
460.39	7623.12
460.57	7616.10
460.76	7599.72
460.94	7911.01
461.12	7873.56
461.31	7531.84
461.49	7726.11
461.67	7808.03
461.85	7831.43
462.04	7667.60
462.22	8514.87
462.40	8042.08
462.59	7817.39
462.77	8025.70
462.95	8105.28
463.13	8056.12
463.32	8077.19
463.50	8039.74
463.68	8166.13
463.86	8042.08
464.05	8203.58
464.23	7974.21
464.41	8205.92
464.59	7997.61
464.78	8409.54
464.96	8081.87
465.14	8191.88
465.32	8255.07
465.50	8266.77
465.69	8390.82
465.87	8402.52
466.05	8421.25
466.23	8479.76
466.41	8308.90
466.60	8641.26
466.78	8329.97
466.96	8510.19
467.14	8266.77
467.32	8205.92
467.51	8542.96
467.69	8362.73
467.87	8339.33
468.05	8423.59
468.23	8760.63
468.41	8573.38
468.60	8507.85
468.78	8863.61
468.96	8592.11
469.14	8636.58
469.32	8819.14
469.50	8802.75
469.69	8849.57
469.87	9193.62
470.05	9036.81
470.23	8922.12
470.41	9174.90
470.59	8800.41
470.77	9102.34
470.95	9006.38
471.14	9242.78
471.32	8980.64
471.50	9170.22
471.68	9401.93
471.86	9301.29
472.04	9455.76
472.22	9511.94
472.40	9385.55
472.58	9593.86
472.77	9607.90
472.95	9753.01
473.13	9916.85
473.31	9837.27
473.49	9809.19
473.67	9699.18
473.85	9654.71
474.03	10267.93
474.21	9989.41
474.39	9961.32
474.57	10026.86
474.75	9977.70
474.93	10190.69
475.12	10012.81
475.30	10384.96
475.48	10216.44
475.66	10354.53
475.84	10469.22
476.02	10560.50
476.20	10478.58
476.38	10588.58
476.56	10794.55
476.74	10796.89
476.92	10672.84
477.10	10815.62
477.28	10981.79
477.46	10960.73
477.64	10904.56
477.82	11318.83
478.00	11440.54
478.18	11442.88
478.36	11407.77
478.54	11737.79
478.72	11831.41
478.90	11784.60
479.08	12081.85
479.26	11999.93
479.44	12042.06
479.62	12182.49
479.80	11995.25
479.98	12273.77
480.16	12568.68
480.34	12559.31
480.52	12685.70
480.70	12690.38
480.88	12645.91
481.06	12730.17
481.24	12428.24
481.41	12872.95
481.59	13116.36
481.77	12987.63
481.95	13231.05
482.13	13490.85
482.31	13369.14
482.49	13806.82
482.67	13675.75
482.85	14094.71
483.03	14024.49
483.21	14150.88
483.39	14281.95
483.57	14228.12
483.74	14555.79
483.92	14532.39
484.10	14813.25
484.28	14640.05
484.46	14963.04
484.64	15250.93
484.82	14745.38
485.00	15117.52
485.18	15026.24
485.35	15468.60
485.53	15641.80
485.71	15592.65
485.89	15728.40
486.07	15873.51
486.25	15953.09
486.43	15957.77
486.61	16477.37
486.78	16126.29
486.96	16404.81
487.14	16613.12
487.32	16407.16
487.50	16655.25
487.68	16968.88
487.85	17102.29
488.03	17315.28
488.21	17500.19
488.39	17518.91
488.57	17465.08
488.75	17907.44
488.92	18139.15
489.10	17816.16
489.28	18258.52
489.46	18207.03
489.64	18221.07
489.81	18740.67
489.99	18600.24
490.17	18721.95
490.35	19115.16
490.53	18993.45
490.70	18923.23
490.88	19110.47
491.06	19269.63
491.24	19601.99
491.41	19775.19
491.59	19831.36
491.77	20020.94
491.95	19817.32
492.13	20243.29
492.30	20184.78
492.48	20166.06
492.66	20379.04
492.84	20556.93
493.01	20744.17
493.19	20957.16
493.37	21071.84
493.54	21205.25
493.72	20959.50
493.90	21275.47
494.08	21516.54
494.25	21832.52
494.43	21933.16
494.61	21851.24
494.79	21965.93
494.96	22047.85
495.14	22450.42
495.32	22267.86
495.49	22441.06
495.67	22567.45
495.85	22686.81
496.02	22663.41
496.20	22970.02
496.38	22752.35
496.55	22913.84
496.73	23585.58
496.91	23353.87
497.09	23421.74
497.26	23672.18
497.44	23365.57
497.62	23466.21
497.79	23880.49
497.97	24046.66
498.14	24166.03
498.32	24168.37
498.50	24364.98
498.67	24470.30
498.85	24645.84
499.03	24615.41
499.20	24788.61
499.38	24568.60
499.56	25158.42
499.73	25025.01
499.91	25823.13
500.08	25497.80
500.26	25083.52
500.44	25570.35
500.61	25525.88
500.79	25591.42
500.97	25553.97
501.14	25893.35
501.32	25937.82
501.49	25556.31
501.67	26080.59
501.84	26211.66
502.02	25977.61
502.20	26492.52
502.37	26497.20
502.55	26445.71
502.72	26712.53
502.90	27112.77
503.07	26216.34
503.25	26536.99
503.43	26974.67
503.60	26885.73
503.78	27075.32
503.95	27094.04
504.13	27321.07
504.30	27438.10
504.48	27318.73
504.65	27426.40
504.83	27943.66
505.01	27793.86
505.18	27608.96
505.36	27786.84
505.53	27817.27
505.71	27910.89
505.88	28215.16
506.06	28205.80
506.23	28423.47
506.41	28776.89
506.58	28622.41
506.76	28367.29
506.93	28659.86
507.11	28561.56
507.28	28809.65
507.46	28879.87
507.63	29170.10
507.81	29188.82
507.98	28769.86
508.16	28828.38
508.33	29106.90
508.50	29371.38
508.68	29378.40
508.85	29914.39
509.03	29834.81
509.20	29921.41
509.38	30338.02
509.55	30031.41
509.73	30242.06
509.90	30302.92
510.08	30213.98
510.25	30305.26
510.42	30361.43
510.60	30518.25
510.77	31161.89
510.95	31012.10
511.12	30625.91
511.30	30628.25
511.47	31016.78
511.64	30824.86
511.82	31264.88
511.99	31295.30
512.17	31442.76
512.34	31178.28
512.51	31608.93
512.69	31314.03
512.86	31377.22
513.04	31763.41
513.21	31887.46
513.38	31648.72
513.56	32086.40
513.73	31852.35
513.90	32596.64
514.08	32020.87
514.25	32252.58
514.43	32545.15
514.60	32643.45
514.77	32369.61
514.95	32582.60
515.12	32521.74
515.29	32275.99
515.47	32952.40
515.64	32952.40
515.81	32837.72
515.99	33216.88
516.16	33081.13
516.33	33263.69
516.51	33277.74
516.68	33179.43
516.85	32844.74
517.03	33694.35
517.20	33406.47
517.37	33752.87
517.54	33567.96
517.72	33486.04
517.89	33799.68
518.06	33486.04
518.24	33724.78
518.41	34000.96
518.58	33937.77
518.75	33811.38
518.93	34363.75
519.10	33881.60
519.27	34256.08
519.45	34295.87
519.62	34274.80
519.79	34689.08
519.96	34356.72
520.14	34513.54
520.31	34808.45
520.48	34974.63
520.65	35211.02
520.83	35093.99
521.00	35391.24
521.17	35344.43
521.34	35180.59
521.52	35732.96
521.69	35063.57
521.86	35501.25
522.03	35583.16
522.20	35878.07
522.38	35910.84
522.55	35861.69
522.72	35828.92
522.89	36105.10
523.07	36142.55
523.24	35981.06
523.41	36201.07
523.58	35604.23
523.75	36325.11
523.92	36449.16
524.10	36121.49
524.27	36116.81
524.44	36320.43
524.61	36374.27
524.78	36776.84
524.96	36692.58
525.13	36463.21
525.30	36659.81
525.47	36875.14
525.64	36879.82
525.81	36992.17
525.98	37507.08
526.16	37317.50
526.33	36971.10
526.50	37338.57
526.67	36905.57
526.84	37411.12
527.01	37266.01
527.18	37116.22
527.36	37383.04
527.53	37584.32
527.70	38136.69
527.87	37661.56
528.04	37429.85
528.21	37670.92
528.38	37474.32
528.55	37940.08
528.72	37764.54
528.89	38281.80
529.07	37951.79
529.24	37675.60
529.41	38230.31
529.58	37942.42
529.75	37940.08
529.92	38141.37
530.09	38272.44
530.26	38576.71
530.43	38253.72
530.60	38220.95
530.77	38370.74
530.94	38822.47
531.11	38972.26
531.28	38576.71
531.46	38932.47
531.63	38993.32
531.80	39093.97
531.97	39372.49
532.14	39229.72
532.31	38712.46
532.48	38925.45
532.65	39150.14
532.82	39033.11
532.99	39658.04
533.16	39000.35
533.33	39442.71
533.50	39576.12
533.67	39552.71
533.84	39274.19
534.01	39564.42
534.18	39545.69
534.35	39618.25
534.52	39686.12
534.69	40121.46
534.86	39878.05
535.03	39976.35
535.20	39791.45
535.37	40079.33
535.54	39842.94
535.71	39426.32
535.88	39826.56
536.05	40205.72
536.22	40081.67
536.38	40549.78
536.55	40339.13
536.72	40584.89
536.89	40189.34
537.06	40748.73
537.23	40769.79
537.40	40425.73
537.57	40313.39
537.74	40762.77
537.91	41074.06
538.08	40542.76
538.25	40842.35
538.42	40378.92
538.59	40921.93
538.75	40957.03
538.92	40502.97
539.09	41034.27
539.26	41177.04
539.43	41132.57
539.60	41109.17
539.77	41158.32
539.94	41357.27
540.11	41361.95
540.28	41177.04
540.44	41528.13
540.61	41303.43
540.78	41640.47
540.95	41118.53
541.12	41347.90
541.29	41095.13
541.46	41317.48
541.62	41198.11
541.79	41312.80
541.96	40863.41
542.13	41057.68
542.30	41907.29
542.47	42176.45
542.63	42370.72
542.80	41670.90
542.97	42410.51
543.14	42452.64
543.31	42213.90
543.48	41762.18
543.64	42546.26
543.81	42351.99
543.98	42679.67
544.15	42621.16
544.32	42632.86
544.48	42609.45
544.65	42410.51
544.82	42134.32
544.99	42005.59
545.16	42539.24
545.32	42689.03
545.49	43407.58
545.66	42988.62
545.83	43658.01
546.00	43475.45
546.16	42775.63
546.33	42761.59
546.50	42600.09
546.67	43367.79
546.83	42349.65
547.00	42684.35
547.17	43082.24
547.34	43023.73
547.50	43131.39
547.67	42906.70
547.84	43220.33
548.00	43349.06
548.17	43611.20
548.34	43365.45
548.51	43601.84
548.67	43580.78
548.84	42909.04
549.01	43739.93
549.18	43337.36
549.34	43611.20
549.51	43648.65
549.68	43615.88
549.84	43225.01
550.01	43732.91
550.18	43416.94
550.34	43543.33
550.51	43908.45
550.68	43650.99
550.84	43068.20
551.01	43840.57
551.18	43587.80
551.34	43299.91
551.51	43917.81
551.68	44135.48
551.84	44114.42
552.01	43611.20
552.18	44186.97
552.34	44013.77
552.51	43704.82
552.68	43915.47
552.84	43990.37
553.01	44161.23
553.18	44390.60
553.34	44289.96
553.51	44641.04
553.67	44257.19
553.84	44676.15
554.01	44189.31
554.17	44570.82
554.34	44603.59
554.51	44708.91
554.67	44257.19
554.84	44357.83
555.00	44521.67
555.17	44250.17
555.33	44629.34
555.50	44224.42
555.67	44341.45
555.83	44350.81
556.00	44755.72
556.16	44982.76
556.33	44509.97
556.50	44580.18
556.66	45050.63
556.83	45111.49
556.99	44582.52
557.16	44975.73
557.32	44818.92
557.49	45022.54
557.65	45067.02
557.82	44947.65
557.98	44837.64
558.15	44708.91
558.32	44942.97
558.48	45104.46
558.65	44924.24
558.81	45504.70
558.98	44737.00
559.14	45036.59
559.31	44364.85
559.47	45041.27
559.64	45329.16
559.80	45495.33
559.97	45556.19
560.13	45401.71
560.30	45357.24
560.46	45212.13
560.63	45226.17
560.79	45528.10
560.96	45291.71
561.12	44985.10
561.29	45120.85
561.45	45352.56
561.61	45703.64
561.78	45574.91
561.94	45361.92
562.11	45378.31
562.27	45724.71
562.44	45675.55
562.60	45301.07
562.77	45516.40
562.93	45120.85
563.10	45415.76
563.26	45263.62
563.42	46014.93
563.59	45806.62
563.75	45525.76
563.92	45642.79
564.08	45366.60
564.24	45237.87
564.41	45689.60
564.57	45312.77
564.74	45404.05
564.90	45591.30
565.07	45956.42
565.23	46120.26
565.39	45488.31
565.56	45701.30
565.72	45574.91
565.88	45294.05
566.05	45708.32
566.21	45296.39
566.38	45663.85
566.54	45338.52
566.70	45942.38
566.87	45846.41
567.03	45916.63
567.19	45902.59
567.36	45848.75
567.52	45755.13
567.68	45820.67
567.85	45670.87
568.01	46120.26
568.17	45694.28
568.34	46312.18
568.50	45825.35
568.66	45762.15
568.83	46209.20
568.99	45612.36
569.15	45703.64
569.32	45869.82
569.48	45453.20
569.64	45837.05
569.81	45907.27
569.97	46054.72
570.13	46131.96
570.30	45778.54
570.46	46270.05
570.62	45537.46
570.78	45925.99
570.95	45752.79
571.11	46291.12
571.27	45656.83
571.43	45350.22
571.60	45619.38
571.76	45921.31
571.92	46129.62
572.09	45951.74
572.25	46115.58
572.41	46089.83
572.57	45785.56
572.74	45872.16
572.90	45787.90
573.06	46146.00
573.22	45989.19
573.38	46036.00
573.55	46007.91
573.71	46197.49
573.87	45970.46
574.03	45837.05
574.20	45933.01
574.36	45881.52
574.52	45727.05
574.68	46066.42
574.84	46284.09
575.01	46059.40
575.17	46511.13
575.33	45818.33
575.49	45867.48
575.65	46230.26
575.82	46358.99
575.98	45975.14
576.14	45813.65
576.30	45940.04
576.46	46010.25
576.62	45874.50
576.79	46274.73
576.95	45572.57
577.11	46127.28
577.27	46045.36
577.43	46199.83
577.59	46176.43
577.75	45806.62
577.92	45759.81
578.08	45640.45
578.24	46007.91
578.40	46033.66
578.56	46244.30
578.72	46169.41
578.88	46167.07
579.04	46033.66
579.21	46176.43
579.37	45846.41
579.53	46354.31
579.69	45649.81
579.85	45984.51
580.01	45886.20
580.17	45961.10
580.33	45778.54
580.49	46085.15
580.65	46054.72
580.82	46342.61
580.98	46520.49
581.14	45694.28
581.30	46239.62
581.46	46031.32
581.62	45705.98
581.78	45900.25
581.94	46134.30
582.10	46113.23
582.26	46239.62
582.42	46157.70
582.58	46136.64
582.74	46206.86
582.90	46553.26
583.06	46307.50
583.22	45900.25
583.38	46295.80
583.54	46277.07
583.70	46354.31
583.86	46487.72
584.02	46075.79
584.18	46309.84
584.34	46256.01
584.50	46398.78
584.66	46410.48
584.82	46305.16
584.98	45904.93
585.14	46520.49
585.30	46028.98
585.46	46375.37
585.62	45923.65
585.78	46602.41
585.94	46260.69
586.10	46043.02
586.26	46134.30
586.42	46330.90
586.58	46237.28
586.74	45914.29
586.90	46089.83
587.06	45535.12
587.22	46291.12
587.38	46548.57
587.54	46630.49
587.70	46651.56
587.86	46644.54
588.02	46021.95
588.18	46621.13
588.34	46064.08
588.49	46333.24
588.65	46424.53
588.81	46272.39
588.97	46305.16
589.13	46335.59
589.29	46174.09
589.45	46574.32
589.61	46553.26
589.77	46740.50
589.93	46501.76
590.08	46546.23
590.24	46433.89
590.40	46429.21
590.56	46745.18
590.72	46328.56
