SpectraSuite Data File
++++++++++++++++++++++++++++++++++++
Date: Fri Oct 04 11:48:39 GMT-05:00 2013
User: price-jones
Dark Spectrum Present: No
Reference Spectrum Present: No
Number of Sampled Component Spectra: 1
Spectrometers: USB2+H05261
Integration Time (usec): 100000 (USB2+H05261)
Spectra Averaged: 1 (USB2+H05261)
Boxcar Smoothing: 0 (USB2+H05261)
Correct for Electrical Dark: No (USB2+H05261)
Strobe/Lamp Enabled: No (USB2+H05261)
Correct for Detector Non-linearity: No (USB2+H05261)
Correct for Stray Light: No (USB2+H05261)
Number of Pixels in Processed Spectrum: 2048
>>>>>Begin Processed Spectral Data<<<<<
365.73	23.41
365.92	23.41
366.12	23.41
366.32	0.00
366.52	0.00
366.72	0.00
366.91	0.00
367.11	0.00
367.31	0.00
367.51	0.00
367.70	0.00
367.90	0.00
368.10	0.00
368.30	0.00
368.49	0.00
368.69	0.00
368.89	0.00
369.09	0.00
369.28	0.00
369.48	0.00
369.68	16.38
369.87	37.45
370.07	0.00
370.27	60.85
370.47	65.54
370.66	236.39
370.86	266.82
371.06	250.44
371.25	369.80
371.45	266.82
371.65	330.02
371.84	388.53
372.04	339.38
372.24	395.55
372.44	348.74
372.63	372.15
372.83	404.91
373.03	318.31
373.22	252.78
373.42	411.93
373.62	404.91
373.81	435.34
374.01	486.83
374.21	421.30
374.40	397.89
374.60	395.55
374.79	465.77
374.99	381.51
375.19	423.64
375.38	526.62
375.58	402.57
375.78	461.09
375.97	468.11
376.17	517.26
376.37	430.66
376.56	475.13
376.76	458.74
376.95	411.93
377.15	524.28
377.35	440.02
377.54	430.66
377.74	500.87
377.93	409.59
378.13	435.34
378.33	479.81
378.52	414.27
378.72	484.49
378.91	505.56
379.11	524.28
379.31	510.24
379.50	496.19
379.70	437.68
379.89	510.24
380.09	456.40
380.28	418.96
380.48	526.62
380.68	475.13
380.87	456.40
381.07	521.94
381.26	512.58
381.46	531.30
381.65	559.39
381.85	521.94
382.04	554.71
382.24	606.20
382.43	498.53
382.63	538.32
382.83	472.79
383.02	631.94
383.22	662.37
383.41	538.32
383.61	608.54
383.80	475.13
384.00	540.66
384.19	596.84
384.39	538.32
384.58	657.69
384.78	617.90
384.97	592.16
385.17	617.90
385.36	557.05
385.56	603.86
385.75	615.56
385.95	557.05
386.14	629.60
386.34	657.69
386.53	650.67
386.72	643.65
386.92	781.74
387.11	676.41
387.31	634.29
387.50	648.33
387.70	653.01
387.89	688.12
388.09	655.35
388.28	685.78
388.48	667.05
388.67	662.37
388.86	772.38
389.06	748.97
389.25	770.04
389.45	678.76
389.64	802.80
389.84	814.51
390.03	779.40
390.22	741.95
390.42	751.31
390.61	812.17
390.81	823.87
391.00	723.23
391.19	830.89
391.39	758.33
391.58	741.95
391.78	763.01
391.97	779.40
392.16	781.74
392.36	926.85
392.55	854.30
392.75	830.89
392.94	814.51
393.13	901.11
393.33	840.25
393.52	873.02
393.71	777.06
393.91	849.61
394.10	802.80
394.29	868.34
394.49	847.27
394.68	936.21
394.88	917.49
395.07	947.92
395.26	1027.50
395.46	858.98
395.65	896.43
395.84	992.39
396.04	1078.99
396.23	999.41
396.42	961.96
396.62	1008.77
396.81	954.94
397.00	1025.15
397.19	1015.79
397.39	1004.09
397.58	1088.35
397.77	1020.47
397.97	1137.50
398.16	1039.20
398.35	1076.65
398.55	1053.24
398.74	1146.86
398.93	1149.20
399.12	1130.48
399.32	1074.31
399.51	1135.16
399.70	1102.39
399.90	1247.51
400.09	1193.67
400.28	1200.69
400.47	1107.07
400.67	1174.95
400.86	1224.10
401.05	1299.00
401.24	1221.76
401.44	1196.01
401.63	1327.08
401.82	1317.72
402.01	1308.36
402.21	1348.15
402.40	1231.12
402.59	1275.59
402.78	1399.64
402.97	1313.04
403.17	1439.43
403.36	1540.07
403.55	1385.60
403.74	1394.96
403.93	1551.78
404.13	1462.83
404.32	1490.92
404.51	1479.22
404.70	1474.54
404.89	1469.86
405.09	1458.15
405.28	1465.18
405.47	1570.50
405.66	1554.12
405.85	1504.96
406.05	1614.97
406.24	1605.61
406.43	1579.86
406.62	1603.27
406.81	1687.53
407.00	1652.42
407.20	1596.25
407.39	1579.86
407.58	1661.78
407.77	1673.48
407.96	1734.34
408.15	1830.30
408.34	1729.66
408.54	1837.32
408.73	1860.73
408.92	1757.74
409.11	1994.14
409.30	1746.04
409.49	1886.47
409.68	1877.11
409.87	1966.05
410.07	2001.16
410.26	1916.90
410.45	1996.48
410.64	1933.28
410.83	2127.55
411.02	2036.27
411.21	2080.74
411.40	2033.93
411.59	2122.87
411.78	2183.72
411.98	2155.63
412.17	2143.93
412.36	2172.02
412.55	2300.75
412.74	2216.49
412.93	2303.09
413.12	2289.04
413.31	2305.43
413.50	2399.05
413.69	2321.81
413.88	2471.61
414.07	2319.47
414.26	2485.65
414.45	2490.33
414.64	2511.39
414.83	2523.10
415.02	2602.68
415.22	2530.12
415.41	2689.28
415.60	2626.08
415.79	2698.64
415.98	2651.83
416.17	2726.72
416.36	2710.34
416.55	2867.16
416.74	2670.55
416.93	2841.41
417.12	2911.63
417.31	2818.00
417.50	2892.90
417.69	3105.89
417.88	2946.73
418.07	3007.59
418.26	2986.52
418.45	2925.67
418.64	3173.77
418.83	2953.76
419.02	3038.02
419.21	3007.59
419.39	3129.30
419.58	3155.04
419.77	3061.42
419.96	3056.74
420.15	3143.34
420.34	3185.47
420.53	3199.51
420.72	3215.90
420.91	3253.34
421.10	3246.32
421.29	3288.45
421.48	3279.09
421.67	3251.00
421.86	3332.92
422.05	3314.20
422.24	3283.77
422.43	3215.90
422.61	3410.16
422.80	3281.43
422.99	3454.63
423.18	3424.20
423.37	3454.63
423.56	3480.38
423.75	3379.73
423.94	3438.25
424.13	3218.24
424.32	3344.63
424.50	3424.20
424.69	3499.10
424.88	3487.40
425.07	3368.03
425.26	3251.00
425.45	3499.10
425.64	3517.83
425.83	3452.29
426.01	3522.51
426.20	3438.25
426.39	3489.74
426.58	3581.02
426.77	3574.00
426.96	3564.64
427.15	3531.87
427.33	3611.45
427.52	3520.17
427.71	3644.21
427.90	3538.89
428.09	3658.26
428.28	3653.58
428.46	3679.32
428.65	3716.77
428.84	3885.29
429.03	3810.39
429.22	3735.50
429.40	3772.94
429.59	3838.48
429.78	3817.41
429.97	3623.15
430.16	3691.02
430.34	3822.09
430.53	3932.10
430.72	3955.51
430.91	3829.12
431.10	3906.35
431.28	3997.64
431.47	4035.08
431.66	4135.73
431.85	4121.68
432.03	4044.45
432.22	4161.47
432.41	4177.86
432.60	4241.05
432.79	3978.91
432.97	4187.22
433.16	4049.13
433.35	4241.05
433.54	4224.67
433.72	4117.00
433.91	4140.41
434.10	4126.36
434.28	4337.01
434.47	4425.95
434.66	4442.34
434.85	4259.78
435.03	4383.82
435.22	4456.38
435.41	4486.81
435.59	4390.84
435.78	4489.15
435.97	4575.75
436.16	4423.61
436.34	4456.38
436.53	4517.23
436.72	4592.13
436.90	4564.04
437.09	4587.45
437.28	4512.55
437.46	4617.88
437.65	4643.62
437.84	4624.90
438.02	4655.33
438.21	4833.21
438.40	4762.99
438.58	4896.40
438.77	4795.76
438.96	4922.15
439.14	4908.10
439.33	4983.00
439.52	5008.75
439.70	5067.26
439.89	5076.62
440.08	5146.84
440.26	5123.43
440.45	5172.58
440.63	5245.14
440.82	5341.10
441.01	5247.48
441.19	5373.87
441.38	5371.53
441.57	5420.68
441.75	5327.06
441.94	5465.15
442.12	5465.15
442.31	5692.18
442.50	5598.56
442.68	5687.50
442.87	5600.90
443.05	5661.76
443.24	5685.16
443.43	5715.59
443.61	5722.61
443.80	5823.25
443.98	5652.39
444.17	5554.09
444.35	5729.63
444.54	5905.17
444.73	5839.64
444.91	5785.80
445.10	5898.15
445.28	5856.02
445.47	5834.96
445.65	5790.49
445.84	5877.09
446.02	5877.09
446.21	5664.10
446.39	5874.74
446.58	5867.72
446.77	5900.49
446.95	5673.46
447.14	5764.74
447.32	5916.87
447.51	5951.98
447.69	5930.92
447.88	5947.30
448.06	5806.87
448.25	5919.21
448.43	5870.06
448.62	5909.85
448.80	5966.03
448.99	5970.71
449.17	6181.35
449.36	5989.43
449.54	6045.60
449.73	6228.17
449.91	6333.49
450.10	6249.23
450.28	6356.90
450.46	6345.19
450.65	6289.02
450.83	6216.46
451.02	6260.93
451.20	6356.90
451.39	6380.30
451.57	6310.08
451.76	6377.96
451.94	6457.54
452.13	6640.10
452.31	6457.54
452.49	6450.52
452.68	6644.78
452.86	6314.77
453.05	6696.27
453.23	6663.51
453.42	6707.98
453.60	6441.15
453.78	6492.65
453.97	6499.67
454.15	6705.63
454.34	6569.88
454.52	6768.83
454.70	6626.06
454.89	6649.46
455.07	6911.60
455.26	7101.19
455.44	6801.60
455.62	6881.18
455.81	7026.29
455.99	6949.05
456.17	7009.90
456.36	7037.99
456.54	7162.04
456.73	7070.76
456.91	7400.77
457.09	7323.54
457.28	7323.54
457.46	7318.86
457.64	7335.24
457.83	7208.85
458.01	7138.63
458.19	7330.56
458.38	7253.32
458.56	7620.78
458.74	7213.53
458.93	7499.08
459.11	7524.82
459.29	7349.28
459.48	7454.61
459.66	7473.33
459.84	7611.42
460.03	7782.28
460.21	7857.18
460.39	7637.17
460.57	7676.96
460.76	7840.79
460.94	7693.34
461.12	7726.11
461.31	7749.51
461.49	7822.07
461.67	7873.56
461.85	7932.08
462.04	7985.91
462.22	8409.54
462.40	7990.59
462.59	8002.29
462.77	8021.02
462.95	7705.04
463.13	7878.24
463.32	8091.23
463.50	7962.50
463.68	8147.40
463.86	8308.90
464.05	8135.70
464.23	8051.44
464.41	8243.37
464.59	8070.17
464.78	8208.26
464.96	8201.24
465.14	8311.24
465.32	8479.76
465.50	8365.07
465.69	8510.19
465.87	8236.35
466.05	8409.54
466.23	8575.72
466.41	8645.94
466.60	8561.68
466.78	8468.06
466.96	8561.68
467.14	8505.51
467.32	8615.51
467.51	8779.35
467.69	8468.06
467.87	8699.77
468.05	8872.97
468.23	8571.04
468.41	8755.94
468.60	8786.37
468.78	8791.05
468.96	8622.53
469.14	8657.64
469.32	8865.95
469.50	8725.52
469.69	8908.08
469.87	8982.98
470.05	9039.15
470.23	9032.13
470.41	9067.24
470.59	8994.68
470.77	9238.09
470.95	9165.54
471.14	9385.55
471.32	9158.52
471.50	9488.53
471.68	9511.94
471.86	9362.14
472.04	9525.98
472.22	9703.86
472.40	9565.77
472.58	9554.07
472.77	9654.71
472.95	9680.46
473.13	9980.04
473.31	9741.31
473.49	9820.89
473.67	9734.29
473.85	9905.15
474.03	10164.95
474.21	10083.03
474.39	10106.43
474.57	10274.95
474.75	10504.32
474.93	10387.30
475.12	10274.95
475.30	10455.17
475.48	10317.08
475.66	10567.52
475.84	10602.63
476.02	10635.39
476.20	10677.52
476.38	10853.06
476.56	10841.36
476.74	11059.03
476.92	10981.79
477.10	10820.30
477.28	11274.36
477.46	10981.79
477.64	11101.16
477.82	11197.12
478.00	11576.29
478.18	11798.64
478.36	11786.94
478.54	11536.50
478.72	11864.18
478.90	11903.96
479.08	11997.59
479.26	12198.87
479.44	12257.39
479.62	12388.46
479.80	12407.18
479.98	12313.56
480.16	12758.26
480.34	12589.74
480.52	12961.89
480.70	12795.71
480.88	12678.68
481.06	12856.56
481.24	12821.45
481.41	13135.09
481.59	13610.22
481.77	13460.42
481.95	13521.27
482.13	13603.19
482.31	13308.29
482.49	13848.95
482.67	13954.27
482.85	14155.56
483.03	14274.93
483.21	14359.19
483.39	14670.48
483.57	14516.00
483.74	14686.86
483.92	14778.14
484.10	14523.02
484.28	15002.83
484.46	15016.88
484.64	15232.21
484.82	15264.97
485.00	15400.72
485.18	15531.80
485.35	15508.39
485.53	15754.15
485.71	15920.32
485.89	16037.35
486.07	15960.11
486.25	16004.58
486.43	16255.02
486.61	16353.32
486.78	16542.91
486.96	16631.85
487.14	16905.69
487.32	17041.44
487.50	17064.85
487.68	17188.89
487.85	17509.55
488.03	17462.74
488.21	17867.65
488.39	17752.96
488.57	17844.24
488.75	17865.31
488.92	18478.53
489.10	18394.27
489.28	18452.78
489.46	18885.78
489.64	18602.58
489.81	18831.95
489.99	19201.76
490.17	18904.51
490.35	19410.06
490.53	19431.13
490.70	19330.48
490.88	19477.94
491.06	19943.70
491.24	19843.06
491.41	19733.06
491.59	20065.41
491.77	20091.16
491.95	20327.55
492.13	20247.97
492.30	20460.96
492.48	20814.38
492.66	20538.20
492.84	20634.16
493.01	21350.37
493.19	21053.12
493.37	21317.60
493.54	21371.43
493.72	21422.92
493.90	21509.52
494.08	21724.85
494.25	22211.68
494.43	21968.27
494.61	21954.22
494.79	22263.18
494.96	22160.19
495.14	22417.65
495.32	22750.01
495.49	22721.92
495.67	23136.20
495.85	23164.28
496.02	23288.33
496.20	23435.78
496.38	23421.74
496.55	23433.44
496.73	24170.71
496.91	23948.36
497.09	23833.68
497.26	24154.33
497.44	24135.60
497.62	23875.80
497.79	24570.94
497.97	24549.88
498.14	24751.17
498.32	25142.03
498.50	24446.90
498.67	25060.12
498.85	24996.92
499.03	24900.96
499.20	25123.31
499.38	25373.75
499.56	25348.00
499.73	25937.82
499.91	25893.35
500.08	25694.40
500.26	25488.43
500.44	26022.08
500.61	25919.09
500.79	26438.69
500.97	26445.71
501.14	26373.16
501.32	26757.00
501.49	26867.01
501.67	26211.66
501.84	26899.78
502.02	26906.80
502.20	27255.54
502.37	26993.40
502.55	27131.49
502.72	27089.36
502.90	27257.88
503.07	26960.63
503.25	27711.94
503.43	27346.82
503.60	27520.02
503.78	27527.04
503.95	27964.72
504.13	28041.96
504.30	27999.83
504.48	27751.73
504.65	28168.35
504.83	28367.29
505.01	28599.01
505.18	28570.92
505.36	28727.74
505.53	28102.81
505.71	28451.55
505.88	28587.30
506.06	28566.24
506.23	29338.62
506.41	28933.70
506.58	28999.24
506.76	28961.79
506.93	29032.00
507.11	29144.35
507.28	29486.07
507.46	29460.32
507.63	29748.21
507.81	29748.21
507.98	29940.13
508.16	29659.27
508.33	30132.06
508.50	29708.42
508.68	30089.93
508.85	30866.98
509.03	30583.78
509.20	30541.65
509.38	30600.16
509.55	30827.20
509.73	30897.41
509.90	30778.04
510.08	30766.34
510.25	31056.57
510.42	31168.91
510.60	31531.70
510.77	31351.48
510.95	31143.17
511.12	31655.75
511.30	31129.12
511.47	31969.38
511.64	31454.46
511.82	32119.17
511.99	31831.29
512.17	32067.68
512.34	31810.22
512.51	32713.67
512.69	32313.44
512.86	32451.53
513.04	32589.62
513.21	32751.12
513.38	32636.43
513.56	32926.66
513.73	32875.16
513.90	33179.43
514.08	33048.36
514.25	33039.00
514.43	33156.03
514.60	33310.50
514.77	33500.09
514.95	33008.58
515.12	33483.70
515.29	33160.71
515.47	33532.86
515.64	33600.73
515.81	33888.62
515.99	33724.78
516.16	33848.83
516.33	33930.75
516.51	34061.82
516.68	33752.87
516.85	33851.17
517.03	34377.79
517.20	35126.76
517.37	34808.45
517.54	34452.69
517.72	34735.89
517.89	34349.70
518.06	34340.34
518.24	34651.63
518.41	34773.34
518.58	34998.03
518.75	35040.16
518.93	35168.89
519.10	34918.45
519.27	35026.12
519.45	35086.97
519.62	35381.88
519.79	35342.09
519.96	35211.02
520.14	35906.16
520.31	35791.47
520.48	35938.93
520.65	35847.64
520.83	35721.26
521.00	35981.06
521.17	35864.03
521.34	36268.94
521.52	35758.70
521.69	35934.24
521.86	36168.30
522.03	36786.20
522.20	36914.93
522.38	36510.02
522.55	36708.96
522.72	37141.96
522.89	36563.85
523.07	37191.11
523.24	37057.70
523.41	36903.23
523.58	36964.08
523.75	36931.31
523.92	36914.93
524.10	37212.18
524.27	37411.12
524.44	37509.43
524.61	37521.13
524.78	37851.14
524.96	37869.87
525.13	37502.40
525.30	37743.48
525.47	37867.53
525.64	37909.66
525.81	38103.92
525.98	38192.86
526.16	38003.28
526.33	38185.84
526.50	38302.87
526.67	38071.15
526.84	38466.70
527.01	37984.55
527.18	38632.88
527.36	38508.83
527.53	38792.04
527.70	38857.57
527.87	38845.87
528.04	38801.40
528.21	38754.59
528.38	38916.09
528.55	38815.44
528.72	39215.68
528.89	39084.61
529.07	38979.28
529.24	39271.85
529.41	39454.41
529.58	38878.64
529.75	39037.80
529.92	39405.26
530.09	39737.62
530.26	39440.37
530.43	39517.60
530.60	39040.14
530.77	39625.27
530.94	39873.37
531.11	39484.84
531.28	39718.89
531.46	39868.69
531.63	40287.64
531.80	39482.50
531.97	40282.96
532.14	40280.62
532.31	39936.56
532.48	40348.50
532.65	40388.28
532.82	39864.00
532.99	40247.85
533.16	40451.48
533.33	40891.50
533.50	40982.78
533.67	40713.62
533.84	40329.77
534.01	40758.09
534.18	40371.90
534.35	40783.83
534.52	40247.85
534.69	41155.98
534.86	41186.41
535.03	41097.47
535.20	41181.73
535.37	40950.01
535.54	41017.89
535.71	40807.24
535.88	41422.80
536.05	41083.42
536.22	41626.43
536.38	41432.16
536.55	41399.40
536.72	41722.39
536.89	41247.26
537.06	41752.82
537.23	41926.02
537.40	41347.90
537.57	41825.37
537.74	41495.36
537.91	42373.06
538.08	42426.89
538.25	41895.59
538.42	41839.42
538.59	42298.16
538.75	41642.81
538.92	41998.57
539.09	42370.72
539.26	42281.78
539.43	42625.84
539.60	42581.37
539.77	42359.02
539.94	42885.64
540.11	42089.85
540.28	42227.95
540.44	42763.93
540.61	42373.06
540.78	42415.19
540.95	43023.73
541.12	42534.56
541.29	42728.82
541.46	42567.32
541.62	42827.12
541.79	42726.48
541.96	42555.62
542.13	42712.44
542.30	43056.50
542.47	43115.01
542.63	43180.54
542.80	43281.19
542.97	43363.11
543.14	43812.49
543.31	43620.56
543.48	43203.95
543.64	43917.81
543.81	44058.24
543.98	43550.35
544.15	43583.12
544.32	44121.44
544.48	43948.24
544.65	43826.53
544.82	43580.78
544.99	43292.89
545.16	44163.57
545.32	44032.50
545.49	44299.32
545.66	44453.79
545.83	44669.12
546.00	44671.46
546.16	44428.05
546.33	43545.67
546.50	43810.15
546.67	44542.74
546.83	43805.47
547.00	44327.41
547.17	44018.46
547.34	44414.01
547.50	44589.55
547.67	45230.85
547.84	44605.93
548.00	44666.78
548.17	44779.13
548.34	45027.23
548.51	44924.24
548.67	44737.00
548.84	45090.42
549.01	45390.01
549.18	44765.09
549.34	44978.07
549.51	44779.13
549.68	44610.61
549.84	44568.48
550.01	45123.19
550.18	44865.73
550.34	45504.70
550.51	45401.71
550.68	45326.81
550.84	45127.87
551.01	45371.28
551.18	44966.37
551.34	44933.60
551.51	44783.81
551.68	45429.80
551.84	45537.46
552.01	45708.32
552.18	45968.12
552.34	45497.67
552.51	45928.33
552.68	45600.66
552.84	45584.27
553.01	45633.42
553.18	45663.85
553.34	45565.55
553.51	45848.75
553.67	46150.68
553.84	46223.24
554.01	45853.44
554.17	45801.94
554.34	45947.06
554.51	46068.76
554.67	46253.67
554.84	45841.73
555.00	45972.80
555.17	45963.44
555.33	46267.71
555.50	45991.53
555.67	45890.88
555.83	46337.93
556.00	46391.76
556.16	46590.70
556.33	46286.43
556.50	46424.53
556.66	46092.17
556.83	46284.09
556.99	46562.62
557.16	46801.35
557.32	46836.46
557.49	46574.32
557.65	46438.57
557.82	46333.24
557.98	46574.32
558.15	46340.27
558.32	46742.84
558.48	46539.21
558.65	46726.46
558.81	46618.79
558.98	46787.31
559.14	46415.16
559.31	46583.68
559.47	47196.90
559.64	47056.47
559.80	47344.36
559.97	46698.37
560.13	46951.15
560.30	46761.56
560.46	46752.20
560.63	46775.61
560.79	46944.12
560.96	47063.49
561.12	46941.78
561.29	47012.00
561.45	47192.22
561.61	47140.73
561.78	47372.44
561.94	47049.45
562.11	47351.38
562.27	46658.58
562.44	46979.23
562.60	46892.63
562.77	47077.54
562.93	47192.22
563.10	47372.44
563.26	47379.46
563.42	47608.84
563.59	47442.66
563.75	47222.65
563.92	47620.54
564.08	46937.10
564.24	47180.52
564.41	47133.71
564.57	47360.74
564.74	47257.76
564.90	47353.72
565.07	47573.73
565.23	47409.89
565.39	47454.36
565.56	47393.51
565.72	47089.24
565.88	47232.01
566.05	47400.53
566.21	47285.84
566.38	47700.12
566.54	47674.37
566.70	47746.93
566.87	47849.91
567.03	47690.76
567.19	48030.13
567.36	47524.58
567.52	47688.42
567.68	47934.17
567.85	47508.19
568.01	47608.84
568.17	47571.39
568.34	47482.45
568.50	47976.30
568.66	47681.39
568.83	48254.82
568.99	47519.90
569.15	47547.98
569.32	47477.77
569.48	47234.35
569.64	47309.25
569.81	47657.99
569.97	47721.18
570.13	47702.46
570.30	48294.61
570.46	47632.24
570.62	47718.84
570.78	47721.18
570.95	47473.09
571.11	48062.90
571.27	47503.51
571.43	47615.86
571.60	47807.78
571.76	48004.39
571.92	47821.83
572.09	48058.22
572.25	48053.54
572.41	47503.51
572.57	47704.80
572.74	48460.79
572.90	47681.39
573.06	47782.04
573.22	47812.46
573.38	48156.52
573.55	47922.47
573.71	48233.76
573.87	48182.27
574.03	47959.92
574.20	47952.90
574.36	47966.94
574.52	47957.58
574.68	47842.89
574.84	48226.74
575.01	48266.53
575.17	47959.92
575.33	47828.85
575.49	48062.90
575.65	48404.62
575.82	47859.27
575.98	47805.44
576.14	48060.56
576.30	48196.31
576.46	48041.84
576.62	47796.08
576.79	48055.88
576.95	48154.18
577.11	48072.26
577.27	48273.55
577.43	48411.64
577.59	48315.68
577.75	47934.17
577.92	47676.71
578.08	47943.53
578.24	47716.50
578.40	47676.71
578.56	48032.47
578.72	47880.34
578.88	48018.43
579.04	48367.17
579.21	48076.94
579.37	47859.27
579.53	48126.10
579.69	48130.78
579.85	47859.27
580.01	48151.84
580.17	48062.90
580.33	48233.76
580.49	48280.57
580.65	48325.04
580.82	48165.88
580.98	48453.77
581.14	48423.34
581.30	48395.26
581.46	48009.07
581.62	47803.10
581.78	47791.40
581.94	48282.91
582.10	48229.08
582.26	48081.63
582.42	48058.22
582.58	48273.55
582.74	48376.53
582.90	48589.52
583.06	48102.69
583.22	48392.92
583.38	48493.56
583.54	48547.39
583.70	48383.55
583.86	48573.14
584.02	48247.80
584.18	48254.82
584.34	48200.99
584.50	48327.38
584.66	47992.68
584.82	47995.03
584.98	48261.85
585.14	48350.79
585.30	48067.58
585.46	48402.28
585.62	48205.67
585.78	48219.72
585.94	48090.99
586.10	48282.91
586.26	48158.86
586.42	48425.68
586.58	48217.38
586.74	48275.89
586.90	48034.81
587.06	48095.67
587.22	48381.21
587.38	48346.11
587.54	48409.30
587.70	48329.72
587.86	48839.96
588.02	48463.13
588.18	48619.95
588.34	48523.99
588.49	48215.04
588.65	47908.43
588.81	48493.56
588.97	48622.29
589.13	48325.04
589.29	48137.80
589.45	48638.67
589.61	48488.88
589.77	48456.11
589.93	48781.45
590.08	48662.08
590.24	48491.22
590.40	48676.12
590.56	48772.08
