SpectraSuite Data File
++++++++++++++++++++++++++++++++++++
Date: Fri Oct 04 11:48:26 GMT-05:00 2013
User: price-jones
Dark Spectrum Present: No
Reference Spectrum Present: No
Number of Sampled Component Spectra: 1
Spectrometers: USB2+H05261
Integration Time (usec): 100000 (USB2+H05261)
Spectra Averaged: 1 (USB2+H05261)
Boxcar Smoothing: 0 (USB2+H05261)
Correct for Electrical Dark: No (USB2+H05261)
Strobe/Lamp Enabled: No (USB2+H05261)
Correct for Detector Non-linearity: No (USB2+H05261)
Correct for Stray Light: No (USB2+H05261)
Number of Pixels in Processed Spectrum: 2048
>>>>>Begin Processed Spectral Data<<<<<
365.73	72.56
365.92	72.56
366.12	72.56
366.32	0.00
366.52	0.00
366.72	0.00
366.91	0.00
367.11	0.00
367.31	0.00
367.51	0.00
367.70	0.00
367.90	0.00
368.10	0.00
368.30	0.00
368.49	0.00
368.69	0.00
368.89	0.00
369.09	9.36
369.28	0.00
369.48	0.00
369.68	0.00
369.87	0.00
370.07	0.00
370.27	0.00
370.47	131.07
370.66	589.82
370.86	524.28
371.06	664.71
371.25	716.20
371.45	681.10
371.65	746.63
371.84	718.54
372.04	781.74
372.24	786.42
372.44	681.10
372.63	814.51
372.83	905.79
373.03	905.79
373.22	884.72
373.42	765.36
373.62	826.21
373.81	870.68
374.01	894.08
374.21	868.34
374.40	950.26
374.60	1043.88
374.79	791.10
374.99	816.85
375.19	908.13
375.38	915.15
375.58	908.13
375.78	976.00
375.97	973.66
376.17	1006.43
376.37	945.58
376.56	1039.20
376.76	1008.77
376.95	1090.69
377.15	1034.52
377.35	1086.01
377.54	990.05
377.74	1149.20
377.93	1062.60
378.13	1123.46
378.33	1116.44
378.52	1060.26
378.72	1151.54
378.91	1076.65
379.11	1083.67
379.31	1188.99
379.50	1088.35
379.70	1050.90
379.89	1165.59
380.09	1186.65
380.28	1193.67
380.48	1235.80
380.68	1153.88
380.87	1247.51
381.07	1160.91
381.26	1306.02
381.46	1306.02
381.65	1256.87
381.85	1291.98
382.04	1196.01
382.24	1341.13
382.43	1451.13
382.63	1291.98
382.83	1378.58
383.02	1437.09
383.22	1366.87
383.41	1397.30
383.61	1352.83
383.80	1350.49
384.00	1423.05
384.19	1418.36
384.39	1423.05
384.58	1467.52
384.78	1467.52
384.97	1394.96
385.17	1406.66
385.36	1481.56
385.56	1624.33
385.75	1439.43
385.95	1488.58
386.14	1516.67
386.34	1495.60
386.53	1619.65
386.72	1570.50
386.92	1502.62
387.11	1551.78
387.31	1614.97
387.50	1614.97
387.70	1764.76
387.89	1657.10
388.09	1556.46
388.28	1603.27
388.48	1598.59
388.67	1673.48
388.86	1743.70
389.06	1746.04
389.25	1689.87
389.45	1799.87
389.64	1771.79
389.84	1823.28
390.03	1732.00
390.22	1818.60
390.42	1933.28
390.61	1675.82
390.81	1834.98
391.00	1919.24
391.19	1923.92
391.39	1930.94
391.58	1970.73
391.78	1961.37
391.97	2045.63
392.16	1952.01
392.36	1977.75
392.55	2012.86
392.75	2036.27
392.94	2005.84
393.13	1998.82
393.33	2104.14
393.52	2066.69
393.71	2279.68
393.91	2188.40
394.10	2038.61
394.29	2165.00
394.49	2143.93
394.68	2155.63
394.88	2242.23
395.07	2251.60
395.26	2202.44
395.46	2211.81
395.65	2291.38
395.84	2342.88
396.04	2396.71
396.23	2368.62
396.42	2312.45
396.62	2373.30
396.81	2370.96
397.00	2312.45
397.19	2499.69
397.39	2471.61
397.58	2485.65
397.77	2424.80
397.97	2525.44
398.16	2492.67
398.35	2663.53
398.55	2651.83
398.74	2616.72
398.93	2743.11
399.12	2642.46
399.32	2574.59
399.51	2600.34
399.70	2626.08
399.90	2691.62
400.09	2864.82
400.28	2916.31
400.47	2682.25
400.67	2916.31
400.86	2909.29
401.05	2876.52
401.24	2963.12
401.44	2981.84
401.63	3054.40
401.82	3056.74
402.01	2963.12
402.21	3014.61
402.40	3187.81
402.59	3126.96
402.78	3185.47
402.97	3040.36
403.17	3194.83
403.36	3213.56
403.55	3197.17
403.74	3276.75
403.93	3281.43
404.13	3311.86
404.32	3269.73
404.51	3274.41
404.70	3300.16
404.89	3344.63
405.09	3510.80
405.28	3353.99
405.47	3513.14
405.66	3543.57
405.85	3630.17
406.05	3531.87
406.24	3459.31
406.43	3585.70
406.62	3609.11
406.81	3595.06
407.00	3625.49
407.20	3665.28
407.39	3686.34
407.58	3819.75
407.77	3852.52
407.96	3808.05
408.15	3967.21
408.34	3768.26
408.54	3719.11
408.73	3899.33
408.92	3985.93
409.11	3974.23
409.30	3981.25
409.49	4042.11
409.68	4046.79
409.87	4007.00
410.07	4320.63
410.26	4301.90
410.45	4182.54
410.64	4285.52
410.83	4259.78
411.02	4285.52
411.21	4294.88
411.40	4241.05
411.59	4479.79
411.78	4486.81
411.98	4259.78
412.17	4573.41
412.36	4676.39
412.55	4636.60
412.74	4744.27
412.93	4805.12
413.12	4802.78
413.31	4901.08
413.50	4971.30
413.69	4880.02
413.88	4936.19
414.07	4835.55
414.26	5142.16
414.45	5069.60
414.64	5193.65
414.83	5200.67
415.02	5210.03
415.22	5205.35
415.41	5399.62
415.60	5425.36
415.79	5462.81
415.98	5425.36
416.17	5603.24
416.36	5549.41
416.55	5748.36
416.74	5764.74
416.93	5774.10
417.12	5792.83
417.31	5783.46
417.50	5827.93
417.69	6122.84
417.88	5898.15
418.07	6024.54
418.26	5982.41
418.45	6033.90
418.64	6223.48
418.83	6296.04
419.02	5991.77
419.21	6160.29
419.39	6176.67
419.58	6108.80
419.77	6307.74
419.96	6300.72
420.15	6464.56
420.34	6506.69
420.53	6499.67
420.72	6483.28
420.91	6558.18
421.10	6593.29
421.29	6761.81
421.48	6429.45
421.67	6670.53
421.86	6654.14
422.05	6651.80
422.24	6764.15
422.43	6656.48
422.61	6747.76
422.80	6754.79
422.99	6836.70
423.18	6913.94
423.37	6984.16
423.56	6979.48
423.75	6832.02
423.94	6829.68
424.13	6300.72
424.32	6527.75
424.50	6848.41
424.69	7052.03
424.88	7136.29
425.07	6792.23
425.26	6864.79
425.45	7007.56
425.64	7026.29
425.83	6995.86
426.01	7045.01
426.20	6930.33
426.39	6848.41
426.58	7115.23
426.77	7157.36
426.96	7129.27
427.15	7215.87
427.33	7157.36
427.52	7215.87
427.71	7262.68
427.90	7339.92
428.09	7346.94
428.28	7442.90
428.46	7627.81
428.65	7693.34
428.84	7592.70
429.03	7597.38
429.22	7492.05
429.40	7728.45
429.59	7749.51
429.78	7398.43
429.97	7063.74
430.16	7405.46
430.34	7705.04
430.53	7882.92
430.72	7990.59
430.91	7920.37
431.10	7908.67
431.28	8004.63
431.47	8018.68
431.66	8203.58
431.85	7971.86
432.03	8571.04
432.22	8451.67
432.41	8365.07
432.60	8365.07
432.79	8252.73
432.97	8332.31
433.16	8493.80
433.35	8603.81
433.54	8549.98
433.72	8512.53
433.91	8475.08
434.10	8439.97
434.28	8610.83
434.47	8695.09
434.66	8957.23
434.85	8854.25
435.03	8809.78
435.22	8786.37
435.41	9046.17
435.59	9043.83
435.78	9135.11
435.97	9088.30
436.16	9067.24
436.34	9247.46
436.53	9104.68
436.72	9439.38
436.90	9142.13
437.09	9266.18
437.28	9317.67
437.46	9439.38
437.65	9336.40
437.84	9635.99
438.02	9645.35
438.21	9661.73
438.40	9582.15
438.58	9802.16
438.77	9935.57
438.96	9619.60
439.14	10029.20
439.33	9893.44
439.52	10328.78
439.70	10150.90
439.89	10141.54
440.08	10462.19
440.26	10331.12
440.45	10457.51
440.63	10808.59
440.82	10609.65
441.01	10427.09
441.19	10841.36
441.38	10974.77
441.57	10834.34
441.75	10967.75
441.94	11197.12
442.12	11335.21
442.31	11470.97
442.50	11433.52
442.68	11180.74
442.87	11508.41
443.05	11744.81
443.24	11538.84
443.43	11470.97
443.61	11520.12
443.80	11997.59
443.98	11463.94
444.17	11089.46
444.35	12002.27
444.54	11943.75
444.73	11803.32
444.91	11974.18
445.10	11737.79
445.28	11899.28
445.47	11679.27
445.65	11882.90
445.84	11978.86
446.02	12091.21
446.21	11925.03
446.39	11847.79
446.58	12070.14
446.77	12037.38
446.95	11845.45
447.14	11777.58
447.32	12004.61
447.51	12116.95
447.69	12266.75
447.88	12283.13
448.06	12098.23
448.25	12051.42
448.43	12400.16
448.62	12318.24
448.80	12105.25
448.99	12599.10
449.17	12390.80
449.36	12224.62
449.54	12945.50
449.73	12830.82
449.91	12800.39
450.10	12688.04
450.28	12781.67
450.46	12936.14
450.65	13102.32
450.83	13085.94
451.02	12816.77
451.20	13008.70
451.39	13390.20
451.57	13025.08
451.76	13071.89
451.94	13228.71
452.13	13432.33
452.31	13420.63
452.49	13067.21
452.68	13493.19
452.86	13446.38
453.05	13507.23
453.23	13486.17
453.42	13518.93
453.60	13570.43
453.78	13504.89
453.97	13540.00
454.15	13692.13
454.34	13532.98
454.52	13790.44
454.70	13661.71
454.89	13886.40
455.07	14001.08
455.26	14047.90
455.44	14263.22
455.62	14443.45
455.81	14216.41
455.99	14202.37
456.17	14415.36
456.36	14288.97
456.54	14424.72
456.73	14677.50
456.91	15136.24
457.09	15173.69
457.28	15166.67
457.46	14738.35
457.64	15199.44
457.83	15290.72
458.01	14860.06
458.19	15199.44
458.38	15206.46
458.56	15557.54
458.74	15379.66
458.93	15213.48
459.11	15403.07
459.29	15417.11
459.48	15616.05
459.66	15513.07
459.84	15953.09
460.03	15908.62
460.21	15709.68
460.39	15758.83
460.57	15843.09
460.76	16053.73
460.94	16137.99
461.12	16095.86
461.31	16102.89
461.49	16367.37
461.67	16074.80
461.85	16666.95
462.04	16339.28
462.22	16891.65
462.40	16547.59
462.59	16346.30
462.77	16816.75
462.95	16641.21
463.13	16947.82
463.32	17076.55
463.50	16903.35
463.68	16905.69
463.86	16767.60
464.05	16510.14
464.23	16791.00
464.41	17303.58
464.59	16776.96
464.78	17486.14
464.96	17254.43
465.14	16856.54
465.32	17469.76
465.50	17633.60
465.69	17724.88
465.87	17434.65
466.05	17563.38
466.23	17844.24
466.41	17504.87
466.60	18363.84
466.78	17591.47
466.96	17823.18
467.14	17554.02
467.32	17977.65
467.51	18120.43
467.69	17500.19
467.87	17860.63
468.05	18113.41
468.23	17708.49
468.41	18026.81
468.60	18134.47
468.78	18340.44
468.96	18169.58
469.14	18286.61
469.32	18750.03
469.50	18349.80
469.69	19030.90
469.87	19269.63
470.05	18986.43
470.23	19026.21
470.41	19000.47
470.59	19428.79
470.77	18991.11
470.95	19222.82
471.14	19494.32
471.32	19103.45
471.50	19658.16
471.68	19667.52
471.86	19822.00
472.04	19962.43
472.22	20507.77
472.40	19924.98
472.58	20091.16
472.77	20180.10
472.95	20540.54
473.13	21142.06
473.31	20556.93
473.49	20432.88
473.67	20849.49
473.85	20917.37
474.03	20982.90
474.21	21357.39
474.39	21240.36
474.57	21343.35
474.75	21792.73
474.93	21799.75
475.12	21397.18
475.30	22125.08
475.48	21656.98
475.66	22263.18
475.84	22321.69
476.02	22806.18
476.20	22841.29
476.38	22389.56
476.56	23424.08
476.74	23388.97
476.92	22918.53
477.10	23351.52
477.28	23758.78
477.46	23435.78
477.64	23594.94
477.82	23946.02
478.00	24690.31
478.18	24744.14
478.36	24954.79
478.54	24781.59
478.72	25202.89
478.90	25408.86
479.08	25261.40
479.26	25549.29
479.44	26075.91
479.62	26188.25
479.80	26328.69
479.98	26302.94
480.16	26747.64
480.34	26466.78
480.52	27068.30
480.70	27103.40
480.88	27410.01
481.06	27288.31
481.24	27487.25
481.41	27990.47
481.59	28067.70
481.77	28594.32
481.95	28811.99
482.13	28694.97
482.31	28929.02
482.49	29647.57
482.67	29497.77
482.85	29881.62
483.03	30342.70
483.21	30527.61
483.39	30604.84
483.57	30668.04
483.74	30883.37
483.92	31199.34
484.10	31534.04
484.28	31599.57
484.46	31992.78
484.64	32673.88
484.82	32582.60
485.00	32758.14
485.18	33233.27
485.35	33790.31
485.53	33167.73
485.71	33460.30
485.89	34808.45
486.07	34242.04
486.25	34202.25
486.43	34129.69
486.61	35072.93
486.78	35061.22
486.96	35644.02
487.14	36105.10
487.32	35791.47
487.50	35941.27
487.68	36615.34
487.85	36917.27
488.03	37642.84
488.21	38302.87
488.39	37759.86
488.57	38483.09
488.75	38394.15
488.92	38529.90
489.10	39295.25
489.28	39447.39
489.46	39426.32
489.64	39147.80
489.81	40561.48
489.99	40271.26
490.17	40552.12
490.35	40870.43
490.53	41504.72
490.70	41738.77
490.88	41551.53
491.06	42057.09
491.24	41867.50
491.41	42490.09
491.59	42382.42
491.77	42810.74
491.95	43005.00
492.13	43267.14
492.30	43833.55
492.48	43782.06
492.66	43510.56
492.84	44194.00
493.01	45015.52
493.19	44828.28
493.37	45041.27
493.54	45202.77
493.72	45368.94
493.90	45624.06
494.08	45982.16
494.25	46487.72
494.43	46471.34
494.61	46754.54
494.79	47021.36
494.96	47367.76
495.14	47445.00
495.32	47775.02
495.49	47613.52
495.67	47758.63
495.85	48507.60
496.02	48149.50
496.20	48851.66
496.38	48577.82
496.55	48601.22
496.73	49429.77
496.91	49322.11
497.09	49649.78
497.26	50003.20
497.44	49844.05
497.62	50066.40
497.79	50574.30
497.97	50281.73
498.14	50571.96
498.32	51182.84
498.50	51231.99
498.67	51372.42
498.85	51023.68
499.03	51496.47
499.20	51341.99
499.38	51840.53
499.56	52268.84
499.73	51962.23
499.91	52149.48
500.08	52547.37
500.26	51901.38
500.44	52423.32
500.61	52622.26
500.79	52509.92
500.97	53015.47
501.14	53434.43
501.32	53333.79
501.49	53294.00
501.67	53584.22
501.84	53394.64
502.02	53851.05
502.20	53848.71
502.37	54101.48
502.55	53930.62
502.72	54089.78
502.90	54073.40
503.07	54115.53
503.25	54480.65
503.43	54188.08
503.60	54569.59
503.78	54714.70
503.95	54726.41
504.13	54801.30
504.30	54866.84
504.48	55262.39
504.65	55105.57
504.83	55304.52
505.01	55608.79
505.18	55449.63
505.36	55564.32
505.53	55318.56
505.71	55608.79
505.88	55784.33
506.06	55594.74
506.23	55866.25
506.41	55781.99
506.58	56130.73
506.76	56196.26
506.93	56236.05
507.11	56090.94
507.28	56268.82
507.46	56535.64
507.63	56643.30
507.81	56914.81
507.98	56657.35
508.16	56884.38
508.33	56968.64
508.50	56601.18
508.68	57071.62
508.85	57230.78
509.03	57296.31
509.20	57460.15
509.38	57729.31
509.55	57570.16
509.73	57511.64
509.90	57675.48
510.08	57593.56
510.25	57710.59
510.42	58033.58
510.60	57909.53
510.77	58251.25
510.95	58305.09
511.12	58134.23
511.30	58007.84
511.47	58319.13
511.64	58415.09
511.82	58843.41
511.99	58665.53
512.17	58831.71
512.34	58585.95
512.51	58955.75
512.69	58979.16
512.86	58862.13
513.04	59075.12
513.21	59241.30
513.38	59192.15
513.56	59454.29
513.73	59037.67
513.90	59370.03
514.08	59203.85
514.25	59302.15
514.43	59622.81
514.60	59786.64
514.77	59529.19
514.95	59959.84
515.12	59650.89
515.29	59746.86
515.47	60023.04
515.64	60158.79
515.81	59983.25
515.99	59978.57
516.16	60130.70
516.33	60409.23
516.51	60348.37
516.68	60207.94
516.85	60198.58
517.03	60804.78
517.20	60713.50
517.37	60603.49
517.54	60537.96
517.72	60617.53
517.89	60577.75
518.06	60631.58
518.24	60748.60
518.41	60800.10
518.58	60734.56
518.75	60856.27
518.93	60970.96
519.10	61102.03
519.27	61151.18
519.45	61181.60
519.62	61036.49
519.79	61202.67
519.96	61429.70
520.14	61605.24
520.31	61272.88
520.48	61668.44
520.65	61462.47
520.83	61628.65
521.00	61546.73
521.17	61516.30
521.34	61729.29
521.52	61616.94
521.69	61787.80
521.86	61993.77
522.03	61949.30
522.20	62326.13
522.38	62223.14
522.55	62078.03
522.72	62145.90
522.89	62192.72
523.07	62433.79
523.24	62379.96
523.41	62569.54
523.58	62394.00
523.75	62578.90
523.92	62529.75
524.10	62518.05
524.27	62740.40
524.44	62597.63
524.61	62983.82
524.78	62848.06
524.96	63054.03
525.13	62955.73
525.30	62988.50
525.47	63011.90
525.64	63126.59
525.81	63159.36
525.98	63173.40
526.16	63154.68
526.33	63119.57
526.50	63255.32
526.67	63145.31
526.84	63224.89
527.01	63117.23
527.18	63545.54
527.36	63597.04
527.53	63594.70
527.70	63690.66
527.87	63835.77
528.04	63456.60
528.21	63683.64
528.38	63620.44
528.55	63882.58
528.72	63746.83
528.89	63922.37
529.07	63667.25
529.24	63746.83
529.41	63964.50
529.58	63875.56
529.75	63910.67
529.92	64053.44
530.09	64011.31
530.26	64172.81
530.43	64313.24
530.60	64086.21
530.77	64189.19
530.94	64306.22
531.11	64027.70
531.28	64154.08
531.46	64341.33
531.63	64413.88
531.80	64402.18
531.97	64633.89
532.14	64657.30
532.31	64465.38
532.48	64612.83
532.65	64914.76
532.82	64542.61
532.99	64694.75
533.16	64533.25
533.33	64898.37
533.50	65055.19
533.67	64835.18
533.84	64608.15
534.01	64757.94
534.18	64624.53
534.35	65167.54
534.52	65057.53
534.69	65317.33
534.86	65307.97
535.03	65193.28
535.20	65109.02
535.37	65221.37
535.54	65340.74
535.71	65160.51
535.88	65352.44
536.05	65258.82
536.22	65535.00
536.38	65417.97
536.55	65432.02
536.72	65527.98
536.89	65432.02
537.06	65434.36
537.23	65535.00
537.40	65467.12
537.57	65474.15
537.74	65535.00
537.91	65535.00
538.08	65535.00
538.25	65446.06
538.42	65535.00
538.59	65535.00
538.75	65535.00
538.92	65535.00
539.09	65535.00
539.26	65535.00
539.43	65535.00
539.60	65535.00
539.77	65535.00
539.94	65535.00
540.11	65535.00
540.28	65535.00
540.44	65535.00
540.61	65535.00
540.78	65535.00
540.95	65535.00
541.12	65535.00
541.29	65535.00
541.46	65535.00
541.62	65535.00
541.79	65535.00
541.96	65535.00
542.13	65535.00
542.30	65535.00
542.47	65535.00
542.63	65535.00
542.80	65535.00
542.97	65535.00
543.14	65535.00
543.31	65535.00
543.48	65535.00
543.64	65535.00
543.81	65535.00
543.98	65535.00
544.15	65535.00
544.32	65535.00
544.48	65535.00
544.65	65535.00
544.82	65535.00
544.99	65535.00
545.16	65535.00
545.32	65535.00
545.49	65535.00
545.66	65535.00
545.83	65535.00
546.00	65535.00
546.16	65535.00
546.33	65535.00
546.50	65535.00
546.67	65535.00
546.83	65535.00
547.00	65535.00
547.17	65535.00
547.34	65535.00
547.50	65535.00
547.67	65535.00
547.84	65535.00
548.00	65535.00
548.17	65535.00
548.34	65535.00
548.51	65535.00
548.67	65535.00
548.84	65535.00
549.01	65535.00
549.18	65535.00
549.34	65535.00
549.51	65535.00
549.68	65535.00
549.84	65535.00
550.01	65535.00
550.18	65535.00
550.34	65535.00
550.51	65535.00
550.68	65535.00
550.84	65535.00
551.01	65535.00
551.18	65535.00
551.34	65535.00
551.51	65535.00
551.68	65535.00
551.84	65535.00
552.01	65535.00
552.18	65535.00
552.34	65535.00
552.51	65535.00
552.68	65535.00
552.84	65535.00
553.01	65535.00
553.18	65535.00
553.34	65535.00
553.51	65535.00
553.67	65535.00
553.84	65535.00
554.01	65535.00
554.17	65535.00
554.34	65535.00
554.51	65535.00
554.67	65535.00
554.84	65535.00
555.00	65535.00
555.17	65535.00
555.33	65535.00
555.50	65535.00
555.67	65535.00
555.83	65535.00
556.00	65535.00
556.16	65535.00
556.33	65535.00
556.50	65535.00
556.66	65535.00
556.83	65535.00
556.99	65535.00
557.16	65535.00
557.32	65535.00
557.49	65535.00
557.65	65535.00
557.82	65535.00
557.98	65535.00
558.15	65535.00
558.32	65535.00
558.48	65535.00
558.65	65535.00
558.81	65535.00
558.98	65535.00
559.14	65535.00
559.31	65535.00
559.47	65535.00
559.64	65535.00
559.80	65535.00
559.97	65535.00
560.13	65535.00
560.30	65535.00
560.46	65535.00
560.63	65535.00
560.79	65535.00
560.96	65535.00
561.12	65535.00
561.29	65535.00
561.45	65535.00
561.61	65535.00
561.78	65535.00
561.94	65535.00
562.11	65535.00
562.27	65535.00
562.44	65535.00
562.60	65535.00
562.77	65535.00
562.93	65535.00
563.10	65535.00
563.26	65535.00
563.42	65535.00
563.59	65535.00
563.75	65535.00
563.92	65535.00
564.08	65535.00
564.24	65535.00
564.41	65535.00
564.57	65535.00
564.74	65535.00
564.90	65535.00
565.07	65535.00
565.23	65535.00
565.39	65535.00
565.56	65535.00
565.72	65535.00
565.88	65535.00
566.05	65535.00
566.21	65535.00
566.38	65535.00
566.54	65535.00
566.70	65535.00
566.87	65535.00
567.03	65535.00
567.19	65535.00
567.36	65535.00
567.52	65535.00
567.68	65535.00
567.85	65535.00
568.01	65535.00
568.17	65535.00
568.34	65535.00
568.50	65535.00
568.66	65535.00
568.83	65535.00
568.99	65535.00
569.15	65535.00
569.32	65535.00
569.48	65535.00
569.64	65535.00
569.81	65535.00
569.97	65535.00
570.13	65535.00
570.30	65535.00
570.46	65535.00
570.62	65535.00
570.78	65535.00
570.95	65535.00
571.11	65535.00
571.27	65535.00
571.43	65535.00
571.60	65535.00
571.76	65535.00
571.92	65535.00
572.09	65535.00
572.25	65535.00
572.41	65535.00
572.57	65535.00
572.74	65535.00
572.90	65535.00
573.06	65535.00
573.22	65535.00
573.38	65535.00
573.55	65535.00
573.71	65535.00
573.87	65535.00
574.03	65535.00
574.20	65535.00
574.36	65535.00
574.52	65535.00
574.68	65535.00
574.84	65535.00
575.01	65535.00
575.17	65535.00
575.33	65535.00
575.49	65535.00
575.65	65535.00
575.82	65535.00
575.98	65535.00
576.14	65535.00
576.30	65535.00
576.46	65535.00
576.62	65535.00
576.79	65535.00
576.95	65535.00
577.11	65535.00
577.27	65535.00
577.43	65535.00
577.59	65535.00
577.75	65535.00
577.92	65535.00
578.08	65535.00
578.24	65535.00
578.40	65535.00
578.56	65535.00
578.72	65535.00
578.88	65535.00
579.04	65535.00
579.21	65535.00
579.37	65535.00
579.53	65535.00
579.69	65535.00
579.85	65535.00
580.01	65535.00
580.17	65535.00
580.33	65535.00
580.49	65535.00
580.65	65535.00
580.82	65535.00
580.98	65535.00
581.14	65535.00
581.30	65535.00
581.46	65535.00
581.62	65535.00
581.78	65535.00
581.94	65535.00
582.10	65535.00
582.26	65535.00
582.42	65535.00
582.58	65535.00
582.74	65535.00
582.90	65535.00
583.06	65535.00
583.22	65535.00
583.38	65535.00
583.54	65535.00
583.70	65535.00
583.86	65535.00
584.02	65535.00
584.18	65535.00
584.34	65535.00
584.50	65535.00
584.66	65535.00
584.82	65535.00
584.98	65535.00
585.14	65535.00
585.30	65535.00
585.46	65535.00
585.62	65535.00
585.78	65535.00
585.94	65535.00
586.10	65535.00
586.26	65535.00
586.42	65535.00
586.58	65535.00
586.74	65535.00
586.90	65535.00
587.06	65535.00
587.22	65535.00
587.38	65535.00
587.54	65535.00
587.70	65535.00
