SpectraSuite Data File
++++++++++++++++++++++++++++++++++++
Date: Fri Oct 04 11:48:23 GMT-05:00 2013
User: price-jones
Dark Spectrum Present: No
Reference Spectrum Present: No
Number of Sampled Component Spectra: 1
Spectrometers: USB2+H05261
Integration Time (usec): 100000 (USB2+H05261)
Spectra Averaged: 1 (USB2+H05261)
Boxcar Smoothing: 0 (USB2+H05261)
Correct for Electrical Dark: No (USB2+H05261)
Strobe/Lamp Enabled: No (USB2+H05261)
Correct for Detector Non-linearity: No (USB2+H05261)
Correct for Stray Light: No (USB2+H05261)
Number of Pixels in Processed Spectrum: 2048
>>>>>Begin Processed Spectral Data<<<<<
365.73	65.54
365.92	65.54
366.12	65.54
366.32	0.00
366.52	0.00
366.72	0.00
366.91	0.00
367.11	0.00
367.31	0.00
367.51	0.00
367.70	0.00
367.90	0.00
368.10	0.00
368.30	0.00
368.49	0.00
368.69	0.00
368.89	0.00
369.09	0.00
369.28	25.75
369.48	0.00
369.68	0.00
369.87	9.36
370.07	0.00
370.27	0.00
370.47	72.56
370.66	355.76
370.86	421.30
371.06	449.38
371.25	465.77
371.45	407.25
371.65	496.19
371.84	418.96
372.04	407.25
372.24	402.57
372.44	585.13
372.63	437.68
372.83	531.30
373.03	479.81
373.22	580.45
373.42	524.28
373.62	505.56
373.81	535.98
374.01	585.13
374.21	643.65
374.40	575.77
374.60	592.16
374.79	603.86
374.99	594.50
375.19	615.56
375.38	681.10
375.58	629.60
375.78	638.97
375.97	631.94
376.17	667.05
376.37	662.37
376.56	585.13
376.76	634.29
376.95	606.20
377.15	643.65
377.35	760.67
377.54	741.95
377.74	664.71
377.93	709.18
378.13	678.76
378.33	718.54
378.52	767.70
378.72	688.12
378.91	814.51
379.11	692.80
379.31	615.56
379.50	690.46
379.70	786.42
379.89	828.55
380.09	765.36
380.28	777.06
380.48	835.57
380.68	805.14
380.87	767.70
381.07	688.12
381.26	826.21
381.46	732.59
381.65	849.61
381.85	828.55
382.04	896.43
382.24	748.97
382.43	784.08
382.63	730.25
382.83	770.04
383.02	910.47
383.22	889.40
383.41	910.47
383.61	798.12
383.80	816.85
384.00	901.11
384.19	854.30
384.39	929.19
384.58	812.17
384.78	884.72
384.97	880.04
385.17	854.30
385.36	919.83
385.56	1043.88
385.75	851.96
385.95	957.28
386.14	1022.81
386.34	999.41
386.53	1022.81
386.72	847.27
386.92	961.96
387.11	945.58
387.31	968.98
387.50	936.21
387.70	964.30
387.89	1036.86
388.09	1064.94
388.28	1006.43
388.48	1046.22
388.67	1081.33
388.86	1041.54
389.06	1029.84
389.25	1128.14
389.45	1095.37
389.64	1074.31
389.84	1057.92
390.03	1090.69
390.22	1146.86
390.42	1062.60
390.61	1062.60
390.81	1104.73
391.00	1231.12
391.19	1188.99
391.39	1233.46
391.58	1137.50
391.78	1093.03
391.97	1270.91
392.16	1100.05
392.36	1247.51
392.55	1317.72
392.75	1226.44
392.94	1263.89
393.13	1254.53
393.33	1289.64
393.52	1338.79
393.71	1322.40
393.91	1359.85
394.10	1371.55
394.29	1287.29
394.49	1224.10
394.68	1430.07
394.88	1486.24
395.07	1483.90
395.26	1394.96
395.46	1413.68
395.65	1472.20
395.84	1425.39
396.04	1504.96
396.23	1444.11
396.42	1420.71
396.62	1439.43
396.81	1523.69
397.00	1495.60
397.19	1600.93
397.39	1547.09
397.58	1673.48
397.77	1540.07
397.97	1600.93
398.16	1584.54
398.35	1640.72
398.55	1636.03
398.74	1741.36
398.93	1694.55
399.12	1673.48
399.32	1521.35
399.51	1607.95
399.70	1757.74
399.90	1750.72
400.09	1811.57
400.28	1771.79
400.47	1706.25
400.67	1811.57
400.86	1832.64
401.05	1886.47
401.24	1769.44
401.44	1877.11
401.63	1818.60
401.82	1863.07
402.01	1893.49
402.21	1823.28
402.40	2047.97
402.59	1832.64
402.78	1952.01
402.97	1937.96
403.17	2036.27
403.36	1926.26
403.55	1984.77
403.74	2085.42
403.93	2108.82
404.13	2033.93
404.32	2115.84
404.51	2022.22
404.70	2228.19
404.89	2160.31
405.09	2265.64
405.28	2127.55
405.47	2195.42
405.66	2209.47
405.85	2300.75
406.05	2232.87
406.24	2312.45
406.43	2251.60
406.62	2338.20
406.81	2303.09
407.00	2200.10
407.20	2256.28
407.39	2352.24
407.58	2349.90
407.77	2377.98
407.96	2523.10
408.15	2520.76
408.34	2511.39
408.54	2628.42
408.73	2637.78
408.92	2623.74
409.11	2541.82
409.30	2672.89
409.49	2724.38
409.68	2487.99
409.87	2607.36
410.07	2757.15
410.26	2684.59
410.45	2764.17
410.64	2848.43
410.83	2825.03
411.02	2717.36
411.21	2881.20
411.40	2839.07
411.59	2904.60
411.78	2829.71
411.98	2876.52
412.17	3028.65
412.36	2904.60
412.55	3023.97
412.74	3126.96
412.93	3075.46
413.12	3021.63
413.31	3159.72
413.50	3206.53
413.69	3309.52
413.88	3243.98
414.07	3286.11
414.26	3281.43
414.45	3201.85
414.64	3386.76
414.83	3501.44
415.02	3424.20
415.22	3492.08
415.41	3684.00
415.60	3543.57
415.79	3574.00
415.98	3604.42
416.17	3646.55
416.36	3723.79
416.55	3672.30
416.74	3779.97
416.93	3719.11
417.12	3770.60
417.31	3817.41
417.50	3728.47
417.69	3967.21
417.88	3995.29
418.07	3936.78
418.26	3960.19
418.45	4060.83
418.64	4072.53
418.83	4028.06
419.02	4030.40
419.21	4039.76
419.39	4217.65
419.58	4128.70
419.77	4093.60
419.96	4119.34
420.15	4283.18
420.34	4121.68
420.53	4271.48
420.72	4269.14
420.91	4241.05
421.10	4341.69
421.29	4402.55
421.48	4259.78
421.67	4582.77
421.86	4458.72
422.05	4376.80
422.24	4507.87
422.43	4440.00
422.61	4444.68
422.80	4388.50
422.99	4657.67
423.18	4526.60
423.37	4697.46
423.56	4416.59
423.75	4631.92
423.94	4484.47
424.13	4369.78
424.32	4423.61
424.50	4643.62
424.69	4613.20
424.88	4739.58
425.07	4772.35
425.26	4610.86
425.45	4503.19
425.64	4622.56
425.83	4741.93
426.01	4725.54
426.20	4638.94
426.39	4662.35
426.58	4613.20
426.77	4730.22
426.96	4814.48
427.15	4676.39
427.33	4770.01
427.52	4748.95
427.71	4784.06
427.90	4880.02
428.09	5055.56
428.28	5064.92
428.46	5004.07
428.65	5111.73
428.84	5004.07
429.03	4999.38
429.22	4854.27
429.40	5011.09
429.59	4999.38
429.78	4901.08
429.97	4959.60
430.16	5170.24
430.34	5160.88
430.53	5266.21
430.72	5135.14
430.91	5128.11
431.10	5280.25
431.28	5268.55
431.47	5392.59
431.66	5387.91
431.85	5397.28
432.03	5514.30
432.22	5369.19
432.41	5556.43
432.60	5479.19
432.79	5376.21
432.97	5624.31
433.16	5626.65
433.35	5404.30
433.54	5680.48
433.72	5699.20
433.91	5628.99
434.10	5631.33
434.28	5668.78
434.47	5753.04
434.66	5900.49
434.85	5837.30
435.03	5783.46
435.22	5898.15
435.41	6029.22
435.59	5790.49
435.78	5944.96
435.97	6054.97
436.16	6101.78
436.34	5914.53
436.53	6040.92
436.72	6193.06
436.90	6036.24
437.09	6244.55
437.28	6066.67
437.46	6078.37
437.65	6181.35
437.84	6469.24
438.02	6305.40
438.21	6506.69
438.40	6221.14
438.58	6614.35
438.77	6406.05
438.96	6434.13
439.14	6530.09
439.33	6539.46
439.52	6656.48
439.70	6707.98
439.89	6815.64
440.08	6771.17
440.26	6909.26
440.45	6827.34
440.63	6911.60
440.82	7028.63
441.01	6949.05
441.19	7129.27
441.38	7208.85
441.57	7204.17
441.75	7318.86
441.94	7442.90
442.12	7342.26
442.31	7463.97
442.50	7349.28
442.68	7524.82
442.87	7379.71
443.05	7456.95
443.24	7737.81
443.43	7651.21
443.61	7585.68
443.80	7824.41
443.98	7688.66
444.17	7531.84
444.35	7695.68
444.54	7833.77
444.73	7808.03
444.91	7838.45
445.10	7887.61
445.28	7831.43
445.47	7779.94
445.65	7857.18
445.84	7815.05
446.02	7822.07
446.21	7646.53
446.39	7786.96
446.58	8222.30
446.77	8002.29
446.95	7925.05
447.14	7758.88
447.32	7742.49
447.51	7808.03
447.69	7969.52
447.88	7873.56
448.06	7824.41
448.25	7819.73
448.43	8093.57
448.62	7882.92
448.80	7857.18
448.99	7941.44
449.17	8173.15
449.36	8128.68
449.54	8229.32
449.73	8231.66
449.91	8468.06
450.10	8409.54
450.28	8386.14
450.46	8390.82
450.65	8454.02
450.83	8367.42
451.02	8397.84
451.20	8753.60
451.39	8704.45
451.57	8346.35
451.76	8402.52
451.94	8514.87
452.13	8835.52
452.31	8629.56
452.49	8512.53
452.68	8631.90
452.86	8865.95
453.05	8779.35
453.23	8875.31
453.42	8758.28
453.60	8774.67
453.78	9013.40
453.97	9001.70
454.15	9015.74
454.34	9067.24
454.52	8833.18
454.70	8959.57
454.89	9081.28
455.07	9149.15
455.26	9160.86
455.44	9184.26
455.62	9200.65
455.81	9312.99
455.99	9235.75
456.17	9390.23
456.36	9469.81
456.54	9577.47
456.73	9579.81
456.91	9795.14
457.09	9596.20
457.28	9834.93
457.46	9617.26
457.64	9912.17
457.83	9872.38
458.01	9706.20
458.19	9778.76
458.38	9825.57
458.56	10113.45
458.74	9966.00
458.93	9928.55
459.11	9954.30
459.29	9937.91
459.48	10076.01
459.66	10246.87
459.84	10246.87
460.03	10146.22
460.21	10328.78
460.39	10246.87
460.57	10148.56
460.76	10501.98
460.94	10391.98
461.12	10499.64
461.31	10518.37
461.49	10438.79
461.67	10272.61
461.85	10862.43
462.04	10714.97
462.22	10963.07
462.40	10827.32
462.59	10773.49
462.77	10775.83
462.95	10956.05
463.13	10841.36
463.32	10857.75
463.50	10829.66
463.68	11026.26
463.86	10993.50
464.05	10775.83
464.23	11012.22
464.41	11082.44
464.59	11007.54
464.78	11274.36
464.96	11037.97
465.14	11042.65
465.32	11400.75
465.50	11243.93
465.69	11337.56
465.87	11215.85
466.05	11204.14
466.23	11187.76
466.41	11515.44
466.60	11573.95
466.78	11063.71
466.96	11330.53
467.14	11351.60
467.32	11655.87
467.51	11812.68
467.69	11295.43
467.87	11522.46
468.05	11812.68
468.23	11698.00
468.41	11693.32
468.60	11784.60
468.78	11859.49
468.96	11545.86
469.14	12009.29
469.32	12191.85
469.50	11655.87
469.69	12004.61
469.87	12343.99
470.05	12065.46
470.23	12411.86
470.41	12292.49
470.59	12486.76
470.77	12175.47
470.95	12599.10
471.14	12395.48
471.32	12425.90
471.50	12718.47
471.68	12566.34
471.86	12688.04
472.04	12821.45
472.22	13327.01
472.40	12784.01
472.58	13069.55
472.77	12961.89
472.95	13027.42
473.13	13535.32
473.31	13369.14
473.49	13125.72
473.67	13298.92
473.85	13383.18
474.03	13607.87
474.21	13371.48
474.39	13816.18
474.57	13731.92
474.75	14015.13
474.93	13820.86
475.12	13778.73
475.30	14075.98
475.48	14022.15
475.66	14366.21
475.84	14377.91
476.02	14317.06
476.20	14237.48
476.38	14597.92
476.56	14874.10
476.74	14867.08
476.92	14974.75
477.10	14743.03
477.28	14993.47
477.46	15405.41
477.64	15002.83
477.82	15576.27
478.00	15857.13
478.18	15939.05
478.36	15941.39
478.54	16283.11
478.72	15967.13
478.90	16325.24
479.08	16421.20
479.26	16489.07
479.44	16575.67
479.62	16587.38
479.80	17050.80
479.98	17011.01
480.16	17315.28
480.34	17305.92
480.52	17521.25
480.70	17357.41
480.88	17102.29
481.06	17678.07
481.24	17446.35
481.41	17830.20
481.59	18153.20
481.77	18118.09
481.95	18150.85
482.13	18326.39
482.31	18457.46
482.49	18642.37
482.67	18691.52
482.85	18984.09
483.03	19393.68
483.21	19716.67
483.39	19658.16
483.57	19562.20
483.74	19655.82
483.92	20004.56
484.10	19948.39
484.28	20423.51
484.46	20517.14
484.64	20851.83
484.82	20596.71
485.00	20891.62
485.18	21153.76
485.35	21729.53
485.53	21259.09
485.71	21661.66
485.89	21757.62
486.07	22068.91
486.25	22157.85
486.43	22104.02
486.61	22534.68
486.78	22867.03
486.96	22647.02
487.14	23372.59
487.32	23002.78
487.50	23171.30
487.68	23400.68
487.85	23915.59
488.03	23957.72
488.21	24123.90
488.39	24425.83
488.57	24292.42
488.75	24589.67
488.92	24781.59
489.10	25188.85
489.28	25387.79
489.46	25209.91
489.64	25345.66
489.81	26235.06
489.99	25930.80
490.17	26387.20
490.35	26214.00
490.53	26335.71
490.70	26661.04
490.88	26656.36
491.06	26642.32
491.24	26913.82
491.41	27047.23
491.59	27381.93
491.77	27314.05
491.95	27798.54
492.13	28257.29
492.30	28376.66
492.48	27990.47
492.66	28603.69
492.84	28257.29
493.01	28830.72
493.19	28835.40
493.37	29235.63
493.54	29572.67
493.72	29886.30
493.90	29614.80
494.08	29628.84
494.25	30195.25
494.43	30054.82
494.61	30529.95
494.79	30485.48
494.96	30412.92
495.14	31140.83
495.32	30726.55
495.49	31206.36
495.67	31154.87
495.85	31620.64
496.02	31550.42
496.20	31768.09
496.38	31718.94
496.55	32046.62
496.73	32673.88
496.91	32294.71
497.09	32577.92
497.26	32861.12
497.44	33043.68
497.62	33345.61
497.79	33378.38
497.97	33134.96
498.14	33823.08
498.32	33947.13
498.50	33668.61
498.67	34293.53
498.85	34183.52
499.03	34466.73
499.20	34216.29
499.38	34665.67
499.56	34873.98
499.73	35012.07
499.91	35363.15
500.08	35496.56
500.26	34932.50
500.44	35637.00
500.61	35529.33
500.79	35449.75
500.97	36041.91
501.14	36222.13
501.32	36222.13
501.49	36488.95
501.67	36093.40
501.84	36453.84
502.02	36662.15
502.20	37104.51
502.37	36664.49
502.55	36835.35
502.72	37029.62
502.90	36954.72
503.07	37244.94
503.25	37851.14
503.43	37373.67
503.60	37474.32
503.78	37865.19
503.95	37764.54
504.13	38085.20
504.30	38171.80
504.48	37846.46
504.65	38321.59
504.83	38422.23
505.01	38909.07
505.18	38866.94
505.36	39119.71
505.53	38572.03
505.71	39051.84
505.88	39321.00
506.06	39119.71
506.23	39585.48
506.41	39510.58
506.58	39952.94
506.76	39835.92
506.93	39842.94
507.11	39803.15
507.28	40034.86
507.46	40203.38
507.63	40250.19
507.81	40744.05
507.98	40753.41
508.16	40350.84
508.33	41031.93
508.50	41380.67
508.68	41095.13
508.85	41764.52
509.03	41275.35
509.20	42153.05
509.38	41684.94
509.55	41888.57
509.73	41951.76
509.90	42019.64
510.08	42190.50
510.25	41771.54
510.42	42527.53
510.60	42815.42
510.77	42618.81
510.95	42827.12
511.12	42836.48
511.30	42667.97
511.47	43030.75
511.64	43400.55
511.82	43550.35
511.99	43402.89
512.17	43805.47
512.34	43393.53
512.51	43737.59
512.69	43737.59
512.86	43697.80
513.04	44353.15
513.21	44573.16
513.38	44254.85
513.56	44540.39
513.73	44556.78
513.90	44570.82
514.08	44498.26
514.25	44772.11
514.43	44720.62
514.60	45118.51
514.77	45125.53
514.95	45488.31
515.12	44919.56
515.29	44933.60
515.47	45219.15
515.64	45949.40
515.81	45696.62
515.99	45570.23
516.16	46066.42
516.33	45797.26
516.51	46204.52
516.68	45883.86
516.85	46185.79
517.03	46124.94
517.20	46321.54
517.37	46539.21
517.54	46756.88
517.72	46057.06
517.89	46571.98
518.06	46457.29
518.24	46389.42
518.41	46560.28
518.58	47248.39
518.75	47351.38
518.93	47306.91
519.10	47334.99
519.27	47203.92
519.45	46740.50
519.62	47260.10
519.79	47215.63
519.96	47622.88
520.14	47959.92
520.31	48020.77
520.48	47901.40
520.65	47929.49
520.83	48296.95
521.00	48060.56
521.17	48362.49
521.34	48311.00
521.52	48320.36
521.69	48786.13
521.86	48706.55
522.03	48828.26
522.20	48921.88
522.38	49160.61
522.55	48978.05
522.72	48428.02
522.89	48839.96
523.07	49291.68
523.24	48865.70
523.41	49336.15
523.58	48999.12
523.75	49336.15
523.92	49254.23
524.10	49488.29
524.27	49876.82
524.44	49499.99
524.61	50120.23
524.78	49764.47
524.96	50003.20
525.13	49879.16
525.30	49947.03
525.47	50209.17
525.64	49977.46
525.81	50457.27
525.98	50560.25
526.16	50354.29
526.33	50424.50
526.50	50953.46
526.67	50071.08
526.84	50735.79
527.01	50466.63
527.18	50880.91
527.36	51033.04
527.53	50784.94
527.70	51407.53
527.87	51241.35
528.04	50864.52
528.21	51379.44
528.38	50976.87
528.55	51215.60
528.72	51433.27
528.89	51463.70
529.07	51615.83
529.24	51264.75
529.41	51271.78
529.58	51175.81
529.75	51349.01
529.92	51547.96
530.09	51611.15
530.26	51653.28
530.43	51662.64
530.60	51742.22
530.77	51971.60
530.94	51777.33
531.11	51910.74
531.28	52222.03
531.46	51765.63
531.63	52254.80
531.80	52140.11
531.97	52530.98
532.14	52530.98
532.31	52432.68
532.48	52523.96
532.65	52545.03
532.82	51856.91
532.99	52868.02
533.16	52402.25
533.33	52814.19
533.50	52992.07
533.67	52549.71
533.84	52851.64
534.01	52439.70
534.18	52622.26
534.35	53134.84
534.52	52788.44
534.69	53076.33
534.86	53233.14
535.03	53006.11
535.20	53340.81
535.37	53059.94
535.54	53389.96
535.71	53202.72
535.88	53265.91
536.05	53223.78
536.22	53752.74
536.38	53666.14
536.55	53544.44
536.72	53553.80
536.89	53195.70
537.06	53488.26
537.23	53518.69
537.40	53553.80
537.57	53666.14
537.74	53670.82
537.91	53865.09
538.08	54227.87
538.25	54117.87
538.42	53869.77
538.59	53977.43
538.75	53509.33
538.92	53455.50
539.09	54253.62
539.26	54195.10
539.43	54049.99
539.60	54307.45
539.77	54253.62
539.94	54473.63
540.11	54138.93
540.28	54492.35
540.44	54319.15
540.61	54206.81
540.78	54375.33
540.95	54600.02
541.12	54461.93
541.29	54429.16
541.46	54466.61
541.62	54518.10
541.79	54747.47
541.96	54143.61
542.13	54541.50
542.30	54698.32
542.47	54803.64
542.63	54901.95
542.80	54958.12
542.97	55037.70
543.14	55105.57
543.31	54717.04
543.48	54958.12
543.64	55136.00
543.81	55313.88
543.98	55290.48
544.15	55327.92
544.32	55566.66
544.48	55164.09
544.65	55313.88
544.82	55229.62
544.99	55346.65
545.16	55512.83
545.32	55428.57
545.49	55671.98
545.66	55756.24
545.83	55615.81
546.00	55810.07
546.16	55819.44
546.33	55388.78
546.50	55463.67
546.67	55494.10
546.83	55344.31
547.00	55681.34
547.17	55711.77
547.34	55744.54
547.50	55945.83
547.67	56121.37
547.84	56069.87
548.00	56156.47
548.17	56151.79
548.34	56168.18
548.51	56236.05
548.67	56413.93
548.84	56203.28
549.01	56210.31
549.18	56184.56
549.34	56236.05
549.51	56119.02
549.68	56154.13
549.84	56090.94
550.01	56259.46
550.18	56123.71
550.34	56346.06
550.51	56584.79
550.68	56406.91
550.84	55992.64
551.01	56435.00
551.18	56435.00
551.34	56301.59
551.51	56577.77
551.68	56666.71
551.84	56603.52
552.01	56779.06
552.18	56736.93
552.34	56645.65
552.51	56516.92
552.68	56640.96
552.84	56868.00
553.01	56797.78
553.18	56875.02
553.34	56608.20
553.51	57003.75
553.67	56889.06
553.84	57237.80
554.01	57202.69
554.17	56818.84
554.34	57092.69
554.51	56846.93
554.67	57085.67
554.84	57160.56
555.00	57104.39
555.17	57308.02
555.33	57216.74
555.50	57209.71
555.67	57242.48
555.83	57106.73
556.00	56877.36
556.16	57188.65
556.33	57123.11
556.50	57195.67
556.66	57408.66
556.83	57104.39
556.99	57593.56
557.16	57616.97
557.32	57469.51
557.49	57478.88
557.65	57172.27
557.82	57219.08
557.98	57284.61
558.15	57371.21
558.32	57663.78
558.48	57509.30
558.65	57513.98
558.81	57425.04
558.98	57565.48
559.14	57708.25
559.31	57450.79
559.47	57492.92
559.64	57733.99
559.80	57729.31
559.97	57925.92
560.13	57675.48
560.30	57867.40
560.46	57818.25
560.63	57701.23
560.79	57677.82
560.96	57949.32
561.12	57764.42
561.29	57638.03
561.45	57736.34
561.61	57858.04
561.78	57996.13
561.94	57846.34
562.11	57867.40
562.27	57907.19
562.44	57677.82
562.60	57827.62
562.77	57808.89
562.93	57956.35
563.10	58213.80
563.26	57715.27
563.42	58241.89
563.59	58064.01
563.75	57895.49
563.92	58101.46
564.08	57841.66
564.24	58061.67
564.41	58019.54
564.57	57977.41
564.74	58089.76
564.90	58113.16
565.07	58307.43
565.23	58351.90
565.39	58148.27
565.56	58265.30
565.72	58131.89
565.88	58216.14
566.05	58068.69
566.21	58110.82
566.38	57961.03
566.54	58162.31
566.70	58384.66
566.87	58445.52
567.03	58239.55
567.19	58691.27
567.36	58291.04
567.52	58251.25
567.68	58155.29
567.85	58174.02
568.01	58398.71
568.17	58253.59
568.34	58323.81
568.50	58377.64
568.66	58206.78
568.83	58562.54
568.99	58342.53
569.15	57958.69
569.32	58230.19
569.48	58145.93
569.64	58365.94
569.81	58244.23
569.97	58272.32
570.13	58588.29
570.30	58354.24
570.46	58525.10
570.62	58143.59
570.78	58457.22
570.95	58150.61
571.11	58272.32
571.27	58365.94
571.43	58377.64
571.60	58539.14
571.76	58417.43
571.92	58637.44
572.09	58391.68
572.25	58604.67
572.41	58588.29
572.57	58602.33
572.74	58506.37
572.90	58394.03
573.06	58379.98
573.22	58513.39
573.38	58408.07
573.55	58422.11
573.71	58775.53
573.87	58611.70
574.03	58410.41
574.20	58520.41
574.36	58396.37
574.52	58450.20
574.68	58363.60
574.84	58508.71
575.01	58749.79
575.17	58791.92
575.33	58576.59
575.49	58501.69
575.65	58644.46
575.82	58869.15
575.98	58513.39
576.14	58632.76
576.30	58731.06
576.46	58571.91
576.62	58576.59
576.79	58525.10
576.95	58473.60
577.11	58845.75
577.27	58831.71
577.43	58759.15
577.59	58773.19
577.75	58560.20
577.92	58342.53
578.08	58688.93
578.24	58702.98
578.40	58485.31
578.56	58777.87
578.72	58623.40
578.88	58855.11
579.04	58803.62
579.21	58642.12
579.37	58782.55
579.53	58803.62
579.69	58515.73
579.85	58845.75
580.01	58583.61
580.17	58658.51
580.33	58815.32
580.49	58796.60
580.65	58876.18
580.82	59086.82
580.98	59040.01
581.14	58848.09
581.30	58787.24
581.46	58782.55
581.62	58607.01
581.78	58756.81
581.94	58754.47
582.10	58695.95
582.26	58766.17
582.42	58686.59
582.58	59091.51
582.74	58841.07
582.90	58747.45
583.06	58927.67
583.22	58721.70
583.38	58880.86
583.54	58768.51
583.70	58749.79
583.86	58873.84
584.02	59035.33
584.18	58901.92
584.34	58958.09
584.50	58871.49
584.66	59002.56
584.82	58742.77
584.98	58972.14
585.14	58857.45
585.30	58499.35
585.46	58637.44
585.62	58686.59
585.78	58684.25
585.94	58611.70
586.10	58981.50
586.26	59096.19
586.42	58834.05
586.58	59049.38
586.74	58801.28
586.90	58784.90
587.06	58731.06
587.22	59264.70
587.38	58918.31
587.54	59023.63
587.70	59238.96
587.86	59051.72
588.02	58965.12
588.18	59007.25
588.34	58745.11
588.49	58724.04
588.65	58738.08
588.81	58773.19
588.97	59082.14
589.13	59133.63
589.29	58890.22
