SpectraSuite Data File
++++++++++++++++++++++++++++++++++++
Date: Fri Oct 04 11:47:23 GMT-05:00 2013
User: price-jones
Dark Spectrum Present: No
Reference Spectrum Present: No
Number of Sampled Component Spectra: 1
Spectrometers: USB2+H05261
Integration Time (usec): 100000 (USB2+H05261)
Spectra Averaged: 1 (USB2+H05261)
Boxcar Smoothing: 0 (USB2+H05261)
Correct for Electrical Dark: No (USB2+H05261)
Strobe/Lamp Enabled: No (USB2+H05261)
Correct for Detector Non-linearity: No (USB2+H05261)
Correct for Stray Light: No (USB2+H05261)
Number of Pixels in Processed Spectrum: 2048
>>>>>Begin Processed Spectral Data<<<<<
365.73	0.00
365.92	0.00
366.12	0.00
366.32	0.00
366.52	0.00
366.72	0.00
366.91	0.00
367.11	0.00
367.31	0.00
367.51	0.00
367.70	0.00
367.90	0.00
368.10	0.00
368.30	16.38
368.49	0.00
368.69	0.00
368.89	0.00
369.09	0.00
369.28	0.00
369.48	0.00
369.68	0.00
369.87	60.85
370.07	0.00
370.27	28.09
370.47	4.68
370.66	0.00
370.86	0.00
371.06	21.06
371.25	91.28
371.45	93.62
371.65	39.79
371.84	35.11
372.04	21.06
372.24	39.79
372.44	107.66
372.63	114.69
372.83	142.77
373.03	98.30
373.22	67.88
373.42	77.24
373.62	100.64
373.81	133.41
374.01	112.35
374.21	184.90
374.40	156.82
374.60	74.90
374.79	51.49
374.99	168.52
375.19	112.35
375.38	131.07
375.58	56.17
375.78	156.82
375.97	212.99
376.17	147.45
376.37	175.54
376.56	98.30
376.76	35.11
376.95	46.81
377.15	100.64
377.35	124.05
377.54	166.18
377.74	77.24
377.93	60.85
378.13	114.69
378.33	133.41
378.52	88.94
378.72	173.20
378.91	163.84
379.11	72.56
379.31	114.69
379.50	30.43
379.70	121.71
379.89	128.73
380.09	72.56
380.28	114.69
380.48	77.24
380.68	58.51
380.87	49.15
381.07	100.64
381.26	81.92
381.46	152.13
381.65	93.62
381.85	67.88
382.04	117.03
382.24	112.35
382.43	102.98
382.63	65.54
382.83	107.66
383.02	147.45
383.22	173.20
383.41	56.17
383.61	126.39
383.80	53.83
384.00	114.69
384.19	84.26
384.39	114.69
384.58	56.17
384.78	102.98
384.97	77.24
385.17	86.60
385.36	77.24
385.56	121.71
385.75	98.30
385.95	156.82
386.14	149.79
386.34	93.62
386.53	105.32
386.72	102.98
386.92	168.52
387.11	88.94
387.31	147.45
387.50	35.11
387.70	110.01
387.89	81.92
388.09	102.98
388.28	88.94
388.48	74.90
388.67	149.79
388.86	58.51
389.06	77.24
389.25	74.90
389.45	49.15
389.64	131.07
389.84	117.03
390.03	147.45
390.22	112.35
390.42	135.75
390.61	98.30
390.81	114.69
391.00	67.88
391.19	63.19
391.39	105.32
391.58	138.09
391.78	51.49
391.97	79.58
392.16	88.94
392.36	168.52
392.55	154.48
392.75	95.96
392.94	44.47
393.13	35.11
393.33	93.62
393.52	128.73
393.71	170.86
393.91	107.66
394.10	86.60
394.29	126.39
394.49	65.54
394.68	126.39
394.88	170.86
395.07	105.32
395.26	187.24
395.46	152.13
395.65	145.11
395.84	67.88
396.04	175.54
396.23	107.66
396.42	124.05
396.62	114.69
396.81	142.77
397.00	110.01
397.19	117.03
397.39	58.51
397.58	86.60
397.77	58.51
397.97	95.96
398.16	145.11
398.35	217.67
398.55	100.64
398.74	84.26
398.93	112.35
399.12	107.66
399.32	86.60
399.51	95.96
399.70	217.67
399.90	159.16
400.09	44.47
400.28	126.39
400.47	182.56
400.67	177.88
400.86	154.48
401.05	154.48
401.24	154.48
401.44	173.20
401.63	60.85
401.82	114.69
402.01	145.11
402.21	112.35
402.40	149.79
402.59	147.45
402.78	126.39
402.97	145.11
403.17	98.30
403.36	133.41
403.55	81.92
403.74	81.92
403.93	131.07
404.13	131.07
404.32	93.62
404.51	142.77
404.70	210.65
404.89	196.60
405.09	205.97
405.28	170.86
405.47	79.58
405.66	124.05
405.85	121.71
406.05	131.07
406.24	93.62
406.43	133.41
406.62	175.54
406.81	119.37
407.00	170.86
407.20	107.66
407.39	86.60
407.58	154.48
407.77	175.54
407.96	215.33
408.15	175.54
408.34	152.13
408.54	159.16
408.73	88.94
408.92	91.28
409.11	177.88
409.30	112.35
409.49	102.98
409.68	135.75
409.87	88.94
410.07	86.60
410.26	117.03
410.45	173.20
410.64	86.60
410.83	63.19
411.02	205.97
411.21	133.41
411.40	124.05
411.59	168.52
411.78	152.13
411.98	198.95
412.17	117.03
412.36	138.09
412.55	149.79
412.74	152.13
412.93	184.90
413.12	74.90
413.31	184.90
413.50	198.95
413.69	161.50
413.88	259.80
414.07	203.63
414.26	149.79
414.45	180.22
414.64	154.48
414.83	93.62
415.02	168.52
415.22	208.31
415.41	189.58
415.60	95.96
415.79	142.77
415.98	168.52
416.17	224.69
416.36	187.24
416.55	149.79
416.74	236.39
416.93	210.65
417.12	131.07
417.31	58.51
417.50	182.56
417.69	142.77
417.88	140.43
418.07	121.71
418.26	149.79
418.45	126.39
418.64	297.25
418.83	128.73
419.02	161.50
419.21	114.69
419.39	212.99
419.58	138.09
419.77	166.18
419.96	152.13
420.15	180.22
420.34	166.18
420.53	154.48
420.72	182.56
420.91	182.56
421.10	140.43
421.29	93.62
421.48	152.13
421.67	187.24
421.86	152.13
422.05	198.95
422.24	135.75
422.43	98.30
422.61	201.29
422.80	128.73
422.99	196.60
423.18	182.56
423.37	238.73
423.56	191.92
423.75	152.13
423.94	156.82
424.13	191.92
424.32	81.92
424.50	184.90
424.69	191.92
424.88	180.22
425.07	149.79
425.26	196.60
425.45	114.69
425.64	182.56
425.83	161.50
426.01	149.79
426.20	159.16
426.39	145.11
426.58	138.09
426.77	156.82
426.96	128.73
427.15	173.20
427.33	142.77
427.52	107.66
427.71	203.63
427.90	203.63
428.09	182.56
428.28	154.48
428.46	212.99
428.65	231.71
428.84	126.39
429.03	238.73
429.22	114.69
429.40	173.20
429.59	191.92
429.78	133.41
429.97	126.39
430.16	74.90
430.34	166.18
430.53	138.09
430.72	196.60
430.91	140.43
431.10	131.07
431.28	205.97
431.47	229.37
431.66	128.73
431.85	212.99
432.03	234.05
432.22	290.23
432.41	168.52
432.60	224.69
432.79	156.82
432.97	184.90
433.16	145.11
433.35	126.39
433.54	184.90
433.72	182.56
433.91	196.60
434.10	175.54
434.28	196.60
434.47	238.73
434.66	224.69
434.85	243.42
435.03	142.77
435.22	173.20
435.41	220.01
435.59	182.56
435.78	241.08
435.97	198.95
436.16	236.39
436.34	201.29
436.53	154.48
436.72	194.26
436.90	173.20
437.09	149.79
437.28	149.79
437.46	205.97
437.65	189.58
437.84	135.75
438.02	154.48
438.21	124.05
438.40	121.71
438.58	126.39
438.77	175.54
438.96	212.99
439.14	95.96
439.33	182.56
439.52	210.65
439.70	177.88
439.89	177.88
440.08	177.88
440.26	227.03
440.45	187.24
440.63	154.48
440.82	290.23
441.01	245.76
441.19	173.20
441.38	201.29
441.57	245.76
441.75	222.35
441.94	198.95
442.12	191.92
442.31	166.18
442.50	126.39
442.68	170.86
442.87	205.97
443.05	88.94
443.24	154.48
443.43	222.35
443.61	196.60
443.80	133.41
443.98	236.39
444.17	278.52
444.35	196.60
444.54	184.90
444.73	259.80
444.91	241.08
445.10	212.99
445.28	173.20
445.47	131.07
445.65	175.54
445.84	205.97
446.02	189.58
446.21	154.48
446.39	133.41
446.58	238.73
446.77	173.20
446.95	156.82
447.14	189.58
447.32	114.69
447.51	163.84
447.69	201.29
447.88	217.67
448.06	222.35
448.25	184.90
448.43	250.44
448.62	177.88
448.80	170.86
448.99	149.79
449.17	180.22
449.36	215.33
449.54	194.26
449.73	126.39
449.91	208.31
450.10	180.22
450.28	292.57
450.46	271.50
450.65	252.78
450.83	259.80
451.02	175.54
451.20	210.65
451.39	255.12
451.57	196.60
451.76	154.48
451.94	264.48
452.13	290.23
452.31	180.22
452.49	184.90
452.68	203.63
452.86	159.16
453.05	196.60
453.23	147.45
453.42	205.97
453.60	147.45
453.78	163.84
453.97	205.97
454.15	161.50
454.34	168.52
454.52	243.42
454.70	238.73
454.89	201.29
455.07	152.13
455.26	187.24
455.44	227.03
455.62	220.01
455.81	238.73
455.99	217.67
456.17	217.67
456.36	168.52
456.54	222.35
456.73	154.48
456.91	168.52
457.09	205.97
457.28	227.03
457.46	152.13
457.64	198.95
457.83	222.35
458.01	231.71
458.19	189.58
458.38	142.77
458.56	156.82
458.74	79.58
458.93	182.56
459.11	243.42
459.29	220.01
459.48	194.26
459.66	280.86
459.84	285.55
460.03	322.99
460.21	217.67
460.39	238.73
460.57	276.18
460.76	224.69
460.94	220.01
461.12	266.82
461.31	224.69
461.49	189.58
461.67	198.95
461.85	194.26
462.04	234.05
462.22	732.59
462.40	255.12
462.59	241.08
462.77	163.84
462.95	215.33
463.13	133.41
463.32	339.38
463.50	196.60
463.68	191.92
463.86	187.24
464.05	168.52
464.23	264.48
464.41	257.46
464.59	255.12
464.78	173.20
464.96	147.45
465.14	245.76
465.32	187.24
465.50	236.39
465.69	203.63
465.87	189.58
466.05	194.26
466.23	142.77
466.41	187.24
466.60	208.31
466.78	205.97
466.96	210.65
467.14	184.90
467.32	215.33
467.51	196.60
467.69	203.63
467.87	224.69
468.05	269.16
468.23	182.56
468.41	238.73
468.60	273.84
468.78	217.67
468.96	227.03
469.14	236.39
469.32	182.56
469.50	215.33
469.69	147.45
469.87	194.26
470.05	297.25
470.23	177.88
470.41	196.60
470.59	217.67
470.77	168.52
470.95	184.90
471.14	231.71
471.32	180.22
471.50	184.90
471.68	191.92
471.86	236.39
472.04	180.22
472.22	252.78
472.40	177.88
472.58	142.77
472.77	299.59
472.95	264.48
473.13	187.24
473.31	236.39
473.49	269.16
473.67	145.11
473.85	271.50
474.03	273.84
474.21	201.29
474.39	238.73
474.57	266.82
474.75	212.99
474.93	238.73
475.12	203.63
475.30	250.44
475.48	224.69
475.66	301.93
475.84	252.78
476.02	187.24
476.20	222.35
476.38	243.42
476.56	273.84
476.74	245.76
476.92	262.14
477.10	255.12
477.28	318.31
477.46	266.82
477.64	217.67
477.82	205.97
478.00	205.97
478.18	212.99
478.36	170.86
478.54	257.46
478.72	248.10
478.90	224.69
479.08	191.92
479.26	236.39
479.44	255.12
479.62	229.37
479.80	163.84
479.98	255.12
480.16	227.03
480.34	320.65
480.52	198.95
480.70	292.57
480.88	255.12
481.06	196.60
481.24	222.35
481.41	330.02
481.59	229.37
481.77	332.36
481.95	252.78
482.13	306.61
482.31	313.63
482.49	210.65
482.67	236.39
482.85	257.46
483.03	280.86
483.21	287.89
483.39	234.05
483.57	313.63
483.74	327.68
483.92	152.13
484.10	262.14
484.28	301.93
484.46	397.89
484.64	238.73
484.82	212.99
485.00	255.12
485.18	201.29
485.35	344.06
485.53	245.76
485.71	234.05
485.89	248.10
486.07	215.33
486.25	262.14
486.43	266.82
486.61	255.12
486.78	262.14
486.96	257.46
487.14	273.84
487.32	273.84
487.50	290.23
487.68	245.76
487.85	198.95
488.03	299.59
488.21	334.70
488.39	330.02
488.57	229.37
488.75	318.31
488.92	596.84
489.10	308.95
489.28	365.12
489.46	330.02
489.64	269.16
489.81	337.04
489.99	257.46
490.17	320.65
490.35	262.14
490.53	227.03
490.70	285.55
490.88	276.18
491.06	269.16
491.24	313.63
491.41	294.91
491.59	313.63
491.77	325.33
491.95	285.55
492.13	257.46
492.30	285.55
492.48	255.12
492.66	262.14
492.84	301.93
493.01	285.55
493.19	245.76
493.37	266.82
493.54	304.27
493.72	290.23
493.90	334.70
494.08	236.39
494.25	313.63
494.43	285.55
494.61	264.48
494.79	322.99
494.96	264.48
495.14	308.95
495.32	322.99
495.49	330.02
495.67	320.65
495.85	264.48
496.02	346.40
496.20	348.74
496.38	245.76
496.55	320.65
496.73	332.36
496.91	327.68
497.09	280.86
497.26	369.80
497.44	355.76
497.62	353.42
497.79	341.72
497.97	250.44
498.14	308.95
498.32	315.97
498.50	353.42
498.67	383.85
498.85	292.57
499.03	339.38
499.20	346.40
499.38	322.99
499.56	313.63
499.73	353.42
499.91	372.15
500.08	360.44
500.26	290.23
500.44	292.57
500.61	348.74
500.79	381.51
500.97	337.04
501.14	287.89
501.32	330.02
501.49	386.19
501.67	348.74
501.84	276.18
502.02	308.95
502.20	348.74
502.37	353.42
502.55	383.85
502.72	308.95
502.90	383.85
503.07	327.68
503.25	266.82
503.43	322.99
503.60	236.39
503.78	308.95
503.95	318.31
504.13	290.23
504.30	383.85
504.48	346.40
504.65	388.53
504.83	313.63
505.01	367.46
505.18	344.06
505.36	353.42
505.53	322.99
505.71	262.14
505.88	395.55
506.06	369.80
506.23	311.29
506.41	217.67
506.58	461.09
506.76	383.85
506.93	421.30
507.11	355.76
507.28	269.16
507.46	320.65
507.63	369.80
507.81	318.31
507.98	325.33
508.16	372.15
508.33	292.57
508.50	423.64
508.68	393.21
508.85	367.46
509.03	299.59
509.20	346.40
509.38	407.25
509.55	376.83
509.73	304.27
509.90	280.86
510.08	330.02
510.25	367.46
510.42	383.85
510.60	318.31
510.77	390.87
510.95	315.97
511.12	360.44
511.30	348.74
511.47	320.65
511.64	348.74
511.82	407.25
511.99	353.42
512.17	280.86
512.34	334.70
512.51	414.27
512.69	297.25
512.86	402.57
513.04	301.93
513.21	376.83
513.38	402.57
513.56	381.51
513.73	369.80
513.90	330.02
514.08	315.97
514.25	386.19
514.43	339.38
514.60	411.93
514.77	388.53
514.95	334.70
515.12	313.63
515.29	292.57
515.47	409.59
515.64	383.85
515.81	376.83
515.99	325.33
516.16	351.08
516.33	322.99
516.51	234.05
516.68	234.05
516.85	259.80
517.03	315.97
517.20	339.38
517.37	362.78
517.54	437.68
517.72	423.64
517.89	318.31
518.06	301.93
518.24	355.76
518.41	416.62
518.58	351.08
518.75	339.38
518.93	390.87
519.10	327.68
519.27	365.12
519.45	393.21
519.62	423.64
519.79	386.19
519.96	353.42
520.14	318.31
520.31	411.93
520.48	332.36
520.65	374.49
520.83	351.08
521.00	355.76
521.17	332.36
521.34	276.18
521.52	367.46
521.69	447.04
521.86	301.93
522.03	322.99
522.20	393.21
522.38	304.27
522.55	360.44
522.72	353.42
522.89	414.27
523.07	339.38
523.24	322.99
523.41	376.83
523.58	306.61
523.75	353.42
523.92	461.09
524.10	433.00
524.27	433.00
524.44	421.30
524.61	458.74
524.78	351.08
524.96	376.83
525.13	390.87
525.30	379.17
525.47	477.47
525.64	423.64
525.81	358.10
525.98	372.15
526.16	315.97
526.33	299.59
526.50	353.42
526.67	311.29
526.84	332.36
527.01	325.33
527.18	383.85
527.36	425.98
527.53	355.76
527.70	433.00
527.87	421.30
528.04	404.91
528.21	383.85
528.38	475.13
528.55	475.13
528.72	386.19
528.89	386.19
529.07	355.76
529.24	407.25
529.41	409.59
529.58	362.78
529.75	397.89
529.92	390.87
530.09	442.36
530.26	409.59
530.43	465.77
530.60	400.23
530.77	390.87
530.94	451.72
531.11	365.12
531.28	404.91
531.46	348.74
531.63	353.42
531.80	447.04
531.97	435.34
532.14	372.15
532.31	341.72
532.48	365.12
532.65	372.15
532.82	348.74
532.99	318.31
533.16	423.64
533.33	346.40
533.50	379.17
533.67	341.72
533.84	390.87
534.01	477.47
534.18	425.98
534.35	365.12
534.52	393.21
534.69	458.74
534.86	365.12
535.03	346.40
535.20	372.15
535.37	414.27
535.54	411.93
535.71	362.78
535.88	421.30
536.05	353.42
536.22	458.74
536.38	360.44
536.55	348.74
536.72	416.62
536.89	334.70
537.06	397.89
537.23	402.57
537.40	395.55
537.57	411.93
537.74	390.87
537.91	421.30
538.08	388.53
538.25	365.12
538.42	337.04
538.59	397.89
538.75	315.97
538.92	414.27
539.09	456.40
539.26	416.62
539.43	414.27
539.60	318.31
539.77	334.70
539.94	327.68
540.11	353.42
540.28	388.53
540.44	344.06
540.61	395.55
540.78	369.80
540.95	344.06
541.12	411.93
541.29	451.72
541.46	379.17
541.62	433.00
541.79	325.33
541.96	381.51
542.13	294.91
542.30	372.15
542.47	390.87
542.63	355.76
542.80	437.68
542.97	346.40
543.14	383.85
543.31	414.27
543.48	290.23
543.64	341.72
543.81	395.55
543.98	386.19
544.15	411.93
544.32	376.83
544.48	397.89
544.65	428.32
544.82	409.59
544.99	390.87
545.16	346.40
545.32	360.44
545.49	355.76
545.66	409.59
545.83	400.23
546.00	397.89
546.16	465.77
546.33	418.96
546.50	397.89
546.67	444.70
546.83	423.64
547.00	383.85
547.17	337.04
547.34	334.70
547.50	381.51
547.67	348.74
547.84	397.89
548.00	348.74
548.17	372.15
548.34	411.93
548.51	402.57
548.67	433.00
548.84	407.25
549.01	418.96
549.18	353.42
549.34	355.76
549.51	346.40
549.68	355.76
549.84	358.10
550.01	458.74
550.18	479.81
550.34	444.70
550.51	381.51
550.68	353.42
550.84	372.15
551.01	418.96
551.18	428.32
551.34	337.04
551.51	390.87
551.68	423.64
551.84	381.51
552.01	430.66
552.18	353.42
552.34	341.72
552.51	388.53
552.68	435.34
552.84	334.70
553.01	372.15
553.18	381.51
553.34	372.15
553.51	355.76
553.67	374.49
553.84	416.62
554.01	447.04
554.17	444.70
554.34	376.83
554.51	355.76
554.67	397.89
554.84	360.44
555.00	402.57
555.17	414.27
555.33	433.00
555.50	372.15
555.67	374.49
555.83	358.10
556.00	313.63
556.16	472.79
556.33	423.64
556.50	416.62
556.66	404.91
556.83	355.76
556.99	255.12
557.16	360.44
557.32	393.21
557.49	318.31
557.65	306.61
557.82	407.25
557.98	404.91
558.15	416.62
558.32	332.36
558.48	365.12
558.65	360.44
558.81	341.72
558.98	353.42
559.14	418.96
559.31	294.91
559.47	304.27
559.64	346.40
559.80	360.44
559.97	308.95
560.13	358.10
560.30	404.91
560.46	325.33
560.63	287.89
560.79	360.44
560.96	418.96
561.12	360.44
561.29	294.91
561.45	395.55
561.61	344.06
561.78	383.85
561.94	379.17
562.11	351.08
562.27	320.65
562.44	390.87
562.60	404.91
562.77	353.42
562.93	454.06
563.10	362.78
563.26	383.85
563.42	367.46
563.59	379.17
563.75	341.72
563.92	379.17
564.08	297.25
564.24	348.74
564.41	425.98
564.57	346.40
564.74	346.40
564.90	376.83
565.07	397.89
565.23	447.04
565.39	355.76
565.56	339.38
565.72	276.18
565.88	388.53
566.05	332.36
566.21	409.59
566.38	346.40
566.54	358.10
566.70	332.36
566.87	386.19
567.03	348.74
567.19	393.21
567.36	376.83
567.52	337.04
567.68	306.61
567.85	339.38
568.01	330.02
568.17	297.25
568.34	292.57
568.50	414.27
568.66	334.70
568.83	416.62
568.99	273.84
569.15	348.74
569.32	322.99
569.48	313.63
569.64	351.08
569.81	341.72
569.97	337.04
570.13	290.23
570.30	341.72
570.46	330.02
570.62	365.12
570.78	393.21
570.95	330.02
571.11	360.44
571.27	362.78
571.43	369.80
571.60	344.06
571.76	334.70
571.92	290.23
572.09	306.61
572.25	362.78
572.41	360.44
572.57	341.72
572.74	388.53
572.90	341.72
573.06	299.59
573.22	320.65
573.38	271.50
573.55	409.59
573.71	381.51
573.87	318.31
574.03	318.31
574.20	355.76
574.36	344.06
574.52	346.40
574.68	379.17
574.84	379.17
575.01	337.04
575.17	381.51
575.33	351.08
575.49	451.72
575.65	306.61
575.82	299.59
575.98	409.59
576.14	320.65
576.30	334.70
576.46	327.68
576.62	252.78
576.79	360.44
576.95	308.95
577.11	325.33
577.27	358.10
577.43	311.29
577.59	327.68
577.75	325.33
577.92	379.17
578.08	308.95
578.24	278.52
578.40	330.02
578.56	402.57
578.72	330.02
578.88	358.10
579.04	339.38
579.21	327.68
579.37	280.86
579.53	341.72
579.69	400.23
579.85	351.08
580.01	379.17
580.17	393.21
580.33	390.87
580.49	407.25
580.65	397.89
580.82	360.44
580.98	374.49
581.14	360.44
581.30	374.49
581.46	397.89
581.62	381.51
581.78	409.59
581.94	358.10
582.10	301.93
582.26	369.80
582.42	355.76
582.58	332.36
582.74	397.89
582.90	393.21
583.06	344.06
583.22	301.93
583.38	372.15
583.54	318.31
583.70	409.59
583.86	376.83
584.02	404.91
584.18	355.76
584.34	308.95
584.50	315.97
584.66	304.27
584.82	322.99
584.98	390.87
585.14	330.02
585.30	299.59
585.46	337.04
585.62	339.38
585.78	369.80
585.94	341.72
586.10	322.99
586.26	414.27
586.42	386.19
586.58	339.38
586.74	360.44
586.90	301.93
587.06	327.68
587.22	383.85
587.38	306.61
587.54	304.27
587.70	318.31
587.86	341.72
588.02	337.04
588.18	332.36
588.34	339.38
588.49	278.52
588.65	330.02
588.81	222.35
588.97	196.60
589.13	227.03
589.29	283.20
589.45	306.61
589.61	259.80
589.77	325.33
589.93	280.86
590.08	297.25
590.24	266.82
590.40	229.37
590.56	306.61
590.72	266.82
590.88	248.10
591.04	374.49
591.20	337.04
591.35	278.52
591.51	177.88
591.67	320.65
591.83	273.84
591.99	325.33
592.15	294.91
592.31	280.86
592.46	308.95
592.62	346.40
592.78	257.46
592.94	404.91
593.10	367.46
593.26	325.33
593.41	318.31
593.57	339.38
593.73	315.97
593.89	297.25
594.05	337.04
594.20	301.93
594.36	318.31
594.52	217.67
594.68	273.84
594.84	278.52
594.99	273.84
595.15	308.95
595.31	320.65
595.47	362.78
595.62	269.16
595.78	330.02
595.94	278.52
596.10	365.12
596.25	353.42
596.41	269.16
596.57	334.70
596.73	278.52
596.88	299.59
597.04	271.50
597.20	311.29
597.36	294.91
597.51	322.99
597.67	320.65
597.83	203.63
597.99	320.65
598.14	374.49
598.30	362.78
598.46	330.02
598.61	308.95
598.77	393.21
598.93	308.95
599.09	273.84
599.24	334.70
599.40	339.38
599.56	344.06
599.71	297.25
599.87	243.42
600.03	320.65
600.18	262.14
600.34	386.19
600.50	395.55
600.65	294.91
600.81	264.48
600.97	358.10
601.12	304.27
601.28	313.63
601.44	423.64
601.59	330.02
601.75	276.18
601.91	280.86
602.06	264.48
602.22	423.64
602.37	322.99
602.53	285.55
602.69	337.04
602.84	346.40
603.00	330.02
603.16	390.87
603.31	400.23
603.47	367.46
603.62	400.23
603.78	287.89
603.94	292.57
604.09	292.57
604.25	283.20
604.40	269.16
604.56	276.18
604.71	367.46
604.87	257.46
605.03	257.46
605.18	374.49
605.34	374.49
605.49	332.36
605.65	264.48
605.80	341.72
605.96	325.33
606.12	376.83
606.27	339.38
606.43	351.08
606.58	322.99
606.74	322.99
606.89	280.86
607.05	320.65
607.20	257.46
607.36	367.46
607.51	348.74
607.67	257.46
607.82	395.55
607.98	346.40
608.13	351.08
608.29	248.10
608.44	372.15
608.60	367.46
608.75	327.68
608.91	360.44
609.06	444.70
609.22	362.78
609.37	341.72
609.53	269.16
609.68	318.31
609.84	262.14
609.99	381.51
610.15	322.99
610.30	322.99
610.46	360.44
610.61	383.85
610.76	346.40
610.92	294.91
611.07	308.95
611.23	402.57
611.38	280.86
611.54	301.93
611.69	278.52
