SpectraSuite Data File
++++++++++++++++++++++++++++++++++++
Date: Fri Oct 04 11:48:20 GMT-05:00 2013
User: price-jones
Dark Spectrum Present: No
Reference Spectrum Present: No
Number of Sampled Component Spectra: 1
Spectrometers: USB2+H05261
Integration Time (usec): 100000 (USB2+H05261)
Spectra Averaged: 1 (USB2+H05261)
Boxcar Smoothing: 0 (USB2+H05261)
Correct for Electrical Dark: No (USB2+H05261)
Strobe/Lamp Enabled: No (USB2+H05261)
Correct for Detector Non-linearity: No (USB2+H05261)
Correct for Stray Light: No (USB2+H05261)
Number of Pixels in Processed Spectrum: 2048
>>>>>Begin Processed Spectral Data<<<<<
365.73	30.43
365.92	30.43
366.12	30.43
366.32	0.00
366.52	0.00
366.72	9.36
366.91	0.00
367.11	0.00
367.31	0.00
367.51	0.00
367.70	0.00
367.90	0.00
368.10	0.00
368.30	0.00
368.49	0.00
368.69	49.15
368.89	0.00
369.09	0.00
369.28	0.00
369.48	0.00
369.68	0.00
369.87	0.00
370.07	42.13
370.27	0.00
370.47	4.68
370.66	0.00
370.86	42.13
371.06	51.49
371.25	81.92
371.45	0.00
371.65	49.15
371.84	18.72
372.04	58.51
372.24	86.60
372.44	67.88
372.63	149.79
372.83	79.58
373.03	56.17
373.22	53.83
373.42	145.11
373.62	81.92
373.81	100.64
374.01	110.01
374.21	149.79
374.40	30.43
374.60	154.48
374.79	39.79
374.99	126.39
375.19	95.96
375.38	91.28
375.58	84.26
375.78	152.13
375.97	138.09
376.17	30.43
376.37	161.50
376.56	117.03
376.76	107.66
376.95	56.17
377.15	124.05
377.35	51.49
377.54	112.35
377.74	60.85
377.93	163.84
378.13	170.86
378.33	107.66
378.52	72.56
378.72	74.90
378.91	147.45
379.11	42.13
379.31	112.35
379.50	86.60
379.70	121.71
379.89	114.69
380.09	79.58
380.28	79.58
380.48	70.22
380.68	114.69
380.87	67.88
381.07	93.62
381.26	79.58
381.46	72.56
381.65	117.03
381.85	65.54
382.04	67.88
382.24	119.37
382.43	117.03
382.63	46.81
382.83	84.26
383.02	107.66
383.22	93.62
383.41	102.98
383.61	28.09
383.80	107.66
384.00	154.48
384.19	117.03
384.39	70.22
384.58	44.47
384.78	117.03
384.97	100.64
385.17	88.94
385.36	81.92
385.56	100.64
385.75	168.52
385.95	110.01
386.14	119.37
386.34	72.56
386.53	128.73
386.72	84.26
386.92	100.64
387.11	117.03
387.31	105.32
387.50	112.35
387.70	98.30
387.89	84.26
388.09	86.60
388.28	53.83
388.48	39.79
388.67	173.20
388.86	112.35
389.06	121.71
389.25	126.39
389.45	163.84
389.64	126.39
389.84	205.97
390.03	79.58
390.22	121.71
390.42	32.77
390.61	44.47
390.81	114.69
391.00	149.79
391.19	84.26
391.39	42.13
391.58	117.03
391.78	51.49
391.97	105.32
392.16	112.35
392.36	135.75
392.55	79.58
392.75	60.85
392.94	126.39
393.13	131.07
393.33	32.77
393.52	65.54
393.71	110.01
393.91	93.62
394.10	74.90
394.29	44.47
394.49	70.22
394.68	154.48
394.88	88.94
395.07	203.63
395.26	70.22
395.46	88.94
395.65	77.24
395.84	117.03
396.04	145.11
396.23	67.88
396.42	49.15
396.62	145.11
396.81	114.69
397.00	112.35
397.19	131.07
397.39	58.51
397.58	67.88
397.77	91.28
397.97	84.26
398.16	142.77
398.35	86.60
398.55	91.28
398.74	135.75
398.93	170.86
399.12	58.51
399.32	95.96
399.51	112.35
399.70	128.73
399.90	51.49
400.09	107.66
400.28	161.50
400.47	93.62
400.67	156.82
400.86	51.49
401.05	145.11
401.24	51.49
401.44	58.51
401.63	107.66
401.82	98.30
402.01	145.11
402.21	32.77
402.40	88.94
402.59	51.49
402.78	112.35
402.97	60.85
403.17	112.35
403.36	110.01
403.55	140.43
403.74	117.03
403.93	128.73
404.13	131.07
404.32	117.03
404.51	112.35
404.70	70.22
404.89	93.62
405.09	161.50
405.28	67.88
405.47	67.88
405.66	65.54
405.85	177.88
406.05	93.62
406.24	63.19
406.43	93.62
406.62	107.66
406.81	149.79
407.00	119.37
407.20	100.64
407.39	91.28
407.58	60.85
407.77	135.75
407.96	138.09
408.15	154.48
408.34	121.71
408.54	23.41
408.73	220.01
408.92	128.73
409.11	84.26
409.30	58.51
409.49	32.77
409.68	88.94
409.87	100.64
410.07	114.69
410.26	145.11
410.45	102.98
410.64	142.77
410.83	117.03
411.02	58.51
411.21	60.85
411.40	121.71
411.59	133.41
411.78	93.62
411.98	140.43
412.17	84.26
412.36	114.69
412.55	107.66
412.74	138.09
412.93	140.43
413.12	170.86
413.31	133.41
413.50	138.09
413.69	133.41
413.88	102.98
414.07	23.41
414.26	177.88
414.45	37.45
414.64	177.88
414.83	133.41
415.02	138.09
415.22	142.77
415.41	102.98
415.60	88.94
415.79	126.39
415.98	170.86
416.17	138.09
416.36	138.09
416.55	124.05
416.74	74.90
416.93	161.50
417.12	110.01
417.31	93.62
417.50	110.01
417.69	142.77
417.88	159.16
418.07	79.58
418.26	112.35
418.45	131.07
418.64	100.64
418.83	138.09
419.02	133.41
419.21	93.62
419.39	135.75
419.58	173.20
419.77	177.88
419.96	182.56
420.15	159.16
420.34	107.66
420.53	105.32
420.72	86.60
420.91	166.18
421.10	168.52
421.29	117.03
421.48	177.88
421.67	135.75
421.86	114.69
422.05	140.43
422.24	133.41
422.43	156.82
422.61	135.75
422.80	133.41
422.99	140.43
423.18	175.54
423.37	105.32
423.56	114.69
423.75	105.32
423.94	117.03
424.13	112.35
424.32	135.75
424.50	175.54
424.69	91.28
424.88	112.35
425.07	138.09
425.26	133.41
425.45	110.01
425.64	30.43
425.83	166.18
426.01	177.88
426.20	156.82
426.39	128.73
426.58	84.26
426.77	173.20
426.96	131.07
427.15	105.32
427.33	161.50
427.52	117.03
427.71	117.03
427.90	121.71
428.09	117.03
428.28	102.98
428.46	72.56
428.65	117.03
428.84	86.60
429.03	119.37
429.22	84.26
429.40	189.58
429.59	65.54
429.78	210.65
429.97	110.01
430.16	110.01
430.34	98.30
430.53	147.45
430.72	107.66
430.91	182.56
431.10	86.60
431.28	142.77
431.47	133.41
431.66	93.62
431.85	91.28
432.03	131.07
432.22	201.29
432.41	194.26
432.60	227.03
432.79	86.60
432.97	133.41
433.16	95.96
433.35	98.30
433.54	177.88
433.72	128.73
433.91	128.73
434.10	135.75
434.28	128.73
434.47	105.32
434.66	205.97
434.85	149.79
435.03	175.54
435.22	166.18
435.41	262.14
435.59	152.13
435.78	210.65
435.97	154.48
436.16	156.82
436.34	140.43
436.53	126.39
436.72	170.86
436.90	135.75
437.09	173.20
437.28	145.11
437.46	124.05
437.65	170.86
437.84	91.28
438.02	128.73
438.21	215.33
438.40	119.37
438.58	86.60
438.77	133.41
438.96	180.22
439.14	98.30
439.33	217.67
439.52	138.09
439.70	95.96
439.89	145.11
440.08	102.98
440.26	161.50
440.45	149.79
440.63	100.64
440.82	135.75
441.01	147.45
441.19	220.01
441.38	44.47
441.57	170.86
441.75	229.37
441.94	182.56
442.12	149.79
442.31	102.98
442.50	114.69
442.68	128.73
442.87	131.07
443.05	74.90
443.24	110.01
443.43	147.45
443.61	170.86
443.80	159.16
443.98	159.16
444.17	126.39
444.35	184.90
444.54	159.16
444.73	156.82
444.91	124.05
445.10	173.20
445.28	145.11
445.47	124.05
445.65	147.45
445.84	191.92
446.02	112.35
446.21	145.11
446.39	145.11
446.58	166.18
446.77	88.94
446.95	173.20
447.14	229.37
447.32	133.41
447.51	133.41
447.69	142.77
447.88	110.01
448.06	191.92
448.25	168.52
448.43	149.79
448.62	44.47
448.80	133.41
448.99	149.79
449.17	147.45
449.36	119.37
449.54	140.43
449.73	35.11
449.91	107.66
450.10	203.63
450.28	201.29
450.46	215.33
450.65	170.86
450.83	203.63
451.02	187.24
451.20	152.13
451.39	161.50
451.57	170.86
451.76	140.43
451.94	154.48
452.13	187.24
452.31	142.77
452.49	135.75
452.68	128.73
452.86	88.94
453.05	250.44
453.23	163.84
453.42	133.41
453.60	131.07
453.78	198.95
453.97	95.96
454.15	149.79
454.34	117.03
454.52	205.97
454.70	198.95
454.89	198.95
455.07	168.52
455.26	156.82
455.44	194.26
455.62	203.63
455.81	177.88
455.99	217.67
456.17	154.48
456.36	180.22
456.54	166.18
456.73	149.79
456.91	191.92
457.09	147.45
457.28	138.09
457.46	117.03
457.64	191.92
457.83	191.92
458.01	142.77
458.19	203.63
458.38	142.77
458.56	135.75
458.74	128.73
458.93	220.01
459.11	205.97
459.29	175.54
459.48	187.24
459.66	154.48
459.84	191.92
460.03	234.05
460.21	187.24
460.39	170.86
460.57	241.08
460.76	159.16
460.94	154.48
461.12	191.92
461.31	198.95
461.49	198.95
461.67	135.75
461.85	217.67
462.04	119.37
462.22	615.56
462.40	208.31
462.59	168.52
462.77	88.94
462.95	152.13
463.13	131.07
463.32	229.37
463.50	135.75
463.68	149.79
463.86	126.39
464.05	215.33
464.23	236.39
464.41	238.73
464.59	107.66
464.78	187.24
464.96	105.32
465.14	180.22
465.32	147.45
465.50	198.95
465.69	152.13
465.87	142.77
466.05	173.20
466.23	159.16
466.41	135.75
466.60	201.29
466.78	142.77
466.96	212.99
467.14	194.26
467.32	84.26
467.51	156.82
467.69	231.71
467.87	133.41
468.05	175.54
468.23	217.67
468.41	175.54
468.60	184.90
468.78	196.60
468.96	173.20
469.14	166.18
469.32	177.88
469.50	119.37
469.69	191.92
469.87	166.18
470.05	98.30
470.23	196.60
470.41	147.45
470.59	149.79
470.77	182.56
470.95	110.01
471.14	205.97
471.32	184.90
471.50	248.10
471.68	201.29
471.86	117.03
472.04	124.05
472.22	187.24
472.40	147.45
472.58	205.97
472.77	138.09
472.95	203.63
473.13	187.24
473.31	222.35
473.49	170.86
473.67	220.01
473.85	189.58
474.03	189.58
474.21	177.88
474.39	187.24
474.57	271.50
474.75	173.20
474.93	180.22
475.12	95.96
475.30	152.13
475.48	152.13
475.66	198.95
475.84	166.18
476.02	145.11
476.20	140.43
476.38	173.20
476.56	252.78
476.74	252.78
476.92	189.58
477.10	184.90
477.28	177.88
477.46	224.69
477.64	229.37
477.82	222.35
478.00	168.52
478.18	220.01
478.36	187.24
478.54	131.07
478.72	110.01
478.90	182.56
479.08	180.22
479.26	133.41
479.44	170.86
479.62	124.05
479.80	215.33
479.98	161.50
480.16	210.65
480.34	208.31
480.52	182.56
480.70	114.69
480.88	245.76
481.06	173.20
481.24	128.73
481.41	208.31
481.59	259.80
481.77	163.84
481.95	212.99
482.13	154.48
482.31	159.16
482.49	142.77
482.67	131.07
482.85	126.39
483.03	189.58
483.21	264.48
483.39	217.67
483.57	222.35
483.74	241.08
483.92	201.29
484.10	168.52
484.28	234.05
484.46	245.76
484.64	198.95
484.82	290.23
485.00	196.60
485.18	159.16
485.35	189.58
485.53	154.48
485.71	191.92
485.89	140.43
486.07	142.77
486.25	215.33
486.43	189.58
486.61	224.69
486.78	255.12
486.96	224.69
487.14	220.01
487.32	229.37
487.50	224.69
487.68	229.37
487.85	170.86
488.03	236.39
488.21	259.80
488.39	154.48
488.57	215.33
488.75	205.97
488.92	456.40
489.10	238.73
489.28	180.22
489.46	170.86
489.64	234.05
489.81	189.58
489.99	273.84
490.17	220.01
490.35	278.52
490.53	159.16
490.70	135.75
490.88	241.08
491.06	163.84
491.24	313.63
491.41	175.54
491.59	180.22
491.77	196.60
491.95	161.50
492.13	180.22
492.30	264.48
492.48	196.60
492.66	198.95
492.84	191.92
493.01	236.39
493.19	182.56
493.37	208.31
493.54	266.82
493.72	205.97
493.90	182.56
494.08	248.10
494.25	245.76
494.43	212.99
494.61	257.46
494.79	229.37
494.96	238.73
495.14	252.78
495.32	236.39
495.49	205.97
495.67	231.71
495.85	252.78
496.02	278.52
496.20	294.91
496.38	297.25
496.55	241.08
496.73	250.44
496.91	229.37
497.09	264.48
497.26	234.05
497.44	154.48
497.62	224.69
497.79	243.42
497.97	271.50
498.14	182.56
498.32	280.86
498.50	255.12
498.67	287.89
498.85	245.76
499.03	245.76
499.20	236.39
499.38	231.71
499.56	220.01
499.73	236.39
499.91	292.57
500.08	327.68
500.26	222.35
500.44	252.78
500.61	245.76
500.79	285.55
500.97	229.37
501.14	330.02
501.32	241.08
501.49	269.16
501.67	227.03
501.84	285.55
502.02	152.13
502.20	205.97
502.37	212.99
502.55	180.22
502.72	203.63
502.90	308.95
503.07	166.18
503.25	262.14
503.43	245.76
503.60	210.65
503.78	243.42
503.95	292.57
504.13	201.29
504.30	250.44
504.48	311.29
504.65	292.57
504.83	208.31
505.01	220.01
505.18	287.89
505.36	229.37
505.53	299.59
505.71	266.82
505.88	339.38
506.06	285.55
506.23	287.89
506.41	273.84
506.58	297.25
506.76	292.57
506.93	283.20
507.11	346.40
507.28	264.48
507.46	227.03
507.63	259.80
507.81	255.12
507.98	245.76
508.16	154.48
508.33	346.40
508.50	301.93
508.68	304.27
508.85	339.38
509.03	262.14
509.20	224.69
509.38	243.42
509.55	276.18
509.73	348.74
509.90	290.23
510.08	210.65
510.25	292.57
510.42	283.20
510.60	299.59
510.77	325.33
510.95	299.59
511.12	266.82
511.30	266.82
511.47	271.50
511.64	365.12
511.82	248.10
511.99	257.46
512.17	243.42
512.34	234.05
512.51	287.89
512.69	294.91
512.86	259.80
513.04	299.59
513.21	250.44
513.38	292.57
513.56	276.18
513.73	220.01
513.90	297.25
514.08	276.18
514.25	273.84
514.43	299.59
514.60	229.37
514.77	241.08
514.95	327.68
515.12	311.29
515.29	292.57
515.47	248.10
515.64	255.12
515.81	299.59
515.99	360.44
516.16	320.65
516.33	278.52
516.51	217.67
516.68	269.16
516.85	297.25
517.03	269.16
517.20	236.39
517.37	273.84
517.54	280.86
517.72	308.95
517.89	212.99
518.06	229.37
518.24	201.29
518.41	315.97
518.58	241.08
518.75	318.31
518.93	315.97
519.10	262.14
519.27	238.73
519.45	327.68
519.62	325.33
519.79	257.46
519.96	322.99
520.14	280.86
520.31	243.42
520.48	313.63
520.65	313.63
520.83	313.63
521.00	337.04
521.17	283.20
521.34	322.99
521.52	294.91
521.69	266.82
521.86	308.95
522.03	222.35
522.20	320.65
522.38	348.74
522.55	294.91
522.72	262.14
522.89	229.37
523.07	306.61
523.24	292.57
523.41	283.20
523.58	280.86
523.75	287.89
523.92	255.12
524.10	308.95
524.27	355.76
524.44	266.82
524.61	311.29
524.78	315.97
524.96	306.61
525.13	248.10
525.30	283.20
525.47	325.33
525.64	241.08
525.81	327.68
525.98	351.08
526.16	308.95
526.33	170.86
526.50	276.18
526.67	301.93
526.84	285.55
527.01	301.93
527.18	351.08
527.36	292.57
527.53	332.36
527.70	400.23
527.87	341.72
528.04	374.49
528.21	255.12
528.38	325.33
528.55	369.80
528.72	330.02
528.89	276.18
529.07	315.97
529.24	355.76
529.41	383.85
529.58	255.12
529.75	248.10
529.92	287.89
530.09	278.52
530.26	339.38
530.43	346.40
530.60	322.99
530.77	264.48
530.94	273.84
531.11	318.31
531.28	290.23
531.46	341.72
531.63	313.63
531.80	290.23
531.97	271.50
532.14	358.10
532.31	353.42
532.48	341.72
532.65	320.65
532.82	273.84
532.99	283.20
533.16	292.57
533.33	320.65
533.50	318.31
533.67	220.01
533.84	245.76
534.01	271.50
534.18	348.74
534.35	327.68
534.52	264.48
534.69	440.02
534.86	287.89
535.03	262.14
535.20	238.73
535.37	334.70
535.54	376.83
535.71	327.68
535.88	290.23
536.05	301.93
536.22	318.31
536.38	266.82
536.55	290.23
536.72	301.93
536.89	264.48
537.06	278.52
537.23	318.31
537.40	290.23
537.57	238.73
537.74	334.70
537.91	285.55
538.08	224.69
538.25	262.14
538.42	245.76
538.59	346.40
538.75	318.31
538.92	353.42
539.09	353.42
539.26	285.55
539.43	315.97
539.60	273.84
539.77	299.59
539.94	231.71
540.11	238.73
540.28	381.51
540.44	325.33
540.61	337.04
540.78	304.27
540.95	264.48
541.12	283.20
541.29	320.65
541.46	409.59
541.62	351.08
541.79	236.39
541.96	278.52
542.13	264.48
542.30	290.23
542.47	238.73
542.63	311.29
542.80	262.14
542.97	337.04
543.14	332.36
543.31	327.68
543.48	271.50
543.64	315.97
543.81	292.57
543.98	322.99
544.15	196.60
544.32	367.46
544.48	306.61
544.65	222.35
544.82	276.18
544.99	346.40
545.16	365.12
545.32	308.95
545.49	301.93
545.66	367.46
545.83	227.03
546.00	306.61
546.16	353.42
546.33	322.99
546.50	351.08
546.67	327.68
546.83	264.48
547.00	365.12
547.17	315.97
547.34	278.52
547.50	276.18
547.67	322.99
547.84	341.72
548.00	308.95
548.17	348.74
548.34	327.68
548.51	390.87
548.67	383.85
548.84	294.91
549.01	308.95
549.18	337.04
549.34	311.29
549.51	322.99
549.68	234.05
549.84	231.71
550.01	280.86
550.18	397.89
550.34	379.17
550.51	257.46
550.68	334.70
550.84	252.78
551.01	348.74
551.18	264.48
551.34	332.36
551.51	337.04
551.68	311.29
551.84	301.93
552.01	252.78
552.18	315.97
552.34	290.23
552.51	341.72
552.68	365.12
552.84	320.65
553.01	227.03
553.18	339.38
553.34	294.91
553.51	283.20
553.67	320.65
553.84	320.65
554.01	355.76
554.17	332.36
554.34	376.83
554.51	280.86
554.67	360.44
554.84	308.95
555.00	255.12
555.17	294.91
555.33	278.52
555.50	339.38
555.67	346.40
555.83	306.61
556.00	273.84
556.16	428.32
556.33	257.46
556.50	264.48
556.66	266.82
556.83	346.40
556.99	236.39
557.16	325.33
557.32	318.31
557.49	322.99
557.65	241.08
557.82	271.50
557.98	278.52
558.15	273.84
558.32	294.91
558.48	243.42
558.65	252.78
558.81	393.21
558.98	264.48
559.14	301.93
559.31	255.12
559.47	290.23
559.64	252.78
559.80	285.55
559.97	337.04
560.13	290.23
560.30	311.29
560.46	306.61
560.63	220.01
560.79	280.86
560.96	327.68
561.12	397.89
561.29	355.76
561.45	236.39
561.61	278.52
561.78	416.62
561.94	306.61
562.11	276.18
562.27	269.16
562.44	252.78
562.60	266.82
562.77	259.80
562.93	315.97
563.10	315.97
563.26	315.97
563.42	283.20
563.59	383.85
563.75	252.78
563.92	393.21
564.08	330.02
564.24	264.48
564.41	423.64
564.57	297.25
564.74	337.04
564.90	346.40
565.07	320.65
565.23	285.55
565.39	337.04
565.56	278.52
565.72	278.52
565.88	290.23
566.05	259.80
566.21	264.48
566.38	320.65
566.54	341.72
566.70	271.50
566.87	238.73
567.03	325.33
567.19	280.86
567.36	271.50
567.52	297.25
567.68	374.49
567.85	273.84
568.01	245.76
568.17	290.23
568.34	234.05
568.50	259.80
568.66	250.44
568.83	353.42
568.99	327.68
569.15	315.97
569.32	301.93
569.48	339.38
569.64	243.42
569.81	304.27
569.97	273.84
570.13	252.78
570.30	212.99
570.46	304.27
570.62	315.97
570.78	374.49
570.95	273.84
571.11	327.68
571.27	255.12
571.43	318.31
571.60	248.10
571.76	351.08
571.92	334.70
572.09	245.76
572.25	320.65
572.41	304.27
572.57	278.52
572.74	294.91
572.90	322.99
573.06	330.02
573.22	229.37
573.38	299.59
573.55	283.20
573.71	320.65
573.87	276.18
574.03	330.02
574.20	346.40
574.36	294.91
574.52	259.80
574.68	255.12
574.84	301.93
575.01	285.55
575.17	217.67
575.33	278.52
575.49	229.37
575.65	348.74
575.82	278.52
575.98	304.27
576.14	299.59
576.30	285.55
576.46	313.63
576.62	304.27
576.79	245.76
576.95	297.25
577.11	271.50
577.27	210.65
577.43	346.40
577.59	327.68
577.75	318.31
577.92	332.36
578.08	191.92
578.24	250.44
578.40	262.14
578.56	327.68
578.72	344.06
578.88	348.74
579.04	322.99
579.21	304.27
579.37	227.03
579.53	276.18
579.69	325.33
579.85	198.95
580.01	201.29
580.17	327.68
580.33	252.78
580.49	271.50
580.65	283.20
580.82	369.80
580.98	222.35
581.14	255.12
581.30	243.42
581.46	322.99
581.62	290.23
581.78	271.50
581.94	315.97
582.10	290.23
582.26	280.86
582.42	236.39
582.58	287.89
582.74	287.89
582.90	318.31
583.06	360.44
583.22	308.95
583.38	248.10
583.54	229.37
583.70	330.02
583.86	313.63
584.02	308.95
584.18	379.17
584.34	330.02
584.50	236.39
584.66	283.20
584.82	332.36
584.98	294.91
585.14	212.99
585.30	344.06
585.46	294.91
585.62	301.93
585.78	299.59
585.94	280.86
586.10	304.27
586.26	224.69
586.42	402.57
586.58	332.36
586.74	299.59
586.90	208.31
587.06	283.20
587.22	278.52
587.38	259.80
587.54	276.18
587.70	330.02
587.86	332.36
588.02	301.93
588.18	322.99
588.34	241.08
588.49	252.78
588.65	320.65
588.81	273.84
588.97	217.67
589.13	245.76
589.29	290.23
589.45	215.33
589.61	222.35
589.77	257.46
589.93	327.68
590.08	238.73
590.24	299.59
590.40	276.18
590.56	241.08
590.72	283.20
590.88	252.78
591.04	313.63
591.20	262.14
591.35	292.57
591.51	194.26
591.67	208.31
591.83	196.60
591.99	245.76
592.15	297.25
592.31	212.99
592.46	259.80
592.62	287.89
592.78	264.48
592.94	299.59
593.10	266.82
593.26	250.44
593.41	351.08
593.57	241.08
593.73	264.48
593.89	236.39
594.05	191.92
594.20	177.88
594.36	327.68
594.52	273.84
594.68	250.44
594.84	269.16
594.99	276.18
595.15	337.04
595.31	346.40
595.47	262.14
595.62	301.93
595.78	353.42
595.94	220.01
596.10	294.91
596.25	222.35
596.41	264.48
596.57	257.46
596.73	248.10
596.88	184.90
597.04	271.50
597.20	285.55
597.36	308.95
597.51	222.35
597.67	250.44
597.83	339.38
597.99	163.84
598.14	212.99
598.30	283.20
598.46	170.86
598.61	325.33
598.77	313.63
598.93	318.31
599.09	238.73
599.24	318.31
599.40	308.95
599.56	229.37
599.71	276.18
599.87	374.49
600.03	334.70
600.18	262.14
600.34	308.95
600.50	250.44
600.65	217.67
600.81	273.84
600.97	273.84
601.12	210.65
601.28	301.93
601.44	294.91
601.59	243.42
601.75	315.97
601.91	327.68
602.06	262.14
602.22	308.95
602.37	306.61
602.53	311.29
602.69	269.16
602.84	252.78
603.00	243.42
603.16	266.82
603.31	315.97
603.47	339.38
603.62	278.52
603.78	269.16
603.94	339.38
604.09	299.59
604.25	252.78
604.40	344.06
604.56	306.61
604.71	278.52
604.87	264.48
605.03	276.18
605.18	306.61
605.34	374.49
605.49	262.14
605.65	262.14
605.80	250.44
605.96	266.82
606.12	191.92
606.27	243.42
606.43	198.95
606.58	292.57
606.74	245.76
606.89	222.35
607.05	294.91
607.20	306.61
607.36	278.52
607.51	266.82
607.67	245.76
607.82	287.89
607.98	299.59
608.13	292.57
608.29	205.97
608.44	327.68
608.60	283.20
608.75	341.72
608.91	224.69
609.06	243.42
609.22	212.99
609.37	241.08
609.53	276.18
609.68	257.46
609.84	238.73
609.99	292.57
610.15	257.46
610.30	238.73
610.46	325.33
610.61	191.92
610.76	297.25
610.92	210.65
611.07	294.91
611.23	339.38
611.38	243.42
611.54	299.59
611.69	215.33
611.84	243.42
612.00	212.99
612.15	337.04
612.31	299.59
