SpectraSuite Data File
++++++++++++++++++++++++++++++++++++
Date: Fri Oct 04 11:48:34 GMT-05:00 2013
User: price-jones
Dark Spectrum Present: No
Reference Spectrum Present: No
Number of Sampled Component Spectra: 1
Spectrometers: USB2+H05261
Integration Time (usec): 100000 (USB2+H05261)
Spectra Averaged: 1 (USB2+H05261)
Boxcar Smoothing: 0 (USB2+H05261)
Correct for Electrical Dark: No (USB2+H05261)
Strobe/Lamp Enabled: No (USB2+H05261)
Correct for Detector Non-linearity: No (USB2+H05261)
Correct for Stray Light: No (USB2+H05261)
Number of Pixels in Processed Spectrum: 2048
>>>>>Begin Processed Spectral Data<<<<<
365.73	42.13
365.92	42.13
366.12	42.13
366.32	0.00
366.52	0.00
366.72	0.00
366.91	0.00
367.11	0.00
367.31	0.00
367.51	0.00
367.70	0.00
367.90	0.00
368.10	0.00
368.30	0.00
368.49	0.00
368.69	4.68
368.89	0.00
369.09	0.00
369.28	0.00
369.48	0.00
369.68	25.75
369.87	0.00
370.07	0.00
370.27	44.47
370.47	161.50
370.66	355.76
370.86	456.40
371.06	463.43
371.25	444.70
371.45	458.74
371.65	540.66
371.84	512.58
372.04	526.62
372.24	447.04
372.44	447.04
372.63	484.49
372.83	559.39
373.03	627.26
373.22	463.43
373.42	589.82
373.62	512.58
373.81	655.35
374.01	622.58
374.21	564.07
374.40	528.96
374.60	664.71
374.79	606.20
374.99	578.11
375.19	582.79
375.38	704.50
375.58	594.50
375.78	685.78
375.97	683.44
376.17	760.67
376.37	620.24
376.56	606.20
376.76	683.44
376.95	603.86
377.15	711.52
377.35	622.58
377.54	751.31
377.74	695.14
377.93	739.61
378.13	702.16
378.33	716.20
378.52	781.74
378.72	727.91
378.91	681.10
379.11	741.95
379.31	737.27
379.50	739.61
379.70	748.97
379.89	847.27
380.09	739.61
380.28	765.36
380.48	753.65
380.68	725.57
380.87	856.64
381.07	833.23
381.26	812.17
381.46	763.01
381.65	840.25
381.85	868.34
382.04	837.91
382.24	854.30
382.43	896.43
382.63	844.93
382.83	774.72
383.02	898.77
383.22	957.28
383.41	889.40
383.61	896.43
383.80	936.21
384.00	905.79
384.19	891.74
384.39	910.47
384.58	929.19
384.78	945.58
384.97	968.98
385.17	861.32
385.36	861.32
385.56	964.30
385.75	959.62
385.95	971.32
386.14	966.64
386.34	985.37
386.53	1090.69
386.72	973.66
386.92	1034.52
387.11	1086.01
387.31	1109.41
387.50	1011.11
387.70	1074.31
387.89	1053.24
388.09	1086.01
388.28	1057.92
388.48	1107.07
388.67	1095.37
388.86	1128.14
389.06	1090.69
389.25	1205.38
389.45	1196.01
389.64	1205.38
389.84	1153.88
390.03	1177.29
390.22	1149.20
390.42	1116.44
390.61	1177.29
390.81	1158.57
391.00	1203.04
391.19	1172.61
391.39	1156.22
391.58	1266.23
391.78	1240.48
391.97	1235.80
392.16	1259.21
392.36	1301.34
392.55	1198.35
392.75	1291.98
392.94	1327.08
393.13	1380.92
393.33	1364.53
393.52	1348.15
393.71	1362.19
393.91	1380.92
394.10	1291.98
394.29	1416.02
394.49	1364.53
394.68	1448.79
394.88	1399.64
395.07	1469.86
395.26	1444.11
395.46	1394.96
395.65	1523.69
395.84	1547.09
396.04	1568.16
396.23	1664.12
396.42	1542.41
396.62	1530.71
396.81	1523.69
397.00	1528.37
397.19	1516.67
397.39	1710.93
397.58	1591.56
397.77	1558.80
397.97	1605.61
398.16	1610.29
398.35	1687.53
398.55	1701.57
398.74	1802.21
398.93	1717.95
399.12	1715.61
399.32	1668.80
399.51	1703.91
399.70	1837.32
399.90	1764.76
400.09	1842.00
400.28	1947.33
400.47	1837.32
400.67	1891.15
400.86	1975.41
401.05	1802.21
401.24	2008.18
401.44	2036.27
401.63	2038.61
401.82	1973.07
402.01	1959.03
402.21	2080.74
402.40	2017.54
402.59	1977.75
402.78	2033.93
402.97	2062.01
403.17	2146.27
403.36	2190.74
403.55	2200.10
403.74	2125.21
403.93	2214.15
404.13	2172.02
404.32	2188.40
404.51	2211.81
404.70	2270.32
404.89	2207.13
405.09	2298.41
405.28	2317.13
405.47	2169.68
405.66	2380.32
405.85	2368.62
406.05	2359.26
406.24	2401.39
406.43	2396.71
406.62	2377.98
406.81	2516.08
407.00	2410.75
407.20	2424.80
407.39	2502.03
407.58	2553.52
407.77	2581.61
407.96	2530.12
408.15	2621.40
408.34	2623.74
408.54	2668.21
408.73	2710.34
408.92	2635.44
409.11	2726.72
409.30	2820.35
409.49	2796.94
409.68	2822.69
409.87	2906.95
410.07	2808.64
410.26	2810.98
410.45	2888.22
410.64	2820.35
410.83	2951.42
411.02	2871.84
411.21	3054.40
411.40	2953.76
411.59	3028.65
411.78	2972.48
411.98	3049.72
412.17	3080.14
412.36	3222.92
412.55	3258.03
412.74	3283.77
412.93	3239.30
413.12	3258.03
413.31	3407.82
413.50	3377.39
413.69	3325.90
413.88	3595.06
414.07	3510.80
414.26	3534.21
414.45	3595.06
414.64	3555.27
414.83	3782.31
415.02	3735.50
415.22	3782.31
415.41	3777.62
415.60	3754.22
415.79	3782.31
415.98	3812.73
416.17	3894.65
416.36	3873.59
416.55	3777.62
416.74	4056.15
416.93	3955.51
417.12	4117.00
417.31	4074.87
417.50	4133.39
417.69	4145.09
417.88	4191.90
418.07	4189.56
418.26	4208.28
418.45	4264.46
418.64	4442.34
418.83	4451.70
419.02	4278.50
419.21	4325.31
419.39	4320.63
419.58	4304.25
419.77	4229.35
419.96	4479.79
420.15	4645.96
420.34	4442.34
420.53	4531.28
420.72	4627.24
420.91	4638.94
421.10	4636.60
421.29	4734.90
421.48	4468.08
421.67	4779.37
421.86	4685.75
422.05	4748.95
422.24	4648.30
422.43	4730.22
422.61	4753.63
422.80	4945.55
422.99	4849.59
423.18	4833.21
423.37	4973.64
423.56	4865.97
423.75	4765.33
423.94	4755.97
424.13	4531.28
424.32	4674.05
424.50	4931.51
424.69	4910.44
424.88	4985.34
425.07	4762.99
425.26	4786.40
425.45	4992.36
425.64	4954.91
425.83	4875.34
426.01	4870.65
426.20	4940.87
426.39	4978.32
426.58	4896.40
426.77	4751.29
426.96	5011.09
427.15	5022.79
427.33	5160.88
427.52	5041.51
427.71	5160.88
427.90	5137.48
428.09	5235.78
428.28	5198.33
428.46	5308.34
428.65	5261.52
428.84	5476.85
429.03	5483.88
429.22	5313.02
429.40	5521.32
429.59	5380.89
429.78	5177.26
429.97	5085.98
430.16	5397.28
430.34	5472.17
430.53	5636.01
430.72	5598.56
430.91	5444.09
431.10	5483.88
431.28	5603.24
431.47	5645.37
431.66	5832.62
431.85	5748.36
432.03	5846.66
432.22	5942.62
432.41	5764.74
432.60	6026.88
432.79	5839.64
432.97	5797.51
433.16	5905.17
433.35	5956.66
433.54	6040.92
433.72	5937.94
433.91	5970.71
434.10	6202.42
434.28	6001.13
434.47	6136.88
434.66	6228.17
434.85	6153.27
435.03	6307.74
435.22	6424.77
435.41	6403.71
435.59	6366.26
435.78	6389.66
435.97	6415.41
436.16	6420.09
436.34	6480.94
436.53	6492.65
436.72	6621.38
436.90	6532.44
437.09	6567.54
437.28	6300.72
437.46	6532.44
437.65	6499.67
437.84	6581.59
438.02	6619.04
438.21	6899.90
438.40	6684.57
438.58	6935.01
438.77	7045.01
438.96	6815.64
439.14	6988.84
439.33	7091.82
439.52	7148.00
439.70	7183.10
439.89	7136.29
440.08	7176.08
440.26	7293.11
440.45	7232.26
440.63	7300.13
440.82	7529.50
441.01	7360.98
441.19	7733.13
441.38	7723.77
441.57	7637.17
441.75	7756.54
441.94	7742.49
442.12	7899.31
442.31	7730.79
442.50	7920.37
442.68	7999.95
442.87	7847.82
443.05	8013.99
443.24	8180.17
443.43	8131.02
443.61	8142.72
443.80	8538.27
443.98	8215.28
444.17	7836.11
444.35	8126.34
444.54	8332.31
444.73	8245.71
444.91	8243.37
445.10	8278.47
445.28	8145.06
445.47	8348.69
445.65	8231.66
445.84	8341.67
446.02	8318.26
446.21	8140.38
446.39	8191.88
446.58	8294.86
446.77	8379.12
446.95	8442.31
447.14	8409.54
447.32	8442.31
447.51	8381.46
447.69	8610.83
447.88	8683.39
448.06	8327.63
448.25	8613.17
448.43	8599.13
448.62	8592.11
448.80	8578.06
448.99	8727.86
449.17	8777.01
449.36	8641.26
449.54	8837.86
449.73	8884.67
449.91	8964.25
450.10	8938.51
450.28	9095.32
450.46	8830.84
450.65	9125.75
450.83	9092.98
451.02	8959.57
451.20	9135.11
451.39	9013.40
451.57	9015.74
451.76	9039.15
451.94	9060.21
452.13	9420.66
452.31	9156.18
452.49	9195.96
452.68	9350.44
452.86	9338.74
453.05	9528.32
453.23	9460.45
453.42	9291.93
453.60	9334.06
453.78	9413.63
453.97	9341.08
454.15	9572.79
454.34	9490.87
454.52	9680.46
454.70	9661.73
454.89	9591.52
455.07	9666.41
455.26	9753.01
455.44	9909.83
455.62	9823.23
455.81	9804.50
455.99	9940.26
456.17	9998.77
456.36	10101.75
456.54	10380.28
456.73	9994.09
456.91	10534.75
457.09	10551.14
457.28	10635.39
457.46	10459.85
457.64	10574.54
457.83	10366.23
458.01	10436.45
458.19	10527.73
458.38	10429.43
458.56	10654.12
458.74	10839.02
458.93	10726.68
459.11	10757.10
459.29	10803.91
459.48	10808.59
459.66	10867.11
459.84	10848.38
460.03	11084.78
460.21	11033.29
460.39	11014.56
460.57	10836.68
460.76	11108.18
460.94	10977.11
461.12	11080.10
461.31	11126.91
461.49	11080.10
461.67	11033.29
461.85	11468.62
462.04	10927.96
462.22	11810.34
462.40	11386.71
462.59	11604.38
462.77	11618.42
462.95	11485.01
463.13	11477.99
463.32	11506.07
463.50	11857.15
463.68	11611.40
463.86	11625.44
464.05	11740.13
464.23	11667.57
464.41	11990.56
464.59	11573.95
464.78	11981.20
464.96	11819.71
465.14	11836.09
465.32	12037.38
465.50	12297.17
465.69	12175.47
465.87	11934.39
466.05	12229.30
466.23	12245.68
466.41	12259.73
466.60	12622.51
466.78	12414.20
466.96	12105.25
467.14	12119.29
467.32	12266.75
467.51	12636.55
467.69	11971.84
467.87	12351.01
468.05	12369.73
468.23	12437.61
468.41	12580.38
468.60	12519.53
468.78	12828.48
468.96	12697.41
469.14	12725.49
469.32	12961.89
469.50	12451.65
469.69	13034.44
469.87	13233.39
470.05	13200.62
470.23	13132.75
470.41	13254.45
470.59	13095.30
470.77	13242.75
470.95	13418.29
471.14	13462.76
471.32	13109.34
471.50	13811.50
471.68	13535.32
471.86	13558.72
472.04	13657.03
472.22	13963.64
472.40	13788.10
472.58	13881.72
472.77	13841.93
472.95	14164.92
473.13	14476.21
473.31	13980.02
473.49	14012.79
473.67	14377.91
473.85	14256.20
474.03	14630.69
474.21	14331.10
474.39	14785.16
474.57	14803.89
474.75	14932.62
474.93	15098.80
475.12	14867.08
475.30	15059.01
475.48	15154.97
475.66	15190.08
475.84	15169.01
476.02	15426.47
476.20	15414.77
476.38	15541.16
476.56	15772.87
476.74	16208.21
476.92	15985.86
477.10	15707.34
477.28	16233.96
477.46	16128.63
477.64	16159.06
477.82	16791.00
478.00	17001.65
478.18	16994.63
478.36	17221.66
478.54	17069.53
478.72	17165.49
478.90	17525.93
479.08	17326.99
479.26	17696.79
479.44	17752.96
479.62	18122.77
479.80	18129.79
479.98	18101.70
480.16	18256.18
480.34	18249.16
480.52	18668.11
480.70	18581.51
480.88	18448.10
481.06	18579.17
481.24	18614.28
481.41	19164.31
481.59	19290.70
481.77	19672.20
481.95	19564.54
482.13	19793.91
482.31	19695.61
482.49	20166.06
482.67	19964.77
482.85	20615.44
483.03	20793.32
483.21	20837.79
483.39	20992.26
483.57	21177.17
483.74	20989.92
483.92	21497.82
484.10	21324.62
484.28	22024.44
484.46	22190.62
484.64	22499.57
484.82	22078.27
485.00	22520.63
485.18	23070.66
485.35	23033.21
485.53	23145.56
485.71	23021.51
485.89	23508.34
486.07	23227.48
486.25	23325.78
486.43	23828.99
486.61	24039.64
486.78	24184.76
486.96	24341.57
487.14	24896.28
487.32	25074.16
487.50	24807.34
487.68	24512.43
487.85	25429.92
488.03	25860.58
488.21	25905.05
488.39	26045.48
488.57	26263.15
488.75	26387.20
488.92	26464.44
489.10	27072.98
489.28	27007.44
489.46	27417.04
489.64	26806.16
489.81	27896.85
489.99	27571.51
490.17	27845.35
490.35	28114.52
490.53	28474.96
490.70	28531.13
490.88	28718.37
491.06	28844.76
491.24	28603.69
491.41	29677.99
491.59	29532.88
491.77	29481.39
491.95	29769.27
492.13	30199.93
492.30	30251.42
492.48	30288.87
492.66	30176.53
492.84	30597.82
493.01	30539.31
493.19	30951.24
493.37	31290.62
493.54	31515.31
493.72	31524.68
493.90	31716.60
494.08	31669.79
494.25	32292.37
494.43	32322.80
494.61	32606.00
494.79	32954.74
494.96	32837.72
495.14	32985.17
495.32	33343.27
495.49	33706.05
495.67	33886.28
495.85	33574.98
496.02	34204.59
496.20	34157.78
496.38	34160.12
496.55	34644.61
496.73	34859.94
496.91	34424.60
497.09	35077.61
497.26	35042.50
497.44	35173.57
497.62	35227.40
497.79	35768.07
497.97	35901.48
498.14	36437.46
498.32	36313.41
498.50	36259.58
498.67	36858.76
498.85	36809.61
499.03	36666.83
499.20	36931.31
499.38	37060.04
499.56	37469.64
499.73	37368.99
499.91	37500.06
500.08	37965.83
500.26	37432.19
500.44	37881.57
500.61	38216.27
500.79	38258.40
500.97	38249.03
501.14	38557.99
501.32	38733.53
501.49	38724.16
501.67	38817.78
501.84	39110.35
502.02	38979.28
502.20	39180.57
502.37	39751.66
502.55	39763.36
502.72	39503.56
502.90	40027.84
503.07	39974.01
503.25	39894.43
503.43	39906.13
503.60	40582.55
503.78	40517.01
503.95	40573.19
504.13	40781.49
504.30	40271.26
504.48	40596.59
504.65	41235.56
504.83	41441.53
505.01	41668.56
505.18	41464.93
505.36	42197.52
505.53	41509.40
505.71	41235.56
505.88	41890.91
506.06	41464.93
506.23	42541.58
506.41	42157.73
506.58	42579.03
506.76	42780.31
506.93	42286.46
507.11	42312.20
507.28	42857.55
507.46	43028.41
507.63	43002.66
507.81	43440.34
507.98	43274.16
508.16	43335.02
508.33	43686.10
508.50	43753.97
508.68	43997.39
508.85	44540.39
509.03	44046.54
509.20	44325.07
509.38	44563.80
509.55	44580.18
509.73	44531.03
509.90	44725.30
510.08	44760.40
510.25	45038.93
510.42	45092.76
510.60	45539.80
510.77	45048.29
510.95	45497.67
511.12	45584.27
511.30	45467.25
511.47	45399.37
511.64	46026.63
511.82	46555.60
511.99	45914.29
512.17	46780.29
512.34	45944.72
512.51	46714.75
512.69	46309.84
512.86	46754.54
513.04	46824.76
513.21	47117.32
513.38	47349.04
513.56	47463.72
513.73	46986.25
513.90	46958.17
514.08	47180.52
514.25	47400.53
514.43	47728.20
514.60	47627.56
514.77	47409.89
514.95	47753.95
515.12	47777.36
515.29	47650.97
515.47	48222.06
515.64	48395.26
515.81	48350.79
515.99	48776.76
516.16	48828.26
516.33	48954.64
516.51	48989.75
516.68	48633.99
516.85	48334.40
517.03	49120.82
517.20	49265.94
517.37	49034.22
517.54	49439.14
517.72	49195.72
517.89	49022.52
518.06	49247.21
518.24	49663.83
518.41	49373.60
518.58	49668.51
518.75	49542.12
518.93	50103.85
519.10	49680.21
519.27	50211.51
519.45	49848.73
519.62	50000.86
519.79	50162.36
519.96	49991.50
520.14	50326.20
520.31	50438.54
520.48	50628.13
520.65	50576.64
520.83	50663.24
521.00	50775.58
521.17	50974.53
521.34	50674.94
521.52	51065.81
521.69	51274.12
521.86	51136.02
522.03	51112.62
522.20	51260.07
522.38	51447.32
522.55	51524.55
522.72	51529.23
522.89	51786.69
523.07	51870.95
523.24	51807.76
523.41	51913.08
523.58	51388.80
523.75	51950.53
523.92	51629.88
524.10	51805.42
524.27	52013.73
524.44	52236.08
524.61	52413.96
524.78	52905.47
524.96	52140.11
525.13	52250.12
525.30	52554.39
525.47	52392.89
525.64	52423.32
525.81	52706.52
525.98	52760.36
526.16	52718.23
526.33	52954.62
526.50	53176.97
526.67	52765.04
526.84	53029.52
527.01	52765.04
527.18	53216.76
527.36	53158.25
527.53	53137.18
527.70	53499.97
527.87	53518.69
528.04	53429.75
528.21	53476.56
528.38	53347.83
528.55	53497.62
528.72	53488.26
528.89	53907.22
529.07	53621.67
529.24	53432.09
529.41	53748.06
529.58	53804.24
529.75	53844.02
529.92	53893.18
530.09	53844.02
530.26	54026.59
530.43	54438.52
530.60	53799.55
530.77	54183.40
530.94	54202.13
531.11	54176.38
531.28	54005.52
531.46	54192.76
531.63	54539.16
531.80	54494.69
531.97	54501.71
532.14	54504.06
532.31	54691.30
532.48	54637.47
532.65	54618.74
532.82	54218.51
532.99	54791.94
533.16	54471.29
533.33	54768.54
533.50	55157.06
533.67	54763.85
533.84	54904.29
534.01	54677.25
534.18	54857.48
534.35	55194.51
534.52	54983.86
534.69	55131.32
534.86	55278.77
535.03	55203.88
535.20	55227.28
535.37	55208.56
535.54	55494.10
535.71	55231.96
535.88	55444.95
536.05	55524.53
536.22	55611.13
536.38	55711.77
536.55	55585.38
536.72	55615.81
536.89	55524.53
537.06	55765.60
537.23	55763.26
537.40	55578.36
537.57	55681.34
537.74	55767.94
537.91	56027.74
538.08	55805.39
538.25	56013.70
538.42	56018.38
538.59	56081.58
538.75	55793.69
538.92	55896.67
539.09	56252.44
539.26	56306.27
539.43	56427.98
539.60	56528.62
539.77	56123.71
539.94	56444.36
540.11	56364.78
540.28	56409.25
540.44	56458.40
540.61	56357.76
540.78	56212.65
540.95	56451.38
541.12	56465.42
541.29	56369.46
541.46	56418.61
541.62	56367.12
541.79	56540.32
541.96	56460.74
542.13	56690.12
542.30	56905.44
542.47	56760.33
542.63	56783.74
542.80	56767.35
542.97	56825.87
543.14	56985.02
543.31	57249.50
543.48	57008.43
543.64	57403.98
543.81	57441.43
543.98	57396.96
544.15	57284.61
544.32	57382.91
544.48	57600.58
544.65	57195.67
544.82	57422.70
544.99	57282.27
545.16	57565.48
545.32	57558.45
545.49	57825.28
545.66	57888.47
545.83	57719.95
546.00	57794.85
546.16	57600.58
546.33	57502.28
546.50	57258.87
546.67	57633.35
546.83	57261.21
547.00	57509.30
547.17	57539.73
547.34	57701.23
547.50	57902.51
547.67	58064.01
547.84	58021.88
548.00	58040.60
548.17	58110.82
548.34	57827.62
548.51	58073.37
548.67	58005.50
548.84	58026.56
549.01	58075.71
549.18	58007.84
549.34	58080.39
549.51	58080.39
549.68	58319.13
549.84	58080.39
550.01	58295.72
550.18	58305.09
550.34	58314.45
550.51	58482.97
550.68	58405.73
550.84	58323.81
551.01	58239.55
551.18	58330.83
551.34	58286.36
551.51	58288.70
551.68	58522.76
551.84	58513.39
552.01	58375.30
552.18	58511.05
552.34	58522.76
552.51	58698.30
552.68	58623.40
552.84	58735.74
553.01	58710.00
553.18	58492.33
553.34	58700.64
553.51	58632.76
553.67	58906.60
553.84	58906.60
554.01	59000.22
554.17	58628.08
554.34	58784.90
554.51	58754.47
554.67	59004.91
554.84	58915.96
555.00	58829.37
555.17	58915.96
555.33	59093.85
555.50	58805.96
555.67	58866.81
555.83	58878.52
556.00	59084.48
556.16	59269.39
556.33	59051.72
556.50	59175.76
556.66	59150.02
556.83	59201.51
556.99	59320.88
557.16	59421.52
557.32	59377.05
557.49	59395.77
557.65	59227.26
557.82	59267.05
557.98	59309.18
558.15	59131.29
558.32	59363.01
558.48	59344.28
558.65	59554.93
558.81	59253.00
558.98	59384.07
559.14	59278.75
559.31	59124.27
559.47	59524.50
559.64	59735.15
559.80	59749.20
559.97	59606.42
560.13	59416.84
560.30	59597.06
560.46	59812.39
560.63	59629.83
560.79	59831.11
560.96	59737.49
561.12	59475.35
561.29	59515.14
561.45	59568.97
561.61	59803.03
561.78	59868.56
561.94	59662.60
562.11	59746.86
562.27	59704.73
562.44	59625.15
562.60	59669.62
562.77	59615.79
562.93	59842.82
563.10	60088.57
563.26	59807.71
563.42	59917.71
563.59	59894.31
563.75	59901.33
563.92	60018.36
564.08	59828.77
564.24	59887.29
564.41	59674.30
564.57	59861.54
564.74	59749.20
564.90	59906.01
565.07	59854.52
565.23	59966.87
565.39	59908.35
565.56	60032.40
565.72	59873.24
565.88	60142.41
566.05	59971.55
566.21	60083.89
566.38	59959.84
566.54	59941.12
566.70	60179.85
566.87	60004.31
567.03	59966.87
567.19	60182.19
567.36	60074.53
567.52	59842.82
567.68	60140.07
567.85	60016.02
568.01	59821.75
568.17	59957.50
568.34	60163.47
568.50	60306.24
568.66	60163.47
568.83	60182.19
568.99	60111.98
569.15	60205.60
569.32	60214.96
569.48	59980.91
569.64	60266.45
569.81	60252.41
569.97	60140.07
570.13	60280.50
570.30	60123.68
570.46	60275.82
570.62	60219.64
570.78	60346.03
570.95	60121.34
571.11	60100.28
571.27	59917.71
571.43	60205.60
571.60	60313.26
571.76	60493.49
571.92	60453.70
572.09	60280.50
572.25	60303.90
572.41	60266.45
572.57	60243.05
572.74	60470.08
572.90	60240.71
573.06	60322.63
573.22	60329.65
573.38	60498.17
573.55	60224.32
573.71	60521.57
573.87	60610.51
574.03	60584.77
574.20	60406.89
574.36	60336.67
574.52	60507.53
574.68	60472.42
574.84	60479.44
575.01	60804.78
575.17	60446.68
575.33	60523.91
575.49	60240.71
575.65	60659.66
575.82	60495.83
575.98	60556.68
576.14	60427.95
576.30	60453.70
576.46	60341.35
576.62	60278.16
576.79	60371.78
576.95	60498.17
577.11	60444.33
577.27	60425.61
577.43	60570.72
577.59	60528.59
577.75	60605.83
577.92	60409.23
578.08	60324.97
578.24	60491.15
578.40	60715.84
578.56	60647.96
578.72	60465.40
578.88	60584.77
579.04	60865.63
579.21	60477.10
579.37	60582.43
579.53	60638.60
579.69	60317.95
579.85	60418.59
580.01	60460.72
580.17	60563.70
580.33	60664.35
580.49	60495.83
580.65	60617.53
580.82	60821.16
580.98	60577.75
581.14	60542.64
581.30	60706.47
581.46	60633.92
581.62	60647.96
581.78	60343.69
581.94	60701.79
582.10	60404.55
582.26	60470.08
582.42	60533.28
582.58	60860.95
582.74	60779.03
582.90	60727.54
583.06	60750.94
583.22	60584.77
583.38	60786.05
583.54	60853.93
583.70	60643.28
583.86	60516.89
584.02	60818.82
584.18	60711.16
584.34	60921.80
584.50	60898.40
584.66	60743.92
584.82	60463.06
584.98	60676.05
585.14	60776.69
585.30	60549.66
585.46	60669.03
585.62	60753.29
585.78	61045.85
585.94	60519.23
586.10	60863.29
586.26	60816.48
586.42	60851.59
586.58	60872.65
586.74	60802.44
586.90	60638.60
587.06	60594.13
587.22	61003.72
587.38	60830.52
587.54	60921.80
587.70	60919.46
587.86	60907.76
588.02	60851.59
588.18	60935.85
588.34	61022.45
588.49	60818.82
588.65	60896.06
588.81	60933.51
588.97	60844.57
589.13	60985.00
