SpectraSuite Data File
++++++++++++++++++++++++++++++++++++
Date: Fri Oct 04 11:48:39 GMT-05:00 2013
User: price-jones
Dark Spectrum Present: No
Reference Spectrum Present: No
Number of Sampled Component Spectra: 1
Spectrometers: USB2+H05261
Integration Time (usec): 100000 (USB2+H05261)
Spectra Averaged: 1 (USB2+H05261)
Boxcar Smoothing: 0 (USB2+H05261)
Correct for Electrical Dark: No (USB2+H05261)
Strobe/Lamp Enabled: No (USB2+H05261)
Correct for Detector Non-linearity: No (USB2+H05261)
Correct for Stray Light: No (USB2+H05261)
Number of Pixels in Processed Spectrum: 2048
>>>>>Begin Processed Spectral Data<<<<<
365.73	39.79
365.92	39.79
366.12	39.79
366.32	0.00
366.52	0.00
366.72	21.06
366.91	0.00
367.11	0.00
367.31	0.00
367.51	0.00
367.70	0.00
367.90	0.00
368.10	0.00
368.30	0.00
368.49	0.00
368.69	0.00
368.89	0.00
369.09	0.00
369.28	0.00
369.48	0.00
369.68	0.00
369.87	0.00
370.07	51.49
370.27	56.17
370.47	39.79
370.66	229.37
370.86	306.61
371.06	318.31
371.25	355.76
371.45	269.16
371.65	365.12
371.84	346.40
372.04	320.65
372.24	301.93
372.44	360.44
372.63	416.62
372.83	428.32
373.03	442.36
373.22	395.55
373.42	461.09
373.62	327.68
373.81	442.36
374.01	456.40
374.21	388.53
374.40	456.40
374.60	449.38
374.79	414.27
374.99	397.89
375.19	454.06
375.38	489.17
375.58	428.32
375.78	489.17
375.97	418.96
376.17	559.39
376.37	472.79
376.56	444.70
376.76	433.00
376.95	528.96
377.15	379.17
377.35	573.43
377.54	458.74
377.74	458.74
377.93	440.02
378.13	519.60
378.33	484.49
378.52	585.13
378.72	521.94
378.91	484.49
379.11	533.64
379.31	463.43
379.50	519.60
379.70	554.71
379.89	554.71
380.09	472.79
380.28	486.83
380.48	580.45
380.68	568.75
380.87	610.88
381.07	550.03
381.26	601.52
381.46	533.64
381.65	531.30
381.85	606.20
382.04	540.66
382.24	653.01
382.43	557.05
382.63	559.39
382.83	526.62
383.02	592.16
383.22	599.18
383.41	512.58
383.61	655.35
383.80	531.30
384.00	613.22
384.19	559.39
384.39	564.07
384.58	592.16
384.78	627.26
384.97	587.47
385.17	545.34
385.36	634.29
385.56	704.50
385.75	634.29
385.95	660.03
386.14	730.25
386.34	627.26
386.53	641.31
386.72	585.13
386.92	660.03
387.11	697.48
387.31	650.67
387.50	641.31
387.70	681.10
387.89	650.67
388.09	660.03
388.28	692.80
388.48	758.33
388.67	660.03
388.86	791.10
389.06	704.50
389.25	807.48
389.45	807.48
389.64	755.99
389.84	763.01
390.03	774.72
390.22	737.27
390.42	833.23
390.61	788.76
390.81	784.08
391.00	767.70
391.19	835.57
391.39	823.87
391.58	805.14
391.78	861.32
391.97	959.62
392.16	770.04
392.36	842.59
392.55	866.00
392.75	882.38
392.94	917.49
393.13	889.40
393.33	849.61
393.52	903.45
393.71	954.94
393.91	880.04
394.10	842.59
394.29	1029.84
394.49	924.51
394.68	959.62
394.88	919.83
395.07	856.64
395.26	1004.09
395.46	976.00
395.65	1067.28
395.84	1013.45
396.04	1104.73
396.23	1036.86
396.42	1029.84
396.62	1046.22
396.81	1018.13
397.00	1046.22
397.19	1036.86
397.39	1160.91
397.58	1125.80
397.77	1121.12
397.97	1027.50
398.16	1137.50
398.35	1043.88
398.55	1083.67
398.74	1128.14
398.93	1205.38
399.12	1151.54
399.32	1221.76
399.51	1100.05
399.70	1158.57
399.90	1102.39
400.09	1214.74
400.28	1280.27
400.47	1207.72
400.67	1352.83
400.86	1259.21
401.05	1249.85
401.24	1224.10
401.44	1287.29
401.63	1338.79
401.82	1320.06
402.01	1322.40
402.21	1299.00
402.40	1427.73
402.59	1409.00
402.78	1427.73
402.97	1514.33
403.17	1521.35
403.36	1418.36
403.55	1497.94
403.74	1479.22
403.93	1516.67
404.13	1598.59
404.32	1528.37
404.51	1472.20
404.70	1561.14
404.89	1652.42
405.09	1650.08
405.28	1591.56
405.47	1605.61
405.66	1605.61
405.85	1584.54
406.05	1619.65
406.24	1612.63
406.43	1668.80
406.62	1631.35
406.81	1764.76
407.00	1710.93
407.20	1636.03
407.39	1741.36
407.58	1699.23
407.77	1776.47
407.96	1839.66
408.15	1771.79
408.34	1804.55
408.54	1902.86
408.73	1888.81
408.92	1900.52
409.11	1865.41
409.30	1954.35
409.49	1935.62
409.68	1984.77
409.87	2022.22
410.07	1959.03
410.26	1980.09
410.45	2057.33
410.64	1996.48
410.83	2169.68
411.02	2150.95
411.21	2172.02
411.40	2172.02
411.59	2221.17
411.78	2125.21
411.98	2340.54
412.17	2275.00
412.36	2298.41
412.55	2464.58
412.74	2319.47
412.93	2363.94
413.12	2333.51
413.31	2448.20
413.50	2392.03
413.69	2438.84
413.88	2562.89
414.07	2504.37
414.26	2555.86
414.45	2509.05
414.64	2583.95
414.83	2649.49
415.02	2626.08
415.22	2572.25
415.41	2696.30
415.60	2684.59
415.79	2747.79
415.98	2773.53
416.17	2787.58
416.36	2822.69
416.55	2834.39
416.74	2913.97
416.93	2904.60
417.12	2956.10
417.31	2916.31
417.50	2904.60
417.69	3119.93
417.88	3087.17
418.07	2913.97
418.26	2972.48
418.45	2988.86
418.64	3059.08
418.83	3236.96
419.02	3112.91
419.21	3185.47
419.39	3157.38
419.58	3136.32
419.77	3129.30
419.96	3222.92
420.15	3379.73
420.34	3234.62
420.53	3272.07
420.72	3428.88
420.91	3459.31
421.10	3456.97
421.29	3531.87
421.48	3243.98
421.67	3396.12
421.86	3215.90
422.05	3403.14
422.24	3428.88
422.43	3435.91
422.61	3478.04
422.80	3634.85
422.99	3588.04
423.18	3473.36
423.37	3515.48
423.56	3473.36
423.75	3534.21
423.94	3438.25
424.13	3318.88
424.32	3466.33
424.50	3595.06
424.69	3672.30
424.88	3581.02
425.07	3433.57
425.26	3456.97
425.45	3548.25
425.64	3630.17
425.83	3487.40
426.01	3602.08
426.20	3632.51
426.39	3665.28
426.58	3620.81
426.77	3709.75
426.96	3618.47
427.15	3707.41
427.33	3805.71
427.52	3742.52
427.71	3803.37
427.90	3772.94
428.09	3875.93
428.28	3829.12
428.46	3915.72
428.65	3866.56
428.84	3946.14
429.03	4009.34
429.22	3840.82
429.40	4009.34
429.59	4039.76
429.78	3861.88
429.97	3707.41
430.16	3836.14
430.34	3997.64
430.53	4117.00
430.72	4035.08
430.91	4009.34
431.10	3941.46
431.28	4072.53
431.47	4231.69
431.66	4367.44
431.85	4215.30
432.03	4367.44
432.22	4250.41
432.41	4173.18
432.60	4344.03
432.79	4304.25
432.97	4308.93
433.16	4292.54
433.35	4241.05
433.54	4332.33
433.72	4568.73
433.91	4390.84
434.10	4320.63
434.28	4374.46
434.47	4458.72
434.66	4451.70
434.85	4531.28
435.03	4500.85
435.22	4542.98
435.41	4704.48
435.59	4531.28
435.78	4643.62
435.97	4573.41
436.16	4634.26
436.34	4571.07
436.53	4723.20
436.72	4805.12
436.90	4573.41
437.09	4901.08
437.28	4762.99
437.46	4774.69
437.65	4833.21
437.84	4922.15
438.02	4933.85
438.21	4978.32
438.40	4924.49
438.58	4975.98
438.77	4987.68
438.96	5011.09
439.14	5022.79
439.33	5090.67
439.52	5177.26
439.70	5270.89
439.89	5217.05
440.08	5305.99
440.26	5303.65
440.45	5268.55
440.63	5455.79
440.82	5540.05
441.01	5439.40
441.19	5472.17
441.38	5453.45
441.57	5530.69
441.75	5607.92
441.94	5785.80
442.12	5743.67
442.31	5818.57
442.50	5741.33
442.68	5738.99
442.87	5825.59
443.05	5823.25
443.24	6094.76
443.43	6057.31
443.61	5916.87
443.80	5933.26
443.98	5839.64
444.17	5598.56
444.35	6012.84
444.54	6054.97
444.73	6038.58
444.91	5853.68
445.10	5916.87
445.28	5921.56
445.47	6024.54
445.65	5973.05
445.84	6118.16
446.02	6047.94
446.21	6153.27
446.39	5937.94
446.58	6141.57
446.77	5928.58
446.95	6050.28
447.14	6169.65
447.32	6134.54
447.51	6033.90
447.69	6076.03
447.88	6160.29
448.06	6211.78
448.25	6183.70
448.43	6228.17
448.62	6153.27
448.80	6216.46
448.99	6118.16
449.17	6427.11
449.36	6392.00
449.54	6469.24
449.73	6438.81
449.91	6562.86
450.10	6588.61
450.28	6544.14
450.46	6523.07
450.65	6504.35
450.83	6644.78
451.02	6513.71
451.20	6696.27
451.39	6604.99
451.57	6516.05
451.76	6464.56
451.94	6640.10
452.13	6771.17
452.31	6644.78
452.49	6642.44
452.68	6726.70
452.86	6768.83
453.05	6670.53
453.23	7016.93
453.42	6862.45
453.60	6731.38
453.78	6848.41
453.97	6710.32
454.15	6705.63
454.34	6862.45
454.52	7082.46
454.70	7012.24
454.89	7016.93
455.07	7000.54
455.26	7136.29
455.44	7325.88
455.62	7133.95
455.81	7045.01
455.99	7082.46
456.17	7379.71
456.36	7417.16
456.54	7293.11
456.73	7215.87
456.91	7447.58
457.09	7410.14
457.28	7620.78
457.46	7482.69
457.64	7707.38
457.83	7475.67
458.01	7459.29
458.19	7695.68
458.38	7468.65
458.56	7801.01
458.74	7707.38
458.93	7536.52
459.11	7775.26
459.29	7740.15
459.48	7786.96
459.66	7824.41
459.84	7728.45
460.03	8084.21
460.21	7899.31
460.39	7889.95
460.57	7911.01
460.76	8021.02
460.94	8250.39
461.12	8039.74
461.31	8056.12
461.49	8163.79
461.67	8032.72
461.85	8170.81
462.04	8109.96
462.22	8659.98
462.40	8276.13
462.59	8215.28
462.77	8189.53
462.95	8229.32
463.13	8365.07
463.32	8322.94
463.50	8271.45
463.68	8638.92
463.86	8358.05
464.05	8461.04
464.23	8491.46
464.41	8468.06
464.59	8416.57
464.78	8554.66
464.96	8606.15
465.14	8416.57
465.32	8746.58
465.50	8835.52
465.69	8898.72
465.87	8442.31
466.05	8725.52
466.23	8812.12
466.41	8762.97
466.60	9022.77
466.78	8837.86
466.96	8695.09
467.14	8624.87
467.32	8887.01
467.51	9095.32
467.69	8751.26
467.87	8821.48
468.05	8837.86
468.23	8823.82
468.41	9011.06
468.60	9011.06
468.78	9111.71
468.96	9057.87
469.14	9004.04
469.32	9418.32
469.50	8917.44
469.69	9362.14
469.87	9451.08
470.05	9373.85
470.23	9474.49
470.41	9535.34
470.59	9418.32
470.77	9514.28
470.95	9645.35
471.14	9493.21
471.32	9500.23
471.50	9710.88
471.68	9657.05
471.86	9769.40
472.04	9870.04
472.22	10167.29
472.40	9635.99
472.58	10244.52
472.77	10190.69
472.95	10174.31
473.13	10265.59
473.31	10134.52
473.49	10251.55
473.67	10281.97
473.85	10183.67
474.03	10370.91
474.21	10520.71
474.39	10490.28
474.57	10574.54
474.75	10637.73
474.93	10717.31
475.12	10513.69
475.30	10745.40
475.48	10705.61
475.66	10698.59
475.84	10595.61
476.02	10972.43
476.20	10878.81
476.38	11192.44
476.56	11236.91
476.74	11494.37
476.92	11492.03
477.10	11344.58
477.28	11559.91
477.46	11279.04
477.64	11499.05
477.82	11765.87
478.00	12116.95
478.18	12189.51
478.36	12032.69
478.54	11948.43
478.72	12304.20
478.90	12446.97
479.08	12737.20
479.26	12571.02
479.44	12681.02
479.62	12791.03
479.80	12776.98
479.98	12835.50
480.16	13228.71
480.34	12952.52
480.52	13467.44
480.70	13186.58
480.88	13228.71
481.06	13509.57
481.24	13371.48
481.41	13495.53
481.59	13769.37
481.77	14075.98
481.95	14183.65
482.13	14054.92
482.31	14092.37
482.49	14410.68
482.67	14281.95
482.85	14616.65
483.03	14867.08
483.21	14789.85
483.39	14892.83
483.57	14871.76
483.74	14871.76
483.92	15208.80
484.10	15084.75
484.28	15550.52
484.46	15789.25
484.64	16093.52
484.82	15662.86
485.00	15768.19
485.18	16077.14
485.35	16664.61
485.53	16198.85
485.71	16350.98
485.89	16596.74
486.07	16507.80
486.25	16744.19
486.43	16727.81
486.61	16896.33
486.78	17184.21
486.96	17041.44
487.14	17394.86
487.32	17338.69
487.50	17565.72
487.68	17750.62
487.85	17928.50
488.03	18207.03
488.21	18464.49
488.39	18183.62
488.57	18553.43
488.75	18604.92
488.92	18904.51
489.10	19021.53
489.28	19274.31
489.46	19257.93
489.64	19370.27
489.81	19772.85
489.99	19438.15
490.17	19660.50
490.35	20187.12
490.53	19955.41
490.70	20219.89
490.88	20350.96
491.06	20741.83
491.24	20472.67
491.41	20805.02
491.59	20823.75
491.77	20957.16
491.95	21071.84
492.13	21303.56
492.30	21338.66
492.48	21458.03
492.66	21219.30
492.84	21549.31
493.01	21902.73
493.19	21703.79
493.37	22354.46
493.54	21846.56
493.72	22340.41
493.90	22270.20
494.08	22302.96
494.25	22707.88
494.43	22625.96
494.61	22773.41
494.79	23082.36
494.96	22920.87
495.14	23253.22
495.32	23686.22
495.49	23723.67
495.67	23758.78
495.85	24149.65
496.02	24107.52
496.20	24414.13
496.38	24219.86
496.55	24362.64
496.73	24999.26
496.91	24889.26
497.09	24971.18
497.26	24882.24
497.44	24964.15
497.62	25135.01
497.79	25493.12
497.97	25254.38
498.14	25806.75
498.32	25811.43
498.50	25858.24
498.67	26050.16
498.85	26150.81
499.03	25844.20
499.20	26143.78
499.38	26312.30
499.56	26338.05
499.73	26513.59
499.91	26349.75
500.08	26892.76
500.26	26754.66
500.44	26703.17
500.61	26906.80
500.79	27365.54
500.97	27110.43
501.14	27686.20
501.32	27300.01
501.49	27637.05
501.67	27468.53
501.84	27541.08
502.02	27435.76
502.20	28044.30
502.37	27901.53
502.55	28367.29
502.72	28290.06
502.90	28371.97
503.07	28542.83
503.25	28194.09
503.43	28477.30
503.60	28561.56
503.78	29109.24
503.95	28584.96
504.13	28835.40
504.30	29174.78
504.48	28734.76
504.65	28943.06
504.83	29556.28
505.01	29862.90
505.18	29420.53
505.36	29830.13
505.53	29635.86
505.71	29670.97
505.88	30000.99
506.06	29432.24
506.23	30246.74
506.41	29984.60
506.58	30508.88
506.76	30305.26
506.93	30136.74
507.11	30148.44
507.28	30703.15
507.46	30820.17
507.63	30700.81
507.81	31058.91
507.98	30623.57
508.16	30646.97
508.33	31056.57
508.50	31531.70
508.68	31384.24
508.85	31646.38
509.03	31175.94
509.20	31571.49
509.38	31814.90
509.55	31901.50
509.73	31850.01
509.90	31934.27
510.08	31934.27
510.25	31974.06
510.42	32449.19
510.60	32432.80
510.77	32477.27
510.95	32938.36
511.12	32694.94
511.30	32348.54
511.47	33233.27
511.64	32837.72
511.82	33017.94
511.99	32931.34
512.17	32826.01
512.34	32973.47
512.51	33385.40
512.69	33720.10
512.86	33673.29
513.04	33872.23
513.21	33914.36
513.38	34064.16
513.56	33755.21
513.73	33652.22
513.90	34227.99
514.08	33982.24
514.25	34375.45
514.43	34665.67
514.60	34305.23
514.77	34309.91
514.95	34314.59
515.12	34705.46
515.29	34452.69
515.47	34983.99
515.64	35084.63
515.81	34995.69
515.99	34993.35
516.16	35393.58
516.33	35459.12
516.51	35215.70
516.68	35426.35
516.85	35276.55
517.03	36109.78
517.20	35288.26
517.37	35508.27
517.54	35700.19
517.72	35917.86
517.89	35700.19
518.06	35576.14
518.24	35903.82
518.41	35751.68
518.58	35945.95
518.75	36505.34
518.93	36577.89
519.10	36123.83
519.27	36662.15
519.45	36409.37
519.62	36741.73
519.79	36943.02
519.96	36968.76
520.14	36882.16
520.31	37053.02
520.48	37347.93
520.65	36898.55
520.83	37251.97
521.00	37179.41
521.17	36875.14
521.34	37521.13
521.52	37350.27
521.69	37652.20
521.86	37830.08
522.03	37727.10
522.20	37890.93
522.38	37771.57
522.55	37858.17
522.72	38117.96
522.89	38188.18
523.07	38490.11
523.24	38366.06
523.41	38220.95
523.58	37827.74
523.75	38178.82
523.92	38373.08
524.10	38843.53
524.27	38471.39
524.44	38644.59
524.61	39278.87
524.78	38969.92
524.96	38834.17
525.13	38440.96
525.30	39239.08
525.47	39269.51
525.64	39257.81
525.81	39571.44
525.98	39873.37
526.16	39353.77
526.33	39365.47
526.50	39634.63
526.67	39367.81
526.84	39606.55
527.01	39250.78
527.18	39695.49
527.36	39952.94
527.53	40076.99
527.70	40713.62
527.87	40238.49
528.04	39966.99
528.21	40062.95
528.38	40318.07
528.55	40009.12
528.72	40428.07
528.89	40259.55
529.07	40329.77
529.24	40652.76
529.41	40657.45
529.58	40678.51
529.75	40603.61
529.92	40664.47
530.09	40652.76
530.26	41083.42
530.43	41298.75
530.60	40722.98
530.77	40854.05
530.94	41375.99
531.11	40842.35
531.28	40973.42
531.46	40987.46
531.63	40825.96
531.80	41151.30
531.97	41647.49
532.14	41682.60
532.31	40898.52
532.48	41539.83
532.65	41116.19
532.82	41783.24
532.99	41525.78
533.16	41153.64
533.33	41984.53
533.50	42380.08
533.67	41930.70
533.84	41968.15
534.01	42246.67
534.18	42213.90
534.35	42602.43
534.52	41827.71
534.69	42366.04
534.86	42836.48
535.03	42323.91
535.20	42742.86
535.37	42405.83
535.54	42721.80
535.71	42340.29
535.88	42480.72
536.05	42719.46
536.22	42979.26
536.38	42986.28
536.55	42841.17
536.72	43302.25
536.89	42326.25
537.06	43044.79
537.23	42976.92
537.40	43117.35
537.57	43009.68
537.74	42951.17
537.91	43423.96
538.08	43679.08
538.25	43103.31
538.42	43655.67
538.59	43634.61
538.75	43639.29
538.92	43583.12
539.09	43779.72
539.26	43576.09
539.43	43908.45
539.60	44093.35
539.77	43964.62
539.94	43973.98
540.11	43962.28
540.28	44048.88
540.44	43810.15
540.61	43700.14
540.78	44296.98
540.95	44233.78
541.12	44126.12
541.29	44186.97
541.46	43751.63
541.62	44428.05
541.79	44315.70
541.96	43985.69
542.13	44170.59
542.30	44708.91
542.47	44849.35
542.63	44914.88
542.80	44091.01
542.97	44516.99
543.14	44744.02
543.31	44732.32
543.48	45165.32
543.64	45214.47
543.81	45586.61
543.98	45467.25
544.15	45198.09
544.32	45272.98
544.48	45404.05
544.65	45193.40
544.82	45282.34
544.99	45209.79
545.16	45577.25
545.32	45570.23
545.49	45537.46
545.66	46007.91
545.83	45935.35
546.00	45921.31
546.16	45656.83
546.33	45467.25
546.50	45368.94
546.67	45705.98
546.83	45155.96
547.00	46052.38
547.17	46052.38
547.34	46216.22
547.50	46012.59
547.67	46302.82
547.84	45963.44
548.00	46026.63
548.17	46450.27
548.34	46295.80
548.51	46731.14
548.67	46539.21
548.84	46244.30
549.01	46080.47
549.18	46316.86
549.34	46050.04
549.51	46110.89
549.68	46408.14
549.84	46431.55
550.01	46419.84
550.18	46660.92
550.34	46726.46
550.51	47021.36
550.68	46536.87
550.84	46536.87
551.01	46672.62
551.18	46431.55
551.34	46473.68
551.51	46735.82
551.68	47047.11
551.84	47337.33
552.01	46813.05
552.18	47342.02
552.34	46614.11
552.51	47445.00
552.68	46967.53
552.84	47136.05
553.01	47234.35
553.18	47456.70
553.34	47262.44
553.51	47552.66
553.67	47564.37
553.84	47421.59
554.01	47655.65
554.17	47353.72
554.34	47636.92
554.51	47611.18
554.67	47648.63
554.84	48098.01
555.00	47760.97
555.17	47459.04
555.33	47391.17
555.50	47634.58
555.67	47508.19
555.83	47501.17
556.00	47707.14
556.16	48184.61
556.33	47807.78
556.50	47498.83
556.66	48112.05
556.83	47599.47
556.99	48268.87
557.16	48119.07
557.32	47838.21
557.49	48076.94
557.65	47543.30
557.82	48114.39
557.98	47522.24
558.15	47842.89
558.32	48193.97
558.48	48252.48
558.65	47943.53
558.81	48332.06
558.98	48495.90
559.14	48292.27
559.31	47639.26
559.47	48168.22
559.64	48254.82
559.80	48449.09
559.97	48540.37
560.13	48240.78
560.30	48346.11
560.46	48683.14
560.63	48523.99
560.79	48346.11
560.96	48765.06
561.12	48130.78
561.29	48273.55
561.45	48404.62
561.61	48839.96
561.78	48486.54
561.94	48446.75
562.11	48278.23
562.27	48463.13
562.44	48409.30
562.60	48549.73
562.77	48615.27
562.93	48325.04
563.10	48612.93
563.26	48306.32
563.42	48882.09
563.59	48708.89
563.75	48692.50
563.92	48732.29
564.08	48451.43
564.24	48741.66
564.41	48800.17
564.57	48369.51
564.74	48832.94
564.90	48708.89
565.07	48982.73
565.23	49336.15
565.39	49003.80
565.56	48956.99
565.72	48921.88
565.88	48678.46
566.05	48830.60
566.21	48596.54
566.38	48896.13
566.54	48732.29
566.70	49020.18
566.87	48797.83
567.03	48882.09
567.19	49333.81
567.36	49209.76
567.52	48715.91
567.68	49153.59
567.85	48769.74
568.01	48884.43
568.17	49109.12
568.34	48978.05
568.50	48954.64
568.66	49109.12
568.83	49198.06
568.99	48790.81
569.15	49069.33
569.32	49090.40
569.48	48870.39
569.64	49322.11
569.81	49345.51
569.97	49104.44
570.13	49495.31
570.30	49013.16
570.46	49106.78
570.62	49324.45
570.78	49059.97
570.95	49214.44
571.11	48875.07
571.27	48549.73
571.43	49127.84
571.60	49509.35
571.76	49247.21
571.92	49207.42
572.09	49319.77
572.25	49008.48
572.41	49439.14
572.57	49434.45
572.74	49425.09
572.90	49223.81
573.06	49303.38
573.22	49291.68
573.38	49237.85
573.55	49401.69
573.71	49439.14
573.87	49773.83
574.03	49305.73
574.20	49345.51
574.36	49188.70
574.52	49523.40
574.68	49600.63
574.84	49385.30
575.01	49471.90
575.17	49813.62
575.33	49549.14
575.49	49425.09
575.65	49638.08
575.82	49352.54
575.98	49347.86
576.14	49389.98
576.30	49408.71
576.46	49275.30
576.62	49216.78
576.79	49282.32
576.95	49656.81
577.11	49638.08
577.27	49279.98
577.43	49621.70
577.59	49532.76
577.75	49439.14
577.92	49443.82
578.08	49483.61
578.24	49272.96
578.40	49228.49
578.56	49366.58
578.72	49581.91
578.88	49628.72
579.04	49516.37
579.21	49642.76
579.37	49401.69
579.53	49539.78
579.69	49244.87
579.85	49317.43
580.01	49656.81
580.17	49436.80
580.33	49425.09
580.49	49804.26
580.65	49844.05
580.82	50241.94
580.98	50019.59
581.14	49694.25
581.30	49792.56
581.46	49797.24
581.62	49439.14
581.78	49502.33
581.94	49605.31
582.10	49621.70
582.26	49670.85
582.42	49434.45
582.58	49586.59
582.74	49497.65
582.90	49755.11
583.06	49975.12
583.22	49745.75
583.38	49221.47
583.54	49602.97
583.70	49427.43
583.86	49848.73
584.02	49757.45
584.18	49862.77
584.34	50145.98
584.50	49909.58
584.66	49586.59
584.82	49670.85
584.98	49869.79
585.14	49827.66
585.30	49397.01
585.46	49553.82
585.62	49715.32
585.78	49869.79
585.94	49460.20
586.10	49727.02
586.26	49839.37
586.42	49806.60
586.58	49865.11
586.74	49738.72
586.90	49818.30
587.06	49539.78
587.22	49837.03
587.38	49579.57
587.54	49986.82
587.70	50117.89
587.86	49954.05
588.02	49764.47
588.18	49890.86
588.34	50089.80
588.49	49921.29
588.65	49628.72
588.81	49563.18
588.97	50042.99
589.13	49801.92
589.29	49808.94
589.45	49923.63
589.61	50244.28
589.77	50131.93
589.93	50174.06
590.08	50185.77
590.24	49895.54
590.40	50164.70
