SpectraSuite Data File
++++++++++++++++++++++++++++++++++++
Date: Fri Oct 04 11:48:30 GMT-05:00 2013
User: price-jones
Dark Spectrum Present: No
Reference Spectrum Present: No
Number of Sampled Component Spectra: 1
Spectrometers: USB2+H05261
Integration Time (usec): 100000 (USB2+H05261)
Spectra Averaged: 1 (USB2+H05261)
Boxcar Smoothing: 0 (USB2+H05261)
Correct for Electrical Dark: No (USB2+H05261)
Strobe/Lamp Enabled: No (USB2+H05261)
Correct for Detector Non-linearity: No (USB2+H05261)
Correct for Stray Light: No (USB2+H05261)
Number of Pixels in Processed Spectrum: 2048
>>>>>Begin Processed Spectral Data<<<<<
365.73	30.43
365.92	30.43
366.12	30.43
366.32	0.00
366.52	0.00
366.72	0.00
366.91	0.00
367.11	0.00
367.31	0.00
367.51	0.00
367.70	0.00
367.90	0.00
368.10	0.00
368.30	0.00
368.49	0.00
368.69	0.00
368.89	0.00
369.09	0.00
369.28	0.00
369.48	0.00
369.68	4.68
369.87	0.00
370.07	28.09
370.27	0.00
370.47	110.01
370.66	442.36
370.86	461.09
371.06	468.11
371.25	514.92
371.45	465.77
371.65	592.16
371.84	482.15
372.04	500.87
372.24	585.13
372.44	517.26
372.63	531.30
372.83	674.07
373.03	589.82
373.22	535.98
373.42	613.22
373.62	615.56
373.81	638.97
374.01	678.76
374.21	660.03
374.40	627.26
374.60	671.73
374.79	697.48
374.99	636.63
375.19	716.20
375.38	657.69
375.58	617.90
375.78	765.36
375.97	692.80
376.17	709.18
376.37	739.61
376.56	676.41
376.76	669.39
376.95	669.39
377.15	716.20
377.35	709.18
377.54	744.29
377.74	744.29
377.93	772.38
378.13	730.25
378.33	788.76
378.52	706.84
378.72	821.53
378.91	819.19
379.11	814.51
379.31	763.01
379.50	786.42
379.70	755.99
379.89	823.87
380.09	725.57
380.28	830.89
380.48	821.53
380.68	802.80
380.87	774.72
381.07	819.19
381.26	844.93
381.46	882.38
381.65	873.02
381.85	828.55
382.04	828.55
382.24	912.81
382.43	870.68
382.63	844.93
382.83	901.11
383.02	950.26
383.22	992.39
383.41	933.87
383.61	1025.15
383.80	961.96
384.00	840.25
384.19	987.71
384.39	959.62
384.58	873.02
384.78	929.19
384.97	940.90
385.17	1043.88
385.36	1022.81
385.56	978.34
385.75	971.32
385.95	1036.86
386.14	1055.58
386.34	1067.28
386.53	1100.05
386.72	1018.13
386.92	1095.37
387.11	1083.67
387.31	1053.24
387.50	1029.84
387.70	1097.71
387.89	1081.33
388.09	1097.71
388.28	1102.39
388.48	1081.33
388.67	1158.57
388.86	1184.31
389.06	1198.35
389.25	1242.82
389.45	1247.51
389.64	1217.08
389.84	1224.10
390.03	1196.01
390.22	1170.27
390.42	1191.33
390.61	1179.63
390.81	1198.35
391.00	1210.06
391.19	1301.34
391.39	1310.70
391.58	1369.21
391.78	1303.68
391.97	1315.38
392.16	1280.27
392.36	1355.17
392.55	1380.92
392.75	1296.66
392.94	1481.56
393.13	1362.19
393.33	1364.53
393.52	1336.45
393.71	1409.00
393.91	1430.07
394.10	1423.05
394.29	1423.05
394.49	1469.86
394.68	1458.15
394.88	1451.13
395.07	1563.48
395.26	1490.92
395.46	1556.46
395.65	1591.56
395.84	1596.25
396.04	1600.93
396.23	1577.52
396.42	1596.25
396.62	1570.50
396.81	1626.67
397.00	1638.38
397.19	1645.40
397.39	1652.42
397.58	1633.69
397.77	1638.38
397.97	1675.82
398.16	1633.69
398.35	1715.61
398.55	1778.81
398.74	1743.70
398.93	1795.19
399.12	1764.76
399.32	1734.34
399.51	1661.78
399.70	1937.96
399.90	1806.89
400.09	1895.83
400.28	1961.37
400.47	1827.96
400.67	1935.62
400.86	1963.71
401.05	1858.39
401.24	1987.11
401.44	1949.67
401.63	2005.84
401.82	2038.61
402.01	1984.77
402.21	1928.60
402.40	1968.39
402.59	1973.07
402.78	2083.08
402.97	2092.44
403.17	2223.51
403.36	2193.08
403.55	2078.40
403.74	2153.29
403.93	2031.58
404.13	2310.11
404.32	2202.44
404.51	2242.23
404.70	2300.75
404.89	2186.06
405.09	2363.94
405.28	2340.54
405.47	2279.68
405.66	2356.92
405.85	2480.97
406.05	2312.45
406.24	2373.30
406.43	2483.31
406.62	2612.04
406.81	2595.65
407.00	2303.09
407.20	2415.43
407.39	2434.16
407.58	2551.18
407.77	2523.10
407.96	2712.68
408.15	2647.15
408.34	2654.17
408.54	2626.08
408.73	2670.55
408.92	2677.57
409.11	2642.46
409.30	2834.39
409.49	2773.53
409.68	2719.70
409.87	2750.13
410.07	2848.43
410.26	2946.73
410.45	2775.88
410.64	2899.92
410.83	2963.12
411.02	2864.82
411.21	3117.59
411.40	2885.88
411.59	3073.12
411.78	2993.55
411.98	3000.57
412.17	3082.49
412.36	3141.00
412.55	3248.66
412.74	3295.47
412.93	3166.74
413.12	3148.02
413.31	3222.92
413.50	3295.47
413.69	3297.81
413.88	3302.50
414.07	3426.54
414.26	3543.57
414.45	3445.27
414.64	3574.00
414.83	3522.51
415.02	3588.04
415.22	3592.72
415.41	3777.62
415.60	3674.64
415.79	3801.03
415.98	3878.27
416.17	3723.79
416.36	3808.05
416.55	3812.73
416.74	3934.44
416.93	3950.82
417.12	3911.04
417.31	4058.49
417.50	4077.21
417.69	4025.72
417.88	4105.30
418.07	4053.81
418.26	4004.66
418.45	4053.81
418.64	4308.93
418.83	4290.20
419.02	4215.30
419.21	4320.63
419.39	4245.73
419.58	4283.18
419.77	4299.56
419.96	4414.25
420.15	4329.99
420.34	4337.01
420.53	4390.84
420.72	4404.89
420.91	4339.35
421.10	4395.53
421.29	4718.52
421.48	4510.21
421.67	4638.94
421.86	4550.00
422.05	4517.23
422.24	4674.05
422.43	4821.50
422.61	4704.48
422.80	4585.11
422.99	4547.66
423.18	4676.39
423.37	4861.29
423.56	4727.88
423.75	4662.35
423.94	4681.07
424.13	4329.99
424.32	4571.07
424.50	4732.56
424.69	4720.86
424.88	4931.51
425.07	4730.22
425.26	4784.06
425.45	4753.63
425.64	4748.95
425.83	4842.57
426.01	4915.12
426.20	4720.86
426.39	4833.21
426.58	4894.06
426.77	4795.76
426.96	4938.53
427.15	4830.87
427.33	4936.19
427.52	4964.28
427.71	5004.07
427.90	5013.43
428.09	4849.59
428.28	4997.04
428.46	5203.01
428.65	5156.20
428.84	5387.91
429.03	5350.46
429.22	4980.66
429.40	5167.90
429.59	5172.58
429.78	5006.41
429.97	4924.49
430.16	5233.44
430.34	5172.58
430.53	5423.02
430.72	5341.10
430.91	5397.28
431.10	5298.97
431.28	5518.98
431.47	5497.92
431.66	5535.37
431.85	5458.13
432.03	5605.58
432.22	5849.00
432.41	5675.80
432.60	5657.07
432.79	5687.50
432.97	5760.06
433.16	5851.34
433.35	5769.42
433.54	5849.00
433.72	5736.65
433.91	5905.17
434.10	5867.72
434.28	5975.39
434.47	5982.41
434.66	5949.64
434.85	6033.90
435.03	5973.05
435.22	5987.09
435.41	6174.33
435.59	6211.78
435.78	6207.10
435.97	6094.76
436.16	6111.14
436.34	6146.25
436.53	6218.80
436.72	6406.05
436.90	6188.38
437.09	6384.98
437.28	6094.76
437.46	6476.26
437.65	6448.18
437.84	6551.16
438.02	6464.56
438.21	6457.54
438.40	6471.58
438.58	6815.64
438.77	6834.36
438.96	6642.44
439.14	6822.66
439.33	6967.77
439.52	7045.01
439.70	6801.60
439.89	7077.78
440.08	7164.38
440.26	7021.61
440.45	7225.23
440.63	7169.06
440.82	7321.20
441.01	7190.13
441.19	7279.07
441.38	7529.50
441.57	7417.16
441.75	7522.48
441.94	7868.88
442.12	7562.27
442.31	7779.94
442.50	7857.18
442.68	7742.49
442.87	7639.51
443.05	7719.09
443.24	7978.89
443.43	8006.97
443.61	7925.05
443.80	7997.61
443.98	7906.33
444.17	7749.51
444.35	7927.39
444.54	8044.42
444.73	8049.10
444.91	8077.19
445.10	8039.74
445.28	8168.47
445.47	8044.42
445.65	8025.70
445.84	8156.77
446.02	8313.58
446.21	8255.07
446.39	7990.59
446.58	8294.86
446.77	8175.49
446.95	7967.18
447.14	8163.79
447.32	8081.87
447.51	7999.95
447.69	8322.94
447.88	8336.99
448.06	8311.24
448.25	8313.58
448.43	8526.57
448.62	8226.98
448.80	8318.26
448.99	8489.12
449.17	8725.52
449.36	8341.67
449.54	8547.64
449.73	8664.66
449.91	8713.81
450.10	8683.39
450.28	8699.77
450.46	8641.26
450.65	8947.87
450.83	8741.90
451.02	8769.99
451.20	9067.24
451.39	8800.41
451.57	8879.99
451.76	9008.72
451.94	8980.64
452.13	9130.43
452.31	9270.86
452.49	8947.87
452.68	9046.17
452.86	9188.94
453.05	9226.39
453.23	9245.12
453.42	9188.94
453.60	9149.15
453.78	9184.26
453.97	9006.38
454.15	9198.31
454.34	9207.67
454.52	9291.93
454.70	9462.79
454.89	9472.15
455.07	9373.85
455.26	9476.83
455.44	9762.37
455.62	9626.62
455.81	9516.62
455.99	9441.72
456.17	9596.20
456.36	9708.54
456.54	10059.62
456.73	10045.58
456.91	10001.11
457.09	9980.04
457.28	10284.31
457.46	10050.26
457.64	10153.24
457.83	10242.18
458.01	10033.88
458.19	10356.87
458.38	10214.10
458.56	10256.23
458.74	10464.54
458.93	10263.25
459.11	10455.17
459.29	10473.90
459.48	10544.11
459.66	10719.65
459.84	10581.56
460.03	10850.72
460.21	10736.04
460.39	10665.82
460.57	10757.10
460.76	10888.17
460.94	10768.80
461.12	10820.30
461.31	10796.89
461.49	10832.00
461.67	10965.41
461.85	11012.22
462.04	11026.26
462.22	11688.64
462.40	11262.66
462.59	10986.47
462.77	11171.38
462.95	11061.37
463.13	11250.96
463.32	11321.17
463.50	11286.06
463.68	11183.08
463.86	11477.99
464.05	11325.85
464.23	11384.37
464.41	11520.12
464.59	11293.08
464.78	11707.36
464.96	11550.54
465.14	11463.94
465.32	11655.87
465.50	11887.58
465.69	11770.55
465.87	11705.02
466.05	11892.26
466.23	11833.75
466.41	11719.06
466.60	12264.41
466.78	11836.09
466.96	11796.30
467.14	11871.20
467.32	11978.86
467.51	12369.73
467.69	11747.15
467.87	11976.52
468.05	12322.92
468.23	11988.22
468.41	11985.88
468.60	12257.39
468.78	12353.35
468.96	12196.53
469.14	12166.10
469.32	12491.44
469.50	12390.80
469.69	12615.49
469.87	12636.55
470.05	12894.01
470.23	12781.67
470.41	12945.50
470.59	13118.70
470.77	12844.86
470.95	12772.30
471.14	13041.46
471.32	13123.38
471.50	13209.98
471.68	13511.91
471.86	13181.90
472.04	13130.41
472.22	13481.49
472.40	13193.60
472.58	13570.43
472.77	13343.39
472.95	13844.27
473.13	14178.97
473.31	13642.98
473.49	13617.24
473.67	14019.81
473.85	13919.17
474.03	14288.97
474.21	14197.69
474.39	14473.87
474.57	14422.38
474.75	14803.89
474.93	14813.25
475.12	14520.68
475.30	14759.42
475.48	14508.98
475.66	14815.59
475.84	15159.65
476.02	15105.82
476.20	14895.17
476.38	15382.00
476.56	15431.15
476.74	15611.37
476.92	15403.07
477.10	15393.70
477.28	15910.96
477.46	15796.28
477.64	15913.30
477.82	16283.11
478.00	16713.77
478.18	16166.08
478.36	16430.56
478.54	16603.76
478.72	16765.26
478.90	17109.32
479.08	17116.34
479.26	17123.36
479.44	17500.19
479.62	17432.31
479.80	17598.49
479.98	17720.20
480.16	18097.02
480.34	17991.70
480.52	18134.47
480.70	18464.49
480.88	18281.92
481.06	18363.84
481.24	18246.82
481.41	18616.62
481.59	18979.40
481.77	19257.93
481.95	19248.57
482.13	19300.06
482.31	19396.02
482.49	19730.72
482.67	19653.48
482.85	19861.79
483.03	20456.28
483.21	20622.46
483.39	20587.35
483.57	20603.74
483.74	20875.24
483.92	20931.41
484.10	20776.94
484.28	21324.62
484.46	21469.73
484.64	22071.25
484.82	21610.17
485.00	22118.06
485.18	22277.22
485.35	22773.41
485.53	22335.73
485.71	22445.74
485.89	23080.02
486.07	22677.45
486.25	22850.65
486.43	23302.37
486.61	23283.65
486.78	23744.73
486.96	23400.68
487.14	24238.59
487.32	24430.51
487.50	24474.98
487.68	24594.35
487.85	24905.64
488.03	25247.36
488.21	25158.42
488.39	25560.99
488.57	25762.28
488.75	25764.62
488.92	26363.79
489.10	26429.33
489.28	26211.66
489.46	26679.77
489.64	26834.24
489.81	27171.28
489.99	26946.59
490.17	27063.61
490.35	27686.20
490.53	27662.79
490.70	27974.08
490.88	27744.71
491.06	28498.36
491.24	28091.11
491.41	28734.76
491.59	28407.08
491.77	28917.32
491.95	29109.24
492.13	29493.09
492.30	29675.65
492.48	29495.43
492.66	29883.96
492.84	29757.57
493.01	30022.05
493.19	30108.65
493.37	30621.23
493.54	30525.27
493.72	30885.71
493.90	31323.39
494.08	31342.11
494.25	31587.87
494.43	31817.24
494.61	32039.59
494.79	32383.65
494.96	31601.91
495.14	32297.05
495.32	32589.62
495.49	32460.89
495.67	32966.45
495.85	32943.04
496.02	33088.15
496.20	33551.58
496.38	33216.88
496.55	33818.40
496.73	34452.69
496.91	33771.59
497.09	34499.50
497.26	34733.55
497.44	34747.59
497.62	34909.09
497.79	34761.64
497.97	34670.36
498.14	35435.71
498.32	35704.87
498.50	35559.76
498.67	36147.23
498.85	35653.38
499.03	36250.22
499.20	36182.34
499.38	36442.14
499.56	36566.19
499.73	36966.42
499.91	36800.24
500.08	37387.72
500.26	37170.05
500.44	37151.32
500.61	37464.96
500.79	37479.00
500.97	37596.03
501.14	38284.14
501.32	38183.50
501.49	37975.19
501.67	37790.29
501.84	38375.42
502.02	38003.28
502.20	38876.30
502.37	39131.42
502.55	38663.31
502.72	39203.97
502.90	39023.75
503.07	39002.69
503.25	39363.13
503.43	39093.97
503.60	40105.08
503.78	39812.51
503.95	39845.28
504.13	40135.51
504.30	40114.44
504.48	39744.64
504.65	39992.73
504.83	40545.10
505.01	40341.47
505.18	40346.15
505.36	40685.53
505.53	40598.93
505.71	41240.24
505.88	41684.94
506.06	40737.02
506.23	41769.20
506.41	41603.02
506.58	41750.48
506.76	42204.54
506.93	41869.84
507.11	41944.74
507.28	42110.92
507.46	42089.85
507.63	42848.19
507.81	42604.77
507.98	42267.73
508.16	42639.88
508.33	42871.59
508.50	43007.34
508.68	43077.56
508.85	43428.64
509.03	43367.79
509.20	43679.08
509.38	43854.62
509.55	43601.84
509.73	43580.78
509.90	44201.02
510.08	44074.63
510.25	43859.30
510.42	44437.41
510.60	44701.89
510.77	44903.18
510.95	45069.36
511.12	44835.30
511.30	44678.49
511.47	45270.64
511.64	45130.21
511.82	45474.27
511.99	45476.61
512.17	45258.94
512.34	45385.33
512.51	45916.63
512.69	45867.48
512.86	45792.58
513.04	46445.59
513.21	46253.67
513.38	46209.20
513.56	46499.42
513.73	46012.59
513.90	46756.88
514.08	46742.84
514.25	46541.55
514.43	46843.48
514.60	47063.49
514.77	47070.51
514.95	47484.79
515.12	47271.80
515.29	47182.86
515.47	47398.19
515.64	47941.19
515.81	47550.32
515.99	47955.24
516.16	48308.66
516.33	47800.76
516.51	48210.35
516.68	47906.08
516.85	47732.89
517.03	48149.50
517.20	48456.11
517.37	48254.82
517.54	48559.09
517.72	48353.13
517.89	48353.13
518.06	48924.22
518.24	48861.02
518.41	48507.60
518.58	49120.82
518.75	49001.46
518.93	49097.42
519.10	49034.22
519.27	49476.58
519.45	48971.03
519.62	49221.47
519.79	49401.69
519.96	49759.79
520.14	49712.98
520.31	49776.17
520.48	49579.57
520.65	49972.78
520.83	49855.75
521.00	50075.76
521.17	50024.27
521.34	50387.05
521.52	50546.21
521.69	50358.97
521.86	50499.40
522.03	50660.90
522.20	50864.52
522.38	50871.54
522.55	50883.25
522.72	50958.14
522.89	51091.55
523.07	51208.58
523.24	51311.56
523.41	51309.22
523.58	50979.21
523.75	51372.42
523.92	51084.53
524.10	51576.04
524.27	51681.37
524.44	51456.68
524.61	52051.17
524.78	51763.29
524.96	51796.06
525.13	51819.46
525.30	51576.04
525.47	51920.10
525.64	52133.09
525.81	52299.27
525.98	52203.31
526.16	51964.57
526.33	52271.18
526.50	52708.86
526.67	52385.87
526.84	52484.17
527.01	52397.57
527.18	52533.32
527.36	52615.24
527.53	52601.20
527.70	53219.10
527.87	52781.42
528.04	52701.84
528.21	52608.22
528.38	52748.65
528.55	53003.77
528.72	52987.39
528.89	53303.36
529.07	53258.89
529.24	52956.96
529.41	53235.48
529.58	52837.59
529.75	53345.49
529.92	53034.20
530.09	53207.40
530.26	53481.24
530.43	53773.81
530.60	53460.18
530.77	53581.88
530.94	53785.51
531.11	53464.86
531.28	53656.78
531.46	53787.85
531.63	54059.35
531.80	53991.48
531.97	53986.80
532.14	54000.84
532.31	54045.31
532.48	54059.35
532.65	53883.81
532.82	54017.22
532.99	54272.34
533.16	54457.24
533.33	54471.29
533.50	54518.10
533.67	54777.90
533.84	54447.88
534.01	54419.80
534.18	54300.43
534.35	54625.76
534.52	54609.38
534.69	55047.06
534.86	54798.96
535.03	54384.69
535.20	54983.86
535.37	55182.81
535.54	54831.73
535.71	55016.63
535.88	55002.59
536.05	55084.51
536.22	55145.36
536.38	55206.22
536.55	55632.19
536.72	54974.50
536.89	55138.34
537.06	55498.78
537.23	55248.35
537.40	55327.92
537.57	55487.08
537.74	55213.24
537.91	55655.60
538.08	55798.37
538.25	55571.34
538.42	55515.17
538.59	55662.62
538.75	55571.34
538.92	55578.36
539.09	55882.63
539.26	55910.72
539.43	55587.72
539.60	56095.62
539.77	56137.75
539.94	55941.14
540.11	56002.00
540.28	55908.38
540.44	55882.63
540.61	55835.82
540.78	56257.12
540.95	56219.67
541.12	56285.20
541.29	56322.65
541.46	56327.33
541.62	56226.69
541.79	56149.45
541.96	55990.30
542.13	56336.69
542.30	56437.34
542.47	56760.33
542.63	56563.73
542.80	56451.38
542.97	56652.67
543.14	56816.50
543.31	56545.00
543.48	56519.26
543.64	56835.23
543.81	56935.87
543.98	57048.22
544.15	57041.20
544.32	57118.43
544.48	57350.15
544.65	56849.27
544.82	56755.65
544.99	56765.01
545.16	57092.69
545.32	56954.60
545.49	57329.08
545.66	57511.64
545.83	57169.93
546.00	57427.38
546.16	57247.16
546.33	57029.49
546.50	57207.37
546.67	57446.11
546.83	57167.58
547.00	57530.37
547.17	57382.91
547.34	57467.17
547.50	57359.51
547.67	57733.99
547.84	57471.85
548.00	57722.29
548.17	57832.30
548.34	57427.38
548.51	57944.64
548.67	57855.70
548.84	57836.98
549.01	57794.85
549.18	57588.88
549.34	57682.50
549.51	57848.68
549.68	57682.50
549.84	57731.65
550.01	58033.58
550.18	57731.65
550.34	58066.35
550.51	58134.23
550.68	58164.65
550.84	57982.09
551.01	58010.18
551.18	57975.07
551.34	58028.90
551.51	58213.80
551.68	58314.45
551.84	58277.00
552.01	58174.02
552.18	58300.40
552.34	58131.89
552.51	58426.79
552.68	58309.77
552.84	58298.06
553.01	58599.99
553.18	58447.86
553.34	58377.64
553.51	58387.00
553.67	58553.18
553.84	58927.67
554.01	58602.33
554.17	58607.01
554.34	58693.61
554.51	58599.99
554.67	58768.51
554.84	58581.27
555.00	58731.06
555.17	58885.54
555.33	58595.31
555.50	58557.86
555.67	58897.24
555.83	58979.16
556.00	58808.30
556.16	59037.67
556.33	58798.94
556.50	58850.43
556.66	58915.96
556.83	58820.00
556.99	59178.10
557.16	59229.60
557.32	59004.91
557.49	59086.82
557.65	58838.73
557.82	59009.59
557.98	58820.00
558.15	59058.74
558.32	59068.10
558.48	59351.30
558.65	59220.23
558.81	59063.42
558.98	59150.02
559.14	59269.39
559.31	59271.73
559.47	59316.20
559.64	59501.10
559.80	59419.18
559.97	59292.79
560.13	59290.45
560.30	59124.27
560.46	59428.54
560.63	59337.26
560.79	59253.00
560.96	59250.66
561.12	59416.84
561.29	59086.82
561.45	59461.31
561.61	59536.21
561.78	59543.23
561.94	59681.32
562.11	59428.54
562.27	59564.29
562.44	59440.24
562.60	59405.14
562.77	59489.40
562.93	59461.31
563.10	59849.84
563.26	59664.94
563.42	59938.78
563.59	59667.28
563.75	59721.11
563.92	59763.24
564.08	59700.04
564.24	59578.34
564.41	59810.05
564.57	59739.83
564.74	59519.82
564.90	59648.55
565.07	59906.01
565.23	59863.88
565.39	59875.58
565.56	59936.44
565.72	59540.89
565.88	59662.60
566.05	59571.32
566.21	59840.48
566.38	59730.47
566.54	59807.71
566.70	60067.51
566.87	60135.38
567.03	59765.58
567.19	60182.19
567.36	60168.15
567.52	59742.17
567.68	60111.98
567.85	59700.04
568.01	59777.28
568.17	59948.14
568.34	60055.81
568.50	60046.44
568.66	60336.67
568.83	60046.44
568.99	59943.46
569.15	60140.07
569.32	60081.55
569.48	59861.54
569.64	60191.56
569.81	59931.76
569.97	60013.68
570.13	60271.14
570.30	60114.32
570.46	60020.70
570.62	60130.70
570.78	59964.52
570.95	59908.35
571.11	60027.72
571.27	60142.41
571.43	60039.42
571.60	60329.65
571.76	60329.65
571.92	60137.72
572.09	60402.21
572.25	60086.23
572.41	60203.26
572.57	60324.97
572.74	60214.96
572.90	60254.75
573.06	60102.62
573.22	60016.02
573.38	60378.80
573.55	60371.78
573.71	60566.04
573.87	60629.24
574.03	60285.18
574.20	60360.08
574.36	60254.75
574.52	60137.72
574.68	60339.01
574.84	60182.19
575.01	60343.69
575.17	60385.82
575.33	60434.97
575.49	60343.69
575.65	60633.92
575.82	60451.36
575.98	60322.63
576.14	60559.02
576.30	60364.76
576.46	60254.75
576.62	60308.58
576.79	60161.13
576.95	60154.11
577.11	60477.10
577.27	60477.10
577.43	60514.55
577.59	60423.27
577.75	60243.05
577.92	60154.11
578.08	60172.83
578.24	60142.41
578.40	60317.95
578.56	60430.29
578.72	60303.90
578.88	60718.18
579.04	60566.04
579.21	60549.66
579.37	60406.89
579.53	60589.45
579.69	60128.36
579.85	60575.40
580.01	60500.51
580.17	60486.46
580.33	60533.28
580.49	60528.59
580.65	60629.24
580.82	60636.26
580.98	60458.38
581.14	60598.81
581.30	60566.04
581.46	60528.59
581.62	60449.02
581.78	60315.61
581.94	60673.71
582.10	60458.38
582.26	60781.37
582.42	60657.32
582.58	60540.30
582.74	60722.86
582.90	60741.58
583.06	60608.17
583.22	60535.62
583.38	60594.13
583.54	60526.25
583.70	60395.18
583.86	60523.91
584.02	60488.80
584.18	60856.27
584.34	60556.68
584.50	60734.56
584.66	60718.18
584.82	60257.09
584.98	60633.92
585.14	60542.64
585.30	60507.53
585.46	60540.30
585.62	60549.66
585.78	60818.82
585.94	60210.28
586.10	60514.55
586.26	60498.17
586.42	60699.45
586.58	60905.42
586.74	60734.56
586.90	60727.54
587.06	60750.94
587.22	60690.09
587.38	60647.96
587.54	60811.80
587.70	60959.25
587.86	60856.27
588.02	60706.47
588.18	60835.20
588.34	60556.68
588.49	60732.22
588.65	60699.45
588.81	60669.03
588.97	60687.75
589.13	60846.91
