SpectraSuite Data File
++++++++++++++++++++++++++++++++++++
Date: Fri Oct 04 11:48:33 GMT-05:00 2013
User: price-jones
Dark Spectrum Present: No
Reference Spectrum Present: No
Number of Sampled Component Spectra: 1
Spectrometers: USB2+H05261
Integration Time (usec): 100000 (USB2+H05261)
Spectra Averaged: 1 (USB2+H05261)
Boxcar Smoothing: 0 (USB2+H05261)
Correct for Electrical Dark: No (USB2+H05261)
Strobe/Lamp Enabled: No (USB2+H05261)
Correct for Detector Non-linearity: No (USB2+H05261)
Correct for Stray Light: No (USB2+H05261)
Number of Pixels in Processed Spectrum: 2048
>>>>>Begin Processed Spectral Data<<<<<
365.73	44.47
365.92	44.47
366.12	44.47
366.32	0.00
366.52	0.00
366.72	0.00
366.91	0.00
367.11	0.00
367.31	0.00
367.51	0.00
367.70	0.00
367.90	0.00
368.10	0.00
368.30	0.00
368.49	0.00
368.69	0.00
368.89	0.00
369.09	0.00
369.28	0.00
369.48	0.00
369.68	0.00
369.87	0.00
370.07	0.00
370.27	0.00
370.47	227.03
370.66	550.03
370.86	547.69
371.06	564.07
371.25	554.71
371.45	622.58
371.65	660.03
371.84	636.63
372.04	557.05
372.24	653.01
372.44	657.69
372.63	725.57
372.83	770.04
373.03	709.18
373.22	709.18
373.42	667.05
373.62	732.59
373.81	767.70
374.01	828.55
374.21	882.38
374.40	765.36
374.60	781.74
374.79	828.55
374.99	683.44
375.19	732.59
375.38	812.17
375.58	873.02
375.78	840.25
375.97	837.91
376.17	959.62
376.37	1013.45
376.56	861.32
376.76	901.11
376.95	943.24
377.15	919.83
377.35	973.66
377.54	851.96
377.74	882.38
377.93	926.85
378.13	894.08
378.33	931.53
378.52	966.64
378.72	919.83
378.91	1055.58
379.11	1011.11
379.31	1050.90
379.50	1025.15
379.70	1055.58
379.89	1053.24
380.09	987.71
380.28	966.64
380.48	1041.54
380.68	1020.47
380.87	1071.97
381.07	1097.71
381.26	1153.88
381.46	1128.14
381.65	1071.97
381.85	1048.56
382.04	1013.45
382.24	1071.97
382.43	1090.69
382.63	1114.10
382.83	1226.44
383.02	1135.16
383.22	1160.91
383.41	1158.57
383.61	1214.74
383.80	1165.59
384.00	1259.21
384.19	1235.80
384.39	1273.25
384.58	1167.93
384.78	1163.25
384.97	1263.89
385.17	1282.61
385.36	1299.00
385.56	1350.49
385.75	1284.95
385.95	1245.16
386.14	1394.96
386.34	1357.51
386.53	1287.29
386.72	1441.77
386.92	1460.49
387.11	1380.92
387.31	1416.02
387.50	1376.24
387.70	1465.18
387.89	1411.34
388.09	1413.68
388.28	1427.73
388.48	1467.52
388.67	1490.92
388.86	1500.28
389.06	1544.75
389.25	1511.99
389.45	1488.58
389.64	1474.54
389.84	1551.78
390.03	1575.18
390.22	1652.42
390.42	1582.20
390.61	1565.82
390.81	1584.54
391.00	1589.22
391.19	1685.19
391.39	1619.65
391.58	1710.93
391.78	1682.85
391.97	1760.08
392.16	1624.33
392.36	1797.53
392.55	1743.70
392.75	1788.17
392.94	1767.10
393.13	1818.60
393.33	1774.13
393.52	1844.34
393.71	1877.11
393.91	1750.72
394.10	1811.57
394.29	1813.92
394.49	2010.52
394.68	1830.30
394.88	2012.86
395.07	2033.93
395.26	1881.79
395.46	2012.86
395.65	1952.01
395.84	1977.75
396.04	2026.90
396.23	2022.22
396.42	2085.42
396.62	2153.29
396.81	1989.46
397.00	2186.06
397.19	2132.23
397.39	2092.44
397.58	2101.80
397.77	2125.21
397.97	2104.14
398.16	2165.00
398.35	2181.38
398.55	2230.53
398.74	2237.55
398.93	2349.90
399.12	2272.66
399.32	2181.38
399.51	2471.61
399.70	2403.73
399.90	2321.81
400.09	2338.20
400.28	2459.90
400.47	2518.42
400.67	2487.99
400.86	2574.59
401.05	2469.27
401.24	2511.39
401.44	2621.40
401.63	2595.65
401.82	2478.63
402.01	2586.29
402.21	2710.34
402.40	2658.85
402.59	2654.17
402.78	2689.28
402.97	2799.28
403.17	2850.77
403.36	2789.92
403.55	2822.69
403.74	2925.67
403.93	2869.50
404.13	2909.29
404.32	2864.82
404.51	2832.05
404.70	3000.57
404.89	2862.48
405.09	3075.46
405.28	2939.71
405.47	3103.55
405.66	2930.35
405.85	3047.38
406.05	3023.97
406.24	3103.55
406.43	3185.47
406.62	3173.77
406.81	3290.79
407.00	3197.17
407.20	3143.34
407.39	3279.09
407.58	3363.35
407.77	3365.69
407.96	3396.12
408.15	3337.60
408.34	3286.11
408.54	3494.42
408.73	3478.04
408.92	3557.61
409.11	3557.61
409.30	3478.04
409.49	3597.40
409.68	3501.44
409.87	3616.13
410.07	3639.53
410.26	3630.17
410.45	3726.13
410.64	3737.84
410.83	3824.44
411.02	3829.12
411.21	3950.82
411.40	3810.39
411.59	3868.91
411.78	3843.16
411.98	3838.48
412.17	4072.53
412.36	3995.29
412.55	4222.33
412.74	4210.62
412.93	4301.90
413.12	4264.46
413.31	4372.12
413.50	4145.09
413.69	4372.12
413.88	4400.21
414.07	4599.15
414.26	4545.32
414.45	4383.82
414.64	4533.62
414.83	4706.82
415.02	4552.34
415.22	4751.29
415.41	4781.71
415.60	4760.65
415.79	4737.24
415.98	4950.23
416.17	4922.15
416.36	4910.44
416.55	5015.77
416.74	5001.72
416.93	5062.58
417.12	5078.96
417.31	5282.59
417.50	5008.75
417.69	5266.21
417.88	5451.11
418.07	5219.39
418.26	5289.61
418.45	5331.74
418.64	5516.64
418.83	5631.33
419.02	5497.92
419.21	5633.67
419.39	5696.86
419.58	5509.62
419.77	5724.95
419.96	5640.69
420.15	5701.54
420.34	5621.97
420.53	5727.29
420.72	5802.19
420.91	5774.10
421.10	5872.40
421.29	5900.49
421.48	5731.97
421.67	6010.50
421.86	6167.31
422.05	6101.78
422.24	5973.05
422.43	6059.65
422.61	6061.99
422.80	6277.32
422.99	5998.79
423.18	6045.60
423.37	6171.99
423.56	6104.12
423.75	6026.88
423.94	6237.53
424.13	5617.29
424.32	5783.46
424.50	6122.84
424.69	6246.89
424.88	6331.15
425.07	6108.80
425.26	6263.27
425.45	6181.35
425.64	6015.18
425.83	6207.10
426.01	6237.53
426.20	6179.01
426.39	6333.49
426.58	6307.74
426.77	6307.74
426.96	6300.72
427.15	6319.45
427.33	6551.16
427.52	6267.95
427.71	6506.69
427.90	6520.73
428.09	6483.28
428.28	6724.36
428.46	6558.18
428.65	6752.45
428.84	6918.62
429.03	6920.96
429.22	6623.72
429.40	6719.68
429.59	6782.87
429.78	6647.12
429.97	6537.12
430.16	6754.79
430.34	7047.35
430.53	7103.53
430.72	7152.68
430.91	7035.65
431.10	6888.20
431.28	7197.15
431.47	7255.66
431.66	7452.27
431.85	7115.23
432.03	7346.94
432.22	7431.20
432.41	7438.22
432.60	7552.91
432.79	7442.90
432.97	7452.27
433.16	7480.35
433.35	7534.18
433.54	7744.83
433.72	7595.04
433.91	7480.35
434.10	7669.94
434.28	7651.21
434.47	7903.99
434.66	7646.53
434.85	7826.75
435.03	7889.95
435.22	7812.71
435.41	8201.24
435.59	8030.38
435.78	7990.59
435.97	8046.76
436.16	8283.16
436.34	7985.91
436.53	8219.96
436.72	8351.03
436.90	8105.28
437.09	8437.63
437.28	8285.50
437.46	8318.26
437.65	8514.87
437.84	8341.67
438.02	8395.50
438.21	8528.91
438.40	8320.60
438.58	8744.24
438.77	8858.93
438.96	8730.20
439.14	8980.64
439.33	8856.59
439.52	9130.43
439.70	9036.81
439.89	9132.77
440.08	9259.16
440.26	9226.39
440.45	9163.20
440.63	9198.31
440.82	9493.21
441.01	9441.72
441.19	9767.06
441.38	9654.71
441.57	9753.01
441.75	9806.84
441.94	10040.90
442.12	9977.70
442.31	9994.09
442.50	10174.31
442.68	9844.29
442.87	10326.44
443.05	10361.55
443.24	10274.95
443.43	10293.68
443.61	10312.40
443.80	10654.12
443.98	10312.40
444.17	10218.78
444.35	10438.79
444.54	10501.98
444.73	10443.47
444.91	10415.38
445.10	10490.28
445.28	10516.03
445.47	10478.58
445.65	10590.92
445.84	10555.82
446.02	10729.02
446.21	10567.52
446.39	10588.58
446.58	10813.28
446.77	10703.27
446.95	10595.61
447.14	10775.83
447.32	10822.64
447.51	10726.68
447.69	10953.71
447.88	10853.06
448.06	10757.10
448.25	10689.23
448.43	10782.85
448.62	10607.31
448.80	10853.06
448.99	10923.28
449.17	11014.56
449.36	11016.90
449.54	11241.59
449.73	11309.47
449.91	11281.38
450.10	11304.79
450.28	11424.15
450.46	11386.71
450.65	11382.03
450.83	11585.65
451.02	11548.20
451.20	11648.85
451.39	11742.47
451.57	11592.67
451.76	11566.93
451.94	11595.01
452.13	11826.73
452.31	11557.57
452.49	11627.78
452.68	11918.01
452.86	11901.62
453.05	12032.69
453.23	12119.29
453.42	11864.18
453.60	12105.25
453.78	12161.42
453.97	11925.03
454.15	12086.53
454.34	12269.09
454.52	12425.90
454.70	12163.76
454.89	12339.30
455.07	12262.07
455.26	12367.39
455.44	12540.59
455.62	12498.46
455.81	12428.24
455.99	12765.28
456.17	12706.77
456.36	12809.75
456.54	12791.03
456.73	12968.91
456.91	13362.12
457.09	13422.97
457.28	13434.68
457.46	13315.31
457.64	13507.23
457.83	13296.58
458.01	13343.39
458.19	13523.62
458.38	13392.55
458.56	13603.19
458.74	13717.88
458.93	13542.34
459.11	13802.14
459.29	13799.80
459.48	13806.82
459.66	13540.00
459.84	13870.01
460.03	13862.99
460.21	14125.13
460.39	14064.28
460.57	13870.01
460.76	14218.75
460.94	14441.11
461.12	14188.33
461.31	14113.43
461.49	14204.71
461.67	14059.60
461.85	14539.41
462.04	14572.18
462.22	15110.50
462.40	14527.71
462.59	14633.03
462.77	14539.41
462.95	14644.73
463.13	15026.24
463.32	15009.86
463.50	14869.42
463.68	15119.86
463.86	14939.64
464.05	14834.32
464.23	14883.47
464.41	15185.40
464.59	14817.93
464.78	15358.60
464.96	15283.70
465.14	15075.39
465.32	15552.86
465.50	15475.62
465.69	15293.06
465.87	15524.77
466.05	15552.86
466.23	15363.28
466.41	15634.78
466.60	16077.14
466.78	15534.14
466.96	15592.65
467.14	15536.48
467.32	15810.32
467.51	15800.96
467.69	15545.84
467.87	15946.07
468.05	16156.72
468.23	15955.43
468.41	16006.92
468.60	16081.82
468.78	16187.14
468.96	16107.57
469.14	16224.59
469.32	16301.83
469.50	16119.27
469.69	16720.79
469.87	16725.47
470.05	16762.92
470.23	16779.30
470.41	16746.53
470.59	17085.91
470.77	16786.32
470.95	17156.13
471.14	17497.84
471.32	17015.69
471.50	17106.98
471.68	17404.22
471.86	17525.93
472.04	17530.61
472.22	17841.90
472.40	17432.31
472.58	17928.50
472.77	17860.63
472.95	18071.28
473.13	18508.96
473.31	17984.68
473.49	18061.91
473.67	18279.58
473.85	18097.02
474.03	18541.72
474.21	18508.96
474.39	18956.00
474.57	18785.14
474.75	19215.80
474.93	19257.93
475.12	19145.58
475.30	19007.49
475.48	19447.51
475.66	19555.18
475.84	19473.26
476.02	20046.69
476.20	19946.05
476.38	20018.60
476.56	20482.03
476.74	20486.71
476.92	20507.77
477.10	20458.62
477.28	20908.01
477.46	20622.46
477.64	20809.70
477.82	21507.18
478.00	21715.49
478.18	21860.60
478.36	21937.84
478.54	21975.29
478.72	22228.07
478.90	22478.50
479.08	22532.34
479.26	22609.58
479.44	22836.61
479.62	23108.11
479.80	23325.78
479.98	23421.74
480.16	23892.19
480.34	23283.65
480.52	23674.52
480.70	24247.95
480.88	23850.06
481.06	24133.26
481.24	23854.74
481.41	24783.93
481.59	25057.78
481.77	24973.52
481.95	25261.40
482.13	25214.59
482.31	25549.29
482.49	26218.68
482.67	25979.95
482.85	26354.43
483.03	26368.48
483.21	27178.30
483.39	27070.64
483.57	26909.14
483.74	26932.54
483.92	27821.95
484.10	27592.58
484.28	28013.87
484.46	28617.73
484.64	29305.85
484.82	28311.12
485.00	28748.80
485.18	29551.60
485.35	29530.54
485.53	29638.20
485.71	29923.75
485.89	30614.21
486.07	29881.62
486.25	30057.16
486.43	30546.33
486.61	30752.30
486.78	31295.30
486.96	31442.76
487.14	31784.48
487.32	31611.28
487.50	32381.31
487.68	32278.33
487.85	32774.52
488.03	33156.03
488.21	33069.43
488.39	33139.65
488.57	33862.87
488.75	33699.03
488.92	34082.88
489.10	34611.84
489.28	34478.43
489.46	35002.71
489.64	34953.56
489.81	35819.56
489.99	35920.20
490.17	35950.63
490.35	36622.36
490.53	36116.81
490.70	36715.98
490.88	37123.24
491.06	37570.28
491.24	37148.98
491.41	36818.97
491.59	37635.81
491.77	37895.61
491.95	38157.75
492.13	38440.96
492.30	38885.66
492.48	38878.64
492.66	39063.54
492.84	39166.52
493.01	39669.74
493.19	39796.13
493.37	39966.99
493.54	40006.78
493.72	40297.00
493.90	40240.83
494.08	41200.45
494.25	41254.28
494.43	41221.52
494.61	41603.02
494.79	42277.10
494.96	41832.39
495.14	42546.26
495.32	42323.91
495.49	42415.19
495.67	42424.55
495.85	43201.61
496.02	43152.46
496.20	43676.74
496.38	43604.18
496.55	44105.06
496.73	44568.48
496.91	44112.08
497.09	44624.65
497.26	45251.92
497.44	44655.08
497.62	44800.19
497.79	45638.11
497.97	45319.79
498.14	45778.54
498.32	46134.30
498.50	46066.42
498.67	46717.09
498.85	46082.81
499.03	46803.69
499.20	46869.23
499.38	46923.06
499.56	47171.16
499.73	47234.35
499.91	47669.69
500.08	47786.72
500.26	47337.33
500.44	47852.25
500.61	47927.15
500.79	48140.14
500.97	48486.54
501.14	49106.78
501.32	49081.03
501.49	48720.59
501.67	48898.47
501.84	49296.36
502.02	49298.70
502.20	49308.07
502.37	50120.23
502.55	49570.21
502.72	49677.87
502.90	49902.56
503.07	49780.85
503.25	49970.44
503.43	50183.43
503.60	50124.91
503.78	50277.05
503.95	50733.45
504.13	50499.40
504.30	50651.53
504.48	50653.87
504.65	50965.17
504.83	51084.53
505.01	51971.60
505.18	51166.45
505.36	51597.11
505.53	51246.03
505.71	51681.37
505.88	51737.54
506.06	51660.30
506.23	51959.89
506.41	51955.21
506.58	52119.05
506.76	52303.95
506.93	52449.06
507.11	52130.75
507.28	52549.71
507.46	52968.66
507.63	52811.85
507.81	53045.90
507.98	52837.59
508.16	52935.90
508.33	52938.24
508.50	53123.14
508.68	53392.30
508.85	53649.76
509.03	53366.55
509.20	53792.53
509.38	53792.53
509.55	53375.92
509.73	53797.21
509.90	54031.27
510.08	54188.08
510.25	54164.68
510.42	54295.75
510.60	54642.15
510.77	54511.08
510.95	54653.85
511.12	54480.65
511.30	54674.91
511.47	54747.47
511.64	54878.54
511.82	54939.39
511.99	55002.59
512.17	55386.44
512.34	55075.15
512.51	55140.68
512.69	55201.53
512.86	55292.82
513.04	55803.05
513.21	55618.15
513.38	55831.14
513.56	55683.69
513.73	55789.01
513.90	55772.63
514.08	55611.13
514.25	56144.77
514.43	56250.09
514.60	56100.30
514.77	56119.02
514.95	56320.31
515.12	56104.98
515.29	56404.57
515.47	56568.41
515.64	56678.41
515.81	56528.62
515.99	56736.93
516.16	57055.24
516.33	56910.13
516.51	57027.15
516.68	56683.09
516.85	57006.09
517.03	57186.31
517.20	57289.29
517.37	57450.79
517.54	57366.53
517.72	57209.71
517.89	57296.31
518.06	57296.31
518.24	57406.32
518.41	57403.98
518.58	57509.30
518.75	57675.48
518.93	57853.36
519.10	57612.29
519.27	57731.65
519.45	57771.44
519.62	57986.77
519.79	57829.96
519.96	58099.12
520.14	58078.05
520.31	58150.61
520.48	58183.38
520.65	58021.88
520.83	58204.44
521.00	58461.90
521.17	58356.58
521.34	58405.73
521.52	58532.12
521.69	58585.95
521.86	58665.53
522.03	58728.72
522.20	58876.18
522.38	58944.05
522.55	58665.53
522.72	58733.40
522.89	58843.41
523.07	59299.81
523.24	59348.96
523.41	59255.34
523.58	58930.01
523.75	59283.43
523.92	59262.36
524.10	59295.13
524.27	59519.82
524.44	59620.47
524.61	59763.24
524.78	59676.64
524.96	59695.36
525.13	59615.79
525.30	59767.92
525.47	59835.80
525.64	59725.79
525.81	59964.52
525.98	60111.98
526.16	59980.91
526.33	60058.15
526.50	60121.34
526.67	59952.82
526.84	60184.54
527.01	59803.03
527.18	60191.56
527.36	60493.49
527.53	60355.39
527.70	60451.36
527.87	60533.28
528.04	60388.16
528.21	60509.87
528.38	60423.27
528.55	60732.22
528.72	60619.88
528.89	60676.05
529.07	60631.58
529.24	60680.73
529.41	61109.05
529.58	60692.43
529.75	60645.62
529.92	60802.44
530.09	60839.89
530.26	60961.59
530.43	61048.19
530.60	61020.11
530.77	60926.49
530.94	61151.18
531.11	61031.81
531.28	61162.88
531.46	61315.01
531.63	61286.93
531.80	61399.27
531.97	61413.32
532.14	61467.15
532.31	61291.61
532.48	61434.38
532.65	61546.73
532.82	61317.35
532.99	61572.47
533.16	61455.45
533.33	61705.88
533.50	61808.87
533.67	61818.23
533.84	61652.05
534.01	61825.25
534.18	61528.00
534.35	61691.84
534.52	61858.02
534.69	62017.17
534.86	62258.25
535.03	61900.15
535.20	61963.34
535.37	61907.17
535.54	62110.80
535.71	62007.81
535.88	62108.46
536.05	62014.83
536.22	62185.69
536.38	62438.47
536.55	62501.67
536.72	62372.94
536.89	62309.74
537.06	62312.08
537.23	62405.70
537.40	62192.72
537.57	62410.38
537.74	62504.01
537.91	62618.69
538.08	62606.99
538.25	62623.37
538.42	62539.11
538.59	62501.67
538.75	62518.05
538.92	62564.86
539.09	62747.42
539.26	63004.88
539.43	62817.64
539.60	62866.79
539.77	62754.44
539.94	63049.35
540.11	62864.45
540.28	63044.67
540.44	62911.26
540.61	63096.16
540.78	63025.95
540.95	62897.22
541.12	63316.17
541.29	63166.38
541.46	63152.33
541.62	63147.65
541.79	63117.23
541.96	63112.55
542.13	63032.97
542.30	63297.45
542.47	63402.77
542.63	63547.89
542.80	63524.48
542.97	63711.72
543.14	63622.78
543.31	63505.76
543.48	63491.71
543.64	63917.69
543.81	63831.09
543.98	63795.98
544.15	63973.86
544.32	63962.16
544.48	64233.66
544.65	63711.72
544.82	63833.43
544.99	63561.93
545.16	63931.73
545.32	64013.65
545.49	64121.32
545.66	64175.15
545.83	64282.81
546.00	64346.01
546.16	64140.04
546.33	63992.59
546.50	63938.75
546.67	64156.42
546.83	64097.91
547.00	64292.18
547.17	64364.73
547.34	64228.98
547.50	64404.52
547.67	64441.97
547.84	64193.87
548.00	64371.75
548.17	64427.93
548.34	64479.42
548.51	64596.45
548.67	64542.61
548.84	64617.51
549.01	64547.29
549.18	64294.52
549.34	64725.17
549.51	64633.89
549.68	64657.30
549.84	64591.76
550.01	64573.04
550.18	64596.45
550.34	64769.64
550.51	64907.74
550.68	64769.64
550.84	64664.32
551.01	64891.35
551.18	64626.87
551.34	64690.07
551.51	64881.99
551.68	65085.62
551.84	64977.95
552.01	64903.06
552.18	64989.66
552.34	64896.03
552.51	64818.80
552.68	64788.37
552.84	65031.78
553.01	65066.89
553.18	65078.60
553.34	65303.29
553.51	65090.30
553.67	65148.81
553.84	65406.27
554.01	65443.72
554.17	65319.67
554.34	65186.26
554.51	65263.50
554.67	65261.16
554.84	65467.12
555.00	65401.59
555.17	65424.99
555.33	65331.37
555.50	65497.55
555.67	65385.21
555.83	65396.91
556.00	65535.00
556.16	65535.00
556.33	65535.00
556.50	65527.98
556.66	65535.00
556.83	65403.93
556.99	65535.00
557.16	65535.00
557.32	65535.00
557.49	65535.00
557.65	65499.89
557.82	65481.17
557.98	65535.00
558.15	65535.00
558.32	65535.00
558.48	65535.00
558.65	65535.00
558.81	65535.00
558.98	65535.00
559.14	65535.00
559.31	65535.00
559.47	65535.00
559.64	65535.00
559.80	65535.00
559.97	65535.00
560.13	65535.00
560.30	65535.00
560.46	65535.00
560.63	65535.00
560.79	65535.00
560.96	65535.00
561.12	65535.00
561.29	65535.00
561.45	65535.00
561.61	65535.00
561.78	65535.00
561.94	65535.00
562.11	65535.00
562.27	65535.00
562.44	65535.00
562.60	65535.00
562.77	65535.00
562.93	65535.00
563.10	65535.00
563.26	65535.00
563.42	65535.00
563.59	65535.00
563.75	65535.00
563.92	65535.00
564.08	65535.00
564.24	65535.00
564.41	65535.00
564.57	65535.00
564.74	65535.00
564.90	65535.00
565.07	65535.00
565.23	65535.00
565.39	65535.00
565.56	65535.00
565.72	65535.00
565.88	65535.00
566.05	65535.00
566.21	65535.00
566.38	65535.00
566.54	65535.00
566.70	65535.00
566.87	65535.00
567.03	65535.00
567.19	65535.00
567.36	65535.00
567.52	65535.00
567.68	65535.00
567.85	65535.00
568.01	65535.00
568.17	65535.00
568.34	65535.00
568.50	65535.00
568.66	65535.00
568.83	65535.00
568.99	65535.00
569.15	65535.00
569.32	65535.00
569.48	65535.00
569.64	65535.00
569.81	65535.00
569.97	65535.00
570.13	65535.00
570.30	65535.00
570.46	65535.00
570.62	65535.00
570.78	65535.00
570.95	65535.00
571.11	65535.00
571.27	65535.00
571.43	65535.00
571.60	65535.00
571.76	65535.00
571.92	65535.00
572.09	65535.00
572.25	65535.00
572.41	65535.00
572.57	65535.00
572.74	65535.00
572.90	65535.00
573.06	65535.00
573.22	65535.00
573.38	65535.00
573.55	65535.00
573.71	65535.00
573.87	65535.00
574.03	65535.00
574.20	65535.00
574.36	65535.00
574.52	65535.00
574.68	65535.00
574.84	65535.00
575.01	65535.00
575.17	65535.00
575.33	65535.00
575.49	65535.00
575.65	65535.00
575.82	65535.00
575.98	65535.00
576.14	65535.00
576.30	65535.00
576.46	65535.00
576.62	65535.00
576.79	65535.00
576.95	65535.00
577.11	65535.00
577.27	65535.00
577.43	65535.00
577.59	65535.00
577.75	65535.00
577.92	65535.00
578.08	65535.00
578.24	65535.00
578.40	65535.00
578.56	65535.00
578.72	65535.00
578.88	65535.00
579.04	65535.00
579.21	65535.00
579.37	65535.00
579.53	65535.00
579.69	65535.00
579.85	65535.00
580.01	65535.00
580.17	65535.00
580.33	65535.00
580.49	65535.00
580.65	65535.00
580.82	65535.00
580.98	65535.00
581.14	65535.00
581.30	65535.00
581.46	65535.00
581.62	65535.00
581.78	65535.00
581.94	65535.00
582.10	65535.00
582.26	65535.00
582.42	65535.00
582.58	65535.00
582.74	65535.00
582.90	65535.00
583.06	65535.00
583.22	65535.00
583.38	65535.00
583.54	65535.00
583.70	65535.00
583.86	65535.00
584.02	65535.00
584.18	65535.00
584.34	65535.00
584.50	65535.00
584.66	65535.00
584.82	65535.00
584.98	65535.00
585.14	65535.00
585.30	65535.00
585.46	65535.00
585.62	65535.00
585.78	65535.00
585.94	65535.00
586.10	65535.00
586.26	65535.00
586.42	65535.00
586.58	65535.00
586.74	65535.00
586.90	65535.00
587.06	65535.00
587.22	65535.00
587.38	65535.00
587.54	65535.00
587.70	65535.00
587.86	65535.00
588.02	65535.00
