SpectraSuite Data File
++++++++++++++++++++++++++++++++++++
Date: Fri Oct 04 11:48:47 GMT-05:00 2013
User: price-jones
Dark Spectrum Present: No
Reference Spectrum Present: No
Number of Sampled Component Spectra: 1
Spectrometers: USB2+H05261
Integration Time (usec): 100000 (USB2+H05261)
Spectra Averaged: 1 (USB2+H05261)
Boxcar Smoothing: 0 (USB2+H05261)
Correct for Electrical Dark: No (USB2+H05261)
Strobe/Lamp Enabled: No (USB2+H05261)
Correct for Detector Non-linearity: No (USB2+H05261)
Correct for Stray Light: No (USB2+H05261)
Number of Pixels in Processed Spectrum: 2048
>>>>>Begin Processed Spectral Data<<<<<
365.73	77.24
365.92	77.24
366.12	77.24
366.32	0.00
366.52	0.00
366.72	0.00
366.91	0.00
367.11	0.00
367.31	0.00
367.51	0.00
367.70	0.00
367.90	0.00
368.10	0.00
368.30	60.85
368.49	0.00
368.69	0.00
368.89	0.00
369.09	0.00
369.28	0.00
369.48	0.00
369.68	0.00
369.87	0.00
370.07	0.00
370.27	46.81
370.47	81.92
370.66	393.21
370.86	470.45
371.06	512.58
371.25	526.62
371.45	409.59
371.65	559.39
371.84	475.13
372.04	479.81
372.24	521.94
372.44	533.64
372.63	535.98
372.83	688.12
373.03	620.24
373.22	475.13
373.42	526.62
373.62	671.73
373.81	660.03
374.01	697.48
374.21	734.93
374.40	610.88
374.60	758.33
374.79	615.56
374.99	716.20
375.19	610.88
375.38	601.52
375.58	645.99
375.78	683.44
375.97	660.03
376.17	706.84
376.37	617.90
376.56	755.99
376.76	753.65
376.95	667.05
377.15	730.25
377.35	744.29
377.54	697.48
377.74	723.23
377.93	699.82
378.13	730.25
378.33	814.51
378.52	816.85
378.72	802.80
378.91	784.08
379.11	734.93
379.31	781.74
379.50	786.42
379.70	772.38
379.89	833.23
380.09	905.79
380.28	798.12
380.48	861.32
380.68	798.12
380.87	814.51
381.07	861.32
381.26	833.23
381.46	819.19
381.65	915.15
381.85	877.70
382.04	936.21
382.24	903.45
382.43	931.53
382.63	884.72
382.83	877.70
383.02	994.73
383.22	983.02
383.41	924.51
383.61	968.98
383.80	976.00
384.00	985.37
384.19	954.94
384.39	999.41
384.58	894.08
384.78	1025.15
384.97	1067.28
385.17	933.87
385.36	1006.43
385.56	931.53
385.75	947.92
385.95	1004.09
386.14	987.71
386.34	1032.18
386.53	985.37
386.72	983.02
386.92	1050.90
387.11	1207.72
387.31	1245.16
387.50	1100.05
387.70	1142.18
387.89	1139.84
388.09	1114.10
388.28	1121.12
388.48	1221.76
388.67	1200.69
388.86	1177.29
389.06	1172.61
389.25	1174.95
389.45	1177.29
389.64	1174.95
389.84	1221.76
390.03	1247.51
390.22	1210.06
390.42	1268.57
390.61	1273.25
390.81	1277.93
391.00	1266.23
391.19	1273.25
391.39	1352.83
391.58	1378.58
391.78	1324.74
391.97	1418.36
392.16	1385.60
392.36	1371.55
392.55	1441.77
392.75	1357.51
392.94	1469.86
393.13	1352.83
393.33	1568.16
393.52	1432.41
393.71	1465.18
393.91	1551.78
394.10	1502.62
394.29	1481.56
394.49	1441.77
394.68	1514.33
394.88	1511.99
395.07	1572.84
395.26	1572.84
395.46	1556.46
395.65	1570.50
395.84	1533.05
396.04	1722.63
396.23	1724.97
396.42	1724.97
396.62	1734.34
396.81	1680.50
397.00	1689.87
397.19	1614.97
397.39	1668.80
397.58	1664.12
397.77	1678.16
397.97	1799.87
398.16	1778.81
398.35	1849.02
398.55	1799.87
398.74	1900.52
398.93	1947.33
399.12	1842.00
399.32	1842.00
399.51	1865.41
399.70	1970.73
399.90	1827.96
400.09	1937.96
400.28	1940.30
400.47	1959.03
400.67	1991.80
400.86	2059.67
401.05	1982.43
401.24	1954.35
401.44	2054.99
401.63	2125.21
401.82	2047.97
402.01	2094.78
402.21	2113.50
402.40	2106.48
402.59	2125.21
402.78	2155.63
402.97	2104.14
403.17	2214.15
403.36	2076.06
403.55	2249.25
403.74	2253.94
403.93	2363.94
404.13	2277.34
404.32	2258.62
404.51	2214.15
404.70	2408.41
404.89	2373.30
405.09	2457.56
405.28	2450.54
405.47	2443.52
405.66	2506.71
405.85	2537.14
406.05	2466.92
406.24	2530.12
406.43	2546.50
406.62	2675.23
406.81	2724.38
407.00	2597.99
407.20	2525.44
407.39	2621.40
407.58	2691.62
407.77	2773.53
407.96	2607.36
408.15	2773.53
408.34	2799.28
408.54	2780.56
408.73	2925.67
408.92	2815.66
409.11	2995.89
409.30	2902.26
409.49	2937.37
409.68	2897.58
409.87	2867.16
410.07	3012.27
410.26	2993.55
410.45	3007.59
410.64	2958.44
410.83	3108.23
411.02	3061.42
411.21	3243.98
411.40	3159.72
411.59	3178.45
411.78	3222.92
411.98	3227.60
412.17	3386.76
412.36	3346.97
412.55	3269.73
412.74	3438.25
412.93	3494.42
413.12	3466.33
413.31	3730.81
413.50	3492.08
413.69	3517.83
413.88	3688.68
414.07	3599.74
414.26	3782.31
414.45	3810.39
414.64	3805.71
414.83	3691.02
415.02	3765.92
415.22	3957.85
415.41	3953.16
415.60	3995.29
415.79	4004.66
415.98	4063.17
416.17	4201.26
416.36	4081.89
416.55	4252.75
416.74	4166.15
416.93	4184.88
417.12	4159.13
417.31	4156.79
417.50	4198.92
417.69	4393.19
417.88	4283.18
418.07	4285.52
418.26	4299.56
418.45	4437.66
418.64	4547.66
418.83	4631.92
419.02	4620.22
419.21	4585.11
419.39	4645.96
419.58	4557.02
419.77	4599.15
419.96	4505.53
420.15	4706.82
420.34	4601.49
420.53	4739.58
420.72	4877.68
420.91	4894.06
421.10	4901.08
421.29	5027.47
421.48	4758.31
421.67	4898.74
421.86	5008.75
422.05	5027.47
422.24	4915.12
422.43	5034.49
422.61	5149.18
422.80	5008.75
422.99	5125.77
423.18	5093.01
423.37	5142.16
423.56	5123.43
423.75	5132.79
423.94	5039.17
424.13	4793.42
424.32	4840.23
424.50	5078.96
424.69	5310.68
424.88	5181.95
425.07	4999.38
425.26	5146.84
425.45	5100.03
425.64	5132.79
425.83	5132.79
426.01	5144.50
426.20	5158.54
426.39	5142.16
426.58	5200.67
426.77	5303.65
426.96	5233.44
427.15	5193.65
427.33	5259.18
427.52	5298.97
427.71	5462.81
427.90	5579.84
428.09	5600.90
428.28	5631.33
428.46	5708.57
428.65	5612.60
428.84	5540.05
429.03	5551.75
429.22	5596.22
429.40	5783.46
429.59	5849.00
429.78	5397.28
429.97	5504.94
430.16	5497.92
430.34	5806.87
430.53	5888.79
430.72	5778.78
430.91	5844.32
431.10	5778.78
431.28	5893.47
431.47	5926.24
431.66	6047.94
431.85	5907.51
432.03	6090.07
432.22	6267.95
432.41	6087.73
432.60	6272.64
432.79	6029.22
432.97	6064.33
433.16	6305.40
433.35	6232.85
433.54	6373.28
433.72	6394.34
433.91	6176.67
434.10	6415.41
434.28	6345.19
434.47	6354.55
434.66	6431.79
434.85	6274.98
435.03	6511.37
435.22	6462.22
435.41	6895.22
435.59	6794.58
435.78	6597.97
435.97	6780.53
436.16	6560.52
436.34	6722.02
436.53	6778.19
436.72	6960.75
436.90	6698.61
437.09	6970.12
437.28	6817.98
437.46	6801.60
437.65	6942.03
437.84	7056.72
438.02	7042.67
438.21	6930.33
438.40	6913.94
438.58	7300.13
438.77	7211.19
438.96	7162.04
439.14	7407.80
439.33	7489.71
439.52	7541.21
439.70	7536.52
439.89	7595.04
440.08	7669.94
440.26	7845.48
440.45	7779.94
440.63	7838.45
440.82	8042.08
441.01	7822.07
441.19	7889.95
441.38	8208.26
441.57	8175.49
441.75	8070.17
441.94	8236.35
442.12	8217.62
442.31	8470.40
442.50	8437.63
442.68	8285.50
442.87	8482.10
443.05	8280.82
443.24	8594.45
443.43	8557.00
443.61	8629.56
443.80	8631.90
443.98	8395.50
444.17	8379.12
444.35	8791.05
444.54	8809.78
444.73	9043.83
444.91	8821.48
445.10	8669.34
445.28	8601.47
445.47	8627.21
445.65	8758.28
445.84	8833.18
446.02	8678.71
446.21	8608.49
446.39	8671.68
446.58	8769.99
446.77	8816.80
446.95	8985.32
447.14	8755.94
447.32	9020.42
447.51	8697.43
447.69	8788.71
447.88	8975.95
448.06	8994.68
448.25	9055.53
448.43	8936.17
448.62	8882.33
448.80	8990.00
448.99	8936.17
449.17	9085.96
449.36	9034.47
449.54	9338.74
449.73	9385.55
449.91	9378.53
450.10	9355.12
450.28	9516.62
450.46	9643.01
450.65	9626.62
450.83	9610.24
451.02	9584.49
451.20	9834.93
451.39	9563.43
451.57	9628.96
451.76	9338.74
451.94	9764.72
452.13	9745.99
452.31	9949.62
452.49	9675.77
452.68	9769.40
452.86	9863.02
453.05	9795.14
453.23	9902.81
453.42	9881.74
453.60	9701.52
453.78	10181.33
453.97	9764.72
454.15	10033.88
454.34	9987.07
454.52	10193.03
454.70	10005.79
454.89	10267.93
455.07	10307.72
455.26	10195.37
455.44	10118.14
455.62	10171.97
455.81	10382.62
455.99	10457.51
456.17	10520.71
456.36	10466.88
456.54	10665.82
456.73	10640.08
456.91	11049.67
457.09	10754.76
457.28	10986.47
457.46	10778.17
457.64	10827.32
457.83	11150.31
458.01	10988.82
458.19	11300.11
458.38	11108.18
458.56	11391.39
458.74	11389.05
458.93	11222.87
459.11	11276.70
459.29	11159.67
459.48	11461.60
459.66	11300.11
459.84	11494.37
460.03	11552.88
460.21	11627.78
460.39	11335.21
460.57	11517.78
460.76	11367.98
460.94	11845.45
461.12	11585.65
461.31	11541.18
461.49	11775.24
461.67	11826.73
461.85	12233.98
462.04	12053.76
462.22	12383.77
462.40	12093.55
462.59	12252.70
462.77	12250.36
462.95	11995.25
463.13	12051.42
463.32	12453.99
463.50	12655.28
463.68	12341.64
463.86	12421.22
464.05	12301.86
464.23	12205.89
464.41	12695.07
464.59	12421.22
464.78	12505.48
464.96	12711.45
465.14	12430.59
465.32	12905.71
465.50	12791.03
465.69	12849.54
465.87	12624.85
466.05	12571.02
466.23	12819.11
466.41	12699.75
466.60	13004.02
466.78	12760.60
466.96	13071.89
467.14	12994.65
467.32	13050.83
467.51	13151.47
467.69	12634.21
467.87	13198.28
468.05	12730.17
468.23	12933.80
468.41	13109.34
468.60	13177.22
468.78	13359.78
468.96	13371.48
469.14	13479.15
469.32	13591.49
469.50	13305.95
469.69	13727.24
469.87	13696.82
470.05	14031.51
470.23	13774.05
470.41	13752.99
470.59	14047.90
470.77	14050.24
470.95	14314.72
471.14	14029.17
471.32	14169.60
471.50	14249.18
471.68	14295.99
471.86	14485.58
472.04	14513.66
472.22	14738.35
472.40	14445.79
472.58	14480.89
472.77	14754.74
472.95	14773.46
473.13	15543.50
473.31	14953.68
473.49	14787.50
473.67	14956.02
473.85	15108.16
474.03	15346.89
474.21	15234.55
474.39	15414.77
474.57	15576.27
474.75	15861.81
474.93	15765.85
475.12	15850.11
475.30	15880.53
475.48	16056.08
475.66	16226.93
475.84	15913.30
476.02	16386.09
476.20	16166.08
476.38	16624.83
476.56	16950.16
476.74	16847.18
476.92	16819.09
477.10	16791.00
477.28	17341.03
477.46	17109.32
477.64	17649.98
477.82	17387.84
478.00	17909.78
478.18	17750.62
478.36	18040.85
478.54	18249.16
478.72	18052.55
478.90	18160.22
479.08	18377.89
479.26	18810.89
479.44	18986.43
479.62	18939.62
479.80	19066.00
479.98	19311.76
480.16	19470.92
480.34	19386.66
480.52	19583.26
480.70	19726.04
480.88	19651.14
481.06	20121.59
481.24	19583.26
481.41	19920.30
481.59	20386.07
481.77	20793.32
481.95	20673.95
482.13	21013.33
482.31	21184.19
482.49	21280.15
482.67	21252.06
482.85	21689.74
483.03	21907.41
483.21	22480.85
483.39	22466.80
483.57	22115.72
483.74	22497.23
483.92	23033.21
484.10	22494.89
484.28	23187.69
484.46	23332.80
484.64	23868.78
484.82	22981.72
485.00	23690.90
485.18	24170.71
485.35	24283.06
485.53	24067.73
485.71	24409.45
485.89	24900.96
486.07	24531.15
486.25	24847.13
486.43	24849.47
486.61	25343.32
486.78	25923.77
486.96	25923.77
487.14	26181.23
487.32	25984.63
487.50	26391.88
487.68	26525.29
487.85	26998.08
488.03	27250.86
488.21	27304.69
488.39	27498.95
488.57	27765.78
488.75	28032.60
488.92	28091.11
489.10	28325.16
489.28	28599.01
489.46	28694.97
489.64	29071.79
489.81	29350.32
489.99	29673.31
490.17	29013.28
490.35	29816.08
490.53	29759.91
490.70	30448.03
490.88	30071.20
491.06	30401.22
491.24	30607.19
491.41	30831.88
491.59	30993.37
491.77	30981.67
491.95	31538.72
492.13	31718.94
492.30	31660.43
492.48	31906.18
492.66	32259.60
492.84	32095.77
493.01	31952.99
493.19	32582.60
493.37	32788.56
493.54	33003.89
493.72	33586.69
493.90	33362.00
494.08	33947.13
494.25	33858.19
494.43	34450.35
494.61	34660.99
494.79	34525.24
494.96	34656.31
495.14	34698.44
495.32	34808.45
495.49	34897.39
495.67	35545.72
495.85	36034.89
496.02	36055.95
496.20	36299.37
496.38	36102.76
496.55	36112.13
496.73	36982.80
496.91	36886.84
497.09	37137.28
497.26	37294.10
497.44	37036.64
497.62	36943.02
497.79	37806.67
497.97	37731.78
498.14	38242.01
498.32	38726.50
498.50	38415.21
498.67	38588.41
498.85	38836.51
499.03	38747.57
499.20	39192.27
499.38	39557.39
499.56	39578.46
499.73	39426.32
499.91	39569.10
500.08	40254.87
500.26	39384.19
500.44	39880.39
500.61	40179.98
500.79	40329.77
500.97	40877.46
501.14	41034.27
501.32	40772.13
501.49	40238.49
501.67	40903.20
501.84	40914.90
502.02	41127.89
502.20	42127.30
502.37	41799.63
502.55	41502.38
502.72	41682.60
502.90	41710.69
503.07	41516.42
503.25	41993.89
503.43	42129.64
503.60	42663.28
503.78	43117.35
503.95	42557.96
504.13	43044.79
504.30	42719.46
504.48	42607.11
504.65	43299.91
504.83	43168.84
505.01	43526.94
505.18	43690.78
505.36	44252.51
505.53	43306.93
505.71	44091.01
505.88	44463.16
506.06	43901.43
506.23	44353.15
506.41	44395.28
506.58	44568.48
506.76	44655.08
506.93	44713.59
507.11	44708.91
507.28	45336.18
507.46	45282.34
507.63	45244.90
507.81	45691.94
507.98	45467.25
508.16	45457.88
508.33	45668.53
508.50	45600.66
508.68	46014.93
508.85	46504.10
509.03	46728.80
509.20	46321.54
509.38	46784.97
509.55	46618.79
509.73	46794.33
509.90	46904.34
510.08	46965.19
510.25	47143.07
510.42	47171.16
510.60	47786.72
510.77	48020.77
510.95	47840.55
511.12	47377.12
511.30	47662.67
511.47	48025.45
511.64	48177.59
511.82	48432.71
511.99	47995.03
512.17	48746.34
512.34	48205.67
512.51	48360.15
512.69	48706.55
512.86	48631.65
513.04	49240.19
513.21	48996.77
513.38	49055.29
513.56	49099.76
513.73	49160.61
513.90	49441.48
514.08	49237.85
514.25	49633.40
514.43	49811.28
514.60	49766.81
514.77	49687.23
514.95	49942.35
515.12	49968.10
515.29	49734.04
515.47	50241.94
515.64	50623.45
515.81	50225.56
515.99	50401.10
516.16	50756.86
516.33	50756.86
516.51	50923.04
516.68	50609.40
516.85	50766.22
517.03	51016.66
517.20	50941.76
517.37	51185.18
517.54	51119.64
517.72	51377.10
517.89	50986.23
518.06	51393.48
518.24	51129.00
518.41	51253.05
518.58	51704.77
518.75	51646.26
518.93	52135.43
519.10	51723.50
519.27	52009.04
519.45	51943.51
519.62	51749.24
519.79	52088.62
519.96	52271.18
520.14	52568.43
520.31	52083.94
520.48	52252.46
520.65	52573.11
520.83	52699.50
521.00	52971.00
521.17	52388.21
521.34	52552.05
521.52	52868.02
521.69	52912.49
521.86	52875.04
522.03	53169.95
522.20	53183.99
522.38	53432.09
522.55	53209.74
522.72	53188.67
522.89	53240.17
523.07	53666.14
523.24	53900.20
523.41	53652.10
523.58	53581.88
523.75	53396.98
523.92	53560.82
524.10	53881.47
524.27	54335.54
524.44	53916.58
524.61	54424.48
524.78	54370.64
524.96	53993.82
525.13	54096.80
525.30	54443.20
525.47	54216.17
525.64	54141.27
525.81	54588.31
525.98	54450.22
526.16	54536.82
526.33	54555.55
526.50	54801.30
526.67	54595.34
526.84	54649.17
527.01	54841.09
527.18	54932.37
527.36	55042.38
527.53	55098.55
527.70	54979.18
527.87	54958.12
528.04	54899.61
528.21	55093.87
528.38	55068.12
528.55	55288.13
528.72	55536.23
528.89	55536.23
529.07	55304.52
529.24	55407.50
529.41	55608.79
529.58	55269.41
529.75	55379.42
529.92	55470.70
530.09	55557.30
530.26	55583.04
530.43	56177.54
530.60	55849.86
530.77	55796.03
530.94	55796.03
531.11	55671.98
531.28	55749.22
531.46	55931.78
531.63	56191.58
531.80	56074.55
531.97	56165.84
532.14	56123.71
532.31	56259.46
532.48	56198.60
532.65	56168.18
532.82	56126.05
532.99	56144.77
533.16	56402.23
533.33	56542.66
533.50	56561.39
533.67	56706.50
533.84	56334.35
534.01	56273.50
534.18	56411.59
534.35	56732.25
534.52	56638.62
534.69	56828.21
534.86	57062.26
535.03	56645.65
535.20	56912.47
535.37	56938.21
535.54	56949.92
535.71	56868.00
535.88	57045.88
536.05	56870.34
536.22	57247.16
536.38	57324.40
536.55	57293.97
536.72	57022.47
536.89	57078.64
537.06	57254.18
537.23	57331.42
537.40	57226.10
537.57	57127.80
537.74	57289.29
537.91	57560.79
538.08	57797.19
538.25	57474.20
538.42	57469.51
538.59	57619.31
538.75	57310.36
538.92	57403.98
539.09	57820.59
539.26	57666.12
539.43	57794.85
539.60	57911.88
539.77	57839.32
539.94	58073.37
540.11	57696.55
540.28	57914.22
540.44	57813.57
540.61	57808.89
540.78	58024.22
540.95	58192.74
541.12	57815.91
541.29	58028.90
541.46	58204.44
541.62	57869.75
541.79	58040.60
541.96	58080.39
542.13	58136.57
542.30	58316.79
542.47	58234.87
542.63	58508.71
542.80	58492.33
542.97	58616.38
543.14	58747.45
543.31	58609.35
543.48	58536.80
543.64	58787.24
543.81	58873.84
543.98	58925.33
544.15	58876.18
544.32	58983.84
544.48	59250.66
544.65	58801.28
544.82	59021.29
544.99	58595.31
545.16	59079.80
545.32	58988.52
545.49	59089.16
545.66	59269.39
545.83	59224.92
546.00	59391.09
546.16	59187.47
546.33	59213.21
546.50	58932.35
546.67	58890.22
546.83	59016.61
547.00	59253.00
547.17	59114.91
547.34	59173.42
547.50	59325.56
547.67	59597.06
547.84	59412.16
548.00	59564.29
548.17	59683.66
548.34	59473.01
548.51	59536.21
548.67	59615.79
548.84	59693.02
549.01	59444.93
549.18	59559.61
549.34	59267.05
549.51	59683.66
549.68	59655.57
549.84	59580.68
550.01	59695.36
550.18	59732.81
550.34	59732.81
550.51	59800.69
550.68	59700.04
550.84	59695.36
551.01	60076.87
551.18	59718.77
551.34	59695.36
551.51	59950.48
551.68	60027.72
551.84	59959.84
552.01	60046.44
552.18	60231.35
552.34	59929.42
552.51	60200.92
552.68	59987.93
552.84	60086.23
553.01	60247.73
553.18	60130.70
553.34	60294.54
553.51	60076.87
553.67	60264.11
553.84	60390.50
554.01	60418.59
554.17	60397.52
554.34	60058.15
554.51	60259.43
554.67	60397.52
554.84	60434.97
555.00	60367.10
555.17	60636.26
555.33	60575.40
555.50	60395.18
555.67	60229.01
555.83	60449.02
556.00	60474.76
556.16	60722.86
556.33	60477.10
556.50	60451.36
556.66	60500.51
556.83	60603.49
556.99	60860.95
557.16	60678.39
557.32	60783.71
557.49	60790.73
557.65	60589.45
557.82	60727.54
557.98	60839.89
558.15	60701.79
558.32	60626.90
558.48	60914.78
558.65	60938.19
558.81	61111.39
558.98	60877.33
559.14	60856.27
559.31	60718.18
559.47	60837.54
559.64	60898.40
559.80	61073.94
559.97	61099.68
560.13	61008.40
560.30	61013.08
560.46	61333.74
560.63	60992.02
560.79	61104.37
560.96	61275.22
561.12	61085.64
561.29	60919.46
561.45	61251.82
561.61	61212.03
561.78	61179.26
561.94	61207.35
562.11	61378.21
562.27	61305.65
562.44	61036.49
562.60	61165.22
562.77	61277.57
562.93	61052.87
563.10	61513.96
563.26	61223.73
563.42	61504.60
563.59	61233.10
563.75	61422.68
563.92	61485.87
564.08	61399.27
564.24	61340.76
564.41	61200.33
564.57	61020.11
564.74	61322.04
564.90	61455.45
565.07	61478.85
565.23	61373.53
565.39	61439.06
565.56	61485.87
565.72	61387.57
565.88	61616.94
566.05	61516.30
566.21	61478.85
566.38	61710.56
566.54	61403.95
566.70	61769.08
566.87	61750.35
567.03	61623.96
567.19	61696.52
567.36	61525.66
567.52	61462.47
567.68	61434.38
567.85	61628.65
568.01	61565.45
568.17	61485.87
568.34	61785.46
568.50	61733.97
568.66	61701.20
568.83	61717.59
568.99	61560.77
569.15	61687.16
569.32	61509.28
569.48	61429.70
569.64	61783.12
569.81	61776.10
569.97	61556.09
570.13	61729.29
570.30	61771.42
570.46	61780.78
570.62	61694.18
570.78	61858.02
570.95	61490.55
571.11	61710.56
571.27	61488.21
571.43	61771.42
571.60	61911.85
571.76	61923.55
571.92	61872.06
572.09	61818.23
572.25	61914.19
572.41	61902.49
572.57	61825.25
572.74	61949.30
572.90	61696.52
573.06	61542.05
573.22	61790.14
573.38	62033.56
573.55	61886.10
573.71	62003.13
573.87	61977.39
574.03	61780.78
574.20	62017.17
574.36	61654.39
574.52	62003.13
574.68	61972.70
574.84	62141.22
575.01	61972.70
575.17	61979.73
575.33	61846.32
575.49	61876.74
575.65	62078.03
575.82	62021.86
575.98	61937.60
576.14	62073.35
576.30	62063.99
576.46	62026.54
576.62	61958.66
576.79	61689.50
576.95	61815.89
577.11	61883.76
577.27	62089.73
577.43	62120.16
577.59	61970.36
577.75	62092.07
577.92	61881.42
578.08	61733.97
578.24	61944.62
578.40	61769.08
578.56	61977.39
578.72	61939.94
578.88	62094.41
579.04	62342.51
579.21	62183.35
579.37	62056.96
579.53	62225.48
579.69	61944.62
579.85	62108.46
580.01	62080.37
580.17	61996.11
580.33	61996.11
580.49	62171.65
580.65	62295.70
580.82	62377.62
580.98	62061.64
581.14	62143.56
581.30	62092.07
581.46	61986.75
581.62	62080.37
581.78	62007.81
581.94	62049.94
582.10	62117.82
582.26	62211.44
582.42	62188.03
582.58	62396.34
582.74	62078.03
582.90	62115.48
583.06	62234.84
583.22	61946.96
583.38	62267.61
583.54	62248.89
583.70	62410.38
583.86	62302.72
584.02	62129.52
584.18	62330.81
584.34	62396.34
584.50	62377.62
584.66	62003.13
584.82	62183.35
584.98	62405.70
585.14	62211.44
585.30	62169.31
585.46	62204.42
585.62	62049.94
585.78	62368.26
585.94	61956.32
586.10	62190.37
586.26	62382.30
586.42	62452.51
586.58	62181.01
586.74	62272.29
586.90	62082.71
587.06	62218.46
587.22	62405.70
587.38	62136.54
587.54	62110.80
587.70	62447.83
587.86	62473.58
588.02	62199.74
588.18	62443.15
588.34	62363.57
588.49	62482.94
588.65	62131.86
588.81	62185.69
588.97	62239.53
