SpectraSuite Data File
++++++++++++++++++++++++++++++++++++
Date: Fri Oct 04 11:48:26 GMT-05:00 2013
User: price-jones
Dark Spectrum Present: No
Reference Spectrum Present: No
Number of Sampled Component Spectra: 1
Spectrometers: USB2+H05261
Integration Time (usec): 100000 (USB2+H05261)
Spectra Averaged: 1 (USB2+H05261)
Boxcar Smoothing: 0 (USB2+H05261)
Correct for Electrical Dark: No (USB2+H05261)
Strobe/Lamp Enabled: No (USB2+H05261)
Correct for Detector Non-linearity: No (USB2+H05261)
Correct for Stray Light: No (USB2+H05261)
Number of Pixels in Processed Spectrum: 2048
>>>>>Begin Processed Spectral Data<<<<<
365.73	0.00
365.92	0.00
366.12	0.00
366.32	0.00
366.52	0.00
366.72	0.00
366.91	0.00
367.11	0.00
367.31	0.00
367.51	0.00
367.70	0.00
367.90	0.00
368.10	0.00
368.30	0.00
368.49	0.00
368.69	0.00
368.89	0.00
369.09	42.13
369.28	0.00
369.48	0.00
369.68	0.00
369.87	46.81
370.07	0.00
370.27	0.00
370.47	128.73
370.66	449.38
370.86	489.17
371.06	535.98
371.25	561.73
371.45	454.06
371.65	669.39
371.84	524.28
372.04	505.56
372.24	629.60
372.44	650.67
372.63	641.31
372.83	781.74
373.03	664.71
373.22	702.16
373.42	512.58
373.62	697.48
373.81	690.46
374.01	748.97
374.21	770.04
374.40	765.36
374.60	748.97
374.79	709.18
374.99	655.35
375.19	720.88
375.38	875.36
375.58	744.29
375.78	737.27
375.97	786.42
376.17	826.21
376.37	910.47
376.56	727.91
376.76	725.57
376.95	828.55
377.15	802.80
377.35	842.59
377.54	763.01
377.74	936.21
377.93	812.17
378.13	861.32
378.33	851.96
378.52	880.04
378.72	929.19
378.91	891.74
379.11	915.15
379.31	978.34
379.50	915.15
379.70	950.26
379.89	919.83
380.09	992.39
380.28	905.79
380.48	966.64
380.68	938.55
380.87	931.53
381.07	966.64
381.26	1032.18
381.46	959.62
381.65	999.41
381.85	1034.52
382.04	1001.75
382.24	1041.54
382.43	1158.57
382.63	992.39
382.83	1062.60
383.02	1078.99
383.22	1104.73
383.41	1116.44
383.61	1048.56
383.80	1090.69
384.00	1170.27
384.19	999.41
384.39	1121.12
384.58	1158.57
384.78	1116.44
384.97	1041.54
385.17	1181.97
385.36	1083.67
385.56	1214.74
385.75	1090.69
385.95	1186.65
386.14	1172.61
386.34	1125.80
386.53	1224.10
386.72	1184.31
386.92	1214.74
387.11	1210.06
387.31	1219.42
387.50	1247.51
387.70	1259.21
387.89	1320.06
388.09	1228.78
388.28	1263.89
388.48	1303.68
388.67	1320.06
388.86	1284.95
389.06	1355.17
389.25	1425.39
389.45	1366.87
389.64	1446.45
389.84	1434.75
390.03	1387.94
390.22	1380.92
390.42	1451.13
390.61	1394.96
390.81	1439.43
391.00	1474.54
391.19	1535.39
391.39	1451.13
391.58	1455.81
391.78	1509.65
391.97	1549.43
392.16	1511.99
392.36	1685.19
392.55	1535.39
392.75	1544.75
392.94	1593.90
393.13	1544.75
393.33	1617.31
393.52	1664.12
393.71	1624.33
393.91	1584.54
394.10	1685.19
394.29	1668.80
394.49	1682.85
394.68	1739.02
394.88	1776.47
395.07	1792.85
395.26	1757.74
395.46	1771.79
395.65	1893.49
395.84	1877.11
396.04	1806.89
396.23	1879.45
396.42	1886.47
396.62	1856.04
396.81	1926.26
397.00	1926.26
397.19	1937.96
397.39	1872.43
397.58	1982.43
397.77	1947.33
397.97	1944.99
398.16	1930.94
398.35	1942.64
398.55	2043.29
398.74	2078.40
398.93	2101.80
399.12	2101.80
399.32	2047.97
399.51	2036.27
399.70	1940.30
399.90	2148.61
400.09	2221.17
400.28	2307.77
400.47	2298.41
400.67	2310.11
400.86	2176.70
401.05	2328.83
401.24	2272.66
401.44	2380.32
401.63	2377.98
401.82	2483.31
402.01	2338.20
402.21	2324.15
402.40	2415.43
402.59	2359.26
402.78	2459.90
402.97	2377.98
403.17	2499.69
403.36	2459.90
403.55	2562.89
403.74	2597.99
403.93	2583.95
404.13	2562.89
404.32	2623.74
404.51	2715.02
404.70	2761.83
404.89	2630.76
405.09	2637.78
405.28	2818.00
405.47	2864.82
405.66	2794.60
405.85	2789.92
406.05	2923.33
406.24	2808.64
406.43	2792.26
406.62	3059.08
406.81	2867.16
407.00	2977.16
407.20	2803.96
407.39	2993.55
407.58	2925.67
407.77	3019.29
407.96	3061.42
408.15	3110.57
408.34	3108.23
408.54	3138.66
408.73	3206.53
408.92	3227.60
409.11	3236.96
409.30	3232.28
409.49	3183.13
409.68	3204.19
409.87	3332.92
410.07	3496.76
410.26	3370.37
410.45	3445.27
410.64	3499.10
410.83	3431.23
411.02	3630.17
411.21	3447.61
411.40	3606.77
411.59	3698.05
411.78	3595.06
411.98	3578.68
412.17	3702.73
412.36	3634.85
412.55	3761.24
412.74	3882.95
412.93	3859.54
413.12	3815.07
413.31	4091.26
413.50	3866.56
413.69	4081.89
413.88	3925.08
414.07	4058.49
414.26	4119.34
414.45	4152.11
414.64	4241.05
414.83	4313.61
415.02	4208.28
415.22	4315.95
415.41	4489.15
415.60	4278.50
415.79	4444.68
415.98	4491.49
416.17	4545.32
416.36	4521.92
416.55	4631.92
416.74	4629.58
416.93	4676.39
417.12	4671.71
417.31	4734.90
417.50	4905.76
417.69	4905.76
417.88	4975.98
418.07	4788.74
418.26	4861.29
418.45	5046.20
418.64	5193.65
418.83	5093.01
419.02	5139.82
419.21	5172.58
419.39	5060.24
419.58	5064.92
419.77	5153.86
419.96	5249.82
420.15	5261.52
420.34	5308.34
420.53	5217.05
420.72	5357.49
420.91	5472.17
421.10	5359.83
421.29	5509.62
421.48	5313.02
421.67	5626.65
421.86	5509.62
422.05	5493.24
422.24	5614.95
422.43	5369.19
422.61	5708.57
422.80	5636.01
422.99	5619.63
423.18	5586.86
423.37	5664.10
423.56	5734.31
423.75	5645.37
423.94	5654.73
424.13	5247.48
424.32	5387.91
424.50	5673.46
424.69	5841.98
424.88	5722.61
425.07	5769.42
425.26	5577.50
425.45	5666.44
425.64	5540.05
425.83	5652.39
426.01	5785.80
426.20	5764.74
426.39	5799.85
426.58	5837.30
426.77	5851.34
426.96	5879.43
427.15	5738.99
427.33	6099.44
427.52	5928.58
427.71	5933.26
427.90	6094.76
428.09	6071.35
428.28	6209.44
428.46	6066.67
428.65	6024.54
428.84	6265.61
429.03	6347.53
429.22	6064.33
429.40	6462.22
429.59	6478.60
429.78	6066.67
429.97	6111.14
430.16	6090.07
430.34	6586.27
430.53	6431.79
430.72	6399.02
430.91	6300.72
431.10	6256.25
431.28	6656.48
431.47	6633.08
431.66	6722.02
431.85	6523.07
432.03	6799.26
432.22	6871.81
432.41	6707.98
432.60	6935.01
432.79	6960.75
432.97	6897.56
433.16	6960.75
433.35	6794.58
433.54	7059.06
433.72	6984.16
433.91	7155.02
434.10	7023.95
434.28	7049.69
434.47	7176.08
434.66	7087.14
434.85	7178.42
435.03	7368.01
435.22	7119.91
435.41	7316.51
435.59	7344.60
435.78	7391.41
435.97	7494.40
436.16	7314.17
436.34	7330.56
436.53	7564.61
436.72	7545.89
436.90	7627.81
437.09	7683.98
437.28	7314.17
437.46	7541.21
437.65	7630.15
437.84	7918.03
438.02	7726.11
438.21	7885.26
438.40	7693.34
438.58	8128.68
438.77	8248.05
438.96	7990.59
439.14	8238.69
439.33	8231.66
439.52	8554.66
439.70	8425.93
439.89	8400.18
440.08	8596.79
440.26	8667.00
440.45	8517.21
440.63	8634.24
440.82	8760.63
441.01	8641.26
441.19	8997.02
441.38	8940.85
441.57	9048.51
441.75	9102.34
441.94	9135.11
442.12	9006.38
442.31	9460.45
442.50	9362.14
442.68	9263.84
442.87	9418.32
443.05	9228.73
443.24	9514.28
443.43	9373.85
443.61	9516.62
443.80	9816.21
443.98	9254.48
444.17	9149.15
444.35	9577.47
444.54	9792.80
444.73	9624.28
444.91	9640.67
445.10	9813.87
445.28	9462.79
445.47	9563.43
445.65	9687.48
445.84	9647.69
446.02	9872.38
446.21	9731.95
446.39	9898.13
446.58	9762.37
446.77	9902.81
446.95	9839.61
447.14	9804.50
447.32	9912.17
447.51	9963.66
447.69	10022.17
447.88	9872.38
448.06	9797.48
448.25	9799.82
448.43	10314.74
448.62	9877.06
448.80	10064.30
448.99	10043.24
449.17	10106.43
449.36	10057.28
449.54	10342.83
449.73	10438.79
449.91	10396.66
450.10	10555.82
450.28	10682.20
450.46	10480.92
450.65	10656.46
450.83	10668.16
451.02	10656.46
451.20	10579.22
451.39	10621.35
451.57	10623.69
451.76	10616.67
451.94	10630.71
452.13	10888.17
452.31	10806.25
452.49	10621.35
452.68	10754.76
452.86	10963.07
453.05	11073.07
453.23	11108.18
453.42	10888.17
453.60	11000.52
453.78	10918.60
453.97	10939.66
454.15	10981.79
454.34	10864.77
454.52	11449.90
454.70	11199.46
454.89	11321.17
455.07	11506.07
455.26	11232.23
455.44	11524.80
455.62	11714.38
455.81	11529.48
455.99	11583.31
456.17	11688.64
456.36	11651.19
456.54	11896.94
456.73	12020.99
456.91	12287.81
457.09	12210.57
457.28	12470.37
457.46	12252.70
457.64	12369.73
457.83	12194.19
458.01	12079.50
458.19	12196.53
458.38	12222.28
458.56	12479.74
458.74	12458.67
458.93	12458.67
459.11	12535.91
459.29	12477.40
459.48	12695.07
459.66	12716.13
459.84	12767.62
460.03	12975.93
460.21	12856.56
460.39	12681.02
460.57	12945.50
460.76	13013.38
460.94	13252.11
461.12	13104.66
461.31	13298.92
461.49	13001.68
461.67	13011.04
461.85	13345.73
462.04	13153.81
462.22	13846.61
462.40	13500.21
462.59	13603.19
462.77	13308.29
462.95	13633.62
463.13	13661.71
463.32	13631.28
463.50	13495.53
463.68	13778.73
463.86	13743.63
464.05	13642.98
464.23	13991.72
464.41	13874.70
464.59	13666.39
464.78	14249.18
464.96	14005.77
465.14	13774.05
465.32	14216.41
465.50	14228.12
465.69	14501.96
465.87	14005.77
466.05	14354.51
466.23	13975.34
466.41	14363.87
466.60	14661.12
466.78	14001.08
466.96	14188.33
467.14	14349.82
467.32	14635.37
467.51	14951.34
467.69	14185.99
467.87	14637.71
468.05	14693.88
468.23	14644.73
468.41	14754.74
468.60	14726.65
468.78	14738.35
468.96	14480.89
469.14	14799.21
469.32	15136.24
469.50	14567.49
469.69	15091.77
469.87	15417.11
470.05	15630.10
470.23	15300.08
470.41	15431.15
470.59	15627.76
470.77	15470.94
470.95	15679.25
471.14	15606.69
471.32	15618.39
471.50	16159.06
471.68	15836.06
471.86	15765.85
472.04	16112.25
472.22	16397.79
472.40	16374.39
472.58	16444.60
472.77	16191.83
472.95	16666.95
473.13	17165.49
473.31	16699.72
473.49	16884.62
473.67	16849.52
473.85	16582.70
474.03	17240.39
474.21	17158.47
474.39	17170.17
474.57	17362.09
474.75	17305.92
474.93	17584.44
475.12	17535.29
475.30	17933.18
475.48	17554.02
475.66	18204.69
475.84	18015.10
476.02	18398.95
476.20	18443.42
476.38	18401.29
476.56	18984.09
476.74	18927.91
476.92	18633.00
477.10	18864.72
477.28	18845.99
477.46	18958.34
477.64	19356.23
477.82	19571.56
478.00	19957.75
478.18	20112.22
478.36	19978.81
478.54	19981.15
478.72	20346.28
478.90	20168.40
479.08	20704.38
479.26	20634.16
479.44	21018.01
479.62	21055.46
479.80	21172.49
479.98	21612.51
480.16	21832.52
480.34	21659.32
480.52	21956.57
480.70	22003.38
480.88	22160.19
481.06	22202.32
481.24	21788.05
481.41	22618.94
481.59	22700.86
481.77	23058.96
481.95	23108.11
482.13	23215.77
482.31	23386.63
482.49	23763.46
482.67	23971.77
482.85	24116.88
483.03	24554.56
483.21	24893.94
483.39	24692.65
483.57	24842.45
483.74	24739.46
483.92	24987.56
484.10	25039.05
484.28	25560.99
484.46	26129.74
484.64	26504.23
484.82	25853.56
485.00	26569.76
485.18	26892.76
485.35	26937.23
485.53	27068.30
485.71	27145.53
485.89	27768.12
486.07	27789.18
486.25	27505.98
486.43	27896.85
486.61	28226.86
486.78	28547.51
486.96	29139.67
487.14	29132.65
487.32	29158.39
487.50	29394.79
487.68	29415.85
487.85	29977.58
488.03	30478.46
488.21	30665.70
488.39	30370.79
488.57	30792.09
488.75	30749.96
488.92	31314.03
489.10	31761.07
489.28	31641.70
489.46	32196.41
489.64	32119.17
489.81	32596.64
489.99	32711.33
490.17	32767.50
490.35	33146.67
490.53	33645.20
490.70	33844.15
490.88	33525.83
491.06	33958.83
491.24	34410.56
491.41	34167.14
491.59	34487.79
491.77	35033.14
491.95	35129.10
492.13	35358.47
492.30	35494.22
492.48	35374.86
492.66	35662.74
492.84	35761.05
493.01	36531.08
493.19	36465.55
493.37	36982.80
493.54	36781.52
493.72	37223.88
493.90	37027.28
494.08	37567.94
494.25	37895.61
494.43	38396.49
494.61	38176.48
494.79	38864.60
494.96	38611.82
495.14	38618.84
495.32	39040.14
495.49	39313.98
495.67	39400.58
495.85	39716.55
496.02	39775.06
496.20	39548.03
496.38	39782.09
496.55	40116.78
496.73	41212.15
496.91	40828.30
497.09	40587.23
497.26	41177.04
497.44	41474.29
497.62	41397.06
497.79	41703.67
497.97	41771.54
498.14	42700.73
498.32	42962.87
498.50	42408.17
498.67	43311.61
498.85	42845.85
499.03	43215.65
499.20	43000.32
499.38	43227.35
499.56	44093.35
499.73	43772.70
499.91	43903.77
500.08	44350.81
500.26	43847.60
500.44	44549.76
500.61	44772.11
500.79	44414.01
500.97	44954.67
501.14	45776.20
501.32	45546.82
501.49	45127.87
501.67	45366.60
501.84	45645.13
502.02	45975.14
502.20	45942.38
502.37	46160.05
502.55	46335.59
502.72	46115.58
502.90	45897.91
503.07	46295.80
503.25	46291.12
503.43	46635.17
503.60	46972.21
503.78	46972.21
503.95	46693.69
504.13	47147.75
504.30	47168.82
504.48	47445.00
504.65	47821.83
504.83	48006.73
505.01	47845.23
505.18	47849.91
505.36	48182.27
505.53	48116.73
505.71	48196.31
505.88	48498.24
506.06	48514.62
506.23	48652.72
506.41	48830.60
506.58	49125.50
506.76	49207.42
506.93	49408.71
507.11	48971.03
507.28	49411.05
507.46	49347.86
507.63	49640.42
507.81	49874.48
507.98	49694.25
508.16	49560.84
508.33	50000.86
508.50	50162.36
508.68	50546.21
508.85	50478.33
509.03	50298.11
509.20	50618.77
509.38	50761.54
509.55	51058.79
509.73	51091.55
509.90	51054.11
510.08	50948.78
510.25	51086.87
510.42	51136.02
510.60	51632.22
510.77	51533.92
510.95	51592.43
511.12	51550.30
511.30	51316.25
511.47	51615.83
511.64	51915.42
511.82	52261.82
511.99	52175.22
512.17	52367.15
512.34	52133.09
512.51	52460.77
512.69	52811.85
512.86	52292.25
513.04	53071.65
513.21	52809.51
513.38	53003.77
513.56	52994.41
513.73	52973.34
513.90	53155.91
514.08	53123.14
514.25	53553.80
514.43	53598.27
514.60	53303.36
514.77	53766.79
514.95	53956.37
515.12	53759.76
515.29	53656.78
515.47	53867.43
515.64	54040.63
515.81	53998.50
515.99	53961.05
516.16	54260.64
516.33	54234.89
516.51	54316.81
516.68	53963.39
516.85	54178.72
517.03	54609.38
517.20	54670.23
517.37	54775.56
517.54	55093.87
517.72	54810.67
517.89	54588.31
518.06	54756.83
518.24	54770.88
518.41	55126.64
518.58	55192.17
518.75	55281.11
518.93	55236.64
519.10	55037.70
519.27	55508.14
519.45	55470.70
519.62	55414.52
519.79	55515.17
519.96	55444.95
520.14	55821.78
520.31	55618.15
520.48	55599.43
520.65	55817.10
520.83	56081.58
521.00	56112.00
521.17	55873.27
521.34	56002.00
521.52	56236.05
521.69	56203.28
521.86	56252.44
522.03	56179.88
522.20	56420.95
522.38	56226.69
522.55	56437.34
522.72	56566.07
522.89	56624.58
523.07	56757.99
523.24	56877.36
523.41	56851.61
523.58	56793.10
523.75	56956.94
523.92	56743.95
524.10	56893.74
524.27	57071.62
524.44	57251.84
524.61	57176.95
524.78	57144.18
524.96	57420.36
525.13	57422.70
525.30	57523.35
525.47	57434.41
525.64	57474.20
525.81	57511.64
525.98	57612.29
526.16	57675.48
526.33	57612.29
526.50	57626.33
526.67	57511.64
526.84	57738.68
527.01	57654.42
527.18	57972.73
527.36	58092.10
527.53	58122.52
527.70	58078.05
527.87	58230.19
528.04	57874.43
528.21	58047.63
528.38	58096.78
528.55	58157.63
528.72	58155.29
528.89	58422.11
529.07	58358.92
529.24	58232.53
529.41	58567.23
529.58	58326.15
529.75	58330.83
529.92	58548.50
530.09	58562.54
530.26	58464.24
530.43	58714.68
530.60	58424.45
530.77	58710.00
530.94	58714.68
531.11	58628.08
531.28	58733.40
531.46	58939.37
531.63	59002.56
531.80	58859.79
531.97	59269.39
532.14	59381.73
532.31	59040.01
532.48	59011.93
532.65	59196.83
532.82	59004.91
532.99	59379.39
533.16	59135.98
533.33	59505.78
533.50	59578.34
533.67	59442.59
533.84	59332.58
534.01	59238.96
534.18	59189.81
534.35	59552.59
534.52	59732.81
534.69	59910.69
534.86	59856.86
535.03	59667.28
535.20	59660.26
535.37	59877.93
535.54	59824.09
535.71	59550.25
535.88	59915.37
536.05	60044.10
536.22	60144.75
536.38	60041.76
536.55	60088.57
536.72	59971.55
536.89	59796.01
537.06	60051.12
537.23	60067.51
537.40	59873.24
537.57	60329.65
537.74	60324.97
537.91	60376.46
538.08	60552.00
538.25	60367.10
538.42	60367.10
538.59	60523.91
538.75	60278.16
538.92	60423.27
539.09	60362.42
539.26	60537.96
539.43	60676.05
539.60	60772.01
539.77	60470.08
539.94	60865.63
540.11	60605.83
540.28	60650.30
540.44	60645.62
540.61	60587.11
540.78	60746.26
540.95	60671.37
541.12	60853.93
541.29	60966.27
541.46	60715.84
541.62	60718.18
541.79	60886.70
541.96	60720.52
542.13	60865.63
542.30	61001.38
542.47	61172.24
542.63	61258.84
542.80	61354.80
542.97	61300.97
543.14	61591.20
543.31	61310.33
543.48	61169.90
543.64	61544.39
543.81	61389.91
543.98	61759.72
544.15	61670.78
544.32	61853.34
544.48	61956.32
544.65	61520.98
544.82	61570.13
544.99	61553.75
545.16	61506.94
545.32	61640.35
545.49	62218.46
545.66	61996.11
545.83	61930.58
546.00	61836.95
546.16	61825.25
546.33	61738.65
546.50	61666.09
546.67	61888.45
546.83	61691.84
547.00	62162.29
547.17	62099.09
547.34	61766.74
547.50	62054.62
547.67	62314.42
547.84	62248.89
548.00	62375.28
548.17	62284.00
548.34	62152.93
548.51	62377.62
548.67	62361.23
548.84	62358.89
549.01	62389.32
549.18	62333.15
549.34	62281.66
549.51	62368.26
549.68	62293.36
549.84	62468.90
550.01	62415.07
550.18	62218.46
550.34	62637.42
550.51	62564.86
550.68	62618.69
550.84	62323.78
551.01	62583.58
551.18	62281.66
551.34	62384.64
551.51	62642.10
551.68	62724.02
551.84	62639.76
552.01	62686.57
552.18	62794.23
552.34	62803.59
552.51	62705.29
552.68	62747.42
552.84	62773.17
553.01	62990.84
553.18	62859.77
553.34	63086.80
553.51	62972.11
553.67	62925.30
553.84	63018.92
554.01	63281.06
554.17	63061.05
554.34	63061.05
554.51	63126.59
554.67	63152.33
554.84	63075.10
555.00	63117.23
555.17	63065.73
555.33	63070.42
555.50	63112.55
555.67	63164.04
555.83	63248.30
556.00	63117.23
556.16	63391.07
556.33	63114.89
556.50	63370.00
556.66	63433.20
556.83	63299.79
556.99	63512.78
557.16	63381.71
557.32	63627.46
557.49	63407.45
557.65	63222.55
557.82	63388.73
557.98	63260.00
558.15	63456.60
558.32	63606.40
558.48	63491.71
558.65	63608.74
558.81	63529.16
558.98	63688.32
559.14	63585.33
559.31	63421.50
559.47	63524.48
559.64	63758.53
559.80	63646.19
559.97	63826.41
560.13	63545.54
560.30	63669.59
560.46	63641.51
560.63	63643.85
560.79	63653.21
560.96	63781.94
561.12	63847.47
561.29	63774.92
561.45	63791.30
561.61	63938.75
561.78	63826.41
561.94	63803.00
562.11	63861.52
562.27	63891.94
562.44	63901.31
562.60	63838.11
562.77	63852.15
562.93	63831.09
563.10	64170.47
563.26	63990.25
563.42	64067.48
563.59	64219.62
563.75	64055.78
563.92	64107.27
564.08	63915.35
564.24	64039.40
564.41	63905.99
564.57	64060.46
564.74	64081.53
564.90	64163.45
565.07	64219.62
565.23	64282.81
565.39	64008.97
565.56	64058.12
565.72	64102.59
565.88	64170.47
566.05	64158.76
566.21	64140.04
566.38	64154.08
566.54	64104.93
566.70	64243.02
566.87	64381.12
567.03	64121.32
567.19	64477.08
567.36	64179.83
567.52	64261.75
567.68	64308.56
567.85	64172.81
568.01	64411.54
568.17	64289.84
568.34	64313.24
568.50	64320.26
568.66	64432.61
568.83	64320.26
568.99	64207.92
569.15	64259.41
569.32	64198.55
569.48	64217.28
569.64	64615.17
569.81	64474.74
569.97	64221.96
570.13	64357.71
570.30	64320.26
570.46	64495.80
570.62	64324.94
570.78	64214.94
570.95	64327.28
571.11	64280.47
571.27	64245.36
571.43	64196.21
571.60	64423.25
571.76	64418.56
571.92	64690.07
572.09	64603.47
572.25	64633.89
572.41	64488.78
572.57	64472.40
572.74	64694.75
572.90	64369.41
573.06	64477.08
573.22	64456.01
573.38	64470.06
573.55	64439.63
573.71	64690.07
573.87	64931.14
574.03	64568.36
574.20	64540.27
574.36	64427.93
574.52	64523.89
574.68	64441.97
574.84	64446.65
575.01	64544.95
575.17	64498.14
575.33	64446.65
575.49	64664.32
575.65	64874.97
575.82	64554.32
575.98	64645.60
576.14	64580.06
576.30	64608.15
576.46	64612.83
576.62	64650.28
576.79	64771.99
576.95	64652.62
577.11	64928.80
577.27	64725.17
577.43	64715.81
577.59	64638.57
577.75	64636.23
577.92	64467.72
578.08	64563.68
578.24	64661.98
578.40	64636.23
578.56	64788.37
578.72	64647.94
578.88	64727.52
579.04	64804.75
579.21	64732.20
579.37	64725.17
579.53	64783.69
579.69	64542.61
579.85	64533.25
580.01	64713.47
580.17	64650.28
580.33	64701.77
580.49	64755.60
580.65	64891.35
580.82	64992.00
580.98	64603.47
581.14	64783.69
581.30	64811.77
581.46	64935.82
581.62	64568.36
581.78	64512.19
581.94	64872.63
582.10	64743.90
582.26	64654.96
582.42	64942.84
582.58	64842.20
582.74	64722.83
582.90	64816.46
583.06	64879.65
583.22	64692.41
583.38	64846.88
583.54	64807.09
583.70	64718.15
583.86	64891.35
584.02	64732.20
584.18	64905.40
584.34	64818.80
584.50	64858.59
584.66	64889.01
584.82	64676.02
584.98	64678.36
585.14	64973.27
585.30	64739.22
585.46	64945.18
585.62	65078.60
585.78	64959.23
585.94	64741.56
586.10	64975.61
586.26	64828.16
586.42	65029.44
586.58	65010.72
586.74	65038.81
586.90	64793.05
587.06	64767.30
587.22	64905.40
587.38	64867.95
587.54	64928.80
587.70	65139.45
587.86	64898.37
588.02	65064.55
588.18	65106.68
588.34	64863.27
588.49	65078.60
