SpectraSuite Data File
++++++++++++++++++++++++++++++++++++
Date: Fri Oct 04 11:48:41 GMT-05:00 2013
User: price-jones
Dark Spectrum Present: No
Reference Spectrum Present: No
Number of Sampled Component Spectra: 1
Spectrometers: USB2+H05261
Integration Time (usec): 100000 (USB2+H05261)
Spectra Averaged: 1 (USB2+H05261)
Boxcar Smoothing: 0 (USB2+H05261)
Correct for Electrical Dark: No (USB2+H05261)
Strobe/Lamp Enabled: No (USB2+H05261)
Correct for Detector Non-linearity: No (USB2+H05261)
Correct for Stray Light: No (USB2+H05261)
Number of Pixels in Processed Spectrum: 2048
>>>>>Begin Processed Spectral Data<<<<<
365.73	25.75
365.92	25.75
366.12	25.75
366.32	0.00
366.52	0.00
366.72	0.00
366.91	0.00
367.11	0.00
367.31	0.00
367.51	0.00
367.70	0.00
367.90	0.00
368.10	0.00
368.30	0.00
368.49	0.00
368.69	0.00
368.89	0.00
369.09	0.00
369.28	0.00
369.48	0.00
369.68	0.00
369.87	0.00
370.07	9.36
370.27	0.00
370.47	49.15
370.66	325.33
370.86	353.42
371.06	470.45
371.25	433.00
371.45	458.74
371.65	461.09
371.84	451.72
372.04	500.87
372.24	468.11
372.44	496.19
372.63	540.66
372.83	578.11
373.03	538.32
373.22	456.40
373.42	477.47
373.62	503.22
373.81	594.50
374.01	655.35
374.21	669.39
374.40	645.99
374.60	662.37
374.79	580.45
374.99	538.32
375.19	688.12
375.38	660.03
375.58	634.29
375.78	678.76
375.97	660.03
376.17	631.94
376.37	594.50
376.56	601.52
376.76	650.67
376.95	653.01
377.15	655.35
377.35	716.20
377.54	608.54
377.74	702.16
377.93	662.37
378.13	751.31
378.33	755.99
378.52	678.76
378.72	723.23
378.91	688.12
379.11	592.16
379.31	732.59
379.50	709.18
379.70	706.84
379.89	814.51
380.09	788.76
380.28	730.25
380.48	770.04
380.68	770.04
380.87	760.67
381.07	809.83
381.26	800.46
381.46	791.10
381.65	793.44
381.85	774.72
382.04	793.44
382.24	819.19
382.43	774.72
382.63	835.57
382.83	842.59
383.02	868.34
383.22	933.87
383.41	894.08
383.61	802.80
383.80	905.79
384.00	847.27
384.19	835.57
384.39	849.61
384.58	898.77
384.78	968.98
384.97	912.81
385.17	894.08
385.36	863.66
385.56	971.32
385.75	959.62
385.95	985.37
386.14	931.53
386.34	889.40
386.53	1020.47
386.72	961.96
386.92	992.39
387.11	1032.18
387.31	1020.47
387.50	990.05
387.70	983.02
387.89	997.07
388.09	1036.86
388.28	1032.18
388.48	1064.94
388.67	1109.41
388.86	1062.60
389.06	1088.35
389.25	1057.92
389.45	1107.07
389.64	992.39
389.84	1060.26
390.03	1170.27
390.22	1057.92
390.42	1102.39
390.61	1125.80
390.81	1086.01
391.00	1132.82
391.19	1167.93
391.39	1172.61
391.58	1203.04
391.78	1174.95
391.97	1165.59
392.16	1174.95
392.36	1224.10
392.55	1266.23
392.75	1270.91
392.94	1266.23
393.13	1324.74
393.33	1268.57
393.52	1259.21
393.71	1348.15
393.91	1277.93
394.10	1315.38
394.29	1345.81
394.49	1287.29
394.68	1376.24
394.88	1338.79
395.07	1434.75
395.26	1373.89
395.46	1409.00
395.65	1467.52
395.84	1451.13
396.04	1497.94
396.23	1345.81
396.42	1516.67
396.62	1504.96
396.81	1547.09
397.00	1493.26
397.19	1486.24
397.39	1425.39
397.58	1521.35
397.77	1516.67
397.97	1558.80
398.16	1650.08
398.35	1638.38
398.55	1661.78
398.74	1605.61
398.93	1647.74
399.12	1626.67
399.32	1636.03
399.51	1593.90
399.70	1699.23
399.90	1600.93
400.09	1650.08
400.28	1776.47
400.47	1727.32
400.67	1774.13
400.86	1722.63
401.05	1689.87
401.24	1746.04
401.44	1757.74
401.63	1778.81
401.82	1952.01
402.01	1860.73
402.21	1879.45
402.40	1886.47
402.59	1933.28
402.78	1961.37
402.97	2008.18
403.17	1984.77
403.36	2001.16
403.55	1980.09
403.74	2052.65
403.93	2062.01
404.13	2054.99
404.32	2104.14
404.51	2015.20
404.70	2232.87
404.89	2092.44
405.09	2200.10
405.28	2214.15
405.47	2160.31
405.66	2200.10
405.85	2176.70
406.05	2207.13
406.24	2172.02
406.43	2249.25
406.62	2340.54
406.81	2443.52
407.00	2214.15
407.20	2216.49
407.39	2289.04
407.58	2361.60
407.77	2354.58
407.96	2476.29
408.15	2457.56
408.34	2434.16
408.54	2441.18
408.73	2619.06
408.92	2429.48
409.11	2551.18
409.30	2642.46
409.49	2490.33
409.68	2555.86
409.87	2670.55
410.07	2656.51
410.26	2780.56
410.45	2581.61
410.64	2719.70
410.83	2810.98
411.02	2747.79
411.21	2733.75
411.40	2787.58
411.59	2974.82
411.78	2951.42
411.98	2909.29
412.17	2946.73
412.36	2935.03
412.55	3016.95
412.74	3124.62
412.93	2988.86
413.12	2937.37
413.31	3183.13
413.50	3122.27
413.69	3173.77
413.88	3272.07
414.07	3115.25
414.26	3222.92
414.45	3368.03
414.64	3339.94
414.83	3304.84
415.02	3283.77
415.22	3515.48
415.41	3548.25
415.60	3442.93
415.79	3405.48
415.98	3613.79
416.17	3585.70
416.36	3510.80
416.55	3627.83
416.74	3681.66
416.93	3634.85
417.12	3758.90
417.31	3723.79
417.50	3630.17
417.69	3805.71
417.88	3992.95
418.07	3894.65
418.26	3871.25
418.45	4004.66
418.64	4152.11
418.83	3969.55
419.02	3927.42
419.21	3995.29
419.39	4088.92
419.58	4004.66
419.77	3992.95
419.96	4147.43
420.15	4198.92
420.34	4187.22
420.53	4236.37
420.72	4292.54
420.91	4051.47
421.10	4334.67
421.29	4325.31
421.48	4196.58
421.67	4271.48
421.86	4109.98
422.05	4311.27
422.24	4341.69
422.43	4379.14
422.61	4425.95
422.80	4500.85
422.99	4320.63
423.18	4418.93
423.37	4479.79
423.56	4451.70
423.75	4402.55
423.94	4414.25
424.13	4334.67
424.32	4259.78
424.50	4325.31
424.69	4587.45
424.88	4594.47
425.07	4346.37
425.26	4423.61
425.45	4430.63
425.64	4531.28
425.83	4573.41
426.01	4608.51
426.20	4606.17
426.39	4503.19
426.58	4554.68
426.77	4676.39
426.96	4578.09
427.15	4510.21
427.33	4575.75
427.52	4697.46
427.71	4772.35
427.90	4765.33
428.09	4734.90
428.28	4833.21
428.46	4835.55
428.65	4734.90
428.84	4933.85
429.03	5104.71
429.22	4744.27
429.40	5074.28
429.59	4980.66
429.78	4765.33
429.97	4748.95
430.16	4882.36
430.34	4971.30
430.53	4994.70
430.72	5179.61
430.91	4992.36
431.10	5057.90
431.28	5317.70
431.47	5088.32
431.66	5214.71
431.85	5123.43
432.03	5238.12
432.22	5357.49
432.41	5380.89
432.60	5439.40
432.79	5280.25
432.97	5315.36
433.16	5418.34
433.35	5530.69
433.54	5397.28
433.72	5350.46
433.91	5593.88
434.10	5607.92
434.28	5561.11
434.47	5621.97
434.66	5657.07
434.85	5743.67
435.03	5596.22
435.22	5720.27
435.41	5830.27
435.59	5846.66
435.78	5666.44
435.97	5778.78
436.16	5865.38
436.34	5816.23
436.53	5879.43
436.72	6029.22
436.90	6008.16
437.09	6108.80
437.28	5827.93
437.46	5940.28
437.65	6019.86
437.84	5973.05
438.02	5947.30
438.21	6026.88
438.40	6167.31
438.58	6349.87
438.77	6370.94
438.96	6242.21
439.14	6291.36
439.33	6377.96
439.52	6502.01
439.70	6548.82
439.89	6478.60
440.08	6724.36
440.26	6670.53
440.45	6740.74
440.63	6771.17
440.82	7052.03
441.01	6881.18
441.19	7042.67
441.38	7005.22
441.57	7136.29
441.75	7204.17
441.94	7300.13
442.12	7309.49
442.31	7262.68
442.50	7311.83
442.68	7332.90
442.87	7211.19
443.05	7461.63
443.24	7431.20
443.43	7400.77
443.61	7442.90
443.80	7637.17
443.98	7342.26
444.17	7246.30
444.35	7470.99
444.54	7564.61
444.73	7698.02
444.91	7705.04
445.10	7571.63
445.28	7503.76
445.47	7531.84
445.65	7758.88
445.84	7648.87
446.02	7756.54
446.21	7604.40
446.39	7470.99
446.58	7831.43
446.77	7627.81
446.95	7524.82
447.14	7648.87
447.32	7742.49
447.51	7740.15
447.69	7754.19
447.88	7840.79
448.06	7742.49
448.25	7662.91
448.43	7873.56
448.62	7784.62
448.80	7749.51
448.99	7824.41
449.17	8042.08
449.36	7852.50
449.54	8175.49
449.73	8264.43
449.91	8107.62
450.10	8236.35
450.28	8344.01
450.46	8379.12
450.65	8250.39
450.83	8489.12
451.02	8346.35
451.20	8451.67
451.39	8521.89
451.57	8348.69
451.76	8114.64
451.94	8519.55
452.13	8388.48
452.31	8503.17
452.49	8463.38
452.68	8643.60
452.86	8493.80
453.05	8734.88
453.23	8744.24
453.42	8404.86
453.60	8751.26
453.78	8589.77
453.97	8667.00
454.15	8545.30
454.34	8695.09
454.52	8968.93
454.70	8863.61
454.89	8842.54
455.07	9046.17
455.26	8978.30
455.44	9022.77
455.62	9132.77
455.81	9104.68
455.99	9228.73
456.17	9242.78
456.36	9142.13
456.54	9404.27
456.73	9460.45
456.91	9666.41
457.09	9486.19
457.28	9675.77
457.46	9483.85
457.64	9715.56
457.83	9760.03
458.01	9444.06
458.19	9760.03
458.38	9502.58
458.56	9886.42
458.74	9809.19
458.93	9757.69
459.11	9825.57
459.29	9767.06
459.48	9769.40
459.66	10085.37
459.84	10122.82
460.03	9956.64
460.21	10057.28
460.39	9984.73
460.57	10024.51
460.76	10087.71
460.94	10263.25
461.12	10300.70
461.31	10108.77
461.49	10225.80
461.67	10314.74
461.85	10471.56
462.04	10289.00
462.22	10963.07
462.40	10679.86
462.59	10530.07
462.77	10544.11
462.95	10710.29
463.13	10731.36
463.32	10792.21
463.50	10754.76
463.68	10824.98
463.86	10684.55
464.05	10724.33
464.23	10562.84
464.41	10827.32
464.59	10572.20
464.78	10993.50
464.96	10876.47
465.14	10843.70
465.32	10836.68
465.50	11073.07
465.69	11314.15
465.87	11225.21
466.05	10902.22
466.23	11187.76
466.41	11307.13
466.60	11363.30
466.78	11232.23
466.96	11286.06
467.14	10967.75
467.32	11208.83
467.51	11487.35
467.69	11229.89
467.87	11449.90
468.05	11470.97
468.23	11096.48
468.41	11592.67
468.60	11487.35
468.78	11583.31
468.96	11651.19
469.14	11688.64
469.32	12084.19
469.50	11419.47
469.69	12095.89
469.87	11981.20
470.05	12042.06
470.23	12123.98
470.41	12002.27
470.59	12135.68
470.77	12072.48
470.95	12306.54
471.14	12421.22
471.32	12109.93
471.50	12264.41
471.68	12482.08
471.86	12592.08
472.04	12608.47
472.22	12734.85
472.40	12322.92
472.58	12587.40
472.77	12809.75
472.95	12877.63
473.13	13301.26
473.31	12830.82
473.49	13092.96
473.67	13097.64
473.85	13209.98
474.03	13294.24
474.21	13270.84
474.39	13507.23
474.57	13570.43
474.75	13783.41
474.93	13809.16
475.12	13783.41
475.30	13755.33
475.48	13900.44
475.66	13776.39
475.84	14078.32
476.02	14031.51
476.20	14345.14
476.38	14530.05
476.56	14609.62
476.74	14794.53
476.92	14572.18
477.10	14668.14
477.28	15089.43
477.46	14766.44
477.64	15075.39
477.82	15269.66
478.00	15772.87
478.18	15674.57
478.36	15728.40
478.54	15845.43
478.72	15779.89
478.90	16161.40
479.08	15997.56
479.26	16231.62
479.44	16224.59
479.62	16622.48
479.80	16638.87
479.98	16774.62
480.16	16835.47
480.34	17020.38
480.52	17018.04
480.70	17179.53
480.88	17224.00
481.06	17451.03
481.24	17343.37
481.41	17661.68
481.59	17909.78
481.77	18090.00
481.95	18043.19
482.13	18272.56
482.31	18335.76
482.49	18693.86
482.67	18555.77
482.85	18806.20
483.03	19033.24
483.21	19206.44
483.39	19576.24
483.57	19185.37
483.74	19391.34
483.92	19784.55
484.10	19639.44
484.28	20348.62
484.46	20386.07
484.64	20807.36
484.82	20315.85
485.00	20362.66
485.18	20868.22
485.35	21130.36
485.53	21284.83
485.71	21436.97
485.89	21769.32
486.07	21846.56
486.25	21769.32
486.43	21720.17
486.61	21633.57
486.78	22185.94
486.96	22457.44
487.14	22789.80
487.32	22752.35
487.50	22892.78
487.68	23084.70
487.85	23482.59
488.03	23625.37
488.21	23838.36
488.39	23948.36
488.57	24208.16
488.75	24123.90
488.92	24584.99
489.10	24716.06
489.28	24954.79
489.46	25539.93
489.64	25245.02
489.81	25446.30
489.99	25659.29
490.17	25811.43
490.35	25853.56
490.53	26235.06
490.70	26370.82
490.88	26232.72
491.06	26614.23
491.24	26529.97
491.41	26490.18
491.59	27016.80
491.77	27442.78
491.95	27868.76
492.13	27665.13
492.30	27611.30
492.48	27611.30
492.66	27850.03
492.84	28060.68
493.01	28547.51
493.19	28713.69
493.37	28826.04
493.54	29467.34
493.72	29092.86
493.90	29291.80
494.08	29378.40
494.25	29790.34
494.43	30162.48
494.61	30267.81
494.79	30026.73
494.96	30316.96
495.14	30167.16
495.32	30462.07
495.49	30333.34
495.67	30913.80
495.85	31459.14
496.02	31515.31
496.20	31192.32
496.38	31592.55
496.55	31608.93
496.73	32451.53
496.91	32465.57
497.09	32119.17
497.26	32488.98
497.44	32154.28
497.62	32273.65
497.79	32723.03
497.97	33193.48
498.14	33427.53
498.32	33696.69
498.50	33509.45
498.67	34024.37
498.85	33841.81
499.03	34115.65
499.20	34202.25
499.38	34508.86
499.56	34572.05
499.73	34595.46
499.91	35084.63
500.08	35140.80
500.26	34691.42
500.44	34780.36
500.61	35419.33
500.79	35543.38
500.97	35248.47
501.14	35920.20
501.32	35452.09
501.49	35852.33
501.67	36360.22
501.84	36086.38
502.02	36133.19
502.20	36570.87
502.37	36854.08
502.55	36563.85
502.72	36535.76
502.90	37399.42
503.07	36924.29
503.25	36996.85
503.43	37177.07
503.60	37677.94
503.78	37600.71
503.95	37661.56
504.13	37567.94
504.30	37972.85
504.48	37713.05
504.65	38059.45
504.83	37865.19
505.01	38850.55
505.18	38476.07
505.36	38749.91
505.53	38562.67
505.71	38756.93
505.88	38581.39
506.06	38450.32
506.23	38850.55
506.41	39131.42
506.58	39337.38
506.76	39262.49
506.93	39707.19
507.11	39374.83
507.28	39707.19
507.46	39573.78
507.63	40062.95
507.81	40390.62
507.98	39924.86
508.16	40402.33
508.33	40315.73
508.50	40484.25
508.68	40491.27
508.85	41359.61
509.03	40781.49
509.20	41289.39
509.38	41645.15
509.55	41640.47
509.73	41549.19
509.90	41280.03
510.08	41757.50
510.25	41860.48
510.42	42045.38
510.60	42017.30
510.77	42335.61
510.95	42141.35
511.12	42260.71
511.30	42536.90
511.47	42536.90
511.64	42682.01
511.82	42944.15
511.99	43150.12
512.17	42918.40
512.34	43482.47
512.51	43173.52
512.69	43688.44
512.86	43412.26
513.04	43646.31
513.21	43973.98
513.38	43957.60
513.56	44079.31
513.73	44100.37
513.90	44062.93
514.08	43934.20
514.25	44615.29
514.43	44439.75
514.60	44722.96
514.77	44720.62
514.95	44886.79
515.12	44528.69
515.29	44772.11
515.47	45240.21
515.64	45528.10
515.81	45137.23
515.99	45525.76
516.16	45221.49
516.33	45207.45
516.51	46178.77
516.68	45593.64
516.85	45830.03
517.03	46087.49
517.20	46351.97
517.37	45914.29
517.54	46146.00
517.72	46188.13
517.89	46162.39
518.06	46244.30
518.24	46834.12
518.41	46340.27
518.58	47040.09
518.75	46770.93
518.93	47021.36
519.10	46745.18
519.27	47049.45
519.45	47061.15
519.62	47122.01
519.79	47215.63
519.96	47239.03
520.14	47501.17
520.31	47564.37
520.48	47976.30
520.65	47650.97
520.83	47875.66
521.00	47948.21
521.17	48126.10
521.34	48109.71
521.52	48175.25
521.69	48151.84
521.86	48580.16
522.03	48526.33
522.20	48610.59
522.38	48605.91
522.55	48776.76
522.72	48622.29
522.89	48781.45
523.07	49099.76
523.24	49095.08
523.41	49343.17
523.58	48793.15
523.75	49485.95
523.92	49024.86
524.10	49200.40
524.27	49024.86
524.44	49532.76
524.61	49602.97
524.78	49668.51
524.96	49787.88
525.13	49530.42
525.30	50005.55
525.47	50000.86
525.64	49846.39
525.81	50319.18
525.98	50192.79
526.16	50335.56
526.33	50145.98
526.50	50478.33
526.67	49984.48
526.84	50653.87
527.01	50450.25
527.18	50916.01
527.36	50649.19
527.53	50841.12
527.70	51026.02
527.87	50857.50
528.04	50590.68
528.21	50740.47
528.38	51068.15
528.55	51217.94
528.72	51091.55
528.89	51271.78
529.07	51021.34
529.24	51194.54
529.41	51414.55
529.58	51058.79
529.75	51236.67
529.92	51166.45
530.09	51330.29
530.26	51295.18
530.43	51332.63
530.60	51444.98
530.77	51819.46
530.94	51793.71
531.11	51545.62
531.28	51627.54
531.46	51400.50
531.63	51882.66
531.80	52254.80
531.97	52430.34
532.14	52163.52
532.31	52346.08
532.48	52231.40
532.65	52343.74
532.82	52507.58
532.99	52575.45
533.16	52222.03
533.33	52846.96
533.50	53106.76
533.67	52790.78
533.84	52816.53
534.01	52650.35
534.18	52783.76
534.35	53069.31
534.52	52802.49
534.69	53113.78
534.86	53202.72
535.03	52776.74
535.20	53247.19
535.37	53261.23
535.54	53172.29
535.71	52790.78
535.88	53081.01
536.05	53059.94
536.22	53219.10
536.38	53675.51
536.55	53296.34
536.72	53670.82
536.89	53118.46
537.06	53256.55
537.23	53530.39
537.40	53284.64
537.57	53719.98
537.74	53509.33
537.91	53977.43
538.08	53865.09
538.25	53724.66
538.42	53701.25
538.59	53855.73
538.75	53752.74
538.92	53947.01
539.09	54181.06
539.26	53939.99
539.43	53907.22
539.60	54309.79
539.77	54199.79
539.94	54349.58
540.11	54258.30
540.28	54333.20
540.44	53947.01
540.61	54293.41
540.78	54468.95
540.95	54487.67
541.12	54712.36
541.29	54529.80
541.46	54405.75
541.62	54138.93
541.79	54555.55
541.96	54239.57
542.13	54649.17
542.30	54630.44
542.47	54906.63
542.63	54913.65
542.80	54871.52
542.97	54953.44
543.14	55168.77
543.31	55030.68
543.48	55103.23
543.64	55428.57
543.81	55381.76
543.98	55470.70
544.15	55428.57
544.32	55166.43
544.48	55473.04
544.65	55449.63
544.82	55171.11
544.99	55035.36
545.16	55592.40
545.32	55433.25
545.49	55618.15
545.66	55964.55
545.83	55400.48
546.00	55774.97
546.16	55683.69
546.33	55374.73
546.50	55442.61
546.67	55540.91
546.83	55454.31
547.00	55716.45
547.17	55667.30
547.34	55718.79
547.50	55901.36
547.67	56184.56
547.84	55800.71
548.00	56055.83
548.17	56346.06
548.34	55952.85
548.51	56046.47
548.67	56086.26
548.84	56271.16
549.01	56189.24
549.18	56109.66
549.34	56109.66
549.51	56121.37
549.68	56313.29
549.84	56435.00
550.01	56303.93
550.18	56067.53
550.34	56149.45
550.51	56521.60
550.68	56563.73
550.84	56069.87
551.01	56509.89
551.18	56519.26
551.34	56332.01
551.51	56491.17
551.68	56612.88
551.84	56582.45
552.01	56488.83
552.18	56875.02
552.34	56498.19
552.51	56664.37
552.68	56446.70
552.84	56442.02
553.01	56942.89
553.18	56877.36
553.34	56732.25
553.51	56732.25
553.67	56973.32
553.84	57050.56
554.01	57169.93
554.17	56956.94
554.34	56942.89
554.51	56741.61
554.67	57118.43
554.84	57221.42
555.00	56926.51
555.17	57125.46
555.33	57120.77
555.50	57200.35
555.67	57279.93
555.83	57165.24
556.00	57207.37
556.16	57319.72
556.33	57303.34
556.50	57303.34
556.66	57411.00
556.83	57003.75
556.99	57523.35
557.16	57284.61
557.32	57565.48
557.49	57539.73
557.65	57165.24
557.82	57364.19
557.98	57396.96
558.15	57333.76
558.32	57443.77
558.48	57750.38
558.65	57818.25
558.81	57577.18
558.98	57425.04
559.14	57659.10
559.31	57780.81
559.47	57729.31
559.64	57684.84
559.80	57858.04
559.97	57759.74
560.13	57682.50
560.30	57612.29
560.46	57743.36
560.63	57954.00
560.79	57811.23
560.96	57631.01
561.12	57876.77
561.29	57661.44
561.45	57916.56
561.61	58127.20
561.78	57984.43
561.94	57822.93
562.11	57939.96
562.27	57834.64
562.44	57811.23
562.60	58040.60
562.77	58045.29
562.93	58042.95
563.10	58061.67
563.26	58129.54
563.42	58370.62
563.59	58110.82
563.75	58178.70
563.92	58174.02
564.08	58071.03
564.24	57986.77
564.41	58059.33
564.57	57858.04
564.74	58019.54
564.90	58129.54
565.07	58129.54
565.23	58272.32
565.39	58195.08
565.56	58120.18
565.72	58014.86
565.88	58309.77
566.05	58094.44
566.21	58321.47
566.38	58255.93
566.54	58218.49
566.70	58438.50
566.87	58443.18
567.03	58265.30
567.19	58635.10
567.36	58253.59
567.52	58274.66
567.68	58653.82
567.85	58120.18
568.01	58209.12
568.17	58267.64
568.34	58560.20
568.50	58546.16
568.66	58342.53
568.83	58497.01
568.99	58361.26
569.15	58309.77
569.32	58260.62
569.48	58279.34
569.64	58529.78
569.81	58574.25
569.97	58468.92
570.13	58621.06
570.30	58384.66
570.46	58511.05
570.62	58387.00
570.78	58518.07
570.95	58379.98
571.11	58279.34
571.27	58445.52
571.43	58403.39
571.60	58752.13
571.76	58478.28
571.92	58468.92
572.09	58672.55
572.25	58665.53
572.41	58522.76
572.57	58618.72
572.74	58855.11
572.90	58464.24
573.06	58344.87
573.22	58630.42
573.38	58684.25
573.55	58681.91
573.71	58862.13
573.87	58817.66
574.03	58628.08
574.20	58724.04
574.36	58845.75
574.52	58553.18
574.68	58717.02
574.84	58876.18
575.01	58803.62
575.17	58820.00
575.33	58651.48
575.49	58794.26
575.65	59037.67
575.82	58834.05
575.98	58623.40
576.14	58908.94
576.30	58990.86
576.46	58801.28
576.62	58841.07
576.79	58777.87
576.95	58628.08
577.11	58782.55
577.27	58918.31
577.43	59068.10
577.59	58953.41
577.75	58820.00
577.92	58810.64
578.08	58646.80
578.24	58644.46
578.40	58684.25
578.56	58850.43
578.72	58569.57
578.88	59042.35
579.04	59025.97
579.21	58880.86
579.37	58759.15
579.53	58990.86
579.69	58527.44
579.85	58958.09
580.01	58955.75
580.17	58599.99
580.33	58990.86
580.49	58838.73
580.65	58981.50
580.82	59025.97
580.98	58892.56
581.14	58880.86
581.30	58974.48
581.46	58841.07
581.62	58904.26
581.78	58880.86
581.94	59049.38
582.10	58866.81
582.26	59061.08
582.42	58887.88
582.58	59386.41
582.74	59222.58
582.90	59121.93
583.06	58939.37
583.22	58857.45
583.38	59253.00
583.54	59054.06
583.70	59030.65
583.86	59112.57
584.02	58955.75
584.18	59058.74
584.34	59119.59
584.50	59206.19
584.66	59253.00
584.82	58927.67
584.98	59054.06
585.14	58986.18
585.30	58855.11
585.46	59072.78
585.62	58951.07
585.78	59007.25
585.94	58960.44
586.10	59086.82
586.26	59138.32
586.42	59105.55
586.58	59192.15
586.74	59091.51
586.90	59194.49
587.06	59140.66
587.22	59004.91
587.38	58852.77
587.54	59264.70
587.70	59419.18
587.86	59161.72
588.02	59229.60
588.18	59407.48
588.34	59079.80
588.49	59056.40
588.65	59154.70
588.81	59152.36
588.97	59047.04
589.13	59089.16
589.29	59175.76
589.45	59243.64
