SpectraSuite Data File
++++++++++++++++++++++++++++++++++++
Date: Fri Oct 04 11:48:31 GMT-05:00 2013
User: price-jones
Dark Spectrum Present: No
Reference Spectrum Present: No
Number of Sampled Component Spectra: 1
Spectrometers: USB2+H05261
Integration Time (usec): 100000 (USB2+H05261)
Spectra Averaged: 1 (USB2+H05261)
Boxcar Smoothing: 0 (USB2+H05261)
Correct for Electrical Dark: No (USB2+H05261)
Strobe/Lamp Enabled: No (USB2+H05261)
Correct for Detector Non-linearity: No (USB2+H05261)
Correct for Stray Light: No (USB2+H05261)
Number of Pixels in Processed Spectrum: 2048
>>>>>Begin Processed Spectral Data<<<<<
365.73	0.00
365.92	0.00
366.12	0.00
366.32	0.00
366.52	0.00
366.72	0.00
366.91	0.00
367.11	0.00
367.31	0.00
367.51	0.00
367.70	0.00
367.90	0.00
368.10	0.00
368.30	4.68
368.49	0.00
368.69	0.00
368.89	0.00
369.09	0.00
369.28	0.00
369.48	0.00
369.68	0.00
369.87	7.02
370.07	0.00
370.27	0.00
370.47	168.52
370.66	374.49
370.86	514.92
371.06	421.30
371.25	507.90
371.45	505.56
371.65	425.98
371.84	437.68
372.04	519.60
372.24	559.39
372.44	606.20
372.63	533.64
372.83	540.66
373.03	517.26
373.22	596.84
373.42	634.29
373.62	580.45
373.81	564.07
374.01	592.16
374.21	671.73
374.40	561.73
374.60	592.16
374.79	575.77
374.99	617.90
375.19	720.88
375.38	596.84
375.58	741.95
375.78	664.71
375.97	706.84
376.17	788.76
376.37	650.67
376.56	709.18
376.76	655.35
376.95	702.16
377.15	706.84
377.35	772.38
377.54	723.23
377.74	697.48
377.93	697.48
378.13	795.78
378.33	692.80
378.52	781.74
378.72	868.34
378.91	791.10
379.11	725.57
379.31	699.82
379.50	702.16
379.70	781.74
379.89	819.19
380.09	746.63
380.28	777.06
380.48	809.83
380.68	723.23
380.87	788.76
381.07	805.14
381.26	849.61
381.46	856.64
381.65	739.61
381.85	814.51
382.04	863.66
382.24	894.08
382.43	851.96
382.63	863.66
382.83	866.00
383.02	917.49
383.22	884.72
383.41	973.66
383.61	1025.15
383.80	894.08
384.00	854.30
384.19	877.70
384.39	856.64
384.58	894.08
384.78	945.58
384.97	1022.81
385.17	940.90
385.36	931.53
385.56	919.83
385.75	968.98
385.95	1004.09
386.14	1011.11
386.34	968.98
386.53	980.68
386.72	1029.84
386.92	959.62
387.11	1125.80
387.31	1055.58
387.50	1083.67
387.70	1060.26
387.89	1034.52
388.09	1135.16
388.28	1057.92
388.48	1025.15
388.67	1100.05
388.86	1132.82
389.06	1210.06
389.25	1137.50
389.45	1165.59
389.64	1174.95
389.84	1191.33
390.03	1198.35
390.22	1149.20
390.42	1158.57
390.61	1144.52
390.81	1261.55
391.00	1256.87
391.19	1284.95
391.39	1277.93
391.58	1289.64
391.78	1261.55
391.97	1301.34
392.16	1308.36
392.36	1341.13
392.55	1373.89
392.75	1296.66
392.94	1385.60
393.13	1409.00
393.33	1439.43
393.52	1444.11
393.71	1334.11
393.91	1357.51
394.10	1366.87
394.29	1434.75
394.49	1397.30
394.68	1465.18
394.88	1362.19
395.07	1439.43
395.26	1572.84
395.46	1413.68
395.65	1549.43
395.84	1558.80
396.04	1589.22
396.23	1624.33
396.42	1551.78
396.62	1624.33
396.81	1621.99
397.00	1511.99
397.19	1582.20
397.39	1647.74
397.58	1664.12
397.77	1549.43
397.97	1530.71
398.16	1657.10
398.35	1638.38
398.55	1774.13
398.74	1619.65
398.93	1710.93
399.12	1692.21
399.32	1682.85
399.51	1762.42
399.70	1802.21
399.90	1820.94
400.09	1827.96
400.28	1799.87
400.47	1853.70
400.67	1849.02
400.86	1879.45
401.05	1895.83
401.24	1858.39
401.44	1881.79
401.63	1944.99
401.82	2043.29
402.01	2064.35
402.21	2071.37
402.40	2078.40
402.59	1991.80
402.78	2022.22
402.97	2064.35
403.17	2176.70
403.36	2069.03
403.55	2040.95
403.74	2188.40
403.93	2113.50
404.13	2167.34
404.32	2202.44
404.51	2216.49
404.70	2272.66
404.89	2216.49
405.09	2223.51
405.28	2167.34
405.47	2200.10
405.66	2286.70
405.85	2429.48
406.05	2370.96
406.24	2289.04
406.43	2415.43
406.62	2462.24
406.81	2487.99
407.00	2373.30
407.20	2377.98
407.39	2455.22
407.58	2420.11
407.77	2546.50
407.96	2513.74
408.15	2511.39
408.34	2455.22
408.54	2663.53
408.73	2595.65
408.92	2586.29
409.11	2668.21
409.30	2637.78
409.49	2689.28
409.68	2747.79
409.87	2747.79
410.07	2731.41
410.26	2738.43
410.45	2789.92
410.64	2827.37
410.83	2855.45
411.02	2834.39
411.21	2991.20
411.40	3005.25
411.59	2963.12
411.78	2946.73
411.98	2967.80
412.17	2958.44
412.36	3052.06
412.55	3159.72
412.74	3204.19
412.93	3112.91
413.12	3220.58
413.31	3494.42
413.50	3119.93
413.69	3353.99
413.88	3295.47
414.07	3358.67
414.26	3323.56
414.45	3328.24
414.64	3337.60
414.83	3405.48
415.02	3433.57
415.22	3581.02
415.41	3604.42
415.60	3578.68
415.79	3609.11
415.98	3651.24
416.17	3779.97
416.36	3705.07
416.55	3786.99
416.74	3920.40
416.93	3864.22
417.12	3964.87
417.31	3922.74
417.50	3985.93
417.69	4100.62
417.88	3967.21
418.07	4074.87
418.26	3974.23
418.45	4081.89
418.64	4166.15
418.83	4198.92
419.02	4077.21
419.21	4145.09
419.39	4112.32
419.58	4252.75
419.77	4215.30
419.96	4198.92
420.15	4301.90
420.34	4201.26
420.53	4259.78
420.72	4421.27
420.91	4372.12
421.10	4393.19
421.29	4566.39
421.48	4341.69
421.67	4500.85
421.86	4491.49
422.05	4479.79
422.24	4554.68
422.43	4400.21
422.61	4470.42
422.80	4524.26
422.99	4704.48
423.18	4627.24
423.37	4730.22
423.56	4706.82
423.75	4566.39
423.94	4713.84
424.13	4423.61
424.32	4519.57
424.50	4788.74
424.69	4805.12
424.88	4688.09
425.07	4727.88
425.26	4620.22
425.45	4472.76
425.64	4620.22
425.83	4727.88
426.01	4798.10
426.20	4730.22
426.39	4798.10
426.58	4807.46
426.77	4723.20
426.96	4915.12
427.15	4727.88
427.33	4795.76
427.52	5013.43
427.71	4950.23
427.90	4910.44
428.09	4931.51
428.28	4933.85
428.46	5121.09
428.65	5233.44
428.84	5165.56
429.03	5252.16
429.22	5001.72
429.40	5291.95
429.59	5219.39
429.78	4961.94
429.97	4943.21
430.16	5055.56
430.34	5219.39
430.53	5266.21
430.72	5317.70
430.91	5149.18
431.10	5254.50
431.28	5289.61
431.47	5458.13
431.66	5460.47
431.85	5371.53
432.03	5584.52
432.22	5607.92
432.41	5650.05
432.60	5645.37
432.79	5610.26
432.97	5636.01
433.16	5729.63
433.35	5696.86
433.54	5722.61
433.72	5741.33
433.91	5617.29
434.10	5940.28
434.28	5750.70
434.47	5743.67
434.66	5778.78
434.85	6033.90
435.03	6076.03
435.22	6052.63
435.41	6113.48
435.59	5994.11
435.78	5977.73
435.97	6120.50
436.16	6169.65
436.34	6167.31
436.53	6183.70
436.72	6359.24
436.90	6076.03
437.09	6160.29
437.28	6176.67
437.46	6396.68
437.65	6335.83
437.84	6368.60
438.02	6349.87
438.21	6485.62
438.40	6420.09
438.58	6759.47
438.77	6733.72
438.96	6333.49
439.14	6796.92
439.33	6792.23
439.52	6825.00
439.70	6724.36
439.89	6803.94
440.08	7016.93
440.26	7037.99
440.45	6927.99
440.63	7166.72
440.82	7201.83
441.01	7115.23
441.19	7218.21
441.38	7358.64
441.57	7438.22
441.75	7529.50
441.94	7627.81
442.12	7602.06
442.31	7569.29
442.50	7555.25
442.68	7393.75
442.87	7756.54
443.05	7648.87
443.24	7740.15
443.43	7786.96
443.61	7730.79
443.80	8077.19
443.98	7772.92
444.17	7716.75
444.35	7936.76
444.54	8037.40
444.73	8006.97
444.91	8140.38
445.10	7983.57
445.28	8013.99
445.47	7950.80
445.65	7943.78
445.84	8067.83
446.02	8119.32
446.21	8058.46
446.39	8086.55
446.58	8152.09
446.77	7969.52
446.95	7899.31
447.14	8035.06
447.32	8079.53
447.51	8037.40
447.69	8028.04
447.88	8091.23
448.06	8105.28
448.25	7957.82
448.43	8203.58
448.62	8205.92
448.80	8166.13
448.99	8257.41
449.17	8339.33
449.36	8248.05
449.54	8484.44
449.73	8521.89
449.91	8500.83
450.10	8566.36
450.28	8734.88
450.46	8573.38
450.65	8437.63
450.83	8709.13
451.02	8664.66
451.20	8531.25
451.39	8582.74
451.57	8688.07
451.76	8702.11
451.94	8805.10
452.13	8978.30
452.31	8868.29
452.49	8594.45
452.68	8812.12
452.86	8802.75
453.05	9015.74
453.23	9085.96
453.42	8943.19
453.60	8858.93
453.78	9132.77
453.97	8966.59
454.15	9280.22
454.34	9081.28
454.52	9305.97
454.70	9287.25
454.89	9100.00
455.07	9263.84
455.26	9423.00
455.44	9406.61
455.62	9441.72
455.81	9362.14
455.99	9547.05
456.17	9579.81
456.36	9575.13
456.54	9537.68
456.73	9900.47
456.91	10005.79
457.09	9839.61
457.28	9874.72
457.46	9928.55
457.64	10022.17
457.83	10202.40
458.01	9736.63
458.19	10183.67
458.38	10228.14
458.56	10431.77
458.74	10420.06
458.93	10176.65
459.11	10239.84
459.29	10277.29
459.48	10300.70
459.66	10420.06
459.84	10387.30
460.03	10600.29
460.21	10396.66
460.39	10413.04
460.57	10619.01
460.76	10621.35
460.94	10705.61
461.12	10537.09
461.31	10778.17
461.49	10743.06
461.67	10766.46
461.85	11061.37
462.04	10930.30
462.22	11410.11
462.40	10956.05
462.59	10979.45
462.77	10953.71
462.95	10885.83
463.13	11115.20
463.32	11112.86
463.50	11169.04
463.68	11344.58
463.86	11192.44
464.05	11351.60
464.23	11262.66
464.41	11442.88
464.59	11272.02
464.78	11513.10
464.96	11365.64
465.14	11482.67
465.32	11529.48
465.50	11482.67
465.69	11695.66
465.87	11529.48
466.05	11463.94
466.23	11522.46
466.41	11686.29
466.60	11887.58
466.78	11810.34
466.96	11515.44
467.14	11585.65
467.32	11627.78
467.51	11882.90
467.69	11892.26
467.87	12077.16
468.05	12084.19
468.23	12030.35
468.41	12299.52
468.60	12081.85
468.78	12285.47
468.96	12255.04
469.14	12381.43
469.32	12524.21
469.50	11913.33
469.69	12585.06
469.87	12421.22
470.05	12718.47
470.23	12549.95
470.41	12610.81
470.59	12549.95
470.77	12578.04
470.95	12823.80
471.14	12952.52
471.32	12676.34
471.50	13128.06
471.68	13170.19
471.86	13224.03
472.04	13352.76
472.22	13238.07
472.40	13383.18
472.58	13493.19
472.77	13186.58
472.95	13563.40
473.13	13830.23
473.31	13355.10
473.49	13577.45
473.67	13851.29
473.85	13745.97
474.03	13832.57
474.21	13790.44
474.39	14153.22
474.57	13987.04
474.75	14527.71
474.93	14314.72
475.12	14476.21
475.30	14214.07
475.48	14361.53
475.66	14745.38
475.84	14501.96
476.02	14794.53
476.20	14824.95
476.38	15241.57
476.56	15176.03
476.74	15545.84
476.92	15227.53
477.10	15215.82
477.28	15758.83
477.46	15492.01
477.64	15843.09
477.82	15805.64
478.00	16161.40
478.18	16320.56
478.36	16365.03
478.54	16844.84
478.72	16545.25
478.90	16896.33
479.08	16854.20
479.26	16786.32
479.44	17160.81
479.62	17207.62
479.80	17177.19
479.98	17547.00
480.16	17802.11
480.34	17743.60
480.52	18146.17
480.70	17841.90
480.88	17832.54
481.06	18022.12
481.24	18160.22
481.41	18567.47
481.59	18370.86
481.77	18813.23
481.95	18761.73
482.13	19028.56
482.31	18881.10
482.49	19447.51
482.67	19241.54
482.85	19571.56
483.03	19889.87
483.21	20114.56
483.39	20210.53
483.57	20119.24
483.74	20514.80
483.92	20606.08
484.10	20465.64
484.28	20865.88
484.46	21090.57
484.64	21441.65
484.82	21270.79
485.00	21287.17
485.18	21647.61
485.35	22305.31
485.53	22115.72
485.71	22265.52
485.89	22735.96
486.07	22628.30
486.25	22738.30
486.43	22939.59
486.61	23002.78
486.78	23227.48
486.96	23613.66
487.14	23782.18
487.32	23751.76
487.50	24283.06
487.68	24418.81
487.85	24409.45
488.03	24725.42
488.21	25085.86
488.39	25095.22
488.57	25205.23
488.75	25252.04
488.92	25914.41
489.10	25881.64
489.28	25729.51
489.46	26324.01
489.64	25977.61
489.81	26693.81
489.99	26518.27
490.17	26408.26
490.35	27494.27
490.53	27379.59
490.70	27367.88
490.88	27697.90
491.06	27681.52
491.24	27985.79
491.41	27803.22
491.59	28182.39
491.77	28655.18
491.95	28830.72
492.13	28987.53
492.30	28816.68
492.48	28989.88
492.66	29544.58
492.84	29525.86
493.01	29654.59
493.19	29769.27
493.37	29979.92
493.54	30012.69
493.72	30768.68
493.90	30174.19
494.08	30796.77
494.25	30969.97
494.43	31278.92
494.61	31974.06
494.79	31742.35
494.96	31498.93
495.14	31981.08
495.32	31934.27
495.49	32301.73
495.67	31894.48
495.85	32334.50
496.02	32917.29
496.20	32854.10
496.38	32760.48
496.55	33371.36
496.73	33373.70
496.91	33727.12
497.09	34007.98
497.26	34206.93
497.44	33689.67
497.62	34050.11
497.79	34401.19
497.97	34373.11
498.14	34925.47
498.32	35145.48
498.50	35002.71
498.67	35236.77
498.85	35405.28
499.03	35339.75
499.20	35421.67
499.38	35693.17
499.56	35952.97
499.73	35971.69
499.91	36144.89
500.08	36734.71
500.26	36294.69
500.44	36776.84
500.61	36634.06
500.79	36648.11
500.97	37156.00
501.14	37738.80
501.32	37624.11
501.49	37443.89
501.67	37266.01
501.84	37684.97
502.02	37745.82
502.20	38036.05
502.37	38099.24
502.55	38288.82
502.72	38412.87
502.90	38164.78
503.07	38520.54
503.25	38820.13
503.43	38176.48
503.60	39447.39
503.78	39234.40
503.95	39679.10
504.13	39255.46
504.30	39306.96
504.48	39264.83
504.65	39552.71
504.83	39838.26
505.01	40491.27
505.18	39651.02
505.36	40404.67
505.53	40346.15
505.71	40381.26
505.88	40563.82
506.06	40098.06
506.23	40968.74
506.41	40715.96
506.58	41219.17
506.76	41263.64
506.93	41240.24
507.11	41315.14
507.28	42139.00
507.46	41743.45
507.63	41806.65
507.81	42253.69
507.98	41949.42
508.16	42024.32
508.33	41907.29
508.50	42356.67
508.68	42026.66
508.85	42724.14
509.03	42230.29
509.20	42948.83
509.38	43140.75
509.55	43185.22
509.73	43302.25
509.90	43480.13
510.08	43182.88
510.25	43009.68
510.42	43384.17
510.60	43887.39
510.77	44306.34
510.95	43920.15
511.12	44147.18
511.30	43620.56
511.47	44598.91
511.64	44451.45
511.82	44765.09
511.99	44540.39
512.17	44732.32
512.34	44339.11
512.51	45003.82
512.69	45399.37
512.86	44856.37
513.04	45593.64
513.21	45659.17
513.38	45918.97
513.56	46333.24
513.73	45778.54
513.90	45558.53
514.08	45937.69
514.25	46040.68
514.43	46117.92
514.60	46557.94
514.77	46419.84
514.95	46464.32
515.12	46162.39
515.29	46286.43
515.47	47019.02
515.64	47136.05
515.81	47203.92
515.99	47004.98
516.16	47150.09
516.33	47585.43
516.51	47758.63
516.68	47344.36
516.85	47468.40
517.03	47599.47
517.20	47562.03
517.37	47840.55
517.54	47943.53
517.72	48023.11
517.89	48013.75
518.06	47894.38
518.24	48334.40
518.41	48198.65
518.58	48325.04
518.75	48273.55
518.93	48409.30
519.10	48591.86
519.27	48732.29
519.45	48406.96
519.62	48739.32
519.79	48652.72
519.96	48842.30
520.14	49483.61
520.31	49495.31
520.48	49518.71
520.65	49268.28
520.83	49605.31
521.00	49298.70
521.17	49132.53
521.34	49743.41
521.52	49734.04
521.69	49745.75
521.86	49963.42
522.03	50141.30
522.20	50117.89
522.38	50124.91
522.55	50567.27
522.72	50129.59
522.89	50248.96
523.07	50337.90
523.24	50595.36
523.41	50688.98
523.58	50365.99
523.75	50904.31
523.92	50803.67
524.10	50967.51
524.27	50733.45
524.44	51000.27
524.61	51370.08
524.78	51393.48
524.96	51391.14
525.13	51229.65
525.30	51224.96
525.47	51529.23
525.64	51281.14
525.81	51353.69
525.98	51849.89
526.16	51728.18
526.33	51519.87
526.50	51945.85
526.67	51690.73
526.84	51693.07
527.01	51547.96
527.18	52055.85
527.36	51997.34
527.53	52608.22
527.70	52514.60
527.87	52392.89
528.04	51978.62
528.21	52046.49
528.38	52418.64
528.55	52561.41
528.72	52484.17
528.89	52629.29
529.07	52769.72
529.24	52477.15
529.41	52800.15
529.58	52933.56
529.75	52809.51
529.92	52809.51
530.09	52701.84
530.26	52959.30
530.43	53296.34
530.60	52715.89
530.77	52832.91
530.94	53071.65
531.11	53048.24
531.28	53186.33
531.46	53219.10
531.63	53399.32
531.80	53492.94
531.97	53677.85
532.14	53563.16
532.31	53635.72
532.48	53378.26
532.65	53460.18
532.82	53312.72
532.99	53944.67
533.16	53900.20
533.33	54120.21
533.50	54174.04
533.67	54017.22
533.84	53954.03
534.01	53977.43
534.18	53888.49
534.35	54199.79
534.52	54003.18
534.69	54181.06
534.86	54075.74
535.03	54096.80
535.20	54211.49
535.37	54452.56
535.54	54705.34
535.71	54143.61
535.88	54394.05
536.05	54712.36
536.22	54695.98
536.38	54663.21
536.55	54431.50
536.72	54536.82
536.89	54515.76
537.06	54522.78
537.23	54740.45
537.40	54838.75
537.57	54752.15
537.74	54876.20
537.91	55091.53
538.08	55248.35
538.25	55056.42
538.42	54955.78
538.59	54944.08
538.75	54976.84
538.92	55091.53
539.09	55206.22
539.26	55269.41
539.43	55241.32
539.60	55402.82
539.77	55458.99
539.94	55662.62
540.11	55622.83
540.28	55360.69
540.44	55409.84
540.61	55257.71
540.78	55419.20
540.95	55840.50
541.12	55884.97
541.29	55821.78
541.46	55674.32
541.62	55620.49
541.79	55700.07
541.96	55592.40
542.13	55805.39
542.30	55910.72
542.47	56114.34
542.63	56062.85
542.80	56320.31
542.97	56395.21
543.14	56123.71
543.31	56083.92
543.48	56207.97
543.64	56526.28
543.81	56533.30
543.98	56430.32
544.15	56655.01
544.32	56655.01
544.48	56570.75
544.65	56605.86
544.82	56446.70
544.99	56430.32
545.16	56720.54
545.32	56477.13
545.49	56891.40
545.66	57102.05
545.83	56839.91
546.00	57134.82
546.16	56706.50
546.33	56718.20
546.50	56680.75
546.67	56811.82
546.83	56435.00
547.00	56945.23
547.17	56849.27
547.34	56914.81
547.50	57080.98
547.67	57322.06
547.84	57144.18
548.00	57233.12
548.17	57518.67
548.34	57270.57
548.51	57436.75
548.67	57492.92
548.84	57385.25
549.01	57249.50
549.18	57237.80
549.34	57350.15
549.51	57125.46
549.68	57118.43
549.84	57368.87
550.01	57584.20
550.18	57602.92
550.34	57595.90
550.51	57572.50
550.68	57432.07
550.84	57462.49
551.01	57563.14
551.18	57591.22
551.34	57645.05
551.51	57432.07
551.68	57708.25
551.84	57764.42
552.01	57506.96
552.18	57883.79
552.34	57886.13
552.51	57989.11
552.68	57794.85
552.84	57867.40
553.01	57827.62
553.18	58169.33
553.34	58059.33
553.51	58136.57
553.67	58101.46
553.84	58260.62
554.01	58026.56
554.17	58145.93
554.34	58007.84
554.51	58192.74
554.67	58262.96
554.84	58087.42
555.00	58188.06
555.17	58206.78
555.33	58234.87
555.50	58122.52
555.67	58277.00
555.83	58265.30
556.00	58239.55
556.16	58429.13
556.33	58255.93
556.50	58588.29
556.66	58454.88
556.83	58387.00
556.99	58798.94
557.16	58873.84
557.32	58583.61
557.49	58698.30
557.65	58450.20
557.82	58424.45
557.98	58497.01
558.15	58822.34
558.32	58635.10
558.48	58592.97
558.65	58595.31
558.81	58719.36
558.98	58812.98
559.14	58684.25
559.31	58653.82
559.47	58637.44
559.64	58845.75
559.80	58838.73
559.97	59065.76
560.13	58674.89
560.30	58761.49
560.46	58953.41
560.63	58850.43
560.79	58834.05
560.96	58845.75
561.12	58876.18
561.29	58686.59
561.45	58972.14
561.61	58972.14
561.78	59061.08
561.94	59063.42
562.11	59178.10
562.27	59009.59
562.44	58784.90
562.60	59114.91
562.77	59180.45
562.93	59105.55
563.10	59283.43
563.26	59245.98
563.42	59498.76
563.59	59117.25
563.75	59178.10
563.92	59341.94
564.08	59133.63
564.24	59374.71
564.41	59157.04
564.57	59271.73
564.74	59440.24
564.90	59311.52
565.07	59299.81
565.23	59498.76
565.39	59229.60
565.56	59461.31
565.72	59126.61
565.88	59332.58
566.05	59250.66
566.21	59276.41
566.38	59253.00
566.54	59276.41
566.70	59704.73
566.87	59716.43
567.03	59494.08
567.19	59779.62
567.36	59550.25
567.52	59283.43
567.68	59421.52
567.85	59370.03
568.01	59524.50
568.17	59250.66
568.34	59737.49
568.50	59686.00
568.66	59545.57
568.83	59744.51
568.99	59618.13
569.15	59320.88
569.32	59604.08
569.48	59302.15
569.64	59611.10
569.81	59461.31
569.97	59604.08
570.13	59788.98
570.30	59592.38
570.46	59746.86
570.62	59578.34
570.78	59578.34
570.95	59487.06
571.11	59629.83
571.27	59667.28
571.43	59711.75
571.60	59739.83
571.76	59924.74
571.92	59920.05
572.09	60016.02
572.25	59688.34
572.41	59611.10
572.57	59533.87
572.74	59845.16
572.90	59580.68
573.06	59697.70
573.22	59770.26
573.38	59786.64
573.55	59690.68
573.71	60060.49
573.87	59959.84
574.03	59695.36
574.20	59913.03
574.36	59653.23
574.52	59693.02
574.68	59583.02
574.84	59943.46
575.01	59849.84
575.17	60086.23
575.33	59887.29
575.49	60048.78
575.65	59849.84
575.82	59955.16
575.98	59868.56
576.14	59999.63
576.30	60081.55
576.46	59765.58
576.62	59763.24
576.79	59814.73
576.95	59760.90
577.11	59941.12
577.27	59807.71
577.43	59994.95
577.59	59952.82
577.75	59798.35
577.92	59842.82
578.08	59735.15
578.24	60027.72
578.40	59779.62
578.56	59920.05
578.72	59906.01
578.88	60081.55
579.04	60116.66
579.21	59983.25
579.37	60046.44
579.53	60051.12
579.69	59580.68
579.85	60086.23
580.01	60048.78
580.17	59882.61
580.33	59901.33
580.49	60245.39
580.65	60327.31
580.82	60299.22
580.98	60030.06
581.14	60027.72
581.30	60224.32
581.46	60030.06
581.62	59962.18
581.78	59746.86
581.94	60107.30
582.10	60221.98
582.26	60154.11
582.42	60198.58
582.58	60381.14
582.74	60257.09
582.90	60280.50
583.06	60243.05
583.22	60175.17
583.38	60182.19
583.54	60111.98
583.70	60083.89
583.86	60261.77
584.02	59994.95
584.18	60383.48
584.34	60116.66
584.50	60168.15
584.66	60079.21
584.82	60083.89
584.98	60175.17
585.14	60140.07
585.30	60116.66
585.46	60104.96
585.62	60058.15
585.78	60161.13
585.94	60018.36
586.10	60334.33
586.26	60252.41
586.42	60465.40
586.58	60238.37
586.74	60200.92
586.90	59973.89
587.06	60116.66
587.22	60172.83
587.38	60100.28
587.54	60399.86
587.70	60444.33
587.86	60346.03
588.02	60266.45
588.18	60605.83
588.34	60392.84
588.49	60065.17
588.65	60280.50
588.81	60306.24
588.97	60221.98
589.13	60186.88
