SpectraSuite Data File
++++++++++++++++++++++++++++++++++++
Date: Fri Oct 04 11:48:48 GMT-05:00 2013
User: price-jones
Dark Spectrum Present: No
Reference Spectrum Present: No
Number of Sampled Component Spectra: 1
Spectrometers: USB2+H05261
Integration Time (usec): 100000 (USB2+H05261)
Spectra Averaged: 1 (USB2+H05261)
Boxcar Smoothing: 0 (USB2+H05261)
Correct for Electrical Dark: No (USB2+H05261)
Strobe/Lamp Enabled: No (USB2+H05261)
Correct for Detector Non-linearity: No (USB2+H05261)
Correct for Stray Light: No (USB2+H05261)
Number of Pixels in Processed Spectrum: 2048
>>>>>Begin Processed Spectral Data<<<<<
365.73	32.77
365.92	32.77
366.12	32.77
366.32	0.00
366.52	0.00
366.72	0.00
366.91	0.00
367.11	32.77
367.31	0.00
367.51	0.00
367.70	0.00
367.90	0.00
368.10	0.00
368.30	0.00
368.49	0.00
368.69	0.00
368.89	0.00
369.09	0.00
369.28	0.00
369.48	0.00
369.68	0.00
369.87	0.00
370.07	0.00
370.27	0.00
370.47	81.92
370.66	117.03
370.86	182.56
371.06	238.73
371.25	304.27
371.45	196.60
371.65	180.22
371.84	210.65
372.04	259.80
372.24	245.76
372.44	297.25
372.63	276.18
372.83	318.31
373.03	257.46
373.22	266.82
373.42	224.69
373.62	280.86
373.81	283.20
374.01	299.59
374.21	369.80
374.40	266.82
374.60	344.06
374.79	304.27
374.99	388.53
375.19	365.12
375.38	367.46
375.58	337.04
375.78	367.46
375.97	339.38
376.17	416.62
376.37	367.46
376.56	372.15
376.76	332.36
376.95	341.72
377.15	325.33
377.35	367.46
377.54	339.38
377.74	411.93
377.93	339.38
378.13	416.62
378.33	379.17
378.52	292.57
378.72	404.91
378.91	465.77
379.11	407.25
379.31	341.72
379.50	386.19
379.70	355.76
379.89	409.59
380.09	411.93
380.28	418.96
380.48	379.17
380.68	407.25
380.87	332.36
381.07	383.85
381.26	458.74
381.46	376.83
381.65	524.28
381.85	320.65
382.04	409.59
382.24	402.57
382.43	440.02
382.63	388.53
382.83	379.17
383.02	472.79
383.22	540.66
383.41	465.77
383.61	472.79
383.80	442.36
384.00	437.68
384.19	456.40
384.39	433.00
384.58	461.09
384.78	514.92
384.97	393.21
385.17	423.64
385.36	425.98
385.56	526.62
385.75	402.57
385.95	425.98
386.14	486.83
386.34	470.45
386.53	517.26
386.72	442.36
386.92	524.28
387.11	582.79
387.31	472.79
387.50	458.74
387.70	496.19
387.89	524.28
388.09	543.00
388.28	470.45
388.48	524.28
388.67	519.60
388.86	561.73
389.06	512.58
389.25	535.98
389.45	568.75
389.64	561.73
389.84	631.94
390.03	585.13
390.22	550.03
390.42	676.41
390.61	550.03
390.81	554.71
391.00	613.22
391.19	587.47
391.39	585.13
391.58	599.18
391.78	610.88
391.97	720.88
392.16	662.37
392.36	697.48
392.55	716.20
392.75	704.50
392.94	676.41
393.13	641.31
393.33	596.84
393.52	643.65
393.71	767.70
393.91	695.14
394.10	683.44
394.29	603.86
394.49	678.76
394.68	746.63
394.88	718.54
395.07	685.78
395.26	727.91
395.46	814.51
395.65	823.87
395.84	758.33
396.04	840.25
396.23	744.29
396.42	755.99
396.62	786.42
396.81	858.98
397.00	744.29
397.19	833.23
397.39	788.76
397.58	980.68
397.77	854.30
397.97	847.27
398.16	877.70
398.35	898.77
398.55	898.77
398.74	856.64
398.93	917.49
399.12	959.62
399.32	947.92
399.51	933.87
399.70	971.32
399.90	940.90
400.09	847.27
400.28	954.94
400.47	1011.11
400.67	901.11
400.86	952.60
401.05	994.73
401.24	1074.31
401.44	1046.22
401.63	1069.62
401.82	1060.26
402.01	1088.35
402.21	1034.52
402.40	1116.44
402.59	1078.99
402.78	1137.50
402.97	1118.78
403.17	1212.40
403.36	1081.33
403.55	1238.14
403.74	1158.57
403.93	1153.88
404.13	1196.01
404.32	1181.97
404.51	1210.06
404.70	1181.97
404.89	1331.76
405.09	1270.91
405.28	1252.19
405.47	1214.74
405.66	1287.29
405.85	1352.83
406.05	1310.70
406.24	1357.51
406.43	1343.47
406.62	1416.02
406.81	1490.92
407.00	1387.94
407.20	1345.81
407.39	1469.86
407.58	1441.77
407.77	1394.96
407.96	1519.01
408.15	1502.62
408.34	1439.43
408.54	1483.90
408.73	1514.33
408.92	1493.26
409.11	1502.62
409.30	1591.56
409.49	1598.59
409.68	1584.54
409.87	1631.35
410.07	1699.23
410.26	1671.14
410.45	1661.78
410.64	1671.14
410.83	1727.32
411.02	1607.95
411.21	1710.93
411.40	1865.41
411.59	1902.86
411.78	1748.38
411.98	1783.49
412.17	1928.60
412.36	1912.22
412.55	1923.92
412.74	2054.99
412.93	1930.94
413.12	1977.75
413.31	1940.30
413.50	2043.29
413.69	2022.22
413.88	2141.59
414.07	2143.93
414.26	2136.91
414.45	2073.71
414.64	2104.14
414.83	2115.84
415.02	2179.04
415.22	2256.28
415.41	2340.54
415.60	2270.32
415.79	2317.13
415.98	2394.37
416.17	2361.60
416.36	2443.52
416.55	2413.09
416.74	2392.03
416.93	2459.90
417.12	2462.24
417.31	2509.05
417.50	2399.05
417.69	2597.99
417.88	2443.52
418.07	2537.14
418.26	2553.52
418.45	2675.23
418.64	2729.06
418.83	2722.04
419.02	2609.70
419.21	2686.94
419.39	2663.53
419.58	2539.48
419.77	2583.95
419.96	2588.63
420.15	2822.69
420.34	2785.24
420.53	2881.20
420.72	2874.18
420.91	2829.71
421.10	2677.57
421.29	2984.18
421.48	2799.28
421.67	2937.37
421.86	2946.73
422.05	2958.44
422.24	2949.08
422.43	2843.75
422.61	2897.58
422.80	3096.53
422.99	3033.33
423.18	2949.08
423.37	2911.63
423.56	2970.14
423.75	3016.95
423.94	2928.01
424.13	2787.58
424.32	2712.68
424.50	3012.27
424.69	3133.98
424.88	3103.55
425.07	2911.63
425.26	3016.95
425.45	3012.27
425.64	3087.17
425.83	3012.27
426.01	3056.74
426.20	3148.02
426.39	2960.78
426.58	3035.67
426.77	3061.42
426.96	3152.70
427.15	3103.55
427.33	3197.17
427.52	3190.15
427.71	3265.05
427.90	3243.98
428.09	3197.17
428.28	3300.16
428.46	3201.85
428.65	3339.94
428.84	3351.65
429.03	3414.84
429.22	3344.63
429.40	3258.03
429.59	3363.35
429.78	3164.40
429.97	3180.79
430.16	3304.84
430.34	3251.00
430.53	3581.02
430.72	3447.61
430.91	3487.40
431.10	3449.95
431.28	3454.63
431.47	3620.81
431.66	3571.66
431.85	3419.52
432.03	3609.11
432.22	3728.47
432.41	3641.87
432.60	3669.96
432.79	3585.70
432.97	3627.83
433.16	3662.94
433.35	3637.19
433.54	3763.58
433.72	3681.66
433.91	3660.60
434.10	3749.54
434.28	3735.50
434.47	3889.97
434.66	3786.99
434.85	3892.31
435.03	3796.35
435.22	3920.40
435.41	4079.55
435.59	3932.10
435.78	3833.80
435.97	3894.65
436.16	3960.19
436.34	3941.46
436.53	3922.74
436.72	4091.26
436.90	3997.64
437.09	4056.15
437.28	3950.82
437.46	4184.88
437.65	4154.45
437.84	4154.45
438.02	4142.75
438.21	4217.65
438.40	4079.55
438.58	4250.41
438.77	4390.84
438.96	4194.24
439.14	4365.10
439.33	4484.47
439.52	4411.91
439.70	4407.23
439.89	4482.13
440.08	4547.66
440.26	4461.06
440.45	4491.49
440.63	4638.94
440.82	4704.48
441.01	4643.62
441.19	4671.71
441.38	4636.60
441.57	4856.61
441.75	4880.02
441.94	4826.18
442.12	4861.29
442.31	4849.59
442.50	4945.55
442.68	4793.42
442.87	4896.40
443.05	4908.10
443.24	5022.79
443.43	5104.71
443.61	5022.79
443.80	5114.07
443.98	5013.43
444.17	4823.84
444.35	4952.57
444.54	5352.81
444.73	5144.50
444.91	5055.56
445.10	5111.73
445.28	5081.30
445.47	5156.20
445.65	5139.82
445.84	5111.73
446.02	5203.01
446.21	5198.33
446.39	5107.05
446.58	5081.30
446.77	5139.82
446.95	4959.60
447.14	5130.45
447.32	5329.40
447.51	5249.82
447.69	5188.97
447.88	5195.99
448.06	5158.54
448.25	5130.45
448.43	5228.76
448.62	5383.23
448.80	5268.55
448.99	5310.68
449.17	5266.21
449.36	5310.68
449.54	5476.85
449.73	5495.58
449.91	5404.30
450.10	5577.50
450.28	5706.23
450.46	5467.49
450.65	5467.49
450.83	5547.07
451.02	5357.49
451.20	5547.07
451.39	5685.16
451.57	5650.05
451.76	5706.23
451.94	5568.13
452.13	5708.57
452.31	5935.60
452.49	5624.31
452.68	5746.02
452.86	5753.04
453.05	5654.73
453.23	5959.00
453.42	5701.54
453.60	5724.95
453.78	5811.55
453.97	5776.44
454.15	5731.97
454.34	5806.87
454.52	5994.11
454.70	5816.23
454.89	6059.65
455.07	5853.68
455.26	5973.05
455.44	6001.13
455.62	5963.68
455.81	5867.72
455.99	6054.97
456.17	5994.11
456.36	5991.77
456.54	6146.25
456.73	6008.16
456.91	6246.89
457.09	6303.06
457.28	6380.30
457.46	6223.48
457.64	6546.48
457.83	6478.60
458.01	6291.36
458.19	6434.13
458.38	6450.52
458.56	6612.01
458.74	6532.44
458.93	6494.99
459.11	6565.20
459.29	6483.28
459.48	6553.50
459.66	6581.59
459.84	6640.10
460.03	6834.36
460.21	6839.05
460.39	6656.48
460.57	6682.23
460.76	6691.59
460.94	6789.89
461.12	6670.53
461.31	6752.45
461.49	6785.21
461.67	6902.24
461.85	7028.63
462.04	6874.15
462.22	7358.64
462.40	6906.92
462.59	6958.41
462.77	6864.79
462.95	7045.01
463.13	6935.01
463.32	7054.37
463.50	7157.36
463.68	7314.17
463.86	7115.23
464.05	7206.51
464.23	7026.29
464.41	7136.29
464.59	7054.37
464.78	7150.34
464.96	7262.68
465.14	7199.49
465.32	7382.05
465.50	7332.90
465.69	7332.90
465.87	7386.73
466.05	7346.94
466.23	7332.90
466.41	7396.09
466.60	7763.56
466.78	7435.88
466.96	7316.51
467.14	7349.28
467.32	7541.21
467.51	7599.72
467.69	7265.02
467.87	7712.07
468.05	7576.31
468.23	7573.97
468.41	7494.40
468.60	7623.12
468.78	7859.52
468.96	7569.29
469.14	7791.64
469.32	7866.54
469.50	7665.25
469.69	7901.65
469.87	7985.91
470.05	8006.97
470.23	7913.35
470.41	7915.69
470.59	8011.65
470.77	7824.41
470.95	8056.12
471.14	8079.53
471.32	7836.11
471.50	8386.14
471.68	8159.11
471.86	8308.90
472.04	8280.82
472.22	8444.65
472.40	8166.13
472.58	8388.48
472.77	8255.07
472.95	8514.87
473.13	8648.28
473.31	8531.25
473.49	8402.52
473.67	8568.70
473.85	8524.23
474.03	8772.33
474.21	9004.04
474.39	8901.06
474.57	8699.77
474.75	8819.14
474.93	8805.10
475.12	8978.30
475.30	9076.60
475.48	9210.01
475.66	9109.36
475.84	9184.26
476.02	9240.44
476.20	9219.37
476.38	9668.75
476.56	9799.82
476.74	9575.13
476.92	9476.83
477.10	9523.64
477.28	9652.37
477.46	9715.56
477.64	9640.67
477.82	9933.23
478.00	10190.69
478.18	10078.35
478.36	10043.24
478.54	10211.76
478.72	10406.02
478.90	10714.97
479.08	10455.17
479.26	10513.69
479.44	10516.03
479.62	10532.41
479.80	10860.09
479.98	10977.11
480.16	11000.52
480.34	11112.86
480.52	11171.38
480.70	11442.88
480.88	11325.85
481.06	11145.63
481.24	11276.70
481.41	11407.77
481.59	11658.21
481.77	11433.52
481.95	11637.14
482.13	11786.94
482.31	11775.24
482.49	11946.09
482.67	11840.77
482.85	12102.91
483.03	12222.28
483.21	12245.68
483.39	12669.32
483.57	12655.28
483.74	12444.63
483.92	12751.24
484.10	12589.74
484.28	12945.50
484.46	13057.85
484.64	13345.73
484.82	13018.06
485.00	13224.03
485.18	13575.11
485.35	13715.54
485.53	13542.34
485.71	13638.30
485.89	13973.00
486.07	13736.60
486.25	13818.52
486.43	14031.51
486.61	14216.41
486.78	14249.18
486.96	14647.07
487.14	14347.48
487.32	14303.01
487.50	14703.25
487.68	14792.19
487.85	14958.36
488.03	15304.76
488.21	15503.71
488.39	15552.86
488.57	15501.37
488.75	15510.73
488.92	15815.00
489.10	15627.76
489.28	15899.26
489.46	16510.14
489.64	16187.14
489.81	16290.13
489.99	16470.35
490.17	16685.68
490.35	16910.37
490.53	16479.71
490.70	16966.54
490.88	16898.67
491.06	16805.05
491.24	17001.65
491.41	17174.85
491.59	17425.29
491.77	17273.15
491.95	17451.03
492.13	17357.41
492.30	17949.57
492.48	17678.07
492.66	17944.89
492.84	17830.20
493.01	18211.71
493.19	18485.55
493.37	18398.95
493.54	18534.70
493.72	18789.82
493.90	18782.80
494.08	18677.48
494.25	19061.32
494.43	19140.90
494.61	19133.88
494.79	19400.70
494.96	19396.02
495.14	19431.13
495.32	19927.32
495.49	19854.76
495.67	19627.73
495.85	20243.29
496.02	20137.97
496.20	20409.47
496.38	19908.60
496.55	20507.77
496.73	20500.75
496.91	20479.69
497.09	20704.38
497.26	20498.41
497.44	20863.54
497.62	20936.09
497.79	20875.24
497.97	20994.61
498.14	21577.40
498.32	21453.35
498.50	21376.11
498.67	21902.73
498.85	21563.36
499.03	21884.01
499.20	21582.08
499.38	21649.96
499.56	21944.86
499.73	22022.10
499.91	22305.31
500.08	22602.55
500.26	22188.28
500.44	22623.62
500.61	22506.59
500.79	22527.66
500.97	22951.29
501.14	23014.49
501.32	23101.09
501.49	23028.53
501.67	22874.06
501.84	23323.44
502.02	23185.35
502.20	23403.02
502.37	23222.80
502.55	23234.50
502.72	23482.59
502.90	23426.42
503.07	23662.82
503.25	23555.15
503.43	23634.73
503.60	24276.04
503.78	23599.62
503.95	23950.70
504.13	24100.50
504.30	23969.43
504.48	23899.21
504.65	24121.56
504.83	24624.78
505.01	24858.83
505.18	24343.91
505.36	24730.10
505.53	24439.87
505.71	24568.60
505.88	24982.88
506.06	24837.76
506.23	25160.76
506.41	25401.83
506.58	25132.67
506.76	24786.27
506.93	25345.66
507.11	25415.88
507.28	25387.79
507.46	25680.36
507.63	25731.85
507.81	25867.60
507.98	25773.98
508.16	25731.85
508.33	25783.34
508.50	25586.74
508.68	26050.16
508.85	26654.02
509.03	26183.57
509.20	26604.87
509.38	26434.01
509.55	26656.36
509.73	26644.66
509.90	26735.94
510.08	26668.06
510.25	27063.61
510.42	26981.70
510.60	26733.60
510.77	27103.40
510.95	27386.61
511.12	27143.19
511.30	27337.46
511.47	27157.24
511.64	27740.03
511.82	27702.58
511.99	28130.90
512.17	27700.24
512.34	27419.38
512.51	28102.81
512.69	28304.10
512.86	28224.52
513.04	28084.09
513.21	28554.54
513.38	28203.46
513.56	28463.25
513.73	28683.27
513.90	28479.64
514.08	28435.17
514.25	28877.53
514.43	28589.64
514.60	28510.07
514.77	28669.22
514.95	28748.80
515.12	29153.71
515.29	28779.23
515.47	29111.58
515.64	29071.79
515.81	29174.78
515.99	29345.64
516.16	29312.87
516.33	29338.62
516.51	29806.72
516.68	29270.74
516.85	29315.21
517.03	29839.49
517.20	29900.34
517.37	29727.14
517.54	30188.23
517.72	29792.68
517.89	29858.21
518.06	29900.34
518.24	30253.76
518.41	30192.91
518.58	30377.81
518.75	30110.99
518.93	30391.86
519.10	30174.19
519.27	30483.14
519.45	30387.18
519.62	30342.70
519.79	30635.27
519.96	30815.49
520.14	31077.63
520.31	30836.56
520.48	31124.44
520.65	30960.61
520.83	31115.08
521.00	31262.54
521.17	31002.74
521.34	31573.83
521.52	31447.44
521.69	31356.16
521.86	31648.72
522.03	31515.31
522.20	31873.42
522.38	31335.09
522.55	31850.01
522.72	31859.37
522.89	31915.54
523.07	32032.57
523.24	32189.39
523.41	32198.75
523.58	31889.80
523.75	32102.79
523.92	32217.47
524.10	32102.79
524.27	32620.05
524.44	32362.59
524.61	32842.40
524.78	32481.95
524.96	32505.36
525.13	32474.93
525.30	32835.38
525.47	32486.64
525.64	32886.87
525.81	33294.12
525.98	33006.23
526.16	32615.37
526.33	33064.75
526.50	33214.54
526.67	32980.49
526.84	33223.90
527.01	33266.03
527.18	33502.43
527.36	33511.79
527.53	33666.27
527.70	33577.33
527.87	33692.01
528.04	33523.49
528.21	33504.77
528.38	33582.01
528.55	33563.28
528.72	33802.02
528.89	34022.03
529.07	33837.12
529.24	33638.18
529.41	33649.88
529.58	33993.94
529.75	34368.43
529.92	33883.94
530.09	34047.77
530.26	34291.19
530.43	34452.69
530.60	34298.21
530.77	34534.60
530.94	34497.16
531.11	34305.23
531.28	33883.94
531.46	34492.47
531.63	34471.41
531.80	34904.41
531.97	34827.17
532.14	34932.50
532.31	34515.88
532.48	34569.71
532.65	34771.00
532.82	34672.70
532.99	35077.61
533.16	35016.75
533.33	35119.74
533.50	35775.09
533.67	35068.25
533.84	34831.85
534.01	34859.94
534.18	35105.70
534.35	35388.90
534.52	35255.49
534.69	35695.51
534.86	35550.40
535.03	35625.29
535.20	35880.41
535.37	35754.02
535.54	35903.82
535.71	35306.98
535.88	35681.47
536.05	35718.92
536.22	35800.83
536.38	35929.56
536.55	36013.82
536.72	35924.88
536.89	36051.27
537.06	35583.16
537.23	36254.90
537.40	35835.94
537.57	36004.46
537.74	36479.59
537.91	36486.61
538.08	36514.70
538.25	36355.54
538.42	36306.39
538.59	36198.73
538.75	36247.88
538.92	36460.87
539.09	36343.84
539.26	36467.89
539.43	36364.90
539.60	36526.40
539.77	36732.37
539.94	36488.95
540.11	36907.91
540.28	36996.85
540.44	36657.47
540.61	36645.77
540.78	36907.91
540.95	37254.31
541.12	37427.51
541.29	37050.68
541.46	36999.19
541.62	37144.30
541.79	36692.58
541.96	37170.05
542.13	37254.31
542.30	37261.33
542.47	37495.38
542.63	37516.45
542.80	37579.64
542.97	37755.18
543.14	37420.48
543.31	38249.03
543.48	37352.61
543.64	38246.69
543.81	37701.35
543.98	37841.78
544.15	37949.45
544.32	38113.28
544.48	38464.36
544.65	38373.08
544.82	38003.28
544.99	37762.20
545.16	38543.94
545.32	37956.47
545.49	38632.88
545.66	38808.42
545.83	38473.73
546.00	38602.46
546.16	37895.61
546.33	38106.26
546.50	37816.04
546.67	38616.50
546.83	38293.50
547.00	38281.80
547.17	38497.13
547.34	38831.83
547.50	38569.69
547.67	38539.26
547.84	38679.69
548.00	38630.54
548.17	38873.96
548.34	38646.93
548.51	39096.31
548.67	39037.80
548.84	38911.41
549.01	38976.94
549.18	38618.84
549.34	38663.31
549.51	38728.84
549.68	39091.63
549.84	39026.09
550.01	38665.65
550.18	39391.22
550.34	39484.84
550.51	39203.97
550.68	39283.55
550.84	39187.59
551.01	39468.45
551.18	39180.57
551.34	39159.50
551.51	39318.66
551.68	39768.04
551.84	39358.45
552.01	39461.43
552.18	39508.24
552.34	39463.77
552.51	39470.79
552.68	39159.50
552.84	39398.24
553.01	39505.90
553.18	39814.85
553.34	39751.66
553.51	39885.07
553.67	39784.43
553.84	40095.72
554.01	40170.61
554.17	39765.70
554.34	39639.31
554.51	39622.93
554.67	40041.88
554.84	39683.78
555.00	39866.34
555.17	40081.67
555.33	39756.34
555.50	40088.70
555.67	40184.66
555.83	40332.11
556.00	40147.21
556.16	40734.68
556.33	40046.57
556.50	39931.88
556.66	40205.72
556.83	40095.72
556.99	40385.94
557.16	40280.62
557.32	40308.71
557.49	40659.79
557.65	40044.23
557.82	39924.86
557.98	40474.88
558.15	40165.93
558.32	40158.91
558.48	40360.20
558.65	40559.14
558.81	40652.76
558.98	40343.81
559.14	40720.64
559.31	40339.13
559.47	40301.68
559.64	40624.68
559.80	40830.65
559.97	40858.73
560.13	40692.55
560.30	40601.27
560.46	40519.35
560.63	40781.49
560.79	40898.52
560.96	40809.58
561.12	40664.47
561.29	41060.02
561.45	40924.27
561.61	40950.01
561.78	41006.19
561.94	40259.55
562.11	40851.71
562.27	40786.18
562.44	40428.07
562.60	40783.83
562.77	40938.31
562.93	40617.66
563.10	41184.07
563.26	40713.62
563.42	41282.37
563.59	40830.65
563.75	40982.78
563.92	41074.06
564.08	40779.15
564.24	40900.86
564.41	40861.07
564.57	40886.82
564.74	40704.26
564.90	41144.28
565.07	41436.84
565.23	41251.94
565.39	41088.10
565.56	40980.44
565.72	40877.46
565.88	40746.39
566.05	40701.92
566.21	41060.02
566.38	41029.59
566.54	41387.69
566.70	41586.64
566.87	41361.95
567.03	40652.76
567.19	41420.46
567.36	41219.17
567.52	40877.46
567.68	41031.93
567.85	41125.55
568.01	41289.39
568.17	41532.81
568.34	41219.17
568.50	41483.66
568.66	41209.81
568.83	41500.04
568.99	41301.09
569.15	41099.81
569.32	41380.67
569.48	41081.08
569.64	41750.48
569.81	41385.35
569.97	41153.64
570.13	41958.78
570.30	41184.07
570.46	41642.81
570.62	41436.84
570.78	41106.83
570.95	40554.46
571.11	41315.14
571.27	40968.74
571.43	41165.34
571.60	41574.94
571.76	41434.50
571.92	41432.16
572.09	41640.47
572.25	41429.82
572.41	41542.17
572.57	41820.69
572.74	41645.15
572.90	41118.53
573.06	41706.01
573.22	41497.70
573.38	41677.92
573.55	41769.20
573.71	42005.59
573.87	41729.41
574.03	41469.61
574.20	41420.46
574.36	41586.64
574.52	41331.52
574.68	41504.72
574.84	41638.13
575.01	41727.07
575.17	41909.63
575.33	41488.34
575.49	41310.46
575.65	41886.23
575.82	41518.76
575.98	41708.35
576.14	41544.51
576.30	41509.40
576.46	41759.84
576.62	41680.26
576.79	41698.98
576.95	41546.85
577.11	41670.90
577.27	42007.94
577.43	41310.46
577.59	42092.19
577.75	41544.51
577.92	41383.01
578.08	41530.47
578.24	41579.62
578.40	41411.10
578.56	41736.43
578.72	41083.42
578.88	41619.41
579.04	41979.85
579.21	41776.22
579.37	41914.31
579.53	41434.50
579.69	41457.91
579.85	41514.08
580.01	41811.33
580.17	41490.68
580.33	41846.44
580.49	41656.85
580.65	41963.46
580.82	42197.52
580.98	41537.49
581.14	41631.11
581.30	42066.45
581.46	41455.57
581.62	41291.73
581.78	41488.34
581.94	41563.23
582.10	41755.16
582.26	41434.50
582.42	42351.99
582.58	42012.62
582.74	41570.25
582.90	41698.98
583.06	41743.45
583.22	42192.84
583.38	41757.50
583.54	41429.82
583.70	41603.02
583.86	41727.07
584.02	41605.36
584.18	41942.40
584.34	41846.44
584.50	42059.43
584.66	41647.49
584.82	41813.67
584.98	41904.95
585.14	41970.49
585.30	41684.94
585.46	41755.16
585.62	41961.12
585.78	42232.63
585.94	41581.96
586.10	41654.51
586.26	41453.23
586.42	41968.15
586.58	41558.55
586.74	41776.22
586.90	41626.43
587.06	41478.97
587.22	41951.76
587.38	41516.42
587.54	41549.19
587.70	42005.59
587.86	41773.88
588.02	41914.31
588.18	41904.95
588.34	42155.39
588.49	41226.20
588.65	41399.40
588.81	41495.36
588.97	41799.63
589.13	41546.85
589.29	41689.62
589.45	41713.03
589.61	41977.51
589.77	42190.50
589.93	42323.91
590.08	42146.03
590.24	42108.58
590.40	42504.13
590.56	42014.96
590.72	41785.58
590.88	41460.25
591.04	41776.22
