SpectraSuite Data File
++++++++++++++++++++++++++++++++++++
Date: Fri Oct 04 11:48:43 GMT-05:00 2013
User: price-jones
Dark Spectrum Present: No
Reference Spectrum Present: No
Number of Sampled Component Spectra: 1
Spectrometers: USB2+H05261
Integration Time (usec): 100000 (USB2+H05261)
Spectra Averaged: 1 (USB2+H05261)
Boxcar Smoothing: 0 (USB2+H05261)
Correct for Electrical Dark: No (USB2+H05261)
Strobe/Lamp Enabled: No (USB2+H05261)
Correct for Detector Non-linearity: No (USB2+H05261)
Correct for Stray Light: No (USB2+H05261)
Number of Pixels in Processed Spectrum: 2048
>>>>>Begin Processed Spectral Data<<<<<
365.73	49.15
365.92	49.15
366.12	49.15
366.32	0.00
366.52	0.00
366.72	0.00
366.91	0.00
367.11	0.00
367.31	0.00
367.51	0.00
367.70	0.00
367.90	0.00
368.10	0.00
368.30	0.00
368.49	0.00
368.69	0.00
368.89	0.00
369.09	0.00
369.28	0.00
369.48	0.00
369.68	0.00
369.87	0.00
370.07	0.00
370.27	2.34
370.47	0.00
370.66	119.37
370.86	163.84
371.06	208.31
371.25	212.99
371.45	159.16
371.65	191.92
371.84	163.84
372.04	114.69
372.24	231.71
372.44	156.82
372.63	173.20
372.83	273.84
373.03	243.42
373.22	168.52
373.42	269.16
373.62	252.78
373.81	222.35
374.01	196.60
374.21	198.95
374.40	313.63
374.60	344.06
374.79	222.35
374.99	248.10
375.19	245.76
375.38	229.37
375.58	229.37
375.78	355.76
375.97	269.16
376.17	241.08
376.37	177.88
376.56	259.80
376.76	278.52
376.95	269.16
377.15	325.33
377.35	388.53
377.54	280.86
377.74	234.05
377.93	248.10
378.13	304.27
378.33	294.91
378.52	259.80
378.72	294.91
378.91	311.29
379.11	269.16
379.31	299.59
379.50	231.71
379.70	322.99
379.89	287.89
380.09	285.55
380.28	224.69
380.48	299.59
380.68	269.16
380.87	266.82
381.07	280.86
381.26	320.65
381.46	245.76
381.65	308.95
381.85	320.65
382.04	229.37
382.24	322.99
382.43	320.65
382.63	285.55
382.83	299.59
383.02	376.83
383.22	334.70
383.41	367.46
383.61	315.97
383.80	355.76
384.00	344.06
384.19	376.83
384.39	362.78
384.58	271.50
384.78	285.55
384.97	320.65
385.17	367.46
385.36	299.59
385.56	334.70
385.75	325.33
385.95	334.70
386.14	355.76
386.34	334.70
386.53	400.23
386.72	292.57
386.92	365.12
387.11	259.80
387.31	367.46
387.50	381.51
387.70	320.65
387.89	365.12
388.09	346.40
388.28	414.27
388.48	358.10
388.67	409.59
388.86	294.91
389.06	383.85
389.25	365.12
389.45	404.91
389.64	402.57
389.84	411.93
390.03	416.62
390.22	367.46
390.42	344.06
390.61	404.91
390.81	435.34
391.00	362.78
391.19	430.66
391.39	463.43
391.58	449.38
391.78	458.74
391.97	444.70
392.16	461.09
392.36	465.77
392.55	449.38
392.75	463.43
392.94	461.09
393.13	538.32
393.33	507.90
393.52	514.92
393.71	533.64
393.91	514.92
394.10	538.32
394.29	538.32
394.49	430.66
394.68	524.28
394.88	571.09
395.07	538.32
395.26	540.66
395.46	566.41
395.65	571.09
395.84	514.92
396.04	669.39
396.23	557.05
396.42	573.43
396.62	594.50
396.81	589.82
397.00	535.98
397.19	580.45
397.39	664.71
397.58	650.67
397.77	580.45
397.97	533.64
398.16	594.50
398.35	662.37
398.55	664.71
398.74	692.80
398.93	653.01
399.12	643.65
399.32	692.80
399.51	718.54
399.70	730.25
399.90	638.97
400.09	685.78
400.28	798.12
400.47	667.05
400.67	653.01
400.86	695.14
401.05	816.85
401.24	772.38
401.44	793.44
401.63	725.57
401.82	746.63
402.01	685.78
402.21	734.93
402.40	823.87
402.59	732.59
402.78	739.61
402.97	816.85
403.17	823.87
403.36	823.87
403.55	868.34
403.74	840.25
403.93	814.51
404.13	875.36
404.32	901.11
404.51	887.06
404.70	880.04
404.89	985.37
405.09	931.53
405.28	910.47
405.47	966.64
405.66	999.41
405.85	1001.75
406.05	936.21
406.24	1055.58
406.43	1022.81
406.62	1041.54
406.81	1132.82
407.00	1142.18
407.20	1043.88
407.39	1123.46
407.58	1181.97
407.77	1177.29
407.96	1191.33
408.15	1210.06
408.34	1231.12
408.54	1219.42
408.73	1238.14
408.92	1261.55
409.11	1198.35
409.30	1212.40
409.49	1217.08
409.68	1205.38
409.87	1226.44
410.07	1352.83
410.26	1331.76
410.45	1366.87
410.64	1399.64
410.83	1401.98
411.02	1366.87
411.21	1444.11
411.40	1336.45
411.59	1516.67
411.78	1476.88
411.98	1479.22
412.17	1519.01
412.36	1458.15
412.55	1430.07
412.74	1652.42
412.93	1612.63
413.12	1502.62
413.31	1769.44
413.50	1685.19
413.69	1593.90
413.88	1666.46
414.07	1755.40
414.26	1687.53
414.45	1769.44
414.64	1734.34
414.83	1762.42
415.02	1816.26
415.22	1785.83
415.41	1881.79
415.60	1797.53
415.79	1849.02
415.98	1937.96
416.17	1942.64
416.36	1942.64
416.55	1886.47
416.74	1909.88
416.93	1944.99
417.12	1900.52
417.31	1989.46
417.50	2019.88
417.69	2092.44
417.88	1987.11
418.07	1982.43
418.26	2249.25
418.45	2090.10
418.64	2090.10
418.83	2148.61
419.02	2050.31
419.21	2136.91
419.39	2162.66
419.58	2181.38
419.77	2099.46
419.96	2174.36
420.15	2303.09
420.34	2237.55
420.53	2193.08
420.72	2282.02
420.91	2223.51
421.10	2363.94
421.29	2375.64
421.48	2267.98
421.67	2321.81
421.86	2417.77
422.05	2310.11
422.24	2375.64
422.43	2284.36
422.61	2345.22
422.80	2495.01
422.99	2511.39
423.18	2410.75
423.37	2527.78
423.56	2429.48
423.75	2499.69
423.94	2445.86
424.13	2265.64
424.32	2356.92
424.50	2511.39
424.69	2485.65
424.88	2602.68
425.07	2455.22
425.26	2462.24
425.45	2485.65
425.64	2396.71
425.83	2574.59
426.01	2434.16
426.20	2560.55
426.39	2455.22
426.58	2558.21
426.77	2548.84
426.96	2544.16
427.15	2462.24
427.33	2527.78
427.52	2616.72
427.71	2579.27
427.90	2480.97
428.09	2586.29
428.28	2626.08
428.46	2663.53
428.65	2644.81
428.84	2644.81
429.03	2689.28
429.22	2700.98
429.40	2672.89
429.59	2764.17
429.78	2644.81
429.97	2619.06
430.16	2642.46
430.34	2829.71
430.53	2738.43
430.72	2719.70
430.91	2752.47
431.10	2754.81
431.28	2794.60
431.47	2874.18
431.66	2855.45
431.85	2885.88
432.03	2895.24
432.22	2974.82
432.41	2906.95
432.60	3035.67
432.79	2963.12
432.97	2981.84
433.16	2869.50
433.35	2970.14
433.54	3014.61
433.72	3066.10
433.91	2963.12
434.10	2970.14
434.28	2970.14
434.47	3016.95
434.66	3124.62
434.85	2944.39
435.03	3138.66
435.22	3012.27
435.41	3126.96
435.59	3141.00
435.78	3225.26
435.97	3124.62
436.16	3180.79
436.34	3115.25
436.53	3152.70
436.72	3218.24
436.90	3215.90
437.09	3337.60
437.28	3183.13
437.46	3372.71
437.65	3251.00
437.84	3300.16
438.02	3307.18
438.21	3377.39
438.40	3506.12
438.58	3410.16
438.77	3513.14
438.96	3417.18
439.14	3480.38
439.33	3468.67
439.52	3595.06
439.70	3468.67
439.89	3632.51
440.08	3693.37
440.26	3733.15
440.45	3473.36
440.63	3632.51
440.82	3824.44
441.01	3709.75
441.19	3875.93
441.38	3791.67
441.57	3770.60
441.75	3836.14
441.94	3918.06
442.12	3911.04
442.31	4018.70
442.50	3927.42
442.68	3906.35
442.87	3976.57
443.05	4126.36
443.24	4049.13
443.43	4100.62
443.61	4105.30
443.80	4283.18
443.98	4112.32
444.17	3840.82
444.35	4156.79
444.54	4119.34
444.73	4187.22
444.91	4170.83
445.10	4042.11
445.28	3967.21
445.47	4215.30
445.65	4102.96
445.84	4095.94
446.02	4318.29
446.21	4201.26
446.39	4060.83
446.58	4189.56
446.77	4105.30
446.95	4039.76
447.14	4196.58
447.32	4355.74
447.51	4131.05
447.69	4173.18
447.88	4294.88
448.06	4095.94
448.25	4224.67
448.43	4292.54
448.62	4170.83
448.80	4280.84
448.99	4194.24
449.17	4236.37
449.36	4262.12
449.54	4219.99
449.73	4149.77
449.91	4489.15
450.10	4461.06
450.28	4493.83
450.46	4484.47
450.65	4617.88
450.83	4498.51
451.02	4484.47
451.20	4564.04
451.39	4489.15
451.57	4400.21
451.76	4526.60
451.94	4545.32
452.13	4711.50
452.31	4571.07
452.49	4620.22
452.68	4727.88
452.86	4711.50
453.05	4620.22
453.23	4805.12
453.42	4709.16
453.60	4716.18
453.78	4788.74
453.97	4774.69
454.15	4664.69
454.34	4737.24
454.52	4758.31
454.70	4587.45
454.89	4798.10
455.07	4758.31
455.26	4795.76
455.44	4868.31
455.62	4950.23
455.81	4924.49
455.99	4931.51
456.17	4896.40
456.36	4980.66
456.54	4917.47
456.73	4997.04
456.91	5308.34
457.09	5071.94
457.28	5231.10
457.46	5121.09
457.64	5100.03
457.83	5163.22
458.01	5153.86
458.19	5083.64
458.38	5203.01
458.56	5228.76
458.74	5179.61
458.93	5413.66
459.11	5139.82
459.29	5184.29
459.48	5149.18
459.66	5228.76
459.84	5345.78
460.03	5568.13
460.21	5451.11
460.39	5341.10
460.57	5275.57
460.76	5399.62
460.94	5355.15
461.12	5530.69
461.31	5547.07
461.49	5467.49
461.67	5439.40
461.85	5584.52
462.04	5582.18
462.22	6071.35
462.40	5638.35
462.59	5577.50
462.77	5638.35
462.95	5689.84
463.13	5636.01
463.32	5631.33
463.50	5757.72
463.68	5816.23
463.86	5729.63
464.05	5940.28
464.23	5692.18
464.41	5930.92
464.59	5638.35
464.78	5907.51
464.96	5830.27
465.14	5776.44
465.32	6043.26
465.50	5944.96
465.69	5954.32
465.87	5844.32
466.05	5846.66
466.23	5839.64
466.41	5919.21
466.60	6155.61
466.78	5849.00
466.96	6038.58
467.14	6054.97
467.32	6033.90
467.51	6293.70
467.69	5996.45
467.87	6092.41
468.05	5984.75
468.23	6125.18
468.41	6073.69
468.60	6087.73
468.78	6193.06
468.96	6296.04
469.14	6267.95
469.32	6340.51
469.50	6059.65
469.69	6300.72
469.87	6415.41
470.05	6328.81
470.23	6263.27
470.41	6328.81
470.59	6345.19
470.77	6480.94
470.95	6497.33
471.14	6574.56
471.32	6466.90
471.50	6677.55
471.68	6637.76
471.86	6813.30
472.04	6766.49
472.22	6785.21
472.40	6527.75
472.58	6803.94
472.77	6806.28
472.95	6911.60
473.13	7061.40
473.31	6857.77
473.49	6825.00
473.67	6857.77
473.85	7023.95
474.03	7047.35
474.21	6918.62
474.39	7063.74
474.57	7199.49
474.75	7148.00
474.93	7370.35
475.12	7283.75
475.30	7162.04
475.48	7077.78
475.66	7365.67
475.84	7304.81
476.02	7597.38
476.20	7569.29
476.38	7775.26
476.56	7735.47
476.74	7506.10
476.92	7691.00
477.10	7911.01
477.28	7793.98
477.46	7899.31
477.64	8049.10
477.82	7859.52
478.00	8217.62
478.18	8131.02
478.36	8126.34
478.54	8376.78
478.72	8093.57
478.90	8264.43
479.08	8514.87
479.26	8376.78
479.44	8582.74
479.62	8568.70
479.80	8695.09
479.98	8720.84
480.16	8872.97
480.34	8830.84
480.52	9111.71
480.70	8971.27
480.88	8879.99
481.06	8828.50
481.24	8823.82
481.41	9238.09
481.59	9261.50
481.77	9327.03
481.95	9238.09
482.13	9476.83
482.31	9511.94
482.49	9687.48
482.67	9696.84
482.85	9881.74
483.03	10064.30
483.21	10059.62
483.39	9933.23
483.57	10073.67
483.74	10263.25
483.92	10354.53
484.10	10143.88
484.28	10553.48
484.46	10560.50
484.64	10824.98
484.82	10246.87
485.00	10651.78
485.18	10848.38
485.35	10860.09
485.53	10892.85
485.71	11122.23
485.89	11136.27
486.07	11014.56
486.25	11108.18
486.43	11119.89
486.61	11377.34
486.78	11410.11
486.96	11447.56
487.14	11803.32
487.32	11721.40
487.50	11555.22
487.68	11836.09
487.85	11866.52
488.03	12219.94
488.21	12159.08
488.39	12336.96
488.57	12573.36
488.75	12262.07
488.92	12615.49
489.10	12706.77
489.28	12741.88
489.46	12737.20
489.64	12968.91
489.81	13238.07
489.99	13207.64
490.17	13146.79
490.35	13345.73
490.53	13366.80
490.70	13439.36
490.88	13453.40
491.06	13802.14
491.24	13715.54
491.41	13701.50
491.59	14045.55
491.77	14008.11
491.95	14127.47
492.13	14202.37
492.30	14319.40
492.48	14022.15
492.66	14415.36
492.84	14230.46
493.01	14375.57
493.19	14696.22
493.37	14750.06
493.54	14862.40
493.72	14831.97
493.90	14778.14
494.08	15059.01
494.25	15243.91
494.43	15117.52
494.61	15213.48
494.79	15262.63
494.96	15555.20
495.14	15510.73
495.32	15728.40
495.49	15920.32
495.67	15662.86
495.85	15901.60
496.02	15686.27
496.20	15765.85
496.38	16016.29
496.55	16119.27
496.73	16203.53
496.91	16390.77
497.09	16688.02
497.26	16245.66
497.44	16435.24
497.62	16774.62
497.79	16741.85
497.97	16919.73
498.14	17153.79
498.32	17092.93
498.50	17390.18
498.67	17322.30
498.85	17074.21
499.03	17090.59
499.20	17359.75
499.38	17556.36
499.56	17558.70
499.73	17668.70
499.91	17907.44
500.08	18057.23
500.26	17752.96
500.44	17649.98
500.61	17785.73
500.79	17874.67
500.97	18104.04
501.14	18415.34
501.32	18345.12
501.49	18122.77
501.67	18359.16
501.84	18265.54
502.02	18471.51
502.20	18523.00
502.37	18324.05
502.55	18878.76
502.72	18616.62
502.90	18953.66
503.07	18628.32
503.25	19005.15
503.43	18995.79
503.60	18801.52
503.78	19171.33
503.95	19084.73
504.13	18815.57
504.30	19168.99
504.48	19206.44
504.65	19499.00
504.83	19716.67
505.01	19480.28
505.18	19566.88
505.36	19740.08
505.53	19499.00
505.71	19695.61
505.88	19847.74
506.06	19571.56
506.23	19988.18
506.41	19922.64
506.58	19941.36
506.76	20109.88
506.93	20156.69
507.11	20397.77
507.28	20243.29
507.46	20203.50
507.63	20402.45
507.81	20774.60
507.98	20329.89
508.16	20561.61
508.33	20563.95
508.50	20463.30
508.68	20982.90
508.85	20812.04
509.03	21125.68
509.20	21165.46
509.38	21266.11
509.55	21064.82
509.73	21130.36
509.90	21132.70
510.08	21205.25
510.25	21165.46
510.42	21439.31
510.60	21626.55
510.77	21568.04
510.95	21675.70
511.12	21401.86
511.30	21600.80
511.47	21624.21
511.64	21949.54
511.82	21762.30
511.99	21774.00
512.17	22171.89
512.34	22242.11
512.51	21954.22
512.69	22508.93
512.86	22359.14
513.04	22466.80
513.21	22682.13
513.38	22328.71
513.56	22675.11
513.73	22419.99
513.90	22761.71
514.08	22752.35
514.25	22897.46
514.43	22785.12
514.60	22717.24
514.77	22972.36
514.95	22911.50
515.12	22789.80
515.29	22852.99
515.47	23562.17
515.64	23229.82
515.81	23154.92
515.99	23084.70
516.16	23498.98
516.33	23590.26
516.51	23325.78
516.68	23229.82
516.85	23517.70
517.03	23747.08
517.20	23536.43
517.37	23679.20
517.54	23936.66
517.72	23775.16
517.89	23887.51
518.06	24002.19
518.24	23974.11
518.41	24135.60
518.58	24135.60
518.75	24397.74
518.93	24252.63
519.10	24273.70
519.27	24393.06
519.45	23941.34
519.62	24418.81
519.79	24215.18
519.96	24547.54
520.14	24807.34
520.31	24446.90
520.48	24692.65
520.65	24432.85
520.83	24966.49
521.00	24891.60
521.17	24680.95
521.34	24907.98
521.52	24762.87
521.69	24872.87
521.86	24947.77
522.03	25163.10
522.20	25364.39
522.38	25170.12
522.55	25406.52
522.72	25537.59
522.89	25458.01
523.07	25741.21
523.24	25439.28
523.41	25539.93
523.58	25305.87
523.75	25593.76
523.92	25525.88
524.10	25951.86
524.27	25736.53
524.44	25965.90
524.61	25942.50
524.78	25729.51
524.96	25827.81
525.13	26302.94
525.30	26258.47
525.47	26195.28
525.64	26410.60
525.81	26127.40
525.98	26176.55
526.16	26426.99
526.33	26160.17
526.50	26382.52
526.67	26096.97
526.84	26382.52
527.01	26373.16
527.18	26338.05
527.36	26977.01
527.53	26808.50
527.70	26705.51
527.87	26728.92
528.04	26775.73
528.21	26656.36
528.38	26590.83
528.55	26412.95
528.72	26869.35
528.89	27009.78
529.07	27103.40
529.24	26902.12
529.41	26888.07
529.58	26845.94
529.75	27054.25
529.92	26852.97
530.09	27290.65
530.26	27154.90
530.43	27271.92
530.60	27115.11
530.77	26974.67
530.94	27241.50
531.11	27047.23
531.28	27171.28
531.46	27520.02
531.63	27370.22
531.80	27723.65
531.97	27630.02
532.14	27714.28
532.31	27243.84
532.48	27557.47
532.65	27765.78
532.82	27557.47
532.99	27688.54
533.16	28060.68
533.33	27981.10
533.50	28226.86
533.67	28034.94
533.84	27826.63
534.01	27742.37
534.18	27922.59
534.35	28479.64
534.52	28027.92
534.69	28308.78
534.86	28601.35
535.03	28388.36
535.20	28215.16
535.37	28217.50
535.54	28252.61
535.71	27976.42
535.88	29046.05
536.05	28652.84
536.22	28474.96
536.38	28540.49
536.55	28577.94
536.72	28105.15
536.89	28460.91
537.06	28395.38
537.23	28821.36
537.40	28584.96
537.57	28950.09
537.74	28727.74
537.91	29134.99
538.08	28730.08
538.25	28662.20
538.42	28582.62
538.59	29284.78
538.75	28591.98
538.92	28732.42
539.09	28823.70
539.26	29036.69
539.43	29064.77
539.60	28889.23
539.77	28830.72
539.94	29151.37
540.11	29287.12
540.28	29240.31
540.44	29359.68
540.61	28889.23
540.78	29312.87
540.95	29572.67
541.12	29266.06
541.29	29146.69
541.46	29010.94
541.62	29181.80
541.79	29441.60
541.96	29362.02
542.13	29551.60
542.30	29476.71
542.47	29731.83
542.63	29624.16
542.80	29830.13
542.97	29830.13
543.14	29628.84
543.31	29638.20
543.48	29825.45
543.64	29923.75
543.81	30188.23
543.98	29624.16
544.15	29923.75
544.32	30235.04
544.48	30373.13
544.65	29961.20
544.82	30052.48
544.99	29907.37
545.16	30448.03
545.32	30300.58
545.49	30230.36
545.66	30328.66
545.83	30433.99
546.00	30651.66
546.16	30373.13
546.33	30370.79
546.50	30347.39
546.67	30553.35
546.83	30223.34
547.00	30546.33
547.17	30431.65
547.34	30558.03
547.50	30766.34
547.67	30717.19
547.84	30789.75
548.00	31026.14
548.17	31105.72
548.34	30492.50
548.51	30864.64
548.67	31201.68
548.84	30761.66
549.01	30904.43
549.18	31215.72
549.34	30841.24
549.51	30731.23
549.68	31000.40
549.84	30899.75
550.01	31101.04
550.18	31302.32
550.34	31173.60
550.51	31321.05
550.68	31122.10
550.84	30756.98
551.01	30754.64
551.18	30740.60
551.34	31161.89
551.51	31419.35
551.68	31407.65
551.84	31152.53
552.01	31374.88
552.18	31285.94
552.34	30850.60
552.51	31522.34
552.68	31646.38
552.84	31241.47
553.01	31548.08
553.18	31658.09
553.34	31267.22
553.51	31536.38
553.67	31470.84
553.84	31882.78
554.01	31620.64
554.17	31512.97
554.34	31522.34
554.51	31344.45
554.67	31639.36
554.84	31842.99
555.00	31875.76
555.17	31606.59
555.33	31814.90
555.50	31519.99
555.67	31508.29
555.83	31845.33
556.00	31402.97
556.16	32292.37
556.33	32011.51
556.50	31711.92
556.66	32044.27
556.83	31812.56
556.99	31964.70
557.16	32030.23
557.32	32180.03
557.49	31789.16
557.65	31543.40
557.82	32247.90
557.98	32173.00
558.15	32067.68
558.32	32149.60
558.48	31873.42
558.65	32233.86
558.81	32189.39
558.98	31667.45
559.14	32245.56
559.31	31519.99
559.47	31948.31
559.64	31644.04
559.80	32018.53
559.97	32215.13
560.13	32074.70
560.30	31999.80
560.46	32662.18
560.63	32041.93
560.79	32044.27
560.96	31938.95
561.12	31978.74
561.29	31894.48
561.45	32126.19
561.61	32376.63
561.78	32395.35
561.94	32414.08
562.11	32048.96
562.27	32196.41
562.44	31960.02
562.60	31882.78
562.77	32016.19
562.93	32018.53
563.10	32451.53
563.26	31896.82
563.42	32357.91
563.59	32175.34
563.75	32144.92
563.92	32460.89
564.08	31936.61
564.24	32222.16
564.41	31985.76
564.57	32297.05
564.74	32245.56
564.90	32659.84
565.07	32367.27
565.23	32430.46
565.39	32638.77
565.56	32147.26
565.72	31990.44
565.88	32093.43
566.05	32283.01
566.21	32051.30
566.38	32350.88
566.54	32287.69
566.70	32617.71
566.87	32458.55
567.03	32428.12
567.19	33329.23
567.36	32360.25
567.52	31978.74
567.68	32594.30
567.85	32217.47
568.01	32194.07
568.17	32343.86
568.34	32994.53
568.50	32610.68
568.66	32704.31
568.83	32496.00
568.99	32751.12
569.15	32191.73
569.32	32051.30
569.48	32271.31
569.64	32664.52
569.81	32353.23
569.97	32346.20
570.13	32577.92
570.30	32219.81
570.46	32453.87
570.62	32823.67
570.78	32432.80
570.95	32563.87
571.11	32917.29
571.27	32484.30
571.43	32538.13
571.60	32748.78
571.76	32451.53
571.92	32395.35
572.09	32594.30
572.25	32184.71
572.41	32968.79
572.57	32739.41
572.74	32751.12
572.90	32168.32
573.06	32460.89
573.22	32114.49
573.38	33120.92
573.55	32252.58
573.71	32280.67
573.87	32877.51
574.03	32910.27
574.20	32416.42
574.36	32786.22
574.52	32734.73
574.68	32329.82
574.84	32610.68
575.01	33090.49
575.17	32751.12
575.33	32807.29
575.49	32519.40
575.65	32591.96
575.82	32704.31
575.98	32629.41
576.14	32699.62
576.30	32561.53
576.46	32491.32
576.62	32451.53
576.79	32690.26
576.95	33064.75
577.11	32786.22
577.27	32622.39
577.43	32929.00
577.59	32877.51
577.75	32940.70
577.92	32484.30
578.08	33090.49
578.24	32811.97
578.40	32765.16
578.56	32966.45
578.72	32655.15
578.88	32912.61
579.04	33055.39
579.21	32603.66
579.37	32264.28
579.53	32725.37
579.69	32788.56
579.85	32678.56
580.01	32561.53
580.17	32290.03
580.33	32753.46
580.49	32725.37
580.65	32699.62
580.82	32818.99
580.98	32680.90
581.14	32669.20
581.30	32790.91
581.46	32325.14
581.62	32577.92
581.78	32376.63
581.94	33076.45
582.10	32730.05
582.26	32439.82
582.42	32676.22
582.58	33053.05
582.74	32774.52
582.90	32718.35
583.06	32603.66
583.22	32725.37
583.38	33060.07
583.54	32783.88
583.70	32779.20
583.86	32720.69
584.02	32753.46
584.18	33029.64
584.34	32975.81
584.50	32800.27
584.66	33062.41
584.82	32617.71
584.98	32865.80
585.14	32842.40
585.30	32739.41
585.46	32517.06
585.62	32776.86
585.78	33095.18
585.94	32634.09
586.10	32907.93
586.26	32636.43
586.42	32884.53
586.58	33041.34
586.74	32577.92
586.90	32435.14
587.06	32367.27
587.22	33125.60
587.38	32334.50
587.54	33095.18
587.70	33228.59
587.86	33418.17
588.02	32830.69
588.18	33095.18
588.34	32849.42
588.49	32755.80
588.65	32591.96
588.81	32931.34
588.97	33022.62
589.13	32844.74
589.29	32727.71
589.45	32608.34
589.61	32978.15
589.77	32943.04
589.93	32828.35
590.08	33172.41
590.24	33027.30
590.40	32720.69
590.56	32793.25
590.72	32577.92
590.88	33036.66
591.04	32601.32
591.20	33163.05
591.35	33214.54
591.51	33219.22
591.67	33383.06
