SpectraSuite Data File
++++++++++++++++++++++++++++++++++++
Date: Fri Oct 04 11:39:43 GMT-05:00 2013
User: price-jones
Dark Spectrum Present: No
Reference Spectrum Present: No
Number of Sampled Component Spectra: 1
Spectrometers: USB2+H05261
Integration Time (usec): 100000 (USB2+H05261)
Spectra Averaged: 1 (USB2+H05261)
Boxcar Smoothing: 0 (USB2+H05261)
Correct for Electrical Dark: No (USB2+H05261)
Strobe/Lamp Enabled: No (USB2+H05261)
Correct for Detector Non-linearity: No (USB2+H05261)
Correct for Stray Light: No (USB2+H05261)
Number of Pixels in Processed Spectrum: 2048
>>>>>Begin Processed Spectral Data<<<<<
365.73	32.77
365.92	32.77
366.12	32.77
366.32	0.00
366.52	0.00
366.72	23.41
366.91	0.00
367.11	0.00
367.31	0.00
367.51	0.00
367.70	0.00
367.90	0.00
368.10	4.68
368.30	0.00
368.49	9.36
368.69	0.00
368.89	0.00
369.09	0.00
369.28	0.00
369.48	0.00
369.68	0.00
369.87	25.75
370.07	0.00
370.27	28.09
370.47	0.00
370.66	16.38
370.86	16.38
371.06	121.71
371.25	194.26
371.45	140.43
371.65	126.39
371.84	110.01
372.04	135.75
372.24	163.84
372.44	102.98
372.63	156.82
372.83	124.05
373.03	196.60
373.22	145.11
373.42	159.16
373.62	128.73
373.81	142.77
374.01	184.90
374.21	224.69
374.40	177.88
374.60	121.71
374.79	117.03
374.99	138.09
375.19	166.18
375.38	180.22
375.58	201.29
375.78	191.92
375.97	175.54
376.17	231.71
376.37	166.18
376.56	189.58
376.76	170.86
376.95	142.77
377.15	147.45
377.35	147.45
377.54	163.84
377.74	107.66
377.93	182.56
378.13	147.45
378.33	212.99
378.52	205.97
378.72	107.66
378.91	203.63
379.11	140.43
379.31	163.84
379.50	145.11
379.70	168.52
379.89	156.82
380.09	149.79
380.28	149.79
380.48	175.54
380.68	198.95
380.87	133.41
381.07	194.26
381.26	208.31
381.46	205.97
381.65	166.18
381.85	161.50
382.04	222.35
382.24	163.84
382.43	184.90
382.63	121.71
382.83	161.50
383.02	234.05
383.22	194.26
383.41	154.48
383.61	166.18
383.80	201.29
384.00	243.42
384.19	135.75
384.39	145.11
384.58	231.71
384.78	168.52
384.97	191.92
385.17	140.43
385.36	121.71
385.56	177.88
385.75	184.90
385.95	194.26
386.14	147.45
386.34	159.16
386.53	154.48
386.72	222.35
386.92	208.31
387.11	149.79
387.31	201.29
387.50	243.42
387.70	201.29
387.89	236.39
388.09	140.43
388.28	166.18
388.48	156.82
388.67	180.22
388.86	133.41
389.06	166.18
389.25	159.16
389.45	154.48
389.64	145.11
389.84	135.75
390.03	175.54
390.22	138.09
390.42	173.20
390.61	100.64
390.81	220.01
391.00	243.42
391.19	182.56
391.39	161.50
391.58	180.22
391.78	278.52
391.97	241.08
392.16	189.58
392.36	250.44
392.55	215.33
392.75	166.18
392.94	205.97
393.13	224.69
393.33	152.13
393.52	154.48
393.71	264.48
393.91	252.78
394.10	271.50
394.29	205.97
394.49	208.31
394.68	273.84
394.88	311.29
395.07	227.03
395.26	234.05
395.46	257.46
395.65	236.39
395.84	250.44
396.04	287.89
396.23	248.10
396.42	271.50
396.62	210.65
396.81	292.57
397.00	248.10
397.19	231.71
397.39	290.23
397.58	210.65
397.77	299.59
397.97	257.46
398.16	198.95
398.35	264.48
398.55	290.23
398.74	269.16
398.93	365.12
399.12	292.57
399.32	325.33
399.51	262.14
399.70	245.76
399.90	306.61
400.09	238.73
400.28	311.29
400.47	315.97
400.67	278.52
400.86	280.86
401.05	259.80
401.24	290.23
401.44	308.95
401.63	351.08
401.82	348.74
402.01	250.44
402.21	243.42
402.40	222.35
402.59	334.70
402.78	278.52
402.97	315.97
403.17	250.44
403.36	341.72
403.55	383.85
403.74	271.50
403.93	355.76
404.13	402.57
404.32	477.47
404.51	355.76
404.70	390.87
404.89	372.15
405.09	395.55
405.28	477.47
405.47	376.83
405.66	313.63
405.85	428.32
406.05	400.23
406.24	355.76
406.43	479.81
406.62	451.72
406.81	472.79
407.00	543.00
407.20	498.53
407.39	376.83
407.58	442.36
407.77	521.94
407.96	535.98
408.15	484.49
408.34	447.04
408.54	496.19
408.73	507.90
408.92	510.24
409.11	517.26
409.30	543.00
409.49	519.60
409.68	491.51
409.87	524.28
410.07	458.74
410.26	491.51
410.45	533.64
410.64	524.28
410.83	552.37
411.02	543.00
411.21	608.54
411.40	585.13
411.59	587.47
411.78	578.11
411.98	575.77
412.17	557.05
412.36	512.58
412.55	585.13
412.74	690.46
412.93	662.37
413.12	627.26
413.31	695.14
413.50	629.60
413.69	638.97
413.88	727.91
414.07	653.01
414.26	648.33
414.45	676.41
414.64	706.84
414.83	781.74
415.02	770.04
415.22	676.41
415.41	709.18
415.60	760.67
415.79	770.04
415.98	819.19
416.17	765.36
416.36	760.67
416.55	676.41
416.74	791.10
416.93	819.19
417.12	760.67
417.31	854.30
417.50	849.61
417.69	777.06
417.88	947.92
418.07	842.59
418.26	858.98
418.45	940.90
418.64	952.60
418.83	882.38
419.02	858.98
419.21	896.43
419.39	868.34
419.58	877.70
419.77	898.77
419.96	1022.81
420.15	945.58
420.34	894.08
420.53	950.26
420.72	973.66
420.91	844.93
421.10	880.04
421.29	954.94
421.48	1043.88
421.67	924.51
421.86	994.73
422.05	1041.54
422.24	1018.13
422.43	1032.18
422.61	961.96
422.80	959.62
422.99	959.62
423.18	924.51
423.37	1097.71
423.56	1015.79
423.75	1046.22
423.94	1013.45
424.13	952.60
424.32	950.26
424.50	1022.81
424.69	1036.86
424.88	1083.67
425.07	1069.62
425.26	994.73
425.45	980.68
425.64	1029.84
425.83	1060.26
426.01	1114.10
426.20	1006.43
426.39	1076.65
426.58	1071.97
426.77	1139.84
426.96	1132.82
427.15	1055.58
427.33	1069.62
427.52	1081.33
427.71	1043.88
427.90	1004.09
428.09	1088.35
428.28	1160.91
428.46	1160.91
428.65	1146.86
428.84	1121.12
429.03	1174.95
429.22	1060.26
429.40	994.73
429.59	1071.97
429.78	1203.04
429.97	1071.97
430.16	1221.76
430.34	1165.59
430.53	1128.14
430.72	1142.18
430.91	1135.16
431.10	1193.67
431.28	1146.86
431.47	1144.52
431.66	1228.78
431.85	1158.57
432.03	1123.46
432.22	1245.16
432.41	1198.35
432.60	1256.87
432.79	1277.93
432.97	1294.32
433.16	1177.29
433.35	1153.88
433.54	1188.99
433.72	1179.63
433.91	1156.22
434.10	1310.70
434.28	1188.99
434.47	1329.42
434.66	1320.06
434.85	1291.98
435.03	1420.71
435.22	1535.39
435.41	1827.96
435.59	1739.02
435.78	1661.78
435.97	1432.41
436.16	1418.36
436.34	1336.45
436.53	1397.30
436.72	1284.95
436.90	1306.02
437.09	1423.05
437.28	1163.25
437.46	1341.13
437.65	1427.73
437.84	1310.70
438.02	1409.00
438.21	1369.21
438.40	1411.34
438.58	1322.40
438.77	1446.45
438.96	1479.22
439.14	1418.36
439.33	1476.88
439.52	1425.39
439.70	1547.09
439.89	1619.65
440.08	1572.84
440.26	1451.13
440.45	1472.20
440.63	1488.58
440.82	1596.25
441.01	1547.09
441.19	1462.83
441.38	1544.75
441.57	1661.78
441.75	1558.80
441.94	1657.10
442.12	1516.67
442.31	1664.12
442.50	1565.82
442.68	1605.61
442.87	1591.56
443.05	1629.01
443.24	1689.87
443.43	1703.91
443.61	1724.97
443.80	1624.33
443.98	1586.88
444.17	1535.39
444.35	1734.34
444.54	1664.12
444.73	1708.59
444.91	1750.72
445.10	1614.97
445.28	1631.35
445.47	1643.06
445.65	1664.12
445.84	1753.06
446.02	1614.97
446.21	1650.08
446.39	1701.57
446.58	1710.93
446.77	1666.46
446.95	1743.70
447.14	1753.06
447.32	1834.98
447.51	1659.44
447.69	1753.06
447.88	1755.40
448.06	1687.53
448.25	1720.29
448.43	1685.19
448.62	1699.23
448.80	1771.79
448.99	1816.26
449.17	1760.08
449.36	1654.76
449.54	1748.38
449.73	1823.28
449.91	1867.75
450.10	1884.13
450.28	1940.30
450.46	1860.73
450.65	1816.26
450.83	1846.68
451.02	1858.39
451.20	1776.47
451.39	1888.81
451.57	1863.07
451.76	1849.02
451.94	1842.00
452.13	1900.52
452.31	1839.66
452.49	1818.60
452.68	1813.92
452.86	1900.52
453.05	2012.86
453.23	1886.47
453.42	1926.26
453.60	1900.52
453.78	1949.67
453.97	1895.83
454.15	1956.69
454.34	1937.96
454.52	1980.09
454.70	1923.92
454.89	2026.90
455.07	1937.96
455.26	2015.20
455.44	1973.07
455.62	1959.03
455.81	1998.82
455.99	1935.62
456.17	1989.46
456.36	2010.52
456.54	2134.57
456.73	2136.91
456.91	2080.74
457.09	2101.80
457.28	2120.53
457.46	2010.52
457.64	2106.48
457.83	2071.37
458.01	2057.33
458.19	2080.74
458.38	2129.89
458.56	2169.68
458.74	2078.40
458.93	2169.68
459.11	2167.34
459.29	2120.53
459.48	2314.79
459.66	2244.57
459.84	2115.84
460.03	2312.45
460.21	2256.28
460.39	2265.64
460.57	2223.51
460.76	2186.06
460.94	2275.00
461.12	2293.72
461.31	2361.60
461.49	2324.15
461.67	2172.02
461.85	2246.91
462.04	2256.28
462.22	2792.26
462.40	2342.88
462.59	2307.77
462.77	2324.15
462.95	2335.85
463.13	2312.45
463.32	2195.42
463.50	2394.37
463.68	2394.37
463.86	2324.15
464.05	2385.01
464.23	2333.51
464.41	2396.71
464.59	2225.85
464.78	2403.73
464.96	2328.83
465.14	2361.60
465.32	2366.28
465.50	2368.62
465.69	2368.62
465.87	2363.94
466.05	2356.92
466.23	2410.75
466.41	2377.98
466.60	2452.88
466.78	2457.56
466.96	2565.23
467.14	2424.80
467.32	2476.29
467.51	2452.88
467.69	2293.72
467.87	2523.10
468.05	2492.67
468.23	2469.27
468.41	2553.52
468.60	2499.69
468.78	2553.52
468.96	2476.29
469.14	2576.93
469.32	2637.78
469.50	2516.08
469.69	2656.51
469.87	2569.91
470.05	2630.76
470.23	2630.76
470.41	2605.02
470.59	2600.34
470.77	2530.12
470.95	2597.99
471.14	2752.47
471.32	2537.14
471.50	2789.92
471.68	2703.32
471.86	2628.42
472.04	2560.55
472.22	2829.71
472.40	2717.36
472.58	2778.22
472.77	2668.21
472.95	2890.56
473.13	2895.24
473.31	2785.24
473.49	2759.49
473.67	2672.89
473.85	2829.71
474.03	2874.18
474.21	2789.92
474.39	2857.79
474.57	2956.10
474.75	2916.31
474.93	2930.35
475.12	2939.71
475.30	2951.42
475.48	3040.36
475.66	2946.73
475.84	3012.27
476.02	2935.03
476.20	2993.55
476.38	2937.37
476.56	3084.83
476.74	3068.44
476.92	3075.46
477.10	3098.87
477.28	3190.15
477.46	3236.96
477.64	3180.79
477.82	3349.31
478.00	3239.30
478.18	3335.26
478.36	3267.39
478.54	3112.91
478.72	3255.69
478.90	3393.78
479.08	3459.31
479.26	3489.74
479.44	3307.18
479.62	3417.18
479.80	3461.65
479.98	3417.18
480.16	3550.59
480.34	3611.45
480.52	3529.53
480.70	3660.60
480.88	3541.23
481.06	3478.04
481.24	3609.11
481.41	3672.30
481.59	3669.96
481.77	3791.67
481.95	3796.35
482.13	3847.84
482.31	3925.08
482.49	3976.57
482.67	3929.76
482.85	4014.02
483.03	3955.51
483.21	3946.14
483.39	4067.85
483.57	4187.22
483.74	4058.49
483.92	4077.21
484.10	3976.57
484.28	4175.52
484.46	4152.11
484.64	4315.95
484.82	4306.59
485.00	4252.75
485.18	4285.52
485.35	4458.72
485.53	4292.54
485.71	4449.36
485.89	4432.97
486.07	4510.21
486.25	4648.30
486.43	4564.04
486.61	4571.07
486.78	4627.24
486.96	4486.81
487.14	4559.36
487.32	4521.92
487.50	4622.56
487.68	4798.10
487.85	4807.46
488.03	4910.44
488.21	4882.36
488.39	4966.62
488.57	4975.98
488.75	4943.21
488.92	5179.61
489.10	5109.39
489.28	5214.71
489.46	4994.70
489.64	5160.88
489.81	5277.91
489.99	5235.78
490.17	5327.06
490.35	5383.23
490.53	5334.08
490.70	5458.13
490.88	5481.53
491.06	5329.40
491.24	5427.70
491.41	5430.04
491.59	5495.58
491.77	5605.58
491.95	5621.97
492.13	5731.97
492.30	5738.99
492.48	5834.96
492.66	5565.79
492.84	5746.02
493.01	5790.49
493.19	5715.59
493.37	5774.10
493.54	5799.85
493.72	5919.21
493.90	6008.16
494.08	5874.74
494.25	6022.20
494.43	5982.41
494.61	6200.08
494.79	6115.82
494.96	6148.59
495.14	6045.60
495.32	6174.33
495.49	6370.94
495.67	6209.44
495.85	6363.92
496.02	6242.21
496.20	6324.13
496.38	6279.66
496.55	6406.05
496.73	6511.37
496.91	6471.58
497.09	6569.88
497.26	6361.58
497.44	6616.69
497.62	6553.50
497.79	6642.44
497.97	6464.56
498.14	6661.16
498.32	6705.63
498.50	6672.87
498.67	6820.32
498.85	6759.47
499.03	7054.37
499.20	6878.83
499.38	6841.39
499.56	6864.79
499.73	7082.46
499.91	7103.53
500.08	7159.70
500.26	6874.15
500.44	6939.69
500.61	7054.37
500.79	6979.48
500.97	7178.42
501.14	7272.04
501.32	7363.33
501.49	7150.34
501.67	7236.94
501.84	7159.70
502.02	7098.84
502.20	7349.28
502.37	7349.28
502.55	7386.73
502.72	7386.73
502.90	7368.01
503.07	7435.88
503.25	7250.98
503.43	7414.82
503.60	7475.67
503.78	7456.95
503.95	7433.54
504.13	7557.59
504.30	7508.44
504.48	7564.61
504.65	7651.21
504.83	7723.77
505.01	7871.22
505.18	7569.29
505.36	7836.11
505.53	7588.02
505.71	7850.16
505.88	7761.22
506.06	7920.37
506.23	7672.28
506.41	7859.52
506.58	7836.11
506.76	7817.39
506.93	7990.59
507.11	7756.54
507.28	8018.68
507.46	7957.82
507.63	7866.54
507.81	7939.10
507.98	7922.71
508.16	8116.98
508.33	8016.33
508.50	8084.21
508.68	8229.32
508.85	8191.88
509.03	8191.88
509.20	8215.28
509.38	8271.45
509.55	8241.03
509.73	8198.90
509.90	8500.83
510.08	8468.06
510.25	8191.88
510.42	8538.27
510.60	8355.71
510.77	8564.02
510.95	8493.80
511.12	8554.66
511.30	8444.65
511.47	8573.38
511.64	8566.36
511.82	8667.00
511.99	8667.00
512.17	8643.60
512.34	8624.87
512.51	8617.85
512.69	8943.19
512.86	8484.44
513.04	8657.64
513.21	8573.38
513.38	8952.55
513.56	8767.65
513.73	8734.88
513.90	8858.93
514.08	8929.14
514.25	9043.83
514.43	8898.72
514.60	8896.38
514.77	8936.17
514.95	9013.40
515.12	8994.68
515.29	9111.71
515.47	9107.02
515.64	9085.96
515.81	8961.91
515.99	9013.40
516.16	9240.44
516.33	9149.15
516.51	9142.13
516.68	9114.05
516.85	9132.77
517.03	9315.33
517.20	9268.52
517.37	9327.03
517.54	9118.73
517.72	9476.83
517.89	9305.97
518.06	9139.79
518.24	9528.32
518.41	9439.38
518.58	9210.01
518.75	9294.27
518.93	9507.26
519.10	9626.62
519.27	9561.09
519.45	9446.40
519.62	9661.73
519.79	9521.30
519.96	9659.39
520.14	9511.94
520.31	9577.47
520.48	9650.03
520.65	9811.53
520.83	9764.72
521.00	9818.55
521.17	9708.54
521.34	9795.14
521.52	9947.28
521.69	9720.24
521.86	9860.68
522.03	9970.68
522.20	9825.57
522.38	9987.07
522.55	9914.51
522.72	9734.29
522.89	9872.38
523.07	10061.96
523.24	10038.56
523.41	10080.69
523.58	9813.87
523.75	10022.17
523.92	10076.01
524.10	10050.26
524.27	10228.14
524.44	10141.54
524.61	10190.69
524.78	10270.27
524.96	10420.06
525.13	10113.45
525.30	10244.52
525.47	10108.77
525.64	10118.14
525.81	10176.65
525.98	10319.42
526.16	10157.92
526.33	10382.62
526.50	10274.95
526.67	10310.06
526.84	10415.38
527.01	10368.57
527.18	10534.75
527.36	10324.10
527.53	10487.94
527.70	10581.56
527.87	10331.12
528.04	10303.04
528.21	10611.99
528.38	10813.28
528.55	10574.54
528.72	10553.48
528.89	10630.71
529.07	10567.52
529.24	10609.65
529.41	10707.95
529.58	10738.38
529.75	10803.91
529.92	10546.45
530.09	10672.84
530.26	10815.62
530.43	10787.53
530.60	10743.06
530.77	10864.77
530.94	10775.83
531.11	10588.58
531.28	10822.64
531.46	11030.94
531.63	11030.94
531.80	10857.75
531.97	11140.95
532.14	10918.60
532.31	11098.82
532.48	10944.34
532.65	11056.69
532.82	10832.00
532.99	11030.94
533.16	11087.12
533.33	11073.07
533.50	11108.18
533.67	11220.53
533.84	10970.09
534.01	10967.75
534.18	11014.56
534.35	11087.12
534.52	11117.54
534.69	11248.61
534.86	11281.38
535.03	10827.32
535.20	11241.59
535.37	11330.53
535.54	11012.22
535.71	10979.45
535.88	11265.00
536.05	11365.64
536.22	11297.77
536.38	11201.80
536.55	11328.19
536.72	11077.76
536.89	11400.75
537.06	11342.24
537.23	11356.28
537.40	11229.89
537.57	11332.87
537.74	11438.20
537.91	11747.15
538.08	11449.90
538.25	11524.80
538.42	11290.74
538.59	11772.89
538.75	11452.24
538.92	11758.85
539.09	11646.51
539.26	11592.67
539.43	11587.99
539.60	11503.73
539.77	11602.04
539.94	11744.81
540.11	11669.91
540.28	11824.39
540.44	11726.08
540.61	11707.36
540.78	11932.05
540.95	11871.20
541.12	12039.72
541.29	12077.16
541.46	12025.67
541.62	12180.15
541.79	11999.93
541.96	11997.59
542.13	12320.58
542.30	12318.24
542.47	12224.62
542.63	12397.82
542.80	12023.33
542.97	12266.75
543.14	12486.76
543.31	12365.05
543.48	12119.29
543.64	12439.95
543.81	12587.40
543.98	12453.99
544.15	12173.13
544.32	12395.48
544.48	12280.79
544.65	12290.15
544.82	12262.07
544.99	12383.77
545.16	12390.80
545.32	12514.84
545.49	12706.77
545.66	13303.60
545.83	13434.68
546.00	13359.78
546.16	12676.34
546.33	12468.03
546.50	12194.19
546.67	12395.48
546.83	12257.39
547.00	12116.95
547.17	12430.59
547.34	12343.99
547.50	12210.57
547.67	12437.61
547.84	12297.17
548.00	12439.95
548.17	12278.45
548.34	12264.41
548.51	12475.06
548.67	12482.08
548.84	12217.60
549.01	12287.81
549.18	12428.24
549.34	12383.77
549.51	12416.54
549.68	12489.10
549.84	12503.14
550.01	12568.68
550.18	12339.30
550.34	12615.49
550.51	12421.22
550.68	12402.50
550.84	12381.43
551.01	12362.71
551.18	12297.17
551.34	12402.50
551.51	12390.80
551.68	12386.12
551.84	12702.09
552.01	12725.49
552.18	12503.14
552.34	12365.05
552.51	12477.40
552.68	12379.09
552.84	12596.76
553.01	12372.07
553.18	12517.18
553.34	12177.81
553.51	12461.01
553.67	12542.93
553.84	12592.08
554.01	12453.99
554.17	12542.93
554.34	12564.00
554.51	12425.90
554.67	12393.14
554.84	12650.60
555.00	12573.36
555.17	12812.09
555.33	12510.16
555.50	12620.17
555.67	12641.23
555.83	12362.71
556.00	12716.13
556.16	12861.24
556.33	12699.75
556.50	12566.34
556.66	12423.56
556.83	12556.97
556.99	12751.24
557.16	12505.48
557.32	12587.40
557.49	12924.44
557.65	12571.02
557.82	12807.41
557.98	12720.81
558.15	12596.76
558.32	12657.62
558.48	12592.08
558.65	12556.97
558.81	12655.28
558.98	12641.23
559.14	12617.83
559.31	12709.11
559.47	12599.10
559.64	12561.66
559.80	12765.28
559.97	12835.50
560.13	12608.47
560.30	12751.24
560.46	12521.87
560.63	12723.15
560.79	12809.75
560.96	12905.71
561.12	12678.68
561.29	12809.75
561.45	12849.54
561.61	12608.47
561.78	12917.42
561.94	12666.98
562.11	12706.77
562.27	12919.76
562.44	12746.56
562.60	12650.60
562.77	12922.10
562.93	12631.87
563.10	12809.75
563.26	12828.48
563.42	12812.09
563.59	12774.64
563.75	12720.81
563.92	12872.95
564.08	12587.40
564.24	12718.47
564.41	12786.35
564.57	12894.01
564.74	12685.70
564.90	12795.71
565.07	13022.74
565.23	12929.12
565.39	12856.56
565.56	12748.90
565.72	12971.25
565.88	12875.29
566.05	12802.73
566.21	12784.01
566.38	12788.69
566.54	12877.63
566.70	12971.25
566.87	12912.74
567.03	12814.43
567.19	12886.99
567.36	12896.35
567.52	12985.29
567.68	12891.67
567.85	12936.14
568.01	12774.64
568.17	12699.75
568.34	12760.60
568.50	13090.62
568.66	12886.99
568.83	12854.22
568.99	13039.12
569.15	12842.52
569.32	12814.43
569.48	12837.84
569.64	12627.19
569.81	12723.15
569.97	13107.00
570.13	12894.01
570.30	12861.24
570.46	12933.80
570.62	12898.69
570.78	13034.44
570.95	12842.52
571.11	13048.49
571.27	12891.67
571.43	12886.99
571.60	12849.54
571.76	12835.50
571.92	13088.28
572.09	13001.68
572.25	13055.51
572.41	12926.78
572.57	12821.45
572.74	12952.52
572.90	12926.78
573.06	12889.33
573.22	13011.04
573.38	12872.95
573.55	13064.87
573.71	13029.76
573.87	13114.02
574.03	12774.64
574.20	12840.18
574.36	12863.58
574.52	12931.46
574.68	13163.17
574.84	12978.27
575.01	12795.71
575.17	12971.25
575.33	12999.34
575.49	13158.49
575.65	12985.29
575.82	13069.55
575.98	13228.71
576.14	13231.05
576.30	12816.77
576.46	13158.49
576.62	13282.54
576.79	13327.01
576.95	13036.78
577.11	13249.77
577.27	13109.34
577.43	13184.24
577.59	12814.43
577.75	13025.08
577.92	12996.99
578.08	12903.37
578.24	12996.99
578.40	12905.71
578.56	13200.62
578.72	13055.51
578.88	13582.13
579.04	13184.24
579.21	13076.57
579.37	13041.46
579.53	13415.95
579.69	13191.26
579.85	13057.85
580.01	12996.99
580.17	13163.17
580.33	13041.46
580.49	13022.74
580.65	12868.27
580.82	13104.66
580.98	12908.05
581.14	12952.52
581.30	13345.73
581.46	13212.32
581.62	13085.94
581.78	12952.52
581.94	13193.60
582.10	12968.91
582.26	13067.21
582.42	13095.30
582.58	13104.66
582.74	13144.45
582.90	13029.76
583.06	13088.28
583.22	13329.35
583.38	13025.08
583.54	12931.46
583.70	12985.29
583.86	13081.25
584.02	13231.05
584.18	13465.10
584.34	13350.42
584.50	13198.28
584.66	13069.55
584.82	13097.64
584.98	13071.89
585.14	12989.97
585.30	12889.33
585.46	13088.28
585.62	13095.30
585.78	13088.28
585.94	13233.39
586.10	13156.15
586.26	13069.55
586.42	13233.39
586.58	13284.88
586.74	12917.42
586.90	13322.33
587.06	13205.30
587.22	13198.28
587.38	13238.07
587.54	12987.63
587.70	13067.21
587.86	13165.51
588.02	12877.63
588.18	13224.03
588.34	13205.30
588.49	13345.73
588.65	13006.36
588.81	13130.41
588.97	12917.42
589.13	13118.70
589.29	13219.35
589.45	13135.09
589.61	13334.03
589.77	13427.65
589.93	13174.88
590.08	13034.44
590.24	13235.73
590.40	13256.79
590.56	13282.54
590.72	13193.60
590.88	13067.21
591.04	13238.07
591.20	13165.51
591.35	13256.79
591.51	13336.37
591.67	13221.69
591.83	13095.30
591.99	13238.07
592.15	13284.88
592.31	13217.01
592.46	13275.52
592.62	13107.00
592.78	12989.97
592.94	13034.44
593.10	13144.45
593.26	13081.25
593.41	13345.73
593.57	13259.13
593.73	13186.58
593.89	13390.20
594.05	13158.49
594.20	12945.50
594.36	13130.41
594.52	13071.89
594.68	13165.51
