SpectraSuite Data File
++++++++++++++++++++++++++++++++++++
Date: Fri Oct 04 11:39:53 GMT-05:00 2013
User: price-jones
Dark Spectrum Present: No
Reference Spectrum Present: No
Number of Sampled Component Spectra: 1
Spectrometers: USB2+H05261
Integration Time (usec): 100000 (USB2+H05261)
Spectra Averaged: 1 (USB2+H05261)
Boxcar Smoothing: 0 (USB2+H05261)
Correct for Electrical Dark: No (USB2+H05261)
Strobe/Lamp Enabled: No (USB2+H05261)
Correct for Detector Non-linearity: No (USB2+H05261)
Correct for Stray Light: No (USB2+H05261)
Number of Pixels in Processed Spectrum: 2048
>>>>>Begin Processed Spectral Data<<<<<
365.73	0.00
365.92	0.00
366.12	0.00
366.32	0.00
366.52	0.00
366.72	11.70
366.91	0.00
367.11	0.00
367.31	0.00
367.51	0.00
367.70	0.00
367.90	0.00
368.10	2.34
368.30	0.00
368.49	0.00
368.69	0.00
368.89	0.00
369.09	0.00
369.28	23.41
369.48	0.00
369.68	0.00
369.87	42.13
370.07	0.00
370.27	0.00
370.47	56.17
370.66	110.01
370.86	107.66
371.06	217.67
371.25	168.52
371.45	173.20
371.65	238.73
371.84	149.79
372.04	133.41
372.24	124.05
372.44	161.50
372.63	224.69
372.83	266.82
373.03	301.93
373.22	241.08
373.42	238.73
373.62	271.50
373.81	203.63
374.01	191.92
374.21	264.48
374.40	285.55
374.60	280.86
374.79	191.92
374.99	262.14
375.19	341.72
375.38	318.31
375.58	257.46
375.78	262.14
375.97	212.99
376.17	220.01
376.37	278.52
376.56	332.36
376.76	243.42
376.95	133.41
377.15	196.60
377.35	191.92
377.54	269.16
377.74	198.95
377.93	128.73
378.13	283.20
378.33	278.52
378.52	248.10
378.72	297.25
378.91	299.59
379.11	276.18
379.31	264.48
379.50	299.59
379.70	334.70
379.89	262.14
380.09	234.05
380.28	306.61
380.48	262.14
380.68	231.71
380.87	203.63
381.07	308.95
381.26	269.16
381.46	346.40
381.65	292.57
381.85	294.91
382.04	313.63
382.24	325.33
382.43	313.63
382.63	273.84
382.83	259.80
383.02	301.93
383.22	301.93
383.41	276.18
383.61	327.68
383.80	334.70
384.00	381.51
384.19	271.50
384.39	294.91
384.58	332.36
384.78	353.42
384.97	276.18
385.17	346.40
385.36	369.80
385.56	318.31
385.75	297.25
385.95	435.34
386.14	365.12
386.34	362.78
386.53	358.10
386.72	325.33
386.92	308.95
387.11	369.80
387.31	437.68
387.50	372.15
387.70	292.57
387.89	311.29
388.09	397.89
388.28	374.49
388.48	320.65
388.67	348.74
388.86	341.72
389.06	447.04
389.25	330.02
389.45	322.99
389.64	393.21
389.84	409.59
390.03	402.57
390.22	353.42
390.42	447.04
390.61	416.62
390.81	437.68
391.00	348.74
391.19	409.59
391.39	383.85
391.58	404.91
391.78	407.25
391.97	463.43
392.16	404.91
392.36	512.58
392.55	430.66
392.75	416.62
392.94	395.55
393.13	430.66
393.33	461.09
393.52	472.79
393.71	479.81
393.91	428.32
394.10	437.68
394.29	500.87
394.49	486.83
394.68	482.15
394.88	486.83
395.07	582.79
395.26	505.56
395.46	475.13
395.65	578.11
395.84	463.43
396.04	641.31
396.23	507.90
396.42	589.82
396.62	596.84
396.81	489.17
397.00	603.86
397.19	496.19
397.39	653.01
397.58	512.58
397.77	510.24
397.97	608.54
398.16	472.79
398.35	540.66
398.55	631.94
398.74	648.33
398.93	564.07
399.12	589.82
399.32	613.22
399.51	578.11
399.70	608.54
399.90	596.84
400.09	664.71
400.28	706.84
400.47	662.37
400.67	699.82
400.86	692.80
401.05	678.76
401.24	730.25
401.44	713.86
401.63	709.18
401.82	669.39
402.01	678.76
402.21	683.44
402.40	748.97
402.59	683.44
402.78	692.80
402.97	746.63
403.17	760.67
403.36	760.67
403.55	716.20
403.74	753.65
403.93	868.34
404.13	814.51
404.32	800.46
404.51	837.91
404.70	840.25
404.89	863.66
405.09	980.68
405.28	884.72
405.47	880.04
405.66	945.58
405.85	903.45
406.05	910.47
406.24	889.40
406.43	894.08
406.62	938.55
406.81	1053.24
407.00	936.21
407.20	938.55
407.39	877.70
407.58	922.17
407.77	973.66
407.96	1071.97
408.15	1069.62
408.34	1001.75
408.54	1043.88
408.73	1020.47
408.92	1057.92
409.11	1064.94
409.30	1081.33
409.49	1069.62
409.68	1231.12
409.87	1142.18
410.07	1118.78
410.26	1107.07
410.45	1174.95
410.64	1196.01
410.83	1207.72
411.02	1289.64
411.21	1331.76
411.40	1336.45
411.59	1296.66
411.78	1270.91
411.98	1261.55
412.17	1362.19
412.36	1327.08
412.55	1420.71
412.74	1256.87
412.93	1458.15
413.12	1338.79
413.31	1514.33
413.50	1362.19
413.69	1373.89
413.88	1502.62
414.07	1453.47
414.26	1521.35
414.45	1493.26
414.64	1511.99
414.83	1629.01
415.02	1610.29
415.22	1504.96
415.41	1689.87
415.60	1636.03
415.79	1577.52
415.98	1610.29
416.17	1706.25
416.36	1727.32
416.55	1743.70
416.74	1605.61
416.93	1778.81
417.12	1722.63
417.31	1736.68
417.50	1851.36
417.69	1879.45
417.88	1806.89
418.07	1884.13
418.26	1849.02
418.45	1923.92
418.64	1994.14
418.83	1846.68
419.02	1966.05
419.21	1952.01
419.39	1895.83
419.58	1919.24
419.77	1858.39
419.96	2064.35
420.15	1937.96
420.34	2038.61
420.53	2062.01
420.72	2045.63
420.91	2073.71
421.10	2115.84
421.29	2179.04
421.48	2080.74
421.67	2165.00
421.86	2097.12
422.05	2050.31
422.24	2146.27
422.43	2059.67
422.61	2237.55
422.80	2190.74
422.99	2249.25
423.18	2265.64
423.37	2132.23
423.56	2136.91
423.75	2162.66
423.94	2127.55
424.13	2054.99
424.32	2146.27
424.50	2237.55
424.69	2356.92
424.88	2204.78
425.07	2207.13
425.26	2207.13
425.45	2157.97
425.64	2181.38
425.83	2225.85
426.01	2277.34
426.20	2221.17
426.39	2214.15
426.58	2333.51
426.77	2326.49
426.96	2368.62
427.15	2260.96
427.33	2321.81
427.52	2368.62
427.71	2328.83
427.90	2382.67
428.09	2296.07
428.28	2345.22
428.46	2310.11
428.65	2471.61
428.84	2534.80
429.03	2431.82
429.22	2396.71
429.40	2525.44
429.59	2530.12
429.78	2452.88
429.97	2394.37
430.16	2422.45
430.34	2424.80
430.53	2509.05
430.72	2668.21
430.91	2619.06
431.10	2464.58
431.28	2626.08
431.47	2602.68
431.66	2729.06
431.85	2581.61
432.03	2677.57
432.22	2712.68
432.41	2731.41
432.60	2647.15
432.79	2654.17
432.97	2623.74
433.16	2736.09
433.35	2738.43
433.54	2775.88
433.72	2757.15
433.91	2708.00
434.10	2708.00
434.28	2754.81
434.47	2864.82
434.66	2876.52
434.85	2836.73
435.03	2890.56
435.22	3166.74
435.41	3318.88
435.59	3283.77
435.78	3370.37
435.97	3094.19
436.16	3002.91
436.34	2906.95
436.53	2949.08
436.72	3068.44
436.90	2885.88
437.09	2993.55
437.28	3084.83
437.46	3129.30
437.65	3159.72
437.84	3052.06
438.02	3035.67
438.21	3138.66
438.40	2977.16
438.58	3101.21
438.77	3239.30
438.96	3201.85
439.14	3234.62
439.33	3412.50
439.52	3162.06
439.70	3316.54
439.89	3241.64
440.08	3335.26
440.26	3398.46
440.45	3328.24
440.63	3370.37
440.82	3414.84
441.01	3466.33
441.19	3522.51
441.38	3438.25
441.57	3667.62
441.75	3590.38
441.94	3611.45
442.12	3583.36
442.31	3681.66
442.50	3583.36
442.68	3559.95
442.87	3658.26
443.05	3747.20
443.24	3709.75
443.43	3786.99
443.61	3882.95
443.80	3798.69
443.98	3845.50
444.17	3604.42
444.35	3779.97
444.54	3920.40
444.73	3882.95
444.91	3850.18
445.10	3845.50
445.28	3838.48
445.47	3726.13
445.65	3726.13
445.84	3885.29
446.02	3843.16
446.21	3747.20
446.39	3772.94
446.58	3967.21
446.77	3908.69
446.95	3967.21
447.14	3761.24
447.32	3911.04
447.51	3892.31
447.69	3871.25
447.88	3904.01
448.06	3845.50
448.25	3957.85
448.43	3981.25
448.62	3859.54
448.80	3819.75
448.99	3988.27
449.17	4102.96
449.36	4042.11
449.54	4086.58
449.73	4126.36
449.91	4119.34
450.10	4124.02
450.28	4219.99
450.46	4177.86
450.65	4271.48
450.83	4126.36
451.02	4163.81
451.20	4154.45
451.39	4184.88
451.57	4053.81
451.76	4128.70
451.94	4238.71
452.13	4369.78
452.31	4280.84
452.49	4102.96
452.68	4423.61
452.86	4217.65
453.05	4241.05
453.23	4341.69
453.42	4212.96
453.60	4299.56
453.78	4311.27
453.97	4322.97
454.15	4341.69
454.34	4400.21
454.52	4432.97
454.70	4386.16
454.89	4423.61
455.07	4393.19
455.26	4390.84
455.44	4627.24
455.62	4414.25
455.81	4561.70
455.99	4542.98
456.17	4423.61
456.36	4596.81
456.54	4683.41
456.73	4807.46
456.91	4784.06
457.09	4746.61
457.28	4891.72
457.46	4798.10
457.64	4727.88
457.83	4823.84
458.01	4746.61
458.19	4882.36
458.38	4791.08
458.56	4884.70
458.74	4908.10
458.93	4889.38
459.11	4849.59
459.29	4873.00
459.48	5004.07
459.66	4905.76
459.84	5210.03
460.03	5085.98
460.21	4971.30
460.39	5015.77
460.57	5034.49
460.76	5046.20
460.94	5163.22
461.12	5153.86
461.31	5128.11
461.49	5132.79
461.67	5083.64
461.85	5280.25
462.04	5235.78
462.22	5748.36
462.40	5277.91
462.59	5153.86
462.77	5163.22
462.95	5348.12
463.13	5425.36
463.32	5462.81
463.50	5427.70
463.68	5423.02
463.86	5462.81
464.05	5324.72
464.23	5240.46
464.41	5336.42
464.59	5371.53
464.78	5547.07
464.96	5287.27
465.14	5444.09
465.32	5497.92
465.50	5472.17
465.69	5607.92
465.87	5411.32
466.05	5350.46
466.23	5568.13
466.41	5675.80
466.60	5776.44
466.78	5528.35
466.96	5607.92
467.14	5558.77
467.32	5689.84
467.51	5638.35
467.69	5582.18
467.87	5706.23
468.05	5834.96
468.23	5589.20
468.41	5734.31
468.60	5816.23
468.78	5909.85
468.96	5790.49
469.14	5867.72
469.32	6008.16
469.50	5678.14
469.69	5832.62
469.87	6010.50
470.05	6029.22
470.23	5926.24
470.41	5968.37
470.59	6003.47
470.77	6052.63
470.95	5987.09
471.14	6155.61
471.32	6148.59
471.50	6209.44
471.68	6169.65
471.86	6272.64
472.04	6256.25
472.22	6455.20
472.40	6356.90
472.58	6382.64
472.77	6424.77
472.95	6363.92
473.13	6590.95
473.31	6286.68
473.49	6487.96
473.67	6487.96
473.85	6366.26
474.03	6532.44
474.21	6649.46
474.39	6703.29
474.57	6696.27
474.75	6689.25
474.93	7049.69
475.12	6846.07
475.30	6593.29
475.48	6661.16
475.66	6794.58
475.84	6956.07
476.02	6965.43
476.20	7176.08
476.38	7117.57
476.56	7166.72
476.74	7297.79
476.92	7108.21
477.10	7211.19
477.28	7527.16
477.46	7187.79
477.64	7346.94
477.82	7454.61
478.00	7871.22
478.18	7590.36
478.36	7796.32
478.54	7545.89
478.72	7683.98
478.90	7962.50
479.08	7946.12
479.26	8084.21
479.44	8044.42
479.62	8088.89
479.80	8105.28
479.98	8112.30
480.16	8266.77
480.34	8341.67
480.52	8297.20
480.70	8421.25
480.88	8496.14
481.06	8592.11
481.24	8564.02
481.41	8533.59
481.59	8709.13
481.77	8915.10
481.95	8912.76
482.13	9008.72
482.31	9029.79
482.49	9039.15
482.67	9074.26
482.85	9312.99
483.03	9415.98
483.21	9425.34
483.39	9568.11
483.57	9509.60
483.74	9434.70
483.92	9617.26
484.10	9537.68
484.28	9673.43
484.46	9947.28
484.64	10214.10
484.82	10129.84
485.00	10003.45
485.18	10204.74
485.35	10281.97
485.53	10443.47
485.71	10417.72
485.89	10494.96
486.07	10544.11
486.25	10731.36
486.43	10565.18
486.61	10885.83
486.78	10810.93
486.96	11220.53
487.14	11080.10
487.32	11222.87
487.50	11049.67
487.68	11194.78
487.85	11363.30
488.03	11660.55
488.21	11707.36
488.39	11665.23
488.57	11789.28
488.75	11793.96
488.92	12123.98
489.10	12056.10
489.28	12198.87
489.46	12325.26
489.64	12102.91
489.81	12280.79
489.99	12325.26
490.17	12758.26
490.35	12620.17
490.53	12629.53
490.70	12830.82
490.88	12723.15
491.06	12821.45
491.24	12854.22
491.41	12982.95
491.59	13350.42
491.77	13448.72
491.95	13331.69
492.13	13504.89
492.30	13675.75
492.48	13437.02
492.66	13628.94
492.84	13708.52
493.01	13748.31
493.19	13727.24
493.37	14038.53
493.54	14108.75
493.72	14001.08
493.90	14317.06
494.08	14321.74
494.25	14448.13
494.43	14501.96
494.61	14588.56
494.79	14642.39
494.96	14611.96
495.14	14913.89
495.32	14754.74
495.49	15054.33
495.67	14991.13
495.85	15307.10
496.02	15382.00
496.20	15367.96
496.38	15288.38
496.55	15353.91
496.73	15559.88
496.91	15524.77
497.09	15697.97
497.26	15765.85
497.44	15789.25
497.62	15847.77
497.79	15817.34
497.97	15941.39
498.14	16077.14
498.32	16498.44
498.50	16222.25
498.67	16451.63
498.85	16044.37
499.03	16477.37
499.20	16732.49
499.38	16622.48
499.56	16695.04
499.73	16470.35
499.91	16673.98
500.08	16912.71
500.26	17057.82
500.44	16924.41
500.61	16931.44
500.79	17083.57
500.97	17451.03
501.14	17462.74
501.32	17436.99
501.49	17270.81
501.67	17448.69
501.84	17432.31
502.02	17624.23
502.20	17797.43
502.37	17678.07
502.55	17717.86
502.72	17905.10
502.90	18024.47
503.07	17624.23
503.25	17858.29
503.43	17614.87
503.60	18366.18
503.78	18373.21
503.95	18246.82
504.13	18171.92
504.30	18267.88
504.48	18396.61
504.65	18312.35
504.83	18539.38
505.01	18735.99
505.18	18745.35
505.36	18829.61
505.53	18775.78
505.71	18958.34
505.88	18553.43
506.06	18993.45
506.23	19016.85
506.41	18988.77
506.58	19147.92
506.76	19323.46
506.93	19431.13
507.11	19321.12
507.28	19548.15
507.46	19630.07
507.63	19639.44
507.81	19477.94
507.98	19484.96
508.16	19726.04
508.33	19658.16
508.50	20063.07
508.68	19777.53
508.85	20065.41
509.03	19599.65
509.20	20114.56
509.38	20350.96
509.55	20016.26
509.73	20255.00
509.90	20439.90
510.08	20114.56
510.25	20360.32
510.42	20659.91
510.60	20613.10
510.77	20666.93
510.95	20952.48
511.12	20367.34
511.30	20617.78
511.47	20615.44
511.64	21256.75
511.82	21132.70
511.99	20987.58
512.17	21216.96
512.34	20996.95
512.51	21324.62
512.69	21282.49
512.86	21397.18
513.04	21668.68
513.21	21596.12
513.38	21865.28
513.56	21589.10
513.73	21640.59
513.90	21792.73
514.08	21830.18
514.25	21572.72
514.43	21720.17
514.60	21886.35
514.77	21893.37
514.95	22527.66
515.12	22068.91
515.29	22017.42
515.47	22022.10
515.64	22183.60
515.81	22157.85
515.99	22345.09
516.16	22534.68
516.33	22115.72
516.51	22462.12
516.68	22415.31
516.85	22473.82
517.03	22815.54
517.20	22789.80
517.37	22579.15
517.54	22649.36
517.72	22815.54
517.89	22553.40
518.06	23112.79
518.24	23124.49
518.41	23014.49
518.58	23150.24
518.75	23248.54
518.93	23047.26
519.10	23061.30
519.27	23447.49
519.45	23094.07
519.62	23587.92
519.79	23510.68
519.96	23524.72
520.14	23723.67
520.31	23616.01
520.48	23985.81
520.65	23777.50
520.83	24072.41
521.00	23992.83
521.17	23655.79
521.34	23831.33
521.52	24168.37
521.69	24187.10
521.86	24159.01
522.03	24215.18
522.20	24105.18
522.38	24533.50
522.55	24226.89
522.72	24510.09
522.89	24643.50
523.07	24753.51
523.24	24704.35
523.41	24592.01
523.58	24687.97
523.75	24858.83
523.92	24603.71
524.10	24622.44
524.27	24774.57
524.44	24648.18
524.61	24959.47
524.78	25008.62
524.96	25020.33
525.13	24922.02
525.30	25032.03
525.47	25174.80
525.64	24879.89
525.81	25511.84
525.98	25575.03
526.16	25277.79
526.33	25366.73
526.50	25443.96
526.67	25324.60
526.84	25544.61
527.01	25205.23
527.18	25509.50
527.36	25851.22
527.53	25762.28
527.70	26012.71
527.87	25921.43
528.04	26171.87
528.21	25837.17
528.38	25860.58
528.55	26384.86
528.72	25935.48
528.89	26473.80
529.07	26134.42
529.24	25919.09
529.41	26279.54
529.58	26373.16
529.75	26141.44
529.92	26307.62
530.09	26415.29
530.26	26258.47
530.43	26316.98
530.60	26101.65
530.77	26534.65
530.94	26714.87
531.11	26745.30
531.28	26677.43
531.46	26518.27
531.63	26806.16
531.80	27037.87
531.97	26958.29
532.14	27016.80
532.31	26958.29
532.48	27164.26
532.65	26960.63
532.82	26813.18
532.99	26979.36
533.16	26925.52
533.33	27367.88
533.50	27447.46
533.67	27332.78
533.84	26951.27
534.01	27353.84
534.18	27229.79
534.35	27417.04
534.52	27538.74
534.69	27817.27
534.86	27356.18
535.03	27505.98
535.20	27508.32
535.37	27470.87
535.54	27779.82
535.71	27475.55
535.88	27838.33
536.05	28009.19
536.22	27845.35
536.38	28020.89
536.55	28299.42
536.72	28191.75
536.89	28046.64
537.06	27936.63
537.23	27880.46
537.40	28123.88
537.57	28158.99
537.74	28002.17
537.91	28034.94
538.08	28458.57
538.25	28011.53
538.42	28648.16
538.59	28552.20
538.75	28201.11
538.92	28423.47
539.09	28549.85
539.26	28109.83
539.43	28360.27
539.60	28388.36
539.77	28858.81
539.94	28982.85
540.11	28936.04
540.28	28865.83
540.44	29010.94
540.61	28849.44
540.78	28891.57
540.95	29146.69
541.12	29092.86
541.29	29174.78
541.46	29326.91
541.62	28933.70
541.79	29301.17
541.96	29244.99
542.13	29010.94
542.30	29179.46
542.47	29722.46
542.63	29804.38
542.80	29397.13
542.97	29951.84
543.14	29324.57
543.31	29476.71
543.48	29476.71
543.64	29898.00
543.81	29825.45
543.98	29755.23
544.15	30321.64
544.32	29818.42
544.48	30026.73
544.65	30047.80
544.82	29928.43
544.99	29647.57
545.16	30036.09
545.32	29802.04
545.49	30866.98
545.66	31019.12
545.83	31211.04
546.00	30799.11
546.16	30948.90
546.33	30132.06
546.50	30143.76
546.67	30263.13
546.83	29830.13
547.00	30469.09
547.17	30347.39
547.34	30581.44
547.50	30157.80
547.67	30441.01
547.84	30441.01
548.00	30684.42
548.17	30822.51
548.34	30422.28
548.51	30951.24
548.67	30373.13
548.84	31077.63
549.01	30771.02
549.18	30497.18
549.34	30525.27
549.51	30611.87
549.68	30857.62
549.84	30555.69
550.01	30522.93
550.18	30668.04
550.34	30637.61
550.51	30834.22
550.68	30665.70
550.84	30969.97
551.01	30883.37
551.18	30895.07
551.34	30700.81
551.51	30916.14
551.68	31206.36
551.84	31339.77
552.01	30824.86
552.18	30813.15
552.34	31079.97
552.51	31204.02
552.68	31108.06
552.84	30883.37
553.01	31150.19
553.18	31220.41
553.34	31316.37
553.51	31253.17
553.67	31044.87
553.84	31337.43
554.01	31185.30
554.17	31220.41
554.34	31402.97
554.51	31021.46
554.67	31620.64
554.84	31211.04
555.00	31199.34
555.17	31412.33
555.33	31644.04
555.50	31241.47
555.67	31519.99
555.83	31456.80
556.00	31112.74
556.16	31857.03
556.33	31227.43
556.50	31236.79
556.66	31505.95
556.83	31412.33
556.99	31796.18
557.16	32093.43
557.32	31735.32
557.49	31679.15
557.65	31267.22
557.82	31543.40
557.98	31063.59
558.15	31735.32
558.32	31580.85
558.48	31927.25
558.65	31667.45
558.81	31688.51
558.98	31665.11
559.14	31957.67
559.31	31730.64
559.47	31873.42
559.64	31826.60
559.80	31695.53
559.97	32203.43
560.13	32121.51
560.30	32055.98
560.46	32151.94
560.63	31903.84
560.79	31878.10
560.96	32364.93
561.12	31882.78
561.29	31821.92
561.45	32140.24
561.61	32212.79
561.78	32219.81
561.94	32032.57
562.11	32189.39
562.27	31761.07
562.44	32229.18
562.60	32058.32
562.77	31803.20
562.93	32156.62
563.10	32505.36
563.26	32067.68
563.42	32409.40
563.59	32407.06
563.75	32584.94
563.92	32493.66
564.08	32397.70
564.24	31967.04
564.41	31908.52
564.57	32165.98
564.74	32315.78
564.90	32236.20
565.07	32844.74
565.23	32699.62
565.39	32540.47
565.56	32535.79
565.72	32306.41
565.88	32154.28
566.05	32170.66
566.21	32238.54
566.38	32208.11
566.54	32254.92
566.70	32570.90
566.87	33029.64
567.03	32987.51
567.19	32669.20
567.36	32718.35
567.52	32556.85
567.68	32472.59
567.85	32292.37
568.01	32439.82
568.17	32589.62
568.34	32919.63
568.50	32542.81
568.66	32589.62
568.83	32720.69
568.99	32959.42
569.15	32465.57
569.32	32706.65
569.48	32666.86
569.64	32767.50
569.81	32678.56
569.97	32900.91
570.13	32577.92
570.30	32613.02
570.46	32748.78
570.62	32479.61
570.78	32940.70
570.95	32606.00
571.11	32767.50
571.27	32542.81
571.43	32662.18
571.60	32961.76
571.76	32938.36
571.92	32776.86
572.09	32982.83
572.25	33078.79
572.41	32723.03
572.57	33350.29
572.74	32835.38
572.90	33055.39
573.06	32458.55
573.22	32723.03
573.38	32835.38
573.55	32975.81
573.71	32985.17
573.87	33263.69
574.03	32556.85
574.20	32889.21
574.36	32655.15
574.52	33078.79
574.68	33156.03
574.84	32786.22
575.01	32924.32
575.17	32879.85
575.33	33006.23
575.49	32826.01
575.65	32943.04
575.82	32982.83
575.98	32727.71
576.14	32861.12
576.30	33120.92
576.46	32711.33
576.62	32821.33
576.79	32840.06
576.95	33076.45
577.11	33088.15
577.27	32940.70
577.43	33362.00
577.59	33366.68
577.75	33003.89
577.92	33003.89
578.08	33015.60
578.24	32844.74
578.40	32978.15
578.56	33259.01
578.72	33331.57
578.88	33797.34
579.04	33422.85
579.21	33380.72
579.37	33149.01
579.53	32800.27
579.69	32596.64
579.85	33074.11
580.01	33244.97
580.17	32854.10
580.33	33287.10
580.49	32795.59
580.65	33586.69
580.82	33062.41
580.98	33186.46
581.14	33031.98
581.30	33479.02
581.46	33099.86
581.62	32954.74
581.78	32767.50
581.94	33113.90
582.10	33188.80
582.26	33102.20
582.42	33223.90
582.58	33479.02
582.74	33628.82
582.90	33301.14
583.06	33270.72
583.22	33352.63
583.38	33338.59
583.54	33174.75
583.70	32992.19
583.86	33427.53
584.02	33308.16
584.18	33195.82
584.34	33738.82
584.50	33684.99
584.66	33603.07
584.82	33184.12
584.98	33256.67
585.14	33319.87
585.30	32760.48
585.46	33191.14
585.62	33476.68
585.78	33329.23
585.94	33514.13
586.10	33486.04
586.26	33216.88
586.42	33369.02
586.58	33729.46
586.74	33818.40
586.90	33472.00
587.06	33572.64
587.22	33483.70
587.38	33380.72
587.54	33514.13
587.70	33249.65
587.86	33556.26
588.02	33446.26
588.18	33872.23
588.34	33504.77
588.49	33387.74
588.65	33418.17
588.81	33474.34
588.97	33270.72
589.13	33596.05
589.29	33149.01
589.45	33944.79
589.61	33493.07
589.77	33682.65
589.93	33624.14
590.08	33787.97
590.24	33902.66
590.40	33769.25
590.56	33383.06
590.72	33226.24
590.88	33495.41
591.04	33792.65
591.20	33713.08
591.35	33914.36
591.51	34265.44
591.67	33890.96
591.83	34057.14
