SpectraSuite Data File
++++++++++++++++++++++++++++++++++++
Date: Fri Oct 04 11:39:12 GMT-05:00 2013
User: price-jones
Dark Spectrum Present: No
Reference Spectrum Present: No
Number of Sampled Component Spectra: 1
Spectrometers: USB2+H05261
Integration Time (usec): 100000 (USB2+H05261)
Spectra Averaged: 1 (USB2+H05261)
Boxcar Smoothing: 0 (USB2+H05261)
Correct for Electrical Dark: No (USB2+H05261)
Strobe/Lamp Enabled: No (USB2+H05261)
Correct for Detector Non-linearity: No (USB2+H05261)
Correct for Stray Light: No (USB2+H05261)
Number of Pixels in Processed Spectrum: 2048
>>>>>Begin Processed Spectral Data<<<<<
365.73	65.54
365.92	65.54
366.12	65.54
366.32	0.00
366.52	0.00
366.72	0.00
366.91	0.00
367.11	0.00
367.31	0.00
367.51	0.00
367.70	0.00
367.90	0.00
368.10	0.00
368.30	0.00
368.49	0.00
368.69	0.00
368.89	0.00
369.09	0.00
369.28	0.00
369.48	0.00
369.68	0.00
369.87	51.49
370.07	16.38
370.27	124.05
370.47	98.30
370.66	81.92
370.86	154.48
371.06	161.50
371.25	229.37
371.45	173.20
371.65	138.09
371.84	212.99
372.04	208.31
372.24	149.79
372.44	124.05
372.63	203.63
372.83	220.01
373.03	222.35
373.22	259.80
373.42	170.86
373.62	276.18
373.81	205.97
374.01	203.63
374.21	259.80
374.40	182.56
374.60	266.82
374.79	252.78
374.99	187.24
375.19	236.39
375.38	266.82
375.58	269.16
375.78	266.82
375.97	259.80
376.17	252.78
376.37	257.46
376.56	217.67
376.76	236.39
376.95	203.63
377.15	269.16
377.35	227.03
377.54	278.52
377.74	266.82
377.93	255.12
378.13	259.80
378.33	285.55
378.52	222.35
378.72	322.99
378.91	334.70
379.11	238.73
379.31	341.72
379.50	234.05
379.70	290.23
379.89	273.84
380.09	252.78
380.28	273.84
380.48	308.95
380.68	266.82
380.87	252.78
381.07	191.92
381.26	252.78
381.46	311.29
381.65	278.52
381.85	259.80
382.04	287.89
382.24	369.80
382.43	278.52
382.63	259.80
382.83	227.03
383.02	262.14
383.22	238.73
383.41	229.37
383.61	276.18
383.80	259.80
384.00	313.63
384.19	248.10
384.39	227.03
384.58	280.86
384.78	285.55
384.97	299.59
385.17	306.61
385.36	299.59
385.56	353.42
385.75	297.25
385.95	238.73
386.14	210.65
386.34	252.78
386.53	325.33
386.72	301.93
386.92	315.97
387.11	339.38
387.31	308.95
387.50	308.95
387.70	339.38
387.89	325.33
388.09	374.49
388.28	259.80
388.48	322.99
388.67	285.55
388.86	360.44
389.06	292.57
389.25	334.70
389.45	386.19
389.64	264.48
389.84	409.59
390.03	299.59
390.22	376.83
390.42	402.57
390.61	383.85
390.81	271.50
391.00	327.68
391.19	360.44
391.39	393.21
391.58	395.55
391.78	374.49
391.97	379.17
392.16	238.73
392.36	276.18
392.55	428.32
392.75	416.62
392.94	362.78
393.13	376.83
393.33	397.89
393.52	414.27
393.71	489.17
393.91	393.21
394.10	437.68
394.29	337.04
394.49	409.59
394.68	395.55
394.88	395.55
395.07	458.74
395.26	381.51
395.46	374.49
395.65	444.70
395.84	470.45
396.04	507.90
396.23	440.02
396.42	383.85
396.62	510.24
396.81	407.25
397.00	465.77
397.19	437.68
397.39	489.17
397.58	496.19
397.77	444.70
397.97	503.22
398.16	421.30
398.35	482.15
398.55	437.68
398.74	468.11
398.93	505.56
399.12	484.49
399.32	484.49
399.51	521.94
399.70	535.98
399.90	444.70
400.09	526.62
400.28	594.50
400.47	461.09
400.67	557.05
400.86	496.19
401.05	489.17
401.24	514.92
401.44	564.07
401.63	543.00
401.82	540.66
402.01	493.85
402.21	521.94
402.40	461.09
402.59	578.11
402.78	543.00
402.97	521.94
403.17	566.41
403.36	575.77
403.55	599.18
403.74	587.47
403.93	629.60
404.13	664.71
404.32	734.93
404.51	662.37
404.70	744.29
404.89	578.11
405.09	559.39
405.28	636.63
405.47	578.11
405.66	620.24
405.85	690.46
406.05	634.29
406.24	641.31
406.43	615.56
406.62	671.73
406.81	718.54
407.00	697.48
407.20	662.37
407.39	617.90
407.58	655.35
407.77	716.20
407.96	716.20
408.15	706.84
408.34	755.99
408.54	781.74
408.73	795.78
408.92	758.33
409.11	821.53
409.30	751.31
409.49	695.14
409.68	744.29
409.87	770.04
410.07	763.01
410.26	849.61
410.45	833.23
410.64	779.40
410.83	809.83
411.02	772.38
411.21	830.89
411.40	901.11
411.59	915.15
411.78	798.12
411.98	866.00
412.17	772.38
412.36	868.34
412.55	861.32
412.74	837.91
412.93	952.60
413.12	931.53
413.31	947.92
413.50	931.53
413.69	912.81
413.88	945.58
414.07	912.81
414.26	924.51
414.45	1015.79
414.64	1015.79
414.83	1039.20
415.02	1001.75
415.22	1015.79
415.41	1057.92
415.60	1064.94
415.79	1057.92
415.98	1053.24
416.17	1090.69
416.36	1001.75
416.55	1039.20
416.74	1036.86
416.93	1053.24
417.12	1036.86
417.31	1228.78
417.50	1060.26
417.69	1193.67
417.88	1210.06
418.07	1196.01
418.26	1233.46
418.45	1191.33
418.64	1254.53
418.83	1217.08
419.02	1310.70
419.21	1179.63
419.39	1212.40
419.58	1193.67
419.77	1188.99
419.96	1277.93
420.15	1327.08
420.34	1249.85
420.53	1196.01
420.72	1315.38
420.91	1226.44
421.10	1259.21
421.29	1310.70
421.48	1242.82
421.67	1247.51
421.86	1322.40
422.05	1252.19
422.24	1275.59
422.43	1287.29
422.61	1200.69
422.80	1392.62
422.99	1322.40
423.18	1378.58
423.37	1352.83
423.56	1284.95
423.75	1338.79
423.94	1310.70
424.13	1191.33
424.32	1301.34
424.50	1371.55
424.69	1366.87
424.88	1446.45
425.07	1289.64
425.26	1289.64
425.45	1315.38
425.64	1418.36
425.83	1401.98
426.01	1390.28
426.20	1336.45
426.39	1392.62
426.58	1343.47
426.77	1373.89
426.96	1373.89
427.15	1465.18
427.33	1437.09
427.52	1411.34
427.71	1430.07
427.90	1371.55
428.09	1446.45
428.28	1458.15
428.46	1385.60
428.65	1427.73
428.84	1387.94
429.03	1481.56
429.22	1476.88
429.40	1420.71
429.59	1418.36
429.78	1446.45
429.97	1390.28
430.16	1444.11
430.34	1458.15
430.53	1549.43
430.72	1502.62
430.91	1533.05
431.10	1488.58
431.28	1563.48
431.47	1614.97
431.66	1591.56
431.85	1530.71
432.03	1689.87
432.22	1715.61
432.41	1589.22
432.60	1640.72
432.79	1617.31
432.97	1563.48
433.16	1565.82
433.35	1565.82
433.54	1593.90
433.72	1636.03
433.91	1652.42
434.10	1694.55
434.28	1657.10
434.47	1739.02
434.66	1729.66
434.85	1701.57
435.03	1673.48
435.22	1839.66
435.41	1991.80
435.59	2078.40
435.78	1879.45
435.97	1764.76
436.16	1774.13
436.34	1732.00
436.53	1806.89
436.72	1755.40
436.90	1748.38
437.09	1706.25
437.28	1724.97
437.46	1811.57
437.65	1739.02
437.84	1858.39
438.02	1856.04
438.21	1736.68
438.40	1736.68
438.58	1867.75
438.77	1952.01
438.96	1799.87
439.14	1844.34
439.33	1881.79
439.52	1914.56
439.70	1900.52
439.89	1834.98
440.08	1984.77
440.26	1881.79
440.45	1919.24
440.63	2106.48
440.82	2071.37
441.01	1970.73
441.19	2024.56
441.38	2003.50
441.57	2073.71
441.75	2101.80
441.94	2132.23
442.12	2062.01
442.31	2160.31
442.50	2078.40
442.68	2216.49
442.87	2125.21
443.05	2169.68
443.24	2246.91
443.43	2246.91
443.61	2165.00
443.80	2146.27
443.98	2064.35
444.17	2108.82
444.35	2141.59
444.54	2216.49
444.73	2197.76
444.91	2298.41
445.10	2136.91
445.28	2127.55
445.47	2080.74
445.65	2113.50
445.84	2223.51
446.02	2216.49
446.21	2303.09
446.39	2076.06
446.58	2167.34
446.77	2225.85
446.95	2296.07
447.14	2216.49
447.32	2303.09
447.51	2167.34
447.69	2232.87
447.88	2195.42
448.06	2361.60
448.25	2303.09
448.43	2319.47
448.62	2125.21
448.80	2193.08
448.99	2307.77
449.17	2218.83
449.36	2328.83
449.54	2377.98
449.73	2415.43
449.91	2338.20
450.10	2352.24
450.28	2443.52
450.46	2361.60
450.65	2272.66
450.83	2328.83
451.02	2305.43
451.20	2307.77
451.39	2354.58
451.57	2335.85
451.76	2396.71
451.94	2401.39
452.13	2480.97
452.31	2296.07
452.49	2342.88
452.68	2385.01
452.86	2523.10
453.05	2600.34
453.23	2525.44
453.42	2389.69
453.60	2462.24
453.78	2609.70
453.97	2455.22
454.15	2464.58
454.34	2565.23
454.52	2485.65
454.70	2471.61
454.89	2567.57
455.07	2429.48
455.26	2429.48
455.44	2518.42
455.62	2551.18
455.81	2654.17
455.99	2567.57
456.17	2623.74
456.36	2583.95
456.54	2525.44
456.73	2525.44
456.91	2738.43
457.09	2778.22
457.28	2656.51
457.46	2675.23
457.64	2562.89
457.83	2731.41
458.01	2597.99
458.19	2689.28
458.38	2703.32
458.56	2729.06
458.74	2775.88
458.93	2722.04
459.11	2686.94
459.29	2715.02
459.48	2813.32
459.66	2663.53
459.84	2930.35
460.03	2909.29
460.21	2813.32
460.39	2904.60
460.57	2932.69
460.76	2857.79
460.94	2935.03
461.12	2970.14
461.31	2977.16
461.49	2796.94
461.67	2890.56
461.85	2813.32
462.04	2801.62
462.22	3063.76
462.40	2970.14
462.59	2998.23
462.77	2930.35
462.95	2965.46
463.13	3028.65
463.32	2984.18
463.50	2986.52
463.68	3038.02
463.86	3054.40
464.05	2956.10
464.23	2932.69
464.41	3005.25
464.59	3035.67
464.78	3019.29
464.96	3054.40
465.14	3098.87
465.32	3087.17
465.50	3075.46
465.69	3038.02
465.87	3033.33
466.05	2991.20
466.23	3077.80
466.41	3145.68
466.60	3138.66
466.78	3162.06
466.96	3129.30
467.14	3239.30
467.32	3133.98
467.51	3124.62
467.69	3033.33
467.87	3204.19
468.05	3222.92
468.23	3288.45
468.41	3141.00
468.60	3241.64
468.78	3302.50
468.96	3225.26
469.14	3314.20
469.32	3255.69
469.50	3246.32
469.69	3260.37
469.87	3412.50
470.05	3384.41
470.23	3234.62
470.41	3283.77
470.59	3328.24
470.77	3262.71
470.95	3433.57
471.14	3590.38
471.32	3389.10
471.50	3363.35
471.68	3555.27
471.86	3604.42
472.04	3417.18
472.22	3574.00
472.40	3351.65
472.58	3634.85
472.77	3515.48
472.95	3599.74
473.13	3716.77
473.31	3480.38
473.49	3625.49
473.67	3545.91
473.85	3676.98
474.03	3641.87
474.21	3660.60
474.39	3709.75
474.57	3889.97
474.75	3709.75
474.93	3763.58
475.12	3840.82
475.30	3749.54
475.48	3630.17
475.66	3770.60
475.84	3854.86
476.02	3845.50
476.20	3974.23
476.38	3962.53
476.56	4088.92
476.74	3985.93
476.92	3899.33
477.10	3953.16
477.28	3971.89
477.46	4016.36
477.64	4084.23
477.82	4072.53
478.00	4131.05
478.18	4173.18
478.36	4280.84
478.54	4334.67
478.72	4241.05
478.90	4358.08
479.08	4332.33
479.26	4432.97
479.44	4500.85
479.62	4447.02
479.80	4613.20
479.98	4552.34
480.16	4507.87
480.34	4578.09
480.52	4589.79
480.70	4812.14
480.88	4739.58
481.06	4669.37
481.24	4643.62
481.41	4692.77
481.59	4868.31
481.77	4915.12
481.95	4915.12
482.13	5062.58
482.31	5025.13
482.49	5004.07
482.67	5123.43
482.85	5076.62
483.03	5050.88
483.21	5193.65
483.39	5088.32
483.57	5252.16
483.74	5179.61
483.92	5380.89
484.10	5331.74
484.28	5430.04
484.46	5441.75
484.64	5430.04
484.82	5406.64
485.00	5593.88
485.18	5561.11
485.35	5731.97
485.53	5481.53
485.71	5671.12
485.89	5804.53
486.07	5720.27
486.25	5916.87
486.43	5708.57
486.61	5877.09
486.78	5860.70
486.96	5863.04
487.14	6167.31
487.32	6064.33
487.50	6036.24
487.68	6274.98
487.85	6312.42
488.03	6242.21
488.21	6153.27
488.39	6265.61
488.57	6179.01
488.75	6457.54
488.92	6642.44
489.10	6485.62
489.28	6541.80
489.46	6553.50
489.64	6768.83
489.81	6848.41
489.99	6602.65
490.17	6743.08
490.35	6918.62
490.53	6920.96
490.70	6920.96
490.88	6892.88
491.06	6995.86
491.24	7155.02
491.41	7162.04
491.59	6909.26
491.77	7211.19
491.95	7133.95
492.13	7199.49
492.30	7368.01
492.48	7133.95
492.66	7328.22
492.84	7220.55
493.01	7391.41
493.19	7440.56
493.37	7452.27
493.54	7798.66
493.72	7651.21
493.90	7676.96
494.08	7712.07
494.25	7822.07
494.43	7784.62
494.61	7976.55
494.79	7786.96
494.96	7864.20
495.14	7941.44
495.32	7922.71
495.49	8006.97
495.67	8166.13
495.85	8018.68
496.02	8198.90
496.20	8245.71
496.38	8121.66
496.55	8077.19
496.73	8442.31
496.91	8334.65
497.09	8250.39
497.26	8528.91
497.44	8505.51
497.62	8540.61
497.79	8737.22
497.97	8674.03
498.14	8800.41
498.32	8739.56
498.50	8650.62
498.67	8912.76
498.85	8561.68
499.03	8788.71
499.20	8896.38
499.38	8933.82
499.56	8779.35
499.73	9114.05
499.91	9078.94
500.08	9067.24
500.26	9029.79
500.44	8821.48
500.61	9039.15
500.79	9130.43
500.97	9345.76
501.14	9418.32
501.32	9193.62
501.49	9198.31
501.67	9275.54
501.84	9221.71
502.02	9355.12
502.20	9467.47
502.37	9275.54
502.55	9537.68
502.72	9371.50
502.90	9439.38
503.07	9619.60
503.25	9568.11
503.43	9551.73
503.60	9521.30
503.78	9753.01
503.95	9497.89
504.13	9537.68
504.30	9785.78
504.48	9617.26
504.65	9640.67
504.83	10106.43
505.01	9818.55
505.18	9944.94
505.36	9966.00
505.53	10132.18
505.71	9858.34
505.88	10139.20
506.06	10059.62
506.23	10225.80
506.41	10064.30
506.58	10071.33
506.76	10057.28
506.93	10092.39
507.11	10178.99
507.28	10068.98
507.46	10286.65
507.63	10307.72
507.81	10469.22
507.98	10403.68
508.16	10448.15
508.33	10352.19
508.50	10527.73
508.68	10443.47
508.85	10675.18
509.03	10576.88
509.20	10623.69
509.38	10670.50
509.55	10642.42
509.73	10895.19
509.90	10738.38
510.08	10511.35
510.25	10808.59
510.42	10593.26
510.60	10815.62
510.77	10857.75
510.95	11044.99
511.12	11126.91
511.30	11204.14
511.47	11091.80
511.64	11194.78
511.82	11066.05
511.99	11059.03
512.17	11124.57
512.34	11037.97
512.51	11286.06
512.69	11353.94
512.86	11133.93
513.04	11405.43
513.21	11382.03
513.38	11482.67
513.56	11349.26
513.73	11564.59
513.90	11286.06
514.08	11213.51
514.25	11487.35
514.43	11452.24
514.60	11644.17
514.77	11524.80
514.95	11475.65
515.12	11620.76
515.29	11396.07
515.47	11730.76
515.64	11843.11
515.81	11967.16
515.99	11592.67
516.16	11960.14
516.33	11899.28
516.51	11611.40
516.68	11840.77
516.85	11702.68
517.03	12009.29
517.20	11896.94
517.37	11906.31
517.54	11995.25
517.72	12217.60
517.89	11866.52
518.06	12011.63
518.24	12018.65
518.41	12058.44
518.58	12046.74
518.75	11967.16
518.93	12257.39
519.10	12028.01
519.27	12133.34
519.45	12444.63
519.62	12243.34
519.79	12395.48
519.96	12411.86
520.14	12379.09
520.31	12238.66
520.48	12549.95
520.65	12404.84
520.83	12336.96
521.00	12482.08
521.17	12376.75
521.34	12561.66
521.52	12683.36
521.69	12718.47
521.86	12713.79
522.03	12772.30
522.20	12760.60
522.38	12631.87
522.55	12835.50
522.72	12629.53
522.89	12734.85
523.07	12954.87
523.24	12905.71
523.41	12844.86
523.58	12879.97
523.75	12723.15
523.92	12865.92
524.10	13289.56
524.27	12980.61
524.44	13081.25
524.61	13085.94
524.78	13219.35
524.96	13207.64
525.13	12980.61
525.30	13081.25
525.47	13338.71
525.64	13142.11
525.81	13275.52
525.98	13446.38
526.16	13184.24
526.33	13303.60
526.50	13521.27
526.67	13411.27
526.84	13465.10
527.01	13429.99
527.18	13600.85
527.36	13334.03
527.53	13334.03
527.70	13640.64
527.87	13612.56
528.04	13429.99
528.21	13390.20
528.38	13137.43
528.55	13673.41
528.72	13540.00
528.89	13689.79
529.07	13626.60
529.24	13444.04
529.41	13598.51
529.58	13408.93
529.75	13554.04
529.92	13687.45
530.09	13701.50
530.26	13888.74
530.43	13895.76
530.60	14033.85
530.77	13909.80
530.94	13799.80
531.11	13862.99
531.28	13752.99
531.46	13914.48
531.63	13790.44
531.80	14017.47
531.97	14204.71
532.14	14061.94
532.31	13799.80
532.48	14141.52
532.65	13774.05
532.82	13963.64
532.99	14090.02
533.16	14057.26
533.33	14410.68
533.50	14347.48
533.67	14272.59
533.84	14150.88
534.01	14113.43
534.18	14284.29
534.35	14174.28
534.52	14239.82
534.69	14338.12
534.86	14331.10
535.03	14324.08
535.20	14211.73
535.37	14328.76
535.54	14391.95
535.71	14429.40
535.88	14614.30
536.05	14417.70
536.22	14700.90
536.38	14677.50
536.55	14796.87
536.72	14525.36
536.89	14754.74
537.06	14623.67
537.23	14593.24
537.40	14647.07
537.57	14696.22
537.74	14635.37
537.91	14656.43
538.08	14712.61
538.25	14396.64
538.42	14778.14
538.59	14775.80
538.75	14546.43
538.92	14658.78
539.09	14740.69
539.26	14733.67
539.43	14876.44
539.60	14801.55
539.77	15026.24
539.94	15194.76
540.11	15110.50
540.28	14801.55
540.44	14775.80
540.61	15103.48
540.78	15042.62
540.95	15164.33
541.12	15185.40
541.29	15213.48
541.46	15272.00
541.62	15442.85
541.79	15494.35
541.96	15115.18
542.13	15412.43
542.30	15382.00
542.47	15459.24
542.63	15637.12
542.80	15550.52
542.97	15550.52
543.14	15660.52
543.31	15651.16
543.48	15405.41
543.64	15812.66
543.81	15793.94
543.98	15681.59
544.15	15569.24
544.32	15889.90
544.48	15557.54
544.65	15609.03
544.82	15662.86
544.99	15850.11
545.16	15826.70
545.32	15637.12
545.49	16182.46
545.66	16379.07
545.83	16381.41
546.00	16713.77
546.16	16152.04
546.33	15817.34
546.50	15625.42
546.67	15695.63
546.83	15477.96
547.00	15749.46
547.17	15634.78
547.34	15875.85
547.50	15714.36
547.67	15803.30
547.84	15761.17
548.00	15761.17
548.17	16009.26
548.34	15854.79
548.51	15800.96
548.67	16140.33
548.84	15913.30
549.01	15999.90
549.18	16086.50
549.34	15751.81
549.51	15885.22
549.68	15997.56
549.84	15882.88
550.01	16147.36
550.18	16100.55
550.34	16341.62
550.51	16163.74
550.68	15983.52
550.84	15967.13
551.01	16011.60
551.18	15817.34
551.34	15819.68
551.51	16114.59
551.68	16250.34
551.84	16285.45
552.01	16184.80
552.18	15913.30
552.34	15964.79
552.51	16173.10
552.68	15960.11
552.84	16025.65
553.01	16350.98
553.18	16283.11
553.34	16395.45
553.51	16196.51
553.67	16297.15
553.84	16098.20
554.01	16446.94
554.17	16383.75
554.34	16236.30
554.51	16355.66
554.67	16592.06
554.84	16142.67
555.00	16414.18
555.17	16343.96
555.33	16154.38
555.50	16203.53
555.67	16046.71
555.83	16292.47
556.00	16201.19
556.16	16512.48
556.33	16243.32
556.50	16343.96
556.66	16336.94
556.83	16217.57
556.99	16470.35
557.16	16460.99
557.32	16313.53
557.49	16210.55
557.65	16372.05
557.82	16226.93
557.98	16320.56
558.15	16554.61
558.32	16547.59
558.48	16369.71
558.65	16348.64
558.81	16381.41
558.98	16390.77
559.14	16514.82
559.31	16554.61
559.47	16432.90
559.64	16390.77
559.80	16107.57
559.97	16720.79
560.13	16479.71
560.30	16507.80
560.46	16498.44
560.63	16463.33
560.79	16854.20
560.96	16503.12
561.12	16535.88
561.29	16783.98
561.45	16395.45
561.61	16886.97
561.78	16978.25
561.94	16758.24
562.11	16851.86
562.27	16456.31
562.44	16589.72
562.60	16383.75
562.77	16486.73
562.93	16563.97
563.10	16519.50
563.26	16950.16
563.42	16769.94
563.59	16861.22
563.75	16484.39
563.92	16783.98
564.08	16498.44
564.24	16893.99
564.41	16592.06
564.57	16479.71
564.74	16683.34
564.90	16889.31
565.07	16950.16
565.23	16542.91
565.39	16624.83
565.56	16912.71
565.72	16695.04
565.88	16856.54
566.05	16767.60
566.21	16554.61
566.38	16760.58
566.54	16744.19
566.70	16828.45
566.87	16730.15
567.03	16830.79
567.19	17081.23
567.36	16659.93
567.52	16854.20
567.68	16718.45
567.85	16601.42
568.01	16947.82
568.17	16943.14
568.34	16987.61
568.50	16844.84
568.66	16938.46
568.83	17003.99
568.99	16737.17
569.15	17137.40
569.32	16769.94
569.48	16833.13
569.64	16964.20
569.81	16854.20
569.97	16879.94
570.13	16828.45
570.30	16947.82
570.46	16896.33
570.62	16875.26
570.78	16791.00
570.95	16837.81
571.11	16950.16
571.27	16786.32
571.43	16683.34
571.60	16851.86
571.76	16748.87
571.92	16774.62
572.09	17216.98
572.25	17114.00
572.41	16966.54
572.57	17214.64
572.74	17268.47
572.90	16823.77
573.06	16879.94
573.22	17163.15
573.38	16879.94
573.55	16837.81
573.71	17336.35
573.87	17015.69
574.03	17006.33
574.20	17151.45
574.36	16989.95
574.52	17156.13
574.68	16929.09
574.84	16929.09
575.01	17121.02
575.17	17032.08
575.33	17083.57
575.49	16711.42
575.65	17109.32
575.82	16683.34
575.98	16886.97
576.14	17099.95
576.30	16964.20
576.46	17039.10
576.62	17186.55
576.79	17151.45
576.95	17104.64
577.11	16788.66
577.27	16966.54
577.43	17076.55
577.59	17238.05
577.75	16903.35
577.92	16875.26
578.08	17139.74
578.24	17123.36
578.40	16919.73
578.56	17139.74
578.72	17039.10
578.88	17245.07
579.04	17296.56
579.21	17050.80
579.37	17050.80
579.53	17200.60
579.69	16903.35
579.85	17022.72
580.01	17057.82
580.17	16999.31
580.33	16823.77
580.49	17114.00
580.65	17266.13
580.82	17465.08
580.98	17242.73
581.14	17216.98
581.30	17390.18
581.46	17205.28
581.62	17324.65
581.78	17366.78
581.94	17200.60
582.10	16889.31
582.26	17305.92
582.42	17144.42
582.58	17500.19
582.74	17231.02
582.90	17207.62
583.06	17111.66
583.22	16858.88
583.38	17179.53
583.54	17469.76
583.70	17109.32
583.86	17235.70
584.02	17195.92
584.18	16964.20
584.34	17415.93
584.50	17228.68
584.66	17137.40
584.82	17287.20
584.98	17200.60
585.14	17146.76
585.30	17209.96
585.46	17163.15
585.62	17022.72
585.78	17233.36
585.94	17048.46
586.10	17345.71
586.26	17193.58
586.42	17114.00
586.58	17486.14
586.74	17551.68
586.90	17029.74
587.06	17296.56
587.22	17373.80
587.38	17048.46
587.54	17362.09
587.70	17472.10
587.86	17476.78
588.02	17446.35
588.18	17212.30
588.34	17425.29
588.49	17242.73
588.65	17006.33
588.81	17259.11
588.97	17116.34
589.13	17397.20
589.29	17301.24
589.45	17137.40
589.61	17125.70
589.77	17231.02
589.93	17270.81
590.08	17481.46
590.24	17291.88
590.40	17406.56
590.56	17348.05
590.72	17064.85
590.88	17224.00
591.04	17123.36
591.20	17315.28
591.35	17425.29
591.51	17612.53
591.67	17628.92
591.83	17490.82
591.99	17654.66
592.15	17752.96
592.31	17444.01
592.46	17467.42
592.62	17472.10
592.78	17036.76
592.94	17331.67
593.10	17516.57
593.26	17425.29
