SpectraSuite Data File
++++++++++++++++++++++++++++++++++++
Date: Fri Oct 04 11:39:27 GMT-05:00 2013
User: price-jones
Dark Spectrum Present: No
Reference Spectrum Present: No
Number of Sampled Component Spectra: 1
Spectrometers: USB2+H05261
Integration Time (usec): 100000 (USB2+H05261)
Spectra Averaged: 1 (USB2+H05261)
Boxcar Smoothing: 0 (USB2+H05261)
Correct for Electrical Dark: No (USB2+H05261)
Strobe/Lamp Enabled: No (USB2+H05261)
Correct for Detector Non-linearity: No (USB2+H05261)
Correct for Stray Light: No (USB2+H05261)
Number of Pixels in Processed Spectrum: 2048
>>>>>Begin Processed Spectral Data<<<<<
365.73	32.77
365.92	32.77
366.12	32.77
366.32	0.00
366.52	0.00
366.72	0.00
366.91	0.00
367.11	0.00
367.31	0.00
367.51	0.00
367.70	0.00
367.90	0.00
368.10	0.00
368.30	32.77
368.49	0.00
368.69	0.00
368.89	0.00
369.09	0.00
369.28	0.00
369.48	0.00
369.68	0.00
369.87	0.00
370.07	23.41
370.27	9.36
370.47	28.09
370.66	84.26
370.86	79.58
371.06	135.75
371.25	201.29
371.45	81.92
371.65	81.92
371.84	187.24
372.04	191.92
372.24	149.79
372.44	194.26
372.63	250.44
372.83	208.31
373.03	191.92
373.22	236.39
373.42	205.97
373.62	220.01
373.81	187.24
374.01	278.52
374.21	262.14
374.40	255.12
374.60	194.26
374.79	147.45
374.99	175.54
375.19	250.44
375.38	205.97
375.58	215.33
375.78	220.01
375.97	257.46
376.17	337.04
376.37	196.60
376.56	259.80
376.76	252.78
376.95	215.33
377.15	189.58
377.35	280.86
377.54	210.65
377.74	229.37
377.93	241.08
378.13	283.20
378.33	203.63
378.52	212.99
378.72	229.37
378.91	257.46
379.11	292.57
379.31	175.54
379.50	149.79
379.70	271.50
379.89	248.10
380.09	234.05
380.28	208.31
380.48	205.97
380.68	227.03
380.87	205.97
381.07	205.97
381.26	238.73
381.46	271.50
381.65	327.68
381.85	191.92
382.04	208.31
382.24	236.39
382.43	243.42
382.63	220.01
382.83	262.14
383.02	339.38
383.22	252.78
383.41	224.69
383.61	250.44
383.80	280.86
384.00	250.44
384.19	299.59
384.39	315.97
384.58	248.10
384.78	362.78
384.97	264.48
385.17	308.95
385.36	231.71
385.56	234.05
385.75	325.33
385.95	271.50
386.14	362.78
386.34	313.63
386.53	292.57
386.72	292.57
386.92	334.70
387.11	236.39
387.31	320.65
387.50	325.33
387.70	271.50
387.89	337.04
388.09	322.99
388.28	269.16
388.48	269.16
388.67	339.38
388.86	276.18
389.06	311.29
389.25	325.33
389.45	304.27
389.64	280.86
389.84	355.76
390.03	325.33
390.22	388.53
390.42	367.46
390.61	367.46
390.81	297.25
391.00	334.70
391.19	325.33
391.39	334.70
391.58	372.15
391.78	353.42
391.97	407.25
392.16	334.70
392.36	411.93
392.55	505.56
392.75	341.72
392.94	369.80
393.13	411.93
393.33	339.38
393.52	425.98
393.71	472.79
393.91	372.15
394.10	418.96
394.29	376.83
394.49	407.25
394.68	407.25
394.88	402.57
395.07	456.40
395.26	447.04
395.46	493.85
395.65	447.04
395.84	451.72
396.04	533.64
396.23	404.91
396.42	407.25
396.62	458.74
396.81	484.49
397.00	472.79
397.19	486.83
397.39	540.66
397.58	524.28
397.77	484.49
397.97	550.03
398.16	498.53
398.35	571.09
398.55	557.05
398.74	484.49
398.93	575.77
399.12	564.07
399.32	512.58
399.51	484.49
399.70	587.47
399.90	500.87
400.09	540.66
400.28	685.78
400.47	613.22
400.67	540.66
400.86	540.66
401.05	671.73
401.24	746.63
401.44	601.52
401.63	664.71
401.82	638.97
402.01	582.79
402.21	664.71
402.40	603.86
402.59	657.69
402.78	664.71
402.97	653.01
403.17	711.52
403.36	685.78
403.55	634.29
403.74	744.29
403.93	734.93
404.13	823.87
404.32	744.29
404.51	868.34
404.70	877.70
404.89	669.39
405.09	772.38
405.28	770.04
405.47	821.53
405.66	866.00
405.85	863.66
406.05	866.00
406.24	819.19
406.43	905.79
406.62	924.51
406.81	943.24
407.00	922.17
407.20	950.26
407.39	964.30
407.58	959.62
407.77	1025.15
407.96	978.34
408.15	1008.77
408.34	1015.79
408.54	1041.54
408.73	1046.22
408.92	1069.62
409.11	1053.24
409.30	1013.45
409.49	1064.94
409.68	1107.07
409.87	1055.58
410.07	1128.14
410.26	1196.01
410.45	1231.12
410.64	1165.59
410.83	1139.84
411.02	1184.31
411.21	1174.95
411.40	1205.38
411.59	1273.25
411.78	1240.48
411.98	1343.47
412.17	1266.23
412.36	1387.94
412.55	1240.48
412.74	1289.64
412.93	1270.91
413.12	1378.58
413.31	1530.71
413.50	1397.30
413.69	1462.83
413.88	1467.52
414.07	1558.80
414.26	1509.65
414.45	1533.05
414.64	1488.58
414.83	1551.78
415.02	1537.73
415.22	1612.63
415.41	1621.99
415.60	1666.46
415.79	1645.40
415.98	1736.68
416.17	1753.06
416.36	1586.88
416.55	1764.76
416.74	1778.81
416.93	1837.32
417.12	1717.95
417.31	1774.13
417.50	1757.74
417.69	1893.49
417.88	1771.79
418.07	1879.45
418.26	1923.92
418.45	1905.20
418.64	2022.22
418.83	1937.96
419.02	1820.94
419.21	1961.37
419.39	1963.71
419.58	1912.22
419.77	1928.60
419.96	1930.94
420.15	2012.86
420.34	2010.52
420.53	2099.46
420.72	2195.42
420.91	2174.36
421.10	2193.08
421.29	2197.76
421.48	2118.18
421.67	2317.13
421.86	2193.08
422.05	2153.29
422.24	2172.02
422.43	2190.74
422.61	2251.60
422.80	2228.19
422.99	2305.43
423.18	2291.38
423.37	2342.88
423.56	2204.78
423.75	2127.55
423.94	2207.13
424.13	2214.15
424.32	2207.13
424.50	2237.55
424.69	2209.47
424.88	2317.13
425.07	2284.36
425.26	2298.41
425.45	2239.89
425.64	2385.01
425.83	2258.62
426.01	2373.30
426.20	2312.45
426.39	2303.09
426.58	2256.28
426.77	2321.81
426.96	2305.43
427.15	2401.39
427.33	2221.17
427.52	2410.75
427.71	2305.43
427.90	2471.61
428.09	2387.35
428.28	2392.03
428.46	2509.05
428.65	2429.48
428.84	2558.21
429.03	2443.52
429.22	2462.24
429.40	2331.17
429.59	2457.56
429.78	2422.45
429.97	2448.20
430.16	2452.88
430.34	2455.22
430.53	2644.81
430.72	2537.14
430.91	2480.97
431.10	2548.84
431.28	2626.08
431.47	2684.59
431.66	2513.74
431.85	2616.72
432.03	2691.62
432.22	2759.49
432.41	2689.28
432.60	2663.53
432.79	2722.04
432.97	2670.55
433.16	2839.07
433.35	2754.81
433.54	2733.75
433.72	2841.41
433.91	2747.79
434.10	2768.85
434.28	2818.00
434.47	2923.33
434.66	2902.26
434.85	2883.54
435.03	2937.37
435.22	3033.33
435.41	3335.26
435.59	3318.88
435.78	3185.47
435.97	3185.47
436.16	3014.61
436.34	3021.63
436.53	2878.86
436.72	3038.02
436.90	2970.14
437.09	3035.67
437.28	2892.90
437.46	2808.64
437.65	3052.06
437.84	3063.76
438.02	3052.06
438.21	3169.09
438.40	3030.99
438.58	3187.81
438.77	3307.18
438.96	3283.77
439.14	3265.05
439.33	3321.22
439.52	3351.65
439.70	3382.07
439.89	3428.88
440.08	3342.28
440.26	3389.10
440.45	3407.82
440.63	3471.01
440.82	3515.48
441.01	3459.31
441.19	3513.14
441.38	3482.72
441.57	3639.53
441.75	3648.90
441.94	3641.87
442.12	3632.51
442.31	3634.85
442.50	3714.43
442.68	3777.62
442.87	3702.73
443.05	3620.81
443.24	3817.41
443.43	3861.88
443.61	3712.09
443.80	3925.08
443.98	3679.32
444.17	3700.39
444.35	3761.24
444.54	3822.09
444.73	3740.18
444.91	3861.88
445.10	3819.75
445.28	3843.16
445.47	3857.20
445.65	3840.82
445.84	3784.65
446.02	3887.63
446.21	3754.22
446.39	3822.09
446.58	3920.40
446.77	3838.48
446.95	3831.46
447.14	3976.57
447.32	3918.06
447.51	3859.54
447.69	3850.18
447.88	3978.91
448.06	3981.25
448.25	3843.16
448.43	3913.38
448.62	3964.87
448.80	3981.25
448.99	3941.46
449.17	4072.53
449.36	4004.66
449.54	3934.44
449.73	3992.95
449.91	4184.88
450.10	4037.42
450.28	4222.33
450.46	4173.18
450.65	4227.01
450.83	4210.62
451.02	4023.38
451.20	4131.05
451.39	4133.39
451.57	4131.05
451.76	4119.34
451.94	4304.25
452.13	4222.33
452.31	4390.84
452.49	4269.14
452.68	4292.54
452.86	4255.09
453.05	4379.14
453.23	4395.53
453.42	4210.62
453.60	4273.82
453.78	4332.33
453.97	4236.37
454.15	4376.80
454.34	4470.42
454.52	4519.57
454.70	4491.49
454.89	4367.44
455.07	4491.49
455.26	4372.12
455.44	4615.54
455.62	4542.98
455.81	4468.08
455.99	4451.70
456.17	4573.41
456.36	4662.35
456.54	4564.04
456.73	4652.98
456.91	4863.63
457.09	4791.08
457.28	4725.54
457.46	4870.65
457.64	4959.60
457.83	4814.48
458.01	4732.56
458.19	4968.96
458.38	4826.18
458.56	4980.66
458.74	5036.83
458.93	4844.91
459.11	4870.65
459.29	4947.89
459.48	4975.98
459.66	4933.85
459.84	4973.64
460.03	5149.18
460.21	5050.88
460.39	4978.32
460.57	4875.34
460.76	4973.64
460.94	5097.69
461.12	5053.22
461.31	5172.58
461.49	5090.67
461.67	5118.75
461.85	5116.41
462.04	5280.25
462.22	5329.40
462.40	5135.14
462.59	5401.96
462.77	5268.55
462.95	5366.85
463.13	5282.59
463.32	5289.61
463.50	5348.12
463.68	5371.53
463.86	5481.53
464.05	5343.44
464.23	5397.28
464.41	5315.36
464.59	5177.26
464.78	5425.36
464.96	5500.26
465.14	5411.32
465.32	5514.30
465.50	5310.68
465.69	5556.43
465.87	5460.47
466.05	5380.89
466.23	5483.88
466.41	5453.45
466.60	5607.92
466.78	5547.07
466.96	5526.00
467.14	5490.90
467.32	5668.78
467.51	5621.97
467.69	5533.03
467.87	5743.67
468.05	5549.41
468.23	5542.39
468.41	5628.99
468.60	5654.73
468.78	5832.62
468.96	5584.52
469.14	5650.05
469.32	5858.36
469.50	5664.10
469.69	5891.13
469.87	5865.38
470.05	5973.05
470.23	5830.27
470.41	5956.66
470.59	6052.63
470.77	5846.66
470.95	5935.60
471.14	5982.41
471.32	5968.37
471.50	6258.59
471.68	6256.25
471.86	6125.18
472.04	6127.52
472.22	6347.53
472.40	6157.95
472.58	6106.46
472.77	6305.40
472.95	6209.44
473.13	6452.86
473.31	6424.77
473.49	6284.34
473.67	6399.02
473.85	6345.19
474.03	6511.37
474.21	6548.82
474.39	6696.27
474.57	6722.02
474.75	6729.04
474.93	6843.73
475.12	6689.25
475.30	6635.42
475.48	6754.79
475.66	6890.54
475.84	6834.36
476.02	7059.06
476.20	6895.22
476.38	7063.74
476.56	7213.53
476.74	7199.49
476.92	6930.33
477.10	7155.02
477.28	7178.42
477.46	7211.19
477.64	7199.49
477.82	7463.97
478.00	7550.57
478.18	7452.27
478.36	7681.64
478.54	7709.72
478.72	7691.00
478.90	7599.72
479.08	7674.62
479.26	7866.54
479.44	7999.95
479.62	8009.31
479.80	8088.89
479.98	8138.04
480.16	8311.24
480.34	8128.68
480.52	8285.50
480.70	8390.82
480.88	8236.35
481.06	8299.54
481.24	8105.28
481.41	8393.16
481.59	8671.68
481.77	8482.10
481.95	8547.64
482.13	8748.92
482.31	8872.97
482.49	9130.43
482.67	8950.21
482.85	9151.49
483.03	9219.37
483.21	9242.78
483.39	9212.35
483.57	9287.25
483.74	9476.83
483.92	9350.44
484.10	9444.06
484.28	9586.83
484.46	9823.23
484.64	9937.91
484.82	9640.67
485.00	9703.86
485.18	10047.92
485.35	10284.31
485.53	10347.51
485.71	10202.40
485.89	10380.28
486.07	10289.00
486.25	10429.43
486.43	10441.13
486.61	10593.26
486.78	10553.48
486.96	10792.21
487.14	11005.20
487.32	10934.98
487.50	10904.56
487.68	11096.48
487.85	11281.38
488.03	11473.31
488.21	11445.22
488.39	11358.62
488.57	11398.41
488.75	11480.33
488.92	11878.22
489.10	11676.93
489.28	11756.51
489.46	11967.16
489.64	11857.15
489.81	12084.19
489.99	12451.65
490.17	12123.98
490.35	12343.99
490.53	12287.81
490.70	12280.79
490.88	12702.09
491.06	13022.74
491.24	12676.34
491.41	12807.41
491.59	12957.21
491.77	13018.06
491.95	13249.77
492.13	12989.97
492.30	13214.66
492.48	13202.96
492.66	13099.98
492.84	13221.69
493.01	13366.80
493.19	13624.26
493.37	13394.89
493.54	13820.86
493.72	13668.73
493.90	13701.50
494.08	13760.01
494.25	14085.34
494.43	14015.13
494.61	14223.44
494.79	14338.12
494.96	14171.94
495.14	14303.01
495.32	14562.81
495.49	14415.36
495.67	14668.14
495.85	14602.60
496.02	14656.43
496.20	15016.88
496.38	14785.16
496.55	15016.88
496.73	15307.10
496.91	15098.80
497.09	15232.21
497.26	15372.64
497.44	15506.05
497.62	15346.89
497.79	15590.31
497.97	15538.82
498.14	15520.09
498.32	15719.04
498.50	15873.51
498.67	15967.13
498.85	15934.37
499.03	16189.49
499.20	15985.86
499.38	16044.37
499.56	16145.02
499.73	16222.25
499.91	16432.90
500.08	16599.08
500.26	16180.12
500.44	16491.41
500.61	16709.08
500.79	16208.21
500.97	16517.16
501.14	16924.41
501.32	16870.58
501.49	16854.20
501.67	16945.48
501.84	16795.68
502.02	16903.35
502.20	17125.70
502.37	17151.45
502.55	17097.61
502.72	17048.46
502.90	17055.48
503.07	17062.51
503.25	17638.28
503.43	17497.84
503.60	17628.92
503.78	17633.60
503.95	17626.57
504.13	17624.23
504.30	17657.00
504.48	17535.29
504.65	17771.69
504.83	18043.19
505.01	18082.98
505.18	18197.67
505.36	18249.16
505.53	17879.35
505.71	17987.02
505.88	17982.34
506.06	18012.76
506.23	18405.97
506.41	18185.96
506.58	18534.70
506.76	18885.78
506.93	18506.62
507.11	18480.87
507.28	18427.04
507.46	18562.79
507.63	18874.08
507.81	19131.54
507.98	18607.26
508.16	19201.76
508.33	18972.38
508.50	18948.98
508.68	18956.00
508.85	19667.52
509.03	19089.41
509.20	19468.58
509.38	19704.97
509.55	19594.96
509.73	19510.71
509.90	19473.26
510.08	19676.88
510.25	19627.73
510.42	19613.69
510.60	19948.39
510.77	19887.53
510.95	20053.71
511.12	19798.59
511.30	19983.49
511.47	20175.42
511.64	19974.13
511.82	20357.98
511.99	19985.83
512.17	20355.64
512.34	20411.81
512.51	20386.07
512.69	20510.11
512.86	20751.19
513.04	20980.56
513.21	21006.31
513.38	20800.34
513.56	20959.50
513.73	20545.22
513.90	20854.17
514.08	20882.26
514.25	21338.66
514.43	21317.60
514.60	20893.96
514.77	21441.65
514.95	21256.75
515.12	20917.37
515.29	21195.89
515.47	21078.86
515.64	21476.76
515.81	21167.80
515.99	21757.62
516.16	21523.57
516.33	21596.12
516.51	21935.50
516.68	21692.08
516.85	21589.10
517.03	21703.79
517.20	21633.57
517.37	22345.09
517.54	21664.00
517.72	22157.85
517.89	21750.60
518.06	21977.63
518.24	22146.15
518.41	21869.97
518.58	22143.81
518.75	21954.22
518.93	22169.55
519.10	22221.05
519.27	22312.33
519.45	22237.43
519.62	22513.61
519.79	22469.14
519.96	22349.78
520.14	22782.77
520.31	22691.49
520.48	22686.81
520.65	23030.87
520.83	23124.49
521.00	22890.44
521.17	22684.47
521.34	23014.49
521.52	22984.06
521.69	23035.55
521.86	23393.65
522.03	23267.27
522.20	23180.67
522.38	23557.49
522.55	23328.12
522.72	23309.40
522.89	23213.43
523.07	23571.54
523.24	23452.17
523.41	23651.11
523.58	23510.68
523.75	23454.51
523.92	23520.04
524.10	23562.17
524.27	23796.23
524.44	24086.45
524.61	23908.57
524.78	23812.61
524.96	24175.39
525.13	23887.51
525.30	24184.76
525.47	24315.83
525.64	23805.59
525.81	23974.11
525.98	24472.64
526.16	24086.45
526.33	24163.69
526.50	24589.67
526.67	24353.27
526.84	23901.55
527.01	24053.69
527.18	24678.61
527.36	24636.48
527.53	24664.57
527.70	24919.68
527.87	24870.53
528.04	24517.11
528.21	24683.29
528.38	24917.34
528.55	25046.07
528.72	24678.61
528.89	24774.57
529.07	25048.41
529.24	24889.26
529.41	24835.42
529.58	24858.83
529.75	25167.78
529.92	25003.94
530.09	25324.60
530.26	25242.68
530.43	25099.90
530.60	25074.16
530.77	24870.53
530.94	25359.70
531.11	25450.99
531.28	25465.03
531.46	25294.17
531.63	25390.13
531.80	25399.49
531.97	25474.39
532.14	25518.86
532.31	25645.25
532.48	25860.58
532.65	25420.56
532.82	25614.82
532.99	25436.94
533.16	25558.65
533.33	25956.54
533.50	26277.19
533.67	26008.03
533.84	25528.22
534.01	25640.57
534.18	25687.38
534.35	26541.68
534.52	26094.63
534.69	26103.99
534.86	26602.53
535.03	26347.41
535.20	26445.71
535.37	26923.18
535.54	26389.54
535.71	25970.58
535.88	26394.22
536.05	26288.90
536.22	26658.70
536.38	26761.69
536.55	26969.99
536.72	26675.09
536.89	26347.41
537.06	26824.88
537.23	26604.87
537.40	26382.52
537.57	26441.03
537.74	26551.04
537.91	27019.14
538.08	26696.15
538.25	26988.72
538.42	27145.53
538.59	26815.52
538.75	26513.59
538.92	26981.70
539.09	27253.20
539.26	27234.47
539.43	27082.34
539.60	27370.22
539.77	27171.28
539.94	27199.37
540.11	27288.31
540.28	27379.59
540.44	27218.09
540.61	27452.14
540.78	27716.62
540.95	27529.38
541.12	27758.75
541.29	27754.07
541.46	27431.08
541.62	27679.18
541.79	27948.34
541.96	27538.74
542.13	27754.07
542.30	27981.10
542.47	27981.10
542.63	27946.00
542.80	28367.29
542.97	28425.81
543.14	27955.36
543.31	28053.66
543.48	27845.35
543.64	28563.90
543.81	28287.71
543.98	28713.69
544.15	28233.88
544.32	28517.09
544.48	28140.26
544.65	28910.30
544.82	28507.72
544.99	28374.31
545.16	28847.10
545.32	28147.28
545.49	29111.58
545.66	29345.64
545.83	29647.57
546.00	29486.07
546.16	29172.44
546.33	28404.74
546.50	28273.67
546.67	28709.01
546.83	28510.07
547.00	28460.91
547.17	28725.39
547.34	28645.82
547.50	28814.34
547.67	28713.69
547.84	29032.00
548.00	29102.22
548.17	28994.56
548.34	28690.29
548.51	29024.98
548.67	29116.26
548.84	28811.99
549.01	29291.80
549.18	29397.13
549.34	29097.54
549.51	29123.29
549.68	28790.93
549.84	28613.05
550.01	28999.24
550.18	29029.66
550.34	28807.31
550.51	29034.35
550.68	28882.21
550.84	28687.95
551.01	29003.92
551.18	29223.93
551.34	28971.15
551.51	29134.99
551.68	28863.49
551.84	29380.74
552.01	28992.22
552.18	29347.98
552.34	28961.79
552.51	29448.62
552.68	28903.28
552.84	29191.16
553.01	29130.31
553.18	29380.74
553.34	29413.51
553.51	29324.57
553.67	29603.10
553.84	29778.64
554.01	29195.84
554.17	29865.24
554.34	29221.59
554.51	29165.42
554.67	29593.73
554.84	29490.75
555.00	29905.02
555.17	29411.17
555.33	29799.70
555.50	29879.28
555.67	29497.77
555.83	29170.10
556.00	29523.52
556.16	29731.83
556.33	29663.95
556.50	29851.19
556.66	29785.66
556.83	29677.99
556.99	29771.61
557.16	29783.32
557.32	29731.83
557.49	30134.40
557.65	29462.66
557.82	29879.28
557.98	29626.50
558.15	29675.65
558.32	29762.25
558.48	29827.79
558.65	30078.22
558.81	30321.64
558.98	29834.81
559.14	29837.15
559.31	29638.20
559.47	29919.07
559.64	29916.73
559.80	29926.09
559.97	29816.08
560.13	29715.44
560.30	30080.56
560.46	30181.21
560.63	30012.69
560.79	29930.77
560.96	30174.19
561.12	30054.82
561.29	30024.39
561.45	30312.28
561.61	30000.99
561.78	29809.06
561.94	29816.08
562.11	30253.76
562.27	30045.46
562.44	30012.69
562.60	29708.42
562.77	29823.11
562.93	29898.00
563.10	30539.31
563.26	30120.35
563.42	30403.56
563.59	30401.22
563.75	30405.90
563.92	30300.58
564.08	29661.61
564.24	30183.55
564.41	30094.61
564.57	29827.79
564.74	30270.15
564.90	30487.82
565.07	29930.77
565.23	30101.63
565.39	30328.66
565.56	30132.06
565.72	30555.69
565.88	30160.14
566.05	30305.26
566.21	30101.63
566.38	30054.82
566.54	30211.64
566.70	30155.46
566.87	30005.67
567.03	29998.65
567.19	30731.23
567.36	30103.97
567.52	30277.17
567.68	30382.49
567.85	30284.19
568.01	30316.96
568.17	30380.15
568.34	30443.35
568.50	30455.05
568.66	30668.04
568.83	30548.67
568.99	29986.94
569.15	30459.73
569.32	30195.25
569.48	30099.29
569.64	30551.01
569.81	30895.07
569.97	30504.20
570.13	30174.19
570.30	30197.59
570.46	30469.09
570.62	30146.10
570.78	30572.08
570.95	29977.58
571.11	30092.27
571.27	30426.96
571.43	29998.65
571.60	30452.71
571.76	30279.51
571.92	30445.69
572.09	30534.63
572.25	30637.61
572.41	30377.81
572.57	30295.89
572.74	30607.19
572.90	30693.79
573.06	30841.24
573.22	30153.12
573.38	30436.33
573.55	30522.93
573.71	30726.55
573.87	30717.19
574.03	30820.17
574.20	30457.39
574.36	30064.18
574.52	30424.62
574.68	30380.15
574.84	30625.91
575.01	30508.88
575.17	30618.89
575.33	30525.27
575.49	30761.66
575.65	30595.48
575.82	30607.19
575.98	30525.27
576.14	30719.53
576.30	30712.51
576.46	30895.07
576.62	30295.89
576.79	30883.37
576.95	30845.92
577.11	30747.62
577.27	30878.69
577.43	30588.46
577.59	30740.60
577.75	30639.95
577.92	30202.27
578.08	30441.01
578.24	30628.25
578.40	30558.03
578.56	30965.29
578.72	30733.57
578.88	30948.90
579.04	30726.55
579.21	30527.61
579.37	31002.74
579.53	30991.03
579.69	30635.27
579.85	30567.40
580.01	30558.03
580.17	30614.21
580.33	30242.06
580.49	30890.39
580.65	30541.65
580.82	31136.15
580.98	30604.84
581.14	30476.12
581.30	30792.09
581.46	30328.66
581.62	30529.95
581.78	30614.21
581.94	30473.78
582.10	30326.32
582.26	30361.43
582.42	30972.31
582.58	30387.18
582.74	30536.97
582.90	30457.39
583.06	30878.69
583.22	30441.01
583.38	30775.70
583.54	30410.58
583.70	31079.97
583.86	30623.57
584.02	30501.86
584.18	30684.42
584.34	30878.69
584.50	30611.87
584.66	30848.26
584.82	30565.06
584.98	30326.32
585.14	30560.37
585.30	30417.60
585.46	30778.04
585.62	30593.14
585.78	30609.53
585.94	30876.35
586.10	30857.62
586.26	30684.42
586.42	30759.32
586.58	30962.95
586.74	30754.64
586.90	30679.74
587.06	30546.33
587.22	30988.69
587.38	30675.06
587.54	30881.03
587.70	30881.03
587.86	30644.63
588.02	30857.62
588.18	30850.60
588.34	30883.37
588.49	30747.62
588.65	30941.88
588.81	30668.04
588.97	31103.38
589.13	30663.36
589.29	30761.66
589.45	30689.10
589.61	30909.11
589.77	31091.68
589.93	30668.04
590.08	30951.24
590.24	30871.67
590.40	30796.77
590.56	30815.49
590.72	30466.75
590.88	30827.20
591.04	30380.15
591.20	30979.33
591.35	30717.19
591.51	30937.20
591.67	31164.23
591.83	31075.29
