SpectraSuite Data File
++++++++++++++++++++++++++++++++++++
Date: Fri Oct 04 11:39:43 GMT-05:00 2013
User: price-jones
Dark Spectrum Present: No
Reference Spectrum Present: No
Number of Sampled Component Spectra: 1
Spectrometers: USB2+H05261
Integration Time (usec): 100000 (USB2+H05261)
Spectra Averaged: 1 (USB2+H05261)
Boxcar Smoothing: 0 (USB2+H05261)
Correct for Electrical Dark: No (USB2+H05261)
Strobe/Lamp Enabled: No (USB2+H05261)
Correct for Detector Non-linearity: No (USB2+H05261)
Correct for Stray Light: No (USB2+H05261)
Number of Pixels in Processed Spectrum: 2048
>>>>>Begin Processed Spectral Data<<<<<
365.73	60.85
365.92	60.85
366.12	60.85
366.32	0.00
366.52	0.00
366.72	0.00
366.91	0.00
367.11	9.36
367.31	0.00
367.51	0.00
367.70	0.00
367.90	0.00
368.10	0.00
368.30	0.00
368.49	0.00
368.69	11.70
368.89	14.04
369.09	0.00
369.28	0.00
369.48	0.00
369.68	0.00
369.87	30.43
370.07	0.00
370.27	79.58
370.47	32.77
370.66	46.81
370.86	81.92
371.06	110.01
371.25	121.71
371.45	86.60
371.65	105.32
371.84	142.77
372.04	140.43
372.24	93.62
372.44	175.54
372.63	79.58
372.83	163.84
373.03	161.50
373.22	170.86
373.42	187.24
373.62	222.35
373.81	147.45
374.01	166.18
374.21	184.90
374.40	189.58
374.60	184.90
374.79	173.20
374.99	147.45
375.19	177.88
375.38	177.88
375.58	154.48
375.78	138.09
375.97	187.24
376.17	280.86
376.37	159.16
376.56	198.95
376.76	140.43
376.95	182.56
377.15	161.50
377.35	147.45
377.54	156.82
377.74	187.24
377.93	145.11
378.13	180.22
378.33	201.29
378.52	154.48
378.72	114.69
378.91	152.13
379.11	119.37
379.31	145.11
379.50	110.01
379.70	187.24
379.89	154.48
380.09	110.01
380.28	198.95
380.48	152.13
380.68	224.69
380.87	168.52
381.07	231.71
381.26	262.14
381.46	222.35
381.65	196.60
381.85	175.54
382.04	189.58
382.24	227.03
382.43	140.43
382.63	168.52
382.83	110.01
383.02	149.79
383.22	208.31
383.41	177.88
383.61	243.42
383.80	163.84
384.00	100.64
384.19	187.24
384.39	191.92
384.58	229.37
384.78	248.10
384.97	196.60
385.17	191.92
385.36	131.07
385.56	236.39
385.75	189.58
385.95	238.73
386.14	201.29
386.34	168.52
386.53	208.31
386.72	159.16
386.92	184.90
387.11	184.90
387.31	166.18
387.50	98.30
387.70	203.63
387.89	168.52
388.09	245.76
388.28	203.63
388.48	257.46
388.67	163.84
388.86	168.52
389.06	154.48
389.25	180.22
389.45	203.63
389.64	215.33
389.84	229.37
390.03	259.80
390.22	208.31
390.42	227.03
390.61	205.97
390.81	161.50
391.00	290.23
391.19	227.03
391.39	269.16
391.58	257.46
391.78	294.91
391.97	191.92
392.16	210.65
392.36	287.89
392.55	229.37
392.75	198.95
392.94	222.35
393.13	245.76
393.33	224.69
393.52	201.29
393.71	257.46
393.91	250.44
394.10	264.48
394.29	220.01
394.49	222.35
394.68	264.48
394.88	245.76
395.07	325.33
395.26	210.65
395.46	236.39
395.65	325.33
395.84	283.20
396.04	304.27
396.23	245.76
396.42	173.20
396.62	280.86
396.81	294.91
397.00	222.35
397.19	297.25
397.39	262.14
397.58	278.52
397.77	264.48
397.97	273.84
398.16	339.38
398.35	362.78
398.55	318.31
398.74	322.99
398.93	306.61
399.12	367.46
399.32	351.08
399.51	266.82
399.70	313.63
399.90	327.68
400.09	376.83
400.28	369.80
400.47	367.46
400.67	369.80
400.86	372.15
401.05	348.74
401.24	395.55
401.44	428.32
401.63	409.59
401.82	437.68
402.01	456.40
402.21	409.59
402.40	322.99
402.59	395.55
402.78	428.32
402.97	390.87
403.17	315.97
403.36	507.90
403.55	440.02
403.74	444.70
403.93	491.51
404.13	496.19
404.32	461.09
404.51	472.79
404.70	496.19
404.89	458.74
405.09	540.66
405.28	479.81
405.47	489.17
405.66	444.70
405.85	557.05
406.05	484.49
406.24	512.58
406.43	531.30
406.62	498.53
406.81	622.58
407.00	599.18
407.20	535.98
407.39	543.00
407.58	578.11
407.77	599.18
407.96	559.39
408.15	702.16
408.34	681.10
408.54	596.84
408.73	608.54
408.92	601.52
409.11	608.54
409.30	631.94
409.49	690.46
409.68	711.52
409.87	613.22
410.07	681.10
410.26	653.01
410.45	716.20
410.64	723.23
410.83	758.33
411.02	697.48
411.21	765.36
411.40	863.66
411.59	751.31
411.78	699.82
411.98	758.33
412.17	784.08
412.36	751.31
412.55	828.55
412.74	858.98
412.93	849.61
413.12	816.85
413.31	880.04
413.50	816.85
413.69	915.15
413.88	924.51
414.07	868.34
414.26	894.08
414.45	919.83
414.64	903.45
414.83	973.66
415.02	994.73
415.22	891.74
415.41	1046.22
415.60	1015.79
415.79	816.85
415.98	1013.45
416.17	1123.46
416.36	1039.20
416.55	1013.45
416.74	1062.60
416.93	1053.24
417.12	1118.78
417.31	1013.45
417.50	1149.20
417.69	1219.42
417.88	1083.67
418.07	1086.01
418.26	1111.75
418.45	1088.35
418.64	1130.48
418.83	1158.57
419.02	1217.08
419.21	1149.20
419.39	1153.88
419.58	1203.04
419.77	1167.93
419.96	1170.27
420.15	1308.36
420.34	1181.97
420.53	1207.72
420.72	1270.91
420.91	1336.45
421.10	1226.44
421.29	1313.04
421.48	1284.95
421.67	1343.47
421.86	1320.06
422.05	1198.35
422.24	1273.25
422.43	1287.29
422.61	1261.55
422.80	1322.40
422.99	1371.55
423.18	1327.08
423.37	1392.62
423.56	1369.21
423.75	1359.85
423.94	1254.53
424.13	1233.46
424.32	1221.76
424.50	1329.42
424.69	1308.36
424.88	1406.66
425.07	1364.53
425.26	1331.76
425.45	1273.25
425.64	1453.47
425.83	1350.49
426.01	1427.73
426.20	1334.11
426.39	1348.15
426.58	1383.26
426.77	1423.05
426.96	1409.00
427.15	1390.28
427.33	1394.96
427.52	1390.28
427.71	1488.58
427.90	1387.94
428.09	1472.20
428.28	1411.34
428.46	1469.86
428.65	1455.81
428.84	1568.16
429.03	1500.28
429.22	1479.22
429.40	1469.86
429.59	1507.30
429.78	1406.66
429.97	1411.34
430.16	1479.22
430.34	1533.05
430.53	1458.15
430.72	1577.52
430.91	1565.82
431.10	1481.56
431.28	1561.14
431.47	1556.46
431.66	1678.16
431.85	1572.84
432.03	1650.08
432.22	1643.06
432.41	1699.23
432.60	1696.89
432.79	1479.22
432.97	1652.42
433.16	1727.32
433.35	1710.93
433.54	1610.29
433.72	1750.72
433.91	1750.72
434.10	1636.03
434.28	1673.48
434.47	1778.81
434.66	1743.70
434.85	1774.13
435.03	1853.70
435.22	1870.09
435.41	2141.59
435.59	2143.93
435.78	1984.77
435.97	1881.79
436.16	1757.74
436.34	1748.38
436.53	1750.72
436.72	1860.73
436.90	1736.68
437.09	1860.73
437.28	1837.32
437.46	1774.13
437.65	1818.60
437.84	1732.00
438.02	1870.09
438.21	1881.79
438.40	1898.17
438.58	1818.60
438.77	1830.30
438.96	1973.07
439.14	1879.45
439.33	2003.50
439.52	1944.99
439.70	1916.90
439.89	2029.24
440.08	2031.58
440.26	2054.99
440.45	2115.84
440.63	1968.39
440.82	1944.99
441.01	2169.68
441.19	2127.55
441.38	2150.95
441.57	2057.33
441.75	2090.10
441.94	2242.23
442.12	2284.36
442.31	2176.70
442.50	2197.76
442.68	2230.53
442.87	2197.76
443.05	2181.38
443.24	2291.38
443.43	2310.11
443.61	2202.44
443.80	2286.70
443.98	2207.13
444.17	2150.95
444.35	2305.43
444.54	2277.34
444.73	2218.83
444.91	2284.36
445.10	2275.00
445.28	2230.53
445.47	2195.42
445.65	2333.51
445.84	2284.36
446.02	2342.88
446.21	2223.51
446.39	2305.43
446.58	2342.88
446.77	2267.98
446.95	2237.55
447.14	2354.58
447.32	2289.04
447.51	2298.41
447.69	2319.47
447.88	2392.03
448.06	2335.85
448.25	2275.00
448.43	2277.34
448.62	2242.23
448.80	2305.43
448.99	2368.62
449.17	2504.37
449.36	2485.65
449.54	2279.68
449.73	2417.77
449.91	2457.56
450.10	2408.41
450.28	2621.40
450.46	2612.04
450.65	2422.45
450.83	2497.35
451.02	2434.16
451.20	2438.84
451.39	2525.44
451.57	2422.45
451.76	2506.71
451.94	2478.63
452.13	2539.48
452.31	2504.37
452.49	2478.63
452.68	2473.95
452.86	2588.63
453.05	2516.08
453.23	2473.95
453.42	2693.96
453.60	2497.35
453.78	2537.14
453.97	2579.27
454.15	2696.30
454.34	2679.91
454.52	2686.94
454.70	2677.57
454.89	2689.28
455.07	2717.36
455.26	2640.12
455.44	2747.79
455.62	2619.06
455.81	2642.46
455.99	2731.41
456.17	2799.28
456.36	2906.95
456.54	2825.03
456.73	2867.16
456.91	2850.77
457.09	2871.84
457.28	2780.56
457.46	2794.60
457.64	2892.90
457.83	2932.69
458.01	2956.10
458.19	2836.73
458.38	2792.26
458.56	2993.55
458.74	2832.05
458.93	2869.50
459.11	2888.22
459.29	2883.54
459.48	3002.91
459.66	2956.10
459.84	2946.73
460.03	3075.46
460.21	3038.02
460.39	2993.55
460.57	3075.46
460.76	3059.08
460.94	2906.95
461.12	3112.91
461.31	3028.65
461.49	3049.72
461.67	2977.16
461.85	3115.25
462.04	3110.57
462.22	3641.87
462.40	3148.02
462.59	2988.86
462.77	3094.19
462.95	3155.04
463.13	3110.57
463.32	3150.36
463.50	3274.41
463.68	3122.27
463.86	3115.25
464.05	3066.10
464.23	3236.96
464.41	3171.43
464.59	3038.02
464.78	3115.25
464.96	3192.49
465.14	3227.60
465.32	3321.22
465.50	3283.77
465.69	3248.66
465.87	3265.05
466.05	3339.94
466.23	3199.51
466.41	3218.24
466.60	3328.24
466.78	3276.75
466.96	3332.92
467.14	3318.88
467.32	3382.07
467.51	3405.48
467.69	3356.33
467.87	3386.76
468.05	3393.78
468.23	3405.48
468.41	3351.65
468.60	3435.91
468.78	3456.97
468.96	3337.60
469.14	3595.06
469.32	3428.88
469.50	3403.14
469.69	3520.17
469.87	3492.08
470.05	3564.64
470.23	3538.89
470.41	3590.38
470.59	3501.44
470.77	3475.70
470.95	3590.38
471.14	3698.05
471.32	3646.55
471.50	3705.07
471.68	3522.51
471.86	3756.56
472.04	3583.36
472.22	3808.05
472.40	3662.94
472.58	3648.90
472.77	3686.34
472.95	3859.54
473.13	3915.72
473.31	3852.52
473.49	3744.86
473.67	3712.09
473.85	3768.26
474.03	3751.88
474.21	3808.05
474.39	3857.20
474.57	3901.67
474.75	3981.25
474.93	4051.47
475.12	3880.61
475.30	3971.89
475.48	4065.51
475.66	4032.74
475.84	3925.08
476.02	4037.42
476.20	4161.47
476.38	4285.52
476.56	4229.35
476.74	4255.09
476.92	4191.90
477.10	4198.92
477.28	4250.41
477.46	4355.74
477.64	4568.73
477.82	4325.31
478.00	4437.66
478.18	4479.79
478.36	4397.87
478.54	4418.93
478.72	4503.19
478.90	4641.28
479.08	4542.98
479.26	4716.18
479.44	4645.96
479.62	4704.48
479.80	4683.41
479.98	4753.63
480.16	4774.69
480.34	4718.52
480.52	4882.36
480.70	4954.91
480.88	4816.82
481.06	4959.60
481.24	4992.36
481.41	4877.68
481.59	5228.76
481.77	5217.05
481.95	5139.82
482.13	5128.11
482.31	5170.24
482.49	5380.89
482.67	5329.40
482.85	5570.48
483.03	5589.20
483.21	5453.45
483.39	5617.29
483.57	5411.32
483.74	5572.82
483.92	5507.28
484.10	5645.37
484.28	5561.11
484.46	5804.53
484.64	5874.74
484.82	5678.14
485.00	5771.76
485.18	5860.70
485.35	6029.22
485.53	5879.43
485.71	5935.60
485.89	6171.99
486.07	6057.31
486.25	6073.69
486.43	6193.06
486.61	6328.81
486.78	6239.87
486.96	6361.58
487.14	6331.15
487.32	6389.66
487.50	6513.71
487.68	6370.94
487.85	6621.38
488.03	6672.87
488.21	6654.14
488.39	6977.14
488.57	6827.34
488.75	6789.89
488.92	7000.54
489.10	6876.49
489.28	6960.75
489.46	6991.18
489.64	7052.03
489.81	7073.10
489.99	7176.08
490.17	7054.37
490.35	7218.21
490.53	7302.47
490.70	7419.50
490.88	7145.66
491.06	7520.14
491.24	7424.18
491.41	7449.93
491.59	7396.09
491.77	7548.23
491.95	7559.93
492.13	7630.15
492.30	7679.30
492.48	7702.70
492.66	7801.01
492.84	7735.47
493.01	8107.62
493.19	7983.57
493.37	8018.68
493.54	7990.59
493.72	7927.39
493.90	8191.88
494.08	8238.69
494.25	8367.42
494.43	8360.39
494.61	8294.86
494.79	8332.31
494.96	8325.29
495.14	8355.71
495.32	8482.10
495.49	8554.66
495.67	8521.89
495.85	8725.52
496.02	8837.86
496.20	8762.97
496.38	8828.50
496.55	8688.07
496.73	8952.55
496.91	8805.10
497.09	9062.55
497.26	8903.40
497.44	9034.47
497.62	8985.32
497.79	9158.52
497.97	9078.94
498.14	9303.63
498.32	9268.52
498.50	9287.25
498.67	9214.69
498.85	9149.15
499.03	9479.17
499.20	9408.95
499.38	9345.76
499.56	9586.83
499.73	9413.63
499.91	9551.73
500.08	9668.75
500.26	9460.45
500.44	9563.43
500.61	9547.05
500.79	9905.15
500.97	9696.84
501.14	10076.01
501.32	9998.77
501.49	10026.86
501.67	10038.56
501.84	9905.15
502.02	9949.62
502.20	10122.82
502.37	10003.45
502.55	9973.02
502.72	10005.79
502.90	10031.54
503.07	9982.38
503.25	10321.76
503.43	10279.63
503.60	10391.98
503.78	10431.77
503.95	10389.64
504.13	10420.06
504.30	10518.37
504.48	10274.95
504.65	10438.79
504.83	10567.52
505.01	10611.99
505.18	10602.63
505.36	10906.90
505.53	10661.14
505.71	10466.88
505.88	10492.62
506.06	10803.91
506.23	10736.04
506.41	10689.23
506.58	10867.11
506.76	10689.23
506.93	10869.45
507.11	10665.82
507.28	10878.81
507.46	10979.45
507.63	11218.19
507.81	11206.48
507.98	10841.36
508.16	11040.31
508.33	11119.89
508.50	11044.99
508.68	11253.30
508.85	11140.95
509.03	11449.90
509.20	11150.31
509.38	11449.90
509.55	11517.78
509.73	11482.67
509.90	11410.11
510.08	11641.82
510.25	11517.78
510.42	11583.31
510.60	11829.07
510.77	11789.28
510.95	11789.28
511.12	11597.35
511.30	11569.27
511.47	11758.85
511.64	11850.13
511.82	11892.26
511.99	11967.16
512.17	12037.38
512.34	11712.04
512.51	11812.68
512.69	11892.26
512.86	12184.83
513.04	12189.51
513.21	12152.06
513.38	12004.61
513.56	12173.13
513.73	12051.42
513.90	12140.36
514.08	12044.40
514.25	12365.05
514.43	12175.47
514.60	12194.19
514.77	12367.39
514.95	12453.99
515.12	12479.74
515.29	12355.69
515.47	12575.70
515.64	12526.55
515.81	12606.13
515.99	12720.81
516.16	13046.15
516.33	12767.62
516.51	12755.92
516.68	12521.87
516.85	12601.44
517.03	12861.24
517.20	12840.18
517.37	12989.97
517.54	12940.82
517.72	12688.04
517.89	12760.60
518.06	12851.88
518.24	12973.59
518.41	12788.69
518.58	12784.01
518.75	13029.76
518.93	12950.18
519.10	13109.34
519.27	13095.30
519.45	13062.53
519.62	13240.41
519.79	13226.37
519.96	13074.23
520.14	13067.21
520.31	13308.29
520.48	13240.41
520.65	13191.26
520.83	13420.63
521.00	13303.60
521.17	13378.50
521.34	13427.65
521.52	13144.45
521.69	13383.18
521.86	13572.77
522.03	13621.92
522.20	13748.31
522.38	13666.39
522.55	13675.75
522.72	13481.49
522.89	13565.74
523.07	13757.67
523.24	13895.76
523.41	13912.14
523.58	13783.41
523.75	13706.18
523.92	13846.61
524.10	13860.65
524.27	13827.88
524.44	14216.41
524.61	14167.26
524.78	14256.20
524.96	13940.23
525.13	14106.41
525.30	14136.84
525.47	14211.73
525.64	14120.45
525.81	14340.46
525.98	14155.56
526.16	14274.93
526.33	14328.76
526.50	14448.13
526.67	14272.59
526.84	14300.67
527.01	14267.91
527.18	14258.54
527.36	14551.11
527.53	14516.00
527.70	14644.73
527.87	14644.73
528.04	14408.34
528.21	14455.15
528.38	14693.88
528.55	14593.24
528.72	14530.05
528.89	14651.75
529.07	14672.82
529.24	14626.01
529.41	14618.99
529.58	14602.60
529.75	14860.06
529.92	14637.71
530.09	14628.35
530.26	14927.94
530.43	14869.42
530.60	14745.38
530.77	14757.08
530.94	14768.78
531.11	14703.25
531.28	14682.18
531.46	14871.76
531.63	14794.53
531.80	14843.68
531.97	14970.07
532.14	14869.42
532.31	15110.50
532.48	14963.04
532.65	15190.08
532.82	14785.16
532.99	15131.56
533.16	15112.84
533.33	15098.80
533.50	15321.15
533.67	15344.55
533.84	15342.21
534.01	15377.32
534.18	15243.91
534.35	15351.57
534.52	15477.96
534.69	15492.01
534.86	15293.06
535.03	15360.94
535.20	15548.18
535.37	15421.79
535.54	15494.35
535.71	15365.62
535.88	15564.56
536.05	15536.48
536.22	15693.29
536.38	15843.09
536.55	15487.32
536.72	15704.99
536.89	15726.06
537.06	15531.80
537.23	15714.36
537.40	15351.57
537.57	15690.95
537.74	15676.91
537.91	16049.05
538.08	15908.62
538.25	15510.73
538.42	15908.62
538.59	15880.53
538.75	15630.10
538.92	15695.63
539.09	15873.51
539.26	16067.78
539.43	16056.08
539.60	15999.90
539.77	15864.15
539.94	16231.62
540.11	15999.90
540.28	16276.09
540.44	16388.43
540.61	16016.29
540.78	16042.03
540.95	16278.43
541.12	16479.71
541.29	16482.05
541.46	16535.88
541.62	16505.46
541.79	16430.56
541.96	16299.49
542.13	16535.88
542.30	16414.18
542.47	16868.24
542.63	16472.69
542.80	16496.10
542.97	16877.60
543.14	16690.36
543.31	16713.77
543.48	16734.83
543.64	16711.42
543.81	16901.01
543.98	17184.21
544.15	16849.52
544.32	16833.13
544.48	17099.95
544.65	16610.78
544.82	16603.76
544.99	16491.41
545.16	16650.57
545.32	16952.50
545.49	17195.92
545.66	17521.25
545.83	18085.32
546.00	17797.43
546.16	17280.18
546.33	16755.90
546.50	17097.61
546.67	17200.60
546.83	16774.62
547.00	17048.46
547.17	17043.78
547.34	17060.16
547.50	17139.74
547.67	17151.45
547.84	16936.12
548.00	17064.85
548.17	16994.63
548.34	16814.41
548.51	17055.48
548.67	16940.80
548.84	17156.13
549.01	16999.31
549.18	17003.99
549.34	17118.68
549.51	17144.42
549.68	17219.32
549.84	16858.88
550.01	17139.74
550.18	17027.40
550.34	17006.33
550.51	17071.87
550.68	17415.93
550.84	17034.42
551.01	17326.99
551.18	17055.48
551.34	17064.85
551.51	17102.29
551.68	17209.96
551.84	17404.22
552.01	17275.49
552.18	17193.58
552.34	17231.02
552.51	17296.56
552.68	17034.42
552.84	17118.68
553.01	17364.43
553.18	16858.88
553.34	17291.88
553.51	17221.66
553.67	17193.58
553.84	17252.09
554.01	17350.39
554.17	17238.05
554.34	17338.69
554.51	17123.36
554.67	17366.78
554.84	17336.35
555.00	17200.60
555.17	17586.79
555.33	17607.85
555.50	17551.68
555.67	17308.26
555.83	17289.54
556.00	17472.10
556.16	17685.09
556.33	17406.56
556.50	17348.05
556.66	17614.87
556.83	17289.54
556.99	17738.92
557.16	17324.65
557.32	17556.36
557.49	17418.27
557.65	17254.43
557.82	17474.44
557.98	17661.68
558.15	17366.78
558.32	17591.47
558.48	17296.56
558.65	17774.03
558.81	17872.33
558.98	17846.58
559.14	17738.92
559.31	17649.98
559.47	17619.55
559.64	17647.64
559.80	17472.10
559.97	17554.02
560.13	17516.57
560.30	17556.36
560.46	17827.86
560.63	17731.90
560.79	17654.66
560.96	17530.61
561.12	17774.03
561.29	17633.60
561.45	17682.75
561.61	17734.24
561.78	17832.54
561.94	17549.34
562.11	17869.99
562.27	17752.96
562.44	17549.34
562.60	17584.44
562.77	17673.39
562.93	17418.27
563.10	17603.17
563.26	17331.67
563.42	17914.46
563.59	17535.29
563.75	17790.41
563.92	18026.81
564.08	17664.02
564.24	17764.67
564.41	17596.15
564.57	17649.98
564.74	17640.62
564.90	17649.98
565.07	17771.69
565.23	18005.74
565.39	17624.23
565.56	17366.78
565.72	17532.95
565.88	17654.66
566.05	17834.88
566.21	17752.96
566.38	17659.34
566.54	17635.94
566.70	17666.36
566.87	18024.47
567.03	17771.69
567.19	17930.84
567.36	17933.18
567.52	17731.90
567.68	17806.80
567.85	17713.17
568.01	17671.04
568.17	17734.24
568.34	17820.84
568.50	17867.65
568.66	18008.08
568.83	18010.42
568.99	17701.47
569.15	17872.33
569.32	17666.36
569.48	17722.54
569.64	17759.98
569.81	17767.01
569.97	17706.15
570.13	18267.88
570.30	17635.94
570.46	17860.63
570.62	17951.91
570.78	17795.09
570.95	17905.10
571.11	17799.77
571.27	17944.89
571.43	17605.51
571.60	18164.90
571.76	17788.07
571.92	17949.57
572.09	17738.92
572.25	17783.39
572.41	17886.37
572.57	17963.61
572.74	18324.05
572.90	17989.36
573.06	17446.35
573.22	17954.25
573.38	17975.31
573.55	17846.58
573.71	17872.33
573.87	18312.35
574.03	17916.80
574.20	17898.08
574.36	17694.45
574.52	17858.29
574.68	17687.43
574.84	17860.63
575.01	17673.39
575.17	18127.45
575.33	17970.63
575.49	17699.13
575.65	17935.53
575.82	18057.23
575.98	17944.89
576.14	17923.82
576.30	18029.15
576.46	17860.63
576.62	18260.86
576.79	17872.33
576.95	17865.31
577.11	18008.08
577.27	18132.13
577.43	18085.32
577.59	18052.55
577.75	17933.18
577.92	17949.57
578.08	18012.76
578.24	17731.90
578.40	17851.27
578.56	18284.26
578.72	18080.64
578.88	18167.24
579.04	18134.47
579.21	18157.88
579.37	18050.21
579.53	17921.48
579.69	18001.06
579.85	17907.44
580.01	18115.75
580.17	17792.75
580.33	18136.81
580.49	18075.96
580.65	18012.76
580.82	18286.61
580.98	17951.91
581.14	18019.78
581.30	18200.01
581.46	17954.25
581.62	18155.54
581.78	17809.14
581.94	18221.07
582.10	17886.37
582.26	18094.68
582.42	17958.93
582.58	17893.40
582.74	18314.69
582.90	18153.20
583.06	18045.53
583.22	18181.28
583.38	18071.28
583.54	17827.86
583.70	18101.70
583.86	18099.36
584.02	17940.21
584.18	18230.43
584.34	18097.02
584.50	18111.07
584.66	18155.54
584.82	18005.74
584.98	18333.42
585.14	18389.59
585.30	17954.25
585.46	18125.11
585.62	17762.33
585.78	18005.74
585.94	17994.04
586.10	18288.95
586.26	18033.83
586.42	18108.72
586.58	17961.27
586.74	18155.54
586.90	18258.52
587.06	18047.87
587.22	18059.57
587.38	17862.97
587.54	18214.05
587.70	18167.24
587.86	18169.58
588.02	18195.32
588.18	18251.50
588.34	18272.56
588.49	18178.94
588.65	18043.19
588.81	18251.50
588.97	17958.93
589.13	18317.03
589.29	18223.41
589.45	18097.02
589.61	18389.59
589.77	18139.15
589.93	18293.63
590.08	18335.76
590.24	18307.67
590.40	18288.95
590.56	18047.87
590.72	17998.72
590.88	18223.41
591.04	18291.29
591.20	18295.97
591.35	18338.10
591.51	18483.21
591.67	18242.14
591.83	18412.99
591.99	18064.25
592.15	18160.22
592.31	18223.41
592.46	18111.07
592.62	18101.70
592.78	18150.85
592.94	18010.42
593.10	18310.01
