SpectraSuite Data File
++++++++++++++++++++++++++++++++++++
Date: Fri Oct 04 11:39:30 GMT-05:00 2013
User: price-jones
Dark Spectrum Present: No
Reference Spectrum Present: No
Number of Sampled Component Spectra: 1
Spectrometers: USB2+H05261
Integration Time (usec): 100000 (USB2+H05261)
Spectra Averaged: 1 (USB2+H05261)
Boxcar Smoothing: 0 (USB2+H05261)
Correct for Electrical Dark: No (USB2+H05261)
Strobe/Lamp Enabled: No (USB2+H05261)
Correct for Detector Non-linearity: No (USB2+H05261)
Correct for Stray Light: No (USB2+H05261)
Number of Pixels in Processed Spectrum: 2048
>>>>>Begin Processed Spectral Data<<<<<
365.73	77.24
365.92	77.24
366.12	77.24
366.32	0.00
366.52	0.00
366.72	0.00
366.91	0.00
367.11	0.00
367.31	0.00
367.51	0.00
367.70	0.00
367.90	0.00
368.10	0.00
368.30	0.00
368.49	0.00
368.69	4.68
368.89	0.00
369.09	4.68
369.28	16.38
369.48	0.00
369.68	0.00
369.87	0.00
370.07	0.00
370.27	2.34
370.47	58.51
370.66	53.83
370.86	86.60
371.06	124.05
371.25	191.92
371.45	105.32
371.65	159.16
371.84	121.71
372.04	189.58
372.24	163.84
372.44	56.17
372.63	187.24
372.83	248.10
373.03	163.84
373.22	170.86
373.42	276.18
373.62	210.65
373.81	173.20
374.01	205.97
374.21	154.48
374.40	222.35
374.60	189.58
374.79	229.37
374.99	203.63
375.19	205.97
375.38	194.26
375.58	280.86
375.78	227.03
375.97	220.01
376.17	187.24
376.37	177.88
376.56	187.24
376.76	163.84
376.95	201.29
377.15	182.56
377.35	173.20
377.54	210.65
377.74	201.29
377.93	163.84
378.13	222.35
378.33	170.86
378.52	220.01
378.72	205.97
378.91	194.26
379.11	250.44
379.31	212.99
379.50	140.43
379.70	152.13
379.89	248.10
380.09	259.80
380.28	149.79
380.48	128.73
380.68	224.69
380.87	180.22
381.07	315.97
381.26	245.76
381.46	198.95
381.65	210.65
381.85	280.86
382.04	198.95
382.24	287.89
382.43	248.10
382.63	173.20
382.83	175.54
383.02	266.82
383.22	273.84
383.41	187.24
383.61	243.42
383.80	217.67
384.00	241.08
384.19	227.03
384.39	203.63
384.58	236.39
384.78	273.84
384.97	210.65
385.17	245.76
385.36	262.14
385.56	198.95
385.75	152.13
385.95	266.82
386.14	243.42
386.34	238.73
386.53	283.20
386.72	173.20
386.92	259.80
387.11	264.48
387.31	311.29
387.50	210.65
387.70	262.14
387.89	280.86
388.09	262.14
388.28	266.82
388.48	257.46
388.67	187.24
388.86	182.56
389.06	297.25
389.25	271.50
389.45	301.93
389.64	287.89
389.84	313.63
390.03	257.46
390.22	269.16
390.42	306.61
390.61	243.42
390.81	241.08
391.00	262.14
391.19	301.93
391.39	241.08
391.58	337.04
391.78	257.46
391.97	346.40
392.16	271.50
392.36	332.36
392.55	278.52
392.75	315.97
392.94	292.57
393.13	276.18
393.33	273.84
393.52	283.20
393.71	290.23
393.91	339.38
394.10	351.08
394.29	320.65
394.49	290.23
394.68	297.25
394.88	313.63
395.07	290.23
395.26	325.33
395.46	280.86
395.65	362.78
395.84	346.40
396.04	404.91
396.23	390.87
396.42	353.42
396.62	367.46
396.81	404.91
397.00	367.46
397.19	421.30
397.39	327.68
397.58	414.27
397.77	351.08
397.97	407.25
398.16	369.80
398.35	470.45
398.55	416.62
398.74	304.27
398.93	409.59
399.12	372.15
399.32	435.34
399.51	423.64
399.70	484.49
399.90	482.15
400.09	496.19
400.28	470.45
400.47	528.96
400.67	496.19
400.86	468.11
401.05	414.27
401.24	461.09
401.44	512.58
401.63	507.90
401.82	594.50
402.01	493.85
402.21	496.19
402.40	489.17
402.59	409.59
402.78	543.00
402.97	526.62
403.17	559.39
403.36	615.56
403.55	543.00
403.74	538.32
403.93	688.12
404.13	713.86
404.32	645.99
404.51	631.94
404.70	669.39
404.89	678.76
405.09	629.60
405.28	578.11
405.47	582.79
405.66	709.18
405.85	662.37
406.05	690.46
406.24	748.97
406.43	667.05
406.62	772.38
406.81	788.76
407.00	716.20
407.20	741.95
407.39	819.19
407.58	795.78
407.77	821.53
407.96	819.19
408.15	781.74
408.34	847.27
408.54	840.25
408.73	816.85
408.92	842.59
409.11	929.19
409.30	947.92
409.49	875.36
409.68	784.08
409.87	849.61
410.07	952.60
410.26	931.53
410.45	961.96
410.64	861.32
410.83	1020.47
411.02	997.07
411.21	1071.97
411.40	1095.37
411.59	1093.03
411.78	1006.43
411.98	1022.81
412.17	1064.94
412.36	1064.94
412.55	1118.78
412.74	1093.03
412.93	1149.20
413.12	1149.20
413.31	1317.72
413.50	1130.48
413.69	1231.12
413.88	1170.27
414.07	1240.48
414.26	1235.80
414.45	1289.64
414.64	1287.29
414.83	1371.55
415.02	1263.89
415.22	1299.00
415.41	1284.95
415.60	1331.76
415.79	1352.83
415.98	1420.71
416.17	1413.68
416.36	1460.49
416.55	1465.18
416.74	1453.47
416.93	1530.71
417.12	1530.71
417.31	1420.71
417.50	1446.45
417.69	1526.03
417.88	1610.29
418.07	1551.78
418.26	1554.12
418.45	1593.90
418.64	1673.48
418.83	1650.08
419.02	1650.08
419.21	1640.72
419.39	1610.29
419.58	1682.85
419.77	1643.06
419.96	1675.82
420.15	1717.95
420.34	1692.21
420.53	1614.97
420.72	1689.87
420.91	1699.23
421.10	1682.85
421.29	1741.36
421.48	1753.06
421.67	1886.47
421.86	1785.83
422.05	1823.28
422.24	1813.92
422.43	1844.34
422.61	1860.73
422.80	1863.07
422.99	1860.73
423.18	1769.44
423.37	1900.52
423.56	1916.90
423.75	1795.19
423.94	1844.34
424.13	1816.26
424.32	1813.92
424.50	1863.07
424.69	1926.26
424.88	1949.67
425.07	1952.01
425.26	1872.43
425.45	1909.88
425.64	1905.20
425.83	1921.58
426.01	2022.22
426.20	1966.05
426.39	1736.68
426.58	1912.22
426.77	1966.05
426.96	2005.84
427.15	2024.56
427.33	2040.95
427.52	1966.05
427.71	2036.27
427.90	2022.22
428.09	2033.93
428.28	1994.14
428.46	1989.46
428.65	2031.58
428.84	2122.87
429.03	2069.03
429.22	2019.88
429.40	2150.95
429.59	2019.88
429.78	2062.01
429.97	2073.71
430.16	2094.78
430.34	2033.93
430.53	2122.87
430.72	2165.00
430.91	2122.87
431.10	2076.06
431.28	2270.32
431.47	2186.06
431.66	2296.07
431.85	2232.87
432.03	2286.70
432.22	2448.20
432.41	2338.20
432.60	2431.82
432.79	2293.72
432.97	2319.47
433.16	2237.55
433.35	2368.62
433.54	2307.77
433.72	2361.60
433.91	2356.92
434.10	2483.31
434.28	2342.88
434.47	2342.88
434.66	2485.65
434.85	2375.64
435.03	2520.76
435.22	2672.89
435.41	2951.42
435.59	2984.18
435.78	2787.58
435.97	2581.61
436.16	2504.37
436.34	2544.16
436.53	2546.50
436.72	2623.74
436.90	2506.71
437.09	2560.55
437.28	2605.02
437.46	2658.85
437.65	2588.63
437.84	2623.74
438.02	2555.86
438.21	2565.23
438.40	2579.27
438.58	2668.21
438.77	2712.68
438.96	2703.32
439.14	2686.94
439.33	2818.00
439.52	2626.08
439.70	2719.70
439.89	2789.92
440.08	2841.41
440.26	2888.22
440.45	2834.39
440.63	2860.13
440.82	2930.35
441.01	2909.29
441.19	2874.18
441.38	2979.50
441.57	3042.70
441.75	2993.55
441.94	3091.85
442.12	2911.63
442.31	3098.87
442.50	3056.74
442.68	3056.74
442.87	3105.89
443.05	3208.87
443.24	3084.83
443.43	3169.09
443.61	3103.55
443.80	3141.00
443.98	3267.39
444.17	2937.37
444.35	3105.89
444.54	3283.77
444.73	3265.05
444.91	3300.16
445.10	3204.19
445.28	3232.28
445.47	3180.79
445.65	3145.68
445.84	3152.70
446.02	3236.96
446.21	3218.24
446.39	3098.87
446.58	3283.77
446.77	3325.90
446.95	3192.49
447.14	3311.86
447.32	3211.22
447.51	3311.86
447.69	3260.37
447.88	3363.35
448.06	3239.30
448.25	3370.37
448.43	3344.63
448.62	3321.22
448.80	3274.41
448.99	3309.52
449.17	3414.84
449.36	3316.54
449.54	3421.86
449.73	3375.05
449.91	3454.63
450.10	3449.95
450.28	3559.95
450.46	3569.32
450.65	3400.80
450.83	3557.61
451.02	3527.19
451.20	3609.11
451.39	3506.12
451.57	3545.91
451.76	3400.80
451.94	3538.89
452.13	3597.40
452.31	3686.34
452.49	3611.45
452.68	3691.02
452.86	3618.47
453.05	3730.81
453.23	3674.64
453.42	3669.96
453.60	3709.75
453.78	3644.21
453.97	3721.45
454.15	3550.59
454.34	3590.38
454.52	3815.07
454.70	3754.22
454.89	3744.86
455.07	3632.51
455.26	3758.90
455.44	3854.86
455.62	3822.09
455.81	3740.18
455.99	3702.73
456.17	3889.97
456.36	3913.38
456.54	3913.38
456.73	3845.50
456.91	4016.36
457.09	3840.82
457.28	3992.95
457.46	3906.35
457.64	4044.45
457.83	3997.64
458.01	4032.74
458.19	4166.15
458.38	4002.32
458.56	4147.43
458.74	4236.37
458.93	3997.64
459.11	4138.07
459.29	4189.56
459.48	4121.68
459.66	4215.30
459.84	4135.73
460.03	4332.33
460.21	4248.07
460.39	4257.43
460.57	4269.14
460.76	4084.23
460.94	4327.65
461.12	4318.29
461.31	4306.59
461.49	4304.25
461.67	4234.03
461.85	4416.59
462.04	4341.69
462.22	4514.89
462.40	4432.97
462.59	4348.72
462.77	4332.33
462.95	4489.15
463.13	4400.21
463.32	4461.06
463.50	4451.70
463.68	4683.41
463.86	4477.44
464.05	4456.38
464.23	4489.15
464.41	4727.88
464.59	4423.61
464.78	4491.49
464.96	4636.60
465.14	4575.75
465.32	4610.86
465.50	4664.69
465.69	4571.07
465.87	4645.96
466.05	4592.13
466.23	4540.64
466.41	4720.86
466.60	4826.18
466.78	4660.01
466.96	4566.39
467.14	4582.77
467.32	4606.17
467.51	4664.69
467.69	4613.20
467.87	4770.01
468.05	4786.40
468.23	4603.83
468.41	4833.21
468.60	4812.14
468.78	4865.97
468.96	4734.90
469.14	4910.44
469.32	5088.32
469.50	4901.08
469.69	4997.04
469.87	5041.51
470.05	4884.70
470.23	4950.23
470.41	4957.25
470.59	5071.94
470.77	5043.85
470.95	4985.34
471.14	5097.69
471.32	5008.75
471.50	5217.05
471.68	5167.90
471.86	5123.43
472.04	5151.52
472.22	5214.71
472.40	5212.37
472.58	5313.02
472.77	5256.84
472.95	5350.46
473.13	5645.37
473.31	5376.21
473.49	5231.10
473.67	5394.93
473.85	5437.06
474.03	5526.00
474.21	5526.00
474.39	5523.66
474.57	5650.05
474.75	5809.21
474.93	5767.08
475.12	5708.57
475.30	5696.86
475.48	5694.52
475.66	5841.98
475.84	5867.72
476.02	5731.97
476.20	5909.85
476.38	5851.34
476.56	5907.51
476.74	6108.80
476.92	6080.71
477.10	6015.18
477.28	6146.25
477.46	6174.33
477.64	6293.70
477.82	6279.66
478.00	6321.79
478.18	6298.38
478.36	6363.92
478.54	6567.54
478.72	6494.99
478.90	6656.48
479.08	6579.25
479.26	6541.80
479.44	6773.51
479.62	6703.29
479.80	6719.68
479.98	6775.85
480.16	6923.30
480.34	6925.65
480.52	7037.99
480.70	6916.28
480.88	6904.58
481.06	6991.18
481.24	7068.42
481.41	7208.85
481.59	7288.43
481.77	7330.56
481.95	7297.79
482.13	7363.33
482.31	7335.24
482.49	7372.69
482.67	7400.77
482.85	7503.76
483.03	7667.60
483.21	7971.86
483.39	7878.24
483.57	7864.20
483.74	7880.58
483.92	7955.48
484.10	7948.46
484.28	8116.98
484.46	8173.15
484.64	8374.44
484.82	8105.28
485.00	8386.14
485.18	8454.02
485.35	8634.24
485.53	8545.30
485.71	8643.60
485.89	8706.79
486.07	8887.01
486.25	8676.37
486.43	8676.37
486.61	8781.69
486.78	9195.96
486.96	9118.73
487.14	8982.98
487.32	9060.21
487.50	9235.75
487.68	9345.76
487.85	9425.34
488.03	9390.23
488.21	9671.09
488.39	9699.18
488.57	9635.99
488.75	9638.33
488.92	10003.45
489.10	9881.74
489.28	9900.47
489.46	9966.00
489.64	10057.28
489.81	10345.17
489.99	10183.67
490.17	10148.56
490.35	10209.42
490.53	10576.88
490.70	10373.25
490.88	10523.05
491.06	10600.29
491.24	10604.97
491.41	10640.08
491.59	10892.85
491.77	10817.96
491.95	10965.41
492.13	10988.82
492.30	11131.59
492.48	11201.80
492.66	11246.27
492.84	11267.34
493.01	11272.02
493.19	11473.31
493.37	11428.84
493.54	11435.86
493.72	11473.31
493.90	11592.67
494.08	11573.95
494.25	11955.46
494.43	12060.78
494.61	11777.58
494.79	11906.31
494.96	12011.63
495.14	11929.71
495.32	12135.68
495.49	12138.02
495.67	12100.57
495.85	12503.14
496.02	12215.26
496.20	12596.76
496.38	12554.63
496.55	12596.76
496.73	12905.71
496.91	12847.20
497.09	12723.15
497.26	12812.09
497.44	12688.04
497.62	13308.29
497.79	13212.32
497.97	13011.04
498.14	13156.15
498.32	13336.37
498.50	13310.63
498.67	13586.81
498.85	13387.86
499.03	13362.12
499.20	13626.60
499.38	13607.87
499.56	13593.83
499.73	13439.36
499.91	13692.13
500.08	13741.29
500.26	13565.74
500.44	13900.44
500.61	13951.93
500.79	13888.74
500.97	13937.89
501.14	14085.34
501.32	14171.94
501.49	14157.90
501.67	14345.14
501.84	14164.92
502.02	14544.09
502.20	14417.70
502.37	14576.86
502.55	14263.22
502.72	14396.64
502.90	14300.67
503.07	14455.15
503.25	14427.06
503.43	14476.21
503.60	14829.63
503.78	15007.52
503.95	14965.39
504.13	15047.30
504.30	14740.69
504.48	15112.84
504.65	15173.69
504.83	15246.25
505.01	15248.59
505.18	15211.14
505.36	15501.37
505.53	15316.47
505.71	15073.05
505.88	15346.89
506.06	15119.86
506.23	15620.74
506.41	15501.37
506.58	15674.57
506.76	15435.83
506.93	15791.59
507.11	15454.56
507.28	15494.35
507.46	15815.00
507.63	15585.63
507.81	15697.97
507.98	15850.11
508.16	15967.13
508.33	15934.37
508.50	16198.85
508.68	16044.37
508.85	16423.54
509.03	16133.31
509.20	16451.63
509.38	16112.25
509.55	16402.47
509.73	16519.50
509.90	16262.04
510.08	16421.20
510.25	16304.17
510.42	16561.63
510.60	16681.00
510.77	16868.24
510.95	16849.52
511.12	16545.25
511.30	16669.30
511.47	17025.06
511.64	17015.69
511.82	16919.73
511.99	17149.11
512.17	17247.41
512.34	16753.55
512.51	17249.75
512.69	17057.82
512.86	17296.56
513.04	17462.74
513.21	17462.74
513.38	17638.28
513.56	17642.96
513.73	17373.80
513.90	17144.42
514.08	17425.29
514.25	17509.55
514.43	17687.43
514.60	17638.28
514.77	17755.30
514.95	17982.34
515.12	17722.54
515.29	17465.08
515.47	18008.08
515.64	18064.25
515.81	18225.75
515.99	18202.35
516.16	18548.75
516.33	18188.30
516.51	18443.42
516.68	18209.37
516.85	18122.77
517.03	18506.62
517.20	18609.60
517.37	18494.91
517.54	18595.56
517.72	18611.94
517.89	18328.74
518.06	18588.53
518.24	18417.68
518.41	18246.82
518.58	18967.70
518.75	18618.96
518.93	19051.96
519.10	18672.79
519.27	18878.76
519.45	19005.15
519.62	19201.76
519.79	18953.66
519.96	18871.74
520.14	19023.87
520.31	19274.31
520.48	19267.29
520.65	19346.87
520.83	19386.66
521.00	19164.31
521.17	19346.87
521.34	19276.65
521.52	19372.61
521.69	19529.43
521.86	19440.49
522.03	19648.80
522.20	19529.43
522.38	19798.59
522.55	19419.42
522.72	19756.46
522.89	19800.93
523.07	20159.03
523.24	19854.76
523.41	19915.62
523.58	19765.82
523.75	19894.55
523.92	19793.91
524.10	19920.30
524.27	20034.99
524.44	20299.47
524.61	20503.09
524.78	20262.02
524.96	20491.39
525.13	20215.21
525.30	20219.89
525.47	20528.84
525.64	20343.94
525.81	20400.11
525.98	20449.26
526.16	20732.47
526.33	20582.67
526.50	20606.08
526.67	20540.54
526.84	20645.87
527.01	20381.38
527.18	20926.73
527.36	20634.16
527.53	20737.15
527.70	20957.16
527.87	20821.41
528.04	20821.41
528.21	20739.49
528.38	20636.50
528.55	20945.45
528.72	20929.07
528.89	20926.73
529.07	21308.24
529.24	21151.42
529.41	21001.63
529.58	20912.69
529.75	20835.45
529.92	21085.89
530.09	21013.33
530.26	21474.42
530.43	21411.22
530.60	21034.39
530.77	21296.53
530.94	21261.43
531.11	21228.66
531.28	21240.36
531.46	21755.28
531.63	21584.42
531.80	21759.96
531.97	21671.02
532.14	21411.22
532.31	21928.48
532.48	21376.11
532.65	21551.65
532.82	21851.24
532.99	22036.14
533.16	22064.23
533.33	22199.98
533.50	21837.20
533.67	21886.35
533.84	21673.36
534.01	21654.64
534.18	21692.08
534.35	21937.84
534.52	21914.44
534.69	22450.42
534.86	22050.19
535.03	22057.21
535.20	22174.24
535.37	22199.98
535.54	21961.25
535.71	22157.85
535.88	22197.64
536.05	22171.89
536.22	22602.55
536.38	22422.33
536.55	22494.89
536.72	22354.46
536.89	22434.03
537.06	22412.97
537.23	22597.87
537.40	22366.16
537.57	22427.01
537.74	22518.29
537.91	23040.23
538.08	22953.63
538.25	22441.06
538.42	22513.61
538.59	22815.54
538.75	22434.03
538.92	22679.79
539.09	22792.14
539.26	22867.03
539.43	23365.57
539.60	22948.95
539.77	23330.46
539.94	22944.27
540.11	22869.37
540.28	22913.84
540.44	23089.38
540.61	23192.37
540.78	23112.79
540.95	23367.91
541.12	23213.43
541.29	23384.29
541.46	23330.46
541.62	23424.08
541.79	23442.81
541.96	23625.37
542.13	23599.62
542.30	23728.35
542.47	23583.24
542.63	24013.90
542.80	23686.22
542.97	23838.36
543.14	23913.25
543.31	23814.95
543.48	23489.62
543.64	24254.97
543.81	24025.60
543.98	24006.87
544.15	23915.59
544.32	24091.13
544.48	24283.06
544.65	24376.68
544.82	24215.18
544.99	23758.78
545.16	24334.55
545.32	23889.85
545.49	24989.90
545.66	25329.28
545.83	25415.88
546.00	25125.65
546.16	24116.88
546.33	23981.13
546.50	24109.86
546.67	24458.60
546.83	23805.59
547.00	24479.66
547.17	24306.46
547.34	24182.42
547.50	24210.50
547.67	24404.77
547.84	24521.79
548.00	24173.05
548.17	24528.81
548.34	24416.47
548.51	24453.92
548.67	24725.42
548.84	24231.57
549.01	24367.32
549.18	24386.04
549.34	24474.98
549.51	24435.19
549.68	24631.80
549.84	24329.87
550.01	24563.92
550.18	24261.99
550.34	24809.68
550.51	24863.51
550.68	24723.08
550.84	24390.72
551.01	24535.84
551.18	24732.44
551.34	24386.04
551.51	24327.53
551.68	24793.29
551.84	24638.82
552.01	24470.30
552.18	24645.84
552.34	24753.51
552.51	24666.91
552.68	24467.96
552.84	24959.47
553.01	24978.20
553.18	24505.41
553.34	24648.18
553.51	25163.10
553.67	25158.42
553.84	24896.28
554.01	24893.94
554.17	24987.56
554.34	24795.64
554.51	24952.45
554.67	24954.79
554.84	24978.20
555.00	25113.95
555.17	24922.02
555.33	25172.46
555.50	24774.57
555.67	25235.66
555.83	24687.97
556.00	24900.96
556.16	25209.91
556.33	24966.49
556.50	24917.34
556.66	25348.00
556.83	24982.88
556.99	25624.18
557.16	25465.03
557.32	25074.16
557.49	25226.29
557.65	25092.88
557.82	25083.52
557.98	24945.43
558.15	24767.55
558.32	25401.83
558.48	25010.96
558.65	25116.29
558.81	24982.88
558.98	24989.90
559.14	24903.30
559.31	25383.11
559.47	25326.94
559.64	25390.13
559.80	25523.54
559.97	25443.96
560.13	25202.89
560.30	25343.32
560.46	25432.26
560.63	25340.98
560.79	25139.69
560.96	25656.95
561.12	25617.16
561.29	25420.56
561.45	25685.04
561.61	25495.46
561.78	25495.46
561.94	25263.74
562.11	25109.27
562.27	25797.38
562.44	25371.41
562.60	25083.52
562.77	25408.86
562.93	25216.93
563.10	25458.01
563.26	25362.04
563.42	25879.30
563.59	25305.87
563.75	25795.04
563.92	25621.84
564.08	25553.97
564.24	25628.87
564.41	25551.63
564.57	25446.30
564.74	25612.48
564.90	25488.43
565.07	25717.81
565.23	25680.36
565.39	25551.63
565.56	25502.48
565.72	25570.35
565.88	25474.39
566.05	25179.48
566.21	25509.50
566.38	25359.70
566.54	25682.70
566.70	25996.33
566.87	25844.20
567.03	25715.47
567.19	25816.11
567.36	25851.22
567.52	25699.08
567.68	25652.27
567.85	25776.32
568.01	25851.22
568.17	25486.09
568.34	25549.29
568.50	25902.71
568.66	25745.89
568.83	26036.12
568.99	25434.60
569.15	25755.26
569.32	25720.15
569.48	25743.55
569.64	25343.32
569.81	25584.40
569.97	25907.39
570.13	25743.55
570.30	25682.70
570.46	25776.32
570.62	25572.69
570.78	25420.56
570.95	25404.17
571.11	25593.76
571.27	25823.13
571.43	25469.71
571.60	25696.74
571.76	25666.31
571.92	25736.53
572.09	25862.92
572.25	25600.78
572.41	25956.54
572.57	25446.30
572.74	25860.58
572.90	25883.98
573.06	25813.77
573.22	25509.50
573.38	26082.93
573.55	25970.58
573.71	26029.10
573.87	25895.69
574.03	25729.51
574.20	25652.27
574.36	25652.27
574.52	25560.99
574.68	25762.28
574.84	25649.93
575.01	25769.30
575.17	25724.83
575.33	25914.41
575.49	25977.61
575.65	25977.61
575.82	26080.59
575.98	25806.75
576.14	25874.62
576.30	26197.62
576.46	25722.49
576.62	25865.26
576.79	26071.23
576.95	25802.07
577.11	26059.52
577.27	25949.52
577.43	26199.96
577.59	25879.30
577.75	25771.64
577.92	25539.93
578.08	25811.43
578.24	25736.53
578.40	25628.87
578.56	26003.35
578.72	26057.18
578.88	26167.19
579.04	26139.10
579.21	26031.44
579.37	26307.62
579.53	25830.15
579.69	25792.70
579.85	25773.98
580.01	26141.44
580.17	26293.58
580.33	25979.95
580.49	25617.16
580.65	26132.08
580.82	26031.44
580.98	25963.56
581.14	25919.09
581.30	26015.05
581.46	25991.65
581.62	25771.64
581.78	26092.29
581.94	25792.70
582.10	25837.17
582.26	25996.33
582.42	26136.76
582.58	25621.84
582.74	26139.10
582.90	26272.51
583.06	26022.08
583.22	25577.37
583.38	25804.41
583.54	25841.85
583.70	25942.50
583.86	26033.78
584.02	25914.41
584.18	25619.50
584.34	26211.66
584.50	26122.72
584.66	26218.68
584.82	25956.54
584.98	26155.49
585.14	25715.47
585.30	25937.82
585.46	25853.56
585.62	25621.84
585.78	26075.91
585.94	25759.94
586.10	25919.09
586.26	26036.12
586.42	26099.31
586.58	26052.50
586.74	25825.47
586.90	25874.62
587.06	26022.08
587.22	26108.68
587.38	25944.84
587.54	26148.46
587.70	26230.38
587.86	26080.59
588.02	25989.31
588.18	26118.04
588.34	25977.61
588.49	25708.44
588.65	25844.20
588.81	25865.26
588.97	26111.02
589.13	26005.69
589.29	25827.81
589.45	26132.08
589.61	26087.61
589.77	26338.05
589.93	26403.58
590.08	26504.23
590.24	26246.77
590.40	26064.21
590.56	26382.52
590.72	26230.38
590.88	26029.10
591.04	26162.51
591.20	26206.98
591.35	26422.31
591.51	26309.96
591.67	25963.56
591.83	26050.16
591.99	26457.42
592.15	26118.04
