SpectraSuite Data File
++++++++++++++++++++++++++++++++++++
Date: Fri Oct 04 11:39:51 GMT-05:00 2013
User: price-jones
Dark Spectrum Present: No
Reference Spectrum Present: No
Number of Sampled Component Spectra: 1
Spectrometers: USB2+H05261
Integration Time (usec): 100000 (USB2+H05261)
Spectra Averaged: 1 (USB2+H05261)
Boxcar Smoothing: 0 (USB2+H05261)
Correct for Electrical Dark: No (USB2+H05261)
Strobe/Lamp Enabled: No (USB2+H05261)
Correct for Detector Non-linearity: No (USB2+H05261)
Correct for Stray Light: No (USB2+H05261)
Number of Pixels in Processed Spectrum: 2048
>>>>>Begin Processed Spectral Data<<<<<
365.73	0.00
365.92	0.00
366.12	0.00
366.32	0.00
366.52	0.00
366.72	0.00
366.91	0.00
367.11	0.00
367.31	0.00
367.51	0.00
367.70	0.00
367.90	0.00
368.10	0.00
368.30	0.00
368.49	0.00
368.69	21.06
368.89	28.09
369.09	0.00
369.28	25.75
369.48	0.00
369.68	2.34
369.87	9.36
370.07	0.00
370.27	0.00
370.47	16.38
370.66	0.00
370.86	58.51
371.06	107.66
371.25	53.83
371.45	102.98
371.65	58.51
371.84	74.90
372.04	35.11
372.24	84.26
372.44	16.38
372.63	84.26
372.83	110.01
373.03	77.24
373.22	49.15
373.42	117.03
373.62	95.96
373.81	175.54
374.01	149.79
374.21	149.79
374.40	86.60
374.60	170.86
374.79	159.16
374.99	177.88
375.19	135.75
375.38	79.58
375.58	93.62
375.78	184.90
375.97	53.83
376.17	208.31
376.37	65.54
376.56	152.13
376.76	159.16
376.95	102.98
377.15	84.26
377.35	25.75
377.54	114.69
377.74	131.07
377.93	117.03
378.13	65.54
378.33	79.58
378.52	140.43
378.72	138.09
378.91	154.48
379.11	149.79
379.31	112.35
379.50	0.00
379.70	91.28
379.89	112.35
380.09	180.22
380.28	74.90
380.48	79.58
380.68	149.79
380.87	42.13
381.07	159.16
381.26	212.99
381.46	217.67
381.65	121.71
381.85	46.81
382.04	142.77
382.24	159.16
382.43	49.15
382.63	65.54
382.83	110.01
383.02	159.16
383.22	156.82
383.41	142.77
383.61	124.05
383.80	88.94
384.00	198.95
384.19	121.71
384.39	102.98
384.58	86.60
384.78	107.66
384.97	25.75
385.17	107.66
385.36	138.09
385.56	72.56
385.75	49.15
385.95	161.50
386.14	67.88
386.34	166.18
386.53	119.37
386.72	131.07
386.92	142.77
387.11	131.07
387.31	168.52
387.50	126.39
387.70	98.30
387.89	100.64
388.09	121.71
388.28	53.83
388.48	142.77
388.67	102.98
388.86	46.81
389.06	177.88
389.25	119.37
389.45	84.26
389.64	131.07
389.84	138.09
390.03	128.73
390.22	93.62
390.42	128.73
390.61	128.73
390.81	140.43
391.00	147.45
391.19	145.11
391.39	147.45
391.58	77.24
391.78	70.22
391.97	163.84
392.16	107.66
392.36	140.43
392.55	112.35
392.75	140.43
392.94	77.24
393.13	184.90
393.33	173.20
393.52	110.01
393.71	191.92
393.91	98.30
394.10	135.75
394.29	133.41
394.49	180.22
394.68	110.01
394.88	126.39
395.07	152.13
395.26	140.43
395.46	81.92
395.65	182.56
395.84	117.03
396.04	138.09
396.23	95.96
396.42	23.41
396.62	74.90
396.81	121.71
397.00	112.35
397.19	81.92
397.39	126.39
397.58	154.48
397.77	156.82
397.97	182.56
398.16	121.71
398.35	100.64
398.55	124.05
398.74	191.92
398.93	135.75
399.12	145.11
399.32	163.84
399.51	138.09
399.70	166.18
399.90	180.22
400.09	81.92
400.28	124.05
400.47	114.69
400.67	194.26
400.86	128.73
401.05	124.05
401.24	105.32
401.44	159.16
401.63	138.09
401.82	74.90
402.01	102.98
402.21	121.71
402.40	182.56
402.59	156.82
402.78	198.95
402.97	105.32
403.17	117.03
403.36	121.71
403.55	135.75
403.74	117.03
403.93	224.69
404.13	290.23
404.32	266.82
404.51	187.24
404.70	229.37
404.89	189.58
405.09	147.45
405.28	170.86
405.47	170.86
405.66	95.96
405.85	138.09
406.05	205.97
406.24	170.86
406.43	135.75
406.62	121.71
406.81	250.44
407.00	177.88
407.20	159.16
407.39	166.18
407.58	163.84
407.77	229.37
407.96	212.99
408.15	184.90
408.34	168.52
408.54	180.22
408.73	170.86
408.92	112.35
409.11	107.66
409.30	173.20
409.49	154.48
409.68	149.79
409.87	128.73
410.07	81.92
410.26	161.50
410.45	63.19
410.64	149.79
410.83	163.84
411.02	128.73
411.21	93.62
411.40	65.54
411.59	65.54
411.78	154.48
411.98	159.16
412.17	128.73
412.36	102.98
412.55	140.43
412.74	168.52
412.93	203.63
413.12	65.54
413.31	152.13
413.50	187.24
413.69	119.37
413.88	159.16
414.07	184.90
414.26	93.62
414.45	156.82
414.64	217.67
414.83	177.88
415.02	180.22
415.22	189.58
415.41	152.13
415.60	124.05
415.79	117.03
415.98	205.97
416.17	145.11
416.36	168.52
416.55	168.52
416.74	198.95
416.93	191.92
417.12	194.26
417.31	77.24
417.50	135.75
417.69	205.97
417.88	95.96
418.07	107.66
418.26	231.71
418.45	110.01
418.64	166.18
418.83	264.48
419.02	156.82
419.21	163.84
419.39	138.09
419.58	124.05
419.77	121.71
419.96	212.99
420.15	154.48
420.34	161.50
420.53	194.26
420.72	159.16
420.91	184.90
421.10	163.84
421.29	159.16
421.48	217.67
421.67	177.88
421.86	196.60
422.05	114.69
422.24	95.96
422.43	145.11
422.61	224.69
422.80	114.69
422.99	159.16
423.18	175.54
423.37	191.92
423.56	133.41
423.75	152.13
423.94	112.35
424.13	126.39
424.32	161.50
424.50	191.92
424.69	212.99
424.88	173.20
425.07	166.18
425.26	152.13
425.45	201.29
425.64	131.07
425.83	152.13
426.01	234.05
426.20	142.77
426.39	119.37
426.58	131.07
426.77	191.92
426.96	161.50
427.15	182.56
427.33	156.82
427.52	117.03
427.71	184.90
427.90	205.97
428.09	156.82
428.28	147.45
428.46	163.84
428.65	112.35
428.84	189.58
429.03	184.90
429.22	70.22
429.40	114.69
429.59	102.98
429.78	243.42
429.97	140.43
430.16	154.48
430.34	152.13
430.53	142.77
430.72	126.39
430.91	203.63
431.10	166.18
431.28	189.58
431.47	105.32
431.66	173.20
431.85	184.90
432.03	208.31
432.22	201.29
432.41	138.09
432.60	227.03
432.79	170.86
432.97	163.84
433.16	100.64
433.35	173.20
433.54	170.86
433.72	112.35
433.91	198.95
434.10	173.20
434.28	220.01
434.47	210.65
434.66	208.31
434.85	212.99
435.03	203.63
435.22	610.88
435.41	1083.67
435.59	1160.91
435.78	809.83
435.97	383.85
436.16	318.31
436.34	191.92
436.53	163.84
436.72	182.56
436.90	163.84
437.09	161.50
437.28	163.84
437.46	163.84
437.65	196.60
437.84	203.63
438.02	198.95
438.21	161.50
438.40	163.84
438.58	112.35
438.77	135.75
438.96	173.20
439.14	117.03
439.33	177.88
439.52	124.05
439.70	191.92
439.89	205.97
440.08	124.05
440.26	184.90
440.45	147.45
440.63	124.05
440.82	184.90
441.01	201.29
441.19	131.07
441.38	126.39
441.57	156.82
441.75	229.37
441.94	236.39
442.12	170.86
442.31	182.56
442.50	187.24
442.68	201.29
442.87	180.22
443.05	184.90
443.24	212.99
443.43	194.26
443.61	124.05
443.80	243.42
443.98	107.66
444.17	147.45
444.35	133.41
444.54	147.45
444.73	224.69
444.91	189.58
445.10	170.86
445.28	168.52
445.47	271.50
445.65	229.37
445.84	156.82
446.02	102.98
446.21	205.97
446.39	191.92
446.58	184.90
446.77	196.60
446.95	198.95
447.14	138.09
447.32	227.03
447.51	194.26
447.69	187.24
447.88	205.97
448.06	166.18
448.25	234.05
448.43	170.86
448.62	191.92
448.80	210.65
448.99	217.67
449.17	161.50
449.36	110.01
449.54	238.73
449.73	191.92
449.91	161.50
450.10	184.90
450.28	234.05
450.46	231.71
450.65	250.44
450.83	285.55
451.02	224.69
451.20	140.43
451.39	138.09
451.57	145.11
451.76	110.01
451.94	163.84
452.13	173.20
452.31	236.39
452.49	229.37
452.68	166.18
452.86	217.67
453.05	173.20
453.23	196.60
453.42	159.16
453.60	140.43
453.78	191.92
453.97	187.24
454.15	142.77
454.34	154.48
454.52	128.73
454.70	271.50
454.89	243.42
455.07	159.16
455.26	229.37
455.44	124.05
455.62	194.26
455.81	201.29
455.99	152.13
456.17	238.73
456.36	159.16
456.54	229.37
456.73	161.50
456.91	180.22
457.09	201.29
457.28	168.52
457.46	173.20
457.64	231.71
457.83	147.45
458.01	147.45
458.19	154.48
458.38	126.39
458.56	177.88
458.74	198.95
458.93	257.46
459.11	252.78
459.29	243.42
459.48	210.65
459.66	229.37
459.84	208.31
460.03	339.38
460.21	203.63
460.39	210.65
460.57	110.01
460.76	234.05
460.94	241.08
461.12	257.46
461.31	212.99
461.49	203.63
461.67	173.20
461.85	236.39
462.04	156.82
462.22	603.86
462.40	220.01
462.59	189.58
462.77	131.07
462.95	166.18
463.13	210.65
463.32	140.43
463.50	152.13
463.68	248.10
463.86	170.86
464.05	198.95
464.23	201.29
464.41	170.86
464.59	156.82
464.78	128.73
464.96	189.58
465.14	212.99
465.32	231.71
465.50	187.24
465.69	276.18
465.87	208.31
466.05	236.39
466.23	131.07
466.41	131.07
466.60	147.45
466.78	56.17
466.96	189.58
467.14	205.97
467.32	208.31
467.51	227.03
467.69	208.31
467.87	184.90
468.05	149.79
468.23	229.37
468.41	290.23
468.60	121.71
468.78	212.99
468.96	184.90
469.14	215.33
469.32	184.90
469.50	208.31
469.69	180.22
469.87	170.86
470.05	187.24
470.23	252.78
470.41	175.54
470.59	170.86
470.77	231.71
470.95	175.54
471.14	210.65
471.32	175.54
471.50	231.71
471.68	215.33
471.86	257.46
472.04	224.69
472.22	201.29
472.40	145.11
472.58	238.73
472.77	131.07
472.95	119.37
473.13	255.12
473.31	238.73
473.49	194.26
473.67	234.05
473.85	159.16
474.03	215.33
474.21	273.84
474.39	222.35
474.57	259.80
474.75	189.58
474.93	126.39
475.12	196.60
475.30	173.20
475.48	180.22
475.66	220.01
475.84	196.60
476.02	250.44
476.20	133.41
476.38	210.65
476.56	205.97
476.74	189.58
476.92	227.03
477.10	161.50
477.28	194.26
477.46	243.42
477.64	243.42
477.82	290.23
478.00	187.24
478.18	201.29
478.36	175.54
478.54	259.80
478.72	215.33
478.90	222.35
479.08	245.76
479.26	264.48
479.44	191.92
479.62	224.69
479.80	248.10
479.98	220.01
480.16	234.05
480.34	205.97
480.52	208.31
480.70	264.48
480.88	243.42
481.06	166.18
481.24	241.08
481.41	222.35
481.59	243.42
481.77	262.14
481.95	198.95
482.13	224.69
482.31	276.18
482.49	285.55
482.67	163.84
482.85	264.48
483.03	187.24
483.21	262.14
483.39	220.01
483.57	294.91
483.74	243.42
483.92	224.69
484.10	187.24
484.28	280.86
484.46	425.98
484.64	273.84
484.82	252.78
485.00	308.95
485.18	250.44
485.35	318.31
485.53	255.12
485.71	341.72
485.89	292.57
486.07	299.59
486.25	276.18
486.43	313.63
486.61	250.44
486.78	304.27
486.96	287.89
487.14	280.86
487.32	280.86
487.50	332.36
487.68	388.53
487.85	304.27
488.03	362.78
488.21	320.65
488.39	365.12
488.57	301.93
488.75	334.70
488.92	533.64
489.10	381.51
489.28	355.76
489.46	339.38
489.64	393.21
489.81	322.99
489.99	320.65
490.17	332.36
490.35	390.87
490.53	341.72
490.70	290.23
490.88	301.93
491.06	365.12
491.24	320.65
491.41	299.59
491.59	325.33
491.77	388.53
491.95	337.04
492.13	320.65
492.30	294.91
492.48	266.82
492.66	222.35
492.84	327.68
493.01	330.02
493.19	355.76
493.37	287.89
493.54	383.85
493.72	245.76
493.90	278.52
494.08	339.38
494.25	306.61
494.43	269.16
494.61	287.89
494.79	311.29
494.96	234.05
495.14	334.70
495.32	294.91
495.49	285.55
495.67	306.61
495.85	313.63
496.02	271.50
496.20	280.86
496.38	224.69
496.55	283.20
496.73	351.08
496.91	311.29
497.09	337.04
497.26	243.42
497.44	301.93
497.62	311.29
497.79	294.91
497.97	292.57
498.14	325.33
498.32	315.97
498.50	339.38
498.67	285.55
498.85	283.20
499.03	269.16
499.20	308.95
499.38	269.16
499.56	271.50
499.73	308.95
499.91	285.55
500.08	278.52
500.26	294.91
500.44	269.16
500.61	306.61
500.79	299.59
500.97	292.57
501.14	259.80
501.32	283.20
501.49	353.42
501.67	306.61
501.84	273.84
502.02	276.18
502.20	304.27
502.37	257.46
502.55	259.80
502.72	315.97
502.90	229.37
503.07	301.93
503.25	231.71
503.43	273.84
503.60	245.76
503.78	182.56
503.95	297.25
504.13	269.16
504.30	320.65
504.48	290.23
504.65	306.61
504.83	395.55
505.01	346.40
505.18	294.91
505.36	304.27
505.53	304.27
505.71	243.42
505.88	313.63
506.06	313.63
506.23	245.76
506.41	257.46
506.58	325.33
506.76	294.91
506.93	241.08
507.11	266.82
507.28	297.25
507.46	266.82
507.63	365.12
507.81	287.89
507.98	297.25
508.16	255.12
508.33	311.29
508.50	280.86
508.68	245.76
508.85	241.08
509.03	290.23
509.20	177.88
509.38	297.25
509.55	294.91
509.73	337.04
509.90	285.55
510.08	266.82
510.25	304.27
510.42	276.18
510.60	287.89
510.77	301.93
510.95	294.91
511.12	262.14
511.30	299.59
511.47	301.93
511.64	318.31
511.82	250.44
511.99	308.95
512.17	271.50
512.34	337.04
512.51	250.44
512.69	283.20
512.86	337.04
513.04	294.91
513.21	276.18
513.38	224.69
513.56	182.56
513.73	245.76
513.90	266.82
514.08	297.25
514.25	262.14
514.43	327.68
514.60	255.12
514.77	308.95
514.95	222.35
515.12	330.02
515.29	341.72
515.47	245.76
515.64	315.97
515.81	287.89
515.99	287.89
516.16	285.55
516.33	248.10
516.51	299.59
516.68	318.31
516.85	210.65
517.03	198.95
517.20	257.46
517.37	271.50
517.54	339.38
517.72	327.68
517.89	299.59
518.06	234.05
518.24	315.97
518.41	334.70
518.58	271.50
518.75	248.10
518.93	287.89
519.10	299.59
519.27	243.42
519.45	353.42
519.62	325.33
519.79	351.08
519.96	383.85
520.14	285.55
520.31	365.12
520.48	287.89
520.65	278.52
520.83	283.20
521.00	259.80
521.17	278.52
521.34	294.91
521.52	290.23
521.69	271.50
521.86	304.27
522.03	271.50
522.20	315.97
522.38	346.40
522.55	269.16
522.72	264.48
522.89	318.31
523.07	332.36
523.24	280.86
523.41	318.31
523.58	365.12
523.75	308.95
523.92	259.80
524.10	381.51
524.27	327.68
524.44	341.72
524.61	243.42
524.78	271.50
524.96	252.78
525.13	285.55
525.30	339.38
525.47	358.10
525.64	266.82
525.81	222.35
525.98	248.10
526.16	299.59
526.33	252.78
526.50	304.27
526.67	313.63
526.84	243.42
527.01	325.33
527.18	266.82
527.36	376.83
527.53	280.86
527.70	187.24
527.87	332.36
528.04	320.65
528.21	287.89
528.38	351.08
528.55	332.36
528.72	332.36
528.89	299.59
529.07	294.91
529.24	294.91
529.41	414.27
529.58	339.38
529.75	248.10
529.92	308.95
530.09	334.70
530.26	322.99
530.43	306.61
530.60	325.33
530.77	304.27
530.94	381.51
531.11	447.04
531.28	365.12
531.46	337.04
531.63	344.06
531.80	266.82
531.97	337.04
532.14	313.63
532.31	306.61
532.48	346.40
532.65	390.87
532.82	358.10
532.99	313.63
533.16	332.36
533.33	311.29
533.50	278.52
533.67	379.17
533.84	285.55
534.01	304.27
534.18	351.08
534.35	313.63
534.52	374.49
534.69	367.46
534.86	351.08
535.03	409.59
535.20	297.25
535.37	348.74
535.54	369.80
535.71	344.06
535.88	351.08
536.05	393.21
536.22	435.34
536.38	358.10
536.55	451.72
536.72	411.93
536.89	411.93
537.06	496.19
537.23	404.91
537.40	395.55
537.57	496.19
537.74	482.15
537.91	409.59
538.08	409.59
538.25	543.00
538.42	528.96
538.59	496.19
538.75	472.79
538.92	552.37
539.09	500.87
539.26	575.77
539.43	613.22
539.60	620.24
539.77	706.84
539.94	751.31
540.11	730.25
540.28	695.14
540.44	795.78
540.61	842.59
540.78	891.74
540.95	1071.97
541.12	1160.91
541.29	1196.01
541.46	1390.28
541.62	1359.85
541.79	1299.00
541.96	1296.66
542.13	1315.38
542.30	1245.16
542.47	1231.12
542.63	1125.80
542.80	1235.80
542.97	1125.80
543.14	1207.72
543.31	1181.97
543.48	1146.86
543.64	1205.38
543.81	1142.18
543.98	1179.63
544.15	1179.63
544.32	1224.10
544.48	1149.20
544.65	1177.29
544.82	1064.94
544.99	1078.99
545.16	1083.67
545.32	1121.12
545.49	1629.01
545.66	2513.74
545.83	3087.17
546.00	2600.34
546.16	1900.52
546.33	1507.30
546.50	1240.48
546.67	976.00
546.83	968.98
547.00	854.30
547.17	840.25
547.34	795.78
547.50	793.44
547.67	835.57
547.84	746.63
548.00	779.40
548.17	718.54
548.34	678.76
548.51	763.01
548.67	795.78
548.84	643.65
549.01	734.93
549.18	713.86
549.34	720.88
549.51	645.99
549.68	713.86
549.84	571.09
550.01	606.20
550.18	648.33
550.34	606.20
550.51	606.20
550.68	580.45
550.84	505.56
551.01	587.47
551.18	552.37
551.34	465.77
551.51	580.45
551.68	538.32
551.84	566.41
552.01	491.51
552.18	482.15
552.34	477.47
552.51	477.47
552.68	468.11
552.84	440.02
553.01	519.60
553.18	437.68
553.34	407.25
553.51	397.89
553.67	484.49
553.84	482.15
554.01	433.00
554.17	503.22
554.34	374.49
554.51	374.49
554.67	447.04
554.84	411.93
555.00	367.46
555.17	388.53
555.33	362.78
555.50	271.50
555.67	484.49
555.83	372.15
556.00	365.12
556.16	447.04
556.33	341.72
556.50	318.31
556.66	337.04
556.83	365.12
556.99	454.06
557.16	362.78
557.32	353.42
557.49	315.97
557.65	360.44
557.82	285.55
557.98	315.97
558.15	313.63
558.32	313.63
558.48	344.06
558.65	341.72
558.81	315.97
558.98	344.06
559.14	381.51
559.31	311.29
559.47	390.87
559.64	327.68
559.80	372.15
559.97	334.70
560.13	383.85
560.30	322.99
560.46	334.70
560.63	322.99
560.79	351.08
560.96	397.89
561.12	428.32
561.29	344.06
561.45	285.55
561.61	421.30
561.78	332.36
561.94	210.65
562.11	320.65
562.27	372.15
562.44	285.55
562.60	360.44
562.77	365.12
562.93	404.91
563.10	285.55
563.26	341.72
563.42	353.42
563.59	386.19
563.75	294.91
563.92	372.15
564.08	344.06
564.24	355.76
564.41	395.55
564.57	339.38
564.74	330.02
564.90	299.59
565.07	358.10
565.23	322.99
565.39	294.91
565.56	332.36
565.72	351.08
565.88	269.16
566.05	355.76
566.21	344.06
566.38	330.02
566.54	341.72
566.70	351.08
566.87	346.40
567.03	276.18
567.19	348.74
567.36	327.68
567.52	306.61
567.68	390.87
567.85	322.99
568.01	306.61
568.17	360.44
568.34	304.27
568.50	313.63
568.66	304.27
568.83	372.15
568.99	257.46
569.15	325.33
569.32	360.44
569.48	348.74
569.64	250.44
569.81	306.61
569.97	290.23
570.13	301.93
570.30	322.99
570.46	339.38
570.62	287.89
570.78	360.44
570.95	283.20
571.11	325.33
571.27	311.29
571.43	266.82
571.60	318.31
571.76	241.08
571.92	360.44
572.09	355.76
572.25	332.36
572.41	337.04
572.57	292.57
572.74	280.86
572.90	327.68
573.06	376.83
573.22	369.80
573.38	290.23
573.55	276.18
573.71	330.02
573.87	337.04
574.03	353.42
574.20	346.40
574.36	348.74
574.52	220.01
574.68	322.99
574.84	292.57
575.01	348.74
575.17	327.68
575.33	348.74
575.49	278.52
575.65	278.52
575.82	376.83
575.98	388.53
576.14	330.02
576.30	444.70
576.46	538.32
576.62	826.21
576.79	802.80
576.95	748.97
577.11	543.00
577.27	468.11
577.43	433.00
577.59	339.38
577.75	341.72
577.92	332.36
578.08	372.15
578.24	339.38
578.40	414.27
578.56	564.07
578.72	837.91
578.88	851.96
579.04	671.73
579.21	582.79
579.37	491.51
579.53	463.43
579.69	496.19
579.85	463.43
580.01	461.09
580.17	496.19
580.33	409.59
580.49	486.83
580.65	386.19
580.82	514.92
580.98	435.34
581.14	435.34
581.30	507.90
581.46	428.32
581.62	428.32
581.78	503.22
581.94	477.47
582.10	521.94
582.26	477.47
582.42	500.87
582.58	468.11
582.74	528.96
582.90	550.03
583.06	505.56
583.22	528.96
583.38	568.75
583.54	554.71
583.70	500.87
583.86	500.87
584.02	517.26
584.18	545.34
584.34	568.75
584.50	493.85
584.66	465.77
584.82	458.74
584.98	543.00
585.14	458.74
585.30	585.13
585.46	454.06
585.62	526.62
585.78	486.83
585.94	475.13
586.10	407.25
586.26	472.79
586.42	500.87
586.58	531.30
586.74	617.90
586.90	660.03
587.06	702.16
587.22	706.84
587.38	685.78
587.54	657.69
587.70	589.82
587.86	594.50
588.02	489.17
588.18	428.32
588.34	393.21
588.49	418.96
588.65	341.72
588.81	423.64
588.97	365.12
589.13	379.17
589.29	395.55
589.45	449.38
589.61	348.74
589.77	456.40
589.93	486.83
590.08	390.87
590.24	468.11
590.40	437.68
590.56	362.78
590.72	437.68
590.88	404.91
591.04	430.66
591.20	360.44
591.35	493.85
591.51	393.21
591.67	451.72
591.83	528.96
591.99	533.64
592.15	519.60
592.31	510.24
592.46	557.05
592.62	568.75
592.78	571.09
592.94	561.73
593.10	580.45
593.26	533.64
593.41	489.17
593.57	514.92
593.73	390.87
593.89	521.94
594.05	435.34
594.20	351.08
594.36	461.09
594.52	440.02
594.68	379.17
594.84	418.96
594.99	421.30
595.15	444.70
595.31	376.83
595.47	433.00
595.62	344.06
595.78	409.59
595.94	454.06
596.10	437.68
596.25	353.42
596.41	444.70
596.57	435.34
596.73	360.44
596.88	348.74
597.04	325.33
597.20	297.25
597.36	369.80
597.51	346.40
597.67	358.10
597.83	367.46
597.99	367.46
598.14	409.59
598.30	430.66
598.46	430.66
598.61	557.05
598.77	477.47
598.93	433.00
599.09	416.62
599.24	472.79
599.40	409.59
599.56	475.13
599.71	468.11
599.87	407.25
600.03	407.25
600.18	369.80
600.34	416.62
600.50	414.27
600.65	386.19
600.81	433.00
600.97	416.62
601.12	404.91
601.28	369.80
601.44	353.42
601.59	362.78
601.75	435.34
601.91	332.36
602.06	362.78
602.22	369.80
602.37	332.36
602.53	388.53
602.69	334.70
602.84	313.63
603.00	322.99
603.16	416.62
603.31	393.21
603.47	374.49
603.62	400.23
603.78	388.53
603.94	416.62
604.09	355.76
604.25	330.02
604.40	397.89
604.56	308.95
604.71	433.00
604.87	416.62
605.03	407.25
605.18	425.98
605.34	416.62
605.49	351.08
605.65	344.06
605.80	325.33
605.96	414.27
606.12	372.15
606.27	451.72
606.43	423.64
606.58	407.25
606.74	421.30
606.89	337.04
607.05	458.74
607.20	409.59
607.36	491.51
607.51	407.25
607.67	395.55
607.82	456.40
607.98	484.49
608.13	547.69
608.29	421.30
608.44	568.75
608.60	484.49
608.75	533.64
608.91	557.05
609.06	667.05
609.22	589.82
609.37	622.58
609.53	695.14
609.68	737.27
609.84	802.80
609.99	880.04
610.15	931.53
610.30	1242.82
610.46	1439.43
610.61	1722.63
610.76	2183.72
610.92	2581.61
