SpectraSuite Data File
++++++++++++++++++++++++++++++++++++
Date: Fri Oct 04 11:40:04 GMT-05:00 2013
User: price-jones
Dark Spectrum Present: No
Reference Spectrum Present: No
Number of Sampled Component Spectra: 1
Spectrometers: USB2+H05261
Integration Time (usec): 100000 (USB2+H05261)
Spectra Averaged: 1 (USB2+H05261)
Boxcar Smoothing: 0 (USB2+H05261)
Correct for Electrical Dark: No (USB2+H05261)
Strobe/Lamp Enabled: No (USB2+H05261)
Correct for Detector Non-linearity: No (USB2+H05261)
Correct for Stray Light: No (USB2+H05261)
Number of Pixels in Processed Spectrum: 2048
>>>>>Begin Processed Spectral Data<<<<<
365.73	46.81
365.92	46.81
366.12	46.81
366.32	0.00
366.52	0.00
366.72	0.00
366.91	0.00
367.11	0.00
367.31	0.00
367.51	0.00
367.70	0.00
367.90	0.00
368.10	0.00
368.30	0.00
368.49	0.00
368.69	0.00
368.89	0.00
369.09	0.00
369.28	0.00
369.48	0.00
369.68	0.00
369.87	0.00
370.07	9.36
370.27	39.79
370.47	18.72
370.66	16.38
370.86	79.58
371.06	63.19
371.25	91.28
371.45	86.60
371.65	114.69
371.84	53.83
372.04	72.56
372.24	84.26
372.44	121.71
372.63	138.09
372.83	196.60
373.03	105.32
373.22	145.11
373.42	117.03
373.62	100.64
373.81	128.73
374.01	117.03
374.21	175.54
374.40	114.69
374.60	91.28
374.79	110.01
374.99	147.45
375.19	166.18
375.38	170.86
375.58	105.32
375.78	191.92
375.97	224.69
376.17	128.73
376.37	100.64
376.56	128.73
376.76	152.13
376.95	102.98
377.15	152.13
377.35	117.03
377.54	166.18
377.74	131.07
377.93	180.22
378.13	248.10
378.33	145.11
378.52	175.54
378.72	175.54
378.91	110.01
379.11	86.60
379.31	173.20
379.50	133.41
379.70	201.29
379.89	140.43
380.09	124.05
380.28	91.28
380.48	112.35
380.68	133.41
380.87	133.41
381.07	159.16
381.26	177.88
381.46	84.26
381.65	159.16
381.85	142.77
382.04	180.22
382.24	175.54
382.43	88.94
382.63	105.32
382.83	86.60
383.02	184.90
383.22	208.31
383.41	79.58
383.61	138.09
383.80	140.43
384.00	140.43
384.19	152.13
384.39	208.31
384.58	107.66
384.78	147.45
384.97	86.60
385.17	95.96
385.36	147.45
385.56	187.24
385.75	88.94
385.95	121.71
386.14	180.22
386.34	198.95
386.53	177.88
386.72	140.43
386.92	177.88
387.11	163.84
387.31	135.75
387.50	131.07
387.70	140.43
387.89	128.73
388.09	91.28
388.28	119.37
388.48	135.75
388.67	203.63
388.86	196.60
389.06	98.30
389.25	149.79
389.45	147.45
389.64	212.99
389.84	149.79
390.03	126.39
390.22	145.11
390.42	180.22
390.61	154.48
390.81	74.90
391.00	201.29
391.19	180.22
391.39	187.24
391.58	196.60
391.78	163.84
391.97	93.62
392.16	102.98
392.36	177.88
392.55	161.50
392.75	177.88
392.94	133.41
393.13	198.95
393.33	163.84
393.52	177.88
393.71	173.20
393.91	142.77
394.10	154.48
394.29	175.54
394.49	182.56
394.68	147.45
394.88	159.16
395.07	187.24
395.26	145.11
395.46	145.11
395.65	175.54
395.84	170.86
396.04	278.52
396.23	102.98
396.42	149.79
396.62	114.69
396.81	236.39
397.00	196.60
397.19	128.73
397.39	180.22
397.58	189.58
397.77	191.92
397.97	215.33
398.16	156.82
398.35	177.88
398.55	128.73
398.74	168.52
398.93	236.39
399.12	210.65
399.32	112.35
399.51	215.33
399.70	212.99
399.90	250.44
400.09	152.13
400.28	280.86
400.47	210.65
400.67	217.67
400.86	234.05
401.05	215.33
401.24	215.33
401.44	241.08
401.63	262.14
401.82	231.71
402.01	145.11
402.21	177.88
402.40	236.39
402.59	205.97
402.78	163.84
402.97	173.20
403.17	248.10
403.36	262.14
403.55	212.99
403.74	168.52
403.93	308.95
404.13	411.93
404.32	320.65
404.51	304.27
404.70	252.78
404.89	220.01
405.09	292.57
405.28	161.50
405.47	194.26
405.66	220.01
405.85	304.27
406.05	140.43
406.24	248.10
406.43	308.95
406.62	264.48
406.81	306.61
407.00	334.70
407.20	301.93
407.39	334.70
407.58	290.23
407.77	292.57
407.96	362.78
408.15	299.59
408.34	215.33
408.54	234.05
408.73	285.55
408.92	306.61
409.11	320.65
409.30	337.04
409.49	327.68
409.68	301.93
409.87	320.65
410.07	315.97
410.26	339.38
410.45	325.33
410.64	320.65
410.83	308.95
411.02	280.86
411.21	294.91
411.40	311.29
411.59	301.93
411.78	418.96
411.98	325.33
412.17	344.06
412.36	322.99
412.55	348.74
412.74	376.83
412.93	451.72
413.12	322.99
413.31	355.76
413.50	283.20
413.69	435.34
413.88	360.44
414.07	358.10
414.26	341.72
414.45	379.17
414.64	344.06
414.83	425.98
415.02	360.44
415.22	397.89
415.41	383.85
415.60	388.53
415.79	454.06
415.98	470.45
416.17	388.53
416.36	414.27
416.55	425.98
416.74	496.19
416.93	475.13
417.12	414.27
417.31	400.23
417.50	374.49
417.69	482.15
417.88	369.80
418.07	428.32
418.26	465.77
418.45	479.81
418.64	564.07
418.83	468.11
419.02	486.83
419.21	489.17
419.39	573.43
419.58	437.68
419.77	486.83
419.96	489.17
420.15	397.89
420.34	491.51
420.53	521.94
420.72	489.17
420.91	524.28
421.10	465.77
421.29	543.00
421.48	512.58
421.67	554.71
421.86	512.58
422.05	430.66
422.24	500.87
422.43	472.79
422.61	500.87
422.80	510.24
422.99	564.07
423.18	512.58
423.37	601.52
423.56	545.34
423.75	479.81
423.94	557.05
424.13	458.74
424.32	484.49
424.50	472.79
424.69	507.90
424.88	552.37
425.07	521.94
425.26	416.62
425.45	538.32
425.64	519.60
425.83	582.79
426.01	601.52
426.20	622.58
426.39	561.73
426.58	517.26
426.77	482.15
426.96	606.20
427.15	575.77
427.33	498.53
427.52	531.30
427.71	526.62
427.90	510.24
428.09	521.94
428.28	573.43
428.46	552.37
428.65	641.31
428.84	603.86
429.03	535.98
429.22	622.58
429.40	533.64
429.59	589.82
429.78	554.71
429.97	550.03
430.16	461.09
430.34	554.71
430.53	573.43
430.72	568.75
430.91	550.03
431.10	578.11
431.28	594.50
431.47	589.82
431.66	596.84
431.85	603.86
432.03	601.52
432.22	690.46
432.41	697.48
432.60	690.46
432.79	503.22
432.97	589.82
433.16	641.31
433.35	594.50
433.54	615.56
433.72	641.31
433.91	631.94
434.10	636.63
434.28	671.73
434.47	645.99
434.66	657.69
434.85	678.76
435.03	760.67
435.22	1060.26
435.41	1343.47
435.59	1409.00
435.78	1174.95
435.97	868.34
436.16	830.89
436.34	695.14
436.53	617.90
436.72	692.80
436.90	676.41
437.09	739.61
437.28	641.31
437.46	671.73
437.65	774.72
437.84	692.80
438.02	713.86
438.21	716.20
438.40	631.94
438.58	690.46
438.77	669.39
438.96	702.16
439.14	791.10
439.33	758.33
439.52	704.50
439.70	755.99
439.89	748.97
440.08	727.91
440.26	746.63
440.45	777.06
440.63	767.70
440.82	777.06
441.01	718.54
441.19	812.17
441.38	709.18
441.57	812.17
441.75	837.91
441.94	791.10
442.12	793.44
442.31	725.57
442.50	791.10
442.68	777.06
442.87	828.55
443.05	786.42
443.24	812.17
443.43	732.59
443.61	875.36
443.80	814.51
443.98	767.70
444.17	746.63
444.35	784.08
444.54	809.83
444.73	774.72
444.91	856.64
445.10	795.78
445.28	751.31
445.47	821.53
445.65	873.02
445.84	772.38
446.02	945.58
446.21	784.08
446.39	931.53
446.58	887.06
446.77	840.25
446.95	847.27
447.14	807.48
447.32	887.06
447.51	866.00
447.69	828.55
447.88	844.93
448.06	908.13
448.25	805.14
448.43	821.53
448.62	702.16
448.80	823.87
448.99	887.06
449.17	828.55
449.36	800.46
449.54	896.43
449.73	854.30
449.91	924.51
450.10	912.81
450.28	961.96
450.46	950.26
450.65	983.02
450.83	980.68
451.02	875.36
451.20	854.30
451.39	908.13
451.57	978.34
451.76	819.19
451.94	947.92
452.13	957.28
452.31	990.05
452.49	971.32
452.68	889.40
452.86	931.53
453.05	924.51
453.23	917.49
453.42	868.34
453.60	917.49
453.78	896.43
453.97	840.25
454.15	964.30
454.34	898.77
454.52	912.81
454.70	966.64
454.89	968.98
455.07	985.37
455.26	987.71
455.44	1083.67
455.62	983.02
455.81	987.71
455.99	957.28
456.17	938.55
456.36	985.37
456.54	980.68
456.73	952.60
456.91	1046.22
457.09	1041.54
457.28	1064.94
457.46	1020.47
457.64	952.60
457.83	1020.47
458.01	940.90
458.19	1048.56
458.38	983.02
458.56	966.64
458.74	978.34
458.93	1015.79
459.11	950.26
459.29	1018.13
459.48	1015.79
459.66	1018.13
459.84	1018.13
460.03	1048.56
460.21	1062.60
460.39	980.68
460.57	1046.22
460.76	1050.90
460.94	1008.77
461.12	1128.14
461.31	1039.20
461.49	1128.14
461.67	1069.62
461.85	1093.03
462.04	1043.88
462.22	1507.30
462.40	1090.69
462.59	1167.93
462.77	1067.28
462.95	1097.71
463.13	1071.97
463.32	1167.93
463.50	1128.14
463.68	1114.10
463.86	1111.75
464.05	1055.58
464.23	1118.78
464.41	1088.35
464.59	1069.62
464.78	1109.41
464.96	1135.16
465.14	1088.35
465.32	1139.84
465.50	1198.35
465.69	1198.35
465.87	1153.88
466.05	1132.82
466.23	1123.46
466.41	1062.60
466.60	1158.57
466.78	1083.67
466.96	1181.97
467.14	1125.80
467.32	1205.38
467.51	1296.66
467.69	1116.44
467.87	1116.44
468.05	1067.28
468.23	1149.20
468.41	1128.14
468.60	1104.73
468.78	1188.99
468.96	1170.27
469.14	1167.93
469.32	1210.06
469.50	1125.80
469.69	1142.18
469.87	1282.61
470.05	1247.51
470.23	1186.65
470.41	1186.65
470.59	1181.97
470.77	1261.55
470.95	1235.80
471.14	1280.27
471.32	1174.95
471.50	1254.53
471.68	1268.57
471.86	1327.08
472.04	1301.34
472.22	1334.11
472.40	1240.48
472.58	1270.91
472.77	1294.32
472.95	1331.76
473.13	1453.47
473.31	1273.25
473.49	1306.02
473.67	1320.06
473.85	1273.25
474.03	1355.17
474.21	1399.64
474.39	1359.85
474.57	1380.92
474.75	1348.15
474.93	1338.79
475.12	1343.47
475.30	1308.36
475.48	1439.43
475.66	1380.92
475.84	1364.53
476.02	1291.98
476.20	1409.00
476.38	1420.71
476.56	1441.77
476.74	1357.51
476.92	1411.34
477.10	1336.45
477.28	1439.43
477.46	1411.34
477.64	1427.73
477.82	1488.58
478.00	1516.67
478.18	1511.99
478.36	1439.43
478.54	1507.30
478.72	1549.43
478.90	1565.82
479.08	1526.03
479.26	1612.63
479.44	1666.46
479.62	1535.39
479.80	1537.73
479.98	1584.54
480.16	1631.35
480.34	1631.35
480.52	1631.35
480.70	1624.33
480.88	1600.93
481.06	1537.73
481.24	1645.40
481.41	1699.23
481.59	1767.10
481.77	1717.95
481.95	1692.21
482.13	1856.04
482.31	1809.23
482.49	1750.72
482.67	1802.21
482.85	1774.13
483.03	1774.13
483.21	1823.28
483.39	1856.04
483.57	1900.52
483.74	1879.45
483.92	1820.94
484.10	1842.00
484.28	1914.56
484.46	2026.90
484.64	2036.27
484.82	1996.48
485.00	1996.48
485.18	1970.73
485.35	2050.31
485.53	1994.14
485.71	2045.63
485.89	2066.69
486.07	1947.33
486.25	2050.31
486.43	2125.21
486.61	2150.95
486.78	2139.25
486.96	2136.91
487.14	2225.85
487.32	2176.70
487.50	2174.36
487.68	2162.66
487.85	2207.13
488.03	2380.32
488.21	2314.79
488.39	2296.07
488.57	2307.77
488.75	2286.70
488.92	2612.04
489.10	2410.75
489.28	2361.60
489.46	2314.79
489.64	2284.36
489.81	2497.35
489.99	2408.41
490.17	2303.09
490.35	2363.94
490.53	2424.80
490.70	2370.96
490.88	2511.39
491.06	2525.44
491.24	2473.95
491.41	2492.67
491.59	2565.23
491.77	2532.46
491.95	2504.37
492.13	2525.44
492.30	2605.02
492.48	2572.25
492.66	2504.37
492.84	2621.40
493.01	2525.44
493.19	2586.29
493.37	2614.38
493.54	2633.10
493.72	2766.51
493.90	2726.72
494.08	2717.36
494.25	2700.98
494.43	2705.66
494.61	2780.56
494.79	2789.92
494.96	2780.56
495.14	2731.41
495.32	2675.23
495.49	2803.96
495.67	2668.21
495.85	2801.62
496.02	2825.03
496.20	2773.53
496.38	2946.73
496.55	2890.56
496.73	2883.54
496.91	2932.69
497.09	3066.10
497.26	2883.54
497.44	2876.52
497.62	2867.16
497.79	2906.95
497.97	2899.92
498.14	3059.08
498.32	2995.89
498.50	2885.88
498.67	3005.25
498.85	3012.27
499.03	3040.36
499.20	3049.72
499.38	3042.70
499.56	3061.42
499.73	3035.67
499.91	3122.27
500.08	3138.66
500.26	3208.87
500.44	3096.53
500.61	3178.45
500.79	3101.21
500.97	3117.59
501.14	3187.81
501.32	3122.27
501.49	3290.79
501.67	3183.13
501.84	3251.00
502.02	3171.43
502.20	3325.90
502.37	3382.07
502.55	3155.04
502.72	3096.53
502.90	3288.45
503.07	3262.71
503.25	3323.56
503.43	3197.17
503.60	3361.01
503.78	3269.73
503.95	3356.33
504.13	3234.62
504.30	3236.96
504.48	3295.47
504.65	3428.88
504.83	3431.23
505.01	3407.82
505.18	3290.79
505.36	3321.22
505.53	3258.03
505.71	3421.86
505.88	3428.88
506.06	3475.70
506.23	3389.10
506.41	3499.10
506.58	3414.84
506.76	3602.08
506.93	3433.57
507.11	3531.87
507.28	3513.14
507.46	3447.61
507.63	3574.00
507.81	3489.74
507.98	3559.95
508.16	3566.98
508.33	3480.38
508.50	3583.36
508.68	3620.81
508.85	3623.15
509.03	3496.76
509.20	3428.88
509.38	3672.30
509.55	3705.07
509.73	3775.28
509.90	3744.86
510.08	3644.21
510.25	3583.36
510.42	3751.88
510.60	3559.95
510.77	3702.73
510.95	3742.52
511.12	3742.52
511.30	3761.24
511.47	3592.72
511.64	3859.54
511.82	3744.86
511.99	3557.61
512.17	3667.62
512.34	3669.96
512.51	3791.67
512.69	3943.80
512.86	3831.46
513.04	3824.44
513.21	3864.22
513.38	3852.52
513.56	3922.74
513.73	3911.04
513.90	3747.20
514.08	3932.10
514.25	3831.46
514.43	3964.87
514.60	4018.70
514.77	3925.08
514.95	3805.71
515.12	3805.71
515.29	3864.22
515.47	3915.72
515.64	3985.93
515.81	3962.53
515.99	4067.85
516.16	4018.70
516.33	4173.18
516.51	3889.97
516.68	4011.68
516.85	3922.74
517.03	3936.78
517.20	4025.72
517.37	4095.94
517.54	4004.66
517.72	4035.08
517.89	4028.06
518.06	4044.45
518.24	4032.74
518.41	4109.98
518.58	4093.60
518.75	4222.33
518.93	4088.92
519.10	4133.39
519.27	4138.07
519.45	4105.30
519.62	4248.07
519.79	4187.22
519.96	4152.11
520.14	4236.37
520.31	4205.94
520.48	4177.86
520.65	4212.96
520.83	4264.46
521.00	4304.25
521.17	4173.18
521.34	4173.18
521.52	4266.80
521.69	4170.83
521.86	4250.41
522.03	4320.63
522.20	4166.15
522.38	4182.54
522.55	4283.18
522.72	4262.12
522.89	4322.97
523.07	4386.16
523.24	4297.22
523.41	4435.32
523.58	4308.93
523.75	4355.74
523.92	4421.27
524.10	4353.40
524.27	4444.68
524.44	4526.60
524.61	4582.77
524.78	4287.86
524.96	4407.23
525.13	4362.76
525.30	4542.98
525.47	4402.55
525.64	4535.96
525.81	4425.95
525.98	4447.02
526.16	4395.53
526.33	4526.60
526.50	4482.13
526.67	4348.72
526.84	4451.70
527.01	4435.32
527.18	4425.95
527.36	4559.36
527.53	4465.74
527.70	4596.81
527.87	4620.22
528.04	4629.58
528.21	4648.30
528.38	4667.03
528.55	4578.09
528.72	4610.86
528.89	4592.13
529.07	4542.98
529.24	4381.48
529.41	4629.58
529.58	4493.83
529.75	4631.92
529.92	4538.30
530.09	4447.02
530.26	4760.65
530.43	4662.35
530.60	4669.37
530.77	4585.11
530.94	4655.33
531.11	4535.96
531.28	4578.09
531.46	4491.49
531.63	4580.43
531.80	4695.11
531.97	4631.92
532.14	4791.08
532.31	4697.46
532.48	4751.29
532.65	4751.29
532.82	4762.99
532.99	4624.90
533.16	4730.22
533.33	4662.35
533.50	4784.06
533.67	4716.18
533.84	4802.78
534.01	4826.18
534.18	4772.35
534.35	4770.01
534.52	4915.12
534.69	4702.14
534.86	4779.37
535.03	4678.73
535.20	4802.78
535.37	4891.72
535.54	4840.23
535.71	4667.03
535.88	4760.65
536.05	4753.63
536.22	4821.50
536.38	4889.38
536.55	5027.47
536.72	4898.74
536.89	4863.63
537.06	4882.36
537.23	5011.09
537.40	4975.98
537.57	4805.12
537.74	4922.15
537.91	4975.98
538.08	4891.72
538.25	4947.89
538.42	5013.43
538.59	5118.75
538.75	5067.26
538.92	4997.04
539.09	5029.81
539.26	5015.77
539.43	4961.94
539.60	5050.88
539.77	5090.67
539.94	5261.52
540.11	5287.27
540.28	5313.02
540.44	5294.29
540.61	5465.15
540.78	5327.06
540.95	5469.83
541.12	5647.71
541.29	5841.98
541.46	5764.74
541.62	5703.89
541.79	5921.56
541.96	5851.34
542.13	5734.31
542.30	5778.78
542.47	5774.10
542.63	5717.93
542.80	5724.95
542.97	5783.46
543.14	5802.19
543.31	5750.70
543.48	5694.52
543.64	5923.90
543.81	5762.40
543.98	5689.84
544.15	5837.30
544.32	5715.59
544.48	5767.08
544.65	5731.97
544.82	5724.95
544.99	5673.46
545.16	5673.46
545.32	5727.29
545.49	6452.86
545.66	7007.56
545.83	7258.00
546.00	7103.53
546.16	6209.44
546.33	6111.14
546.50	5816.23
546.67	5687.50
546.83	5535.37
547.00	5514.30
547.17	5575.16
547.34	5554.09
547.50	5500.26
547.67	5521.32
547.84	5624.31
548.00	5575.16
548.17	5535.37
548.34	5413.66
548.51	5561.11
548.67	5584.52
548.84	5511.96
549.01	5596.22
549.18	5376.21
549.34	5401.96
549.51	5392.59
549.68	5408.98
549.84	5483.88
550.01	5549.41
550.18	5481.53
550.34	5533.03
550.51	5621.97
550.68	5390.25
550.84	5268.55
551.01	5366.85
551.18	5425.36
551.34	5465.15
551.51	5310.68
551.68	5411.32
551.84	5266.21
552.01	5404.30
552.18	5392.59
552.34	5397.28
552.51	5394.93
552.68	5390.25
552.84	5338.76
553.01	5401.96
553.18	5378.55
553.34	5432.38
553.51	5343.44
553.67	5472.17
553.84	5633.67
554.01	5467.49
554.17	5434.72
554.34	5261.52
554.51	5369.19
554.67	5252.16
554.84	5373.87
555.00	5392.59
555.17	5355.15
555.33	5334.08
555.50	5305.99
555.67	5504.94
555.83	5331.74
556.00	5369.19
556.16	5406.64
556.33	5401.96
556.50	5158.54
556.66	5313.02
556.83	5179.61
556.99	5385.57
557.16	5343.44
557.32	5362.17
557.49	5263.86
557.65	5217.05
557.82	5261.52
557.98	5376.21
558.15	5451.11
558.32	5521.32
558.48	5291.95
558.65	5263.86
558.81	5364.51
558.98	5247.48
559.14	5308.34
559.31	5324.72
559.47	5259.18
559.64	5317.70
559.80	5493.24
559.97	5343.44
560.13	5439.40
560.30	5371.53
560.46	5582.18
560.63	5458.13
560.79	5434.72
560.96	5401.96
561.12	5392.59
561.29	5275.57
561.45	5497.92
561.61	5378.55
561.78	5500.26
561.94	5369.19
562.11	5547.07
562.27	5224.08
562.44	5385.57
562.60	5233.44
562.77	5378.55
562.93	5413.66
563.10	5313.02
563.26	5301.31
563.42	5617.29
563.59	5427.70
563.75	5345.78
563.92	5530.69
564.08	5217.05
564.24	5472.17
564.41	5348.12
564.57	5568.13
564.74	5469.83
564.90	5458.13
565.07	5394.93
565.23	5397.28
565.39	5423.02
565.56	5401.96
565.72	5420.68
565.88	5444.09
566.05	5369.19
566.21	5331.74
566.38	5249.82
566.54	5383.23
566.70	5551.75
566.87	5462.81
567.03	5296.63
567.19	5530.69
567.36	5324.72
567.52	5500.26
567.68	5310.68
567.85	5245.14
568.01	5359.83
568.17	5296.63
568.34	5533.03
568.50	5490.90
568.66	5392.59
568.83	5416.00
568.99	5514.30
569.15	5526.00
569.32	5352.81
569.48	5612.60
569.64	5334.08
569.81	5350.46
569.97	5446.43
570.13	5495.58
570.30	5432.38
570.46	5338.76
570.62	5397.28
570.78	5441.75
570.95	5322.38
571.11	5493.24
571.27	5376.21
571.43	5334.08
571.60	5444.09
571.76	5371.53
571.92	5404.30
572.09	5612.60
572.25	5551.75
572.41	5373.87
572.57	5497.92
572.74	5502.60
572.90	5497.92
573.06	5399.62
573.22	5432.38
573.38	5638.35
573.55	5401.96
573.71	5453.45
573.87	5537.71
574.03	5343.44
574.20	5467.49
574.36	5427.70
574.52	5542.39
574.68	5490.90
574.84	5453.45
575.01	5469.83
575.17	5373.87
575.33	5547.07
575.49	5329.40
575.65	5298.97
575.82	5441.75
575.98	5420.68
576.14	5324.72
576.30	5465.15
576.46	5596.22
576.62	5738.99
576.79	5851.34
576.95	5624.31
577.11	5540.05
577.27	5556.43
577.43	5476.85
577.59	5465.15
577.75	5418.34
577.92	5430.04
578.08	5404.30
578.24	5345.78
578.40	5455.79
578.56	5600.90
578.72	5804.53
578.88	5830.27
579.04	5720.27
579.21	5423.02
579.37	5610.26
579.53	5575.16
579.69	5401.96
579.85	5458.13
580.01	5596.22
580.17	5626.65
580.33	5556.43
580.49	5565.79
580.65	5413.66
580.82	5509.62
580.98	5547.07
581.14	5549.41
581.30	5387.91
581.46	5479.19
581.62	5526.00
581.78	5432.38
581.94	5568.13
582.10	5565.79
582.26	5558.77
582.42	5556.43
582.58	5481.53
582.74	5675.80
582.90	5614.95
583.06	5678.14
583.22	5638.35
583.38	5600.90
583.54	5603.24
583.70	5767.08
583.86	5516.64
584.02	5549.41
584.18	5577.50
584.34	5795.17
584.50	5584.52
584.66	5535.37
584.82	5659.42
584.98	5434.72
585.14	5582.18
585.30	5516.64
585.46	5497.92
585.62	5418.34
585.78	5563.45
585.94	5465.15
586.10	5633.67
586.26	5537.71
586.42	5701.54
586.58	5589.20
586.74	5722.61
586.90	5776.44
587.06	5617.29
587.22	5743.67
587.38	5839.64
587.54	5699.20
587.70	5788.14
587.86	5788.14
588.02	5778.78
588.18	5708.57
588.34	5577.50
588.49	5617.29
588.65	5518.98
588.81	5336.42
588.97	5504.94
589.13	5514.30
589.29	5387.91
589.45	5533.03
589.61	5502.60
589.77	5336.42
589.93	5654.73
590.08	5518.98
590.24	5600.90
590.40	5659.42
590.56	5533.03
590.72	5516.64
590.88	5591.54
591.04	5582.18
591.20	5591.54
591.35	5664.10
591.51	5518.98
591.67	5596.22
591.83	5661.76
591.99	5554.09
592.15	5680.48
592.31	5607.92
592.46	5666.44
592.62	5774.10
592.78	5680.48
592.94	5811.55
593.10	5930.92
593.26	5659.42
593.41	5689.84
593.57	5568.13
593.73	5724.95
593.89	5586.86
594.05	5530.69
594.20	5467.49
594.36	5577.50
594.52	5549.41
594.68	5448.77
594.84	5493.24
594.99	5476.85
595.15	5530.69
595.31	5600.90
595.47	5507.28
595.62	5579.84
595.78	5490.90
595.94	5710.91
596.10	5502.60
596.25	5483.88
596.41	5394.93
596.57	5605.58
596.73	5650.05
596.88	5331.74
597.04	5598.56
597.20	5535.37
597.36	5631.33
597.51	5469.83
597.67	5617.29
597.83	5526.00
597.99	5575.16
598.14	5514.30
598.30	5694.52
598.46	5535.37
598.61	5699.20
598.77	5472.17
598.93	5582.18
599.09	5682.82
599.24	5764.74
599.40	5603.24
599.56	5638.35
599.71	5547.07
599.87	5668.78
600.03	5577.50
600.18	5313.02
600.34	5701.54
600.50	5453.45
600.65	5643.03
600.81	5540.05
600.97	5579.84
601.12	5256.84
601.28	5621.97
601.44	5432.38
