SpectraSuite Data File
++++++++++++++++++++++++++++++++++++
Date: Fri Oct 04 11:39:25 GMT-05:00 2013
User: price-jones
Dark Spectrum Present: No
Reference Spectrum Present: No
Number of Sampled Component Spectra: 1
Spectrometers: USB2+H05261
Integration Time (usec): 100000 (USB2+H05261)
Spectra Averaged: 1 (USB2+H05261)
Boxcar Smoothing: 0 (USB2+H05261)
Correct for Electrical Dark: No (USB2+H05261)
Strobe/Lamp Enabled: No (USB2+H05261)
Correct for Detector Non-linearity: No (USB2+H05261)
Correct for Stray Light: No (USB2+H05261)
Number of Pixels in Processed Spectrum: 2048
>>>>>Begin Processed Spectral Data<<<<<
365.73	56.17
365.92	56.17
366.12	56.17
366.32	0.00
366.52	0.00
366.72	0.00
366.91	0.00
367.11	0.00
367.31	0.00
367.51	0.00
367.70	0.00
367.90	0.00
368.10	0.00
368.30	0.00
368.49	0.00
368.69	0.00
368.89	0.00
369.09	0.00
369.28	35.11
369.48	0.00
369.68	2.34
369.87	0.00
370.07	37.45
370.27	112.35
370.47	63.19
370.66	220.01
370.86	241.08
371.06	170.86
371.25	346.40
371.45	220.01
371.65	301.93
371.84	337.04
372.04	285.55
372.24	381.51
372.44	301.93
372.63	308.95
372.83	353.42
373.03	280.86
373.22	304.27
373.42	320.65
373.62	297.25
373.81	337.04
374.01	404.91
374.21	381.51
374.40	393.21
374.60	374.49
374.79	393.21
374.99	322.99
375.19	376.83
375.38	376.83
375.58	372.15
375.78	402.57
375.97	383.85
376.17	425.98
376.37	416.62
376.56	430.66
376.76	365.12
376.95	383.85
377.15	367.46
377.35	437.68
377.54	390.87
377.74	388.53
377.93	435.34
378.13	395.55
378.33	425.98
378.52	437.68
378.72	418.96
378.91	374.49
379.11	414.27
379.31	456.40
379.50	374.49
379.70	489.17
379.89	411.93
380.09	416.62
380.28	416.62
380.48	402.57
380.68	409.59
380.87	372.15
381.07	402.57
381.26	454.06
381.46	451.72
381.65	449.38
381.85	507.90
382.04	381.51
382.24	470.45
382.43	435.34
382.63	486.83
382.83	465.77
383.02	482.15
383.22	528.96
383.41	447.04
383.61	535.98
383.80	496.19
384.00	463.43
384.19	479.81
384.39	526.62
384.58	454.06
384.78	447.04
384.97	463.43
385.17	484.49
385.36	451.72
385.56	514.92
385.75	531.30
385.95	533.64
386.14	477.47
386.34	585.13
386.53	545.34
386.72	580.45
386.92	606.20
387.11	617.90
387.31	557.05
387.50	559.39
387.70	493.85
387.89	617.90
388.09	519.60
388.28	610.88
388.48	545.34
388.67	554.71
388.86	564.07
389.06	608.54
389.25	683.44
389.45	613.22
389.64	634.29
389.84	627.26
390.03	704.50
390.22	599.18
390.42	566.41
390.61	589.82
390.81	566.41
391.00	706.84
391.19	685.78
391.39	638.97
391.58	580.45
391.78	615.56
391.97	657.69
392.16	606.20
392.36	643.65
392.55	627.26
392.75	676.41
392.94	671.73
393.13	709.18
393.33	713.86
393.52	645.99
393.71	676.41
393.91	645.99
394.10	758.33
394.29	706.84
394.49	706.84
394.68	784.08
394.88	784.08
395.07	779.40
395.26	786.42
395.46	753.65
395.65	788.76
395.84	849.61
396.04	919.83
396.23	847.27
396.42	798.12
396.62	835.57
396.81	748.97
397.00	753.65
397.19	851.96
397.39	866.00
397.58	880.04
397.77	830.89
397.97	933.87
398.16	924.51
398.35	1011.11
398.55	912.81
398.74	896.43
398.93	940.90
399.12	1015.79
399.32	954.94
399.51	968.98
399.70	880.04
399.90	1064.94
400.09	992.39
400.28	1060.26
400.47	990.05
400.67	1053.24
400.86	966.64
401.05	1025.15
401.24	1041.54
401.44	940.90
401.63	1001.75
401.82	1053.24
402.01	1093.03
402.21	1111.75
402.40	1090.69
402.59	1174.95
402.78	1069.62
402.97	1188.99
403.17	1280.27
403.36	1153.88
403.55	1266.23
403.74	1170.27
403.93	1322.40
404.13	1203.04
404.32	1308.36
404.51	1165.59
404.70	1329.42
404.89	1294.32
405.09	1322.40
405.28	1235.80
405.47	1310.70
405.66	1343.47
405.85	1348.15
406.05	1329.42
406.24	1310.70
406.43	1275.59
406.62	1392.62
406.81	1369.21
407.00	1366.87
407.20	1432.41
407.39	1397.30
407.58	1430.07
407.77	1446.45
407.96	1509.65
408.15	1561.14
408.34	1486.24
408.54	1542.41
408.73	1629.01
408.92	1577.52
409.11	1619.65
409.30	1652.42
409.49	1668.80
409.68	1614.97
409.87	1694.55
410.07	1727.32
410.26	1671.14
410.45	1827.96
410.64	1647.74
410.83	1713.27
411.02	1900.52
411.21	1778.81
411.40	1996.48
411.59	1722.63
411.78	1891.15
411.98	1799.87
412.17	1944.99
412.36	1916.90
412.55	1930.94
412.74	2026.90
412.93	2003.50
413.12	1926.26
413.31	2015.20
413.50	1998.82
413.69	2047.97
413.88	2232.87
414.07	2179.04
414.26	2230.53
414.45	2141.59
414.64	2155.63
414.83	2179.04
415.02	2256.28
415.22	2228.19
415.41	2452.88
415.60	2218.83
415.79	2406.07
415.98	2450.54
416.17	2303.09
416.36	2314.79
416.55	2359.26
416.74	2417.77
416.93	2525.44
417.12	2558.21
417.31	2562.89
417.50	2469.27
417.69	2684.59
417.88	2614.38
418.07	2597.99
418.26	2626.08
418.45	2733.75
418.64	2743.11
418.83	2719.70
419.02	2686.94
419.21	2773.53
419.39	2787.58
419.58	2771.19
419.77	2792.26
419.96	2743.11
420.15	2850.77
420.34	2684.59
420.53	2848.43
420.72	2876.52
420.91	2773.53
421.10	2951.42
421.29	2958.44
421.48	3023.97
421.67	2967.80
421.86	3040.36
422.05	3073.12
422.24	3023.97
422.43	3052.06
422.61	2981.84
422.80	3241.64
422.99	3066.10
423.18	3119.93
423.37	3014.61
423.56	3133.98
423.75	3117.59
423.94	3098.87
424.13	2974.82
424.32	2967.80
424.50	3229.94
424.69	3187.81
424.88	3145.68
425.07	3141.00
425.26	3192.49
425.45	3030.99
425.64	3272.07
425.83	3103.55
426.01	3187.81
426.20	3307.18
426.39	3229.94
426.58	3213.56
426.77	3267.39
426.96	3148.02
427.15	3215.90
427.33	3290.79
427.52	3276.75
427.71	3396.12
427.90	3332.92
428.09	3274.41
428.28	3241.64
428.46	3442.93
428.65	3571.66
428.84	3456.97
429.03	3541.23
429.22	3365.69
429.40	3541.23
429.59	3482.72
429.78	3440.59
429.97	3478.04
430.16	3480.38
430.34	3555.27
430.53	3655.92
430.72	3527.19
430.91	3543.57
431.10	3538.89
431.28	3707.41
431.47	3742.52
431.66	3751.88
431.85	3758.90
432.03	3796.35
432.22	3915.72
432.41	3819.75
432.60	3812.73
432.79	3838.48
432.97	3779.97
433.16	3885.29
433.35	3808.05
433.54	3854.86
433.72	3885.29
433.91	3779.97
434.10	3829.12
434.28	3878.27
434.47	3920.40
434.66	3950.82
434.85	4011.68
435.03	4119.34
435.22	4107.64
435.41	4545.32
435.59	4393.19
435.78	4484.47
435.97	4166.15
436.16	4159.13
436.34	4159.13
436.53	4234.03
436.72	4266.80
436.90	4177.86
437.09	4208.28
437.28	4166.15
437.46	4170.83
437.65	4245.73
437.84	4308.93
438.02	4327.65
438.21	4395.53
438.40	4273.82
438.58	4521.92
438.77	4423.61
438.96	4510.21
439.14	4655.33
439.33	4631.92
439.52	4568.73
439.70	4734.90
439.89	4746.61
440.08	4685.75
440.26	4772.35
440.45	4814.48
440.63	4880.02
440.82	4912.78
441.01	4798.10
441.19	4945.55
441.38	4917.47
441.57	4908.10
441.75	5022.79
441.94	5095.35
442.12	5132.79
442.31	5245.14
442.50	5224.08
442.68	5020.45
442.87	5132.79
443.05	5275.57
443.24	5338.76
443.43	5200.67
443.61	5401.96
443.80	5434.72
443.98	5163.22
444.17	5228.76
444.35	5315.36
444.54	5488.56
444.73	5373.87
444.91	5266.21
445.10	5217.05
445.28	5336.42
445.47	5270.89
445.65	5509.62
445.84	5420.68
446.02	5453.45
446.21	5434.72
446.39	5235.78
446.58	5448.77
446.77	5376.21
446.95	5308.34
447.14	5404.30
447.32	5537.71
447.51	5455.79
447.69	5418.34
447.88	5364.51
448.06	5579.84
448.25	5533.03
448.43	5500.26
448.62	5497.92
448.80	5563.45
448.99	5652.39
449.17	5624.31
449.36	5572.82
449.54	5806.87
449.73	5731.97
449.91	5724.95
450.10	5781.12
450.28	5767.08
450.46	5792.83
450.65	6038.58
450.83	5921.56
451.02	5870.06
451.20	5769.42
451.39	5884.11
451.57	5914.53
451.76	5963.68
451.94	5870.06
452.13	6012.84
452.31	6148.59
452.49	5640.69
452.68	5853.68
452.86	5991.77
453.05	6164.97
453.23	6169.65
453.42	6162.63
453.60	5853.68
453.78	6022.20
453.97	6026.88
454.15	6232.85
454.34	6012.84
454.52	6202.42
454.70	6181.35
454.89	6251.57
455.07	6244.55
455.26	6251.57
455.44	6387.32
455.62	6349.87
455.81	6366.26
455.99	6516.05
456.17	6544.14
456.36	6410.73
456.54	6504.35
456.73	6516.05
456.91	6665.85
457.09	6562.86
457.28	6525.41
457.46	6670.53
457.64	6668.19
457.83	6757.13
458.01	6715.00
458.19	6698.61
458.38	6803.94
458.56	6958.41
458.74	6707.98
458.93	6757.13
459.11	6904.58
459.29	6885.86
459.48	6878.83
459.66	6902.24
459.84	7288.43
460.03	7152.68
460.21	7119.91
460.39	7124.59
460.57	7054.37
460.76	6958.41
460.94	7178.42
461.12	7047.35
461.31	7133.95
461.49	7243.96
461.67	7131.61
461.85	7344.60
462.04	7084.80
462.22	7449.93
462.40	7501.42
462.59	7300.13
462.77	7541.21
462.95	7447.58
463.13	7438.22
463.32	7452.27
463.50	7606.74
463.68	7414.82
463.86	7543.55
464.05	7384.39
464.23	7375.03
464.41	7625.47
464.59	7417.16
464.78	7882.92
464.96	7639.51
465.14	7583.34
465.32	7562.27
465.50	7709.72
465.69	7829.09
465.87	7662.91
466.05	7691.00
466.23	7653.55
466.41	7590.36
466.60	8107.62
466.78	7873.56
466.96	7719.09
467.14	7772.92
467.32	7761.22
467.51	8133.36
467.69	7817.39
467.87	8011.65
468.05	8021.02
468.23	8009.31
468.41	7997.61
468.60	8180.17
468.78	8133.36
468.96	7950.80
469.14	8219.96
469.32	8060.80
469.50	8039.74
469.69	8386.14
469.87	8533.59
470.05	8435.29
470.23	8327.63
470.41	8372.10
470.59	8430.61
470.77	8461.04
470.95	8507.85
471.14	8669.34
471.32	8383.80
471.50	8699.77
471.68	8622.53
471.86	8643.60
472.04	8868.29
472.22	8856.59
472.40	8582.74
472.58	8945.53
472.77	8978.30
472.95	8908.08
473.13	9188.94
473.31	8959.57
473.49	8950.21
473.67	9074.26
473.85	8964.25
474.03	9266.18
474.21	9329.38
474.39	9434.70
474.57	9399.59
474.75	9423.00
474.93	9572.79
475.12	9507.26
475.30	9619.60
475.48	9551.73
475.66	9694.50
475.84	9806.84
476.02	10022.17
476.20	9930.89
476.38	9973.02
476.56	10228.14
476.74	10132.18
476.92	10040.90
477.10	10068.98
477.28	10223.46
477.46	10164.95
477.64	10546.45
477.82	10604.97
478.00	10619.01
478.18	10677.52
478.36	10796.89
478.54	10892.85
478.72	10874.13
478.90	10909.24
479.08	10963.07
479.26	11131.59
479.44	11229.89
479.62	11529.48
479.80	11316.49
479.98	11480.33
480.16	11534.16
480.34	11468.62
480.52	11761.19
480.70	11946.09
480.88	11733.11
481.06	11939.07
481.24	11861.84
481.41	12212.92
481.59	12184.83
481.77	12201.21
481.95	12355.69
482.13	12369.73
482.31	12376.75
482.49	12484.42
482.67	12695.07
482.85	12922.10
483.03	13004.02
483.21	13226.37
483.39	13231.05
483.57	13193.60
483.74	13425.31
483.92	13593.83
484.10	13446.38
484.28	13783.41
484.46	14094.71
484.64	14225.78
484.82	13769.37
485.00	14045.55
485.18	14377.91
485.35	14640.05
485.53	14258.54
485.71	14642.39
485.89	14834.32
486.07	14740.69
486.25	14909.21
486.43	14965.39
486.61	15229.87
486.78	15051.99
486.96	15295.40
487.14	15620.74
487.32	15419.45
487.50	15522.43
487.68	15676.91
487.85	15917.98
488.03	16264.38
488.21	16250.34
488.39	16367.37
488.57	16570.99
488.75	16463.33
488.92	16901.01
489.10	17156.13
489.28	17018.04
489.46	16959.52
489.64	17060.16
489.81	17404.22
489.99	17514.23
490.17	17619.55
490.35	17511.89
490.53	17701.47
490.70	17905.10
490.88	17827.86
491.06	18331.08
491.24	17977.65
491.41	18281.92
491.59	18312.35
491.77	18403.63
491.95	18857.70
492.13	19089.41
492.30	18623.64
492.48	18810.89
492.66	19115.16
492.84	19105.79
493.01	19379.64
493.19	19527.09
493.37	19662.84
493.54	19538.79
493.72	19803.27
493.90	19735.40
494.08	20271.38
494.25	20322.87
494.43	20208.19
494.61	20081.80
494.79	20278.40
494.96	20685.65
495.14	20886.94
495.32	20879.92
495.49	20807.36
495.67	20807.36
495.85	21209.93
496.02	21546.97
496.20	21776.34
496.38	21516.54
496.55	21502.50
496.73	21654.64
496.91	21654.64
497.09	22218.71
497.26	22265.52
497.44	21986.99
497.62	22258.49
497.79	22618.94
497.97	22424.67
498.14	22625.96
498.32	22665.75
498.50	22745.33
498.67	23035.55
498.85	22850.65
499.03	23082.36
499.20	23489.62
499.38	23204.07
499.56	23190.03
499.73	23623.03
499.91	23576.22
500.08	23943.68
500.26	23545.79
500.44	23779.84
500.61	24016.24
500.79	23950.70
500.97	23988.15
501.14	24496.05
501.32	24156.67
501.49	24137.94
501.67	24369.66
501.84	24212.84
502.02	24772.23
502.20	24856.49
502.37	25305.87
502.55	24936.07
502.72	24882.24
502.90	24706.70
503.07	24762.87
503.25	25263.74
503.43	24851.81
503.60	25439.28
503.78	25369.07
503.95	25352.68
504.13	25652.27
504.30	25549.29
504.48	25883.98
504.65	25799.73
504.83	25942.50
505.01	26202.30
505.18	25778.66
505.36	26188.25
505.53	26153.15
505.71	26396.56
505.88	26192.94
506.06	26389.54
506.23	26242.09
506.41	26647.00
506.58	26658.70
506.76	26780.41
506.93	26614.23
507.11	26593.17
507.28	27070.64
507.46	27089.36
507.63	27124.47
507.81	27292.99
507.98	26951.27
508.16	26974.67
508.33	27405.33
508.50	27538.74
508.68	27765.78
508.85	27714.28
509.03	27606.62
509.20	27541.08
509.38	28268.99
509.55	28423.47
509.73	28390.70
509.90	28421.13
510.08	28037.28
510.25	28493.68
510.42	28301.76
510.60	28732.42
510.77	29036.69
510.95	28842.42
511.12	28531.13
511.30	28465.60
511.47	28978.17
511.64	28816.68
511.82	28891.57
511.99	29132.65
512.17	29397.13
512.34	29516.50
512.51	29429.90
512.69	29397.13
512.86	29738.85
513.04	29923.75
513.21	29685.01
513.38	29832.47
513.56	30150.78
513.73	29759.91
513.90	30061.84
514.08	29968.22
514.25	30178.87
514.43	30448.03
514.60	30597.82
514.77	30431.65
514.95	30616.55
515.12	30565.06
515.29	30703.15
515.47	30270.15
515.64	30984.01
515.81	30494.84
515.99	31047.21
516.16	31290.62
516.33	31072.95
516.51	31321.05
516.68	31335.09
516.85	31077.63
517.03	31213.38
517.20	31807.88
517.37	31131.47
517.54	31686.17
517.72	31894.48
517.89	31700.22
518.06	31351.48
518.24	31714.26
518.41	31859.37
518.58	31948.31
518.75	31882.78
518.93	31740.00
519.10	31725.96
519.27	32126.19
519.45	31880.44
519.62	32615.37
519.79	32655.15
519.96	32659.84
520.14	32631.75
520.31	32208.11
520.48	32884.53
520.65	32882.19
520.83	33078.79
521.00	33193.48
521.17	32587.28
521.34	32779.20
521.52	33034.32
521.69	33036.66
521.86	33553.92
522.03	33350.29
522.20	33570.30
522.38	33429.87
522.55	33354.97
522.72	33378.38
522.89	33493.07
523.07	34169.48
523.24	33933.09
523.41	33989.26
523.58	33787.97
523.75	34129.69
523.92	33855.85
524.10	34141.39
524.27	34181.18
524.44	34724.19
524.61	34616.52
524.78	34443.32
524.96	34618.86
525.13	34483.11
525.30	34780.36
525.47	34885.68
525.64	34724.19
525.81	35061.22
525.98	34691.42
526.16	34735.89
526.33	34904.41
526.50	35009.73
526.67	34572.05
526.84	34761.64
527.01	35040.16
527.18	35229.74
527.36	35428.69
527.53	35463.80
527.70	35529.33
527.87	35847.64
528.04	35311.66
528.21	35835.94
528.38	35271.87
528.55	35833.60
528.72	35344.43
528.89	35791.47
529.07	35967.01
529.24	35725.94
529.41	35901.48
529.58	36023.19
529.75	36009.14
529.92	36172.98
530.09	36175.32
530.26	36610.66
530.43	36528.74
530.60	36320.43
530.77	36385.97
530.94	36945.36
531.11	36376.61
531.28	36306.39
531.46	36615.34
531.63	36470.23
531.80	37003.87
531.97	36964.08
532.14	37216.86
532.31	36786.20
532.48	36919.61
532.65	37301.12
532.82	36400.01
532.99	37062.38
533.16	36985.15
533.33	37130.26
533.50	37589.00
533.67	37504.74
533.84	37172.39
534.01	37083.45
534.18	36935.99
534.35	37556.24
534.52	37628.79
534.69	37525.81
534.86	38043.07
535.03	37603.05
535.20	37535.17
535.37	38094.56
535.54	37862.85
535.71	37820.72
535.88	37799.65
536.05	38394.15
536.22	38096.90
536.38	38148.39
536.55	38455.00
536.72	38227.97
536.89	37890.93
537.06	37944.76
537.23	38438.62
537.40	38225.63
537.57	38618.84
537.74	38457.34
537.91	38586.07
538.08	38667.99
538.25	38387.13
538.42	38728.84
538.59	38909.07
538.75	38646.93
538.92	38370.74
539.09	38862.26
539.26	38932.47
539.43	38955.88
539.60	39482.50
539.77	39531.65
539.94	39557.39
540.11	39379.51
540.28	39344.41
540.44	39541.01
540.61	39384.19
540.78	39358.45
540.95	39854.64
541.12	39505.90
541.29	39849.96
541.46	39966.99
541.62	39318.66
541.79	40037.20
541.96	39711.87
542.13	39978.69
542.30	40252.53
542.47	40456.16
542.63	40369.56
542.80	40222.11
542.97	40425.73
543.14	40610.64
543.31	40411.69
543.48	40343.81
543.64	40421.05
543.81	41195.77
543.98	40479.57
544.15	40739.36
544.32	40882.14
544.48	40968.74
544.65	40739.36
544.82	40680.85
544.99	40601.27
545.16	40849.37
545.32	40711.28
545.49	41584.30
545.66	42202.20
545.83	42007.94
546.00	42199.86
546.16	41799.63
546.33	40711.28
546.50	40896.18
546.67	41043.63
546.83	40545.10
547.00	41268.33
547.17	40858.73
547.34	41333.86
547.50	41163.00
547.67	41546.85
547.84	41109.17
548.00	41811.33
548.17	41488.34
548.34	41209.81
548.51	41787.92
548.67	41691.96
548.84	41406.42
549.01	41553.87
549.18	41542.17
549.34	41766.86
549.51	41839.42
549.68	41113.85
549.84	41495.36
550.01	41603.02
550.18	41708.35
550.34	42223.26
550.51	42408.17
550.68	42087.51
550.84	41394.71
551.01	42277.10
551.18	41558.55
551.34	42211.56
551.51	41563.23
551.68	41965.81
551.84	42246.67
552.01	41792.61
552.18	42139.00
552.34	41975.17
552.51	42061.77
552.68	42120.28
552.84	41808.99
553.01	41975.17
553.18	42515.83
553.34	42197.52
553.51	41989.21
553.67	42436.25
553.84	42784.99
554.01	42691.37
554.17	42703.07
554.34	42178.79
554.51	42274.76
554.67	42579.03
554.84	42450.30
555.00	42419.87
555.17	42532.22
555.33	42979.26
555.50	42852.87
555.67	42466.68
555.83	42625.84
556.00	42237.31
556.16	42672.65
556.33	42361.36
556.50	42710.10
556.66	43185.22
556.83	42951.17
556.99	43313.95
557.16	42962.87
557.32	42834.14
557.49	42997.98
557.65	43012.02
557.82	42700.73
557.98	43248.42
558.15	42920.74
558.32	43484.81
558.48	43234.38
558.65	43199.27
558.81	43021.39
558.98	43079.90
559.14	43040.11
559.31	42745.20
559.47	42911.38
559.64	43730.57
559.80	43325.66
559.97	43510.56
560.13	43070.54
560.30	43477.79
560.46	43058.84
560.63	43531.62
560.79	43285.87
560.96	43257.78
561.12	43344.38
561.29	43372.47
561.45	43625.25
561.61	43629.93
561.78	43793.76
561.94	43526.94
562.11	43742.27
562.27	43552.69
562.44	43363.11
562.60	43515.24
562.77	43648.65
562.93	43793.76
563.10	43826.53
563.26	43775.04
563.42	44053.56
563.59	43746.95
563.75	43913.13
563.92	43768.02
564.08	43449.70
564.24	43761.00
564.41	43440.34
564.57	43276.51
564.74	43636.95
564.90	43835.89
565.07	43721.21
565.23	43672.06
565.39	43608.86
565.56	44261.87
565.72	43859.30
565.88	43798.44
566.05	43606.52
566.21	43597.16
566.38	43517.58
566.54	43810.15
566.70	44076.97
566.87	44102.71
567.03	43756.32
567.19	44411.67
567.36	44222.08
567.52	43910.79
567.68	44507.63
567.85	44175.27
568.01	44060.58
568.17	44039.52
568.34	44102.71
568.50	44264.21
568.66	43927.17
568.83	44107.40
568.99	44142.50
569.15	44086.33
569.32	43772.70
569.48	43688.44
569.64	44261.87
569.81	44051.22
569.97	44177.61
570.13	44465.50
570.30	44027.82
570.46	44147.18
570.62	44311.02
570.78	44020.80
570.95	44130.80
571.11	44278.25
571.27	43817.17
571.43	44076.97
571.60	44374.22
571.76	44065.27
571.92	44261.87
572.09	44390.60
572.25	44531.03
572.41	44467.84
572.57	44271.23
572.74	44479.54
572.90	44168.25
573.06	44531.03
573.22	44519.33
573.38	44304.00
573.55	44055.90
573.71	44559.12
573.87	44002.07
574.03	44257.19
574.20	44264.21
574.36	44060.58
574.52	44350.81
574.68	44301.66
574.84	44474.86
575.01	44154.21
575.17	44467.84
575.33	44374.22
575.49	44224.42
575.65	44875.09
575.82	44556.78
575.98	44102.71
576.14	44409.32
576.30	44294.64
576.46	44395.28
576.62	44369.54
576.79	44360.17
576.95	44847.00
577.11	44601.25
577.27	44587.21
577.43	44107.40
577.59	44037.18
577.75	44076.97
577.92	44058.24
578.08	44374.22
578.24	44203.36
578.40	44692.53
578.56	44690.19
578.72	44638.70
578.88	44856.37
579.04	44804.88
579.21	44421.03
579.37	44779.13
579.53	44519.33
579.69	44212.72
579.85	44875.09
580.01	44641.04
580.17	44538.05
580.33	44048.88
580.49	44926.58
580.65	44781.47
580.82	45038.93
580.98	44790.83
581.14	44563.80
581.30	44973.39
581.46	44123.78
581.62	43959.94
581.78	44575.50
581.94	44439.75
582.10	44477.20
582.26	44985.10
582.42	44854.03
582.58	44690.19
582.74	44732.32
582.90	44601.25
583.06	45022.54
583.22	44360.17
583.38	44626.99
583.54	44275.91
583.70	44371.88
583.86	44774.45
584.02	44666.78
584.18	44708.91
584.34	44821.26
584.50	44851.69
584.66	45003.82
584.82	44896.16
584.98	44900.84
585.14	44547.42
585.30	44648.06
585.46	44875.09
585.62	44690.19
585.78	44877.43
585.94	44641.04
586.10	44706.57
586.26	44835.30
586.42	45081.06
586.58	44973.39
586.74	44992.12
586.90	44584.86
587.06	44718.28
587.22	44842.32
587.38	44418.69
587.54	44701.89
587.70	44851.69
587.86	44980.42
588.02	44732.32
588.18	45237.87
588.34	44631.68
588.49	44561.46
588.65	44582.52
588.81	44507.63
588.97	44758.06
589.13	44428.05
589.29	45200.43
589.45	45015.52
589.61	44905.52
589.77	45109.14
589.93	45277.66
590.08	45359.58
590.24	45394.69
590.40	45078.72
590.56	45347.88
590.72	44896.16
590.88	44577.84
