SpectraSuite Data File
++++++++++++++++++++++++++++++++++++
Date: Fri Oct 04 11:40:06 GMT-05:00 2013
User: price-jones
Dark Spectrum Present: No
Reference Spectrum Present: No
Number of Sampled Component Spectra: 1
Spectrometers: USB2+H05261
Integration Time (usec): 100000 (USB2+H05261)
Spectra Averaged: 1 (USB2+H05261)
Boxcar Smoothing: 0 (USB2+H05261)
Correct for Electrical Dark: No (USB2+H05261)
Strobe/Lamp Enabled: No (USB2+H05261)
Correct for Detector Non-linearity: No (USB2+H05261)
Correct for Stray Light: No (USB2+H05261)
Number of Pixels in Processed Spectrum: 2048
>>>>>Begin Processed Spectral Data<<<<<
365.73	51.49
365.92	51.49
366.12	51.49
366.32	0.00
366.52	0.00
366.72	0.00
366.91	0.00
367.11	0.00
367.31	2.34
367.51	0.00
367.70	0.00
367.90	0.00
368.10	0.00
368.30	0.00
368.49	0.00
368.69	0.00
368.89	0.00
369.09	0.00
369.28	0.00
369.48	39.79
369.68	0.00
369.87	0.00
370.07	7.02
370.27	42.13
370.47	161.50
370.66	482.15
370.86	484.49
371.06	648.33
371.25	713.86
371.45	524.28
371.65	430.66
371.84	472.79
372.04	456.40
372.24	557.05
372.44	645.99
372.63	545.34
372.83	514.92
373.03	517.26
373.22	493.85
373.42	416.62
373.62	617.90
373.81	606.20
374.01	580.45
374.21	554.71
374.40	540.66
374.60	559.39
374.79	545.34
374.99	741.95
375.19	758.33
375.38	692.80
375.58	699.82
375.78	660.03
375.97	685.78
376.17	760.67
376.37	746.63
376.56	748.97
376.76	732.59
376.95	765.36
377.15	830.89
377.35	910.47
377.54	919.83
377.74	880.04
377.93	854.30
378.13	807.48
378.33	844.93
378.52	755.99
378.72	814.51
378.91	770.04
379.11	725.57
379.31	657.69
379.50	823.87
379.70	805.14
379.89	770.04
380.09	821.53
380.28	821.53
380.48	788.76
380.68	779.40
380.87	896.43
381.07	744.29
381.26	725.57
381.46	681.10
381.65	645.99
381.85	667.05
382.04	650.67
382.24	566.41
382.43	664.71
382.63	575.77
382.83	615.56
383.02	653.01
383.22	615.56
383.41	554.71
383.61	587.47
383.80	699.82
384.00	678.76
384.19	870.68
384.39	741.95
384.58	807.48
384.78	791.10
384.97	823.87
385.17	837.91
385.36	837.91
385.56	844.93
385.75	734.93
385.95	819.19
386.14	828.55
386.34	863.66
386.53	931.53
386.72	784.08
386.92	798.12
387.11	938.55
387.31	873.02
387.50	833.23
387.70	809.83
387.89	842.59
388.09	812.17
388.28	802.80
388.48	821.53
388.67	910.47
388.86	940.90
389.06	994.73
389.25	1029.84
389.45	1046.22
389.64	997.07
389.84	1102.39
390.03	1088.35
390.22	1011.11
390.42	1025.15
390.61	1125.80
390.81	1078.99
391.00	1125.80
391.19	1245.16
391.39	1062.60
391.58	1184.31
391.78	1144.52
391.97	1191.33
392.16	894.08
392.36	959.62
392.55	744.29
392.75	596.84
392.94	526.62
393.13	547.69
393.33	554.71
393.52	711.52
393.71	915.15
393.91	980.68
394.10	1027.50
394.29	1050.90
394.49	1100.05
394.68	1289.64
394.88	1235.80
395.07	1362.19
395.26	1329.42
395.46	1167.93
395.65	1193.67
395.84	1090.69
396.04	901.11
396.23	842.59
396.42	667.05
396.62	671.73
396.81	788.76
397.00	931.53
397.19	1078.99
397.39	1207.72
397.58	1406.66
397.77	1537.73
397.97	1547.09
398.16	1577.52
398.35	1533.05
398.55	1596.25
398.74	1699.23
398.93	1692.21
399.12	1629.01
399.32	1563.48
399.51	1659.44
399.70	1755.40
399.90	1746.04
400.09	1713.27
400.28	1603.27
400.47	1764.76
400.67	1799.87
400.86	1865.41
401.05	1797.53
401.24	1816.26
401.44	1944.99
401.63	1912.22
401.82	1923.92
402.01	1895.83
402.21	1900.52
402.40	1982.43
402.59	1851.36
402.78	1750.72
402.97	1743.70
403.17	1895.83
403.36	1902.86
403.55	1930.94
403.74	1975.41
403.93	1886.47
404.13	1736.68
404.32	1757.74
404.51	1891.15
404.70	1968.39
404.89	1930.94
405.09	1916.90
405.28	1905.20
405.47	1813.92
405.66	1804.55
405.85	1863.07
406.05	1750.72
406.24	1839.66
406.43	1877.11
406.62	1872.43
406.81	1968.39
407.00	1884.13
407.20	1802.21
407.39	1797.53
407.58	1923.92
407.77	1893.49
407.96	2001.16
408.15	1954.35
408.34	2134.57
408.54	2150.95
408.73	2139.25
408.92	2085.42
409.11	2122.87
409.30	1905.20
409.49	1914.56
409.68	1753.06
409.87	1736.68
410.07	1783.49
410.26	1963.71
410.45	1968.39
410.64	2127.55
410.83	2141.59
411.02	2232.87
411.21	2385.01
411.40	2197.76
411.59	2298.41
411.78	2319.47
411.98	2221.17
412.17	2298.41
412.36	2303.09
412.55	2347.56
412.74	2188.40
412.93	2193.08
413.12	2108.82
413.31	2307.77
413.50	2349.90
413.69	2277.34
413.88	2221.17
414.07	2214.15
414.26	2237.55
414.45	2272.66
414.64	2368.62
414.83	2312.45
415.02	2375.64
415.22	2385.01
415.41	2368.62
415.60	2417.77
415.79	2532.46
415.98	2551.18
416.17	2558.21
416.36	2565.23
416.55	2499.69
416.74	2389.69
416.93	2377.98
417.12	2279.68
417.31	2354.58
417.50	2356.92
417.69	2434.16
417.88	2422.45
418.07	2424.80
418.26	2382.67
418.45	2485.65
418.64	2504.37
418.83	2597.99
419.02	2480.97
419.21	2665.87
419.39	2497.35
419.58	2305.43
419.77	2296.07
419.96	2534.80
420.15	2548.84
420.34	2541.82
420.53	2675.23
420.72	2677.57
420.91	2642.46
421.10	2736.09
421.29	2665.87
421.48	2539.48
421.67	2700.98
421.86	2553.52
422.05	2424.80
422.24	2202.44
422.43	2237.55
422.61	2331.17
422.80	2513.74
422.99	2609.70
423.18	2441.18
423.37	2602.68
423.56	2579.27
423.75	2523.10
423.94	2480.97
424.13	2429.48
424.32	2443.52
424.50	2438.84
424.69	2504.37
424.88	2576.93
425.07	2457.56
425.26	2385.01
425.45	2375.64
425.64	2469.27
425.83	2326.49
426.01	2469.27
426.20	2644.81
426.39	2506.71
426.58	2408.41
426.77	2263.30
426.96	2267.98
427.15	2232.87
427.33	2424.80
427.52	2434.16
427.71	2532.46
427.90	2349.90
428.09	2333.51
428.28	2272.66
428.46	2389.69
428.65	2333.51
428.84	2319.47
429.03	2300.75
429.22	2249.25
429.40	2129.89
429.59	1947.33
429.78	1790.51
429.97	1806.89
430.16	1816.26
430.34	1818.60
430.53	1881.79
430.72	1811.57
430.91	1987.11
431.10	2162.66
431.28	2621.40
431.47	2764.17
431.66	2787.58
431.85	2668.21
432.03	2361.60
432.22	2413.09
432.41	2380.32
432.60	2675.23
432.79	2729.06
432.97	2909.29
433.16	2752.47
433.35	2506.71
433.54	2284.36
433.72	2214.15
433.91	2260.96
434.10	2523.10
434.28	2710.34
434.47	2820.35
434.66	2822.69
434.85	2665.87
435.03	2661.19
435.22	2902.26
435.41	3145.68
435.59	3117.59
435.78	3052.06
435.97	3119.93
436.16	3028.65
436.34	2967.80
436.53	3021.63
436.72	2827.37
436.90	2801.62
437.09	2895.24
437.28	2754.81
437.46	2768.85
437.65	2850.77
437.84	2759.49
438.02	2450.54
438.21	2452.88
438.40	2541.82
438.58	2619.06
438.77	2815.66
438.96	2773.53
439.14	2836.73
439.33	2951.42
439.52	2984.18
439.70	2829.71
439.89	2871.84
440.08	2904.60
440.26	2829.71
440.45	2888.22
440.63	2953.76
440.82	3199.51
441.01	3098.87
441.19	3136.32
441.38	3101.21
441.57	3361.01
441.75	3332.92
441.94	3487.40
442.12	3225.26
442.31	3351.65
442.50	3478.04
442.68	3332.92
442.87	3293.13
443.05	3314.20
443.24	3279.09
443.43	3454.63
443.61	3424.20
443.80	3419.52
443.98	3269.73
444.17	3358.67
444.35	3489.74
444.54	3552.93
444.73	3377.39
444.91	3269.73
445.10	3208.87
445.28	3206.53
445.47	3033.33
445.65	3105.89
445.84	3094.19
446.02	3222.92
446.21	3325.90
446.39	3274.41
446.58	3419.52
446.77	3286.11
446.95	3335.26
447.14	3522.51
447.32	3599.74
447.51	3421.86
447.69	3377.39
447.88	3424.20
448.06	3328.24
448.25	3421.86
448.43	3410.16
448.62	3372.71
448.80	3302.50
448.99	3438.25
449.17	3356.33
449.36	3442.93
449.54	3604.42
449.73	3616.13
449.91	3536.55
450.10	3747.20
450.28	3812.73
450.46	3978.91
450.65	3749.54
450.83	3779.97
451.02	3789.33
451.20	3674.64
451.39	3641.87
451.57	3637.19
451.76	3665.28
451.94	3475.70
452.13	3543.57
452.31	3435.91
452.49	3307.18
452.68	3332.92
452.86	3164.40
453.05	3276.75
453.23	3337.60
453.42	3435.91
453.60	3501.44
453.78	3557.61
453.97	3576.34
454.15	3485.06
454.34	3382.07
454.52	3489.74
454.70	3475.70
454.89	3597.40
455.07	3506.12
455.26	3548.25
455.44	3667.62
455.62	3791.67
455.81	3784.65
455.99	3765.92
456.17	3667.62
456.36	3693.37
456.54	3768.26
456.73	3733.15
456.91	3794.01
457.09	4025.72
457.28	3864.22
457.46	3726.13
457.64	3768.26
457.83	3705.07
458.01	3590.38
458.19	3602.08
458.38	3716.77
458.56	3782.31
458.74	3770.60
458.93	3667.62
459.11	3712.09
459.29	3616.13
459.48	3761.24
459.66	3763.58
459.84	3688.68
460.03	3920.40
460.21	3679.32
460.39	3772.94
460.57	3904.01
460.76	3908.69
460.94	3836.14
461.12	3840.82
461.31	3796.35
461.49	3761.24
461.67	3801.03
461.85	3882.95
462.04	3988.27
462.22	4475.10
462.40	4067.85
462.59	3950.82
462.77	4093.60
462.95	3988.27
463.13	3988.27
463.32	3798.69
463.50	3803.37
463.68	3829.12
463.86	3908.69
464.05	3698.05
464.23	3688.68
464.41	3707.41
464.59	3632.51
464.78	3810.39
464.96	3889.97
465.14	3782.31
465.32	4007.00
465.50	3999.98
465.69	3927.42
465.87	3850.18
466.05	3896.99
466.23	3672.30
466.41	3597.40
466.60	3482.72
466.78	3735.50
466.96	3761.24
467.14	3791.67
467.32	3707.41
467.51	3794.01
467.69	3674.64
467.87	3730.81
468.05	3737.84
468.23	3922.74
468.41	3866.56
468.60	3943.80
468.78	3770.60
468.96	3812.73
469.14	3901.67
469.32	3875.93
469.50	3611.45
469.69	3620.81
469.87	3829.12
470.05	3630.17
470.23	3660.60
470.41	3714.43
470.59	3798.69
470.77	3782.31
470.95	3796.35
471.14	3920.40
471.32	3805.71
471.50	4135.73
471.68	4088.92
471.86	4091.26
472.04	4091.26
472.22	4196.58
472.40	3978.91
472.58	3857.20
472.77	3906.35
472.95	3932.10
473.13	4114.66
473.31	3955.51
473.49	3941.46
473.67	3941.46
473.85	4109.98
474.03	4227.01
474.21	4109.98
474.39	4053.81
474.57	4208.28
474.75	4257.43
474.93	4273.82
475.12	4039.76
475.30	4077.21
475.48	3997.64
475.66	4170.83
475.84	4177.86
476.02	4131.05
476.20	3969.55
476.38	4107.64
476.56	4290.20
476.74	4400.21
476.92	4311.27
477.10	4390.84
477.28	4477.44
477.46	4402.55
477.64	4533.62
477.82	4454.04
478.00	4613.20
478.18	4456.38
478.36	4348.72
478.54	4451.70
478.72	4498.51
478.90	4662.35
479.08	4758.31
479.26	4779.37
479.44	4819.16
479.62	4681.07
479.80	4793.42
479.98	4844.91
480.16	4835.55
480.34	4695.11
480.52	4905.76
480.70	4865.97
480.88	4741.93
481.06	4922.15
481.24	4873.00
481.41	5135.14
481.59	5034.49
481.77	5055.56
481.95	5179.61
482.13	5102.37
482.31	5118.75
482.49	5289.61
482.67	5165.56
482.85	5123.43
483.03	5270.89
483.21	5364.51
483.39	5179.61
483.57	5198.33
483.74	5256.84
483.92	5270.89
484.10	5125.77
484.28	5282.59
484.46	5282.59
484.64	5268.55
484.82	5320.04
485.00	5277.91
485.18	5167.90
485.35	5111.73
485.53	4732.56
485.71	4318.29
485.89	4234.03
486.07	4334.67
486.25	4681.07
486.43	5018.11
486.61	5207.69
486.78	5146.84
486.96	5130.45
487.14	5392.59
487.32	5460.47
487.50	5579.84
487.68	5774.10
487.85	5701.54
488.03	5856.02
488.21	5816.23
488.39	5542.39
488.57	5540.05
488.75	5481.53
488.92	5980.07
489.10	5980.07
489.28	6160.29
489.46	6607.33
489.64	6466.90
489.81	6389.66
489.99	6342.85
490.17	6197.74
490.35	6352.21
490.53	6352.21
490.70	6331.15
490.88	6162.63
491.06	6197.74
491.24	6352.21
491.41	6333.49
491.59	5928.58
491.77	5888.79
491.95	5891.13
492.13	6202.42
492.30	6469.24
492.48	6654.14
492.66	6787.55
492.84	6740.74
493.01	6698.61
493.19	6347.53
493.37	6523.07
493.54	6356.90
493.72	6417.75
493.90	6607.33
494.08	6988.84
494.25	7119.91
494.43	7166.72
494.61	7087.14
494.79	7148.00
494.96	7009.90
495.14	7103.53
495.32	6672.87
495.49	6593.29
495.67	6841.39
495.85	6998.20
496.02	7236.94
496.20	7283.75
496.38	7199.49
496.55	6995.86
496.73	7152.68
496.91	7124.59
497.09	7393.75
497.26	7225.23
497.44	7482.69
497.62	7096.50
497.79	6930.33
497.97	6817.98
498.14	6628.40
498.32	6871.81
498.50	7068.42
498.67	7180.76
498.85	7169.06
499.03	7325.88
499.20	7314.17
499.38	7468.65
499.56	7300.13
499.73	7480.35
499.91	7318.86
500.08	7054.37
500.26	6846.07
500.44	6794.58
500.61	7103.53
500.79	6995.86
500.97	6899.90
501.14	6857.77
501.32	6860.11
501.49	6953.73
501.67	6871.81
501.84	7152.68
502.02	7108.21
502.20	7227.57
502.37	7108.21
502.55	7365.67
502.72	7255.66
502.90	7414.82
503.07	7246.30
503.25	7063.74
503.43	6747.76
503.60	6686.91
503.78	6490.31
503.95	6429.45
504.13	6836.70
504.30	7180.76
504.48	7229.91
504.65	7339.92
504.83	7288.43
505.01	7405.46
505.18	7332.90
505.36	7674.62
505.53	7562.27
505.71	7702.70
505.88	7681.64
506.06	7382.05
506.23	7529.50
506.41	7506.10
506.58	7393.75
506.76	7396.09
506.93	7353.96
507.11	7267.36
507.28	7281.41
507.46	7269.70
507.63	7061.40
507.81	6981.82
507.98	7234.60
508.16	7297.79
508.33	7288.43
508.50	7459.29
508.68	7632.49
508.85	7772.92
509.03	7747.17
509.20	7772.92
509.38	7667.60
509.55	7461.63
509.73	7604.40
509.90	7524.82
510.08	7524.82
510.25	7595.04
510.42	7468.65
510.60	7442.90
510.77	7590.36
510.95	7779.94
511.12	7878.24
511.30	7999.95
511.47	8035.06
511.64	7962.50
511.82	7798.66
511.99	7695.68
512.17	7683.98
512.34	7435.88
512.51	7662.91
512.69	7592.70
512.86	7393.75
513.04	7543.55
513.21	7719.09
513.38	7604.40
513.56	7660.57
513.73	7215.87
513.90	7398.43
514.08	7213.53
514.25	7279.07
514.43	7426.52
514.60	7576.31
514.77	7517.80
514.95	7707.38
515.12	7644.19
515.29	7515.46
515.47	7868.88
515.64	7957.82
515.81	7674.62
515.99	7826.75
516.16	7295.45
516.33	6808.62
516.51	6417.75
516.68	6361.58
516.85	6202.42
517.03	6179.01
517.20	6801.60
517.37	7297.79
517.54	7623.12
517.72	7543.55
517.89	6991.18
518.06	6406.05
518.24	6436.47
518.41	6895.22
518.58	7211.19
518.75	7229.91
518.93	7456.95
519.10	7290.77
519.27	7396.09
519.45	7588.02
519.62	7740.15
519.79	7772.92
519.96	7861.86
520.14	7829.09
520.31	7356.30
520.48	7382.05
520.65	7325.88
520.83	7768.24
521.00	7997.61
521.17	7831.43
521.34	7742.49
521.52	7786.96
521.69	7824.41
521.86	8145.06
522.03	8107.62
522.20	7824.41
522.38	7452.27
522.55	7281.41
522.72	7428.86
522.89	7597.38
523.07	7602.06
523.24	7534.18
523.41	7793.98
523.58	7805.69
523.75	8009.31
523.92	8138.04
524.10	8077.19
524.27	8182.51
524.44	8255.07
524.61	7992.93
524.78	7805.69
524.96	8044.42
525.13	7817.39
525.30	8037.40
525.47	8114.64
525.64	8184.85
525.81	7955.48
525.98	7602.06
526.16	7047.35
526.33	7040.33
526.50	6876.49
526.67	6773.51
526.84	6796.92
527.01	7190.13
527.18	7375.03
527.36	7609.08
527.53	7857.18
527.70	7782.28
527.87	7894.63
528.04	7651.21
528.21	7672.28
528.38	7988.25
528.55	8259.75
528.72	8159.11
528.89	8456.36
529.07	8236.35
529.24	8114.64
529.41	7854.84
529.58	7655.89
529.75	7695.68
529.92	7623.12
530.09	7892.29
530.26	8018.68
530.43	7925.05
530.60	8011.65
530.77	8053.78
530.94	8297.20
531.11	8184.85
531.28	8030.38
531.46	8016.33
531.63	7882.92
531.80	7960.16
531.97	7936.76
532.14	7840.79
532.31	7403.11
532.48	7265.02
532.65	7311.83
532.82	7426.52
532.99	7571.63
533.16	7686.32
533.33	8067.83
533.50	7929.74
533.67	7892.29
533.84	7623.12
534.01	7791.64
534.18	7726.11
534.35	7735.47
534.52	7489.71
534.69	7871.22
534.86	8028.04
535.03	7826.75
535.20	7990.59
535.37	8196.56
535.54	8177.83
535.71	7978.89
535.88	7976.55
536.05	7964.84
536.22	8039.74
536.38	7719.09
536.55	7765.90
536.72	7428.86
536.89	7419.50
537.06	7716.75
537.23	7875.90
537.40	7948.46
537.57	7918.03
537.74	7885.26
537.91	8142.72
538.08	7882.92
538.25	7969.52
538.42	8013.99
538.59	7845.48
538.75	7840.79
538.92	7808.03
539.09	7681.64
539.26	7485.03
539.43	7648.87
539.60	7562.27
539.77	7592.70
539.94	7559.93
540.11	7398.43
540.28	7225.23
540.44	7302.47
540.61	7332.90
540.78	7349.28
540.95	7499.08
541.12	7772.92
541.29	7672.28
541.46	7927.39
541.62	7815.05
541.79	7831.43
541.96	7728.45
542.13	7702.70
542.30	7845.48
542.47	7892.29
542.63	7613.76
542.80	7669.94
542.97	7829.09
543.14	7632.49
543.31	7632.49
543.48	7822.07
543.64	7960.16
543.81	8112.30
543.98	8013.99
544.15	7953.14
544.32	7758.88
544.48	7698.02
544.65	7903.99
544.82	7992.93
544.99	7836.11
545.16	7918.03
545.32	7653.55
545.49	8306.56
545.66	8575.72
545.83	8369.76
546.00	8332.31
546.16	7990.59
546.33	7950.80
546.50	7754.19
546.67	7967.18
546.83	7660.57
547.00	7801.01
547.17	7616.10
547.34	7623.12
547.50	7520.14
547.67	7492.05
547.84	7531.84
548.00	7538.87
548.17	7737.81
548.34	7602.06
548.51	7751.85
548.67	7648.87
548.84	7461.63
549.01	7691.00
549.18	7782.28
549.34	7693.34
549.51	7712.07
549.68	7765.90
549.84	7536.52
550.01	7630.15
550.18	7517.80
550.34	7674.62
550.51	7536.52
550.68	7733.13
550.84	7417.16
551.01	7627.81
551.18	7337.58
551.34	7578.65
551.51	7417.16
551.68	7630.15
551.84	7557.59
552.01	7744.83
552.18	7489.71
552.34	7419.50
552.51	7419.50
552.68	7199.49
552.84	7508.44
553.01	7368.01
553.18	7368.01
553.34	7400.77
553.51	7461.63
553.67	7545.89
553.84	7604.40
554.01	7452.27
554.17	7290.77
554.34	7351.62
554.51	7398.43
554.67	7679.30
554.84	7609.08
555.00	7683.98
555.17	7449.93
555.33	7400.77
555.50	7440.56
555.67	7478.01
555.83	7438.22
556.00	7190.13
556.16	7534.18
556.33	7164.38
556.50	7307.15
556.66	7145.66
556.83	7061.40
556.99	7005.22
557.16	7112.89
557.32	7192.47
557.49	7274.38
557.65	7201.83
557.82	7042.67
557.98	7215.87
558.15	7124.59
558.32	7063.74
558.48	6637.76
558.65	6689.25
558.81	6815.64
558.98	6857.77
559.14	7117.57
559.31	7012.24
559.47	6986.50
559.64	6946.71
559.80	7045.01
559.97	6836.70
560.13	7033.31
560.30	7206.51
560.46	7412.48
560.63	7138.63
560.79	7297.79
560.96	7269.70
561.12	7000.54
561.29	6836.70
561.45	6860.11
561.61	6911.60
561.78	7131.61
561.94	6979.48
562.11	6757.13
562.27	6895.22
562.44	6813.30
562.60	7166.72
562.77	7133.95
562.93	7389.07
563.10	7337.58
563.26	6892.88
563.42	6946.71
563.59	6747.76
563.75	6956.07
563.92	6906.92
564.08	6810.96
564.24	6925.65
564.41	6972.46
564.57	6829.68
564.74	6733.72
564.90	6750.10
565.07	6750.10
565.23	6665.85
565.39	6743.08
565.56	6567.54
565.72	6574.56
565.88	6530.09
566.05	6672.87
566.21	6546.48
566.38	6621.38
566.54	6663.51
566.70	6834.36
566.87	6789.89
567.03	6768.83
567.19	6862.45
567.36	6843.73
567.52	6782.87
567.68	6787.55
567.85	6565.20
568.01	6532.44
568.17	6345.19
568.34	6258.59
568.50	6298.38
568.66	6120.50
568.83	6319.45
568.99	6181.35
569.15	6181.35
569.32	6340.51
569.48	6235.19
569.64	6237.53
569.81	6195.40
569.97	6296.04
570.13	6319.45
570.30	6197.74
570.46	6277.32
570.62	6045.60
570.78	6111.14
570.95	6010.50
571.11	6242.21
571.27	6363.92
571.43	6225.82
571.60	6384.98
571.76	6427.11
571.92	6534.78
572.09	6417.75
572.25	6399.02
572.41	6502.01
572.57	6373.28
572.74	6384.98
572.90	6331.15
573.06	6338.17
573.22	6406.05
573.38	6384.98
573.55	6277.32
573.71	6413.07
573.87	6274.98
574.03	6188.38
574.20	6218.80
574.36	6162.63
574.52	5987.09
574.68	6054.97
574.84	6303.06
575.01	5968.37
575.17	6090.07
575.33	6050.28
575.49	6164.97
575.65	6267.95
575.82	6015.18
575.98	6024.54
576.14	5959.00
576.30	6171.99
576.46	6289.02
576.62	6307.74
576.79	6310.08
576.95	6366.26
577.11	6171.99
577.27	6045.60
577.43	6197.74
577.59	6066.67
577.75	5905.17
577.92	5919.21
578.08	6029.22
578.24	5872.40
578.40	5916.87
578.56	6073.69
578.72	6181.35
578.88	6218.80
579.04	6195.40
579.21	5977.73
579.37	6050.28
579.53	6127.52
579.69	6094.76
579.85	6242.21
580.01	6256.25
580.17	6019.86
580.33	6127.52
580.49	6050.28
580.65	6141.57
580.82	6153.27
580.98	6195.40
581.14	6214.12
581.30	6186.04
581.46	6186.04
581.62	6277.32
581.78	6230.51
581.94	6171.99
582.10	6183.70
582.26	6090.07
582.42	6263.27
582.58	6340.51
582.74	6150.93
582.90	6289.02
583.06	6193.06
583.22	6113.48
583.38	6324.13
583.54	6164.97
583.70	6235.19
583.86	6071.35
584.02	6064.33
584.18	6246.89
584.34	6085.39
584.50	6146.25
584.66	6059.65
584.82	6129.86
584.98	5984.75
585.14	5968.37
585.30	5879.43
585.46	5776.44
585.62	5671.12
585.78	5811.55
585.94	5771.76
586.10	5802.19
586.26	5776.44
586.42	5809.21
586.58	6052.63
586.74	6043.26
586.90	5816.23
587.06	5977.73
587.22	5746.02
587.38	5565.79
587.54	5652.39
587.70	5647.71
587.86	5334.08
588.02	5235.78
588.18	5193.65
588.34	5001.72
588.49	4732.56
588.65	4458.72
588.81	4353.40
588.97	4409.57
589.13	4503.19
589.29	4252.75
589.45	4306.59
589.61	4285.52
589.77	4568.73
589.93	4802.78
590.08	5004.07
590.24	4968.96
590.40	4997.04
590.56	5097.69
590.72	4889.38
590.88	5043.85
591.04	5041.51
591.20	5020.45
591.35	4985.34
591.51	4912.78
591.67	4669.37
591.83	4889.38
591.99	4880.02
592.15	5018.11
592.31	5029.81
592.46	4961.94
592.62	5158.54
592.78	5060.24
592.94	5280.25
593.10	5221.74
593.26	5305.99
593.41	5310.68
593.57	5261.52
593.73	4894.06
593.89	4912.78
594.05	4711.50
594.20	4737.24
594.36	4667.03
594.52	4421.27
594.68	4573.41
594.84	4793.42
594.99	5013.43
595.15	5041.51
595.31	5217.05
595.47	5041.51
595.62	5221.74
595.78	5156.20
595.94	5107.05
596.10	5294.29
596.25	5181.95
596.41	4999.38
596.57	4966.62
596.73	5001.72
596.88	5097.69
597.04	5151.52
597.20	5163.22
597.36	4924.49
597.51	5069.60
597.67	4994.70
