SpectraSuite Data File
++++++++++++++++++++++++++++++++++++
Date: Fri Oct 04 11:39:59 GMT-05:00 2013
User: price-jones
Dark Spectrum Present: No
Reference Spectrum Present: No
Number of Sampled Component Spectra: 1
Spectrometers: USB2+H05261
Integration Time (usec): 100000 (USB2+H05261)
Spectra Averaged: 1 (USB2+H05261)
Boxcar Smoothing: 0 (USB2+H05261)
Correct for Electrical Dark: No (USB2+H05261)
Strobe/Lamp Enabled: No (USB2+H05261)
Correct for Detector Non-linearity: No (USB2+H05261)
Correct for Stray Light: No (USB2+H05261)
Number of Pixels in Processed Spectrum: 2048
>>>>>Begin Processed Spectral Data<<<<<
365.73	37.45
365.92	37.45
366.12	37.45
366.32	0.00
366.52	0.00
366.72	0.00
366.91	0.00
367.11	0.00
367.31	0.00
367.51	0.00
367.70	0.00
367.90	0.00
368.10	0.00
368.30	0.00
368.49	0.00
368.69	0.00
368.89	0.00
369.09	0.00
369.28	0.00
369.48	0.00
369.68	0.00
369.87	56.17
370.07	0.00
370.27	14.04
370.47	79.58
370.66	18.72
370.86	117.03
371.06	11.70
371.25	114.69
371.45	49.15
371.65	51.49
371.84	30.43
372.04	30.43
372.24	105.32
372.44	91.28
372.63	147.45
372.83	95.96
373.03	35.11
373.22	18.72
373.42	88.94
373.62	102.98
373.81	114.69
374.01	163.84
374.21	110.01
374.40	173.20
374.60	180.22
374.79	98.30
374.99	67.88
375.19	128.73
375.38	222.35
375.58	46.81
375.78	180.22
375.97	102.98
376.17	231.71
376.37	98.30
376.56	159.16
376.76	95.96
376.95	77.24
377.15	163.84
377.35	49.15
377.54	152.13
377.74	93.62
377.93	110.01
378.13	79.58
378.33	131.07
378.52	126.39
378.72	117.03
378.91	133.41
379.11	124.05
379.31	53.83
379.50	37.45
379.70	149.79
379.89	135.75
380.09	124.05
380.28	159.16
380.48	110.01
380.68	95.96
380.87	168.52
381.07	126.39
381.26	65.54
381.46	121.71
381.65	154.48
381.85	117.03
382.04	81.92
382.24	145.11
382.43	112.35
382.63	91.28
382.83	105.32
383.02	191.92
383.22	100.64
383.41	86.60
383.61	56.17
383.80	98.30
384.00	140.43
384.19	72.56
384.39	37.45
384.58	46.81
384.78	175.54
384.97	35.11
385.17	110.01
385.36	35.11
385.56	121.71
385.75	131.07
385.95	180.22
386.14	102.98
386.34	175.54
386.53	163.84
386.72	107.66
386.92	124.05
387.11	187.24
387.31	131.07
387.50	142.77
387.70	166.18
387.89	114.69
388.09	67.88
388.28	152.13
388.48	110.01
388.67	128.73
388.86	67.88
389.06	112.35
389.25	152.13
389.45	201.29
389.64	88.94
389.84	121.71
390.03	140.43
390.22	208.31
390.42	102.98
390.61	119.37
390.81	117.03
391.00	177.88
391.19	145.11
391.39	161.50
391.58	117.03
391.78	163.84
391.97	81.92
392.16	93.62
392.36	173.20
392.55	131.07
392.75	149.79
392.94	100.64
393.13	112.35
393.33	117.03
393.52	170.86
393.71	110.01
393.91	124.05
394.10	135.75
394.29	154.48
394.49	112.35
394.68	110.01
394.88	138.09
395.07	159.16
395.26	131.07
395.46	170.86
395.65	84.26
395.84	182.56
396.04	264.48
396.23	145.11
396.42	63.19
396.62	51.49
396.81	145.11
397.00	110.01
397.19	128.73
397.39	166.18
397.58	117.03
397.77	93.62
397.97	77.24
398.16	107.66
398.35	142.77
398.55	70.22
398.74	114.69
398.93	135.75
399.12	140.43
399.32	196.60
399.51	149.79
399.70	128.73
399.90	187.24
400.09	121.71
400.28	138.09
400.47	93.62
400.67	161.50
400.86	126.39
401.05	149.79
401.24	121.71
401.44	161.50
401.63	156.82
401.82	119.37
402.01	74.90
402.21	184.90
402.40	131.07
402.59	147.45
402.78	138.09
402.97	67.88
403.17	203.63
403.36	163.84
403.55	121.71
403.74	149.79
403.93	238.73
404.13	194.26
404.32	229.37
404.51	191.92
404.70	222.35
404.89	166.18
405.09	182.56
405.28	231.71
405.47	138.09
405.66	86.60
405.85	142.77
406.05	175.54
406.24	142.77
406.43	145.11
406.62	133.41
406.81	234.05
407.00	163.84
407.20	121.71
407.39	149.79
407.58	138.09
407.77	217.67
407.96	257.46
408.15	175.54
408.34	180.22
408.54	102.98
408.73	147.45
408.92	133.41
409.11	154.48
409.30	180.22
409.49	140.43
409.68	205.97
409.87	229.37
410.07	128.73
410.26	98.30
410.45	154.48
410.64	161.50
410.83	191.92
411.02	198.95
411.21	238.73
411.40	138.09
411.59	191.92
411.78	198.95
411.98	152.13
412.17	138.09
412.36	210.65
412.55	220.01
412.74	133.41
412.93	210.65
413.12	138.09
413.31	175.54
413.50	191.92
413.69	84.26
413.88	196.60
414.07	177.88
414.26	201.29
414.45	215.33
414.64	238.73
414.83	189.58
415.02	175.54
415.22	138.09
415.41	234.05
415.60	138.09
415.79	203.63
415.98	250.44
416.17	161.50
416.36	156.82
416.55	102.98
416.74	224.69
416.93	187.24
417.12	217.67
417.31	229.37
417.50	142.77
417.69	191.92
417.88	177.88
418.07	138.09
418.26	159.16
418.45	173.20
418.64	145.11
418.83	156.82
419.02	198.95
419.21	205.97
419.39	210.65
419.58	135.75
419.77	121.71
419.96	196.60
420.15	215.33
420.34	201.29
420.53	177.88
420.72	245.76
420.91	184.90
421.10	198.95
421.29	126.39
421.48	175.54
421.67	241.08
421.86	198.95
422.05	203.63
422.24	177.88
422.43	210.65
422.61	163.84
422.80	163.84
422.99	173.20
423.18	184.90
423.37	287.89
423.56	147.45
423.75	259.80
423.94	159.16
424.13	173.20
424.32	208.31
424.50	159.16
424.69	191.92
424.88	222.35
425.07	161.50
425.26	210.65
425.45	203.63
425.64	201.29
425.83	173.20
426.01	212.99
426.20	273.84
426.39	210.65
426.58	205.97
426.77	220.01
426.96	252.78
427.15	210.65
427.33	149.79
427.52	215.33
427.71	222.35
427.90	217.67
428.09	220.01
428.28	161.50
428.46	154.48
428.65	255.12
428.84	278.52
429.03	215.33
429.22	236.39
429.40	222.35
429.59	220.01
429.78	245.76
429.97	159.16
430.16	154.48
430.34	196.60
430.53	257.46
430.72	224.69
430.91	276.18
431.10	255.12
431.28	220.01
431.47	170.86
431.66	210.65
431.85	203.63
432.03	210.65
432.22	259.80
432.41	276.18
432.60	311.29
432.79	280.86
432.97	241.08
433.16	187.24
433.35	128.73
433.54	217.67
433.72	252.78
433.91	250.44
434.10	264.48
434.28	217.67
434.47	196.60
434.66	332.36
434.85	344.06
435.03	271.50
435.22	582.79
435.41	1013.45
435.59	959.62
435.78	748.97
435.97	566.41
436.16	393.21
436.34	273.84
436.53	280.86
436.72	278.52
436.90	236.39
437.09	255.12
437.28	245.76
437.46	224.69
437.65	241.08
437.84	198.95
438.02	194.26
438.21	266.82
438.40	184.90
438.58	285.55
438.77	276.18
438.96	236.39
439.14	210.65
439.33	248.10
439.52	252.78
439.70	273.84
439.89	353.42
440.08	238.73
440.26	180.22
440.45	299.59
440.63	318.31
440.82	271.50
441.01	187.24
441.19	273.84
441.38	269.16
441.57	236.39
441.75	294.91
441.94	269.16
442.12	330.02
442.31	236.39
442.50	215.33
442.68	243.42
442.87	297.25
443.05	266.82
443.24	262.14
443.43	306.61
443.61	287.89
443.80	217.67
443.98	262.14
444.17	262.14
444.35	238.73
444.54	292.57
444.73	301.93
444.91	215.33
445.10	224.69
445.28	271.50
445.47	332.36
445.65	238.73
445.84	208.31
446.02	266.82
446.21	273.84
446.39	311.29
446.58	348.74
446.77	201.29
446.95	334.70
447.14	301.93
447.32	306.61
447.51	285.55
447.69	276.18
447.88	320.65
448.06	320.65
448.25	313.63
448.43	322.99
448.62	231.71
448.80	231.71
448.99	252.78
449.17	301.93
449.36	294.91
449.54	294.91
449.73	285.55
449.91	353.42
450.10	304.27
450.28	353.42
450.46	348.74
450.65	264.48
450.83	248.10
451.02	191.92
451.20	273.84
451.39	318.31
451.57	287.89
451.76	229.37
451.94	259.80
452.13	332.36
452.31	294.91
452.49	304.27
452.68	266.82
452.86	250.44
453.05	301.93
453.23	322.99
453.42	236.39
453.60	266.82
453.78	330.02
453.97	208.31
454.15	245.76
454.34	297.25
454.52	285.55
454.70	315.97
454.89	292.57
455.07	210.65
455.26	304.27
455.44	245.76
455.62	297.25
455.81	280.86
455.99	306.61
456.17	294.91
456.36	304.27
456.54	308.95
456.73	248.10
456.91	264.48
457.09	264.48
457.28	322.99
457.46	360.44
457.64	271.50
457.83	330.02
458.01	348.74
458.19	299.59
458.38	292.57
458.56	262.14
458.74	229.37
458.93	287.89
459.11	257.46
459.29	285.55
459.48	280.86
459.66	325.33
459.84	306.61
460.03	386.19
460.21	304.27
460.39	362.78
460.57	353.42
460.76	290.23
460.94	294.91
461.12	358.10
461.31	255.12
461.49	367.46
461.67	292.57
461.85	306.61
462.04	250.44
462.22	746.63
462.40	383.85
462.59	358.10
462.77	351.08
462.95	365.12
463.13	365.12
463.32	337.04
463.50	395.55
463.68	344.06
463.86	257.46
464.05	311.29
464.23	273.84
464.41	290.23
464.59	255.12
464.78	315.97
464.96	273.84
465.14	416.62
465.32	362.78
465.50	339.38
465.69	351.08
465.87	337.04
466.05	334.70
466.23	290.23
466.41	269.16
466.60	280.86
466.78	325.33
466.96	367.46
467.14	334.70
467.32	299.59
467.51	306.61
467.69	315.97
467.87	376.83
468.05	339.38
468.23	341.72
468.41	344.06
468.60	306.61
468.78	334.70
468.96	304.27
469.14	311.29
469.32	383.85
469.50	334.70
469.69	360.44
469.87	327.68
470.05	306.61
470.23	339.38
470.41	365.12
470.59	285.55
470.77	337.04
470.95	320.65
471.14	411.93
471.32	393.21
471.50	414.27
471.68	358.10
471.86	306.61
472.04	315.97
472.22	433.00
472.40	238.73
472.58	290.23
472.77	325.33
472.95	280.86
473.13	355.76
473.31	388.53
473.49	308.95
473.67	444.70
473.85	402.57
474.03	360.44
474.21	348.74
474.39	344.06
474.57	376.83
474.75	337.04
474.93	308.95
475.12	224.69
475.30	376.83
475.48	372.15
475.66	374.49
475.84	428.32
476.02	311.29
476.20	341.72
476.38	304.27
476.56	409.59
476.74	395.55
476.92	283.20
477.10	400.23
477.28	353.42
477.46	360.44
477.64	386.19
477.82	318.31
478.00	423.64
478.18	444.70
478.36	381.51
478.54	287.89
478.72	411.93
478.90	348.74
479.08	421.30
479.26	447.04
479.44	379.17
479.62	355.76
479.80	393.21
479.98	400.23
480.16	397.89
480.34	428.32
480.52	390.87
480.70	374.49
480.88	402.57
481.06	386.19
481.24	442.36
481.41	383.85
481.59	402.57
481.77	440.02
481.95	517.26
482.13	519.60
482.31	463.43
482.49	463.43
482.67	461.09
482.85	472.79
483.03	599.18
483.21	454.06
483.39	550.03
483.57	475.13
483.74	571.09
483.92	510.24
484.10	477.47
484.28	493.85
484.46	489.17
484.64	482.15
484.82	601.52
485.00	484.49
485.18	496.19
485.35	603.86
485.53	526.62
485.71	580.45
485.89	557.05
486.07	557.05
486.25	624.92
486.43	557.05
486.61	585.13
486.78	540.66
486.96	564.07
487.14	552.37
487.32	601.52
487.50	587.47
487.68	592.16
487.85	610.88
488.03	641.31
488.21	582.79
488.39	606.20
488.57	575.77
488.75	538.32
488.92	901.11
489.10	641.31
489.28	566.41
489.46	582.79
489.64	580.45
489.81	620.24
489.99	592.16
490.17	564.07
490.35	674.07
490.53	599.18
490.70	601.52
490.88	617.90
491.06	564.07
491.24	645.99
491.41	697.48
491.59	578.11
491.77	554.71
491.95	660.03
492.13	606.20
492.30	582.79
492.48	601.52
492.66	587.47
492.84	629.60
493.01	655.35
493.19	634.29
493.37	547.69
493.54	643.65
493.72	620.24
493.90	702.16
494.08	653.01
494.25	596.84
494.43	667.05
494.61	636.63
494.79	552.37
494.96	606.20
495.14	660.03
495.32	631.94
495.49	624.92
495.67	582.79
495.85	653.01
496.02	685.78
496.20	622.58
496.38	699.82
496.55	592.16
496.73	650.67
496.91	617.90
497.09	638.97
497.26	688.12
497.44	610.88
497.62	723.23
497.79	641.31
497.97	667.05
498.14	655.35
498.32	653.01
498.50	725.57
498.67	615.56
498.85	676.41
499.03	645.99
499.20	678.76
499.38	596.84
499.56	683.44
499.73	718.54
499.91	674.07
500.08	648.33
500.26	624.92
500.44	716.20
500.61	734.93
500.79	650.67
500.97	671.73
501.14	706.84
501.32	655.35
501.49	718.54
501.67	601.52
501.84	657.69
502.02	580.45
502.20	706.84
502.37	667.05
502.55	622.58
502.72	697.48
502.90	770.04
503.07	725.57
503.25	664.71
503.43	608.54
503.60	634.29
503.78	582.79
503.95	706.84
504.13	671.73
504.30	662.37
504.48	730.25
504.65	683.44
504.83	650.67
505.01	683.44
505.18	723.23
505.36	699.82
505.53	744.29
505.71	643.65
505.88	723.23
506.06	720.88
506.23	674.07
506.41	638.97
506.58	674.07
506.76	699.82
506.93	702.16
507.11	645.99
507.28	681.10
507.46	697.48
507.63	730.25
507.81	692.80
507.98	648.33
508.16	741.95
508.33	734.93
508.50	688.12
508.68	751.31
508.85	648.33
509.03	650.67
509.20	725.57
509.38	772.38
509.55	725.57
509.73	765.36
509.90	657.69
510.08	664.71
510.25	704.50
510.42	685.78
510.60	725.57
510.77	863.66
510.95	753.65
511.12	711.52
511.30	720.88
511.47	734.93
511.64	702.16
511.82	692.80
511.99	732.59
512.17	709.18
512.34	723.23
512.51	746.63
512.69	709.18
512.86	788.76
513.04	807.48
513.21	741.95
513.38	720.88
513.56	634.29
513.73	774.72
513.90	791.10
514.08	751.31
514.25	723.23
514.43	823.87
514.60	770.04
514.77	791.10
514.95	791.10
515.12	854.30
515.29	744.29
515.47	746.63
515.64	678.76
515.81	774.72
515.99	784.08
516.16	847.27
516.33	866.00
516.51	685.78
516.68	828.55
516.85	805.14
517.03	741.95
517.20	791.10
517.37	770.04
517.54	814.51
517.72	795.78
517.89	674.07
518.06	765.36
518.24	809.83
518.41	861.32
518.58	819.19
518.75	840.25
518.93	777.06
519.10	828.55
519.27	866.00
519.45	763.01
519.62	770.04
519.79	763.01
519.96	821.53
520.14	819.19
520.31	882.38
520.48	828.55
520.65	847.27
520.83	835.57
521.00	828.55
521.17	795.78
521.34	793.44
521.52	734.93
521.69	786.42
521.86	889.40
522.03	814.51
522.20	880.04
522.38	809.83
522.55	826.21
522.72	781.74
522.89	863.66
523.07	880.04
523.24	891.74
523.41	795.78
523.58	795.78
523.75	830.89
523.92	866.00
524.10	877.70
524.27	849.61
524.44	826.21
524.61	884.72
524.78	894.08
524.96	851.96
525.13	821.53
525.30	816.85
525.47	835.57
525.64	828.55
525.81	821.53
525.98	889.40
526.16	903.45
526.33	767.70
526.50	854.30
526.67	739.61
526.84	887.06
527.01	866.00
527.18	760.67
527.36	819.19
527.53	873.02
527.70	931.53
527.87	861.32
528.04	889.40
528.21	795.78
528.38	847.27
528.55	873.02
528.72	875.36
528.89	929.19
529.07	882.38
529.24	774.72
529.41	805.14
529.58	919.83
529.75	842.59
529.92	947.92
530.09	887.06
530.26	814.51
530.43	835.57
530.60	800.46
530.77	891.74
530.94	910.47
531.11	812.17
531.28	854.30
531.46	863.66
531.63	905.79
531.80	840.25
531.97	915.15
532.14	910.47
532.31	830.89
532.48	844.93
532.65	945.58
532.82	847.27
532.99	915.15
533.16	985.37
533.33	983.02
533.50	919.83
533.67	861.32
533.84	915.15
534.01	933.87
534.18	891.74
534.35	884.72
534.52	849.61
534.69	905.79
534.86	957.28
535.03	858.98
535.20	777.06
535.37	924.51
535.54	938.55
535.71	961.96
535.88	896.43
536.05	938.55
536.22	940.90
536.38	964.30
536.55	950.26
536.72	954.94
536.89	917.49
537.06	976.00
537.23	959.62
537.40	947.92
537.57	997.07
537.74	922.17
537.91	1043.88
538.08	1104.73
538.25	917.49
538.42	1069.62
538.59	1093.03
538.75	1050.90
538.92	924.51
539.09	1062.60
539.26	1093.03
539.43	1083.67
539.60	1057.92
539.77	1193.67
539.94	1074.31
540.11	1064.94
540.28	1280.27
540.44	1172.61
540.61	1320.06
540.78	1432.41
540.95	1507.30
541.12	1479.22
541.29	1600.93
541.46	1671.14
541.62	1720.29
541.79	1762.42
541.96	1668.80
542.13	1760.08
542.30	1682.85
542.47	1689.87
542.63	1657.10
542.80	1657.10
542.97	1603.27
543.14	1689.87
543.31	1699.23
543.48	1607.95
543.64	1652.42
543.81	1750.72
543.98	1568.16
544.15	1605.61
544.32	1554.12
544.48	1661.78
544.65	1614.97
544.82	1582.20
544.99	1537.73
545.16	1596.25
545.32	1614.97
545.49	2167.34
545.66	2684.59
545.83	3087.17
546.00	2782.90
546.16	2146.27
546.33	1827.96
546.50	1596.25
546.67	1479.22
546.83	1455.81
547.00	1401.98
547.17	1263.89
547.34	1259.21
547.50	1306.02
547.67	1313.04
547.84	1245.16
548.00	1245.16
548.17	1266.23
548.34	1313.04
548.51	1261.55
548.67	1259.21
548.84	1263.89
549.01	1291.98
549.18	1242.82
549.34	1263.89
549.51	1191.33
549.68	1198.35
549.84	1177.29
550.01	1224.10
550.18	1219.42
550.34	1284.95
550.51	1095.37
550.68	1210.06
550.84	1146.86
551.01	1071.97
551.18	1048.56
551.34	994.73
551.51	1083.67
551.68	1214.74
551.84	1135.16
552.01	1125.80
552.18	1057.92
552.34	1100.05
552.51	1095.37
552.68	1125.80
552.84	924.51
553.01	1151.54
553.18	1135.16
553.34	1008.77
553.51	966.64
553.67	1032.18
553.84	1046.22
554.01	1008.77
554.17	938.55
554.34	873.02
554.51	1013.45
554.67	1013.45
554.84	1041.54
555.00	994.73
555.17	1062.60
555.33	1008.77
555.50	950.26
555.67	957.28
555.83	933.87
556.00	950.26
556.16	1109.41
556.33	896.43
556.50	866.00
556.66	936.21
556.83	976.00
556.99	971.32
557.16	980.68
557.32	908.13
557.49	945.58
557.65	938.55
557.82	980.68
557.98	915.15
558.15	915.15
558.32	1008.77
558.48	917.49
558.65	917.49
558.81	1008.77
558.98	1027.50
559.14	1032.18
559.31	994.73
559.47	992.39
559.64	957.28
559.80	1050.90
559.97	936.21
560.13	889.40
560.30	880.04
560.46	973.66
560.63	926.85
560.79	976.00
560.96	978.34
561.12	957.28
561.29	950.26
561.45	950.26
561.61	964.30
561.78	1071.97
561.94	973.66
562.11	926.85
562.27	1022.81
562.44	943.24
562.60	1055.58
562.77	983.02
562.93	968.98
563.10	1018.13
563.26	997.07
563.42	1004.09
563.59	978.34
563.75	1053.24
563.92	1022.81
564.08	994.73
564.24	903.45
564.41	938.55
564.57	901.11
564.74	1046.22
564.90	945.58
565.07	1004.09
565.23	950.26
565.39	943.24
565.56	1078.99
565.72	915.15
565.88	943.24
566.05	868.34
566.21	922.17
566.38	947.92
566.54	980.68
566.70	959.62
566.87	938.55
567.03	866.00
567.19	943.24
567.36	997.07
567.52	947.92
567.68	947.92
567.85	1001.75
568.01	1008.77
568.17	931.53
568.34	931.53
568.50	950.26
568.66	1004.09
568.83	905.79
568.99	959.62
569.15	952.60
569.32	919.83
569.48	891.74
569.64	877.70
569.81	1055.58
569.97	910.47
570.13	908.13
570.30	957.28
570.46	933.87
570.62	959.62
570.78	952.60
570.95	856.64
571.11	936.21
571.27	959.62
571.43	887.06
571.60	903.45
571.76	943.24
571.92	926.85
572.09	863.66
572.25	940.90
572.41	924.51
572.57	877.70
572.74	976.00
572.90	917.49
573.06	866.00
573.22	1015.79
573.38	1013.45
573.55	936.21
573.71	901.11
573.87	943.24
574.03	929.19
574.20	940.90
574.36	931.53
574.52	940.90
574.68	915.15
574.84	926.85
575.01	835.57
575.17	990.05
575.33	978.34
575.49	1022.81
575.65	1048.56
575.82	945.58
575.98	971.32
576.14	980.68
576.30	1046.22
576.46	1137.50
576.62	1378.58
576.79	1376.24
576.95	1261.55
577.11	1100.05
577.27	987.71
577.43	973.66
577.59	971.32
577.75	959.62
577.92	905.79
578.08	980.68
578.24	933.87
578.40	966.64
578.56	1196.01
578.72	1273.25
578.88	1320.06
579.04	1214.74
579.21	1198.35
579.37	1069.62
579.53	976.00
579.69	1025.15
579.85	1076.65
580.01	1015.79
580.17	1086.01
580.33	1027.50
580.49	980.68
580.65	1090.69
580.82	1020.47
580.98	1039.20
581.14	929.19
581.30	1043.88
581.46	908.13
581.62	1039.20
581.78	1011.11
581.94	1067.28
582.10	1081.33
582.26	1057.92
582.42	1048.56
582.58	1104.73
582.74	1078.99
582.90	1081.33
583.06	1214.74
583.22	1020.47
583.38	1118.78
583.54	1090.69
583.70	1149.20
583.86	1100.05
584.02	1107.07
584.18	1118.78
584.34	1116.44
584.50	1041.54
584.66	1107.07
584.82	945.58
584.98	983.02
585.14	1004.09
585.30	994.73
585.46	947.92
585.62	1020.47
585.78	983.02
585.94	1104.73
586.10	1165.59
586.26	1125.80
586.42	1156.22
586.58	1135.16
586.74	1121.12
586.90	1385.60
587.06	1235.80
587.22	1263.89
587.38	1282.61
587.54	1125.80
587.70	1205.38
587.86	1102.39
588.02	1006.43
588.18	1015.79
588.34	1001.75
588.49	973.66
588.65	929.19
588.81	950.26
588.97	1011.11
589.13	1034.52
589.29	968.98
589.45	992.39
589.61	1036.86
589.77	1076.65
589.93	1060.26
590.08	952.60
590.24	924.51
590.40	954.94
590.56	1036.86
590.72	1046.22
590.88	940.90
591.04	1039.20
591.20	1008.77
591.35	1104.73
591.51	992.39
591.67	1013.45
591.83	997.07
591.99	1006.43
592.15	1093.03
592.31	1163.25
592.46	1048.56
592.62	1186.65
592.78	1076.65
592.94	1191.33
593.10	1167.93
593.26	1132.82
593.41	1167.93
593.57	1036.86
593.73	1011.11
593.89	1062.60
594.05	1029.84
594.20	1011.11
594.36	1015.79
594.52	1041.54
594.68	976.00
594.84	1022.81
594.99	1027.50
595.15	931.53
595.31	1022.81
595.47	980.68
595.62	952.60
595.78	994.73
595.94	1008.77
596.10	1027.50
596.25	1067.28
596.41	947.92
596.57	957.28
596.73	933.87
596.88	938.55
597.04	987.71
597.20	968.98
597.36	940.90
597.51	966.64
597.67	1081.33
597.83	968.98
597.99	1008.77
598.14	983.02
598.30	1090.69
598.46	1018.13
598.61	973.66
598.77	997.07
598.93	994.73
599.09	1041.54
599.24	1184.31
599.40	1076.65
599.56	1093.03
599.71	992.39
599.87	1043.88
600.03	1027.50
600.18	1086.01
600.34	990.05
600.50	1029.84
600.65	1008.77
600.81	976.00
600.97	1046.22
601.12	1076.65
601.28	968.98
601.44	943.24
601.59	973.66
601.75	947.92
601.91	980.68
602.06	952.60
602.22	968.98
602.37	957.28
602.53	912.81
602.69	1034.52
602.84	936.21
603.00	966.64
603.16	952.60
603.31	931.53
603.47	983.02
603.62	849.61
603.78	861.32
603.94	924.51
604.09	1011.11
604.25	983.02
604.40	926.85
604.56	987.71
604.71	945.58
604.87	1008.77
605.03	1004.09
605.18	973.66
605.34	950.26
605.49	1039.20
605.65	1018.13
605.80	898.77
605.96	954.94
606.12	957.28
606.27	917.49
606.43	1029.84
606.58	1029.84
606.74	987.71
606.89	922.17
607.05	1004.09
607.20	1001.75
607.36	1078.99
607.51	1064.94
607.67	1001.75
607.82	1050.90
607.98	990.05
608.13	1111.75
608.29	999.41
608.44	1050.90
