SpectraSuite Data File
++++++++++++++++++++++++++++++++++++
Date: Fri Oct 04 11:39:54 GMT-05:00 2013
User: price-jones
Dark Spectrum Present: No
Reference Spectrum Present: No
Number of Sampled Component Spectra: 1
Spectrometers: USB2+H05261
Integration Time (usec): 100000 (USB2+H05261)
Spectra Averaged: 1 (USB2+H05261)
Boxcar Smoothing: 0 (USB2+H05261)
Correct for Electrical Dark: No (USB2+H05261)
Strobe/Lamp Enabled: No (USB2+H05261)
Correct for Detector Non-linearity: No (USB2+H05261)
Correct for Stray Light: No (USB2+H05261)
Number of Pixels in Processed Spectrum: 2048
>>>>>Begin Processed Spectral Data<<<<<
365.73	74.90
365.92	74.90
366.12	74.90
366.32	0.00
366.52	0.00
366.72	0.00
366.91	0.00
367.11	0.00
367.31	0.00
367.51	0.00
367.70	0.00
367.90	0.00
368.10	0.00
368.30	0.00
368.49	0.00
368.69	0.00
368.89	0.00
369.09	0.00
369.28	0.00
369.48	0.00
369.68	4.68
369.87	0.00
370.07	0.00
370.27	0.00
370.47	44.47
370.66	117.03
370.86	149.79
371.06	147.45
371.25	161.50
371.45	173.20
371.65	184.90
371.84	177.88
372.04	166.18
372.24	177.88
372.44	100.64
372.63	250.44
372.83	224.69
373.03	280.86
373.22	119.37
373.42	210.65
373.62	175.54
373.81	301.93
374.01	205.97
374.21	304.27
374.40	255.12
374.60	191.92
374.79	245.76
374.99	208.31
375.19	262.14
375.38	229.37
375.58	255.12
375.78	266.82
375.97	285.55
376.17	266.82
376.37	276.18
376.56	224.69
376.76	222.35
376.95	231.71
377.15	227.03
377.35	210.65
377.54	243.42
377.74	236.39
377.93	196.60
378.13	248.10
378.33	227.03
378.52	271.50
378.72	224.69
378.91	208.31
379.11	189.58
379.31	227.03
379.50	222.35
379.70	327.68
379.89	250.44
380.09	191.92
380.28	163.84
380.48	294.91
380.68	205.97
380.87	210.65
381.07	290.23
381.26	292.57
381.46	273.84
381.65	236.39
381.85	262.14
382.04	269.16
382.24	238.73
382.43	234.05
382.63	238.73
382.83	318.31
383.02	320.65
383.22	327.68
383.41	327.68
383.61	322.99
383.80	285.55
384.00	243.42
384.19	278.52
384.39	327.68
384.58	297.25
384.78	425.98
384.97	374.49
385.17	201.29
385.36	269.16
385.56	259.80
385.75	229.37
385.95	315.97
386.14	362.78
386.34	304.27
386.53	362.78
386.72	362.78
386.92	294.91
387.11	334.70
387.31	355.76
387.50	334.70
387.70	339.38
387.89	358.10
388.09	327.68
388.28	271.50
388.48	311.29
388.67	325.33
388.86	318.31
389.06	315.97
389.25	381.51
389.45	388.53
389.64	367.46
389.84	407.25
390.03	318.31
390.22	325.33
390.42	322.99
390.61	304.27
390.81	348.74
391.00	351.08
391.19	400.23
391.39	362.78
391.58	402.57
391.78	414.27
391.97	430.66
392.16	353.42
392.36	421.30
392.55	400.23
392.75	383.85
392.94	374.49
393.13	533.64
393.33	416.62
393.52	418.96
393.71	479.81
393.91	358.10
394.10	376.83
394.29	409.59
394.49	400.23
394.68	531.30
394.88	444.70
395.07	550.03
395.26	479.81
395.46	468.11
395.65	470.45
395.84	428.32
396.04	573.43
396.23	470.45
396.42	470.45
396.62	510.24
396.81	561.73
397.00	472.79
397.19	430.66
397.39	463.43
397.58	585.13
397.77	465.77
397.97	547.69
398.16	503.22
398.35	496.19
398.55	538.32
398.74	540.66
398.93	627.26
399.12	596.84
399.32	554.71
399.51	606.20
399.70	503.22
399.90	580.45
400.09	653.01
400.28	613.22
400.47	678.76
400.67	667.05
400.86	650.67
401.05	702.16
401.24	643.65
401.44	753.65
401.63	739.61
401.82	641.31
402.01	636.63
402.21	683.44
402.40	674.07
402.59	669.39
402.78	741.95
402.97	685.78
403.17	739.61
403.36	723.23
403.55	704.50
403.74	627.26
403.93	753.65
404.13	901.11
404.32	875.36
404.51	912.81
404.70	765.36
404.89	856.64
405.09	877.70
405.28	884.72
405.47	826.21
405.66	884.72
405.85	964.30
406.05	866.00
406.24	887.06
406.43	931.53
406.62	964.30
406.81	971.32
407.00	875.36
407.20	957.28
407.39	856.64
407.58	1015.79
407.77	1067.28
407.96	1029.84
408.15	1055.58
408.34	1097.71
408.54	990.05
408.73	1046.22
408.92	1032.18
409.11	1020.47
409.30	1100.05
409.49	1121.12
409.68	1142.18
409.87	1167.93
410.07	1247.51
410.26	1198.35
410.45	1125.80
410.64	1174.95
410.83	1224.10
411.02	1224.10
411.21	1282.61
411.40	1308.36
411.59	1331.76
411.78	1322.40
411.98	1287.29
412.17	1259.21
412.36	1322.40
412.55	1289.64
412.74	1364.53
412.93	1387.94
413.12	1373.89
413.31	1507.30
413.50	1500.28
413.69	1441.77
413.88	1575.18
414.07	1469.86
414.26	1486.24
414.45	1612.63
414.64	1551.78
414.83	1640.72
415.02	1521.35
415.22	1675.82
415.41	1769.44
415.60	1809.23
415.79	1724.97
415.98	1771.79
416.17	1675.82
416.36	1757.74
416.55	1806.89
416.74	1802.21
416.93	1795.19
417.12	1802.21
417.31	1816.26
417.50	1926.26
417.69	1928.60
417.88	1888.81
418.07	1879.45
418.26	1893.49
418.45	1923.92
418.64	1959.03
418.83	2062.01
419.02	1870.09
419.21	2031.58
419.39	2038.61
419.58	1959.03
419.77	1952.01
419.96	2080.74
420.15	2064.35
420.34	2064.35
420.53	2186.06
420.72	2125.21
420.91	2069.03
421.10	2097.12
421.29	2139.25
421.48	2155.63
421.67	2136.91
421.86	2092.44
422.05	2211.81
422.24	2237.55
422.43	2155.63
422.61	2249.25
422.80	2286.70
422.99	2214.15
423.18	2326.49
423.37	2232.87
423.56	2275.00
423.75	2314.79
423.94	2228.19
424.13	2167.34
424.32	2167.34
424.50	2190.74
424.69	2324.15
424.88	2370.96
425.07	2279.68
425.26	2260.96
425.45	2282.02
425.64	2328.83
425.83	2230.53
426.01	2396.71
426.20	2338.20
426.39	2305.43
426.58	2333.51
426.77	2270.32
426.96	2415.43
427.15	2380.32
427.33	2356.92
427.52	2546.50
427.71	2429.48
427.90	2406.07
428.09	2331.17
428.28	2469.27
428.46	2483.31
428.65	2441.18
428.84	2462.24
429.03	2518.42
429.22	2415.43
429.40	2509.05
429.59	2551.18
429.78	2354.58
429.97	2455.22
430.16	2478.63
430.34	2626.08
430.53	2724.38
430.72	2670.55
430.91	2469.27
431.10	2640.12
431.28	2597.99
431.47	2731.41
431.66	2635.44
431.85	2642.46
432.03	2731.41
432.22	2836.73
432.41	2892.90
432.60	2799.28
432.79	2745.45
432.97	2892.90
433.16	2691.62
433.35	2733.75
433.54	2656.51
433.72	2820.35
433.91	2920.99
434.10	2820.35
434.28	2799.28
434.47	2827.37
434.66	2951.42
434.85	2949.08
435.03	3056.74
435.22	3162.06
435.41	3428.88
435.59	3410.16
435.78	3290.79
435.97	3258.03
436.16	3012.27
436.34	3180.79
436.53	2935.03
436.72	3243.98
436.90	3126.96
437.09	3101.21
437.28	2995.89
437.46	3052.06
437.65	3131.64
437.84	3241.64
438.02	3047.38
438.21	3038.02
438.40	3038.02
438.58	3255.69
438.77	3239.30
438.96	3265.05
439.14	3220.58
439.33	3133.98
439.52	3368.03
439.70	3435.91
439.89	3506.12
440.08	3478.04
440.26	3478.04
440.45	3520.17
440.63	3440.59
440.82	3562.30
441.01	3445.27
441.19	3576.34
441.38	3445.27
441.57	3627.83
441.75	3791.67
441.94	3630.17
442.12	3662.94
442.31	3721.45
442.50	3599.74
442.68	3723.79
442.87	3775.28
443.05	3840.82
443.24	3988.27
443.43	3742.52
443.61	3901.67
443.80	3850.18
443.98	3822.09
444.17	3576.34
444.35	3791.67
444.54	3850.18
444.73	3948.48
444.91	3927.42
445.10	3904.01
445.28	3840.82
445.47	3925.08
445.65	3838.48
445.84	3948.48
446.02	3997.64
446.21	3794.01
446.39	3901.67
446.58	3946.14
446.77	3934.44
446.95	3880.61
447.14	3929.76
447.32	3960.19
447.51	3997.64
447.69	3946.14
447.88	3789.33
448.06	3974.23
448.25	3908.69
448.43	3943.80
448.62	4004.66
448.80	3922.74
448.99	4091.26
449.17	4067.85
449.36	4039.76
449.54	4105.30
449.73	4065.51
449.91	4205.94
450.10	4063.17
450.28	4081.89
450.46	4259.78
450.65	4418.93
450.83	4081.89
451.02	4203.60
451.20	4219.99
451.39	4376.80
451.57	4187.22
451.76	4046.79
451.94	4091.26
452.13	4517.23
452.31	4475.10
452.49	4234.03
452.68	4327.65
452.86	4168.49
453.05	4437.66
453.23	4435.32
453.42	4344.03
453.60	4264.46
453.78	4222.33
453.97	4360.42
454.15	4421.27
454.34	4358.08
454.52	4444.68
454.70	4449.36
454.89	4503.19
455.07	4454.04
455.26	4599.15
455.44	4695.11
455.62	4561.70
455.81	4664.69
455.99	4571.07
456.17	4568.73
456.36	4676.39
456.54	4765.33
456.73	4652.98
456.91	4858.95
457.09	4720.86
457.28	4870.65
457.46	4816.82
457.64	4692.77
457.83	4964.28
458.01	4720.86
458.19	4819.16
458.38	4716.18
458.56	4908.10
458.74	4856.61
458.93	4835.55
459.11	4791.08
459.29	4889.38
459.48	4999.38
459.66	4821.50
459.84	4992.36
460.03	5071.94
460.21	4987.68
460.39	5039.17
460.57	5060.24
460.76	5043.85
460.94	5114.07
461.12	4915.12
461.31	5111.73
461.49	5144.50
461.67	5046.20
461.85	5205.35
462.04	5224.08
462.22	5673.46
462.40	5210.03
462.59	5184.29
462.77	5282.59
462.95	5341.10
463.13	5355.15
463.32	5441.75
463.50	5240.46
463.68	5280.25
463.86	5355.15
464.05	5310.68
464.23	5327.06
464.41	5530.69
464.59	5207.69
464.78	5460.47
464.96	5434.72
465.14	5322.38
465.32	5551.75
465.50	5605.58
465.69	5696.86
465.87	5549.41
466.05	5418.34
466.23	5411.32
466.41	5603.24
466.60	5645.37
466.78	5628.99
466.96	5598.56
467.14	5437.06
467.32	5710.91
467.51	5727.29
467.69	5589.20
467.87	5753.04
468.05	5636.01
468.23	5654.73
468.41	5678.14
468.60	5710.91
468.78	5799.85
468.96	5781.12
469.14	5717.93
469.32	5685.16
469.50	5673.46
469.69	5895.81
469.87	5970.71
470.05	5947.30
470.23	5870.06
470.41	5898.15
470.59	5930.92
470.77	5989.43
470.95	6134.54
471.14	6076.03
471.32	6183.70
471.50	6139.23
471.68	6246.89
471.86	6057.31
472.04	6202.42
472.22	6197.74
472.40	6076.03
472.58	6221.14
472.77	6256.25
472.95	6335.83
473.13	6588.61
473.31	6492.65
473.49	6291.36
473.67	6487.96
473.85	6370.94
474.03	6410.73
474.21	6354.55
474.39	6548.82
474.57	6607.33
474.75	6691.59
474.93	6771.17
475.12	6686.91
475.30	6836.70
475.48	6778.19
475.66	6862.45
475.84	6843.73
476.02	6867.13
476.20	7007.56
476.38	7007.56
476.56	7042.67
476.74	7103.53
476.92	7122.25
477.10	7258.00
477.28	7344.60
477.46	7166.72
477.64	7281.41
477.82	7412.48
478.00	7538.87
478.18	7662.91
478.36	7611.42
478.54	7756.54
478.72	7632.49
478.90	8002.29
479.08	7805.69
479.26	7810.37
479.44	7985.91
479.62	7880.58
479.80	8018.68
479.98	8002.29
480.16	8170.81
480.34	8327.63
480.52	8234.00
480.70	8449.33
480.88	8346.35
481.06	8428.27
481.24	8421.25
481.41	8475.08
481.59	8692.75
481.77	8613.17
481.95	8751.26
482.13	8987.66
482.31	8894.04
482.49	8945.53
482.67	8947.87
482.85	9092.98
483.03	9308.31
483.21	9273.20
483.39	9235.75
483.57	9202.99
483.74	9219.37
483.92	9586.83
484.10	9373.85
484.28	9376.19
484.46	9893.44
484.64	10026.86
484.82	9755.35
485.00	10038.56
485.18	9947.28
485.35	10155.58
485.53	10092.39
485.71	10090.05
485.89	10129.84
486.07	10401.34
486.25	10581.56
486.43	10338.15
486.61	10445.81
486.78	10633.05
486.96	10806.25
487.14	10934.98
487.32	10942.00
487.50	10841.36
487.68	11246.27
487.85	11190.10
488.03	11164.36
488.21	11337.56
488.39	11501.39
488.57	11431.18
488.75	11311.81
488.92	11887.58
489.10	11763.53
489.28	12023.33
489.46	11906.31
489.64	11981.20
489.81	12149.72
489.99	12173.13
490.17	12116.95
490.35	12360.37
490.53	12723.15
490.70	12678.68
490.88	12322.92
491.06	12704.43
491.24	12519.53
491.41	12671.66
491.59	12903.37
491.77	13029.76
491.95	13238.07
492.13	13284.88
492.30	13163.17
492.48	13371.48
492.66	13214.66
492.84	13224.03
493.01	13619.58
493.19	13453.40
493.37	13760.01
493.54	13844.27
493.72	13738.94
493.90	13797.46
494.08	13855.97
494.25	14190.67
494.43	14370.89
494.61	14375.57
494.79	14303.01
494.96	14303.01
495.14	14352.16
495.32	14675.16
495.49	14319.40
495.67	14345.14
495.85	14511.32
496.02	14675.16
496.20	14792.19
496.38	15089.43
496.55	15056.67
496.73	15243.91
496.91	15042.62
497.09	15318.81
497.26	15344.55
497.44	15176.03
497.62	15480.30
497.79	15672.23
497.97	15454.56
498.14	15707.34
498.32	15922.66
498.50	15896.92
498.67	16123.95
498.85	15971.82
499.03	16093.52
499.20	15896.92
499.38	16334.60
499.56	16339.28
499.73	16428.22
499.91	16556.95
500.08	16458.65
500.26	16425.88
500.44	16547.59
500.61	16666.95
500.79	16762.92
500.97	16683.34
501.14	16830.79
501.32	16858.88
501.49	16842.50
501.67	16931.44
501.84	17027.40
502.02	16978.25
502.20	17099.95
502.37	17252.09
502.55	17284.86
502.72	17212.30
502.90	17500.19
503.07	17156.13
503.25	17418.27
503.43	17383.16
503.60	17537.63
503.78	17874.67
503.95	17724.88
504.13	17881.69
504.30	17806.80
504.48	17994.04
504.65	17799.77
504.83	18178.94
505.01	18347.46
505.18	18012.76
505.36	18405.97
505.53	18064.25
505.71	18272.56
505.88	18312.35
506.06	18265.54
506.23	18380.23
506.41	18527.68
506.58	18380.23
506.76	18579.17
506.93	18824.93
507.11	18590.88
507.28	18738.33
507.46	18766.42
507.63	18714.92
507.81	18707.90
507.98	18862.38
508.16	18817.91
508.33	18705.56
508.50	19030.90
508.68	19075.37
508.85	19234.52
509.03	19356.23
509.20	19431.13
509.38	19625.39
509.55	19580.92
509.73	19929.66
509.90	19508.37
510.08	19501.34
510.25	19431.13
510.42	19964.77
510.60	19880.51
510.77	19969.45
510.95	20168.40
511.12	19651.14
511.30	20121.59
511.47	20020.94
511.64	20091.16
511.82	20217.55
511.99	20126.27
512.17	20198.82
512.34	20521.82
512.51	20458.62
512.69	20339.26
512.86	20610.76
513.04	20915.03
513.21	20774.60
513.38	20746.51
513.56	20725.44
513.73	20844.81
513.90	21013.33
514.08	20868.22
514.25	21174.83
514.43	21186.53
514.60	20854.17
514.77	21074.18
514.95	21589.10
515.12	21448.67
515.29	21188.87
515.47	21514.20
515.64	21223.98
515.81	21291.85
515.99	21451.01
516.16	21823.16
516.33	21738.90
516.51	22033.80
516.68	21795.07
516.85	21633.57
517.03	22033.80
517.20	22019.76
517.37	21926.14
517.54	22008.06
517.72	21963.59
517.89	21638.25
518.06	22384.88
518.24	21965.93
518.41	21879.33
518.58	22136.79
518.75	22029.12
518.93	22293.60
519.10	22338.07
519.27	22537.02
519.45	22511.27
519.62	22429.35
519.79	22441.06
519.96	22719.58
520.14	22766.39
520.31	22717.24
520.48	23016.83
520.65	22750.01
520.83	22860.01
521.00	23164.28
521.17	22710.22
521.34	23002.78
521.52	23152.58
521.69	23152.58
521.86	23000.44
522.03	23276.63
522.20	23232.16
522.38	23644.09
522.55	23339.82
522.72	23164.28
522.89	23688.56
523.07	23618.35
523.24	23379.61
523.41	23686.22
523.58	23503.66
523.75	23625.37
523.92	23580.90
524.10	23733.03
524.27	23814.95
524.44	23917.93
524.61	23903.89
524.78	24044.32
524.96	24360.30
525.13	23824.31
525.30	23976.45
525.47	24100.50
525.64	24058.37
525.81	24077.09
525.98	24224.54
526.16	24077.09
526.33	24393.06
526.50	24702.01
526.67	24187.10
526.84	24575.62
527.01	24318.17
527.18	24975.86
527.36	24521.79
527.53	24652.86
527.70	24779.25
527.87	24945.43
528.04	24587.33
528.21	24788.61
528.38	24753.51
528.55	25078.84
528.72	24648.18
528.89	24842.45
529.07	24805.00
529.24	24727.76
529.41	25467.37
529.58	25039.05
529.75	24952.45
529.92	24992.24
530.09	25420.56
530.26	25109.27
530.43	25256.72
530.60	25034.37
530.77	25137.35
530.94	25516.52
531.11	25069.48
531.28	25256.72
531.46	25233.32
531.63	25422.90
531.80	25539.93
531.97	25568.01
532.14	25806.75
532.31	25422.90
532.48	25593.76
532.65	25570.35
532.82	25912.07
532.99	25553.97
533.16	25891.01
533.33	25734.19
533.50	26029.10
533.67	25809.09
533.84	25715.47
534.01	25905.05
534.18	25652.27
534.35	25944.84
534.52	25804.41
534.69	26115.70
534.86	25844.20
535.03	26019.74
535.20	26167.19
535.37	26448.05
535.54	26148.46
535.71	26183.57
535.88	26286.56
536.05	26415.29
536.22	26429.33
536.38	26415.29
536.55	26656.36
536.72	26864.67
536.89	26249.11
537.06	26511.25
537.23	26787.43
537.40	26527.63
537.57	26712.53
537.74	26452.73
537.91	27080.00
538.08	27138.51
538.25	26712.53
538.42	27089.36
538.59	27026.17
538.75	26977.01
538.92	26731.26
539.09	27623.00
539.26	27054.25
539.43	26855.31
539.60	27229.79
539.77	27344.48
539.94	27384.27
540.11	27414.69
540.28	27372.57
540.44	27351.50
540.61	27405.33
540.78	27538.74
540.95	27690.88
541.12	27597.26
541.29	27854.72
541.46	27894.50
541.62	27915.57
541.79	28020.89
541.96	27620.66
542.13	27676.83
542.30	27978.76
542.47	28123.88
542.63	27828.97
542.80	28311.12
542.97	28203.46
543.14	28231.54
543.31	27981.10
543.48	27941.32
543.64	27892.16
543.81	28704.33
543.98	28575.60
544.15	28491.34
544.32	28196.43
544.48	28374.31
544.65	28568.58
544.82	28304.10
544.99	28247.93
545.16	28254.95
545.32	28037.28
545.49	28929.02
545.66	29296.49
545.83	29617.14
546.00	30066.52
546.16	29163.08
546.33	28758.16
546.50	28624.75
546.67	28292.40
546.83	28168.35
547.00	28676.24
547.17	28409.42
547.34	28549.85
547.50	28964.13
547.67	28755.82
547.84	28481.98
548.00	28790.93
548.17	28676.24
548.34	28762.84
548.51	29127.97
548.67	28954.77
548.84	29156.05
549.01	28655.18
549.18	28776.89
549.34	29106.90
549.51	29076.48
549.68	28961.79
549.84	28858.81
550.01	29024.98
550.18	28877.53
550.34	28882.21
550.51	29134.99
550.68	29317.55
550.84	28790.93
551.01	29060.09
551.18	29053.07
551.34	28694.97
551.51	28704.33
551.68	28959.45
551.84	29174.78
552.01	29132.65
552.18	29345.64
552.34	28900.94
552.51	29347.98
552.68	28816.68
552.84	29078.82
553.01	29376.06
553.18	29041.37
553.34	29500.11
553.51	29331.59
553.67	29324.57
553.84	29605.44
554.01	29582.03
554.17	29277.76
554.34	29357.34
554.51	28950.09
554.67	29329.25
554.84	29631.18
555.00	29572.67
555.17	29364.36
555.33	29394.79
555.50	29340.96
555.67	28966.47
555.83	29333.93
556.00	29420.53
556.16	29715.44
556.33	29565.65
556.50	29406.49
556.66	29949.50
556.83	29493.09
556.99	29935.45
557.16	29687.36
557.32	29792.68
557.49	29764.59
557.65	29450.96
557.82	29394.79
557.98	29518.84
558.15	29841.83
558.32	29926.09
558.48	29507.13
558.65	29652.25
558.81	29773.95
558.98	29628.84
559.14	29378.40
559.31	29549.26
559.47	29638.20
559.64	29720.12
559.80	30005.67
559.97	29951.84
560.13	29780.98
560.30	29979.92
560.46	29811.40
560.63	29907.37
560.79	30010.35
560.96	30150.78
561.12	30150.78
561.29	29757.57
561.45	29804.38
561.61	29773.95
561.78	29958.86
561.94	29989.28
562.11	29984.60
562.27	29706.08
562.44	29703.74
562.60	29750.55
562.77	30146.10
562.93	29827.79
563.10	30305.26
563.26	30017.37
563.42	30574.42
563.59	30204.61
563.75	30125.04
563.92	30171.85
564.08	30209.29
564.24	30052.48
564.41	29783.32
564.57	29745.87
564.74	29848.85
564.90	30171.85
565.07	30204.61
565.23	30253.76
565.39	30199.93
565.56	30284.19
565.72	29799.70
565.88	29788.00
566.05	29937.79
566.21	29986.94
566.38	30092.27
566.54	30181.21
566.70	30403.56
566.87	30419.94
567.03	30197.59
567.19	30520.59
567.36	30600.16
567.52	30089.93
567.68	30066.52
567.85	30019.71
568.01	30415.26
568.17	29879.28
568.34	30239.72
568.50	30022.05
568.66	30017.37
568.83	30150.78
568.99	30338.02
569.15	30118.01
569.32	30162.48
569.48	29738.85
569.64	30377.81
569.81	30316.96
569.97	30272.49
570.13	30129.72
570.30	30211.64
570.46	30569.74
570.62	30061.84
570.78	29905.02
570.95	30298.23
571.11	30419.94
571.27	30043.12
571.43	30033.75
571.60	30265.47
571.76	30188.23
571.92	30132.06
572.09	30164.82
572.25	30398.88
572.41	30485.48
572.57	30401.22
572.74	30293.55
572.90	30291.21
573.06	30321.64
573.22	29956.52
573.38	30471.43
573.55	30122.69
573.71	30621.23
573.87	30562.72
574.03	30302.92
574.20	30188.23
574.36	30155.46
574.52	30277.17
574.68	30316.96
574.84	30218.66
575.01	30642.29
575.17	30504.20
575.33	30218.66
575.49	30356.75
575.65	30457.39
575.82	30768.68
575.98	30050.14
576.14	30230.36
576.30	30600.16
576.46	30771.02
576.62	30293.55
576.79	30419.94
576.95	30370.79
577.11	30017.37
577.27	30485.48
577.43	30141.42
577.59	30181.21
577.75	29921.41
577.92	30017.37
578.08	30398.88
578.24	30417.60
578.40	30520.59
578.56	30759.32
578.72	30373.13
578.88	31211.04
579.04	30785.07
579.21	30614.21
579.37	30752.30
579.53	30848.26
579.69	30359.09
579.85	30445.69
580.01	30679.74
580.17	30579.10
580.33	30314.62
580.49	30199.93
580.65	30822.51
580.82	30485.48
580.98	30632.93
581.14	30656.34
581.30	30527.61
581.46	30228.02
581.62	30209.29
581.78	29970.56
581.94	30742.94
582.10	30281.85
582.26	30178.87
582.42	30504.20
582.58	30785.07
582.74	30698.47
582.90	30670.38
583.06	30237.38
583.22	30384.83
583.38	30848.26
583.54	30281.85
583.70	30316.96
583.86	30754.64
584.02	30403.56
584.18	30228.02
584.34	30738.26
584.50	30799.11
584.66	30518.25
584.82	30401.22
584.98	30476.12
585.14	30639.95
585.30	30288.87
585.46	30448.03
585.62	30597.82
585.78	30546.33
585.94	30188.23
586.10	30651.66
586.26	30429.30
586.42	31103.38
586.58	30508.88
586.74	30387.18
586.90	30036.09
587.06	30609.53
587.22	30558.03
587.38	30541.65
587.54	30726.55
587.70	30984.01
587.86	31061.25
588.02	30494.84
588.18	30923.16
588.34	30778.04
588.49	30609.53
588.65	30373.13
588.81	30410.58
588.97	30742.94
589.13	30668.04
589.29	30628.25
589.45	30780.39
589.61	30841.24
589.77	30920.82
589.93	30625.91
590.08	30944.22
590.24	30829.54
590.40	30820.17
590.56	30801.45
590.72	30436.33
590.88	30637.61
591.04	30419.94
591.20	30909.11
591.35	30536.97
591.51	30932.52
591.67	30661.02
591.83	31189.98
