SpectraSuite Data File
++++++++++++++++++++++++++++++++++++
Date: Fri Oct 04 11:39:32 GMT-05:00 2013
User: price-jones
Dark Spectrum Present: No
Reference Spectrum Present: No
Number of Sampled Component Spectra: 1
Spectrometers: USB2+H05261
Integration Time (usec): 100000 (USB2+H05261)
Spectra Averaged: 1 (USB2+H05261)
Boxcar Smoothing: 0 (USB2+H05261)
Correct for Electrical Dark: No (USB2+H05261)
Strobe/Lamp Enabled: No (USB2+H05261)
Correct for Detector Non-linearity: No (USB2+H05261)
Correct for Stray Light: No (USB2+H05261)
Number of Pixels in Processed Spectrum: 2048
>>>>>Begin Processed Spectral Data<<<<<
365.73	74.90
365.92	74.90
366.12	74.90
366.32	0.00
366.52	0.00
366.72	21.06
366.91	0.00
367.11	0.00
367.31	0.00
367.51	0.00
367.70	0.00
367.90	21.06
368.10	0.00
368.30	0.00
368.49	0.00
368.69	0.00
368.89	0.00
369.09	0.00
369.28	4.68
369.48	11.70
369.68	0.00
369.87	23.41
370.07	0.00
370.27	79.58
370.47	39.79
370.66	182.56
370.86	250.44
371.06	234.05
371.25	231.71
371.45	227.03
371.65	215.33
371.84	227.03
372.04	187.24
372.24	285.55
372.44	252.78
372.63	348.74
372.83	327.68
373.03	229.37
373.22	280.86
373.42	360.44
373.62	294.91
373.81	301.93
374.01	346.40
374.21	304.27
374.40	311.29
374.60	376.83
374.79	301.93
374.99	318.31
375.19	278.52
375.38	320.65
375.58	271.50
375.78	381.51
375.97	362.78
376.17	308.95
376.37	290.23
376.56	315.97
376.76	332.36
376.95	315.97
377.15	390.87
377.35	346.40
377.54	367.46
377.74	386.19
377.93	273.84
378.13	327.68
378.33	327.68
378.52	433.00
378.72	381.51
378.91	433.00
379.11	337.04
379.31	318.31
379.50	390.87
379.70	367.46
379.89	421.30
380.09	395.55
380.28	341.72
380.48	353.42
380.68	388.53
380.87	393.21
381.07	311.29
381.26	456.40
381.46	409.59
381.65	435.34
381.85	376.83
382.04	430.66
382.24	386.19
382.43	444.70
382.63	433.00
382.83	346.40
383.02	442.36
383.22	430.66
383.41	477.47
383.61	418.96
383.80	346.40
384.00	379.17
384.19	425.98
384.39	388.53
384.58	369.80
384.78	425.98
384.97	430.66
385.17	428.32
385.36	456.40
385.56	500.87
385.75	503.22
385.95	374.49
386.14	456.40
386.34	437.68
386.53	440.02
386.72	477.47
386.92	540.66
387.11	484.49
387.31	433.00
387.50	521.94
387.70	482.15
387.89	517.26
388.09	561.73
388.28	482.15
388.48	477.47
388.67	582.79
388.86	517.26
389.06	552.37
389.25	554.71
389.45	507.90
389.64	526.62
389.84	571.09
390.03	519.60
390.22	510.24
390.42	552.37
390.61	524.28
390.81	519.60
391.00	564.07
391.19	554.71
391.39	554.71
391.58	550.03
391.78	580.45
391.97	575.77
392.16	521.94
392.36	627.26
392.55	638.97
392.75	643.65
392.94	521.94
393.13	645.99
393.33	592.16
393.52	638.97
393.71	641.31
393.91	697.48
394.10	713.86
394.29	566.41
394.49	681.10
394.68	734.93
394.88	688.12
395.07	720.88
395.26	695.14
395.46	716.20
395.65	688.12
395.84	837.91
396.04	819.19
396.23	718.54
396.42	702.16
396.62	758.33
396.81	791.10
397.00	767.70
397.19	772.38
397.39	671.73
397.58	828.55
397.77	858.98
397.97	861.32
398.16	739.61
398.35	805.14
398.55	760.67
398.74	833.23
398.93	922.17
399.12	795.78
399.32	788.76
399.51	912.81
399.70	924.51
399.90	938.55
400.09	873.02
400.28	915.15
400.47	1008.77
400.67	1004.09
400.86	908.13
401.05	933.87
401.24	954.94
401.44	1015.79
401.63	994.73
401.82	945.58
402.01	912.81
402.21	1053.24
402.40	1076.65
402.59	987.71
402.78	1046.22
402.97	1048.56
403.17	1032.18
403.36	1107.07
403.55	1144.52
403.74	1111.75
403.93	1153.88
404.13	1156.22
404.32	1128.14
404.51	1160.91
404.70	1284.95
404.89	1177.29
405.09	1268.57
405.28	1188.99
405.47	1266.23
405.66	1280.27
405.85	1366.87
406.05	1299.00
406.24	1294.32
406.43	1259.21
406.62	1341.13
406.81	1511.99
407.00	1284.95
407.20	1268.57
407.39	1355.17
407.58	1385.60
407.77	1455.81
407.96	1511.99
408.15	1535.39
408.34	1448.79
408.54	1481.56
408.73	1481.56
408.92	1535.39
409.11	1509.65
409.30	1551.78
409.49	1589.22
409.68	1593.90
409.87	1617.31
410.07	1666.46
410.26	1717.95
410.45	1685.19
410.64	1715.61
410.83	1624.33
411.02	1774.13
411.21	1820.94
411.40	1764.76
411.59	1818.60
411.78	1799.87
411.98	1806.89
412.17	1851.36
412.36	1968.39
412.55	1954.35
412.74	1914.56
412.93	2010.52
413.12	1905.20
413.31	2106.48
413.50	2012.86
413.69	2111.16
413.88	2104.14
414.07	2148.61
414.26	2125.21
414.45	2033.93
414.64	2033.93
414.83	2176.70
415.02	2310.11
415.22	2342.88
415.41	2272.66
415.60	2293.72
415.79	2441.18
415.98	2413.09
416.17	2319.47
416.36	2448.20
416.55	2497.35
416.74	2462.24
416.93	2530.12
417.12	2497.35
417.31	2663.53
417.50	2532.46
417.69	2616.72
417.88	2513.74
418.07	2665.87
418.26	2647.15
418.45	2670.55
418.64	2689.28
418.83	2677.57
419.02	2616.72
419.21	2862.48
419.39	2759.49
419.58	2743.11
419.77	2906.95
419.96	2874.18
420.15	2869.50
420.34	2768.85
420.53	2862.48
420.72	2827.37
420.91	3002.91
421.10	2972.48
421.29	3000.57
421.48	2902.26
421.67	2967.80
421.86	2951.42
422.05	3066.10
422.24	2979.50
422.43	3007.59
422.61	3035.67
422.80	3098.87
422.99	3040.36
423.18	3129.30
423.37	3061.42
423.56	3148.02
423.75	3045.04
423.94	3033.33
424.13	2902.26
424.32	2974.82
424.50	3166.74
424.69	3239.30
424.88	3229.94
425.07	3265.05
425.26	3159.72
425.45	3077.80
425.64	3138.66
425.83	3187.81
426.01	3300.16
426.20	3225.26
426.39	3192.49
426.58	3171.43
426.77	3265.05
426.96	3281.43
427.15	3293.13
427.33	3288.45
427.52	3286.11
427.71	3435.91
427.90	3398.46
428.09	3398.46
428.28	3295.47
428.46	3473.36
428.65	3473.36
428.84	3513.14
429.03	3559.95
429.22	3426.54
429.40	3435.91
429.59	3510.80
429.78	3520.17
429.97	3400.80
430.16	3375.05
430.34	3541.23
430.53	3672.30
430.72	3592.72
430.91	3691.02
431.10	3550.59
431.28	3751.88
431.47	3508.46
431.66	3817.41
431.85	3602.08
432.03	3866.56
432.22	3995.29
432.41	3763.58
432.60	3885.29
432.79	3719.11
432.97	3953.16
433.16	3887.63
433.35	3911.04
433.54	3892.31
433.72	3887.63
433.91	3896.99
434.10	3847.84
434.28	3885.29
434.47	3978.91
434.66	3995.29
434.85	4086.58
435.03	4135.73
435.22	4234.03
435.41	4573.41
435.59	4461.06
435.78	4390.84
435.97	4152.11
436.16	4170.83
436.34	4276.16
436.53	4390.84
436.72	4280.84
436.90	4236.37
437.09	4224.67
437.28	4102.96
437.46	4180.20
437.65	4250.41
437.84	4430.63
438.02	4170.83
438.21	4372.12
438.40	4287.86
438.58	4463.40
438.77	4514.89
438.96	4486.81
439.14	4561.70
439.33	4526.60
439.52	4589.79
439.70	4713.84
439.89	4723.20
440.08	4788.74
440.26	4690.43
440.45	4842.57
440.63	4791.08
440.82	4800.44
441.01	4767.67
441.19	4997.04
441.38	5046.20
441.57	4966.62
441.75	4975.98
441.94	5158.54
442.12	5067.26
442.31	5125.77
442.50	5132.79
442.68	5179.61
442.87	5207.69
443.05	5195.99
443.24	5254.50
443.43	5256.84
443.61	5235.78
443.80	5528.35
443.98	5298.97
444.17	5104.71
444.35	5107.05
444.54	5458.13
444.73	5343.44
444.91	5277.91
445.10	5378.55
445.28	5252.16
445.47	5373.87
445.65	5228.76
445.84	5448.77
446.02	5561.11
446.21	5383.23
446.39	5350.46
446.58	5511.96
446.77	5495.58
446.95	5366.85
447.14	5413.66
447.32	5551.75
447.51	5507.28
447.69	5406.64
447.88	5502.60
448.06	5509.62
448.25	5458.13
448.43	5547.07
448.62	5518.98
448.80	5584.52
448.99	5504.94
449.17	5540.05
449.36	5598.56
449.54	5584.52
449.73	5659.42
449.91	5652.39
450.10	5650.05
450.28	5919.21
450.46	5851.34
450.65	5881.77
450.83	5949.64
451.02	5975.39
451.20	5994.11
451.39	5736.65
451.57	5731.97
451.76	6026.88
451.94	5919.21
452.13	5956.66
452.31	5959.00
452.49	6010.50
452.68	5921.56
452.86	5846.66
453.05	6017.52
453.23	6024.54
453.42	6143.91
453.60	5982.41
453.78	6083.05
453.97	5996.45
454.15	6059.65
454.34	5872.40
454.52	6272.64
454.70	6256.25
454.89	6183.70
455.07	6202.42
455.26	6314.77
455.44	6471.58
455.62	6399.02
455.81	6256.25
455.99	6162.63
456.17	6384.98
456.36	6469.24
456.54	6338.17
456.73	6534.78
456.91	6604.99
457.09	6626.06
457.28	6820.32
457.46	6558.18
457.64	6562.86
457.83	6654.14
458.01	6595.63
458.19	6736.06
458.38	6555.84
458.56	6766.49
458.74	6747.76
458.93	6780.53
459.11	6874.15
459.29	6754.79
459.48	6958.41
459.66	6848.41
459.84	7037.99
460.03	7016.93
460.21	6956.07
460.39	6967.77
460.57	6899.90
460.76	6977.14
460.94	7176.08
461.12	7082.46
461.31	7225.23
461.49	7002.88
461.67	7030.97
461.85	7295.45
462.04	7047.35
462.22	7529.50
462.40	7339.92
462.59	7391.41
462.77	7176.08
462.95	7258.00
463.13	7339.92
463.32	7353.96
463.50	7391.41
463.68	7578.65
463.86	7368.01
464.05	7452.27
464.23	7522.48
464.41	7681.64
464.59	7384.39
464.78	7737.81
464.96	7578.65
465.14	7346.94
465.32	7751.85
465.50	7669.94
465.69	7590.36
465.87	7606.74
466.05	7695.68
466.23	7672.28
466.41	7756.54
466.60	8006.97
466.78	7595.04
466.96	7721.43
467.14	7719.09
467.32	7817.39
467.51	7831.43
467.69	7550.57
467.87	8009.31
468.05	7634.83
468.23	7772.92
468.41	7810.37
468.60	8105.28
468.78	8004.63
468.96	8016.33
469.14	7880.58
469.32	8128.68
469.50	7922.71
469.69	8313.58
469.87	8107.62
470.05	8287.84
470.23	8257.41
470.41	8329.97
470.59	8517.21
470.77	8215.28
470.95	8292.52
471.14	8374.44
471.32	8500.83
471.50	8685.73
471.68	8500.83
471.86	8580.40
472.04	8437.63
472.22	8718.50
472.40	8411.89
472.58	8821.48
472.77	8915.10
472.95	8924.46
473.13	9153.84
473.31	8891.70
473.49	8901.06
473.67	9060.21
473.85	8882.33
474.03	8992.34
474.21	9039.15
474.39	9240.44
474.57	9437.04
474.75	9385.55
474.93	9561.09
475.12	9298.95
475.30	9156.18
475.48	9128.09
475.66	9650.03
475.84	9455.76
476.02	9533.00
476.20	9579.81
476.38	9785.78
476.56	10129.84
476.74	10050.26
476.92	9926.21
477.10	9795.14
477.28	10188.35
477.46	9912.17
477.64	10059.62
477.82	10317.08
478.00	10602.63
478.18	10492.62
478.36	10668.16
478.54	10785.19
478.72	10602.63
478.90	11019.24
479.08	10942.00
479.26	10986.47
479.44	11243.93
479.62	11005.20
479.80	11213.51
479.98	11169.04
480.16	11386.71
480.34	11372.66
480.52	11543.52
480.70	11698.00
480.88	11496.71
481.06	11438.20
481.24	11712.04
481.41	11857.15
481.59	11978.86
481.77	12217.60
481.95	12109.93
482.13	12475.06
482.31	12407.18
482.49	12517.18
482.67	12624.85
482.85	12800.39
483.03	12912.74
483.21	12851.88
483.39	13195.94
483.57	13097.64
483.74	13029.76
483.92	13352.76
484.10	13198.28
484.28	13687.45
484.46	13806.82
484.64	13708.52
484.82	13600.85
485.00	13767.03
485.18	14120.45
485.35	14314.72
485.53	14125.13
485.71	14223.44
485.89	14682.18
486.07	14565.15
486.25	14647.07
486.43	14721.97
486.61	14874.10
486.78	15037.94
486.96	15077.73
487.14	15201.78
487.32	15279.02
487.50	15571.58
487.68	15400.72
487.85	15651.16
488.03	16060.76
488.21	16259.70
488.39	16175.44
488.57	16049.05
488.75	16388.43
488.92	16346.30
489.10	16425.88
489.28	16800.37
489.46	16903.35
489.64	16259.70
489.81	16903.35
489.99	17118.68
490.17	17341.03
490.35	17448.69
490.53	17123.36
490.70	17846.58
490.88	17830.20
491.06	17891.06
491.24	17722.54
491.41	17867.65
491.59	18370.86
491.77	18321.71
491.95	18827.27
492.13	18499.59
492.30	18429.38
492.48	18513.64
492.66	18181.28
492.84	18604.92
493.01	19042.60
493.19	19157.28
493.37	19208.78
493.54	19250.91
493.72	19543.47
493.90	19164.31
494.08	19438.15
494.25	19756.46
494.43	19850.08
494.61	20095.84
494.79	20079.46
494.96	19943.70
495.14	20201.16
495.32	20325.21
495.49	20372.02
495.67	20528.84
495.85	20751.19
496.02	20730.12
496.20	21050.78
496.38	20900.98
496.55	20994.61
496.73	21439.31
496.91	21165.46
497.09	21493.14
497.26	21516.54
497.44	21717.83
497.62	21635.91
497.79	22059.55
497.97	22061.89
498.14	21979.97
498.32	22328.71
498.50	22256.15
498.67	22497.23
498.85	22511.27
499.03	22272.54
499.20	22593.19
499.38	22515.95
499.56	22974.70
499.73	22822.56
499.91	22838.95
500.08	23318.76
500.26	23063.64
500.44	23330.46
500.61	23271.95
500.79	23548.13
500.97	23639.41
501.14	23587.92
501.32	23751.76
501.49	23463.87
501.67	23749.42
501.84	23812.61
502.02	23981.13
502.20	24077.09
502.37	24276.04
502.55	24224.54
502.72	24753.51
502.90	24196.46
503.07	24533.50
503.25	24357.96
503.43	24680.95
503.60	24603.71
503.78	24907.98
503.95	24826.06
504.13	25064.80
504.30	24685.63
504.48	25125.65
504.65	25242.68
504.83	25249.70
505.01	25539.93
505.18	25076.50
505.36	25348.00
505.53	26001.01
505.71	25638.23
505.88	25656.95
506.06	25825.47
506.23	25678.02
506.41	25895.69
506.58	26419.97
506.76	25778.66
506.93	25891.01
507.11	26075.91
507.28	26249.11
507.46	26295.92
507.63	26511.25
507.81	26618.91
507.98	26319.32
508.16	26455.08
508.33	26607.21
508.50	27028.51
508.68	27332.78
508.85	27168.94
509.03	26934.88
509.20	27419.38
509.38	27173.62
509.55	27777.48
509.73	27243.84
509.90	27826.63
510.08	27555.13
510.25	27377.25
510.42	27826.63
510.60	27786.84
510.77	28177.71
510.95	28144.94
511.12	28100.47
511.30	27845.35
511.47	28264.31
511.64	28201.11
511.82	28245.58
511.99	28432.83
512.17	28636.45
512.34	28135.58
512.51	28884.55
512.69	28877.53
512.86	28842.42
513.04	29146.69
513.21	29195.84
513.38	29071.79
513.56	29165.42
513.73	28985.19
513.90	29172.44
514.08	29081.16
514.25	29570.33
514.43	29242.65
514.60	29289.46
514.77	29741.19
514.95	29511.81
515.12	29766.93
515.29	29509.47
515.47	29837.15
515.64	30260.79
515.81	30040.78
515.99	30431.65
516.16	30319.30
516.33	30068.86
516.51	30452.71
516.68	30167.16
516.85	30312.28
517.03	30766.34
517.20	30632.93
517.37	30754.64
517.54	31133.81
517.72	30794.43
517.89	30658.68
518.06	30829.54
518.24	30672.72
518.41	30902.09
518.58	30808.47
518.75	31311.69
518.93	31337.43
519.10	31290.62
519.27	31709.58
519.45	31110.40
519.62	31372.54
519.79	31108.06
519.96	31765.75
520.14	31515.31
520.31	31353.82
520.48	31791.50
520.65	31852.35
520.83	31859.37
521.00	32095.77
521.17	31775.11
521.34	32348.54
521.52	32037.25
521.69	32301.73
521.86	32444.51
522.03	32598.98
522.20	32790.91
522.38	32184.71
522.55	32776.86
522.72	32570.90
522.89	32842.40
523.07	32802.61
523.24	32701.96
523.41	33378.38
523.58	32566.21
523.75	33340.93
523.92	32950.06
524.10	33254.33
524.27	33317.53
524.44	33350.29
524.61	33731.80
524.78	33338.59
524.96	33366.68
525.13	33551.58
525.30	33710.74
525.47	33921.38
525.64	33757.55
525.81	33773.93
525.98	34047.77
526.16	34213.95
526.33	34213.95
526.50	34424.60
526.67	33692.01
526.84	34185.86
527.01	34064.16
527.18	34373.11
527.36	34387.15
527.53	34361.40
527.70	34515.88
527.87	34604.82
528.04	34740.57
528.21	34752.27
528.38	34485.45
528.55	34920.79
528.72	34888.03
528.89	35173.57
529.07	35075.27
529.24	34607.16
529.41	35044.84
529.58	34878.66
529.75	34782.70
529.92	34775.68
530.09	34888.03
530.26	35372.52
530.43	35739.98
530.60	35248.47
530.77	35442.73
530.94	35227.40
531.11	35271.87
531.28	35344.43
531.46	35601.89
531.63	35562.10
531.80	35686.15
531.97	36184.68
532.14	35978.72
532.31	35440.39
532.48	35578.48
532.65	35861.69
532.82	35480.18
532.99	35962.33
533.16	35852.33
533.33	36091.06
533.50	36261.92
533.67	36194.04
533.84	36603.64
534.01	36023.19
534.18	35992.76
534.35	36430.44
534.52	36187.02
534.69	36451.50
534.86	36692.58
535.03	36182.34
535.20	36432.78
535.37	36561.51
535.54	36491.29
535.71	36367.24
535.88	36395.33
536.05	36629.38
536.22	36718.32
536.38	37336.23
536.55	36975.78
536.72	37092.81
536.89	36849.39
537.06	37092.81
537.23	37041.32
537.40	36926.63
537.57	37308.14
537.74	36715.98
537.91	37308.14
538.08	37675.60
538.25	37167.71
538.42	37612.41
538.59	37617.09
538.75	37399.42
538.92	37329.20
539.09	37869.87
539.26	37855.82
539.43	37741.14
539.60	37865.19
539.77	38150.73
539.94	38075.84
540.11	38017.32
540.28	38064.13
540.44	38265.42
540.61	38487.77
540.78	38375.42
540.95	38565.01
541.12	38122.65
541.29	38452.66
541.46	38073.49
541.62	38302.87
541.79	38176.48
541.96	37958.81
542.13	38649.27
542.30	38609.48
542.47	38808.42
542.63	38976.94
542.80	38763.95
542.97	38967.58
543.14	38925.45
543.31	39012.05
543.48	39239.08
543.64	39402.92
543.81	39629.95
543.98	39482.50
544.15	39269.51
544.32	39367.81
544.48	39498.88
544.65	39480.16
544.82	39442.71
544.99	39084.61
545.16	39651.02
545.32	39047.16
545.49	39831.24
545.66	40634.04
545.83	40299.34
546.00	40683.19
546.16	39735.27
546.33	39744.64
546.50	39321.00
546.67	39529.31
546.83	39159.50
547.00	39646.33
547.17	39756.34
547.34	39845.28
547.50	40114.44
547.67	39950.60
547.84	39824.22
548.00	40130.83
548.17	39969.33
548.34	40016.14
548.51	39959.97
548.67	40072.31
548.84	39608.89
549.01	40098.06
549.18	40187.00
549.34	40095.72
549.51	40521.69
549.68	40109.76
549.84	39761.02
550.01	40194.02
550.18	40203.38
550.34	40301.68
550.51	40655.11
550.68	40734.68
550.84	39859.32
551.01	40151.89
551.18	40446.80
551.34	39943.58
551.51	40254.87
551.68	40580.21
551.84	40399.99
552.01	40517.01
552.18	40479.57
552.34	40275.94
552.51	40591.91
552.68	40507.65
552.84	40575.53
553.01	40891.50
553.18	40734.68
553.34	41097.47
553.51	41027.25
553.67	41179.39
553.84	41116.19
554.01	40891.50
554.17	40931.29
554.34	40797.88
554.51	40840.01
554.67	41003.85
554.84	40818.94
555.00	41214.49
555.17	41174.70
555.33	41085.76
555.50	41010.87
555.67	41057.68
555.83	40800.22
556.00	40928.95
556.16	41401.74
556.33	40734.68
556.50	41081.08
556.66	41563.23
556.83	40828.30
556.99	42003.25
557.16	41523.44
557.32	41806.65
557.49	41287.05
557.65	40739.36
557.82	41244.92
557.98	41326.84
558.15	41394.71
558.32	41429.82
558.48	41413.44
558.65	41591.32
558.81	41755.16
558.98	41855.80
559.14	41478.97
559.31	41209.81
559.47	40954.69
559.64	41268.33
559.80	41443.87
559.97	41429.82
560.13	40975.76
560.30	41542.17
560.46	42199.86
560.63	41787.92
560.79	41588.98
560.96	41792.61
561.12	41230.88
561.29	41600.68
561.45	41462.59
561.61	41879.21
561.78	41640.47
561.94	41698.98
562.11	41937.72
562.27	41397.06
562.44	41043.63
562.60	41631.11
562.77	41666.22
562.93	41216.83
563.10	42045.38
563.26	41558.55
563.42	41907.29
563.59	41909.63
563.75	41640.47
563.92	41794.95
564.08	41626.43
564.24	42003.25
564.41	41619.41
564.57	41853.46
564.74	41773.88
564.90	41757.50
565.07	42005.59
565.23	41996.23
565.39	41865.16
565.56	42546.26
565.72	41696.64
565.88	41926.02
566.05	41731.75
566.21	41642.81
566.38	41930.70
566.54	41904.95
566.70	42031.34
566.87	42239.65
567.03	42312.20
567.19	42375.40
567.36	42045.38
567.52	41738.77
567.68	42396.46
567.85	41989.21
568.01	42260.71
568.17	41926.02
568.34	42300.50
568.50	42438.59
568.66	42188.16
568.83	42003.25
568.99	42017.30
569.15	41879.21
569.32	41954.10
569.48	41909.63
569.64	42546.26
569.81	41872.18
569.97	42148.37
570.13	41872.18
570.30	42188.16
570.46	42134.32
570.62	42232.63
570.78	41621.75
570.95	41942.40
571.11	41659.20
571.27	41869.84
571.43	41897.93
571.60	42244.33
571.76	42082.83
571.92	42485.40
572.09	42464.34
572.25	42241.99
572.41	42452.64
572.57	42244.33
572.74	42087.51
572.90	42288.80
573.06	42492.43
573.22	42380.08
573.38	42157.73
573.55	42417.53
573.71	42382.42
573.87	42670.31
574.03	42171.77
574.20	42057.09
574.36	42014.96
574.52	42398.80
574.68	42036.02
574.84	42394.12
575.01	42490.09
575.17	42705.41
575.33	42515.83
575.49	42014.96
575.65	42370.72
575.82	42682.01
575.98	41979.85
576.14	42174.11
576.30	42230.29
576.46	42536.90
576.62	42541.58
576.79	42579.03
576.95	42256.03
577.11	42155.39
577.27	42438.59
577.43	42286.46
577.59	42424.55
577.75	42426.89
577.92	42117.94
578.08	41961.12
578.24	42141.35
578.40	42216.24
578.56	42597.75
578.72	42426.89
578.88	43075.22
579.04	42796.70
579.21	42803.72
579.37	42712.44
579.53	42288.80
579.69	42454.98
579.85	42567.32
580.01	42955.85
580.17	42576.69
580.33	42225.60
580.49	42103.90
580.65	42333.27
580.82	42658.60
580.98	42445.62
581.14	42508.81
581.30	42670.31
581.46	42197.52
581.62	42745.20
581.78	41865.16
581.94	42576.69
582.10	42284.12
582.26	42583.71
582.42	42394.12
582.58	42609.45
582.74	42354.33
582.90	42731.16
583.06	42686.69
583.22	42305.18
583.38	42391.78
583.54	42188.16
583.70	42146.03
583.86	42267.73
584.02	41874.52
584.18	42405.83
584.34	42637.54
584.50	42616.47
584.66	42206.88
584.82	42445.62
584.98	42274.76
585.14	42139.00
585.30	42480.72
585.46	42206.88
585.62	42319.23
585.78	42244.33
585.94	42288.80
586.10	42494.77
586.26	42557.96
586.42	42735.84
586.58	42714.78
586.74	42148.37
586.90	42595.41
587.06	41993.89
587.22	42169.43
587.38	42148.37
587.54	42508.81
587.70	43026.07
587.86	42677.33
588.02	42752.23
588.18	42845.85
588.34	42377.74
588.49	42766.27
588.65	42431.57
588.81	42328.59
588.97	42792.01
589.13	42370.72
589.29	42777.97
589.45	42698.39
589.61	42597.75
589.77	42934.79
589.93	42738.18
590.08	42988.62
590.24	42930.11
590.40	42958.19
590.56	42614.13
590.72	42454.98
590.88	42291.14
591.04	42469.02
