SpectraSuite Data File
++++++++++++++++++++++++++++++++++++
Date: Fri Oct 04 11:39:13 GMT-05:00 2013
User: price-jones
Dark Spectrum Present: No
Reference Spectrum Present: No
Number of Sampled Component Spectra: 1
Spectrometers: USB2+H05261
Integration Time (usec): 100000 (USB2+H05261)
Spectra Averaged: 1 (USB2+H05261)
Boxcar Smoothing: 0 (USB2+H05261)
Correct for Electrical Dark: No (USB2+H05261)
Strobe/Lamp Enabled: No (USB2+H05261)
Correct for Detector Non-linearity: No (USB2+H05261)
Correct for Stray Light: No (USB2+H05261)
Number of Pixels in Processed Spectrum: 2048
>>>>>Begin Processed Spectral Data<<<<<
365.73	79.58
365.92	79.58
366.12	79.58
366.32	0.00
366.52	0.00
366.72	0.00
366.91	0.00
367.11	51.49
367.31	0.00
367.51	0.00
367.70	0.00
367.90	0.00
368.10	0.00
368.30	0.00
368.49	4.68
368.69	35.11
368.89	0.00
369.09	0.00
369.28	0.00
369.48	0.00
369.68	0.00
369.87	0.00
370.07	0.00
370.27	119.37
370.47	84.26
370.66	126.39
370.86	145.11
371.06	220.01
371.25	250.44
371.45	135.75
371.65	252.78
371.84	198.95
372.04	175.54
372.24	241.08
372.44	161.50
372.63	248.10
372.83	264.48
373.03	231.71
373.22	264.48
373.42	236.39
373.62	238.73
373.81	280.86
374.01	255.12
374.21	280.86
374.40	243.42
374.60	276.18
374.79	175.54
374.99	227.03
375.19	231.71
375.38	262.14
375.58	273.84
375.78	294.91
375.97	252.78
376.17	327.68
376.37	250.44
376.56	245.76
376.76	238.73
376.95	168.52
377.15	264.48
377.35	297.25
377.54	259.80
377.74	220.01
377.93	243.42
378.13	294.91
378.33	313.63
378.52	227.03
378.72	327.68
378.91	294.91
379.11	276.18
379.31	294.91
379.50	191.92
379.70	318.31
379.89	266.82
380.09	290.23
380.28	262.14
380.48	243.42
380.68	227.03
380.87	245.76
381.07	315.97
381.26	273.84
381.46	236.39
381.65	290.23
381.85	238.73
382.04	330.02
382.24	248.10
382.43	271.50
382.63	290.23
382.83	301.93
383.02	337.04
383.22	264.48
383.41	224.69
383.61	294.91
383.80	297.25
384.00	344.06
384.19	325.33
384.39	330.02
384.58	339.38
384.78	241.08
384.97	346.40
385.17	224.69
385.36	304.27
385.56	346.40
385.75	269.16
385.95	365.12
386.14	322.99
386.34	362.78
386.53	400.23
386.72	313.63
386.92	339.38
387.11	374.49
387.31	358.10
387.50	376.83
387.70	379.17
387.89	386.19
388.09	304.27
388.28	311.29
388.48	313.63
388.67	348.74
388.86	327.68
389.06	362.78
389.25	379.17
389.45	414.27
389.64	397.89
389.84	337.04
390.03	428.32
390.22	381.51
390.42	372.15
390.61	320.65
390.81	451.72
391.00	332.36
391.19	454.06
391.39	388.53
391.58	449.38
391.78	386.19
391.97	404.91
392.16	456.40
392.36	358.10
392.55	404.91
392.75	337.04
392.94	465.77
393.13	451.72
393.33	416.62
393.52	454.06
393.71	437.68
393.91	437.68
394.10	442.36
394.29	428.32
394.49	428.32
394.68	388.53
394.88	475.13
395.07	435.34
395.26	440.02
395.46	451.72
395.65	489.17
395.84	463.43
396.04	545.34
396.23	505.56
396.42	475.13
396.62	514.92
396.81	512.58
397.00	477.47
397.19	435.34
397.39	482.15
397.58	437.68
397.77	447.04
397.97	519.60
398.16	482.15
398.35	486.83
398.55	510.24
398.74	535.98
398.93	545.34
399.12	454.06
399.32	510.24
399.51	465.77
399.70	543.00
399.90	545.34
400.09	592.16
400.28	603.86
400.47	573.43
400.67	627.26
400.86	540.66
401.05	550.03
401.24	610.88
401.44	566.41
401.63	620.24
401.82	610.88
402.01	587.47
402.21	641.31
402.40	622.58
402.59	678.76
402.78	608.54
402.97	657.69
403.17	599.18
403.36	643.65
403.55	669.39
403.74	603.86
403.93	674.07
404.13	737.27
404.32	669.39
404.51	709.18
404.70	718.54
404.89	615.56
405.09	723.23
405.28	695.14
405.47	636.63
405.66	725.57
405.85	763.01
406.05	702.16
406.24	763.01
406.43	704.50
406.62	739.61
406.81	720.88
407.00	800.46
407.20	737.27
407.39	758.33
407.58	760.67
407.77	746.63
407.96	763.01
408.15	910.47
408.34	723.23
408.54	770.04
408.73	866.00
408.92	777.06
409.11	826.21
409.30	837.91
409.49	870.68
409.68	758.33
409.87	830.89
410.07	786.42
410.26	837.91
410.45	964.30
410.64	814.51
410.83	851.96
411.02	781.74
411.21	978.34
411.40	856.64
411.59	926.85
411.78	908.13
411.98	931.53
412.17	887.06
412.36	924.51
412.55	898.77
412.74	976.00
412.93	1034.52
413.12	992.39
413.31	1053.24
413.50	1015.79
413.69	1064.94
413.88	1069.62
414.07	1067.28
414.26	1053.24
414.45	997.07
414.64	1142.18
414.83	1114.10
415.02	1097.71
415.22	1116.44
415.41	1130.48
415.60	1114.10
415.79	1027.50
415.98	1188.99
416.17	1219.42
416.36	1132.82
416.55	1163.25
416.74	1191.33
416.93	1116.44
417.12	1296.66
417.31	1219.42
417.50	1242.82
417.69	1193.67
417.88	1280.27
418.07	1240.48
418.26	1224.10
418.45	1336.45
418.64	1331.76
418.83	1313.04
419.02	1373.89
419.21	1331.76
419.39	1289.64
419.58	1315.38
419.77	1315.38
419.96	1320.06
420.15	1378.58
420.34	1385.60
420.53	1329.42
420.72	1481.56
420.91	1355.17
421.10	1469.86
421.29	1308.36
421.48	1486.24
421.67	1448.79
421.86	1409.00
422.05	1446.45
422.24	1359.85
422.43	1441.77
422.61	1486.24
422.80	1458.15
422.99	1453.47
423.18	1441.77
423.37	1521.35
423.56	1446.45
423.75	1362.19
423.94	1385.60
424.13	1401.98
424.32	1460.49
424.50	1458.15
424.69	1437.09
424.88	1425.39
425.07	1425.39
425.26	1451.13
425.45	1500.28
425.64	1446.45
425.83	1582.20
426.01	1530.71
426.20	1495.60
426.39	1519.01
426.58	1425.39
426.77	1521.35
426.96	1488.58
427.15	1472.20
427.33	1511.99
427.52	1530.71
427.71	1516.67
427.90	1556.46
428.09	1519.01
428.28	1572.84
428.46	1621.99
428.65	1645.40
428.84	1584.54
429.03	1610.29
429.22	1568.16
429.40	1645.40
429.59	1680.50
429.78	1568.16
429.97	1610.29
430.16	1621.99
430.34	1645.40
430.53	1729.66
430.72	1631.35
430.91	1694.55
431.10	1774.13
431.28	1732.00
431.47	1673.48
431.66	1842.00
431.85	1734.34
432.03	1755.40
432.22	1816.26
432.41	1827.96
432.60	1769.44
432.79	1750.72
432.97	1750.72
433.16	1842.00
433.35	1790.51
433.54	1963.71
433.72	1757.74
433.91	1809.23
434.10	1893.49
434.28	1785.83
434.47	1865.41
434.66	1912.22
434.85	1942.64
435.03	1888.81
435.22	2010.52
435.41	2258.62
435.59	2190.74
435.78	2108.82
435.97	1893.49
436.16	1982.43
436.34	1834.98
436.53	2026.90
436.72	1975.41
436.90	1802.21
437.09	1952.01
437.28	2052.65
437.46	1888.81
437.65	1968.39
437.84	1942.64
438.02	1893.49
438.21	2092.44
438.40	1956.69
438.58	2033.93
438.77	2012.86
438.96	2029.24
439.14	2092.44
439.33	2022.22
439.52	2111.16
439.70	2059.67
439.89	2113.50
440.08	2118.18
440.26	2197.76
440.45	2230.53
440.63	2181.38
440.82	2179.04
441.01	2139.25
441.19	2267.98
441.38	2232.87
441.57	2218.83
441.75	2289.04
441.94	2420.11
442.12	2160.31
442.31	2380.32
442.50	2448.20
442.68	2324.15
442.87	2333.51
443.05	2333.51
443.24	2436.50
443.43	2352.24
443.61	2345.22
443.80	2464.58
443.98	2434.16
444.17	2429.48
444.35	2441.18
444.54	2581.61
444.73	2373.30
444.91	2352.24
445.10	2317.13
445.28	2361.60
445.47	2410.75
445.65	2534.80
445.84	2441.18
446.02	2478.63
446.21	2413.09
446.39	2417.77
446.58	2377.98
446.77	2513.74
446.95	2534.80
447.14	2530.12
447.32	2499.69
447.51	2532.46
447.69	2499.69
447.88	2483.31
448.06	2441.18
448.25	2415.43
448.43	2483.31
448.62	2410.75
448.80	2658.85
448.99	2480.97
449.17	2539.48
449.36	2459.90
449.54	2502.03
449.73	2574.59
449.91	2679.91
450.10	2614.38
450.28	2642.46
450.46	2675.23
450.65	2754.81
450.83	2583.95
451.02	2623.74
451.20	2654.17
451.39	2530.12
451.57	2619.06
451.76	2590.97
451.94	2574.59
452.13	2773.53
452.31	2693.96
452.49	2677.57
452.68	2633.10
452.86	2750.13
453.05	2864.82
453.23	2808.64
453.42	2796.94
453.60	2736.09
453.78	2670.55
453.97	2665.87
454.15	2696.30
454.34	2637.78
454.52	2843.75
454.70	2754.81
454.89	2949.08
455.07	2820.35
455.26	2789.92
455.44	2944.39
455.62	2803.96
455.81	2867.16
455.99	2913.97
456.17	2916.31
456.36	2904.60
456.54	2911.63
456.73	2806.30
456.91	2995.89
457.09	2993.55
457.28	3038.02
457.46	3016.95
457.64	3035.67
457.83	3056.74
458.01	2906.95
458.19	3103.55
458.38	3005.25
458.56	3201.85
458.74	3141.00
458.93	3054.40
459.11	3117.59
459.29	3112.91
459.48	3143.34
459.66	3105.89
459.84	3269.73
460.03	3325.90
460.21	3229.94
460.39	3204.19
460.57	3190.15
460.76	3243.98
460.94	3220.58
461.12	3087.17
461.31	3314.20
461.49	3290.79
461.67	3293.13
461.85	3393.78
462.04	3314.20
462.22	3375.05
462.40	3314.20
462.59	3412.50
462.77	3393.78
462.95	3325.90
463.13	3260.37
463.32	3272.07
463.50	3353.99
463.68	3339.94
463.86	3342.28
464.05	3370.37
464.23	3227.60
464.41	3396.12
464.59	3251.00
464.78	3417.18
464.96	3398.46
465.14	3323.56
465.32	3449.95
465.50	3599.74
465.69	3503.78
465.87	3456.97
466.05	3375.05
466.23	3363.35
466.41	3459.31
466.60	3454.63
466.78	3346.97
466.96	3365.69
467.14	3473.36
467.32	3445.27
467.51	3569.32
467.69	3412.50
467.87	3433.57
468.05	3506.12
468.23	3531.87
468.41	3595.06
468.60	3576.34
468.78	3679.32
468.96	3611.45
469.14	3508.46
469.32	3667.62
469.50	3585.70
469.69	3660.60
469.87	3665.28
470.05	3637.19
470.23	3674.64
470.41	3693.37
470.59	3768.26
470.77	3882.95
470.95	3866.56
471.14	3782.31
471.32	3878.27
471.50	3953.16
471.68	3915.72
471.86	3953.16
472.04	3791.67
472.22	3911.04
472.40	3847.84
472.58	3873.59
472.77	3829.12
472.95	4058.49
473.13	4109.98
473.31	4060.83
473.49	3983.59
473.67	3983.59
473.85	4152.11
474.03	4133.39
474.21	4121.68
474.39	4203.60
474.57	4194.24
474.75	4189.56
474.93	4182.54
475.12	4212.96
475.30	4194.24
475.48	4231.69
475.66	4285.52
475.84	4243.39
476.02	4280.84
476.20	4318.29
476.38	4447.02
476.56	4458.72
476.74	4353.40
476.92	4531.28
477.10	4411.91
477.28	4521.92
477.46	4545.32
477.64	4622.56
477.82	4510.21
478.00	4650.64
478.18	4762.99
478.36	4737.24
478.54	4800.44
478.72	4875.34
478.90	4880.02
479.08	4903.42
479.26	4755.97
479.44	4997.04
479.62	4957.25
479.80	4990.02
479.98	5041.51
480.16	5205.35
480.34	5074.28
480.52	5212.37
480.70	5158.54
480.88	5186.63
481.06	5151.52
481.24	5221.74
481.41	5313.02
481.59	5441.75
481.77	5378.55
481.95	5521.32
482.13	5579.84
482.31	5558.77
482.49	5645.37
482.67	5533.03
482.85	5537.71
483.03	5849.00
483.21	5706.23
483.39	5827.93
483.57	5685.16
483.74	5764.74
483.92	5989.43
484.10	5877.09
484.28	5888.79
484.46	6101.78
484.64	6265.61
484.82	5860.70
485.00	6153.27
485.18	6150.93
485.35	6125.18
485.53	6197.74
485.71	6228.17
485.89	6408.39
486.07	6520.73
486.25	6424.77
486.43	6471.58
486.61	6630.74
486.78	6675.21
486.96	6675.21
487.14	6918.62
487.32	6663.51
487.50	6895.22
487.68	6960.75
487.85	6918.62
488.03	6913.94
488.21	7337.58
488.39	7019.27
488.57	7148.00
488.75	7052.03
488.92	7435.88
489.10	7463.97
489.28	7407.80
489.46	7358.64
489.64	7414.82
489.81	7688.66
489.99	7770.58
490.17	7623.12
490.35	7927.39
490.53	7669.94
490.70	7817.39
490.88	7770.58
491.06	7850.16
491.24	7885.26
491.41	7765.90
491.59	7829.09
491.77	7957.82
491.95	7995.27
492.13	8051.44
492.30	8042.08
492.48	8088.89
492.66	8219.96
492.84	8351.03
493.01	8540.61
493.19	8226.98
493.37	8521.89
493.54	8446.99
493.72	8381.46
493.90	8678.71
494.08	8599.13
494.25	8793.39
494.43	8758.28
494.61	8540.61
494.79	8889.35
494.96	8659.98
495.14	9202.99
495.32	9027.45
495.49	9139.79
495.67	9071.92
495.85	9280.22
496.02	9191.28
496.20	9359.80
496.38	9156.18
496.55	9102.34
496.73	9490.87
496.91	9493.21
497.09	9369.16
497.26	9507.26
497.44	9493.21
497.62	9446.40
497.79	9736.63
497.97	9720.24
498.14	9596.20
498.32	9671.09
498.50	9710.88
498.67	9860.68
498.85	9825.57
499.03	9958.98
499.20	10214.10
499.38	10047.92
499.56	9778.76
499.73	9977.70
499.91	10127.50
500.08	10211.76
500.26	10064.30
500.44	10115.80
500.61	10256.23
500.79	10363.89
500.97	10310.06
501.14	10443.47
501.32	10560.50
501.49	10478.58
501.67	10310.06
501.84	10637.73
502.02	10614.33
502.20	10675.18
502.37	10670.50
502.55	10534.75
502.72	10560.50
502.90	10656.46
503.07	10600.29
503.25	10548.79
503.43	10803.91
503.60	10721.99
503.78	10745.40
503.95	10724.33
504.13	10885.83
504.30	10806.25
504.48	11047.33
504.65	11192.44
504.83	11283.72
505.01	11262.66
505.18	11061.37
505.36	11007.54
505.53	11136.27
505.71	11316.49
505.88	11169.04
506.06	11082.44
506.23	11211.17
506.41	11265.00
506.58	11492.03
506.76	11513.10
506.93	11262.66
507.11	11463.94
507.28	11712.04
507.46	11597.35
507.63	11545.86
507.81	11779.92
507.98	11531.82
508.16	11524.80
508.33	11733.11
508.50	11779.92
508.68	11864.18
508.85	11981.20
509.03	11903.96
509.20	11927.37
509.38	12123.98
509.55	12053.76
509.73	12093.55
509.90	12198.87
510.08	11866.52
510.25	12131.00
510.42	12217.60
510.60	12453.99
510.77	12367.39
510.95	12439.95
511.12	12325.26
511.30	12472.71
511.47	12346.33
511.64	12547.61
511.82	12571.02
511.99	12475.06
512.17	12470.37
512.34	12648.26
512.51	12744.22
512.69	12725.49
512.86	12496.12
513.04	12671.66
513.21	12968.91
513.38	12702.09
513.56	12933.80
513.73	12912.74
513.90	12847.20
514.08	13013.38
514.25	12753.58
514.43	13074.23
514.60	13055.51
514.77	12877.63
514.95	12840.18
515.12	13034.44
515.29	12968.91
515.47	13188.92
515.64	13209.98
515.81	13099.98
515.99	13352.76
516.16	13462.76
516.33	13287.22
516.51	13338.71
516.68	13191.26
516.85	13275.52
517.03	13163.17
517.20	13385.52
517.37	13355.10
517.54	13764.69
517.72	13270.84
517.89	13465.10
518.06	13706.18
518.24	13565.74
518.41	13542.34
518.58	13731.92
518.75	13654.69
518.93	13806.82
519.10	13750.65
519.27	13760.01
519.45	13795.12
519.62	13734.26
519.79	13750.65
519.96	13816.18
520.14	14125.13
520.31	13874.70
520.48	14108.75
520.65	13984.70
520.83	14010.45
521.00	14099.39
521.17	13937.89
521.34	14190.67
521.52	14232.80
521.69	14281.95
521.86	14153.22
522.03	14122.79
522.20	14527.71
522.38	14214.07
522.55	14410.68
522.72	14286.63
522.89	14354.51
523.07	14843.68
523.24	14345.14
523.41	14478.55
523.58	14562.81
523.75	14506.64
523.92	14480.89
524.10	14295.99
524.27	14738.35
524.44	14787.50
524.61	14740.69
524.78	14810.91
524.96	14750.06
525.13	14712.61
525.30	14871.76
525.47	14963.04
525.64	14857.72
525.81	14881.13
525.98	15154.97
526.16	14899.85
526.33	14970.07
526.50	15208.80
526.67	15096.46
526.84	15089.43
527.01	14871.76
527.18	15080.07
527.36	15094.11
527.53	15009.86
527.70	15513.07
527.87	15318.81
528.04	15147.95
528.21	15407.75
528.38	14988.79
528.55	15281.36
528.72	15152.63
528.89	15679.25
529.07	15492.01
529.24	15438.17
529.41	15351.57
529.58	15356.25
529.75	15161.99
529.92	15536.48
530.09	15709.68
530.26	15389.02
530.43	15541.16
530.60	15632.44
530.77	15454.56
530.94	15562.22
531.11	15557.54
531.28	15630.10
531.46	15674.57
531.63	15707.34
531.80	16020.97
531.97	15791.59
532.14	15833.72
532.31	15917.98
532.48	15786.91
532.65	15836.06
532.82	15744.78
532.99	15887.56
533.16	15730.74
533.33	15932.03
533.50	15875.85
533.67	16023.31
533.84	15798.62
534.01	15971.82
534.18	15983.52
534.35	16280.77
534.52	16301.83
534.69	16198.85
534.86	16240.98
535.03	16262.04
535.20	16287.79
535.37	16182.46
535.54	16313.53
535.71	16432.90
535.88	16425.88
536.05	16568.65
536.22	16257.36
536.38	16271.40
536.55	16273.74
536.72	16269.06
536.89	16248.00
537.06	16437.58
537.23	16519.50
537.40	16587.38
537.57	16313.53
537.74	16290.13
537.91	16704.40
538.08	16566.31
538.25	16552.27
538.42	16697.38
538.59	16936.12
538.75	16617.80
538.92	16453.97
539.09	16964.20
539.26	16807.39
539.43	17020.38
539.60	16582.70
539.77	16863.56
539.94	16877.60
540.11	16987.61
540.28	17020.38
540.44	17025.06
540.61	16896.33
540.78	16809.73
540.95	17069.53
541.12	17275.49
541.29	17341.03
541.46	17341.03
541.62	17067.19
541.79	17366.78
541.96	17102.29
542.13	17102.29
542.30	17177.19
542.47	17451.03
542.63	17329.33
542.80	17163.15
542.97	17809.14
543.14	17373.80
543.31	17778.71
543.48	17355.07
543.64	17539.97
543.81	17495.50
543.98	17869.99
544.15	17481.46
544.32	17568.06
544.48	17799.77
544.65	17757.64
544.82	17729.56
544.99	17596.15
545.16	17996.38
545.32	17823.18
545.49	18061.91
545.66	18225.75
545.83	18429.38
546.00	18572.15
546.16	18132.13
546.33	17888.71
546.50	17769.35
546.67	17848.93
546.83	17525.93
547.00	17720.20
547.17	17516.57
547.34	17680.41
547.50	17935.53
547.67	18274.90
547.84	17638.28
548.00	17942.55
548.17	17844.24
548.34	17862.97
548.51	18043.19
548.67	18127.45
548.84	18061.91
549.01	18064.25
549.18	17855.95
549.34	17724.88
549.51	17596.15
549.68	18057.23
549.84	17898.08
550.01	17968.29
550.18	17792.75
550.34	18167.24
550.51	18113.41
550.68	18129.79
550.84	17977.65
551.01	18188.30
551.18	18094.68
551.34	17848.93
551.51	17755.30
551.68	18214.05
551.84	18441.08
552.01	17851.27
552.18	18139.15
552.34	18216.39
552.51	18302.99
552.68	18167.24
552.84	18162.56
553.01	18405.97
553.18	18569.81
553.34	18260.86
553.51	18331.08
553.67	18370.86
553.84	18633.00
554.01	18508.96
554.17	18384.91
554.34	18464.49
554.51	18352.14
554.67	18527.68
554.84	18462.15
555.00	18307.67
555.17	18286.61
555.33	18253.84
555.50	18331.08
555.67	18427.04
555.83	18230.43
556.00	18567.47
556.16	18607.26
556.33	18368.52
556.50	18530.02
556.66	18679.82
556.83	18335.76
556.99	18616.62
557.16	18506.62
557.32	18576.83
557.49	18633.00
557.65	18752.37
557.82	18384.91
557.98	18464.49
558.15	18623.64
558.32	18602.58
558.48	18534.70
558.65	18794.50
558.81	18548.75
558.98	18494.91
559.14	18909.19
559.31	18487.89
559.47	18689.18
559.64	18588.53
559.80	19002.81
559.97	18747.69
560.13	18494.91
560.30	18707.90
560.46	18427.04
560.63	18347.46
560.79	18827.27
560.96	18750.03
561.12	18785.14
561.29	18817.91
561.45	18902.17
561.61	18712.58
561.78	18981.74
561.94	18853.02
562.11	18939.62
562.27	18995.79
562.44	19030.90
562.60	18625.98
562.77	18735.99
562.93	18508.96
563.10	18871.74
563.26	18607.26
563.42	18869.40
563.59	18977.06
563.75	18799.18
563.92	18780.46
564.08	18899.83
564.24	18909.19
564.41	18721.95
564.57	18874.08
564.74	18771.10
564.90	18920.89
565.07	18710.24
565.23	18948.98
565.39	19168.99
565.56	19073.03
565.72	18972.38
565.88	18686.84
566.05	18637.69
566.21	19009.83
566.38	18838.97
566.54	18740.67
566.70	19070.68
566.87	19194.73
567.03	18691.52
567.19	19028.56
567.36	19213.46
567.52	19077.71
567.68	18799.18
567.85	18764.07
568.01	18923.23
568.17	18958.34
568.34	18899.83
568.50	19005.15
568.66	18986.43
568.83	19192.39
568.99	18778.12
569.15	19075.37
569.32	19023.87
569.48	18984.09
569.64	19344.53
569.81	18874.08
569.97	19176.01
570.13	19452.19
570.30	19068.34
570.46	18902.17
570.62	18909.19
570.78	19166.65
570.95	19161.97
571.11	18995.79
571.27	18974.72
571.43	19129.20
571.60	19335.17
571.76	19131.54
571.92	19152.60
572.09	19197.07
572.25	19208.78
572.41	19302.40
572.57	19435.81
572.74	19321.12
572.90	18939.62
573.06	18960.68
573.22	19105.79
573.38	19136.22
573.55	19250.91
573.71	19173.67
573.87	19309.42
574.03	19190.05
574.20	19124.52
574.36	19199.41
574.52	19440.49
574.68	19435.81
574.84	19293.04
575.01	19386.66
575.17	19325.80
575.33	19260.27
575.49	19374.95
575.65	19330.48
575.82	19520.07
575.98	19096.43
576.14	19215.80
576.30	19012.17
576.46	18972.38
576.62	19456.87
576.79	19440.49
576.95	19461.55
577.11	19421.77
577.27	19496.66
577.43	19536.45
577.59	19693.27
577.75	19243.88
577.92	19180.69
578.08	19356.23
578.24	19197.07
578.40	19428.79
578.56	19398.36
578.72	19239.20
578.88	19672.20
579.04	19438.15
579.21	19178.35
579.37	19482.62
579.53	19360.91
579.69	19370.27
579.85	19037.92
580.01	19187.71
580.17	19098.77
580.33	19496.66
580.49	19557.52
580.65	19365.59
580.82	19316.44
580.98	19477.94
581.14	19414.74
581.30	19609.01
581.46	19314.10
581.62	19316.44
581.78	19218.14
581.94	19105.79
582.10	19073.03
582.26	19019.19
582.42	19616.03
582.58	19452.19
582.74	19435.81
582.90	19337.51
583.06	19583.26
583.22	19351.55
583.38	19337.51
583.54	19494.32
583.70	19601.99
583.86	19417.08
584.02	19206.44
584.18	19695.61
584.34	19503.68
584.50	19440.49
584.66	19452.19
584.82	19323.46
584.98	19510.71
585.14	19295.38
585.30	19545.81
585.46	19473.26
585.62	19428.79
585.78	19536.45
585.94	19403.04
586.10	19360.91
586.26	19335.17
586.42	19377.30
586.58	19751.78
586.74	19531.77
586.90	19616.03
587.06	19302.40
587.22	19548.15
587.38	19513.05
587.54	19337.51
587.70	19681.56
587.86	19571.56
588.02	19805.61
588.18	19662.84
588.34	19449.85
588.49	19658.16
588.65	19302.40
588.81	19676.88
588.97	19477.94
589.13	19344.53
589.29	19632.41
589.45	19648.80
589.61	19599.65
589.77	19730.72
589.93	19721.35
590.08	19803.27
590.24	19845.40
590.40	19580.92
590.56	19854.76
590.72	19552.84
590.88	19772.85
591.04	19990.52
591.20	19695.61
591.35	19653.48
591.51	20201.16
591.67	19674.54
591.83	19571.56
591.99	19901.58
592.15	19747.10
592.31	19999.88
592.46	19557.52
592.62	19587.94
592.78	19440.49
