SpectraSuite Data File
++++++++++++++++++++++++++++++++++++
Date: Fri Oct 04 11:39:55 GMT-05:00 2013
User: price-jones
Dark Spectrum Present: No
Reference Spectrum Present: No
Number of Sampled Component Spectra: 1
Spectrometers: USB2+H05261
Integration Time (usec): 100000 (USB2+H05261)
Spectra Averaged: 1 (USB2+H05261)
Boxcar Smoothing: 0 (USB2+H05261)
Correct for Electrical Dark: No (USB2+H05261)
Strobe/Lamp Enabled: No (USB2+H05261)
Correct for Detector Non-linearity: No (USB2+H05261)
Correct for Stray Light: No (USB2+H05261)
Number of Pixels in Processed Spectrum: 2048
>>>>>Begin Processed Spectral Data<<<<<
365.73	23.41
365.92	23.41
366.12	23.41
366.32	0.00
366.52	0.00
366.72	30.43
366.91	0.00
367.11	0.00
367.31	0.00
367.51	9.36
367.70	0.00
367.90	0.00
368.10	0.00
368.30	0.00
368.49	0.00
368.69	0.00
368.89	9.36
369.09	0.00
369.28	0.00
369.48	0.00
369.68	0.00
369.87	0.00
370.07	11.70
370.27	0.00
370.47	182.56
370.66	332.36
370.86	301.93
371.06	358.10
371.25	428.32
371.45	430.66
371.65	463.43
371.84	397.89
372.04	447.04
372.24	477.47
372.44	435.34
372.63	533.64
372.83	552.37
373.03	503.22
373.22	416.62
373.42	463.43
373.62	421.30
373.81	521.94
374.01	550.03
374.21	533.64
374.40	500.87
374.60	498.53
374.79	552.37
374.99	571.09
375.19	547.69
375.38	528.96
375.58	489.17
375.78	531.30
375.97	552.37
376.17	681.10
376.37	535.98
376.56	554.71
376.76	582.79
376.95	507.90
377.15	641.31
377.35	657.69
377.54	582.79
377.74	589.82
377.93	624.92
378.13	568.75
378.33	688.12
378.52	573.43
378.72	613.22
378.91	690.46
379.11	554.71
379.31	636.63
379.50	599.18
379.70	608.54
379.89	585.13
380.09	723.23
380.28	599.18
380.48	704.50
380.68	667.05
380.87	697.48
381.07	620.24
381.26	748.97
381.46	695.14
381.65	767.70
381.85	760.67
382.04	655.35
382.24	730.25
382.43	725.57
382.63	685.78
382.83	709.18
383.02	772.38
383.22	758.33
383.41	699.82
383.61	702.16
383.80	699.82
384.00	753.65
384.19	809.83
384.39	704.50
384.58	704.50
384.78	758.33
384.97	791.10
385.17	727.91
385.36	777.06
385.56	779.40
385.75	798.12
385.95	774.72
386.14	870.68
386.34	802.80
386.53	805.14
386.72	835.57
386.92	896.43
387.11	889.40
387.31	863.66
387.50	863.66
387.70	912.81
387.89	795.78
388.09	910.47
388.28	828.55
388.48	866.00
388.67	933.87
388.86	854.30
389.06	994.73
389.25	903.45
389.45	903.45
389.64	901.11
389.84	966.64
390.03	959.62
390.22	1048.56
390.42	968.98
390.61	926.85
390.81	959.62
391.00	950.26
391.19	1004.09
391.39	987.71
391.58	954.94
391.78	997.07
391.97	968.98
392.16	1008.77
392.36	1095.37
392.55	1027.50
392.75	1128.14
392.94	1032.18
393.13	1083.67
393.33	1083.67
393.52	1165.59
393.71	1214.74
393.91	1135.16
394.10	1144.52
394.29	1041.54
394.49	1149.20
394.68	1200.69
394.88	1146.86
395.07	1249.85
395.26	1118.78
395.46	1226.44
395.65	1226.44
395.84	1233.46
396.04	1362.19
396.23	1249.85
396.42	1207.72
396.62	1247.51
396.81	1275.59
397.00	1343.47
397.19	1249.85
397.39	1364.53
397.58	1310.70
397.77	1270.91
397.97	1334.11
398.16	1301.34
398.35	1362.19
398.55	1359.85
398.74	1313.04
398.93	1392.62
399.12	1380.92
399.32	1245.16
399.51	1383.26
399.70	1472.20
399.90	1434.75
400.09	1481.56
400.28	1418.36
400.47	1523.69
400.67	1680.50
400.86	1544.75
401.05	1481.56
401.24	1511.99
401.44	1495.60
401.63	1509.65
401.82	1544.75
402.01	1554.12
402.21	1551.78
402.40	1579.86
402.59	1591.56
402.78	1650.08
402.97	1621.99
403.17	1666.46
403.36	1664.12
403.55	1724.97
403.74	1813.92
403.93	1764.76
404.13	1877.11
404.32	1771.79
404.51	1818.60
404.70	1891.15
404.89	1842.00
405.09	1865.41
405.28	1785.83
405.47	1802.21
405.66	1818.60
405.85	1891.15
406.05	1853.70
406.24	1970.73
406.43	1933.28
406.62	2036.27
406.81	2045.63
407.00	2033.93
407.20	1921.58
407.39	1959.03
407.58	2094.78
407.77	2050.31
407.96	2073.71
408.15	2101.80
408.34	2085.42
408.54	2115.84
408.73	2139.25
408.92	2113.50
409.11	2202.44
409.30	2195.42
409.49	2197.76
409.68	2193.08
409.87	2228.19
410.07	2303.09
410.26	2235.21
410.45	2396.71
410.64	2218.83
410.83	2333.51
411.02	2342.88
411.21	2464.58
411.40	2392.03
411.59	2415.43
411.78	2490.33
411.98	2441.18
412.17	2511.39
412.36	2448.20
412.55	2623.74
412.74	2668.21
412.93	2544.16
413.12	2651.83
413.31	2754.81
413.50	2693.96
413.69	2796.94
413.88	2937.37
414.07	2832.05
414.26	2796.94
414.45	2932.69
414.64	2832.05
414.83	2925.67
415.02	3012.27
415.22	2963.12
415.41	3070.78
415.60	3002.91
415.79	3007.59
415.98	3145.68
416.17	3023.97
416.36	3145.68
416.55	3173.77
416.74	3133.98
416.93	3328.24
417.12	3169.09
417.31	3281.43
417.50	3344.63
417.69	3456.97
417.88	3548.25
418.07	3377.39
418.26	3424.20
418.45	3459.31
418.64	3674.64
418.83	3541.23
419.02	3396.12
419.21	3534.21
419.39	3503.78
419.58	3639.53
419.77	3485.06
419.96	3644.21
420.15	3660.60
420.34	3583.36
420.53	3695.71
420.72	3681.66
420.91	3662.94
421.10	3880.61
421.29	3892.31
421.48	3761.24
421.67	3845.50
421.86	3854.86
422.05	3896.99
422.24	3751.88
422.43	3892.31
422.61	3904.01
422.80	3779.97
422.99	3918.06
423.18	3948.48
423.37	4039.76
423.56	3878.27
423.75	4028.06
423.94	3833.80
424.13	3712.09
424.32	3770.60
424.50	4004.66
424.69	3971.89
424.88	3913.38
425.07	3948.48
425.26	3803.37
425.45	3941.46
425.64	4058.49
425.83	4074.87
426.01	4086.58
426.20	4072.53
426.39	3967.21
426.58	3887.63
426.77	4032.74
426.96	4147.43
427.15	4170.83
427.33	4180.20
427.52	4236.37
427.71	4161.47
427.90	4049.13
428.09	4182.54
428.28	4236.37
428.46	4177.86
428.65	4250.41
428.84	4402.55
429.03	4362.76
429.22	4163.81
429.40	4346.37
429.59	4416.59
429.78	4383.82
429.97	4156.79
430.16	4292.54
430.34	4498.51
430.53	4643.62
430.72	4489.15
430.91	4383.82
431.10	4353.40
431.28	4725.54
431.47	4629.58
431.66	4781.71
431.85	4486.81
432.03	4744.27
432.22	4957.25
432.41	4601.49
432.60	4732.56
432.79	4690.43
432.97	4814.48
433.16	4774.69
433.35	4851.93
433.54	4709.16
433.72	4919.81
433.91	4924.49
434.10	4990.02
434.28	4912.78
434.47	4882.36
434.66	5100.03
434.85	5025.13
435.03	5284.93
435.22	5338.76
435.41	5577.50
435.59	5448.77
435.78	5371.53
435.97	5327.06
436.16	5289.61
436.34	5282.59
436.53	5322.38
436.72	5406.64
436.90	5076.62
437.09	5348.12
437.28	5172.58
437.46	5348.12
437.65	5453.45
437.84	5481.53
438.02	5661.76
438.21	5455.79
438.40	5376.21
438.58	5521.32
438.77	5628.99
438.96	5472.17
439.14	5715.59
439.33	5738.99
439.52	5792.83
439.70	5809.21
439.89	5856.02
440.08	5914.53
440.26	6054.97
440.45	5860.70
440.63	5989.43
440.82	6195.40
441.01	5905.17
441.19	5949.64
441.38	6293.70
441.57	6427.11
441.75	6310.08
441.94	6326.47
442.12	6410.73
442.31	6504.35
442.50	6480.94
442.68	6506.69
442.87	6516.05
443.05	6583.93
443.24	6600.31
443.43	6530.09
443.61	6703.29
443.80	6621.38
443.98	6539.46
444.17	6431.79
444.35	6736.06
444.54	6689.25
444.73	6604.99
444.91	6857.77
445.10	6789.89
445.28	6633.08
445.47	6649.46
445.65	6684.57
445.84	6546.48
446.02	6988.84
446.21	6754.79
446.39	6733.72
446.58	6717.34
446.77	6757.13
446.95	6700.95
447.14	6857.77
447.32	7040.33
447.51	6956.07
447.69	6843.73
447.88	6885.86
448.06	6860.11
448.25	6911.60
448.43	6988.84
448.62	6930.33
448.80	6860.11
448.99	6890.54
449.17	7164.38
449.36	7087.14
449.54	7061.40
449.73	7241.62
449.91	7332.90
450.10	7176.08
450.28	7307.15
450.46	7281.41
450.65	7396.09
450.83	7297.79
451.02	7274.38
451.20	7419.50
451.39	7321.20
451.57	7211.19
451.76	7398.43
451.94	7396.09
452.13	7529.50
452.31	7482.69
452.49	7358.64
452.68	7571.63
452.86	7581.00
453.05	7686.32
453.23	7754.19
453.42	7541.21
453.60	7414.82
453.78	7599.72
453.97	7552.91
454.15	7625.47
454.34	7730.79
454.52	8004.63
454.70	7880.58
454.89	7749.51
455.07	7817.39
455.26	7988.25
455.44	7999.95
455.62	7819.73
455.81	7981.23
455.99	8126.34
456.17	8009.31
456.36	8161.45
456.54	8372.10
456.73	8320.60
456.91	8386.14
457.09	8386.14
457.28	8533.59
457.46	8222.30
457.64	8383.80
457.83	8557.00
458.01	8379.12
458.19	8414.23
458.38	8585.08
458.56	8510.19
458.74	8519.55
458.93	8489.12
459.11	8896.38
459.29	8645.94
459.48	8854.25
459.66	8571.04
459.84	8816.80
460.03	8959.57
460.21	8734.88
460.39	8746.58
460.57	8854.25
460.76	8954.89
460.94	8821.48
461.12	8844.88
461.31	8997.02
461.49	8999.36
461.67	8894.04
461.85	9067.24
462.04	9167.88
462.22	9544.70
462.40	9341.08
462.59	9221.71
462.77	9317.67
462.95	9240.44
463.13	9390.23
463.32	9287.25
463.50	9296.61
463.68	9451.08
463.86	9270.86
464.05	9394.91
464.23	9614.92
464.41	9570.45
464.59	9380.87
464.78	9575.13
464.96	9661.73
465.14	9441.72
465.32	9678.12
465.50	9610.24
465.69	9832.59
465.87	9617.26
466.05	9811.53
466.23	9837.27
466.41	9764.72
466.60	10026.86
466.78	9813.87
466.96	9804.50
467.14	9734.29
467.32	9799.82
467.51	9949.62
467.69	9776.42
467.87	10033.88
468.05	10038.56
468.23	10038.56
468.41	9980.04
468.60	10136.86
468.78	10111.11
468.96	10050.26
469.14	10101.75
469.32	10375.59
469.50	10092.39
469.69	10420.06
469.87	10614.33
470.05	10686.89
470.23	10483.26
470.41	10537.09
470.59	10649.44
470.77	10450.49
470.95	10696.25
471.14	10693.91
471.32	10415.38
471.50	11159.67
471.68	11005.20
471.86	11183.08
472.04	10984.13
472.22	11169.04
472.40	10984.13
472.58	11077.76
472.77	11410.11
472.95	11382.03
473.13	11466.28
473.31	11246.27
473.49	11328.19
473.67	11510.75
473.85	11358.62
474.03	11637.14
474.21	11768.21
474.39	11763.53
474.57	11758.85
474.75	11957.80
474.93	12175.47
475.12	11889.92
475.30	11992.90
475.48	12147.38
475.66	11932.05
475.84	12077.16
476.02	12308.88
476.20	12084.19
476.38	12498.46
476.56	12517.18
476.74	12725.49
476.92	12624.85
477.10	12718.47
477.28	13008.70
477.46	13092.96
477.64	13174.88
477.82	13282.54
478.00	13427.65
478.18	13586.81
478.36	13528.30
478.54	13825.54
478.72	13682.77
478.90	13589.15
479.08	13809.16
479.26	13961.30
479.44	14171.94
479.62	14211.73
479.80	14331.10
479.98	14417.70
480.16	14494.94
480.34	14656.43
480.52	14738.35
480.70	15063.69
480.88	14782.82
481.06	15080.07
481.24	14974.75
481.41	15122.20
481.59	15515.41
481.77	15449.88
481.95	15578.61
482.13	15852.45
482.31	15800.96
482.49	15971.82
482.67	16152.04
482.85	16212.89
483.03	16563.97
483.21	16652.91
483.39	16601.42
483.57	16552.27
483.74	16933.78
483.92	17156.13
484.10	17170.17
484.28	17383.16
484.46	17596.15
484.64	17921.48
484.82	17652.32
485.00	17804.46
485.18	18167.24
485.35	18677.48
485.53	18420.02
485.71	18246.82
485.89	18951.32
486.07	18445.76
486.25	18766.42
486.43	18836.63
486.61	19103.45
486.78	19445.17
486.96	19433.47
487.14	19864.13
487.32	19719.01
487.50	20046.69
487.68	19852.42
487.85	20159.03
488.03	20304.15
488.21	20688.00
488.39	20842.47
488.57	20886.94
488.75	20933.75
488.92	21102.27
489.10	21500.16
489.28	21373.77
489.46	21631.23
489.64	21912.10
489.81	22052.53
489.99	22162.53
490.17	22068.91
490.35	22754.69
490.53	22511.27
490.70	22677.45
490.88	22834.27
491.06	22768.73
491.24	23049.60
491.41	23044.91
491.59	23257.90
491.77	23410.04
491.95	23716.65
492.13	23943.68
492.30	23763.46
492.48	23939.00
492.66	24226.89
492.84	23953.04
493.01	24711.38
493.19	24423.49
493.37	24898.62
493.54	24849.47
493.72	25041.39
493.90	25156.08
494.08	25296.51
494.25	25446.30
494.43	25619.50
494.61	25998.67
494.79	26157.83
494.96	25958.88
495.14	26178.89
495.32	26714.87
495.49	26384.86
495.67	26836.58
495.85	26857.65
496.02	26696.15
496.20	27063.61
496.38	26867.01
496.55	27208.73
496.73	27847.69
496.91	27480.23
497.09	27981.10
497.26	27800.88
497.44	27934.29
497.62	28315.80
497.79	28390.70
497.97	28554.54
498.14	28503.04
498.32	29020.30
498.50	29179.46
498.67	28950.09
498.85	29266.06
499.03	29139.67
499.20	29156.05
499.38	29329.25
499.56	29319.89
499.73	29886.30
499.91	29776.30
500.08	30064.18
500.26	29982.26
500.44	30384.83
500.61	30504.20
500.79	30075.88
500.97	30185.89
501.14	31065.93
501.32	30827.20
501.49	31037.84
501.67	30602.50
501.84	30735.92
502.02	31318.71
502.20	31339.77
502.37	31725.96
502.55	31674.47
502.72	31323.39
502.90	31754.05
503.07	31824.26
503.25	31796.18
503.43	31800.86
503.60	32048.96
503.78	32119.17
503.95	32165.98
504.13	32063.00
504.30	32467.91
504.48	32346.20
504.65	32690.26
504.83	33081.13
505.01	33153.69
505.18	32781.54
505.36	33373.70
505.53	33151.35
505.71	33076.45
505.88	32875.16
506.06	32964.10
506.23	33738.82
506.41	33516.47
506.58	33717.76
506.76	33689.67
506.93	33504.77
507.11	33771.59
507.28	34068.84
507.46	33975.22
507.63	34581.42
507.81	34944.20
507.98	34492.47
508.16	34171.82
508.33	34354.38
508.50	34611.84
508.68	34955.90
508.85	35548.06
509.03	35232.08
509.20	35426.35
509.38	35424.01
509.55	35522.31
509.73	35690.83
509.90	35611.25
510.08	35814.88
510.25	35913.18
510.42	36030.21
510.60	36334.48
510.77	36697.26
510.95	36772.16
511.12	36238.51
511.30	36392.99
511.47	36641.09
511.64	36872.80
511.82	37113.87
511.99	36823.65
512.17	36821.31
512.34	36844.71
512.51	36935.99
512.69	37577.30
512.86	37340.91
513.04	37586.66
513.21	37687.31
513.38	37904.98
513.56	37809.01
513.73	37741.14
513.90	37867.53
514.08	37661.56
514.25	38038.39
514.43	38115.62
514.60	38693.74
514.77	38473.73
514.95	38775.66
515.12	38323.93
515.29	38447.98
515.47	38672.67
515.64	39105.67
515.81	39175.89
515.99	38988.64
516.16	39171.21
516.33	39648.68
516.51	39084.61
516.68	39000.35
516.85	39363.13
517.03	39468.45
517.20	39578.46
517.37	39861.66
517.54	39775.06
517.72	40107.42
517.89	39903.79
518.06	40048.91
518.24	39878.05
518.41	39887.41
518.58	40002.10
518.75	40156.57
518.93	40643.40
519.10	40357.86
519.27	40566.16
519.45	40268.92
519.62	40154.23
519.79	40903.20
519.96	40484.25
520.14	40903.20
520.31	40266.58
520.48	41312.80
520.65	41195.77
520.83	41816.01
521.00	41184.07
521.17	41549.19
521.34	41429.82
521.52	41406.42
521.69	42080.49
521.86	41808.99
522.03	41441.53
522.20	41766.86
522.38	42562.64
522.55	42178.79
522.72	42124.96
522.89	42178.79
523.07	42384.76
523.24	42356.67
523.41	42829.46
523.58	42630.52
523.75	42639.88
523.92	42637.54
524.10	43033.09
524.27	42696.05
524.44	43100.97
524.61	43143.09
524.78	43187.56
524.96	43601.84
525.13	43388.85
525.30	42909.04
525.47	43407.58
525.64	43267.14
525.81	44065.27
525.98	43782.06
526.16	43515.24
526.33	43922.49
526.50	44133.14
526.67	43775.04
526.84	43814.83
527.01	43929.51
527.18	44025.48
527.36	43899.09
527.53	44027.82
527.70	44779.13
527.87	44428.05
528.04	44154.21
528.21	44547.42
528.38	44353.15
528.55	44610.61
528.72	44582.52
528.89	45153.62
529.07	44926.58
529.24	44776.79
529.41	44938.29
529.58	44580.18
529.75	44849.35
529.92	45265.96
530.09	44982.76
530.26	45177.02
530.43	45500.01
530.60	45556.19
530.77	45485.97
530.94	45588.95
531.11	45277.66
531.28	45420.44
531.46	45160.64
531.63	45715.34
531.80	45441.50
531.97	45837.05
532.14	46124.94
532.31	45518.74
532.48	46124.94
532.65	46611.77
532.82	45823.01
532.99	46775.61
533.16	46040.68
533.33	46447.93
533.50	46649.22
533.67	46223.24
533.84	46183.45
534.01	46288.77
534.18	46300.48
534.35	46623.47
534.52	46777.95
534.69	46632.83
534.86	47454.36
535.03	46674.96
535.20	46642.20
535.37	46939.44
535.54	46955.83
535.71	46866.89
535.88	47243.71
536.05	47161.79
536.22	47660.33
536.38	47714.16
536.55	47510.53
536.72	47473.09
536.89	46902.00
537.06	47250.74
537.23	47543.30
537.40	47428.62
537.57	47519.90
537.74	47627.56
537.91	48051.20
538.08	48011.41
538.25	47866.30
538.42	47887.36
538.59	48093.33
538.75	47763.31
538.92	47913.11
539.09	48168.22
539.26	48151.84
539.43	48362.49
539.60	48128.44
539.77	48729.95
539.94	48275.89
540.11	48762.72
540.28	48549.73
540.44	48793.15
540.61	48357.81
540.78	48587.18
540.95	48907.83
541.12	48921.88
541.29	48776.76
541.46	48933.58
541.62	48809.53
541.79	49006.14
541.96	48552.07
542.13	49071.67
542.30	48762.72
542.47	49504.67
542.63	49191.04
542.80	49556.16
542.97	49537.44
543.14	49542.12
543.31	49429.77
543.48	49319.77
543.64	49822.98
543.81	50162.36
543.98	49940.01
544.15	49764.47
544.32	50108.53
544.48	50288.75
544.65	49694.25
544.82	49766.81
544.99	49563.18
545.16	49776.17
545.32	49804.26
545.49	50667.92
545.66	51051.76
545.83	51166.45
546.00	50761.54
546.16	50553.23
546.33	50014.91
546.50	49811.28
546.67	50234.92
546.83	50031.29
547.00	50042.99
547.17	50403.44
547.34	50138.96
547.50	50578.98
547.67	50859.84
547.84	50426.84
548.00	50415.14
548.17	51056.45
548.34	50635.15
548.51	50625.79
548.67	50663.24
548.84	50803.67
549.01	50731.11
549.18	50639.83
549.34	50782.60
549.51	50457.27
549.68	50817.71
549.84	50766.22
550.01	51271.78
550.18	51049.42
550.34	50595.36
550.51	51058.79
550.68	50946.44
550.84	50543.87
551.01	50859.84
551.18	50820.05
551.34	50838.78
551.51	51278.80
551.68	51372.42
551.84	51098.58
552.01	51086.87
552.18	51035.38
552.34	51196.88
552.51	51178.15
552.68	51171.13
552.84	50946.44
553.01	51260.07
553.18	51061.13
553.34	51838.18
553.51	51391.14
553.67	51618.17
553.84	51964.57
554.01	51501.15
554.17	51742.22
554.34	51269.43
554.51	51463.70
554.67	51688.39
554.84	51526.89
555.00	51587.75
555.17	51697.75
555.33	51756.27
555.50	51735.20
555.67	51695.41
555.83	51681.37
556.00	51847.55
556.16	52170.54
556.33	51789.03
556.50	51885.00
556.66	51859.25
556.83	51767.97
556.99	52147.14
557.16	52055.85
557.32	52170.54
557.49	52170.54
557.65	51746.90
557.82	51721.16
557.98	52081.60
558.15	52126.07
558.32	52343.74
558.48	52112.03
558.65	52081.60
558.81	52320.34
558.98	52266.50
559.14	52051.17
559.31	52172.88
559.47	51805.42
559.64	52149.48
559.80	52245.44
559.97	52488.85
560.13	52121.39
560.30	52346.08
560.46	52409.28
560.63	52332.04
560.79	52416.30
560.96	52493.54
561.12	52420.98
561.29	52428.00
561.45	52470.13
561.61	52624.60
561.78	52570.77
561.94	53034.20
562.11	52755.68
562.27	52648.01
562.44	52638.65
562.60	52638.65
562.77	52577.79
562.93	52624.60
563.10	52954.62
563.26	52584.82
563.42	52978.03
563.59	52762.70
563.75	52837.59
563.92	53052.92
564.08	52715.89
564.24	52722.91
564.41	52474.81
564.57	52973.34
564.74	52940.58
564.90	52907.81
565.07	52856.32
565.23	53069.31
565.39	53043.56
565.56	53109.10
565.72	52538.01
565.88	52935.90
566.05	52868.02
566.21	52346.08
566.38	52758.02
566.54	53088.03
566.70	53045.90
566.87	52933.56
567.03	52769.72
567.19	53298.68
567.36	53006.11
567.52	52708.86
567.68	53268.25
567.85	52954.62
568.01	52978.03
568.17	52968.66
568.34	53141.86
568.50	52968.66
568.66	52776.74
568.83	53375.92
568.99	53111.44
569.15	53069.31
569.32	53169.95
569.48	52779.08
569.64	53188.67
569.81	53240.17
569.97	53242.51
570.13	53144.20
570.30	52952.28
570.46	53120.80
570.62	53251.87
570.78	53146.54
570.95	53031.86
571.11	53120.80
571.27	52856.32
571.43	52949.94
571.60	53277.61
571.76	52994.41
571.92	53109.10
572.09	53062.29
572.25	53160.59
572.41	53387.62
572.57	53169.95
572.74	53193.36
572.90	53315.06
573.06	53029.52
573.22	53373.58
573.38	53176.97
573.55	53340.81
573.71	53607.63
573.87	53284.64
574.03	53144.20
574.20	53254.21
574.36	53413.37
574.52	53310.38
574.68	53387.62
574.84	53324.43
575.01	53354.85
575.17	53249.53
575.33	53387.62
575.49	53088.03
575.65	53296.34
575.82	53270.59
575.98	53109.10
576.14	53181.65
576.30	53521.03
576.46	53628.69
576.62	53212.08
576.79	53439.11
576.95	53450.81
577.11	53584.22
577.27	53563.16
577.43	53420.39
577.59	53586.57
577.75	53352.51
577.92	53090.37
578.08	53205.06
578.24	53345.49
578.40	53783.17
578.56	53446.13
578.72	53605.29
578.88	53914.24
579.04	54066.38
579.21	53567.84
579.37	53460.18
579.53	53586.57
579.69	53111.44
579.85	53743.38
580.01	53399.32
580.17	53532.73
580.33	53591.25
580.49	53539.75
580.65	53755.08
580.82	53659.12
580.98	53729.34
581.14	53368.90
581.30	53645.08
581.46	53514.01
581.62	53153.57
581.78	53413.37
581.94	53736.36
582.10	53352.51
582.26	53698.91
582.42	53492.94
582.58	53691.89
582.74	53556.14
582.90	53703.59
583.06	53614.65
583.22	53476.56
583.38	53544.44
583.54	53233.14
583.70	53464.86
583.86	53492.94
584.02	53399.32
584.18	53663.80
584.34	53640.40
584.50	53834.66
584.66	53890.83
584.82	53272.93
584.98	53659.12
585.14	53628.69
585.30	53118.46
585.46	53532.73
585.62	53312.72
585.78	54049.99
585.94	53614.65
586.10	53471.88
586.26	53780.83
586.42	53921.26
586.58	53844.02
586.74	53813.60
586.90	53244.85
587.06	53563.16
587.22	53551.46
587.38	53525.71
587.54	53792.53
587.70	53703.59
587.86	53890.83
588.02	53745.72
588.18	53832.32
588.34	53687.21
588.49	53532.73
588.65	53684.87
588.81	53652.10
588.97	53947.01
589.13	53719.98
589.29	53638.06
589.45	53745.72
589.61	53907.22
589.77	54314.47
589.93	53806.58
