SpectraSuite Data File
++++++++++++++++++++++++++++++++++++
Date: Fri Oct 04 11:39:25 GMT-05:00 2013
User: price-jones
Dark Spectrum Present: No
Reference Spectrum Present: No
Number of Sampled Component Spectra: 1
Spectrometers: USB2+H05261
Integration Time (usec): 100000 (USB2+H05261)
Spectra Averaged: 1 (USB2+H05261)
Boxcar Smoothing: 0 (USB2+H05261)
Correct for Electrical Dark: No (USB2+H05261)
Strobe/Lamp Enabled: No (USB2+H05261)
Correct for Detector Non-linearity: No (USB2+H05261)
Correct for Stray Light: No (USB2+H05261)
Number of Pixels in Processed Spectrum: 2048
>>>>>Begin Processed Spectral Data<<<<<
365.73	58.51
365.92	58.51
366.12	58.51
366.32	0.00
366.52	0.00
366.72	0.00
366.91	0.00
367.11	0.00
367.31	0.00
367.51	0.00
367.70	0.00
367.90	0.00
368.10	0.00
368.30	0.00
368.49	0.00
368.69	0.00
368.89	0.00
369.09	0.00
369.28	0.00
369.48	0.00
369.68	0.00
369.87	35.11
370.07	0.00
370.27	2.34
370.47	180.22
370.66	201.29
370.86	257.46
371.06	276.18
371.25	191.92
371.45	266.82
371.65	290.23
371.84	215.33
372.04	301.93
372.24	341.72
372.44	330.02
372.63	315.97
372.83	372.15
373.03	322.99
373.22	269.16
373.42	306.61
373.62	386.19
373.81	346.40
374.01	322.99
374.21	411.93
374.40	348.74
374.60	400.23
374.79	369.80
374.99	404.91
375.19	379.17
375.38	465.77
375.58	348.74
375.78	332.36
375.97	341.72
376.17	372.15
376.37	327.68
376.56	383.85
376.76	311.29
376.95	346.40
377.15	430.66
377.35	362.78
377.54	367.46
377.74	351.08
377.93	390.87
378.13	388.53
378.33	418.96
378.52	407.25
378.72	493.85
378.91	447.04
379.11	425.98
379.31	461.09
379.50	458.74
379.70	444.70
379.89	521.94
380.09	395.55
380.28	416.62
380.48	423.64
380.68	444.70
380.87	430.66
381.07	456.40
381.26	479.81
381.46	411.93
381.65	524.28
381.85	433.00
382.04	414.27
382.24	486.83
382.43	451.72
382.63	414.27
382.83	458.74
383.02	491.51
383.22	514.92
383.41	458.74
383.61	493.85
383.80	519.60
384.00	458.74
384.19	559.39
384.39	514.92
384.58	512.58
384.78	468.11
384.97	510.24
385.17	472.79
385.36	503.22
385.56	596.84
385.75	472.79
385.95	510.24
386.14	526.62
386.34	505.56
386.53	580.45
386.72	479.81
386.92	582.79
387.11	540.66
387.31	531.30
387.50	505.56
387.70	503.22
387.89	608.54
388.09	606.20
388.28	580.45
388.48	550.03
388.67	725.57
388.86	578.11
389.06	660.03
389.25	596.84
389.45	528.96
389.64	578.11
389.84	638.97
390.03	622.58
390.22	582.79
390.42	620.24
390.61	683.44
390.81	638.97
391.00	608.54
391.19	671.73
391.39	624.92
391.58	706.84
391.78	671.73
391.97	713.86
392.16	594.50
392.36	709.18
392.55	624.92
392.75	603.86
392.94	615.56
393.13	720.88
393.33	718.54
393.52	781.74
393.71	828.55
393.91	751.31
394.10	737.27
394.29	711.52
394.49	755.99
394.68	741.95
394.88	739.61
395.07	880.04
395.26	802.80
395.46	828.55
395.65	840.25
395.84	755.99
396.04	844.93
396.23	823.87
396.42	870.68
396.62	765.36
396.81	903.45
397.00	781.74
397.19	884.72
397.39	973.66
397.58	861.32
397.77	851.96
397.97	926.85
398.16	901.11
398.35	919.83
398.55	919.83
398.74	987.71
398.93	1076.65
399.12	931.53
399.32	954.94
399.51	992.39
399.70	1034.52
399.90	964.30
400.09	1032.18
400.28	1057.92
400.47	978.34
400.67	999.41
400.86	1020.47
401.05	1067.28
401.24	1083.67
401.44	1036.86
401.63	1118.78
401.82	1165.59
402.01	1067.28
402.21	1095.37
402.40	1128.14
402.59	1196.01
402.78	1123.46
402.97	1210.06
403.17	1144.52
403.36	1128.14
403.55	1198.35
403.74	1235.80
403.93	1303.68
404.13	1238.14
404.32	1301.34
404.51	1226.44
404.70	1355.17
404.89	1306.02
405.09	1310.70
405.28	1348.15
405.47	1205.38
405.66	1345.81
405.85	1420.71
406.05	1306.02
406.24	1329.42
406.43	1397.30
406.62	1413.68
406.81	1446.45
407.00	1472.20
407.20	1392.62
407.39	1444.11
407.58	1549.43
407.77	1526.03
407.96	1556.46
408.15	1572.84
408.34	1537.73
408.54	1579.86
408.73	1694.55
408.92	1617.31
409.11	1652.42
409.30	1734.34
409.49	1708.59
409.68	1654.76
409.87	1652.42
410.07	1734.34
410.26	1724.97
410.45	1802.21
410.64	1680.50
410.83	1811.57
411.02	1804.55
411.21	1823.28
411.40	1881.79
411.59	1806.89
411.78	1809.23
411.98	1916.90
412.17	1825.62
412.36	1830.30
412.55	1863.07
412.74	1956.69
412.93	1980.09
413.12	2064.35
413.31	2169.68
413.50	2064.35
413.69	2029.24
413.88	2155.63
414.07	2155.63
414.26	2242.23
414.45	2162.66
414.64	2221.17
414.83	2319.47
415.02	2319.47
415.22	2377.98
415.41	2459.90
415.60	2380.32
415.79	2490.33
415.98	2385.01
416.17	2492.67
416.36	2417.77
416.55	2466.92
416.74	2572.25
416.93	2523.10
417.12	2555.86
417.31	2651.83
417.50	2567.57
417.69	2700.98
417.88	2649.49
418.07	2609.70
418.26	2717.36
418.45	2679.91
418.64	2890.56
418.83	2794.60
419.02	2747.79
419.21	2717.36
419.39	2953.76
419.58	2871.84
419.77	2778.22
419.96	2836.73
420.15	2918.65
420.34	2925.67
420.53	3030.99
420.72	2984.18
420.91	3033.33
421.10	2956.10
421.29	3155.04
421.48	2986.52
421.67	3129.30
421.86	3143.34
422.05	3176.11
422.24	3159.72
422.43	3096.53
422.61	3169.09
422.80	3105.89
422.99	3131.64
423.18	3222.92
423.37	3141.00
423.56	3192.49
423.75	3166.74
423.94	3084.83
424.13	2857.79
424.32	3126.96
424.50	3288.45
424.69	3304.84
424.88	3349.31
425.07	3129.30
425.26	3248.66
425.45	3206.53
425.64	3213.56
425.83	3276.75
426.01	3300.16
426.20	3346.97
426.39	3332.92
426.58	3222.92
426.77	3192.49
426.96	3386.76
427.15	3309.52
427.33	3440.59
427.52	3288.45
427.71	3368.03
427.90	3316.54
428.09	3276.75
428.28	3480.38
428.46	3466.33
428.65	3452.29
428.84	3562.30
429.03	3686.34
429.22	3421.86
429.40	3571.66
429.59	3571.66
429.78	3515.48
429.97	3438.25
430.16	3538.89
430.34	3597.40
430.53	3581.02
430.72	3662.94
430.91	3641.87
431.10	3548.25
431.28	3709.75
431.47	3723.79
431.66	3770.60
431.85	3805.71
432.03	4009.34
432.22	3955.51
432.41	3801.03
432.60	3901.67
432.79	3712.09
432.97	3852.52
433.16	3971.89
433.35	3819.75
433.54	3784.65
433.72	3995.29
433.91	3880.61
434.10	4088.92
434.28	4021.04
434.47	4042.11
434.66	3999.98
434.85	4219.99
435.03	4299.56
435.22	4219.99
435.41	4730.22
435.59	4622.56
435.78	4451.70
435.97	4271.48
436.16	4276.16
436.34	4292.54
436.53	4187.22
436.72	4292.54
436.90	4266.80
437.09	4372.12
437.28	4219.99
437.46	4362.76
437.65	4339.35
437.84	4315.95
438.02	4395.53
438.21	4269.14
438.40	4479.79
438.58	4561.70
438.77	4540.64
438.96	4545.32
439.14	4587.45
439.33	4669.37
439.52	4627.24
439.70	4645.96
439.89	4734.90
440.08	4800.44
440.26	4720.86
440.45	4887.04
440.63	4971.30
440.82	4910.44
441.01	4884.70
441.19	4964.28
441.38	5153.86
441.57	4842.57
441.75	5135.14
441.94	5060.24
442.12	5254.50
442.31	5280.25
442.50	5165.56
442.68	5076.62
442.87	5242.80
443.05	5416.00
443.24	5387.91
443.43	5305.99
443.61	5465.15
443.80	5633.67
443.98	5315.36
444.17	5352.81
444.35	5514.30
444.54	5392.59
444.73	5315.36
444.91	5416.00
445.10	5413.66
445.28	5397.28
445.47	5523.66
445.65	5462.81
445.84	5348.12
446.02	5645.37
446.21	5675.80
446.39	5460.47
446.58	5551.75
446.77	5526.00
446.95	5643.03
447.14	5593.88
447.32	5696.86
447.51	5600.90
447.69	5717.93
447.88	5636.01
448.06	5526.00
448.25	5394.93
448.43	5614.95
448.62	5619.63
448.80	5572.82
448.99	5738.99
449.17	5584.52
449.36	5689.84
449.54	5863.04
449.73	5956.66
449.91	5825.59
450.10	5858.36
450.28	5907.51
450.46	5984.75
450.65	5760.06
450.83	5914.53
451.02	5921.56
451.20	6108.80
451.39	5809.21
451.57	5984.75
451.76	5891.13
451.94	5921.56
452.13	6050.28
452.31	6108.80
452.49	5989.43
452.68	6047.94
452.86	6244.55
453.05	6267.95
453.23	6169.65
453.42	6141.57
453.60	5998.79
453.78	6141.57
453.97	6108.80
454.15	6118.16
454.34	6270.30
454.52	6420.09
454.70	6228.17
454.89	6246.89
455.07	6483.28
455.26	6392.00
455.44	6459.88
455.62	6612.01
455.81	6464.56
455.99	6403.71
456.17	6572.22
456.36	6548.82
456.54	6651.80
456.73	6604.99
456.91	6890.54
457.09	6810.96
457.28	6993.52
457.46	6600.31
457.64	6703.29
457.83	6761.81
458.01	6581.59
458.19	6871.81
458.38	6892.88
458.56	6832.02
458.74	6867.13
458.93	6878.83
459.11	6918.62
459.29	6939.69
459.48	6925.65
459.66	7122.25
459.84	7152.68
460.03	7166.72
460.21	6956.07
460.39	7110.55
460.57	7115.23
460.76	7241.62
460.94	7260.34
461.12	7183.10
461.31	7377.37
461.49	7248.64
461.67	7171.40
461.85	7330.56
462.04	7344.60
462.22	7552.91
462.40	7576.31
462.59	7501.42
462.77	7501.42
462.95	7499.08
463.13	7473.33
463.32	7473.33
463.50	7639.51
463.68	7646.53
463.86	7686.32
464.05	7482.69
464.23	7569.29
464.41	7688.66
464.59	7405.46
464.78	7801.01
464.96	7896.97
465.14	7639.51
465.32	7698.02
465.50	7859.52
465.69	7859.52
465.87	7707.38
466.05	7786.96
466.23	7740.15
466.41	7985.91
466.60	7992.93
466.78	7990.59
466.96	7836.11
467.14	8030.38
467.32	8116.98
467.51	8152.09
467.69	7903.99
467.87	8013.99
468.05	8030.38
468.23	8046.76
468.41	8018.68
468.60	8126.34
468.78	8315.92
468.96	8154.43
469.14	8374.44
469.32	8500.83
469.50	8166.13
469.69	8463.38
469.87	8280.82
470.05	8613.17
470.23	8596.79
470.41	8549.98
470.59	8634.24
470.77	8243.37
470.95	8622.53
471.14	8894.04
471.32	8624.87
471.50	8769.99
471.68	8823.82
471.86	8903.40
472.04	8737.22
472.22	9071.92
472.40	8727.86
472.58	8975.95
472.77	9109.36
472.95	9085.96
473.13	9502.58
473.31	9312.99
473.49	9128.09
473.67	9116.39
473.85	9284.91
474.03	9310.65
474.21	9242.78
474.39	9467.47
474.57	9495.55
474.75	9472.15
474.93	9469.81
475.12	9556.41
475.30	9643.01
475.48	9703.86
475.66	9785.78
475.84	9839.61
476.02	10008.13
476.20	10017.49
476.38	10178.99
476.56	10132.18
476.74	10253.89
476.92	10270.27
477.10	10244.52
477.28	10389.64
477.46	10394.32
477.64	10492.62
477.82	10649.44
478.00	10712.63
478.18	10939.66
478.36	10827.32
478.54	11075.42
478.72	11159.67
478.90	11147.97
479.08	11332.87
479.26	11337.56
479.44	11611.40
479.62	11328.19
479.80	11627.78
479.98	11487.35
480.16	11992.90
480.34	11850.13
480.52	11896.94
480.70	12044.40
480.88	11733.11
481.06	12091.21
481.24	11882.90
481.41	12262.07
481.59	12526.55
481.77	12453.99
481.95	12453.99
482.13	12659.96
482.31	12648.26
482.49	12812.09
482.67	12784.01
482.85	12989.97
483.03	13341.05
483.21	13476.80
483.39	13289.56
483.57	13523.62
483.74	13586.81
483.92	13603.19
484.10	13748.31
484.28	14029.17
484.46	14235.14
484.64	14445.79
484.82	14057.26
485.00	14523.02
485.18	14408.34
485.35	14824.95
485.53	14520.68
485.71	14665.80
485.89	15159.65
486.07	15009.86
486.25	14998.15
486.43	14984.11
486.61	15363.28
486.78	15346.89
486.96	15524.77
487.14	15807.98
487.32	15749.46
487.50	15829.04
487.68	16046.71
487.85	16489.07
488.03	16554.61
488.21	16638.87
488.39	16821.43
488.57	16732.49
488.75	16905.69
488.92	17153.79
489.10	17483.80
489.28	17198.26
489.46	17380.82
489.64	17282.52
489.81	17928.50
489.99	17689.77
490.17	17741.26
490.35	18148.51
490.53	18148.51
490.70	18253.84
490.88	17902.76
491.06	18504.28
491.24	18300.65
491.41	18621.30
491.59	18810.89
491.77	18892.80
491.95	19131.54
492.13	19325.80
492.30	19473.26
492.48	19028.56
492.66	18988.77
492.84	19407.72
493.01	19288.35
493.19	19552.84
493.37	19899.23
493.54	19913.28
493.72	19922.64
493.90	20233.93
494.08	20512.46
494.25	20706.72
494.43	20500.75
494.61	20844.81
494.79	20723.10
494.96	20793.32
495.14	20915.03
495.32	21371.43
495.49	20809.70
495.67	21027.37
495.85	21680.38
496.02	21561.02
496.20	21671.02
496.38	21769.32
496.55	21802.09
496.73	22497.23
496.91	22398.93
497.09	22438.72
497.26	22654.05
497.44	22595.53
497.62	22682.13
497.79	22703.20
497.97	22558.08
498.14	23040.23
498.32	23293.01
498.50	23028.53
498.67	23632.39
498.85	23152.58
499.03	23344.50
499.20	23344.50
499.38	23686.22
499.56	23843.04
499.73	24025.60
499.91	24027.94
500.08	24095.82
500.26	23515.36
500.44	23997.51
500.61	24276.04
500.79	24301.78
500.97	24727.76
501.14	24711.38
501.32	24650.52
501.49	24910.32
501.67	24428.17
501.84	24893.94
502.02	24954.79
502.20	24945.43
502.37	25450.99
502.55	25088.20
502.72	25518.86
502.90	25111.61
503.07	25355.02
503.25	25579.71
503.43	25268.42
503.60	26092.29
503.78	25397.15
503.95	25598.44
504.13	25876.96
504.30	26178.89
504.48	25731.85
504.65	26164.85
504.83	26333.37
505.01	26911.48
505.18	26642.32
505.36	26738.28
505.53	26426.99
505.71	26419.97
505.88	26831.90
506.06	26316.98
506.23	26902.12
506.41	26876.37
506.58	26946.59
506.76	27063.61
506.93	27344.48
507.11	26869.35
507.28	26923.18
507.46	27274.26
507.63	27742.37
507.81	27779.82
507.98	27756.41
508.16	27651.09
508.33	27679.18
508.50	28063.02
508.68	27901.53
508.85	28264.31
509.03	28514.75
509.20	28858.81
509.38	28760.50
509.55	28402.40
509.73	28905.62
509.90	28849.44
510.08	28811.99
510.25	28786.25
510.42	28790.93
510.60	29153.71
510.77	29397.13
510.95	29214.57
511.12	29242.65
511.30	29048.39
511.47	29347.98
511.64	29825.45
511.82	29675.65
511.99	29336.27
512.17	29926.09
512.34	29743.53
512.51	29750.55
512.69	30206.95
512.86	30022.05
513.04	30256.11
513.21	30480.80
513.38	30689.10
513.56	30654.00
513.73	30174.19
513.90	30614.21
514.08	29940.13
514.25	30773.36
514.43	30412.92
514.60	30799.11
514.77	30780.39
514.95	31049.55
515.12	30611.87
515.29	31021.46
515.47	30965.29
515.64	31463.82
515.81	30850.60
515.99	31562.12
516.16	31543.40
516.33	31690.85
516.51	31583.19
516.68	31763.41
516.85	31405.31
517.03	32044.27
517.20	32133.21
517.37	32346.20
517.54	32278.33
517.72	32081.72
517.89	32128.53
518.06	32084.06
518.24	31964.70
518.41	32219.81
518.58	32460.89
518.75	32554.51
518.93	32652.81
519.10	32320.46
519.27	32617.71
519.45	33151.35
519.62	32835.38
519.79	33312.84
519.96	32870.48
520.14	32945.38
520.31	33167.73
520.48	33118.58
520.65	32982.83
520.83	33347.95
521.00	33198.16
521.17	33535.20
521.34	33771.59
521.52	33865.21
521.69	33820.74
521.86	34019.69
522.03	33823.08
522.20	33741.16
522.38	34033.73
522.55	34225.65
522.72	34040.75
522.89	34160.12
523.07	34157.78
523.24	34272.46
523.41	34305.23
523.58	34426.94
523.75	34775.68
523.92	34359.06
524.10	34817.81
524.27	34663.33
524.44	35192.30
524.61	35068.25
524.78	35058.88
524.96	35101.01
525.13	35243.79
525.30	35131.44
525.47	35491.88
525.64	35550.40
525.81	35173.57
525.98	35690.83
526.16	35697.85
526.33	35634.66
526.50	36055.95
526.67	35363.15
526.84	35234.42
527.01	35655.72
527.18	35896.80
527.36	35892.12
527.53	35782.11
527.70	35913.18
527.87	36390.65
528.04	36217.45
528.21	36095.74
528.38	36259.58
528.55	36290.01
528.72	35990.42
528.89	35931.90
529.07	36446.82
529.24	36343.84
529.41	36264.26
529.58	36605.98
529.75	36194.04
529.92	36631.72
530.09	36655.13
530.26	37003.87
530.43	36858.76
530.60	36643.43
530.77	36971.10
530.94	36875.14
531.11	36715.98
531.28	37188.77
531.46	36755.77
531.63	37067.06
531.80	37523.47
531.97	37532.83
532.14	37511.77
532.31	37097.49
532.48	37312.82
532.65	37488.36
532.82	37329.20
532.99	37537.51
533.16	37727.10
533.33	38078.18
533.50	38277.12
533.67	37979.87
533.84	37457.93
534.01	37743.48
534.18	37553.90
534.35	38061.79
534.52	37806.67
534.69	38520.54
534.86	38450.32
535.03	37977.53
535.20	38300.53
535.37	38476.07
535.54	38373.08
535.71	38462.02
535.88	37972.85
536.05	38817.78
536.22	38569.69
536.38	38714.80
536.55	39136.10
536.72	38611.82
536.89	38581.39
537.06	38684.37
537.23	39248.44
537.40	38225.63
537.57	38955.88
537.74	38745.23
537.91	39213.34
538.08	39005.03
538.25	38787.36
538.42	39384.19
538.59	39438.03
538.75	39299.94
538.92	39377.17
539.09	39157.16
539.26	39658.04
539.43	39325.68
539.60	39938.90
539.77	39576.12
539.94	39969.33
540.11	39929.54
540.28	40163.59
540.44	40215.08
540.61	39948.26
540.78	39838.26
540.95	40201.04
541.12	40559.14
541.29	40608.29
541.46	40135.51
541.62	40116.78
541.79	40774.47
541.96	39938.90
542.13	40638.72
542.30	40559.14
542.47	40797.88
542.63	40493.61
542.80	40767.45
542.97	41397.06
543.14	40877.46
543.31	41249.60
543.48	40968.74
543.64	41315.14
543.81	41151.30
543.98	41453.23
544.15	41518.76
544.32	41296.41
544.48	41603.02
544.65	41235.56
544.82	41645.15
544.99	41308.11
545.16	41560.89
545.32	41226.20
545.49	42471.36
545.66	42436.25
545.83	42511.15
546.00	42473.70
546.16	42241.99
546.33	41551.53
546.50	41308.11
546.67	41869.84
546.83	41375.99
547.00	41612.38
547.17	41600.68
547.34	41579.62
547.50	42099.22
547.67	42190.50
547.84	42066.45
548.00	41949.42
548.17	42300.50
548.34	41958.78
548.51	41902.61
548.67	42440.93
548.84	42263.05
549.01	41841.76
549.18	42607.11
549.34	42494.77
549.51	42197.52
549.68	42136.66
549.84	42167.09
550.01	42080.49
550.18	42405.83
550.34	42043.04
550.51	42649.24
550.68	42490.09
550.84	42368.38
551.01	42642.22
551.18	42396.46
551.34	42438.59
551.51	42344.97
551.68	42775.63
551.84	42543.92
552.01	42831.80
552.18	42988.62
552.34	42667.97
552.51	42445.62
552.68	42534.56
552.84	42426.89
553.01	42913.72
553.18	42433.91
553.34	43049.47
553.51	42967.55
553.67	43210.97
553.84	43304.59
554.01	43438.00
554.17	43138.41
554.34	43026.07
554.51	43407.58
554.67	43482.47
554.84	43578.43
555.00	42995.64
555.17	43311.61
555.33	43409.92
555.50	43239.06
555.67	43152.46
555.83	43276.51
556.00	43365.45
556.16	43807.81
556.33	43407.58
556.50	43772.70
556.66	43262.46
556.83	43812.49
556.99	44011.43
557.16	43648.65
557.32	43470.77
557.49	43716.53
557.65	43208.63
557.82	43309.27
557.98	43473.11
558.15	43526.94
558.32	43887.39
558.48	43484.81
558.65	43746.95
558.81	43957.60
558.98	43824.19
559.14	43257.78
559.31	43707.16
559.47	43800.79
559.64	43861.64
559.80	44041.86
559.97	44107.40
560.13	43646.31
560.30	44257.19
560.46	44051.22
560.63	44032.50
560.79	43761.00
560.96	44294.64
561.12	43737.59
561.29	43887.39
561.45	44048.88
561.61	44083.99
561.78	44641.04
561.94	44259.53
562.11	44205.70
562.27	43831.21
562.44	44177.61
562.60	44638.70
562.77	44182.29
562.93	43913.13
563.10	44444.43
563.26	44004.41
563.42	44884.45
563.59	44311.02
563.75	44502.95
563.92	44154.21
564.08	43943.56
564.24	44402.30
564.41	44460.82
564.57	43910.79
564.74	44252.51
564.90	44301.66
565.07	43988.03
565.23	44261.87
565.39	44528.69
565.56	44552.10
565.72	44540.39
565.88	44713.59
566.05	44296.98
566.21	44746.36
566.38	43927.17
566.54	44495.92
566.70	44657.42
566.87	44786.15
567.03	44444.43
567.19	44905.52
567.36	44774.45
567.52	44524.01
567.68	44631.68
567.85	44481.88
568.01	44664.44
568.17	44739.34
568.34	44729.98
568.50	45326.81
568.66	44474.86
568.83	44584.86
568.99	44624.65
569.15	44540.39
569.32	44694.87
569.48	44512.31
569.64	44861.05
569.81	44392.94
569.97	44673.81
570.13	45067.02
570.30	44577.84
570.46	44678.49
570.62	44898.50
570.78	44573.16
570.95	44488.90
571.11	44715.93
571.27	44636.36
571.43	44584.86
571.60	44968.71
571.76	44699.55
571.92	44928.92
572.09	44896.16
572.25	45148.93
572.41	44954.67
572.57	44706.57
572.74	45446.18
572.90	44818.92
573.06	44636.36
573.22	44584.86
573.38	45254.26
573.55	44914.88
573.71	44957.01
573.87	45052.97
574.03	45055.31
574.20	44917.22
574.36	44821.26
574.52	45137.23
574.68	44837.64
574.84	44694.87
575.01	45151.27
575.17	44933.60
575.33	44685.51
575.49	44849.35
575.65	44957.01
575.82	44856.37
575.98	44980.42
576.14	44877.43
576.30	45064.67
576.46	44715.93
576.62	45420.44
576.79	45057.65
576.95	45240.21
577.11	45399.37
577.27	45097.44
577.43	44947.65
577.59	45408.73
577.75	44729.98
577.92	44711.25
578.08	45043.61
578.24	44308.68
578.40	44856.37
578.56	45680.24
578.72	45357.24
578.88	45415.76
579.04	45790.24
579.21	44769.77
579.37	45624.06
579.53	45059.99
579.69	44889.13
579.85	45130.21
580.01	45516.40
580.17	44910.20
580.33	45172.34
580.49	45338.52
580.65	45668.53
580.82	45284.68
580.98	44870.41
581.14	45289.37
581.30	45488.31
581.46	44800.19
581.62	45322.13
581.78	45006.16
581.94	45371.28
582.10	45013.18
582.26	45146.59
582.42	45158.30
582.58	45345.54
582.74	45549.17
582.90	45532.78
583.06	45717.68
583.22	45305.75
583.38	45553.85
583.54	45413.41
583.70	45399.37
583.86	45406.39
584.02	45256.60
584.18	45394.69
584.34	45500.01
584.50	45586.61
584.66	45261.28
584.82	45216.81
584.98	45275.32
585.14	45340.86
585.30	44900.84
585.46	45130.21
585.62	45275.32
585.78	45507.04
585.94	45244.90
586.10	45368.94
586.26	45715.34
586.42	45577.25
586.58	45734.07
586.74	45570.23
586.90	45240.21
587.06	45647.47
587.22	45331.50
587.38	44973.39
587.54	45504.70
587.70	45322.13
587.86	45329.16
588.02	45443.84
588.18	46071.10
588.34	45724.71
588.49	45272.98
588.65	45399.37
588.81	45448.52
588.97	45661.51
589.13	45406.39
589.29	45317.45
589.45	45792.58
589.61	45734.07
589.77	45654.49
589.93	46129.62
590.08	45762.15
590.24	45750.45
590.40	45832.37
590.56	45722.37
590.72	45530.44
590.88	45705.98
