SpectraSuite Data File
++++++++++++++++++++++++++++++++++++
Date: Fri Oct 04 11:39:52 GMT-05:00 2013
User: price-jones
Dark Spectrum Present: No
Reference Spectrum Present: No
Number of Sampled Component Spectra: 1
Spectrometers: USB2+H05261
Integration Time (usec): 100000 (USB2+H05261)
Spectra Averaged: 1 (USB2+H05261)
Boxcar Smoothing: 0 (USB2+H05261)
Correct for Electrical Dark: No (USB2+H05261)
Strobe/Lamp Enabled: No (USB2+H05261)
Correct for Detector Non-linearity: No (USB2+H05261)
Correct for Stray Light: No (USB2+H05261)
Number of Pixels in Processed Spectrum: 2048
>>>>>Begin Processed Spectral Data<<<<<
365.73	110.01
365.92	110.01
366.12	110.01
366.32	0.00
366.52	0.00
366.72	0.00
366.91	0.00
367.11	0.00
367.31	0.00
367.51	0.00
367.70	0.00
367.90	0.00
368.10	0.00
368.30	0.00
368.49	0.00
368.69	14.04
368.89	9.36
369.09	0.00
369.28	0.00
369.48	0.00
369.68	0.00
369.87	28.09
370.07	0.00
370.27	65.54
370.47	16.38
370.66	30.43
370.86	84.26
371.06	84.26
371.25	140.43
371.45	53.83
371.65	60.85
371.84	32.77
372.04	138.09
372.24	74.90
372.44	79.58
372.63	166.18
372.83	112.35
373.03	142.77
373.22	100.64
373.42	30.43
373.62	135.75
373.81	159.16
374.01	133.41
374.21	168.52
374.40	142.77
374.60	79.58
374.79	222.35
374.99	114.69
375.19	159.16
375.38	152.13
375.58	175.54
375.78	145.11
375.97	142.77
376.17	189.58
376.37	91.28
376.56	149.79
376.76	220.01
376.95	149.79
377.15	166.18
377.35	95.96
377.54	56.17
377.74	180.22
377.93	114.69
378.13	93.62
378.33	140.43
378.52	126.39
378.72	208.31
378.91	166.18
379.11	131.07
379.31	149.79
379.50	159.16
379.70	189.58
379.89	187.24
380.09	124.05
380.28	128.73
380.48	107.66
380.68	177.88
380.87	39.79
381.07	88.94
381.26	154.48
381.46	79.58
381.65	114.69
381.85	119.37
382.04	110.01
382.24	128.73
382.43	67.88
382.63	138.09
382.83	140.43
383.02	177.88
383.22	166.18
383.41	135.75
383.61	161.50
383.80	133.41
384.00	110.01
384.19	72.56
384.39	149.79
384.58	208.31
384.78	133.41
384.97	88.94
385.17	86.60
385.36	124.05
385.56	161.50
385.75	140.43
385.95	77.24
386.14	175.54
386.34	102.98
386.53	114.69
386.72	117.03
386.92	189.58
387.11	107.66
387.31	154.48
387.50	138.09
387.70	175.54
387.89	138.09
388.09	170.86
388.28	107.66
388.48	74.90
388.67	152.13
388.86	102.98
389.06	138.09
389.25	138.09
389.45	142.77
389.64	175.54
389.84	98.30
390.03	175.54
390.22	93.62
390.42	161.50
390.61	163.84
390.81	154.48
391.00	84.26
391.19	149.79
391.39	88.94
391.58	149.79
391.78	79.58
391.97	168.52
392.16	152.13
392.36	156.82
392.55	208.31
392.75	131.07
392.94	166.18
393.13	245.76
393.33	203.63
393.52	65.54
393.71	187.24
393.91	187.24
394.10	163.84
394.29	149.79
394.49	145.11
394.68	196.60
394.88	168.52
395.07	126.39
395.26	154.48
395.46	147.45
395.65	201.29
395.84	168.52
396.04	257.46
396.23	152.13
396.42	220.01
396.62	107.66
396.81	140.43
397.00	191.92
397.19	170.86
397.39	128.73
397.58	170.86
397.77	191.92
397.97	182.56
398.16	201.29
398.35	236.39
398.55	299.59
398.74	180.22
398.93	166.18
399.12	196.60
399.32	140.43
399.51	175.54
399.70	212.99
399.90	173.20
400.09	210.65
400.28	194.26
400.47	231.71
400.67	215.33
400.86	212.99
401.05	161.50
401.24	208.31
401.44	184.90
401.63	224.69
401.82	238.73
402.01	229.37
402.21	215.33
402.40	222.35
402.59	208.31
402.78	210.65
402.97	229.37
403.17	205.97
403.36	276.18
403.55	161.50
403.74	208.31
403.93	299.59
404.13	262.14
404.32	308.95
404.51	276.18
404.70	276.18
404.89	271.50
405.09	322.99
405.28	222.35
405.47	234.05
405.66	266.82
405.85	280.86
406.05	212.99
406.24	285.55
406.43	229.37
406.62	280.86
406.81	292.57
407.00	292.57
407.20	266.82
407.39	156.82
407.58	245.76
407.77	266.82
407.96	322.99
408.15	248.10
408.34	238.73
408.54	255.12
408.73	322.99
408.92	313.63
409.11	325.33
409.30	327.68
409.49	283.20
409.68	294.91
409.87	351.08
410.07	332.36
410.26	322.99
410.45	280.86
410.64	308.95
410.83	308.95
411.02	280.86
411.21	290.23
411.40	341.72
411.59	304.27
411.78	339.38
411.98	266.82
412.17	280.86
412.36	287.89
412.55	334.70
412.74	337.04
412.93	458.74
413.12	365.12
413.31	461.09
413.50	358.10
413.69	339.38
413.88	463.43
414.07	442.36
414.26	362.78
414.45	297.25
414.64	449.38
414.83	341.72
415.02	416.62
415.22	395.55
415.41	423.64
415.60	362.78
415.79	444.70
415.98	444.70
416.17	409.59
416.36	404.91
416.55	381.51
416.74	423.64
416.93	418.96
417.12	418.96
417.31	486.83
417.50	381.51
417.69	482.15
417.88	468.11
418.07	383.85
418.26	451.72
418.45	465.77
418.64	468.11
418.83	402.57
419.02	493.85
419.21	444.70
419.39	500.87
419.58	526.62
419.77	477.47
419.96	533.64
420.15	587.47
420.34	500.87
420.53	533.64
420.72	503.22
420.91	503.22
421.10	503.22
421.29	540.66
421.48	559.39
421.67	531.30
421.86	493.85
422.05	510.24
422.24	484.49
422.43	456.40
422.61	500.87
422.80	500.87
422.99	552.37
423.18	540.66
423.37	533.64
423.56	568.75
423.75	503.22
423.94	554.71
424.13	514.92
424.32	463.43
424.50	596.84
424.69	538.32
424.88	594.50
425.07	543.00
425.26	519.60
425.45	580.45
425.64	589.82
425.83	507.90
426.01	573.43
426.20	500.87
426.39	592.16
426.58	507.90
426.77	617.90
426.96	521.94
427.15	589.82
427.33	547.69
427.52	545.34
427.71	528.96
427.90	535.98
428.09	589.82
428.28	608.54
428.46	589.82
428.65	470.45
428.84	573.43
429.03	641.31
429.22	575.77
429.40	601.52
429.59	617.90
429.78	624.92
429.97	566.41
430.16	676.41
430.34	622.58
430.53	620.24
430.72	629.60
430.91	676.41
431.10	596.84
431.28	641.31
431.47	575.77
431.66	606.20
431.85	571.09
432.03	582.79
432.22	734.93
432.41	629.60
432.60	629.60
432.79	578.11
432.97	718.54
433.16	638.97
433.35	727.91
433.54	615.56
433.72	674.07
433.91	657.69
434.10	594.50
434.28	660.03
434.47	636.63
434.66	671.73
434.85	631.94
435.03	779.40
435.22	954.94
435.41	1263.89
435.59	1254.53
435.78	1064.94
435.97	929.19
436.16	723.23
436.34	709.18
436.53	667.05
436.72	755.99
436.90	683.44
437.09	671.73
437.28	692.80
437.46	767.70
437.65	692.80
437.84	671.73
438.02	688.12
438.21	805.14
438.40	655.35
438.58	741.95
438.77	653.01
438.96	748.97
439.14	730.25
439.33	716.20
439.52	772.38
439.70	711.52
439.89	634.29
440.08	774.72
440.26	755.99
440.45	812.17
440.63	884.72
440.82	786.42
441.01	791.10
441.19	814.51
441.38	788.76
441.57	807.48
441.75	788.76
441.94	786.42
442.12	833.23
442.31	760.67
442.50	730.25
442.68	816.85
442.87	828.55
443.05	807.48
443.24	833.23
443.43	847.27
443.61	863.66
443.80	772.38
443.98	798.12
444.17	746.63
444.35	835.57
444.54	805.14
444.73	882.38
444.91	847.27
445.10	830.89
445.28	805.14
445.47	760.67
445.65	763.01
445.84	830.89
446.02	772.38
446.21	870.68
446.39	873.02
446.58	940.90
446.77	844.93
446.95	795.78
447.14	767.70
447.32	912.81
447.51	884.72
447.69	957.28
447.88	894.08
448.06	861.32
448.25	798.12
448.43	870.68
448.62	823.87
448.80	840.25
448.99	842.59
449.17	922.17
449.36	903.45
449.54	877.70
449.73	894.08
449.91	889.40
450.10	901.11
450.28	1018.13
450.46	943.24
450.65	919.83
450.83	901.11
451.02	891.74
451.20	922.17
451.39	933.87
451.57	994.73
451.76	903.45
451.94	922.17
452.13	1008.77
452.31	922.17
452.49	870.68
452.68	905.79
452.86	957.28
453.05	952.60
453.23	917.49
453.42	992.39
453.60	936.21
453.78	992.39
453.97	931.53
454.15	964.30
454.34	940.90
454.52	919.83
454.70	1008.77
454.89	964.30
455.07	919.83
455.26	898.77
455.44	1018.13
455.62	950.26
455.81	983.02
455.99	1008.77
456.17	1081.33
456.36	947.92
456.54	1015.79
456.73	968.98
456.91	978.34
457.09	990.05
457.28	1074.31
457.46	1008.77
457.64	1074.31
457.83	997.07
458.01	1020.47
458.19	1013.45
458.38	1064.94
458.56	1060.26
458.74	1029.84
458.93	1128.14
459.11	1100.05
459.29	999.41
459.48	1011.11
459.66	1114.10
459.84	1011.11
460.03	1158.57
460.21	1055.58
460.39	1102.39
460.57	1203.04
460.76	1067.28
460.94	1128.14
461.12	1184.31
461.31	1170.27
461.49	985.37
461.67	1097.71
461.85	1114.10
462.04	940.90
462.22	1533.05
462.40	1163.25
462.59	1053.24
462.77	1027.50
462.95	1160.91
463.13	1165.59
463.32	1039.20
463.50	1100.05
463.68	1043.88
463.86	1041.54
464.05	1095.37
464.23	1078.99
464.41	1186.65
464.59	1123.46
464.78	1132.82
464.96	1149.20
465.14	1090.69
465.32	1128.14
465.50	1135.16
465.69	1156.22
465.87	1011.11
466.05	1071.97
466.23	1172.61
466.41	1198.35
466.60	1282.61
466.78	1198.35
466.96	1226.44
467.14	1231.12
467.32	1184.31
467.51	1263.89
467.69	1160.91
467.87	1280.27
468.05	1163.25
468.23	1181.97
468.41	1249.85
468.60	1266.23
468.78	1191.33
468.96	1235.80
469.14	1268.57
469.32	1207.72
469.50	1062.60
469.69	1198.35
469.87	1233.46
470.05	1306.02
470.23	1238.14
470.41	1170.27
470.59	1273.25
470.77	1242.82
470.95	1186.65
471.14	1287.29
471.32	1306.02
471.50	1371.55
471.68	1268.57
471.86	1308.36
472.04	1235.80
472.22	1308.36
472.40	1268.57
472.58	1273.25
472.77	1303.68
472.95	1313.04
473.13	1371.55
473.31	1448.79
473.49	1287.29
473.67	1273.25
473.85	1324.74
474.03	1380.92
474.21	1413.68
474.39	1406.66
474.57	1446.45
474.75	1409.00
474.93	1394.96
475.12	1299.00
475.30	1327.08
475.48	1451.13
475.66	1376.24
475.84	1481.56
476.02	1460.49
476.20	1465.18
476.38	1455.81
476.56	1495.60
476.74	1378.58
476.92	1486.24
477.10	1406.66
477.28	1413.68
477.46	1479.22
477.64	1514.33
477.82	1469.86
478.00	1486.24
478.18	1549.43
478.36	1647.74
478.54	1549.43
478.72	1507.30
478.90	1530.71
479.08	1537.73
479.26	1607.95
479.44	1643.06
479.62	1586.88
479.80	1593.90
479.98	1640.72
480.16	1638.38
480.34	1687.53
480.52	1757.74
480.70	1703.91
480.88	1631.35
481.06	1699.23
481.24	1813.92
481.41	1657.10
481.59	1685.19
481.77	1706.25
481.95	1827.96
482.13	1818.60
482.31	1671.14
482.49	1823.28
482.67	1785.83
482.85	1860.73
483.03	1900.52
483.21	1867.75
483.39	1956.69
483.57	1916.90
483.74	1991.80
483.92	1961.37
484.10	1909.88
484.28	2017.54
484.46	2097.12
484.64	1998.82
484.82	2024.56
485.00	2104.14
485.18	2062.01
485.35	2197.76
485.53	2064.35
485.71	2162.66
485.89	2207.13
486.07	2125.21
486.25	2200.10
486.43	2029.24
486.61	2183.72
486.78	2272.66
486.96	2202.44
487.14	2284.36
487.32	2202.44
487.50	2228.19
487.68	2244.57
487.85	2352.24
488.03	2319.47
488.21	2235.21
488.39	2202.44
488.57	2246.91
488.75	2431.82
488.92	2513.74
489.10	2436.50
489.28	2361.60
489.46	2375.64
489.64	2401.39
489.81	2469.27
489.99	2495.01
490.17	2548.84
490.35	2546.50
490.53	2448.20
490.70	2473.95
490.88	2504.37
491.06	2471.61
491.24	2597.99
491.41	2478.63
491.59	2640.12
491.77	2553.52
491.95	2600.34
492.13	2539.48
492.30	2708.00
492.48	2595.65
492.66	2724.38
492.84	2719.70
493.01	2649.49
493.19	2637.78
493.37	2724.38
493.54	2689.28
493.72	2710.34
493.90	2722.04
494.08	2855.45
494.25	2820.35
494.43	2832.05
494.61	2736.09
494.79	2832.05
494.96	2806.30
495.14	2806.30
495.32	2825.03
495.49	2906.95
495.67	2810.98
495.85	2981.84
496.02	2878.86
496.20	2949.08
496.38	2839.07
496.55	2834.39
496.73	2979.50
496.91	2885.88
497.09	3068.44
497.26	3038.02
497.44	2967.80
497.62	3054.40
497.79	3080.14
497.97	3035.67
498.14	3122.27
498.32	3293.13
498.50	2981.84
498.67	3054.40
498.85	3063.76
499.03	3155.04
499.20	3138.66
499.38	3155.04
499.56	3187.81
499.73	3337.60
499.91	3173.77
500.08	3171.43
500.26	3082.49
500.44	3087.17
500.61	3197.17
500.79	3194.83
500.97	3229.94
501.14	3274.41
501.32	3197.17
501.49	3281.43
501.67	3197.17
501.84	3335.26
502.02	3358.67
502.20	3346.97
502.37	3300.16
502.55	3335.26
502.72	3417.18
502.90	3375.05
503.07	3274.41
503.25	3382.07
503.43	3346.97
503.60	3405.48
503.78	3440.59
503.95	3520.17
504.13	3337.60
504.30	3463.99
504.48	3473.36
504.65	3527.19
504.83	3576.34
505.01	3471.01
505.18	3424.20
505.36	3494.42
505.53	3489.74
505.71	3562.30
505.88	3564.64
506.06	3499.10
506.23	3548.25
506.41	3496.76
506.58	3620.81
506.76	3588.04
506.93	3566.98
507.11	3510.80
507.28	3627.83
507.46	3611.45
507.63	3784.65
507.81	3679.32
507.98	3644.21
508.16	3588.04
508.33	3625.49
508.50	3730.81
508.68	3632.51
508.85	3737.84
509.03	3623.15
509.20	3684.00
509.38	3669.96
509.55	3620.81
509.73	3728.47
509.90	3866.56
510.08	3653.58
510.25	3882.95
510.42	3836.14
510.60	3824.44
510.77	3817.41
510.95	3915.72
511.12	3791.67
511.30	3861.88
511.47	3817.41
511.64	3911.04
511.82	3796.35
511.99	3803.37
512.17	3969.55
512.34	3829.12
512.51	3911.04
512.69	3861.88
512.86	3831.46
513.04	3971.89
513.21	3997.64
513.38	3899.33
513.56	3999.98
513.73	3955.51
513.90	3936.78
514.08	4042.11
514.25	4002.32
514.43	4039.76
514.60	4070.19
514.77	3992.95
514.95	4102.96
515.12	4044.45
515.29	4077.21
515.47	4124.02
515.64	4152.11
515.81	4049.13
515.99	4032.74
516.16	4170.83
516.33	4060.83
516.51	4105.30
516.68	4074.87
516.85	4145.09
517.03	4212.96
517.20	4121.68
517.37	4299.56
517.54	4149.77
517.72	4201.26
517.89	4086.58
518.06	4334.67
518.24	4156.79
518.41	4187.22
518.58	4285.52
518.75	4170.83
518.93	4243.39
519.10	4315.95
519.27	4248.07
519.45	4245.73
519.62	4311.27
519.79	4320.63
519.96	4337.01
520.14	4304.25
520.31	4418.93
520.48	4273.82
520.65	4468.08
520.83	4411.91
521.00	4435.32
521.17	4456.38
521.34	4491.49
521.52	4334.67
521.69	4510.21
521.86	4381.48
522.03	4594.47
522.20	4479.79
522.38	4360.42
522.55	4430.63
522.72	4458.72
522.89	4381.48
523.07	4372.12
523.24	4414.25
523.41	4470.42
523.58	4507.87
523.75	4559.36
523.92	4482.13
524.10	4599.15
524.27	4528.94
524.44	4493.83
524.61	4599.15
524.78	4538.30
524.96	4559.36
525.13	4526.60
525.30	4587.45
525.47	4648.30
525.64	4695.11
525.81	4545.32
525.98	4699.80
526.16	4610.86
526.33	4470.42
526.50	4580.43
526.67	4533.62
526.84	4542.98
527.01	4620.22
527.18	4594.47
527.36	4751.29
527.53	4634.26
527.70	4545.32
527.87	4610.86
528.04	4692.77
528.21	4760.65
528.38	4650.64
528.55	4716.18
528.72	4858.95
528.89	4678.73
529.07	4685.75
529.24	4648.30
529.41	4812.14
529.58	4812.14
529.75	4788.74
529.92	4898.74
530.09	4891.72
530.26	4720.86
530.43	4844.91
530.60	4798.10
530.77	4936.19
530.94	4681.07
531.11	4732.56
531.28	4786.40
531.46	4968.96
531.63	4793.42
531.80	4894.06
531.97	4922.15
532.14	4844.91
532.31	4770.01
532.48	4793.42
532.65	4842.57
532.82	4786.40
532.99	4905.76
533.16	4873.00
533.33	4809.80
533.50	5104.71
533.67	4868.31
533.84	4861.29
534.01	4835.55
534.18	4858.95
534.35	5018.11
534.52	4931.51
534.69	4847.25
534.86	4975.98
535.03	4954.91
535.20	4985.34
535.37	4997.04
535.54	4919.81
535.71	5046.20
535.88	5107.05
536.05	5062.58
536.22	4950.23
536.38	5027.47
536.55	5174.92
536.72	5111.73
536.89	5046.20
537.06	5123.43
537.23	5125.77
537.40	4980.66
537.57	4917.47
537.74	5137.48
537.91	5170.24
538.08	5132.79
538.25	5177.26
538.42	5125.77
538.59	5256.84
538.75	5118.75
538.92	5238.12
539.09	5263.86
539.26	5317.70
539.43	5118.75
539.60	5352.81
539.77	5380.89
539.94	5394.93
540.11	5366.85
540.28	5423.02
540.44	5359.83
540.61	5420.68
540.78	5476.85
540.95	5640.69
541.12	5643.03
541.29	5888.79
541.46	5645.37
541.62	5724.95
541.79	5928.58
541.96	5596.22
542.13	5783.46
542.30	5811.55
542.47	5746.02
542.63	5764.74
542.80	5790.49
542.97	5797.51
543.14	5816.23
543.31	5694.52
543.48	5764.74
543.64	5722.61
543.81	5708.57
543.98	5657.07
544.15	5830.27
544.32	5792.83
544.48	5710.91
544.65	5729.63
544.82	5748.36
544.99	5755.38
545.16	5853.68
545.32	5753.04
545.49	6155.61
545.66	6806.28
545.83	6995.86
546.00	6808.62
546.16	6314.77
546.33	6083.05
546.50	5860.70
546.67	5865.38
546.83	5682.82
547.00	5837.30
547.17	5591.54
547.34	5572.82
547.50	5607.92
547.67	5558.77
547.84	5638.35
548.00	5563.45
548.17	5551.75
548.34	5596.22
548.51	5731.97
548.67	5664.10
548.84	5521.32
549.01	5713.25
549.18	5563.45
549.34	5495.58
549.51	5582.18
549.68	5558.77
549.84	5706.23
550.01	5540.05
550.18	5701.54
550.34	5600.90
550.51	5614.95
550.68	5692.18
550.84	5507.28
551.01	5404.30
551.18	5495.58
551.34	5521.32
551.51	5453.45
551.68	5514.30
551.84	5544.73
552.01	5406.64
552.18	5530.69
552.34	5448.77
552.51	5488.56
552.68	5427.70
552.84	5490.90
553.01	5530.69
553.18	5528.35
553.34	5380.89
553.51	5511.96
553.67	5643.03
553.84	5624.31
554.01	5734.31
554.17	5497.92
554.34	5568.13
554.51	5439.40
554.67	5518.98
554.84	5502.60
555.00	5500.26
555.17	5446.43
555.33	5593.88
555.50	5544.73
555.67	5434.72
555.83	5348.12
556.00	5533.03
556.16	5727.29
556.33	5579.84
556.50	5535.37
556.66	5570.48
556.83	5481.53
556.99	5575.16
557.16	5596.22
557.32	5682.82
557.49	5774.10
557.65	5399.62
557.82	5530.69
557.98	5596.22
558.15	5675.80
558.32	5626.65
558.48	5668.78
558.65	5701.54
558.81	5540.05
558.98	5605.58
559.14	5490.90
559.31	5621.97
559.47	5521.32
559.64	5558.77
559.80	5617.29
559.97	5720.27
560.13	5495.58
560.30	5521.32
560.46	5708.57
560.63	5518.98
560.79	5785.80
560.96	5533.03
561.12	5490.90
561.29	5509.62
561.45	5729.63
561.61	5568.13
561.78	5687.50
561.94	5687.50
562.11	5523.66
562.27	5741.33
562.44	5650.05
562.60	5570.48
562.77	5500.26
562.93	5638.35
563.10	5589.20
563.26	5469.83
563.42	5682.82
563.59	5652.39
563.75	5565.79
563.92	5542.39
564.08	5521.32
564.24	5584.52
564.41	5619.63
564.57	5734.31
564.74	5528.35
564.90	5392.59
565.07	5645.37
565.23	5647.71
565.39	5521.32
565.56	5675.80
565.72	5633.67
565.88	5549.41
566.05	5762.40
566.21	5558.77
566.38	5671.12
566.54	5631.33
566.70	5659.42
566.87	5643.03
567.03	5579.84
567.19	5671.12
567.36	5647.71
567.52	5633.67
567.68	5661.76
567.85	5593.88
568.01	5738.99
568.17	5507.28
568.34	5605.58
568.50	5596.22
568.66	5579.84
568.83	5703.89
568.99	5668.78
569.15	5647.71
569.32	5645.37
569.48	5610.26
569.64	5643.03
569.81	5542.39
569.97	5504.94
570.13	5451.11
570.30	5621.97
570.46	5678.14
570.62	5563.45
570.78	5600.90
570.95	5654.73
571.11	5628.99
571.27	5694.52
571.43	5610.26
571.60	5668.78
571.76	5657.07
571.92	5619.63
572.09	5636.01
572.25	5610.26
572.41	5610.26
572.57	5781.12
572.74	5792.83
572.90	5748.36
573.06	5802.19
573.22	5579.84
573.38	5701.54
573.55	5727.29
573.71	5724.95
573.87	5572.82
574.03	5582.18
574.20	5680.48
574.36	5526.00
574.52	5575.16
574.68	5589.20
574.84	5650.05
575.01	5741.33
575.17	5547.07
575.33	5715.59
575.49	5619.63
575.65	5694.52
575.82	5764.74
575.98	5797.51
576.14	5654.73
576.30	5685.16
576.46	5832.62
576.62	5863.04
576.79	5907.51
576.95	5905.17
577.11	5722.61
577.27	5767.08
577.43	5673.46
577.59	5708.57
577.75	5558.77
577.92	5628.99
578.08	5687.50
578.24	5727.29
578.40	5844.32
578.56	5933.26
578.72	5881.77
578.88	6069.01
579.04	5778.78
579.21	5753.04
579.37	5748.36
579.53	5607.92
579.69	5628.99
579.85	5809.21
580.01	5860.70
580.17	5760.06
580.33	5926.24
580.49	5799.85
580.65	5727.29
580.82	5729.63
580.98	5708.57
581.14	5776.44
581.30	5715.59
581.46	5701.54
581.62	5713.25
581.78	5741.33
581.94	5755.38
582.10	5659.42
582.26	5776.44
582.42	5734.31
582.58	5617.29
582.74	5879.43
582.90	5959.00
583.06	5914.53
583.22	5696.86
583.38	5989.43
583.54	5692.18
583.70	5778.78
583.86	5858.36
584.02	5760.06
584.18	5919.21
584.34	5757.72
584.50	5750.70
584.66	5621.97
584.82	5614.95
584.98	5696.86
585.14	5706.23
585.30	5790.49
585.46	5837.30
585.62	5774.10
585.78	5893.47
585.94	5692.18
586.10	5729.63
586.26	5816.23
586.42	5846.66
586.58	6017.52
586.74	5872.40
586.90	5987.09
587.06	6001.13
587.22	5767.08
587.38	5867.72
587.54	5874.74
587.70	5956.66
587.86	5902.83
588.02	5804.53
588.18	5947.30
588.34	5645.37
588.49	5694.52
588.65	5680.48
588.81	5605.58
588.97	5678.14
589.13	5762.40
589.29	5788.14
589.45	5867.72
589.61	5834.96
589.77	5694.52
589.93	5825.59
590.08	5734.31
590.24	5748.36
590.40	5755.38
590.56	5851.34
590.72	5909.85
590.88	5701.54
591.04	5727.29
591.20	5776.44
591.35	5797.51
591.51	5996.45
591.67	5612.60
591.83	5689.84
591.99	5860.70
592.15	5750.70
592.31	5699.20
592.46	5652.39
592.62	5891.13
592.78	5680.48
592.94	5921.56
593.10	5736.65
593.26	5804.53
593.41	5858.36
593.57	5825.59
593.73	6057.31
593.89	5867.72
594.05	5970.71
594.20	5511.96
594.36	5696.86
594.52	5717.93
594.68	5865.38
594.84	5746.02
594.99	5769.42
595.15	5781.12
595.31	5659.42
595.47	5788.14
595.62	5783.46
595.78	5661.76
595.94	5734.31
596.10	5767.08
596.25	5720.27
596.41	5729.63
596.57	5605.58
596.73	5703.89
596.88	5734.31
597.04	5750.70
597.20	5703.89
597.36	5729.63
597.51	5640.69
597.67	5668.78
597.83	5568.13
597.99	5703.89
598.14	5727.29
598.30	5900.49
598.46	5785.80
598.61	5689.84
598.77	5856.02
598.93	5647.71
599.09	5839.64
599.24	5851.34
599.40	5713.25
599.56	5748.36
599.71	5678.14
599.87	5841.98
600.03	5659.42
600.18	5792.83
600.34	5863.04
600.50	5806.87
600.65	5804.53
600.81	5795.17
600.97	5720.27
601.12	5809.21
601.28	5865.38
601.44	5455.79
