SpectraSuite Data File
++++++++++++++++++++++++++++++++++++
Date: Fri Oct 04 11:39:42 GMT-05:00 2013
User: price-jones
Dark Spectrum Present: No
Reference Spectrum Present: No
Number of Sampled Component Spectra: 1
Spectrometers: USB2+H05261
Integration Time (usec): 100000 (USB2+H05261)
Spectra Averaged: 1 (USB2+H05261)
Boxcar Smoothing: 0 (USB2+H05261)
Correct for Electrical Dark: No (USB2+H05261)
Strobe/Lamp Enabled: No (USB2+H05261)
Correct for Detector Non-linearity: No (USB2+H05261)
Correct for Stray Light: No (USB2+H05261)
Number of Pixels in Processed Spectrum: 2048
>>>>>Begin Processed Spectral Data<<<<<
365.73	21.06
365.92	21.06
366.12	21.06
366.32	0.00
366.52	0.00
366.72	0.00
366.91	0.00
367.11	0.00
367.31	0.00
367.51	0.00
367.70	0.00
367.90	0.00
368.10	0.00
368.30	0.00
368.49	0.00
368.69	0.00
368.89	0.00
369.09	0.00
369.28	9.36
369.48	0.00
369.68	0.00
369.87	4.68
370.07	0.00
370.27	32.77
370.47	102.98
370.66	173.20
370.86	114.69
371.06	238.73
371.25	196.60
371.45	175.54
371.65	259.80
371.84	222.35
372.04	208.31
372.24	201.29
372.44	187.24
372.63	273.84
372.83	290.23
373.03	294.91
373.22	318.31
373.42	285.55
373.62	248.10
373.81	252.78
374.01	369.80
374.21	255.12
374.40	280.86
374.60	322.99
374.79	287.89
374.99	278.52
375.19	238.73
375.38	306.61
375.58	250.44
375.78	313.63
375.97	327.68
376.17	369.80
376.37	362.78
376.56	290.23
376.76	273.84
376.95	341.72
377.15	201.29
377.35	285.55
377.54	297.25
377.74	287.89
377.93	241.08
378.13	330.02
378.33	290.23
378.52	383.85
378.72	285.55
378.91	318.31
379.11	252.78
379.31	339.38
379.50	327.68
379.70	304.27
379.89	386.19
380.09	285.55
380.28	250.44
380.48	390.87
380.68	369.80
380.87	315.97
381.07	372.15
381.26	341.72
381.46	369.80
381.65	395.55
381.85	297.25
382.04	269.16
382.24	287.89
382.43	351.08
382.63	285.55
382.83	351.08
383.02	346.40
383.22	395.55
383.41	353.42
383.61	393.21
383.80	341.72
384.00	365.12
384.19	360.44
384.39	421.30
384.58	348.74
384.78	397.89
384.97	407.25
385.17	325.33
385.36	411.93
385.56	421.30
385.75	327.68
385.95	348.74
386.14	428.32
386.34	388.53
386.53	322.99
386.72	330.02
386.92	435.34
387.11	491.51
387.31	465.77
387.50	449.38
387.70	367.46
387.89	407.25
388.09	397.89
388.28	433.00
388.48	367.46
388.67	416.62
388.86	353.42
389.06	447.04
389.25	437.68
389.45	440.02
389.64	418.96
389.84	456.40
390.03	456.40
390.22	468.11
390.42	442.36
390.61	454.06
390.81	486.83
391.00	425.98
391.19	440.02
391.39	510.24
391.58	482.15
391.78	468.11
391.97	545.34
392.16	503.22
392.36	568.75
392.55	517.26
392.75	505.56
392.94	479.81
393.13	535.98
393.33	493.85
393.52	486.83
393.71	554.71
393.91	454.06
394.10	526.62
394.29	472.79
394.49	594.50
394.68	547.69
394.88	608.54
395.07	554.71
395.26	615.56
395.46	543.00
395.65	540.66
395.84	613.22
396.04	627.26
396.23	695.14
396.42	620.24
396.62	629.60
396.81	702.16
397.00	568.75
397.19	617.90
397.39	683.44
397.58	699.82
397.77	561.73
397.97	727.91
398.16	730.25
398.35	660.03
398.55	667.05
398.74	734.93
398.93	720.88
399.12	706.84
399.32	697.48
399.51	669.39
399.70	667.05
399.90	678.76
400.09	786.42
400.28	732.59
400.47	774.72
400.67	828.55
400.86	884.72
401.05	875.36
401.24	821.53
401.44	779.40
401.63	826.21
401.82	725.57
402.01	788.76
402.21	863.66
402.40	774.72
402.59	849.61
402.78	821.53
402.97	866.00
403.17	851.96
403.36	889.40
403.55	887.06
403.74	1001.75
403.93	971.32
404.13	961.96
404.32	1219.42
404.51	1018.13
404.70	1114.10
404.89	1064.94
405.09	1125.80
405.28	1053.24
405.47	1053.24
405.66	1090.69
405.85	1076.65
406.05	1076.65
406.24	1142.18
406.43	1132.82
406.62	1160.91
406.81	1238.14
407.00	1163.25
407.20	1160.91
407.39	1193.67
407.58	1153.88
407.77	1214.74
407.96	1207.72
408.15	1238.14
408.34	1137.50
408.54	1299.00
408.73	1254.53
408.92	1296.66
409.11	1380.92
409.30	1331.76
409.49	1376.24
409.68	1411.34
409.87	1261.55
410.07	1465.18
410.26	1430.07
410.45	1416.02
410.64	1392.62
410.83	1488.58
411.02	1451.13
411.21	1507.30
411.40	1483.90
411.59	1689.87
411.78	1556.46
411.98	1544.75
412.17	1568.16
412.36	1638.38
412.55	1661.78
412.74	1556.46
412.93	1842.00
413.12	1682.85
413.31	1708.59
413.50	1764.76
413.69	1809.23
413.88	2047.97
414.07	1900.52
414.26	1764.76
414.45	1872.43
414.64	1914.56
414.83	1942.64
415.02	1954.35
415.22	1959.03
415.41	1973.07
415.60	1872.43
415.79	2083.08
415.98	2090.10
416.17	2179.04
416.36	2076.06
416.55	2062.01
416.74	2172.02
416.93	2218.83
417.12	2160.31
417.31	2179.04
417.50	2211.81
417.69	2277.34
417.88	2218.83
418.07	2225.85
418.26	2368.62
418.45	2296.07
418.64	2429.48
418.83	2310.11
419.02	2401.39
419.21	2392.03
419.39	2415.43
419.58	2490.33
419.77	2410.75
419.96	2509.05
420.15	2541.82
420.34	2434.16
420.53	2544.16
420.72	2597.99
420.91	2532.46
421.10	2635.44
421.29	2691.62
421.48	2595.65
421.67	2708.00
421.86	2684.59
422.05	2766.51
422.24	2651.83
422.43	2764.17
422.61	2630.76
422.80	2621.40
422.99	2740.77
423.18	2705.66
423.37	2778.22
423.56	2647.15
423.75	2698.64
423.94	2555.86
424.13	2567.57
424.32	2633.10
424.50	2785.24
424.69	2841.41
424.88	2815.66
425.07	2787.58
425.26	2731.41
425.45	2799.28
425.64	2834.39
425.83	2782.90
426.01	2825.03
426.20	2829.71
426.39	2862.48
426.58	2752.47
426.77	2733.75
426.96	2815.66
427.15	2853.11
427.33	2895.24
427.52	2899.92
427.71	2930.35
427.90	2960.78
428.09	3005.25
428.28	3000.57
428.46	2930.35
428.65	2972.48
428.84	2946.73
429.03	3229.94
429.22	3075.46
429.40	3131.64
429.59	3028.65
429.78	3115.25
429.97	2984.18
430.16	3105.89
430.34	3117.59
430.53	3222.92
430.72	3148.02
430.91	3143.34
431.10	3178.45
431.28	3197.17
431.47	3239.30
431.66	3197.17
431.85	3314.20
432.03	3262.71
432.22	3473.36
432.41	3199.51
432.60	3342.28
432.79	3274.41
432.97	3372.71
433.16	3510.80
433.35	3426.54
433.54	3527.19
433.72	3463.99
433.91	3471.01
434.10	3368.03
434.28	3506.12
434.47	3471.01
434.66	3459.31
434.85	3688.68
435.03	3698.05
435.22	3714.43
435.41	4135.73
435.59	4060.83
435.78	3969.55
435.97	3768.26
436.16	3644.21
436.34	3669.96
436.53	3693.37
436.72	3770.60
436.90	3597.40
437.09	3627.83
437.28	3705.07
437.46	3756.56
437.65	3899.33
437.84	3754.22
438.02	3791.67
438.21	3868.91
438.40	3730.81
438.58	3845.50
438.77	3983.59
438.96	3857.20
439.14	4016.36
439.33	3992.95
439.52	4044.45
439.70	4063.17
439.89	4133.39
440.08	4262.12
440.26	4168.49
440.45	4250.41
440.63	4273.82
440.82	4250.41
441.01	4397.87
441.19	4297.22
441.38	4428.29
441.57	4271.48
441.75	4315.95
441.94	4482.13
442.12	4559.36
442.31	4540.64
442.50	4444.68
442.68	4461.06
442.87	4599.15
443.05	4571.07
443.24	4650.64
443.43	4631.92
443.61	4667.03
443.80	4865.97
443.98	4564.04
444.17	4582.77
444.35	4643.62
444.54	4697.46
444.73	4535.96
444.91	4645.96
445.10	4674.05
445.28	4741.93
445.47	4561.70
445.65	4671.71
445.84	4762.99
446.02	4741.93
446.21	4755.97
446.39	4645.96
446.58	4706.82
446.77	4655.33
446.95	4678.73
447.14	4683.41
447.32	4786.40
447.51	4737.24
447.69	4854.27
447.88	4835.55
448.06	4851.93
448.25	4802.78
448.43	4805.12
448.62	4793.42
448.80	4901.08
448.99	4968.96
449.17	4882.36
449.36	4718.52
449.54	4983.00
449.73	5067.26
449.91	5025.13
450.10	5210.03
450.28	5090.67
450.46	5191.31
450.65	5249.82
450.83	5210.03
451.02	5153.86
451.20	5322.38
451.39	5167.90
451.57	5114.07
451.76	5198.33
451.94	5064.92
452.13	5256.84
452.31	5284.93
452.49	5060.24
452.68	5348.12
452.86	5322.38
453.05	5301.31
453.23	5343.44
453.42	5263.86
453.60	5144.50
453.78	5305.99
453.97	5310.68
454.15	5364.51
454.34	5465.15
454.52	5488.56
454.70	5380.89
454.89	5385.57
455.07	5518.98
455.26	5544.73
455.44	5713.25
455.62	5544.73
455.81	5420.68
455.99	5469.83
456.17	5731.97
456.36	5540.05
456.54	5734.31
456.73	5661.76
456.91	5944.96
457.09	5790.49
457.28	5970.71
457.46	5781.12
457.64	5907.51
457.83	5900.49
458.01	5895.81
458.19	6017.52
458.38	5970.71
458.56	5916.87
458.74	5783.46
458.93	5923.90
459.11	6090.07
459.29	6059.65
459.48	6108.80
459.66	6005.81
459.84	6218.80
460.03	6260.93
460.21	6141.57
460.39	6150.93
460.57	6319.45
460.76	6171.99
460.94	6242.21
461.12	6174.33
461.31	6349.87
461.49	6113.48
461.67	6120.50
461.85	6363.92
462.04	6223.48
462.22	6693.93
462.40	6331.15
462.59	6417.75
462.77	6384.98
462.95	6335.83
463.13	6494.99
463.32	6392.00
463.50	6494.99
463.68	6494.99
463.86	6649.46
464.05	6623.72
464.23	6506.69
464.41	6502.01
464.59	6492.65
464.78	6567.54
464.96	6724.36
465.14	6502.01
465.32	6715.00
465.50	6644.78
465.69	6719.68
465.87	6684.57
466.05	6707.98
466.23	6736.06
466.41	6796.92
466.60	7028.63
466.78	6862.45
466.96	6644.78
467.14	6883.52
467.32	6874.15
467.51	7052.03
467.69	6532.44
467.87	6878.83
468.05	7073.10
468.23	6909.26
468.41	6841.39
468.60	6951.39
468.78	7091.82
468.96	7000.54
469.14	7122.25
469.32	7272.04
469.50	7000.54
469.69	7253.32
469.87	7302.47
470.05	7335.24
470.23	7307.15
470.41	7162.04
470.59	7342.26
470.77	7365.67
470.95	7382.05
471.14	7522.48
471.32	7314.17
471.50	7583.34
471.68	7538.87
471.86	7468.65
472.04	7503.76
472.22	7833.77
472.40	7463.97
472.58	7796.32
472.77	7627.81
472.95	7803.35
473.13	8037.40
473.31	7779.94
473.49	7929.74
473.67	7899.31
473.85	7936.76
474.03	8107.62
474.21	8039.74
474.39	8023.36
474.57	8152.09
474.75	8154.43
474.93	8203.58
475.12	8042.08
475.30	8381.46
475.48	8196.56
475.66	8596.79
475.84	8571.04
476.02	8451.67
476.20	8540.61
476.38	8662.32
476.56	8671.68
476.74	8837.86
476.92	8634.24
477.10	8547.64
477.28	8936.17
477.46	8765.31
477.64	8985.32
477.82	8952.55
478.00	9305.97
478.18	9238.09
478.36	9483.85
478.54	9483.85
478.72	9334.06
478.90	9451.08
479.08	9528.32
479.26	9699.18
479.44	9731.95
479.62	9748.33
479.80	9856.00
479.98	9975.36
480.16	9951.96
480.34	10141.54
480.52	10064.30
480.70	10225.80
480.88	10076.01
481.06	10270.27
481.24	10403.68
481.41	10338.15
481.59	10604.97
481.77	10604.97
481.95	10693.91
482.13	10703.27
482.31	10684.55
482.49	10925.62
482.67	10991.16
482.85	11147.97
483.03	11213.51
483.21	11133.93
483.39	11400.75
483.57	11239.25
483.74	11339.90
483.92	11531.82
484.10	11740.13
484.28	11730.76
484.46	12058.44
484.64	12229.30
484.82	12002.27
485.00	12215.26
485.18	12486.76
485.35	12435.27
485.53	12461.01
485.71	12746.56
485.89	12571.02
486.07	12575.70
486.25	12905.71
486.43	12774.64
486.61	12915.08
486.78	13025.08
486.96	13249.77
487.14	13376.16
487.32	13280.20
487.50	13549.36
487.68	13593.83
487.85	13650.00
488.03	13935.55
488.21	14146.20
488.39	14099.39
488.57	14195.35
488.75	14157.90
488.92	14609.62
489.10	14413.02
489.28	14714.95
489.46	14623.67
489.64	14714.95
489.81	14974.75
489.99	15400.72
490.17	15105.82
490.35	15410.09
490.53	15475.62
490.70	15360.94
490.88	15583.29
491.06	15697.97
491.24	15829.04
491.41	15709.68
491.59	15822.02
491.77	15971.82
491.95	16056.08
492.13	16112.25
492.30	16250.34
492.48	16500.78
492.66	16362.69
492.84	16287.79
493.01	16524.18
493.19	16662.27
493.37	16884.62
493.54	16943.14
493.72	17156.13
493.90	16945.48
494.08	17224.00
494.25	17275.49
494.43	17458.06
494.61	17472.10
494.79	17488.48
494.96	17633.60
495.14	17600.83
495.32	18141.49
495.49	17874.67
495.67	17862.97
495.85	18192.98
496.02	18146.17
496.20	18408.31
496.38	18382.57
496.55	18387.25
496.73	18937.27
496.91	18691.52
497.09	18733.65
497.26	18787.48
497.44	18941.96
497.62	19049.62
497.79	19173.67
497.97	19316.44
498.14	19442.83
498.32	19426.45
498.50	19733.06
498.67	19845.40
498.85	19756.46
499.03	19585.60
499.20	19807.95
499.38	19756.46
499.56	20140.31
499.73	20130.95
499.91	20360.32
500.08	20533.52
500.26	20058.39
500.44	20126.27
500.61	20585.01
500.79	20329.89
500.97	20570.97
501.14	20716.08
501.32	20723.10
501.49	20655.23
501.67	20975.88
501.84	20964.18
502.02	20987.58
502.20	21125.68
502.37	21186.53
502.55	21120.99
502.72	21254.40
502.90	21453.35
503.07	21193.55
503.25	21486.12
503.43	21212.28
503.60	21708.47
503.78	21804.43
503.95	21390.16
504.13	21809.11
504.30	22045.51
504.48	21830.18
504.65	21898.05
504.83	22136.79
505.01	22183.60
505.18	22134.45
505.36	22391.91
505.53	22298.28
505.71	22242.11
505.88	22097.00
506.06	22429.35
506.23	22651.70
506.41	22728.94
506.58	22899.80
506.76	23157.26
506.93	22750.01
507.11	22661.07
507.28	22740.64
507.46	22752.35
507.63	23180.67
507.81	23513.02
507.98	23293.01
508.16	23267.27
508.33	23461.53
508.50	23218.11
508.68	23676.86
508.85	23880.49
509.03	23393.65
509.20	23854.74
509.38	24224.54
509.55	24521.79
509.73	24105.18
509.90	24343.91
510.08	24030.28
510.25	24144.97
510.42	24336.89
510.60	24610.73
510.77	24397.74
510.95	24776.91
511.12	24339.23
511.30	24425.83
511.47	24624.78
511.64	24744.14
511.82	24905.64
511.99	24746.48
512.17	25144.38
512.34	24936.07
512.51	25144.38
512.69	25151.40
512.86	25099.90
513.04	25343.32
513.21	25507.16
513.38	25673.34
513.56	25619.50
513.73	25575.03
513.90	25509.50
514.08	25525.88
514.25	25907.39
514.43	25979.95
514.60	25919.09
514.77	26040.80
514.95	26129.74
515.12	25961.22
515.29	25809.09
515.47	26426.99
515.64	26441.03
515.81	26347.41
515.99	26855.31
516.16	26745.30
516.33	26469.12
516.51	26789.77
516.68	26534.65
516.85	26368.48
517.03	26735.94
517.20	26986.38
517.37	26576.78
517.54	26850.63
517.72	27159.58
517.89	26778.07
518.06	27049.57
518.24	26913.82
518.41	26604.87
518.58	26972.33
518.75	27204.05
518.93	27501.29
519.10	27381.93
519.27	27494.27
519.45	27545.76
519.62	27765.78
519.79	27414.69
519.96	27585.55
520.14	28023.23
520.31	27639.39
520.48	27927.27
520.65	27725.99
520.83	28201.11
521.00	28238.56
521.17	28180.05
521.34	28343.89
521.52	28383.68
521.69	28411.76
521.86	28652.84
522.03	28428.15
522.20	28606.03
522.38	28458.57
522.55	28622.41
522.72	28753.48
522.89	28989.88
523.07	28994.56
523.24	29191.16
523.41	29003.92
523.58	28954.77
523.75	29064.77
523.92	28999.24
524.10	29099.88
524.27	29249.67
524.44	29287.12
524.61	29532.88
524.78	29481.39
524.96	29345.64
525.13	29521.18
525.30	29598.41
525.47	29528.20
525.64	29874.60
525.81	29713.10
525.98	29493.09
526.16	29933.11
526.33	29834.81
526.50	30366.11
526.67	29919.07
526.84	30230.36
527.01	29689.70
527.18	30052.48
527.36	30176.53
527.53	30075.88
527.70	30536.97
527.87	30616.55
528.04	30448.03
528.21	30328.66
528.38	30628.25
528.55	30396.54
528.72	30382.49
528.89	30838.90
529.07	30536.97
529.24	30539.31
529.41	30817.83
529.58	30995.71
529.75	30522.93
529.92	30801.45
530.09	30845.92
530.26	30827.20
530.43	30668.04
530.60	30892.73
530.77	30721.87
530.94	30874.01
531.11	31058.91
531.28	31126.78
531.46	31204.02
531.63	31489.57
531.80	31524.68
531.97	31702.56
532.14	31440.42
532.31	31372.54
532.48	31307.01
532.65	31494.25
532.82	31290.62
532.99	31725.96
533.16	31721.28
533.33	31967.04
533.50	32362.59
533.67	32016.19
533.84	31611.28
534.01	31522.34
534.18	31889.80
534.35	31850.01
534.52	32072.36
534.69	32589.62
534.86	32147.26
535.03	31800.86
535.20	32135.56
535.37	32226.84
535.54	32116.83
535.71	32247.90
535.88	32013.85
536.05	32360.25
536.22	32538.13
536.38	32830.69
536.55	32290.03
536.72	32631.75
536.89	32266.63
537.06	32739.41
537.23	32776.86
537.40	32318.12
537.57	32381.31
537.74	32591.96
537.91	32802.61
538.08	32945.38
538.25	32903.25
538.42	33205.18
538.59	33167.73
538.75	32847.08
538.92	33046.02
539.09	32950.06
539.26	33289.44
539.43	33216.88
539.60	33256.67
539.77	32851.76
539.94	33778.61
540.11	33420.51
540.28	33354.97
540.44	33411.15
540.61	33692.01
540.78	33759.89
540.95	33696.69
541.12	33542.22
541.29	33790.31
541.46	33912.02
541.62	34033.73
541.79	34007.98
541.96	33745.84
542.13	33745.84
542.30	33706.05
542.47	34319.28
542.63	34012.66
542.80	34387.15
542.97	34682.06
543.14	34485.45
543.31	34646.95
543.48	34202.25
543.64	34471.41
543.81	34630.57
543.98	34902.07
544.15	34913.77
544.32	35131.44
544.48	35082.29
544.65	34953.56
544.82	34913.77
544.99	34817.81
545.16	34543.97
545.32	34892.71
545.49	35442.73
545.66	35704.87
545.83	35662.74
546.00	36030.21
546.16	35466.14
546.33	34948.88
546.50	34962.92
546.67	34857.60
546.83	34808.45
547.00	35021.44
547.17	35218.04
547.34	35431.03
547.50	35318.68
547.67	35424.01
547.84	35360.81
548.00	34939.52
548.17	35629.98
548.34	35335.07
548.51	35122.08
548.67	35421.67
548.84	35435.71
549.01	35409.96
549.18	35634.66
549.34	35208.68
549.51	35629.98
549.68	35461.46
549.84	35304.64
550.01	35569.12
550.18	35108.04
550.34	35526.99
550.51	35445.07
550.68	35971.69
550.84	35175.91
551.01	35674.45
551.18	35236.77
551.34	35346.77
551.51	35505.93
551.68	35475.50
551.84	35796.15
552.01	35538.69
552.18	35756.36
552.34	36039.57
552.51	35559.76
552.68	35606.57
552.84	35711.89
553.01	36144.89
553.18	35899.14
553.34	35791.47
553.51	35976.37
553.67	35793.81
553.84	36336.82
554.01	36165.96
554.17	35957.65
554.34	35826.58
554.51	35714.23
554.67	36500.65
554.84	36446.82
555.00	35777.43
555.17	36039.57
555.33	35943.61
555.50	35959.99
555.67	36233.83
555.83	36252.56
556.00	36198.73
556.16	36421.08
556.33	36261.92
556.50	36081.70
556.66	36524.06
556.83	35812.54
556.99	36554.49
557.16	36397.67
557.32	36278.30
557.49	36484.27
557.65	36348.52
557.82	36070.00
557.98	36336.82
558.15	36217.45
558.32	36282.98
558.48	36570.87
558.65	36774.50
558.81	36369.58
558.98	36807.26
559.14	36636.41
559.31	36432.78
559.47	36561.51
559.64	36603.64
559.80	36641.09
559.97	36601.30
560.13	36470.23
560.30	36704.28
560.46	36875.14
560.63	36870.46
560.79	36608.32
560.96	36861.10
561.12	36680.88
561.29	36833.01
561.45	37139.62
561.61	36804.92
561.78	36924.29
561.94	36598.96
562.11	36828.33
562.27	36755.77
562.44	36650.45
562.60	36484.27
562.77	36531.08
562.93	36833.01
563.10	37081.11
563.26	37050.68
563.42	37244.94
563.59	37383.04
563.75	36980.46
563.92	36790.88
564.08	37226.22
564.24	36833.01
564.41	36641.09
564.57	36769.82
564.74	37296.44
564.90	36844.71
565.07	37024.93
565.23	36996.85
565.39	36725.35
565.56	36865.78
565.72	36905.57
565.88	37137.28
566.05	36795.56
566.21	37017.91
566.38	37177.07
566.54	37146.64
566.70	37186.43
566.87	37195.79
567.03	36713.64
567.19	37500.06
567.36	37516.45
567.52	37521.13
567.68	37244.94
567.85	37020.25
568.01	37071.75
568.17	36926.63
568.34	37046.00
568.50	36947.70
568.66	36842.37
568.83	36961.74
568.99	36828.33
569.15	37188.77
569.32	36907.91
569.48	36774.50
569.64	37280.05
569.81	37221.54
569.97	37043.66
570.13	37006.21
570.30	37097.49
570.46	37425.17
570.62	37139.62
570.78	37083.45
570.95	36713.64
571.11	37261.33
571.27	36928.97
571.43	36914.93
571.60	37673.26
571.76	37184.09
571.92	37589.00
572.09	37434.53
572.25	37392.40
572.41	37961.15
572.57	36879.82
572.74	37090.47
572.90	37296.44
573.06	37546.87
573.22	37078.77
573.38	37202.82
573.55	37010.89
573.71	37684.97
573.87	37511.77
574.03	37041.32
574.20	37354.95
574.36	37191.11
574.52	37436.87
574.68	37172.39
574.84	37453.25
575.01	37308.14
575.17	37254.31
575.33	37104.51
575.49	37439.21
575.65	37680.28
575.82	37638.15
575.98	37528.15
576.14	37427.51
576.30	37151.32
576.46	37200.47
576.62	37631.13
576.79	37315.16
576.95	37666.24
577.11	37118.56
577.27	37518.79
577.43	37647.52
577.59	37413.46
577.75	37631.13
577.92	37153.66
578.08	37001.53
578.24	36935.99
578.40	37195.79
578.56	37736.46
578.72	37507.08
578.88	38040.73
579.04	37453.25
579.21	37418.14
579.37	37497.72
579.53	37186.43
579.69	37619.43
579.85	37165.37
580.01	37303.46
580.17	37291.76
580.33	37450.91
580.49	37390.06
580.65	37415.80
580.82	37851.14
580.98	37376.01
581.14	37429.85
581.30	37251.97
581.46	36594.28
581.62	37156.00
581.78	37134.94
581.94	37624.11
582.10	37125.58
582.26	37516.45
582.42	37769.22
582.58	38171.80
582.74	37228.56
582.90	37397.08
583.06	37937.74
583.22	37401.76
583.38	37581.98
583.54	37099.83
583.70	37008.55
583.86	37507.08
584.02	37347.93
584.18	37497.72
584.34	37294.10
584.50	37551.56
584.66	37614.75
584.82	37787.95
584.98	37530.49
585.14	37354.95
585.30	37053.02
585.46	37483.68
585.62	37156.00
585.78	37441.55
585.94	37017.91
586.10	37509.43
586.26	37282.39
586.42	37727.10
586.58	37598.37
586.74	37570.28
586.90	37511.77
587.06	37315.16
587.22	37296.44
587.38	37549.21
587.54	37783.27
587.70	37846.46
587.86	37553.90
588.02	37806.67
588.18	37387.72
588.34	37553.90
588.49	37284.73
588.65	37053.02
588.81	37598.37
588.97	37797.31
589.13	37708.37
589.29	37289.42
589.45	37748.16
589.61	37769.22
589.77	38202.22
589.93	37427.51
590.08	37687.31
590.24	37717.73
590.40	37640.50
590.56	37614.75
590.72	38045.41
590.88	37205.16
591.04	37614.75
591.20	37738.80
591.35	38087.54
