SpectraSuite Data File
++++++++++++++++++++++++++++++++++++
Date: Fri Oct 04 11:39:25 GMT-05:00 2013
User: price-jones
Dark Spectrum Present: No
Reference Spectrum Present: No
Number of Sampled Component Spectra: 1
Spectrometers: USB2+H05261
Integration Time (usec): 100000 (USB2+H05261)
Spectra Averaged: 1 (USB2+H05261)
Boxcar Smoothing: 0 (USB2+H05261)
Correct for Electrical Dark: No (USB2+H05261)
Strobe/Lamp Enabled: No (USB2+H05261)
Correct for Detector Non-linearity: No (USB2+H05261)
Correct for Stray Light: No (USB2+H05261)
Number of Pixels in Processed Spectrum: 2048
>>>>>Begin Processed Spectral Data<<<<<
365.73	0.00
365.92	0.00
366.12	0.00
366.32	0.00
366.52	0.00
366.72	0.00
366.91	0.00
367.11	0.00
367.31	0.00
367.51	0.00
367.70	7.02
367.90	0.00
368.10	0.00
368.30	0.00
368.49	0.00
368.69	0.00
368.89	0.00
369.09	0.00
369.28	0.00
369.48	0.00
369.68	0.00
369.87	4.68
370.07	0.00
370.27	51.49
370.47	117.03
370.66	231.71
370.86	194.26
371.06	276.18
371.25	243.42
371.45	159.16
371.65	287.89
371.84	231.71
372.04	224.69
372.24	337.04
372.44	339.38
372.63	414.27
372.83	301.93
373.03	374.49
373.22	313.63
373.42	330.02
373.62	407.25
373.81	367.46
374.01	379.17
374.21	444.70
374.40	390.87
374.60	440.02
374.79	339.38
374.99	358.10
375.19	416.62
375.38	393.21
375.58	379.17
375.78	355.76
375.97	360.44
376.17	374.49
376.37	386.19
376.56	369.80
376.76	404.91
376.95	402.57
377.15	402.57
377.35	386.19
377.54	358.10
377.74	351.08
377.93	402.57
378.13	440.02
378.33	454.06
378.52	404.91
378.72	348.74
378.91	402.57
379.11	334.70
379.31	388.53
379.50	374.49
379.70	404.91
379.89	397.89
380.09	430.66
380.28	374.49
380.48	425.98
380.68	411.93
380.87	409.59
381.07	381.51
381.26	489.17
381.46	463.43
381.65	465.77
381.85	447.04
382.04	503.22
382.24	465.77
382.43	496.19
382.63	543.00
382.83	519.60
383.02	484.49
383.22	411.93
383.41	456.40
383.61	388.53
383.80	477.47
384.00	484.49
384.19	472.79
384.39	418.96
384.58	496.19
384.78	566.41
384.97	564.07
385.17	458.74
385.36	514.92
385.56	437.68
385.75	472.79
385.95	528.96
386.14	526.62
386.34	451.72
386.53	559.39
386.72	533.64
386.92	582.79
387.11	615.56
387.31	617.90
387.50	465.77
387.70	521.94
387.89	491.51
388.09	587.47
388.28	552.37
388.48	517.26
388.67	589.82
388.86	575.77
389.06	660.03
389.25	528.96
389.45	585.13
389.64	575.77
389.84	660.03
390.03	655.35
390.22	592.16
390.42	706.84
390.61	596.84
390.81	620.24
391.00	730.25
391.19	669.39
391.39	702.16
391.58	650.67
391.78	648.33
391.97	662.37
392.16	643.65
392.36	624.92
392.55	648.33
392.75	741.95
392.94	704.50
393.13	685.78
393.33	709.18
393.52	730.25
393.71	739.61
393.91	697.48
394.10	685.78
394.29	699.82
394.49	739.61
394.68	629.60
394.88	753.65
395.07	828.55
395.26	763.01
395.46	823.87
395.65	767.70
395.84	896.43
396.04	858.98
396.23	812.17
396.42	814.51
396.62	835.57
396.81	877.70
397.00	746.63
397.19	875.36
397.39	788.76
397.58	896.43
397.77	992.39
397.97	910.47
398.16	912.81
398.35	978.34
398.55	894.08
398.74	997.07
398.93	950.26
399.12	889.40
399.32	912.81
399.51	887.06
399.70	1013.45
399.90	997.07
400.09	1067.28
400.28	933.87
400.47	952.60
400.67	926.85
400.86	1011.11
401.05	1025.15
401.24	973.66
401.44	1074.31
401.63	1097.71
401.82	1088.35
402.01	1032.18
402.21	1137.50
402.40	1104.73
402.59	1160.91
402.78	1142.18
402.97	1102.39
403.17	1198.35
403.36	1203.04
403.55	1081.33
403.74	1144.52
403.93	1242.82
404.13	1240.48
404.32	1149.20
404.51	1118.78
404.70	1357.51
404.89	1256.87
405.09	1313.04
405.28	1282.61
405.47	1280.27
405.66	1444.11
405.85	1392.62
406.05	1343.47
406.24	1409.00
406.43	1308.36
406.62	1423.05
406.81	1455.81
407.00	1448.79
407.20	1362.19
407.39	1488.58
407.58	1369.21
407.77	1521.35
407.96	1600.93
408.15	1575.18
408.34	1507.30
408.54	1568.16
408.73	1631.35
408.92	1490.92
409.11	1593.90
409.30	1540.07
409.49	1678.16
409.68	1689.87
409.87	1666.46
410.07	1771.79
410.26	1610.29
410.45	1671.14
410.64	1757.74
410.83	1802.21
411.02	1788.17
411.21	1865.41
411.40	1769.44
411.59	1776.47
411.78	1811.57
411.98	1916.90
412.17	1844.34
412.36	1851.36
412.55	1884.13
412.74	2012.86
412.93	1987.11
413.12	2001.16
413.31	2120.53
413.50	2078.40
413.69	2033.93
413.88	2108.82
414.07	2202.44
414.26	2160.31
414.45	2179.04
414.64	2150.95
414.83	2284.36
415.02	2289.04
415.22	2349.90
415.41	2352.24
415.60	2455.22
415.79	2263.30
415.98	2513.74
416.17	2363.94
416.36	2293.72
416.55	2394.37
416.74	2455.22
416.93	2469.27
417.12	2471.61
417.31	2541.82
417.50	2480.97
417.69	2703.32
417.88	2649.49
418.07	2567.57
418.26	2616.72
418.45	2827.37
418.64	2656.51
418.83	2789.92
419.02	2759.49
419.21	2853.11
419.39	2700.98
419.58	2729.06
419.77	2829.71
419.96	2881.20
420.15	2960.78
420.34	2764.17
420.53	2867.16
420.72	2963.12
420.91	2953.76
421.10	2977.16
421.29	3070.78
421.48	2932.69
421.67	2970.14
421.86	3049.72
422.05	3005.25
422.24	3007.59
422.43	2998.23
422.61	3026.31
422.80	3038.02
422.99	3082.49
423.18	3030.99
423.37	3246.32
423.56	3122.27
423.75	3052.06
423.94	3068.44
424.13	2932.69
424.32	2972.48
424.50	3028.65
424.69	3251.00
424.88	3276.75
425.07	3258.03
425.26	3052.06
425.45	3070.78
425.64	3138.66
425.83	3272.07
426.01	3330.58
426.20	3272.07
426.39	3239.30
426.58	3150.36
426.77	3204.19
426.96	3316.54
427.15	3197.17
427.33	3330.58
427.52	3302.50
427.71	3314.20
427.90	3405.48
428.09	3325.90
428.28	3353.99
428.46	3400.80
428.65	3433.57
428.84	3442.93
429.03	3597.40
429.22	3468.67
429.40	3515.48
429.59	3574.00
429.78	3398.46
429.97	3449.95
430.16	3552.93
430.34	3581.02
430.53	3641.87
430.72	3712.09
430.91	3632.51
431.10	3522.51
431.28	3676.98
431.47	3646.55
431.66	3700.39
431.85	3578.68
432.03	3726.13
432.22	3808.05
432.41	3782.31
432.60	3885.29
432.79	3794.01
432.97	3873.59
433.16	3899.33
433.35	3852.52
433.54	4011.68
433.72	3880.61
433.91	3875.93
434.10	4004.66
434.28	3882.95
434.47	4007.00
434.66	4098.28
434.85	4060.83
435.03	4084.23
435.22	4273.82
435.41	4620.22
435.59	4465.74
435.78	4266.80
435.97	4212.96
436.16	4243.39
436.34	4264.46
436.53	4128.70
436.72	4257.43
436.90	4098.28
437.09	4217.65
437.28	4292.54
437.46	4222.33
437.65	4301.90
437.84	4388.50
438.02	4397.87
438.21	4287.86
438.40	4374.46
438.58	4512.55
438.77	4425.95
438.96	4578.09
439.14	4624.90
439.33	4643.62
439.52	4814.48
439.70	4748.95
439.89	4636.60
440.08	4669.37
440.26	4755.97
440.45	4674.05
440.63	4840.23
440.82	4837.89
441.01	4919.81
441.19	4861.29
441.38	4887.04
441.57	4983.00
441.75	4896.40
441.94	5221.74
442.12	5207.69
442.31	5046.20
442.50	5093.01
442.68	5219.39
442.87	5057.90
443.05	5191.31
443.24	5310.68
443.43	5298.97
443.61	5212.37
443.80	5479.19
443.98	5188.97
444.17	4990.02
444.35	5329.40
444.54	5467.49
444.73	5451.11
444.91	5357.49
445.10	5263.86
445.28	5369.19
445.47	5380.89
445.65	5359.83
445.84	5455.79
446.02	5392.59
446.21	5441.75
446.39	5448.77
446.58	5420.68
446.77	5533.03
446.95	5390.25
447.14	5453.45
447.32	5507.28
447.51	5497.92
447.69	5521.32
447.88	5614.95
448.06	5551.75
448.25	5462.81
448.43	5720.27
448.62	5502.60
448.80	5570.48
448.99	5591.54
449.17	5607.92
449.36	5680.48
449.54	5762.40
449.73	5668.78
449.91	5776.44
450.10	5731.97
450.28	5741.33
450.46	5884.11
450.65	5839.64
450.83	5769.42
451.02	5996.45
451.20	5963.68
451.39	5703.89
451.57	5746.02
451.76	5944.96
451.94	5933.26
452.13	6047.94
452.31	6008.16
452.49	6113.48
452.68	5935.60
452.86	5963.68
453.05	6033.90
453.23	6200.08
453.42	6038.58
453.60	6026.88
453.78	6101.78
453.97	5961.34
454.15	6122.84
454.34	6242.21
454.52	6181.35
454.70	6160.29
454.89	6282.00
455.07	6354.55
455.26	6331.15
455.44	6422.43
455.62	6457.54
455.81	6307.74
455.99	6513.71
456.17	6401.37
456.36	6408.39
456.54	6803.94
456.73	6628.40
456.91	6752.45
457.09	6675.21
457.28	6796.92
457.46	6815.64
457.64	6829.68
457.83	6693.93
458.01	6560.52
458.19	6773.51
458.38	6717.34
458.56	6916.28
458.74	6817.98
458.93	6829.68
459.11	6848.41
459.29	6970.12
459.48	6998.20
459.66	6967.77
459.84	7140.97
460.03	7213.53
460.21	7016.93
460.39	7103.53
460.57	7019.27
460.76	7066.08
460.94	7265.02
461.12	7328.22
461.31	7293.11
461.49	7115.23
461.67	7222.89
461.85	7248.64
462.04	7318.86
462.22	7499.08
462.40	7335.24
462.59	7386.73
462.77	7421.84
462.95	7412.48
463.13	7555.25
463.32	7393.75
463.50	7400.77
463.68	7613.76
463.86	7538.87
464.05	7447.58
464.23	7644.19
464.41	7510.78
464.59	7473.33
464.78	7808.03
464.96	7588.02
465.14	7627.81
465.32	7786.96
465.50	7712.07
465.69	7819.73
465.87	7789.30
466.05	7744.83
466.23	7721.43
466.41	7971.86
466.60	8077.19
466.78	7761.22
466.96	7728.45
467.14	7735.47
467.32	7981.23
467.51	7852.50
467.69	7779.94
467.87	8042.08
468.05	7995.27
468.23	7957.82
468.41	8028.04
468.60	8004.63
468.78	8119.32
468.96	8135.70
469.14	8241.03
469.32	8072.51
469.50	8154.43
469.69	8365.07
469.87	8486.78
470.05	8248.05
470.23	8283.16
470.41	8128.68
470.59	8514.87
470.77	8463.38
470.95	8418.91
471.14	8741.90
471.32	8369.76
471.50	8779.35
471.68	8676.37
471.86	8535.93
472.04	8709.13
472.22	9043.83
472.40	8762.97
472.58	8807.44
472.77	8613.17
472.95	9139.79
473.13	9202.99
473.31	9001.70
473.49	9097.66
473.67	8865.95
473.85	9032.13
474.03	9179.58
474.21	9249.80
474.39	9252.14
474.57	9357.46
474.75	9460.45
474.93	9497.89
475.12	9451.08
475.30	9502.58
475.48	9687.48
475.66	9535.34
475.84	9605.56
476.02	9769.40
476.20	9902.81
476.38	9764.72
476.56	10008.13
476.74	10045.58
476.92	10113.45
477.10	10312.40
477.28	10235.16
477.46	10129.84
477.64	10296.02
477.82	10637.73
478.00	10705.61
478.18	11019.24
478.36	10773.49
478.54	10785.19
478.72	10897.53
478.90	10949.03
479.08	11070.73
479.26	11260.32
479.44	11564.59
479.62	11377.34
479.80	11281.38
479.98	11358.62
480.16	11569.27
480.34	11524.80
480.52	11716.72
480.70	11889.92
480.88	11698.00
481.06	11843.11
481.24	11950.78
481.41	11997.59
481.59	12243.34
481.77	12128.66
481.95	12301.86
482.13	12407.18
482.31	12414.20
482.49	13074.23
482.67	12645.91
482.85	12821.45
483.03	13266.16
483.21	13083.59
483.39	13198.28
483.57	13322.33
483.74	13397.23
483.92	13397.23
484.10	13542.34
484.28	13774.05
484.46	14043.21
484.64	14143.86
484.82	14075.98
485.00	14129.81
485.18	14494.94
485.35	14747.72
485.53	14665.80
485.71	14607.28
485.89	14736.01
486.07	14782.82
486.25	14970.07
486.43	15009.86
486.61	14923.26
486.78	15454.56
486.96	15508.39
487.14	15290.72
487.32	15646.48
487.50	15775.21
487.68	15587.97
487.85	15887.56
488.03	16173.10
488.21	16475.03
488.39	16430.56
488.57	16531.20
488.75	16255.02
488.92	16847.18
489.10	17128.04
489.28	16711.42
489.46	17181.87
489.64	17039.10
489.81	17624.23
489.99	17420.61
490.17	17247.41
490.35	18026.81
490.53	17865.31
490.70	18003.40
490.88	18019.78
491.06	18267.88
491.24	18443.42
491.41	18324.05
491.59	18602.58
491.77	18326.39
491.95	18824.93
492.13	18850.67
492.30	19026.21
492.48	19260.27
492.66	18967.70
492.84	18988.77
493.01	19417.08
493.19	19552.84
493.37	19709.65
493.54	19756.46
493.72	20013.92
493.90	19924.98
494.08	20163.72
494.25	20308.83
494.43	20278.40
494.61	20301.81
494.79	20577.99
494.96	20290.10
495.14	20835.45
495.32	21064.82
495.49	21139.72
495.67	21373.77
495.85	21408.88
496.02	21369.09
496.20	20929.07
496.38	21495.48
496.55	21605.49
496.73	22097.00
496.91	21872.31
497.09	22029.12
497.26	22204.66
497.44	22099.34
497.62	22480.85
497.79	22438.72
497.97	22188.28
498.14	22647.02
498.32	22993.42
498.50	22941.93
498.67	23016.83
498.85	22970.02
499.03	22775.75
499.20	23190.03
499.38	23372.59
499.56	23309.40
499.73	23803.25
499.91	23800.91
500.08	23711.97
500.26	23552.81
500.44	23939.00
500.61	23721.33
500.79	23770.48
500.97	24063.05
501.14	24521.79
501.32	24437.53
501.49	24418.81
501.67	24400.08
501.84	24353.27
502.02	24409.45
502.20	24528.81
502.37	24783.93
502.55	24599.03
502.72	25144.38
502.90	24821.38
503.07	24950.11
503.25	25041.39
503.43	25160.76
503.60	25333.96
503.78	25511.84
503.95	25411.20
504.13	25310.55
504.30	25773.98
504.48	25832.49
504.65	25809.09
504.83	26228.04
505.01	26532.31
505.18	26031.44
505.36	26391.88
505.53	26160.17
505.71	26309.96
505.88	26394.22
506.06	26178.89
506.23	26686.79
506.41	26593.17
506.58	27239.15
506.76	26572.10
506.93	26962.97
507.11	26698.49
507.28	27335.12
507.46	26871.69
507.63	27171.28
507.81	27290.65
507.98	27269.58
508.16	27683.86
508.33	27494.27
508.50	27508.32
508.68	27843.01
508.85	28063.02
509.03	27819.61
509.20	28119.20
509.38	28212.82
509.55	28151.96
509.73	28276.01
509.90	28243.24
510.08	28519.43
510.25	28587.30
510.42	28453.89
510.60	28671.56
510.77	28730.08
510.95	29057.75
511.12	28849.44
511.30	28697.31
511.47	28877.53
511.64	29263.72
511.82	29294.14
511.99	29219.25
512.17	29607.78
512.34	29724.80
512.51	29507.13
512.69	29633.52
512.86	29874.60
513.04	29841.83
513.21	29886.30
513.38	30333.34
513.56	30026.73
513.73	29820.77
513.90	30195.25
514.08	29937.79
514.25	30621.23
514.43	30642.29
514.60	30646.97
514.77	30651.66
514.95	30333.34
515.12	30419.94
515.29	30682.08
515.47	30820.17
515.64	30824.86
515.81	30541.65
515.99	30902.09
516.16	31498.93
516.33	30960.61
516.51	31339.77
516.68	31129.12
516.85	31417.01
517.03	31246.15
517.20	31957.67
517.37	31594.89
517.54	31793.84
517.72	31367.86
517.89	31644.04
518.06	31878.10
518.24	31463.82
518.41	31391.26
518.58	31805.54
518.75	31988.10
518.93	32603.66
519.10	32346.20
519.27	32533.45
519.45	32151.94
519.62	32367.27
519.79	32449.19
519.96	32591.96
520.14	32580.26
520.31	32201.09
520.48	32868.14
520.65	33090.49
520.83	32900.91
521.00	32999.21
521.17	33097.52
521.34	33132.62
521.52	33340.93
521.69	33404.13
521.86	33413.49
522.03	33109.22
522.20	33780.95
522.38	33497.75
522.55	33635.84
522.72	33312.84
522.89	33762.23
523.07	34012.66
523.24	33872.23
523.41	34139.05
523.58	33977.56
523.75	33940.11
523.92	34279.49
524.10	34401.19
524.27	34204.59
524.44	34756.96
524.61	34745.25
524.78	34698.44
524.96	34866.96
525.13	34904.41
525.30	34831.85
525.47	34672.70
525.64	34597.80
525.81	35075.27
525.98	35101.01
526.16	35218.04
526.33	34740.57
526.50	35543.38
526.67	35145.48
526.84	35592.53
527.01	35023.78
527.18	35393.58
527.36	35639.34
527.53	35559.76
527.70	35995.10
527.87	35969.35
528.04	35461.46
528.21	35335.07
528.38	35913.18
528.55	36070.00
528.72	36147.23
528.89	35922.54
529.07	36180.00
529.24	35707.21
529.41	36212.77
529.58	35742.32
529.75	36252.56
529.92	36367.24
530.09	36517.04
530.26	36353.20
530.43	36226.81
530.60	36498.31
530.77	36538.10
530.94	36720.66
531.11	36559.17
531.28	36329.80
531.46	36664.49
531.63	36648.11
531.80	36933.65
531.97	36968.76
532.14	37214.52
532.31	36882.16
532.48	37029.62
532.65	37024.93
532.82	36957.06
532.99	37254.31
533.16	37298.78
533.33	37455.59
533.50	37586.66
533.67	37703.69
533.84	37420.48
534.01	37338.57
534.18	37532.83
534.35	37542.19
534.52	37364.31
534.69	37975.19
534.86	37811.35
535.03	37780.93
535.20	37776.25
535.37	37961.15
535.54	38029.02
535.71	37567.94
535.88	38253.72
536.05	38162.43
536.22	38670.33
536.38	38263.08
536.55	38473.73
536.72	38277.12
536.89	37954.13
537.06	38480.75
537.23	38639.90
537.40	38057.11
537.57	38171.80
537.74	38239.67
537.91	38436.28
538.08	38572.03
538.25	38815.44
538.42	38398.83
538.59	39171.21
538.75	38328.61
538.92	38698.42
539.09	38895.02
539.26	39344.41
539.43	39077.58
539.60	39636.97
539.77	38740.55
539.94	39274.19
540.11	39416.96
540.28	39583.14
540.44	39407.60
540.61	39239.08
540.78	39292.91
540.95	39735.27
541.12	39470.79
541.29	39732.93
541.46	40062.95
541.62	39735.27
541.79	40128.48
541.96	39707.19
542.13	40074.65
542.30	40112.10
542.47	40315.73
542.63	40196.36
542.80	40687.87
542.97	40566.16
543.14	40467.86
543.31	40362.54
543.48	40882.14
543.64	40711.28
543.81	41027.25
543.98	40842.35
544.15	40898.52
544.32	40779.15
544.48	41193.43
544.65	40727.66
544.82	40699.58
544.99	40219.77
545.16	40980.44
545.32	40959.38
545.49	41904.95
545.66	42155.39
545.83	42272.42
546.00	42148.37
546.16	41490.68
546.33	41177.04
546.50	41247.26
546.67	41132.57
546.83	40800.22
547.00	41265.99
547.17	41331.52
547.34	41474.29
547.50	41858.14
547.67	41766.86
547.84	41045.97
548.00	41738.77
548.17	41797.29
548.34	41738.77
548.51	41455.57
548.67	41617.07
548.84	41727.07
549.01	41638.13
549.18	42143.69
549.34	41045.97
549.51	41537.49
549.68	41876.86
549.84	41680.26
550.01	42045.38
550.18	41708.35
550.34	41979.85
550.51	42195.18
550.68	42321.57
550.84	41926.02
551.01	42106.24
551.18	41808.99
551.34	41441.53
551.51	41839.42
551.68	42211.56
551.84	42183.48
552.01	42293.48
552.18	42000.91
552.34	41855.80
552.51	42190.50
552.68	42679.67
552.84	42293.48
553.01	42452.64
553.18	42253.69
553.34	42632.86
553.51	42302.84
553.67	42808.40
553.84	42742.86
554.01	42941.81
554.17	42698.39
554.34	42756.91
554.51	42408.17
554.67	42712.44
554.84	42665.63
555.00	42586.05
555.17	42637.54
555.33	42813.08
555.50	43203.95
555.67	42983.94
555.83	42836.48
556.00	42583.71
556.16	43065.86
556.33	42422.21
556.50	42511.15
556.66	42997.98
556.83	42621.16
556.99	43337.36
557.16	43220.33
557.32	43035.43
557.49	43536.30
557.65	42799.04
557.82	43056.50
557.98	42843.51
558.15	43042.45
558.32	43138.41
558.48	43330.34
558.65	43138.41
558.81	43662.69
558.98	43274.16
559.14	43061.18
559.31	42932.45
559.47	43267.14
559.64	43033.09
559.80	43257.78
559.97	43569.07
560.13	43367.79
560.30	43201.61
560.46	43391.19
560.63	43426.30
560.79	43585.46
560.96	43761.00
561.12	43115.01
561.29	43423.96
561.45	43550.35
561.61	43744.61
561.78	43320.98
561.94	44191.65
562.11	43339.70
562.27	43538.65
562.44	43384.17
562.60	43234.38
562.77	43517.58
562.93	43650.99
563.10	43988.03
563.26	43611.20
563.42	43934.20
563.59	43639.29
563.75	43765.68
563.92	43931.86
564.08	43901.43
564.24	43901.43
564.41	43746.95
564.57	43679.08
564.74	43901.43
564.90	44151.87
565.07	43995.05
565.23	43873.34
565.39	44030.16
565.56	44002.07
565.72	43592.48
565.88	43971.64
566.05	43658.01
566.21	43894.41
566.38	43838.23
566.54	44067.61
566.70	44154.21
566.87	44289.96
567.03	44612.95
567.19	44236.12
567.36	44144.84
567.52	43585.46
567.68	44182.29
567.85	43676.74
568.01	43849.94
568.17	44559.12
568.34	44273.57
568.50	44149.53
568.66	43906.11
568.83	45083.40
568.99	44437.41
569.15	43681.42
569.32	44116.76
569.48	44100.37
569.64	44385.92
569.81	44147.18
569.97	44051.22
570.13	44435.07
570.30	44060.58
570.46	44325.07
570.62	44657.42
570.78	44165.91
570.95	44179.95
571.11	44257.19
571.27	43662.69
571.43	44186.97
571.60	44018.46
571.76	44306.34
571.92	44547.42
572.09	44732.32
572.25	44552.10
572.41	44245.49
572.57	44156.55
572.74	44535.71
572.90	44273.57
573.06	44610.61
573.22	44147.18
573.38	44542.74
573.55	44142.50
573.71	44832.96
573.87	44575.50
574.03	44463.16
574.20	44339.11
574.36	44186.97
574.52	44332.09
574.68	44463.16
574.84	44231.44
575.01	44495.92
575.17	44856.37
575.33	44320.38
575.49	44456.14
575.65	44823.60
575.82	44533.37
575.98	44641.04
576.14	44271.23
576.30	44664.44
576.46	44411.67
576.62	44626.99
576.79	44149.53
576.95	44322.72
577.11	44631.68
577.27	44737.00
577.43	44912.54
577.59	44453.79
577.75	44140.16
577.92	44191.65
578.08	44215.06
578.24	44306.34
578.40	44725.30
578.56	44643.38
578.72	45064.67
578.88	45050.63
579.04	44942.97
579.21	44973.39
579.37	44612.95
579.53	44861.05
579.69	44540.39
579.85	44830.62
580.01	44837.64
580.17	44797.85
580.33	44505.29
580.49	44959.35
580.65	44460.82
580.82	45251.92
580.98	44912.54
581.14	44423.37
581.30	44865.73
581.46	44671.46
581.62	44559.12
581.78	44261.87
581.94	44802.53
582.10	44491.24
582.26	45158.30
582.42	44589.55
582.58	44994.46
582.74	44243.15
582.90	44760.40
583.06	45127.87
583.22	44823.60
583.38	44856.37
583.54	44657.42
583.70	44804.88
583.86	44624.65
584.02	44619.97
584.18	45099.78
584.34	44861.05
584.50	44809.56
584.66	44816.58
584.82	44577.84
584.98	44898.50
585.14	44783.81
585.30	44566.14
585.46	44573.16
585.62	44732.32
585.78	44573.16
585.94	44659.76
586.10	45001.48
586.26	44762.75
586.42	45214.47
586.58	44863.39
586.74	44781.47
586.90	44467.84
587.06	44561.46
587.22	45055.31
587.38	44491.24
587.54	44772.11
587.70	45209.79
587.86	45184.04
588.02	44842.32
588.18	44900.84
588.34	44966.37
588.49	44776.79
588.65	44802.53
588.81	45031.91
588.97	45125.53
589.13	44673.81
589.29	44704.23
589.45	44992.12
589.61	44978.07
589.77	45624.06
589.93	45048.29
590.08	44842.32
590.24	45113.83
590.40	45146.59
590.56	45422.78
590.72	45345.54
590.88	44816.58
591.04	45010.84
