SpectraSuite Data File
++++++++++++++++++++++++++++++++++++
Date: Fri Oct 04 11:39:45 GMT-05:00 2013
User: price-jones
Dark Spectrum Present: No
Reference Spectrum Present: No
Number of Sampled Component Spectra: 1
Spectrometers: USB2+H05261
Integration Time (usec): 100000 (USB2+H05261)
Spectra Averaged: 1 (USB2+H05261)
Boxcar Smoothing: 0 (USB2+H05261)
Correct for Electrical Dark: No (USB2+H05261)
Strobe/Lamp Enabled: No (USB2+H05261)
Correct for Detector Non-linearity: No (USB2+H05261)
Correct for Stray Light: No (USB2+H05261)
Number of Pixels in Processed Spectrum: 2048
>>>>>Begin Processed Spectral Data<<<<<
365.73	81.92
365.92	81.92
366.12	81.92
366.32	0.00
366.52	0.00
366.72	0.00
366.91	0.00
367.11	0.00
367.31	0.00
367.51	0.00
367.70	0.00
367.90	0.00
368.10	0.00
368.30	0.00
368.49	0.00
368.69	0.00
368.89	0.00
369.09	0.00
369.28	0.00
369.48	4.68
369.68	0.00
369.87	0.00
370.07	0.00
370.27	77.24
370.47	180.22
370.66	449.38
370.86	524.28
371.06	638.97
371.25	552.37
371.45	638.97
371.65	561.73
371.84	524.28
372.04	566.41
372.24	575.77
372.44	552.37
372.63	641.31
372.83	622.58
373.03	650.67
373.22	695.14
373.42	660.03
373.62	606.20
373.81	589.82
374.01	650.67
374.21	669.39
374.40	655.35
374.60	732.59
374.79	678.76
374.99	603.86
375.19	669.39
375.38	798.12
375.58	788.76
375.78	812.17
375.97	805.14
376.17	786.42
376.37	748.97
376.56	812.17
376.76	807.48
376.95	777.06
377.15	833.23
377.35	816.85
377.54	800.46
377.74	807.48
377.93	767.70
378.13	877.70
378.33	840.25
378.52	835.57
378.72	849.61
378.91	882.38
379.11	835.57
379.31	908.13
379.50	814.51
379.70	950.26
379.89	945.58
380.09	840.25
380.28	910.47
380.48	933.87
380.68	898.77
380.87	830.89
381.07	936.21
381.26	954.94
381.46	973.66
381.65	924.51
381.85	992.39
382.04	903.45
382.24	1018.13
382.43	947.92
382.63	987.71
382.83	947.92
383.02	987.71
383.22	1067.28
383.41	1011.11
383.61	1109.41
383.80	1071.97
384.00	1086.01
384.19	1121.12
384.39	1090.69
384.58	1018.13
384.78	1050.90
384.97	1090.69
385.17	1102.39
385.36	938.55
385.56	1128.14
385.75	1043.88
385.95	1093.03
386.14	1118.78
386.34	1179.63
386.53	1196.01
386.72	1062.60
386.92	1184.31
387.11	1107.07
387.31	1217.08
387.50	1158.57
387.70	1191.33
387.89	1203.04
388.09	1217.08
388.28	1219.42
388.48	1263.89
388.67	1233.46
388.86	1345.81
389.06	1247.51
389.25	1249.85
389.45	1343.47
389.64	1350.49
389.84	1327.08
390.03	1282.61
390.22	1371.55
390.42	1301.34
390.61	1315.38
390.81	1310.70
391.00	1411.34
391.19	1373.89
391.39	1530.71
391.58	1427.73
391.78	1451.13
391.97	1507.30
392.16	1493.26
392.36	1533.05
392.55	1549.43
392.75	1577.52
392.94	1458.15
393.13	1556.46
393.33	1453.47
393.52	1479.22
393.71	1497.94
393.91	1584.54
394.10	1671.14
394.29	1544.75
394.49	1540.07
394.68	1500.28
394.88	1572.84
395.07	1703.91
395.26	1607.95
395.46	1640.72
395.65	1610.29
395.84	1764.76
396.04	1834.98
396.23	1762.42
396.42	1757.74
396.62	1734.34
396.81	1771.79
397.00	1762.42
397.19	1778.81
397.39	1732.00
397.58	1895.83
397.77	1846.68
397.97	1933.28
398.16	1816.26
398.35	1842.00
398.55	1877.11
398.74	1989.46
398.93	2031.58
399.12	1937.96
399.32	1895.83
399.51	1877.11
399.70	2059.67
399.90	1959.03
400.09	2076.06
400.28	2024.56
400.47	2101.80
400.67	2115.84
400.86	2218.83
401.05	2211.81
401.24	2237.55
401.44	2136.91
401.63	2162.66
401.82	2223.51
402.01	2232.87
402.21	2204.78
402.40	2172.02
402.59	2275.00
402.78	2272.66
402.97	2434.16
403.17	2223.51
403.36	2392.03
403.55	2354.58
403.74	2410.75
403.93	2473.95
404.13	2471.61
404.32	2511.39
404.51	2492.67
404.70	2562.89
404.89	2560.55
405.09	2609.70
405.28	2473.95
405.47	2640.12
405.66	2597.99
405.85	2764.17
406.05	2602.68
406.24	2637.78
406.43	2635.44
406.62	2799.28
406.81	2733.75
407.00	2607.36
407.20	2860.13
407.39	2609.70
407.58	2839.07
407.77	2766.51
407.96	2862.48
408.15	2937.37
408.34	2981.84
408.54	2876.52
408.73	2827.37
408.92	3028.65
409.11	2918.65
409.30	3045.04
409.49	3075.46
409.68	3103.55
409.87	3068.44
410.07	3218.24
410.26	3131.64
410.45	3272.07
410.64	3176.11
410.83	3042.70
411.02	3204.19
411.21	3417.18
411.40	3361.01
411.59	3236.96
411.78	3407.82
411.98	3375.05
412.17	3435.91
412.36	3478.04
412.55	3574.00
412.74	3578.68
412.93	3604.42
413.12	3515.48
413.31	3761.24
413.50	3527.19
413.69	3751.88
413.88	4021.04
414.07	3892.31
414.26	3969.55
414.45	3941.46
414.64	3854.86
414.83	3957.85
415.02	4035.08
415.22	4119.34
415.41	4119.34
415.60	4086.58
415.79	4184.88
415.98	4266.80
416.17	4147.43
416.36	4353.40
416.55	4337.01
416.74	4409.57
416.93	4470.42
417.12	4503.19
417.31	4493.83
417.50	4493.83
417.69	4545.32
417.88	4596.81
418.07	4528.94
418.26	4643.62
418.45	4805.12
418.64	5032.15
418.83	4784.06
419.02	4739.58
419.21	4774.69
419.39	4961.94
419.58	4809.80
419.77	4908.10
419.96	4978.32
420.15	5069.60
420.34	5008.75
420.53	5097.69
420.72	5270.89
420.91	5233.44
421.10	5156.20
421.29	5078.96
421.48	5144.50
421.67	5186.63
421.86	5373.87
422.05	5252.16
422.24	5343.44
422.43	5270.89
422.61	5411.32
422.80	5327.06
422.99	5308.34
423.18	5486.22
423.37	5572.82
423.56	5427.70
423.75	5308.34
423.94	5308.34
424.13	5025.13
424.32	5233.44
424.50	5446.43
424.69	5392.59
424.88	5568.13
425.07	5378.55
425.26	5448.77
425.45	5502.60
425.64	5430.04
425.83	5474.51
426.01	5577.50
426.20	5724.95
426.39	5610.26
426.58	5469.83
426.77	5490.90
426.96	5633.67
427.15	5687.50
427.33	5614.95
427.52	5687.50
427.71	5682.82
427.90	5813.89
428.09	5865.38
428.28	5907.51
428.46	5886.45
428.65	5834.96
428.84	6171.99
429.03	6099.44
429.22	5930.92
429.40	5996.45
429.59	6099.44
429.78	5916.87
429.97	5788.14
430.16	6099.44
430.34	6244.55
430.53	6331.15
430.72	6291.36
430.91	6253.91
431.10	6113.48
431.28	6382.64
431.47	6434.13
431.66	6633.08
431.85	6274.98
432.03	6506.69
432.22	6621.38
432.41	6579.25
432.60	6670.53
432.79	6616.69
432.97	6759.47
433.16	6548.82
433.35	6579.25
433.54	6633.08
433.72	6745.42
433.91	6757.13
434.10	6789.89
434.28	6731.38
434.47	6764.15
434.66	6808.62
434.85	7190.13
435.03	7047.35
435.22	7169.06
435.41	7375.03
435.59	7424.18
435.78	7407.80
435.97	7194.81
436.16	7314.17
436.34	7232.26
436.53	7164.38
436.72	7199.49
436.90	7129.27
437.09	7171.40
437.28	7122.25
437.46	7323.54
437.65	7276.73
437.84	7459.29
438.02	7372.69
438.21	7545.89
438.40	7667.60
438.58	7836.11
438.77	7789.30
438.96	7737.81
439.14	7815.05
439.33	7957.82
439.52	8131.02
439.70	7941.44
439.89	8107.62
440.08	8063.15
440.26	8149.75
440.45	8229.32
440.63	8252.73
440.82	8479.76
441.01	8498.49
441.19	8409.54
441.38	8542.96
441.57	8533.59
441.75	8814.46
441.94	8802.75
442.12	8950.21
442.31	9078.94
442.50	9050.85
442.68	8917.44
442.87	9102.34
443.05	8861.27
443.24	9149.15
443.43	9001.70
443.61	9057.87
443.80	9488.53
443.98	8833.18
444.17	8786.37
444.35	9067.24
444.54	9348.10
444.73	9259.16
444.91	9261.50
445.10	9385.55
445.28	9095.32
445.47	9156.18
445.65	9448.74
445.84	9357.46
446.02	9420.66
446.21	9362.14
446.39	9224.05
446.58	9420.66
446.77	9446.40
446.95	9373.85
447.14	9455.76
447.32	9362.14
447.51	9383.21
447.69	9434.70
447.88	9617.26
448.06	9504.92
448.25	9465.13
448.43	9600.88
448.62	9521.30
448.80	9621.94
448.99	9657.05
449.17	9834.93
449.36	9675.77
449.54	10026.86
449.73	10094.73
449.91	9893.44
450.10	9973.02
450.28	10160.27
450.46	10108.77
450.65	10274.95
450.83	10012.81
451.02	9902.81
451.20	10270.27
451.39	10326.44
451.57	10148.56
451.76	10164.95
451.94	10162.61
452.13	10501.98
452.31	10436.45
452.49	10059.62
452.68	10457.51
452.86	10518.37
453.05	10710.29
453.23	10501.98
453.42	10513.69
453.60	10544.11
453.78	10567.52
453.97	10483.26
454.15	10560.50
454.34	10626.03
454.52	10942.00
454.70	10970.09
454.89	10815.62
455.07	10675.18
455.26	11094.14
455.44	11068.39
455.62	11059.03
455.81	11108.18
455.99	11262.66
456.17	11077.76
456.36	11272.02
456.54	11463.94
456.73	11461.60
456.91	11810.34
457.09	11719.06
457.28	11756.51
457.46	11590.33
457.64	11908.65
457.83	11981.20
458.01	11770.55
458.19	11934.39
458.38	11868.86
458.56	11981.20
458.74	11988.22
458.93	11939.07
459.11	12002.27
459.29	11906.31
459.48	12313.56
459.66	12123.98
459.84	12315.90
460.03	12365.05
460.21	12170.79
460.39	12322.92
460.57	12388.46
460.76	12257.39
460.94	12484.42
461.12	12645.91
461.31	12641.23
461.49	12559.31
461.67	12643.57
461.85	12982.95
462.04	12786.35
462.22	13336.37
462.40	13069.55
462.59	13046.15
462.77	13022.74
462.95	13104.66
463.13	13181.90
463.32	12917.42
463.50	13074.23
463.68	13338.71
463.86	13280.20
464.05	13083.59
464.23	13303.60
464.41	13193.60
464.59	13006.36
464.78	13270.84
464.96	13537.66
465.14	13329.35
465.32	13748.31
465.50	13549.36
465.69	13589.15
465.87	13537.66
466.05	13694.47
466.23	13415.95
466.41	13760.01
466.60	14190.67
466.78	13603.19
466.96	13621.92
467.14	13640.64
467.32	13973.00
467.51	14200.03
467.69	13785.76
467.87	14176.62
468.05	13975.34
468.23	14047.90
468.41	14104.07
468.60	14122.79
468.78	14602.60
468.96	14263.22
469.14	14347.48
469.32	14490.26
469.50	14202.37
469.69	14827.29
469.87	14913.89
470.05	14516.00
470.23	14956.02
470.41	14927.94
470.59	14810.91
470.77	14363.87
470.95	15047.30
471.14	15178.37
471.32	14794.53
471.50	15576.27
471.68	15201.78
471.86	15503.71
472.04	15243.91
472.22	15772.87
472.40	15599.67
472.58	15260.29
472.77	15599.67
472.95	16006.92
473.13	16652.91
473.31	15880.53
473.49	15798.62
473.67	16027.99
473.85	16142.67
474.03	16491.41
474.21	16278.43
474.39	16470.35
474.57	16830.79
474.75	16858.88
474.93	17025.06
475.12	16919.73
475.30	16985.27
475.48	17008.67
475.66	17142.08
475.84	17259.11
476.02	17568.06
476.20	17598.49
476.38	17614.87
476.56	18050.21
476.74	17923.82
476.92	18136.81
477.10	18200.01
477.28	18281.92
477.46	18125.11
477.64	18380.23
477.82	18546.40
478.00	19000.47
478.18	19269.63
478.36	19260.27
478.54	19281.33
478.72	19637.09
478.90	19414.74
479.08	19709.65
479.26	19927.32
479.44	20336.91
479.62	20446.92
479.80	20664.59
479.98	20629.48
480.16	21135.04
480.34	20849.49
480.52	21172.49
480.70	21245.04
480.88	21135.04
481.06	21142.06
481.24	21167.80
481.41	21467.39
481.59	22108.70
481.77	22015.08
481.95	22317.01
482.13	22223.39
482.31	22485.53
482.49	22714.90
482.67	22911.50
482.85	22932.57
483.03	23529.41
483.21	23726.01
483.39	24074.75
483.57	23763.46
483.74	24369.66
483.92	24369.66
484.10	24423.49
484.28	24629.46
484.46	25235.66
484.64	25542.27
484.82	25083.52
485.00	25179.48
485.18	25734.19
485.35	26246.77
485.53	25891.01
485.71	26422.31
485.89	26302.94
486.07	26061.87
486.25	26843.60
486.43	26691.47
486.61	26864.67
486.78	27545.76
486.96	27431.08
487.14	28034.94
487.32	28060.68
487.50	28154.30
487.68	28418.78
487.85	28795.61
488.03	29090.52
488.21	29120.95
488.39	29106.90
488.57	29743.53
488.75	30066.52
488.92	30195.25
489.10	30274.83
489.28	30373.13
489.46	31005.08
489.64	30794.43
489.81	31674.47
489.99	31395.95
490.17	31407.65
490.35	31885.12
490.53	31866.39
490.70	32151.94
490.88	32175.34
491.06	32730.05
491.24	32311.10
491.41	33099.86
491.59	32971.13
491.77	33413.49
491.95	33270.72
492.13	34162.46
492.30	34352.04
492.48	34115.65
492.66	34405.88
492.84	34366.09
493.01	34838.87
493.19	35241.45
493.37	35306.98
493.54	35494.22
493.72	35983.40
493.90	35749.34
494.08	36093.40
494.25	36058.29
494.43	36512.36
494.61	37099.83
494.79	37165.37
494.96	36999.19
495.14	37439.21
495.32	37982.21
495.49	37308.14
495.67	38026.68
495.85	38258.40
496.02	38682.03
496.20	38836.51
496.38	38651.61
496.55	38658.63
496.73	39278.87
496.91	39660.38
497.09	39466.11
497.26	39658.04
497.44	39725.91
497.62	39964.65
497.79	40357.86
497.97	40177.64
498.14	40498.29
498.32	41588.98
498.50	41116.19
498.67	41581.96
498.85	41186.41
499.03	41130.23
499.20	41764.52
499.38	41963.46
499.56	41968.15
499.73	42326.25
499.91	42649.24
500.08	42658.60
500.26	42181.13
500.44	42447.96
500.61	42522.85
500.79	42731.16
500.97	43117.35
501.14	43416.94
501.32	43866.32
501.49	43672.06
501.67	43702.48
501.84	43913.13
502.02	43992.71
502.20	44531.03
502.37	44648.06
502.55	44673.81
502.72	44715.93
502.90	44383.58
503.07	44360.17
503.25	44751.04
503.43	44748.70
503.60	45516.40
503.78	45565.55
503.95	45790.24
504.13	45916.63
504.30	45532.78
504.48	45897.91
504.65	45689.60
504.83	45734.07
505.01	46553.26
505.18	46597.73
505.36	46906.68
505.53	46777.95
505.71	46941.78
505.88	47089.24
506.06	46586.02
506.23	47377.12
506.41	47187.54
506.58	47756.29
506.76	47646.29
506.93	47349.04
507.11	47622.88
507.28	47496.49
507.46	47679.05
507.63	48123.75
507.81	48720.59
507.98	48222.06
508.16	48289.93
508.33	48676.12
508.50	48514.62
508.68	48821.23
508.85	48889.11
509.03	48800.17
509.20	49024.86
509.38	49769.15
509.55	49649.78
509.73	49474.24
509.90	49696.59
510.08	49284.66
510.25	49581.91
510.42	50045.33
510.60	49869.79
510.77	50300.45
510.95	50578.98
511.12	50279.39
511.30	49743.41
511.47	50522.80
511.64	50590.68
511.82	50646.85
511.99	50925.38
512.17	51011.98
512.34	50983.89
512.51	51414.55
512.69	51182.84
512.86	51522.21
513.04	51435.61
513.21	51782.01
513.38	51765.63
513.56	51601.79
513.73	51611.15
513.90	52006.70
514.08	51461.36
514.25	51920.10
514.43	51957.55
514.60	52205.65
514.77	52261.82
514.95	52432.68
515.12	52252.46
515.29	52275.87
515.47	52509.92
515.64	52538.01
515.81	52530.98
515.99	53052.92
516.16	52919.51
516.33	52933.56
516.51	53090.37
516.68	52999.09
516.85	53174.63
517.03	53076.33
517.20	53375.92
517.37	53577.20
517.54	53609.97
517.72	53532.73
517.89	53586.57
518.06	53301.02
518.24	53497.62
518.41	53528.05
518.58	53661.46
518.75	53862.75
518.93	53916.58
519.10	54087.44
519.27	54075.74
519.45	53939.99
519.62	54183.40
519.79	54681.94
519.96	54492.35
520.14	54637.47
520.31	54712.36
520.48	54611.72
520.65	54527.46
520.83	54827.05
521.00	54548.53
521.17	54614.06
521.34	55000.25
521.52	54869.18
521.69	54997.91
521.86	55152.38
522.03	55224.94
522.20	55288.13
522.38	55318.56
522.55	55360.69
522.72	55323.24
522.89	55402.82
523.07	55781.99
523.24	55522.19
523.41	55880.29
523.58	55594.74
523.75	55952.85
523.92	55849.86
524.10	55870.93
524.27	55983.27
524.44	56051.15
524.61	56168.18
524.78	56399.89
524.96	56189.24
525.13	56163.50
525.30	56346.06
525.47	56406.91
525.64	56371.80
525.81	56594.15
525.98	56846.93
526.16	56556.70
526.33	56493.51
526.50	56739.27
526.67	56629.26
526.84	56729.90
527.01	56655.01
527.18	56788.42
527.36	56975.66
527.53	56924.17
527.70	57141.84
527.87	57301.00
528.04	56718.20
528.21	57064.60
528.38	56942.89
528.55	57088.01
528.72	57207.37
528.89	57310.36
529.07	57134.82
529.24	57350.15
529.41	57535.05
529.58	57418.02
529.75	57406.32
529.92	57371.21
530.09	57401.64
530.26	57591.22
530.43	57577.18
530.60	57539.73
530.77	57570.16
530.94	57970.39
531.11	57783.15
531.28	57860.38
531.46	57776.12
531.63	58005.50
531.80	58026.56
531.97	58291.04
532.14	58286.36
532.31	58066.35
532.48	58284.02
532.65	58384.66
532.82	57998.48
532.99	58309.77
533.16	58195.08
533.33	58244.23
533.50	58815.32
533.67	58487.65
533.84	58415.09
534.01	58316.79
534.18	58508.71
534.35	58534.46
534.52	58548.50
534.69	58899.58
534.86	58796.60
535.03	58541.48
535.20	58857.45
535.37	58838.73
535.54	58965.12
535.71	58592.97
535.88	59002.56
536.05	58873.84
536.22	59030.65
536.38	59143.00
536.55	59047.04
536.72	59011.93
536.89	59089.16
537.06	59257.68
537.23	59075.12
537.40	59283.43
537.57	59236.62
537.74	59126.61
537.91	59306.83
538.08	59583.02
538.25	59154.70
538.42	59494.08
538.59	59615.79
538.75	59444.93
538.92	59292.79
539.09	59501.10
539.26	59639.19
539.43	59629.83
539.60	59805.37
539.77	59742.17
539.94	59966.87
540.11	59690.68
540.28	59859.20
540.44	60044.10
540.61	59859.20
540.78	59772.60
540.95	59966.87
541.12	60280.50
541.29	60254.75
541.46	60280.50
541.62	60051.12
541.79	60151.77
541.96	60095.60
542.13	59924.74
542.30	60229.01
542.47	60374.12
542.63	60465.40
542.80	60390.50
542.97	60615.19
543.14	60676.05
543.31	60645.62
543.48	60238.37
543.64	60629.24
543.81	60828.18
543.98	60743.92
544.15	60781.37
544.32	61118.41
544.48	61034.15
544.65	60928.83
544.82	60680.73
544.99	60596.47
545.16	60893.72
545.32	60757.97
545.49	61219.05
545.66	61483.53
545.83	61256.50
546.00	61350.12
546.16	61214.37
546.33	61073.94
546.50	60893.72
546.67	61041.17
546.83	60891.38
547.00	61045.85
547.17	61200.33
547.34	61289.27
547.50	61464.81
547.67	61375.87
547.84	61137.13
548.00	61310.33
548.17	61425.02
548.34	61315.01
548.51	61616.94
548.67	61537.36
548.84	61572.47
549.01	61312.67
549.18	61436.72
549.34	61640.35
549.51	61392.25
549.68	61467.15
549.84	61364.17
550.01	61687.16
550.18	61516.30
550.34	61825.25
550.51	61825.25
550.68	61797.16
550.84	61567.79
551.01	61736.31
551.18	61616.94
551.34	61647.37
551.51	61771.42
551.68	61811.21
551.84	61918.87
552.01	61832.27
552.18	61745.67
552.34	61818.23
552.51	62014.83
552.68	61993.77
552.84	61939.94
553.01	61853.34
553.18	61806.53
553.34	62152.93
553.51	62024.20
553.67	62089.73
553.84	62358.89
554.01	62410.38
554.17	62136.54
554.34	62241.87
554.51	62209.10
554.67	62272.29
554.84	62262.93
555.00	62040.58
555.17	62424.43
555.33	62368.26
555.50	62255.91
555.67	62262.93
555.83	62384.64
556.00	62230.16
556.16	62429.11
556.33	62321.44
556.50	62337.83
556.66	62606.99
556.83	62529.75
556.99	62721.68
557.16	62681.89
557.32	62452.51
557.49	62546.14
557.65	62585.92
557.82	62408.04
557.98	62511.03
558.15	62660.82
558.32	62653.80
558.48	62684.23
558.65	62887.85
558.81	62848.06
558.98	62777.85
559.14	63007.22
559.31	62712.31
559.47	62644.44
559.64	62756.78
559.80	62925.30
559.97	62838.70
560.13	62705.29
560.30	62892.54
560.46	63007.22
560.63	62859.77
560.79	62836.36
560.96	62995.52
561.12	62812.96
561.29	62838.70
561.45	63131.27
561.61	62904.24
561.78	62986.16
561.94	63042.33
562.11	63105.52
562.27	63159.36
562.44	63185.10
562.60	63096.16
562.77	63199.15
562.93	62948.71
563.10	63114.89
563.26	63016.58
563.42	63178.08
563.59	63283.40
563.75	63185.10
563.92	63407.45
564.08	63154.68
564.24	63077.44
564.41	63145.31
564.57	63222.55
564.74	63283.40
564.90	63372.34
565.07	63348.94
565.23	63241.28
565.39	63297.45
565.56	63292.77
565.72	63395.75
565.88	63185.10
566.05	63203.83
566.21	63290.43
566.38	63243.62
566.54	63243.62
566.70	63290.43
566.87	63608.74
567.03	63444.90
567.19	63597.04
567.36	63419.16
567.52	63133.61
567.68	63402.77
567.85	63161.70
568.01	63393.41
568.17	63330.22
568.34	63496.39
568.50	63430.86
568.66	63412.13
568.83	63522.14
568.99	63674.27
569.15	63594.70
569.32	63547.89
569.48	63339.58
569.64	63676.61
569.81	63566.61
569.97	63671.93
570.13	63664.91
570.30	63470.65
570.46	63716.40
570.62	63632.14
570.78	63718.74
570.95	63487.03
571.11	63604.06
571.27	63262.34
571.43	63381.71
571.60	63643.85
571.76	63704.70
571.92	63547.89
572.09	63884.92
572.25	63838.11
572.41	63667.25
572.57	63737.47
572.74	63795.98
572.90	63683.64
573.06	63648.53
573.22	63781.94
573.38	63702.36
573.55	63718.74
573.71	63983.22
573.87	64001.95
574.03	63739.81
574.20	63770.24
574.36	63629.80
574.52	63749.17
574.68	63742.15
574.84	63725.77
575.01	63835.77
575.17	63866.20
575.33	63650.87
575.49	63817.05
575.65	63987.91
575.82	63910.67
575.98	63716.40
576.14	63758.53
576.30	63833.43
576.46	63882.58
576.62	63538.52
576.79	63913.01
576.95	63807.68
577.11	63903.65
577.27	63894.28
577.43	63929.39
577.59	63966.84
577.75	63931.73
577.92	63819.39
578.08	63650.87
578.24	63838.11
578.40	63868.54
578.56	64067.48
578.72	63992.59
578.88	64233.66
579.04	64147.06
579.21	63859.18
579.37	63973.86
579.53	63969.18
579.69	63854.50
579.85	63756.19
580.01	63824.07
580.17	63819.39
580.33	64156.42
580.49	63990.25
580.65	64198.55
580.82	64114.29
580.98	64156.42
581.14	63913.01
581.30	64151.74
581.46	64037.06
581.62	63854.50
581.78	63798.32
581.94	64102.59
582.10	63994.93
582.26	64051.10
582.42	64123.66
582.58	64343.67
582.74	64102.59
582.90	64175.15
583.06	64175.15
583.22	63784.28
583.38	63994.93
583.54	63980.88
583.70	64058.12
583.86	64228.98
584.02	63929.39
584.18	64217.28
584.34	64123.66
584.50	64191.53
584.66	64102.59
584.82	64236.00
584.98	64053.44
585.14	64233.66
585.30	63800.66
585.46	63980.88
585.62	64044.08
585.78	64184.51
585.94	63826.41
586.10	64224.30
586.26	64121.32
586.42	64165.79
586.58	64184.51
586.74	64018.33
586.90	64023.01
587.06	64219.62
587.22	64233.66
587.38	64224.30
587.54	64271.11
587.70	64264.09
587.86	64193.87
588.02	64165.79
588.18	64498.14
588.34	64313.24
588.49	64264.09
588.65	64420.90
