SpectraSuite Data File
++++++++++++++++++++++++++++++++++++
Date: Fri Oct 04 11:39:26 GMT-05:00 2013
User: price-jones
Dark Spectrum Present: No
Reference Spectrum Present: No
Number of Sampled Component Spectra: 1
Spectrometers: USB2+H05261
Integration Time (usec): 100000 (USB2+H05261)
Spectra Averaged: 1 (USB2+H05261)
Boxcar Smoothing: 0 (USB2+H05261)
Correct for Electrical Dark: No (USB2+H05261)
Strobe/Lamp Enabled: No (USB2+H05261)
Correct for Detector Non-linearity: No (USB2+H05261)
Correct for Stray Light: No (USB2+H05261)
Number of Pixels in Processed Spectrum: 2048
>>>>>Begin Processed Spectral Data<<<<<
365.73	18.72
365.92	18.72
366.12	18.72
366.32	0.00
366.52	0.00
366.72	0.00
366.91	0.00
367.11	0.00
367.31	0.00
367.51	0.00
367.70	0.00
367.90	0.00
368.10	21.06
368.30	0.00
368.49	0.00
368.69	0.00
368.89	0.00
369.09	0.00
369.28	0.00
369.48	0.00
369.68	0.00
369.87	9.36
370.07	0.00
370.27	32.77
370.47	0.00
370.66	142.77
370.86	187.24
371.06	252.78
371.25	229.37
371.45	168.52
371.65	227.03
371.84	243.42
372.04	152.13
372.24	217.67
372.44	222.35
372.63	196.60
372.83	259.80
373.03	245.76
373.22	191.92
373.42	266.82
373.62	283.20
373.81	362.78
374.01	262.14
374.21	283.20
374.40	194.26
374.60	248.10
374.79	285.55
374.99	266.82
375.19	346.40
375.38	271.50
375.58	266.82
375.78	243.42
375.97	315.97
376.17	290.23
376.37	287.89
376.56	397.89
376.76	283.20
376.95	257.46
377.15	334.70
377.35	355.76
377.54	337.04
377.74	290.23
377.93	255.12
378.13	376.83
378.33	367.46
378.52	266.82
378.72	344.06
378.91	292.57
379.11	313.63
379.31	283.20
379.50	224.69
379.70	330.02
379.89	337.04
380.09	334.70
380.28	205.97
380.48	346.40
380.68	325.33
380.87	269.16
381.07	313.63
381.26	379.17
381.46	330.02
381.65	369.80
381.85	348.74
382.04	299.59
382.24	374.49
382.43	341.72
382.63	365.12
382.83	315.97
383.02	341.72
383.22	341.72
383.41	327.68
383.61	327.68
383.80	358.10
384.00	397.89
384.19	442.36
384.39	383.85
384.58	273.84
384.78	318.31
384.97	287.89
385.17	404.91
385.36	379.17
385.56	407.25
385.75	367.46
385.95	386.19
386.14	388.53
386.34	315.97
386.53	404.91
386.72	339.38
386.92	423.64
387.11	395.55
387.31	400.23
387.50	346.40
387.70	395.55
387.89	393.21
388.09	416.62
388.28	367.46
388.48	430.66
388.67	442.36
388.86	411.93
389.06	360.44
389.25	449.38
389.45	407.25
389.64	512.58
389.84	454.06
390.03	482.15
390.22	416.62
390.42	390.87
390.61	386.19
390.81	395.55
391.00	414.27
391.19	374.49
391.39	475.13
391.58	519.60
391.78	440.02
391.97	510.24
392.16	440.02
392.36	500.87
392.55	472.79
392.75	470.45
392.94	353.42
393.13	435.34
393.33	465.77
393.52	486.83
393.71	566.41
393.91	571.09
394.10	477.47
394.29	475.13
394.49	512.58
394.68	545.34
394.88	608.54
395.07	559.39
395.26	585.13
395.46	564.07
395.65	538.32
395.84	554.71
396.04	657.69
396.23	575.77
396.42	538.32
396.62	512.58
396.81	566.41
397.00	627.26
397.19	601.52
397.39	594.50
397.58	599.18
397.77	660.03
397.97	589.82
398.16	653.01
398.35	688.12
398.55	653.01
398.74	669.39
398.93	674.07
399.12	643.65
399.32	636.63
399.51	695.14
399.70	718.54
399.90	706.84
400.09	692.80
400.28	751.31
400.47	746.63
400.67	741.95
400.86	791.10
401.05	795.78
401.24	777.06
401.44	851.96
401.63	746.63
401.82	702.16
402.01	781.74
402.21	814.51
402.40	861.32
402.59	847.27
402.78	884.72
402.97	926.85
403.17	924.51
403.36	912.81
403.55	786.42
403.74	919.83
403.93	903.45
404.13	994.73
404.32	894.08
404.51	994.73
404.70	1018.13
404.89	943.24
405.09	1055.58
405.28	1001.75
405.47	929.19
405.66	908.13
405.85	1055.58
406.05	983.02
406.24	1064.94
406.43	1015.79
406.62	1090.69
406.81	1196.01
407.00	1102.39
407.20	1055.58
407.39	1090.69
407.58	1240.48
407.77	1172.61
407.96	1146.86
408.15	1252.19
408.34	1095.37
408.54	1146.86
408.73	1163.25
408.92	1224.10
409.11	1177.29
409.30	1308.36
409.49	1200.69
409.68	1301.34
409.87	1324.74
410.07	1277.93
410.26	1249.85
410.45	1345.81
410.64	1453.47
410.83	1418.36
411.02	1418.36
411.21	1439.43
411.40	1364.53
411.59	1451.13
411.78	1486.24
411.98	1392.62
412.17	1455.81
412.36	1570.50
412.55	1425.39
412.74	1582.20
412.93	1579.86
413.12	1493.26
413.31	1675.82
413.50	1621.99
413.69	1591.56
413.88	1600.93
414.07	1743.70
414.26	1734.34
414.45	1785.83
414.64	1776.47
414.83	1804.55
415.02	1699.23
415.22	1804.55
415.41	1825.62
415.60	1961.37
415.79	1907.54
415.98	1947.33
416.17	1930.94
416.36	1884.13
416.55	1900.52
416.74	2005.84
416.93	2080.74
417.12	2017.54
417.31	2010.52
417.50	1989.46
417.69	2125.21
417.88	2118.18
418.07	2083.08
418.26	2174.36
418.45	2211.81
418.64	2174.36
418.83	2200.10
419.02	2108.82
419.21	2216.49
419.39	2218.83
419.58	2162.66
419.77	2279.68
419.96	2179.04
420.15	2282.02
420.34	2326.49
420.53	2340.54
420.72	2424.80
420.91	2246.91
421.10	2434.16
421.29	2363.94
421.48	2256.28
421.67	2403.73
421.86	2300.75
422.05	2415.43
422.24	2429.48
422.43	2513.74
422.61	2333.51
422.80	2504.37
422.99	2569.91
423.18	2558.21
423.37	2438.84
423.56	2551.18
423.75	2593.31
423.94	2466.92
424.13	2354.58
424.32	2410.75
424.50	2495.01
424.69	2656.51
424.88	2469.27
425.07	2462.24
425.26	2544.16
425.45	2600.34
425.64	2504.37
425.83	2464.58
426.01	2478.63
426.20	2579.27
426.39	2672.89
426.58	2530.12
426.77	2602.68
426.96	2602.68
427.15	2623.74
427.33	2668.21
427.52	2640.12
427.71	2710.34
427.90	2689.28
428.09	2661.19
428.28	2663.53
428.46	2693.96
428.65	2818.00
428.84	2801.62
429.03	2775.88
429.22	2637.78
429.40	2846.09
429.59	2715.02
429.78	2752.47
429.97	2759.49
430.16	2789.92
430.34	2888.22
430.53	2843.75
430.72	2932.69
430.91	2925.67
431.10	2801.62
431.28	2796.94
431.47	2960.78
431.66	2942.05
431.85	2925.67
432.03	3108.23
432.22	3040.36
432.41	3124.62
432.60	3035.67
432.79	3059.08
432.97	3045.04
433.16	3098.87
433.35	3166.74
433.54	3023.97
433.72	3012.27
433.91	3124.62
434.10	3297.81
434.28	3155.04
434.47	3103.55
434.66	3288.45
434.85	3145.68
435.03	3211.22
435.22	3517.83
435.41	3688.68
435.59	3644.21
435.78	3447.61
435.97	3267.39
436.16	3297.81
436.34	3318.88
436.53	3428.88
436.72	3595.06
436.90	3405.48
437.09	3440.59
437.28	3424.20
437.46	3538.89
437.65	3473.36
437.84	3545.91
438.02	3475.70
438.21	3543.57
438.40	3286.11
438.58	3618.47
438.77	3747.20
438.96	3662.94
439.14	3740.18
439.33	3749.54
439.52	3744.86
439.70	3847.84
439.89	3857.20
440.08	3768.26
440.26	3688.68
440.45	3824.44
440.63	3927.42
440.82	3847.84
441.01	3833.80
441.19	3992.95
441.38	3976.57
441.57	4042.11
441.75	4079.55
441.94	4105.30
442.12	3929.76
442.31	4255.09
442.50	4100.62
442.68	4028.06
442.87	3990.61
443.05	4191.90
443.24	4168.49
443.43	4215.30
443.61	4287.86
443.80	4166.15
443.98	4182.54
444.17	4135.73
444.35	4334.67
444.54	4386.16
444.73	4276.16
444.91	4329.99
445.10	4255.09
445.28	4257.43
445.47	4358.08
445.65	4269.14
445.84	4313.61
446.02	4428.29
446.21	4299.56
446.39	4325.31
446.58	4355.74
446.77	4404.89
446.95	4276.16
447.14	4358.08
447.32	4376.80
447.51	4304.25
447.69	4458.72
447.88	4292.54
448.06	4465.74
448.25	4423.61
448.43	4564.04
448.62	4535.96
448.80	4318.29
448.99	4491.49
449.17	4463.40
449.36	4397.87
449.54	4596.81
449.73	4711.50
449.91	4645.96
450.10	4676.39
450.28	4692.77
450.46	4608.51
450.65	4657.67
450.83	4690.43
451.02	4819.16
451.20	4755.97
451.39	4582.77
451.57	4755.97
451.76	4718.52
451.94	4826.18
452.13	4772.35
452.31	4772.35
452.49	4947.89
452.68	4828.53
452.86	4814.48
453.05	4816.82
453.23	4730.22
453.42	4788.74
453.60	4844.91
453.78	4938.53
453.97	4894.06
454.15	4767.67
454.34	4908.10
454.52	4999.38
454.70	5060.24
454.89	4938.53
455.07	5025.13
455.26	5109.39
455.44	4908.10
455.62	4971.30
455.81	4940.87
455.99	5207.69
456.17	5060.24
456.36	4990.02
456.54	5369.19
456.73	5219.39
456.91	5406.64
457.09	5350.46
457.28	5392.59
457.46	5350.46
457.64	5397.28
457.83	5364.51
458.01	5240.46
458.19	5537.71
458.38	5362.17
458.56	5425.36
458.74	5444.09
458.93	5420.68
459.11	5549.41
459.29	5476.85
459.48	5462.81
459.66	5493.24
459.84	5507.28
460.03	5647.71
460.21	5575.16
460.39	5619.63
460.57	5551.75
460.76	5762.40
460.94	5579.84
461.12	5799.85
461.31	5657.07
461.49	5650.05
461.67	5764.74
461.85	5849.00
462.04	5774.10
462.22	5973.05
462.40	5701.54
462.59	5818.57
462.77	5820.91
462.95	5933.26
463.13	5818.57
463.32	5893.47
463.50	6155.61
463.68	6005.81
463.86	6003.47
464.05	5923.90
464.23	6087.73
464.41	6099.44
464.59	6073.69
464.78	6050.28
464.96	5942.62
465.14	6115.82
465.32	6090.07
465.50	6249.23
465.69	6265.61
465.87	6190.72
466.05	6012.84
466.23	6230.51
466.41	6202.42
466.60	6431.79
466.78	6267.95
466.96	6146.25
467.14	6099.44
467.32	6155.61
467.51	6399.02
467.69	6260.93
467.87	6202.42
468.05	6321.79
468.23	6438.81
468.41	6284.34
468.60	6244.55
468.78	6576.91
468.96	6300.72
469.14	6366.26
469.32	6530.09
469.50	6422.43
469.69	6607.33
469.87	6583.93
470.05	6626.06
470.23	6546.48
470.41	6581.59
470.59	6759.47
470.77	6700.95
470.95	6717.34
471.14	6892.88
471.32	6698.61
471.50	6883.52
471.68	6937.35
471.86	6832.02
472.04	6853.09
472.22	7070.76
472.40	6752.45
472.58	6871.81
472.77	7126.93
472.95	7089.48
473.13	7520.14
473.31	7204.17
473.49	7063.74
473.67	7112.89
473.85	7243.96
474.03	7562.27
474.21	7314.17
474.39	7206.51
474.57	7468.65
474.75	7597.38
474.93	7557.59
475.12	7576.31
475.30	7536.52
475.48	7655.89
475.66	7566.95
475.84	7679.30
476.02	7709.72
476.20	7882.92
476.38	8049.10
476.56	7981.23
476.74	8095.91
476.92	7946.12
477.10	7981.23
477.28	8131.02
477.46	8138.04
477.64	8245.71
477.82	8383.80
478.00	8561.68
478.18	8456.36
478.36	8503.17
478.54	8594.45
478.72	8561.68
478.90	8697.43
479.08	8879.99
479.26	8610.83
479.44	8903.40
479.62	8879.99
479.80	9055.53
479.98	8851.91
480.16	9320.01
480.34	9282.56
480.52	9235.75
480.70	9373.85
480.88	9296.61
481.06	9619.60
481.24	9399.59
481.41	9397.25
481.59	9652.37
481.77	9745.99
481.95	9827.91
482.13	9790.46
482.31	9958.98
482.49	9881.74
482.67	10078.35
482.85	10061.96
483.03	10445.81
483.21	10626.03
483.39	10452.83
483.57	10483.26
483.74	10729.02
483.92	10415.38
484.10	10626.03
484.28	10707.95
484.46	10920.94
484.64	11126.91
484.82	10897.53
485.00	11068.39
485.18	11353.94
485.35	11534.16
485.53	11534.16
485.71	11377.34
485.89	11576.29
486.07	11529.48
486.25	11651.19
486.43	11688.64
486.61	11660.55
486.78	11873.54
486.96	11946.09
487.14	12535.91
487.32	12042.06
487.50	12177.81
487.68	12308.88
487.85	12608.47
488.03	12741.88
488.21	12894.01
488.39	12870.61
488.57	13132.75
488.75	12971.25
488.92	13422.97
489.10	13254.45
489.28	13235.73
489.46	13467.44
489.64	13563.40
489.81	13575.11
489.99	13954.27
490.17	13820.86
490.35	14054.92
490.53	13895.76
490.70	13909.80
490.88	14300.67
491.06	14019.81
491.24	14356.85
491.41	14118.11
491.59	14738.35
491.77	14576.86
491.95	14871.76
492.13	14803.89
492.30	14850.70
492.48	14944.32
492.66	14843.68
492.84	15129.22
493.01	15232.21
493.19	15288.38
493.37	15477.96
493.54	15365.62
493.72	15328.17
493.90	15473.28
494.08	16114.59
494.25	15906.28
494.43	15719.04
494.61	15983.52
494.79	16168.42
494.96	15999.90
495.14	16390.77
495.32	16140.33
495.49	16414.18
495.67	16606.10
495.85	16362.69
496.02	16514.82
496.20	16917.39
496.38	16723.13
496.55	16938.46
496.73	17397.20
496.91	16973.56
497.09	17128.04
497.26	17219.32
497.44	17525.93
497.62	17362.09
497.79	17502.53
497.97	17446.35
498.14	17645.30
498.32	17701.47
498.50	17785.73
498.67	17954.25
498.85	18078.30
499.03	17886.37
499.20	17994.04
499.38	17933.18
499.56	18127.45
499.73	18534.70
499.91	18363.84
500.08	18356.82
500.26	18398.95
500.44	18546.40
500.61	18916.21
500.79	18583.85
500.97	18677.48
501.14	19042.60
501.32	19002.81
501.49	18956.00
501.67	19049.62
501.84	19173.67
502.02	19084.73
502.20	19374.95
502.37	19609.01
502.55	19269.63
502.72	19391.34
502.90	19468.58
503.07	19482.62
503.25	19669.86
503.43	19681.56
503.60	19817.32
503.78	19726.04
503.95	19922.64
504.13	20032.65
504.30	19924.98
504.48	19948.39
504.65	20252.66
504.83	20315.85
505.01	20409.47
505.18	20435.22
505.36	20669.27
505.53	19978.81
505.71	20620.12
505.88	20496.07
506.06	20479.69
506.23	20830.77
506.41	20917.37
506.58	20734.81
506.76	20713.74
506.93	21029.71
507.11	20624.80
507.28	21060.14
507.46	20954.82
507.63	20879.92
507.81	21366.75
507.98	21436.97
508.16	21235.68
508.33	21291.85
508.50	21507.18
508.68	21549.31
508.85	21905.07
509.03	22005.72
509.20	21853.58
509.38	21827.84
509.55	21879.33
509.73	21788.05
509.90	22188.28
510.08	21947.20
510.25	22270.20
510.42	22279.56
510.60	22424.67
510.77	22719.58
510.95	22537.02
511.12	22097.00
511.30	22665.75
511.47	22757.03
511.64	22817.88
511.82	22946.61
511.99	22843.63
512.17	23133.86
512.34	22742.99
512.51	22939.59
512.69	23117.47
512.86	23122.15
513.04	23491.96
513.21	23206.41
513.38	23283.65
513.56	23421.74
513.73	23529.41
513.90	23386.63
514.08	23260.24
514.25	23683.88
514.43	23599.62
514.60	23632.39
514.77	23859.42
514.95	23908.57
515.12	23674.52
515.29	24004.53
515.47	24070.07
515.64	23988.15
515.81	23988.15
515.99	24294.76
516.16	24666.91
516.33	24416.47
516.51	24587.33
516.68	24540.52
516.85	24402.43
517.03	24423.49
517.20	24587.33
517.37	24650.52
517.54	24727.76
517.72	25130.33
517.89	24620.10
518.06	24587.33
518.24	24783.93
518.41	24734.78
518.58	24692.65
518.75	25149.06
518.93	25153.74
519.10	25123.31
519.27	25479.07
519.45	25195.87
519.62	25413.54
519.79	25469.71
519.96	25057.78
520.14	25731.85
520.31	25734.19
520.48	25563.33
520.65	25837.17
520.83	25785.68
521.00	25820.79
521.17	25453.33
521.34	25738.87
521.52	25734.19
521.69	26270.17
521.86	26242.09
522.03	26150.81
522.20	25996.33
522.38	26459.76
522.55	26422.31
522.72	26099.31
522.89	26373.16
523.07	26459.76
523.24	26448.05
523.41	26782.75
523.58	26405.92
523.75	26593.17
523.92	26789.77
524.10	27016.80
524.27	26759.34
524.44	26574.44
524.61	26962.97
524.78	26792.11
524.96	27026.17
525.13	26899.78
525.30	27161.92
525.47	27379.59
525.64	27372.57
525.81	27068.30
525.98	27445.12
526.16	27332.78
526.33	27555.13
526.50	27070.64
526.67	27044.89
526.84	27449.80
527.01	27147.87
527.18	27725.99
527.36	27828.97
527.53	28060.68
527.70	27683.86
527.87	28023.23
528.04	27480.23
528.21	28051.32
528.38	27676.83
528.55	28184.73
528.72	27960.04
528.89	28414.10
529.07	28133.24
529.24	27620.66
529.41	27924.93
529.58	28154.30
529.75	27700.24
529.92	28112.17
530.09	28610.71
530.26	28369.63
530.43	28657.52
530.60	27908.55
530.77	28332.18
530.94	28713.69
531.11	28559.22
531.28	28446.87
531.46	28531.13
531.63	28545.17
531.80	28868.17
531.97	28664.54
532.14	28922.00
532.31	29106.90
532.48	28638.80
532.65	28840.08
532.82	28982.85
532.99	29053.07
533.16	29174.78
533.33	29450.96
533.50	29036.69
533.67	28886.89
533.84	28994.56
534.01	28744.12
534.18	28879.87
534.35	29453.30
534.52	29179.46
534.69	29556.28
534.86	29874.60
535.03	29511.81
535.20	29635.86
535.37	29804.38
535.54	29670.97
535.71	29308.19
535.88	29692.04
536.05	29535.22
536.22	29743.53
536.38	29699.06
536.55	30192.91
536.72	29649.91
536.89	29766.93
537.06	29839.49
537.23	30019.71
537.40	29813.74
537.57	29914.39
537.74	29912.05
537.91	30415.26
538.08	30232.70
538.25	30092.27
538.42	30204.61
538.59	30171.85
538.75	30169.51
538.92	30555.69
539.09	30490.16
539.26	30581.44
539.43	30321.64
539.60	30579.10
539.77	30735.92
539.94	30834.22
540.11	30611.87
540.28	30850.60
540.44	30707.83
540.61	30881.03
540.78	30852.94
540.95	31318.71
541.12	31295.30
541.29	31035.50
541.46	31171.25
541.62	31124.44
541.79	31379.56
541.96	31321.05
542.13	31519.99
542.30	31321.05
542.47	31346.79
542.63	31615.96
542.80	31288.28
542.97	31522.34
543.14	31866.39
543.31	31625.32
543.48	31672.13
543.64	31852.35
543.81	31847.67
543.98	32018.53
544.15	32156.62
544.32	32128.53
544.48	32297.05
544.65	31662.77
544.82	31821.92
544.99	31466.16
545.16	31845.33
545.32	31922.57
545.49	32051.30
545.66	33046.02
545.83	33340.93
546.00	33516.47
546.16	32783.88
546.33	32615.37
546.50	31674.47
546.67	32177.68
546.83	31709.58
547.00	32524.08
547.17	32261.94
547.34	32451.53
547.50	33099.86
547.67	32666.86
547.84	32292.37
548.00	32414.08
548.17	32334.50
548.34	32542.81
548.51	32479.61
548.67	32442.17
548.84	32339.18
549.01	32505.36
549.18	32573.24
549.34	32428.12
549.51	32575.58
549.68	32259.60
549.84	32563.87
550.01	32524.08
550.18	32631.75
550.34	32566.21
550.51	32818.99
550.68	32926.66
550.84	32259.60
551.01	32643.45
551.18	32594.30
551.34	33053.05
551.51	32493.66
551.68	32723.03
551.84	32786.22
552.01	32734.73
552.18	33429.87
552.34	32664.52
552.51	33151.35
552.68	32615.37
552.84	32957.08
553.01	32772.18
553.18	33020.28
553.34	33156.03
553.51	32945.38
553.67	32989.85
553.84	33401.79
554.01	33139.65
554.17	33394.76
554.34	33149.01
554.51	33104.54
554.67	33067.09
554.84	33535.20
555.00	32952.40
555.17	32996.87
555.33	33469.66
555.50	33221.56
555.67	33120.92
555.83	33167.73
556.00	33010.92
556.16	33481.36
556.33	32982.83
556.50	33481.36
556.66	33600.73
556.83	33301.14
556.99	33479.02
557.16	33736.48
557.32	33443.91
557.49	33495.41
557.65	33404.13
557.82	33104.54
557.98	33390.08
558.15	33350.29
558.32	33436.89
558.48	33656.90
558.65	33755.21
558.81	33593.71
558.98	34000.96
559.14	33848.83
559.31	33354.97
559.47	33397.10
559.64	33816.06
559.80	33731.80
559.97	33680.31
560.13	33469.66
560.30	34284.17
560.46	33942.45
560.63	33635.84
560.79	33724.78
560.96	33956.49
561.12	33738.82
561.29	33675.63
561.45	33940.11
561.61	34110.97
561.78	33823.08
561.94	34033.73
562.11	33926.07
562.27	34110.97
562.44	33830.10
562.60	34057.14
562.77	34281.83
562.93	34071.18
563.10	33940.11
563.26	33848.83
563.42	34246.72
563.59	33883.94
563.75	34230.33
563.92	34237.36
564.08	33806.70
564.24	33778.61
564.41	33748.18
564.57	33546.90
564.74	33780.95
564.90	34700.78
565.07	33923.72
565.23	33893.30
565.39	33986.92
565.56	34199.91
565.72	33984.58
565.88	33926.07
566.05	33846.49
566.21	33771.59
566.38	34106.29
566.54	33944.79
566.70	34235.02
566.87	34204.59
567.03	34190.55
567.19	34719.51
567.36	34527.58
567.52	34387.15
567.68	34330.98
567.85	33795.00
568.01	34232.68
568.17	33818.40
568.34	34660.99
568.50	33883.94
568.66	34356.72
568.83	34455.03
568.99	34368.43
569.15	33905.00
569.32	33968.19
569.48	33937.77
569.64	34464.39
569.81	33961.17
569.97	34036.07
570.13	34108.63
570.30	34314.59
570.46	34513.54
570.62	34202.25
570.78	34157.78
570.95	33958.83
571.11	33846.49
571.27	34487.79
571.43	33659.24
571.60	34607.16
571.76	34237.36
571.92	34419.92
572.09	34625.89
572.25	34625.89
572.41	34464.39
572.57	34082.88
572.74	34609.50
572.90	34352.04
573.06	34478.43
573.22	34036.07
573.38	34801.43
573.55	34115.65
573.71	34665.67
573.87	34302.89
574.03	34522.90
574.20	34389.49
574.36	34103.95
574.52	34031.39
574.68	34003.30
574.84	34433.96
575.01	34309.91
575.17	34209.27
575.33	34225.65
575.49	34670.36
575.65	34646.95
575.82	34668.02
575.98	34181.18
576.14	34658.65
576.30	34721.85
576.46	34677.38
576.62	34265.44
576.79	34485.45
576.95	34089.90
577.11	34485.45
577.27	34403.53
577.43	34389.49
577.59	34450.35
577.75	34171.82
577.92	34558.01
578.08	34494.82
578.24	34438.64
578.40	34349.70
578.56	34330.98
578.72	34651.63
578.88	34569.71
579.04	34810.79
579.21	34761.64
579.37	34745.25
579.53	34478.43
579.69	33921.38
579.85	34253.74
580.01	34382.47
580.17	34401.19
580.33	34232.68
580.49	34595.46
580.65	35061.22
580.82	34911.43
580.98	34529.92
581.14	34618.86
581.30	34890.37
581.46	34433.96
581.62	34668.02
581.78	34300.55
581.94	34600.14
582.10	34277.15
582.26	34602.48
582.42	34445.66
582.58	34785.04
582.74	34600.14
582.90	34745.25
583.06	34600.14
583.22	34649.29
583.38	34267.78
583.54	34721.85
583.70	34459.71
583.86	34316.93
584.02	34593.12
584.18	34824.83
584.34	34567.37
584.50	34923.13
584.66	34796.74
584.82	34670.36
584.98	34319.28
585.14	34721.85
585.30	34178.84
585.46	34230.33
585.62	34075.86
585.78	34656.31
585.94	34415.24
586.10	34660.99
586.26	34677.38
586.42	34735.89
586.58	34892.71
586.74	34595.46
586.90	34469.07
587.06	34668.02
587.22	34817.81
587.38	34377.79
587.54	34749.93
587.70	34780.36
587.86	34595.46
588.02	34644.61
588.18	34873.98
588.34	34574.39
588.49	34836.53
588.65	34242.04
588.81	34450.35
588.97	34693.76
589.13	34602.48
589.29	34396.51
589.45	34464.39
589.61	34909.09
589.77	34958.24
589.93	34913.77
590.08	34862.28
590.24	34824.83
590.40	35009.73
590.56	34787.38
590.72	35019.10
590.88	34651.63
591.04	34366.09
591.20	34747.59
591.35	34803.77
591.51	35009.73
