SpectraSuite Data File
++++++++++++++++++++++++++++++++++++
Date: Fri Oct 04 11:39:14 GMT-05:00 2013
User: price-jones
Dark Spectrum Present: No
Reference Spectrum Present: No
Number of Sampled Component Spectra: 1
Spectrometers: USB2+H05261
Integration Time (usec): 100000 (USB2+H05261)
Spectra Averaged: 1 (USB2+H05261)
Boxcar Smoothing: 0 (USB2+H05261)
Correct for Electrical Dark: No (USB2+H05261)
Strobe/Lamp Enabled: No (USB2+H05261)
Correct for Detector Non-linearity: No (USB2+H05261)
Correct for Stray Light: No (USB2+H05261)
Number of Pixels in Processed Spectrum: 2048
>>>>>Begin Processed Spectral Data<<<<<
365.73	60.85
365.92	60.85
366.12	60.85
366.32	0.00
366.52	0.00
366.72	35.11
366.91	0.00
367.11	0.00
367.31	0.00
367.51	0.00
367.70	0.00
367.90	39.79
368.10	0.00
368.30	0.00
368.49	0.00
368.69	58.51
368.89	42.13
369.09	0.00
369.28	0.00
369.48	0.00
369.68	0.00
369.87	0.00
370.07	7.02
370.27	60.85
370.47	65.54
370.66	182.56
370.86	198.95
371.06	243.42
371.25	215.33
371.45	149.79
371.65	264.48
371.84	280.86
372.04	189.58
372.24	255.12
372.44	283.20
372.63	283.20
372.83	360.44
373.03	189.58
373.22	346.40
373.42	337.04
373.62	304.27
373.81	320.65
374.01	353.42
374.21	334.70
374.40	344.06
374.60	386.19
374.79	304.27
374.99	325.33
375.19	320.65
375.38	351.08
375.58	330.02
375.78	381.51
375.97	383.85
376.17	365.12
376.37	386.19
376.56	383.85
376.76	332.36
376.95	365.12
377.15	362.78
377.35	283.20
377.54	360.44
377.74	294.91
377.93	304.27
378.13	332.36
378.33	318.31
378.52	421.30
378.72	358.10
378.91	428.32
379.11	348.74
379.31	365.12
379.50	330.02
379.70	386.19
379.89	418.96
380.09	358.10
380.28	397.89
380.48	409.59
380.68	404.91
380.87	320.65
381.07	418.96
381.26	423.64
381.46	430.66
381.65	379.17
381.85	376.83
382.04	390.87
382.24	386.19
382.43	358.10
382.63	428.32
382.83	421.30
383.02	428.32
383.22	411.93
383.41	388.53
383.61	423.64
383.80	393.21
384.00	411.93
384.19	423.64
384.39	395.55
384.58	372.15
384.78	430.66
384.97	517.26
385.17	369.80
385.36	454.06
385.56	444.70
385.75	491.51
385.95	454.06
386.14	503.22
386.34	505.56
386.53	514.92
386.72	437.68
386.92	430.66
387.11	500.87
387.31	503.22
387.50	496.19
387.70	470.45
387.89	540.66
388.09	442.36
388.28	489.17
388.48	514.92
388.67	496.19
388.86	496.19
389.06	477.47
389.25	547.69
389.45	484.49
389.64	498.53
389.84	543.00
390.03	512.58
390.22	524.28
390.42	510.24
390.61	512.58
390.81	564.07
391.00	482.15
391.19	550.03
391.39	517.26
391.58	580.45
391.78	589.82
391.97	531.30
392.16	547.69
392.36	622.58
392.55	599.18
392.75	631.94
392.94	645.99
393.13	603.86
393.33	573.43
393.52	559.39
393.71	603.86
393.91	613.22
394.10	582.79
394.29	662.37
394.49	610.88
394.68	582.79
394.88	662.37
395.07	737.27
395.26	709.18
395.46	636.63
395.65	702.16
395.84	629.60
396.04	676.41
396.23	650.67
396.42	631.94
396.62	763.01
396.81	683.44
397.00	699.82
397.19	662.37
397.39	748.97
397.58	737.27
397.77	713.86
397.97	819.19
398.16	709.18
398.35	812.17
398.55	725.57
398.74	706.84
398.93	795.78
399.12	830.89
399.32	763.01
399.51	753.65
399.70	777.06
399.90	854.30
400.09	828.55
400.28	922.17
400.47	814.51
400.67	812.17
400.86	882.38
401.05	894.08
401.24	844.93
401.44	891.74
401.63	968.98
401.82	976.00
402.01	924.51
402.21	786.42
402.40	854.30
402.59	903.45
402.78	882.38
402.97	866.00
403.17	943.24
403.36	889.40
403.55	978.34
403.74	1020.47
403.93	966.64
404.13	1064.94
404.32	1027.50
404.51	983.02
404.70	1053.24
404.89	1001.75
405.09	1064.94
405.28	1025.15
405.47	1060.26
405.66	1064.94
405.85	1025.15
406.05	1029.84
406.24	1132.82
406.43	1172.61
406.62	1125.80
406.81	1179.63
407.00	1207.72
407.20	1128.14
407.39	1160.91
407.58	1207.72
407.77	1198.35
407.96	1226.44
408.15	1217.08
408.34	1177.29
408.54	1167.93
408.73	1226.44
408.92	1214.74
409.11	1289.64
409.30	1308.36
409.49	1242.82
409.68	1299.00
409.87	1224.10
410.07	1394.96
410.26	1343.47
410.45	1254.53
410.64	1364.53
410.83	1315.38
411.02	1233.46
411.21	1404.32
411.40	1458.15
411.59	1441.77
411.78	1425.39
411.98	1439.43
412.17	1514.33
412.36	1397.30
412.55	1561.14
412.74	1479.22
412.93	1621.99
413.12	1563.48
413.31	1568.16
413.50	1533.05
413.69	1500.28
413.88	1624.33
414.07	1650.08
414.26	1568.16
414.45	1708.59
414.64	1664.12
414.83	1741.36
415.02	1743.70
415.22	1830.30
415.41	1732.00
415.60	1837.32
415.79	1832.64
415.98	1858.39
416.17	1727.32
416.36	1797.53
416.55	1952.01
416.74	1788.17
416.93	1881.79
417.12	1956.69
417.31	1919.24
417.50	2001.16
417.69	1970.73
417.88	2104.14
418.07	2064.35
418.26	2017.54
418.45	2008.18
418.64	2132.23
418.83	2043.29
419.02	2010.52
419.21	2022.22
419.39	2169.68
419.58	2106.48
419.77	2087.76
419.96	2160.31
420.15	2087.76
420.34	2064.35
420.53	2092.44
420.72	2244.57
420.91	2113.50
421.10	2207.13
421.29	2200.10
421.48	2150.95
421.67	2298.41
421.86	2349.90
422.05	2246.91
422.24	2225.85
422.43	2235.21
422.61	2190.74
422.80	2366.28
422.99	2270.32
423.18	2354.58
423.37	2263.30
423.56	2389.69
423.75	2335.85
423.94	2263.30
424.13	2246.91
424.32	2235.21
424.50	2293.72
424.69	2368.62
424.88	2422.45
425.07	2265.64
425.26	2249.25
425.45	2366.28
425.64	2366.28
425.83	2443.52
426.01	2445.86
426.20	2331.17
426.39	2342.88
426.58	2277.34
426.77	2356.92
426.96	2342.88
427.15	2305.43
427.33	2429.48
427.52	2441.18
427.71	2487.99
427.90	2469.27
428.09	2490.33
428.28	2459.90
428.46	2455.22
428.65	2565.23
428.84	2537.14
429.03	2635.44
429.22	2560.55
429.40	2576.93
429.59	2605.02
429.78	2499.69
429.97	2551.18
430.16	2429.48
430.34	2623.74
430.53	2647.15
430.72	2656.51
430.91	2637.78
431.10	2628.42
431.28	2626.08
431.47	2560.55
431.66	2679.91
431.85	2686.94
432.03	2771.19
432.22	2736.09
432.41	2803.96
432.60	2803.96
432.79	2761.83
432.97	2869.50
433.16	2818.00
433.35	2902.26
433.54	2874.18
433.72	2813.32
433.91	2885.88
434.10	2974.82
434.28	2909.29
434.47	2862.48
434.66	2965.46
434.85	3005.25
435.03	3117.59
435.22	3204.19
435.41	3414.84
435.59	3356.33
435.78	3220.58
435.97	3026.31
436.16	3019.29
436.34	3066.10
436.53	3145.68
436.72	3232.28
436.90	3028.65
437.09	3192.49
437.28	3075.46
437.46	3002.91
437.65	3227.60
437.84	3208.87
438.02	3173.77
438.21	3281.43
438.40	3211.22
438.58	3262.71
438.77	3293.13
438.96	3325.90
439.14	3377.39
439.33	3346.97
439.52	3339.94
439.70	3339.94
439.89	3393.78
440.08	3363.35
440.26	3513.14
440.45	3520.17
440.63	3471.01
440.82	3471.01
441.01	3538.89
441.19	3655.92
441.38	3634.85
441.57	3480.38
441.75	3655.92
441.94	3772.94
442.12	3719.11
442.31	3824.44
442.50	3810.39
442.68	3786.99
442.87	3728.47
443.05	3871.25
443.24	3824.44
443.43	3789.33
443.61	3838.48
443.80	3953.16
443.98	3805.71
444.17	3632.51
444.35	3882.95
444.54	3925.08
444.73	4028.06
444.91	3901.67
445.10	3892.31
445.28	3808.05
445.47	3782.31
445.65	3857.20
445.84	3861.88
446.02	3880.61
446.21	3997.64
446.39	3971.89
446.58	3978.91
446.77	4016.36
446.95	3892.31
447.14	3983.59
447.32	4028.06
447.51	4039.76
447.69	3913.38
447.88	3927.42
448.06	3967.21
448.25	3960.19
448.43	4053.81
448.62	4039.76
448.80	4081.89
448.99	4070.19
449.17	3999.98
449.36	3995.29
449.54	4121.68
449.73	4095.94
449.91	4404.89
450.10	4191.90
450.28	4299.56
450.46	4273.82
450.65	4259.78
450.83	4243.39
451.02	4166.15
451.20	4395.53
451.39	4203.60
451.57	4339.35
451.76	4217.65
451.94	4173.18
452.13	4430.63
452.31	4287.86
452.49	4217.65
452.68	4376.80
452.86	4355.74
453.05	4407.23
453.23	4493.83
453.42	4353.40
453.60	4348.72
453.78	4435.32
453.97	4468.08
454.15	4447.02
454.34	4575.75
454.52	4582.77
454.70	4538.30
454.89	4620.22
455.07	4479.79
455.26	4601.49
455.44	4819.16
455.62	4622.56
455.81	4594.47
455.99	4868.31
456.17	4620.22
456.36	4664.69
456.54	4819.16
456.73	4870.65
456.91	4873.00
457.09	4758.31
457.28	4980.66
457.46	4662.35
457.64	4971.30
457.83	4973.64
458.01	4997.04
458.19	5022.79
458.38	4870.65
458.56	5083.64
458.74	5032.15
458.93	5015.77
459.11	4898.74
459.29	4854.27
459.48	5057.90
459.66	5203.01
459.84	5029.81
460.03	5137.48
460.21	5195.99
460.39	5006.41
460.57	5193.65
460.76	5270.89
460.94	5198.33
461.12	5172.58
461.31	5291.95
461.49	5163.22
461.67	5163.22
461.85	5188.97
462.04	5416.00
462.22	5453.45
462.40	5518.98
462.59	5348.12
462.77	5364.51
462.95	5572.82
463.13	5453.45
463.32	5565.79
463.50	5446.43
463.68	5404.30
463.86	5455.79
464.05	5338.76
464.23	5385.57
464.41	5537.71
464.59	5425.36
464.78	5647.71
464.96	5540.05
465.14	5387.91
465.32	5657.07
465.50	5750.70
465.69	5568.13
465.87	5671.12
466.05	5537.71
466.23	5636.01
466.41	5675.80
466.60	5722.61
466.78	5715.59
466.96	5671.12
467.14	5680.48
467.32	5692.18
467.51	5764.74
467.69	5593.88
467.87	5783.46
468.05	6001.13
468.23	5823.25
468.41	5771.76
468.60	5963.68
468.78	6143.91
468.96	5832.62
469.14	6015.18
469.32	5884.11
469.50	5973.05
469.69	6017.52
469.87	6125.18
470.05	5973.05
470.23	5996.45
470.41	6066.67
470.59	6069.01
470.77	6087.73
470.95	6368.60
471.14	6225.82
471.32	6073.69
471.50	6326.47
471.68	6312.42
471.86	6307.74
472.04	6375.62
472.22	6342.85
472.40	6530.09
472.58	6478.60
472.77	6560.52
472.95	6509.03
473.13	6780.53
473.31	6672.87
473.49	6509.03
473.67	6466.90
473.85	6483.28
474.03	6923.30
474.21	6731.38
474.39	6810.96
474.57	6930.33
474.75	6892.88
474.93	6993.52
475.12	6820.32
475.30	6895.22
475.48	7084.80
475.66	7045.01
475.84	7063.74
476.02	7042.67
476.20	7180.76
476.38	7344.60
476.56	7281.41
476.74	7232.26
476.92	7370.35
477.10	7194.81
477.28	7442.90
477.46	7550.57
477.64	7550.57
477.82	7531.84
478.00	7864.20
478.18	7932.08
478.36	7988.25
478.54	7943.78
478.72	7772.92
478.90	7892.29
479.08	8173.15
479.26	8084.21
479.44	8236.35
479.62	8318.26
479.80	8276.13
479.98	8243.37
480.16	8571.04
480.34	8341.67
480.52	8238.69
480.70	8449.33
480.88	8416.57
481.06	8620.19
481.24	8648.28
481.41	8840.20
481.59	8961.91
481.77	8849.57
481.95	9039.15
482.13	9081.28
482.31	9095.32
482.49	9312.99
482.67	9366.82
482.85	9497.89
483.03	9488.53
483.21	9380.87
483.39	9748.33
483.57	9727.27
483.74	9694.50
483.92	9900.47
484.10	9944.94
484.28	9837.27
484.46	10099.41
484.64	10307.72
484.82	10136.86
485.00	10202.40
485.18	10438.79
485.35	10551.14
485.53	10427.09
485.71	10689.23
485.89	10736.04
486.07	10581.56
486.25	10651.78
486.43	10700.93
486.61	10930.30
486.78	11215.85
486.96	11257.98
487.14	11201.80
487.32	11325.85
487.50	11482.67
487.68	11529.48
487.85	11672.25
488.03	11573.95
488.21	12011.63
488.39	12006.95
488.57	12102.91
488.75	12044.40
488.92	12262.07
489.10	12556.97
489.28	12369.73
489.46	12259.73
489.64	12264.41
489.81	12767.62
489.99	12592.08
490.17	12566.34
490.35	12830.82
490.53	13062.53
490.70	13202.96
490.88	13083.59
491.06	13308.29
491.24	13198.28
491.41	13350.42
491.59	13429.99
491.77	13415.95
491.95	13689.79
492.13	13654.69
492.30	13675.75
492.48	13699.16
492.66	13689.79
492.84	14052.58
493.01	14080.66
493.19	13977.68
493.37	14242.16
493.54	14256.20
493.72	14146.20
493.90	14312.38
494.08	14450.47
494.25	14883.47
494.43	14843.68
494.61	14918.57
494.79	15112.84
494.96	14691.54
495.14	14726.65
495.32	15077.73
495.49	15047.30
495.67	15414.77
495.85	15201.78
496.02	15522.43
496.20	15737.76
496.38	15723.72
496.55	15377.32
496.73	15875.85
496.91	15613.71
497.09	15871.17
497.26	15910.96
497.44	16070.12
497.62	16027.99
497.79	16271.40
497.97	16449.28
498.14	16386.09
498.32	16641.21
498.50	16477.37
498.67	16865.90
498.85	16608.44
499.03	16882.28
499.20	16725.47
499.38	17046.12
499.56	17090.59
499.73	16999.31
499.91	17060.16
500.08	17291.88
500.26	17001.65
500.44	17160.81
500.61	17577.42
500.79	17455.72
500.97	17586.79
501.14	17930.84
501.32	17731.90
501.49	17806.80
501.67	17326.99
501.84	17624.23
502.02	17989.36
502.20	17774.03
502.37	18232.77
502.55	17877.01
502.72	18108.72
502.90	17930.84
503.07	18324.05
503.25	18354.48
503.43	18401.29
503.60	18263.20
503.78	18478.53
503.95	18384.91
504.13	18427.04
504.30	19035.58
504.48	18483.21
504.65	18703.22
504.83	18953.66
505.01	19124.52
505.18	18925.57
505.36	19309.42
505.53	19091.75
505.71	19066.00
505.88	19164.31
506.06	19159.63
506.23	19332.82
506.41	19358.57
506.58	19508.37
506.76	19449.85
506.93	19433.47
507.11	19391.34
507.28	19711.99
507.46	19765.82
507.63	19751.78
507.81	20084.14
507.98	19840.72
508.16	20107.54
508.33	19917.96
508.50	20182.44
508.68	20025.62
508.85	20222.23
509.03	20362.66
509.20	20311.17
509.38	20432.88
509.55	20528.84
509.73	20299.47
509.90	20655.23
510.08	20243.29
510.25	20844.81
510.42	20676.29
510.60	20652.89
510.77	20957.16
510.95	21109.29
511.12	20547.56
511.30	20922.05
511.47	21128.02
511.64	21254.40
511.82	21242.70
511.99	21163.12
512.17	21116.31
512.34	21329.30
512.51	21341.00
512.69	21511.86
512.86	21619.53
513.04	21757.62
513.21	22059.55
513.38	22036.14
513.56	21841.88
513.73	21626.55
513.90	21884.01
514.08	21696.77
514.25	22015.08
514.43	22291.26
514.60	22015.08
514.77	22401.27
514.95	22256.15
515.12	22286.58
515.29	22132.11
515.47	22462.12
515.64	22628.30
515.81	22389.56
515.99	22588.51
516.16	22951.29
516.33	22817.88
516.51	22754.69
516.68	22307.65
516.85	22845.97
517.03	22827.24
517.20	22654.05
517.37	23211.09
517.54	23290.67
517.72	23014.49
517.89	23215.77
518.06	23112.79
518.24	23054.28
518.41	23110.45
518.58	23234.50
518.75	23491.96
518.93	23332.80
519.10	23489.62
519.27	23676.86
519.45	23623.03
519.62	23742.39
519.79	23669.84
519.96	23772.82
520.14	23669.84
520.31	23508.34
520.48	23915.59
520.65	23828.99
520.83	24435.19
521.00	24133.26
521.17	24224.54
521.34	24009.22
521.52	24247.95
521.69	24269.01
521.86	24224.54
522.03	24439.87
522.20	24599.03
522.38	24673.93
522.55	24402.43
522.72	24526.47
522.89	24484.34
523.07	24980.54
523.24	24634.14
523.41	24858.83
523.58	24870.53
523.75	24828.40
523.92	24748.82
524.10	24755.85
524.27	25198.21
524.44	25181.82
524.61	25289.49
524.78	25238.00
524.96	25795.04
525.13	25216.93
525.30	25722.49
525.47	25404.17
525.64	25436.94
525.81	25617.16
525.98	25720.15
526.16	25666.31
526.33	25668.66
526.50	25450.99
526.67	25867.60
526.84	25982.29
527.01	25441.62
527.18	25624.18
527.36	25905.05
527.53	25881.64
527.70	25900.37
527.87	26295.92
528.04	25937.82
528.21	26099.31
528.38	26267.83
528.55	26628.27
528.72	26345.07
528.89	26424.65
529.07	26043.14
529.24	26120.38
529.41	26288.90
529.58	26307.62
529.75	26164.85
529.92	26625.93
530.09	26522.95
530.26	26586.15
530.43	26808.50
530.60	26630.62
530.77	26572.10
530.94	26745.30
531.11	26366.13
531.28	26815.52
531.46	26782.75
531.63	26647.00
531.80	27218.09
531.97	27119.79
532.14	27147.87
532.31	27239.15
532.48	26733.60
532.65	27222.77
532.82	27072.98
532.99	27241.50
533.16	27028.51
533.33	27168.94
533.50	27513.00
533.67	27477.89
533.84	27365.54
534.01	27285.97
534.18	27431.08
534.35	27775.14
534.52	27388.95
534.69	27496.61
534.86	27763.43
535.03	27377.25
535.20	27871.10
535.37	27990.47
535.54	27828.97
535.71	27477.89
535.88	27599.60
536.05	27634.71
536.22	27889.82
536.38	27903.87
536.55	28489.00
536.72	28030.26
536.89	28074.73
537.06	27859.40
537.23	28077.07
537.40	28315.80
537.57	28552.20
537.74	28418.78
537.91	28772.21
538.08	28451.55
538.25	28343.89
538.42	28526.45
538.59	28713.69
538.75	28245.58
538.92	28428.15
539.09	28971.15
539.26	28643.48
539.43	28795.61
539.60	29039.03
539.77	28964.13
539.94	29003.92
540.11	29092.86
540.28	29083.50
540.44	28994.56
540.61	28989.88
540.78	28804.97
540.95	29446.28
541.12	29418.19
541.29	29202.86
541.46	29345.64
541.62	29198.18
541.79	29453.30
541.96	29193.50
542.13	29174.78
542.30	29567.99
542.47	29846.51
542.63	29827.79
542.80	29834.81
542.97	29944.81
543.14	30015.03
543.31	29926.09
543.48	29865.24
543.64	30141.42
543.81	29956.52
543.98	30164.82
544.15	30333.34
544.32	30110.99
544.48	30506.54
544.65	30043.12
544.82	30382.49
544.99	29748.21
545.16	29986.94
545.32	30115.67
545.49	30422.28
545.66	30962.95
545.83	30817.83
546.00	31108.06
546.16	30764.00
546.33	30646.97
546.50	30075.88
546.67	30202.27
546.83	30134.40
547.00	30469.09
547.17	30459.73
547.34	30422.28
547.50	30375.47
547.67	30558.03
547.84	30532.29
548.00	30675.06
548.17	31215.72
548.34	30256.11
548.51	30866.98
548.67	30820.17
548.84	31077.63
549.01	31014.44
549.18	30705.49
549.34	30635.27
549.51	30848.26
549.68	30410.58
549.84	30960.61
550.01	30838.90
550.18	31133.81
550.34	31239.13
550.51	31023.80
550.68	30925.50
550.84	30529.95
551.01	31262.54
551.18	31171.25
551.34	30845.92
551.51	30527.61
551.68	30815.49
551.84	31143.17
552.01	30969.97
552.18	31112.74
552.34	30780.39
552.51	31122.10
552.68	31084.65
552.84	31152.53
553.01	31339.77
553.18	31290.62
553.34	30969.97
553.51	31512.97
553.67	31857.03
553.84	31622.98
554.01	31576.17
554.17	31510.63
554.34	31466.16
554.51	31391.26
554.67	31793.84
554.84	31529.36
555.00	31810.22
555.17	31576.17
555.33	31395.95
555.50	31866.39
555.67	31882.78
555.83	31833.63
556.00	31618.30
556.16	31740.00
556.33	31742.35
556.50	31983.42
556.66	31880.44
556.83	31573.83
556.99	32299.39
557.16	32608.34
557.32	31976.40
557.49	31789.16
557.65	31693.19
557.82	32002.14
557.98	31578.51
558.15	31779.79
558.32	31974.06
558.48	32198.75
558.65	32383.65
558.81	32123.85
558.98	32161.30
559.14	32144.92
559.31	31875.76
559.47	32290.03
559.64	32676.22
559.80	32531.11
559.97	32247.90
560.13	32381.31
560.30	32067.68
560.46	32385.99
560.63	32378.97
560.79	32194.07
560.96	32458.55
561.12	32472.59
561.29	32423.44
561.45	32257.26
561.61	32519.40
561.78	32376.63
561.94	32301.73
562.11	32811.97
562.27	32378.97
562.44	32215.13
562.60	32479.61
562.77	32432.80
562.93	32680.90
563.10	32507.70
563.26	32320.46
563.42	32701.96
563.59	32416.42
563.75	32783.88
563.92	32947.72
564.08	32659.84
564.24	32451.53
564.41	32442.17
564.57	32835.38
564.74	32247.90
564.90	32732.39
565.07	32938.36
565.23	32758.14
565.39	32741.75
565.56	33057.73
565.72	32594.30
565.88	33074.11
566.05	32971.13
566.21	32652.81
566.38	32856.44
566.54	32622.39
566.70	33125.60
566.87	33064.75
567.03	33003.89
567.19	33322.21
567.36	32917.29
567.52	32613.02
567.68	32814.31
567.85	33282.42
568.01	32643.45
568.17	32971.13
568.34	32886.87
568.50	33141.99
568.66	32900.91
568.83	33146.67
568.99	33050.70
569.15	32694.94
569.32	32751.12
569.48	32650.47
569.64	33116.24
569.81	32856.44
569.97	32914.95
570.13	33078.79
570.30	33191.14
570.46	32662.18
570.62	33090.49
570.78	33425.19
570.95	33104.54
571.11	33230.93
571.27	33088.15
571.43	32694.94
571.60	33017.94
571.76	33350.29
571.92	33593.71
572.09	33322.21
572.25	33172.41
572.41	32744.09
572.57	33191.14
572.74	33486.04
572.90	32790.91
573.06	32531.11
573.22	33163.05
573.38	33521.15
573.55	32996.87
573.71	33663.93
573.87	33799.68
574.03	33095.18
574.20	33294.12
574.36	33022.62
574.52	33582.01
574.68	33453.28
574.84	33369.02
575.01	33631.16
575.17	33406.47
575.33	33141.99
575.49	33270.72
575.65	33221.56
575.82	33326.89
575.98	33371.36
576.14	33244.97
576.30	33212.20
576.46	33521.15
576.62	33511.79
576.79	33605.41
576.95	33167.73
577.11	33390.08
577.27	33507.11
577.43	33193.48
577.59	33427.53
577.75	33397.10
577.92	33251.99
578.08	33113.90
578.24	33207.52
578.40	33624.14
578.56	33401.79
578.72	33352.63
578.88	33968.19
579.04	33958.83
579.21	33701.37
579.37	33364.34
579.53	33692.01
579.69	33626.48
579.85	33343.27
580.01	33612.43
580.17	33509.45
580.33	33558.60
580.49	33605.41
580.65	33336.25
580.82	33773.93
580.98	33420.51
581.14	33490.73
581.30	33462.64
581.46	33333.91
581.62	33743.50
581.78	33282.42
581.94	33429.87
582.10	33420.51
582.26	33633.50
582.42	33701.37
582.58	33816.06
582.74	33755.21
582.90	33670.95
583.06	33949.47
583.22	33153.69
583.38	33792.65
583.54	33745.84
583.70	33567.96
583.86	33464.98
584.02	33703.71
584.18	33720.10
584.34	33858.19
584.50	33802.02
584.66	33621.80
584.82	33689.67
584.98	33848.83
585.14	33378.38
585.30	33521.15
585.46	33855.85
585.62	33731.80
585.78	33560.94
585.94	33593.71
586.10	33291.78
586.26	33415.83
586.42	34022.03
586.58	34167.14
586.74	33619.46
586.90	33364.34
587.06	33216.88
587.22	34277.15
587.38	33165.39
587.54	33834.78
587.70	33687.33
587.86	33617.11
588.02	34115.65
588.18	34136.71
588.34	33385.40
588.49	33844.15
588.65	33312.84
588.81	34333.32
588.97	33947.13
589.13	33816.06
589.29	33947.13
589.45	33645.20
589.61	34206.93
589.77	33982.24
589.93	34080.54
590.08	34380.13
590.24	34160.12
590.40	33970.54
590.56	34314.59
590.72	34117.99
590.88	33921.38
591.04	33677.97
591.20	34244.38
591.35	34005.64
591.51	34412.90
