SpectraSuite Data File
++++++++++++++++++++++++++++++++++++
Date: Fri Oct 04 11:39:21 GMT-05:00 2013
User: price-jones
Dark Spectrum Present: No
Reference Spectrum Present: No
Number of Sampled Component Spectra: 1
Spectrometers: USB2+H05261
Integration Time (usec): 100000 (USB2+H05261)
Spectra Averaged: 1 (USB2+H05261)
Boxcar Smoothing: 0 (USB2+H05261)
Correct for Electrical Dark: No (USB2+H05261)
Strobe/Lamp Enabled: No (USB2+H05261)
Correct for Detector Non-linearity: No (USB2+H05261)
Correct for Stray Light: No (USB2+H05261)
Number of Pixels in Processed Spectrum: 2048
>>>>>Begin Processed Spectral Data<<<<<
365.73	77.24
365.92	77.24
366.12	77.24
366.32	37.45
366.52	0.00
366.72	0.00
366.91	0.00
367.11	0.00
367.31	0.00
367.51	0.00
367.70	0.00
367.90	0.00
368.10	0.00
368.30	0.00
368.49	0.00
368.69	14.04
368.89	18.72
369.09	0.00
369.28	0.00
369.48	4.68
369.68	14.04
369.87	0.00
370.07	7.02
370.27	46.81
370.47	91.28
370.66	163.84
370.86	198.95
371.06	341.72
371.25	299.59
371.45	318.31
371.65	341.72
371.84	264.48
372.04	313.63
372.24	353.42
372.44	266.82
372.63	332.36
372.83	440.02
373.03	395.55
373.22	287.89
373.42	334.70
373.62	372.15
373.81	430.66
374.01	332.36
374.21	388.53
374.40	325.33
374.60	397.89
374.79	334.70
374.99	346.40
375.19	376.83
375.38	444.70
375.58	390.87
375.78	425.98
375.97	383.85
376.17	379.17
376.37	320.65
376.56	456.40
376.76	362.78
376.95	404.91
377.15	374.49
377.35	414.27
377.54	355.76
377.74	418.96
377.93	367.46
378.13	444.70
378.33	374.49
378.52	388.53
378.72	400.23
378.91	358.10
379.11	402.57
379.31	493.85
379.50	468.11
379.70	433.00
379.89	418.96
380.09	449.38
380.28	517.26
380.48	498.53
380.68	463.43
380.87	397.89
381.07	458.74
381.26	505.56
381.46	498.53
381.65	418.96
381.85	470.45
382.04	519.60
382.24	463.43
382.43	482.15
382.63	447.04
382.83	468.11
383.02	561.73
383.22	554.71
383.41	531.30
383.61	538.32
383.80	585.13
384.00	484.49
384.19	547.69
384.39	486.83
384.58	524.28
384.78	498.53
384.97	470.45
385.17	482.15
385.36	456.40
385.56	557.05
385.75	484.49
385.95	582.79
386.14	547.69
386.34	561.73
386.53	444.70
386.72	535.98
386.92	521.94
387.11	589.82
387.31	596.84
387.50	594.50
387.70	519.60
387.89	575.77
388.09	620.24
388.28	589.82
388.48	571.09
388.67	631.94
388.86	596.84
389.06	683.44
389.25	587.47
389.45	571.09
389.64	545.34
389.84	723.23
390.03	631.94
390.22	720.88
390.42	678.76
390.61	650.67
390.81	627.26
391.00	725.57
391.19	678.76
391.39	695.14
391.58	622.58
391.78	688.12
391.97	667.05
392.16	685.78
392.36	737.27
392.55	657.69
392.75	725.57
392.94	692.80
393.13	765.36
393.33	699.82
393.52	746.63
393.71	669.39
393.91	842.59
394.10	814.51
394.29	692.80
394.49	814.51
394.68	854.30
394.88	805.14
395.07	814.51
395.26	706.84
395.46	805.14
395.65	901.11
395.84	800.46
396.04	896.43
396.23	798.12
396.42	868.34
396.62	847.27
396.81	870.68
397.00	873.02
397.19	877.70
397.39	898.77
397.58	866.00
397.77	947.92
397.97	849.61
398.16	889.40
398.35	1116.44
398.55	968.98
398.74	936.21
398.93	983.02
399.12	915.15
399.32	990.05
399.51	1025.15
399.70	964.30
399.90	1107.07
400.09	1057.92
400.28	1156.22
400.47	1013.45
400.67	1036.86
400.86	1090.69
401.05	1083.67
401.24	1111.75
401.44	1067.28
401.63	1053.24
401.82	1093.03
402.01	1130.48
402.21	1231.12
402.40	1259.21
402.59	1170.27
402.78	1153.88
402.97	1184.31
403.17	1238.14
403.36	1198.35
403.55	1135.16
403.74	1294.32
403.93	1273.25
404.13	1380.92
404.32	1331.76
404.51	1383.26
404.70	1228.78
404.89	1289.64
405.09	1280.27
405.28	1306.02
405.47	1256.87
405.66	1420.71
405.85	1432.41
406.05	1413.68
406.24	1385.60
406.43	1556.46
406.62	1460.49
406.81	1455.81
407.00	1427.73
407.20	1439.43
407.39	1540.07
407.58	1577.52
407.77	1483.90
407.96	1591.56
408.15	1561.14
408.34	1486.24
408.54	1603.27
408.73	1624.33
408.92	1575.18
409.11	1540.07
409.30	1570.50
409.49	1710.93
409.68	1680.50
409.87	1647.74
410.07	1734.34
410.26	1685.19
410.45	1722.63
410.64	1820.94
410.83	1921.58
411.02	1811.57
411.21	1839.66
411.40	2022.22
411.59	1870.09
411.78	1842.00
411.98	1813.92
412.17	1886.47
412.36	1830.30
412.55	2139.25
412.74	2069.03
412.93	2104.14
413.12	1930.94
413.31	2209.47
413.50	2174.36
413.69	2179.04
413.88	2216.49
414.07	2242.23
414.26	2267.98
414.45	2132.23
414.64	2321.81
414.83	2314.79
415.02	2272.66
415.22	2366.28
415.41	2551.18
415.60	2483.31
415.79	2415.43
415.98	2448.20
416.17	2368.62
416.36	2438.84
416.55	2492.67
416.74	2452.88
416.93	2462.24
417.12	2602.68
417.31	2605.02
417.50	2546.50
417.69	2750.13
417.88	2745.45
418.07	2651.83
418.26	2682.25
418.45	2684.59
418.64	2782.90
418.83	2810.98
419.02	2832.05
419.21	2857.79
419.39	2705.66
419.58	2796.94
419.77	2829.71
419.96	2857.79
420.15	3112.91
420.34	2895.24
420.53	2981.84
420.72	3098.87
420.91	3012.27
421.10	2958.44
421.29	3059.08
421.48	3052.06
421.67	3033.33
421.86	3047.38
422.05	3162.06
422.24	3038.02
422.43	3030.99
422.61	3213.56
422.80	3066.10
422.99	3094.19
423.18	3267.39
423.37	3253.34
423.56	3131.64
423.75	3260.37
423.94	3131.64
424.13	3054.40
424.32	3075.46
424.50	3166.74
424.69	3222.92
424.88	3215.90
425.07	3201.85
425.26	3166.74
425.45	3136.32
425.64	3295.47
425.83	3297.81
426.01	3396.12
426.20	3243.98
426.39	3206.53
426.58	3229.94
426.77	3311.86
426.96	3342.28
427.15	3314.20
427.33	3302.50
427.52	3265.05
427.71	3314.20
427.90	3353.99
428.09	3346.97
428.28	3400.80
428.46	3503.78
428.65	3492.08
428.84	3501.44
429.03	3728.47
429.22	3576.34
429.40	3534.21
429.59	3604.42
429.78	3529.53
429.97	3353.99
430.16	3449.95
430.34	3569.32
430.53	3597.40
430.72	3559.95
430.91	3623.15
431.10	3632.51
431.28	3606.77
431.47	3740.18
431.66	3843.16
431.85	3859.54
432.03	3908.69
432.22	4053.81
432.41	3875.93
432.60	3693.37
432.79	3920.40
432.97	3831.46
433.16	3962.53
433.35	3887.63
433.54	3904.01
433.72	3838.48
433.91	3911.04
434.10	3981.25
434.28	3873.59
434.47	4077.21
434.66	4046.79
434.85	4217.65
435.03	4140.41
435.22	4423.61
435.41	4667.03
435.59	4533.62
435.78	4456.38
435.97	4334.67
436.16	4395.53
436.34	4187.22
436.53	4215.30
436.72	4533.62
436.90	4379.14
437.09	4379.14
437.28	4332.33
437.46	4362.76
437.65	4341.69
437.84	4322.97
438.02	4241.05
438.21	4465.74
438.40	4498.51
438.58	4477.44
438.77	4573.41
438.96	4503.19
439.14	4634.26
439.33	4695.11
439.52	4947.89
439.70	4830.87
439.89	4737.24
440.08	4695.11
440.26	4889.38
440.45	4655.33
440.63	4896.40
440.82	4929.17
441.01	4835.55
441.19	5055.56
441.38	5116.41
441.57	5041.51
441.75	5057.90
441.94	5193.65
442.12	5165.56
442.31	5212.37
442.50	5200.67
442.68	5111.73
442.87	5160.88
443.05	5446.43
443.24	5348.12
443.43	5149.18
443.61	5474.51
443.80	5575.16
443.98	5198.33
444.17	5249.82
444.35	5383.23
444.54	5289.61
444.73	5547.07
444.91	5378.55
445.10	5518.98
445.28	5268.55
445.47	5345.78
445.65	5427.70
445.84	5455.79
446.02	5448.77
446.21	5502.60
446.39	5432.38
446.58	5558.77
446.77	5547.07
446.95	5364.51
447.14	5631.33
447.32	5526.00
447.51	5521.32
447.69	5481.53
447.88	5497.92
448.06	5596.22
448.25	5467.49
448.43	5692.18
448.62	5526.00
448.80	5467.49
448.99	5776.44
449.17	5558.77
449.36	5671.12
449.54	5692.18
449.73	5792.83
449.91	5643.03
450.10	5909.85
450.28	5884.11
450.46	6050.28
450.65	5930.92
450.83	6057.31
451.02	5823.25
451.20	5982.41
451.39	6001.13
451.57	6047.94
451.76	5849.00
451.94	6078.37
452.13	6143.91
452.31	6066.67
452.49	6108.80
452.68	5996.45
452.86	6085.39
453.05	6183.70
453.23	6073.69
453.42	6031.56
453.60	6127.52
453.78	6078.37
453.97	6059.65
454.15	6333.49
454.34	6296.04
454.52	6340.51
454.70	6420.09
454.89	6134.54
455.07	6497.33
455.26	6466.90
455.44	6506.69
455.62	6370.94
455.81	6455.20
455.99	6345.19
456.17	6406.05
456.36	6530.09
456.54	6647.12
456.73	6689.25
456.91	6836.70
457.09	6801.60
457.28	6892.88
457.46	6707.98
457.64	6951.39
457.83	6724.36
458.01	6874.15
458.19	6876.49
458.38	6916.28
458.56	6944.37
458.74	6946.71
458.93	6874.15
459.11	7115.23
459.29	7096.50
459.48	7140.97
459.66	7000.54
459.84	7267.36
460.03	7173.74
460.21	7089.48
460.39	7094.16
460.57	7040.33
460.76	7213.53
460.94	7267.36
461.12	7426.52
461.31	7433.54
461.49	7197.15
461.67	7232.26
461.85	7485.03
462.04	7475.67
462.22	7960.16
462.40	7494.40
462.59	7403.11
462.77	7531.84
462.95	7485.03
463.13	7428.86
463.32	7522.48
463.50	7468.65
463.68	7613.76
463.86	7569.29
464.05	7585.68
464.23	7709.72
464.41	7747.17
464.59	7552.91
464.78	7918.03
464.96	7971.86
465.14	7686.32
465.32	7691.00
465.50	7939.10
465.69	8021.02
465.87	7833.77
466.05	7784.62
466.23	7695.68
466.41	8016.33
466.60	8053.78
466.78	7887.61
466.96	7850.16
467.14	7782.28
467.32	8067.83
467.51	8053.78
467.69	7850.16
467.87	7957.82
468.05	7997.61
468.23	7953.14
468.41	8079.53
468.60	8149.75
468.78	8252.73
468.96	8128.68
469.14	8276.13
469.32	8428.27
469.50	8030.38
469.69	8177.83
469.87	8449.33
470.05	8622.53
470.23	8311.24
470.41	8418.91
470.59	8692.75
470.77	8498.49
470.95	8667.00
471.14	8526.57
471.32	8404.86
471.50	8774.67
471.68	8791.05
471.86	8769.99
472.04	8861.27
472.22	8971.27
472.40	8674.03
472.58	8997.02
472.77	9029.79
472.95	9284.91
473.13	9469.81
473.31	9102.34
473.49	9198.31
473.67	9146.81
473.85	9184.26
474.03	9390.23
474.21	9392.57
474.39	9427.68
474.57	9715.56
474.75	9598.54
474.93	9628.96
475.12	9523.64
475.30	9617.26
475.48	9748.33
475.66	9724.93
475.84	9743.65
476.02	10029.20
476.20	9949.62
476.38	10417.72
476.56	10284.31
476.74	10228.14
476.92	10239.84
477.10	10242.18
477.28	10693.91
477.46	10469.22
477.64	10450.49
477.82	10787.53
478.00	10729.02
478.18	10937.32
478.36	10995.84
478.54	11033.29
478.72	11026.26
478.90	11059.03
479.08	11550.54
479.26	11477.99
479.44	11513.10
479.62	11365.64
479.80	11793.96
479.98	11669.91
480.16	11892.26
480.34	11623.10
480.52	12138.02
480.70	12093.55
480.88	11819.71
481.06	11957.80
481.24	12098.23
481.41	12556.97
481.59	12383.77
481.77	12393.14
481.95	12758.26
482.13	12524.21
482.31	12861.24
482.49	12784.01
482.67	12943.16
482.85	13032.10
483.03	13238.07
483.21	13418.29
483.39	13390.20
483.57	13523.62
483.74	13448.72
483.92	13687.45
484.10	13785.76
484.28	14125.13
484.46	13965.98
484.64	14459.83
484.82	14115.77
485.00	14047.90
485.18	14778.14
485.35	14911.55
485.53	14794.53
485.71	14733.67
485.89	14979.43
486.07	15126.88
486.25	15342.21
486.43	15269.66
486.61	15482.64
486.78	15510.73
486.96	15627.76
487.14	16086.50
487.32	15728.40
487.50	16102.89
487.68	15990.54
487.85	16205.87
488.03	16479.71
488.21	16711.42
488.39	16791.00
488.57	16737.17
488.75	17067.19
488.92	17071.87
489.10	17233.36
489.28	17296.56
489.46	17343.37
489.64	17294.22
489.81	17900.42
489.99	17734.24
490.17	17624.23
490.35	18265.54
490.53	18265.54
490.70	18092.34
490.88	18333.42
491.06	18445.76
491.24	18534.70
491.41	18600.24
491.59	18796.84
491.77	18853.02
491.95	19119.84
492.13	19035.58
492.30	19454.53
492.48	19302.40
492.66	19381.98
492.84	19541.13
493.01	19330.48
493.19	19566.88
493.37	19756.46
493.54	19917.96
493.72	20051.37
493.90	19995.20
494.08	20372.02
494.25	20510.11
494.43	20760.55
494.61	20912.69
494.79	21113.97
494.96	20582.67
495.14	21125.68
495.32	21254.40
495.49	21219.30
495.67	21570.38
495.85	21535.27
496.02	21858.26
496.20	21781.03
496.38	22075.93
496.55	21991.67
496.73	22661.07
496.91	22412.97
497.09	22602.55
497.26	22600.21
497.44	22427.01
497.62	22726.60
497.79	22953.63
497.97	22787.46
498.14	23250.88
498.32	22876.40
498.50	23075.34
498.67	23328.12
498.85	23035.55
499.03	23620.69
499.20	23686.22
499.38	23826.65
499.56	23974.11
499.73	23597.28
499.91	24205.82
500.08	24156.67
500.26	24123.90
500.44	23847.72
500.61	24058.37
500.79	24149.65
500.97	24687.97
501.14	24837.76
501.32	24816.70
501.49	24744.14
501.67	24842.45
501.84	24936.07
502.02	24943.09
502.20	25008.62
502.37	25319.92
502.55	25294.17
502.72	25446.30
502.90	25455.67
503.07	25568.01
503.25	25556.31
503.43	25420.56
503.60	25773.98
503.78	25781.00
503.95	25813.77
504.13	25930.80
504.30	26143.78
504.48	26331.03
504.65	26253.79
504.83	26429.33
505.01	26614.23
505.18	26515.93
505.36	27157.24
505.53	26656.36
505.71	26726.58
505.88	26876.37
506.06	26859.99
506.23	27110.43
506.41	26939.57
506.58	27012.12
506.76	27089.36
506.93	27613.64
507.11	27110.43
507.28	27697.90
507.46	27585.55
507.63	27782.16
507.81	27728.33
507.98	27508.32
508.16	27789.18
508.33	28121.54
508.50	28151.96
508.68	28463.25
508.85	28568.58
509.03	28472.62
509.20	28224.52
509.38	29027.32
509.55	28826.04
509.73	28690.29
509.90	28788.59
510.08	28683.27
510.25	29062.43
510.42	28734.76
510.60	29270.74
510.77	29404.15
510.95	29399.47
511.12	29149.03
511.30	29069.45
511.47	29551.60
511.64	29710.76
511.82	29888.64
511.99	29710.76
512.17	29982.26
512.34	30026.73
512.51	29972.90
512.69	29797.36
512.86	29881.62
513.04	30202.27
513.21	30866.98
513.38	30728.89
513.56	30321.64
513.73	30431.65
513.90	30387.18
514.08	30883.37
514.25	30646.97
514.43	30794.43
514.60	31044.87
514.77	31192.32
514.95	31407.65
515.12	30689.10
515.29	31133.81
515.47	30883.37
515.64	31257.85
515.81	31496.59
515.99	31503.61
516.16	31562.12
516.33	31653.40
516.51	32283.01
516.68	31777.45
516.85	31370.20
517.03	32189.39
517.20	32446.85
517.37	31992.78
517.54	32273.65
517.72	32264.28
517.89	32456.21
518.06	32278.33
518.24	32168.32
518.41	32540.47
518.58	32636.43
518.75	32739.41
518.93	33003.89
519.10	33095.18
519.27	32748.78
519.45	32472.59
519.62	33125.60
519.79	32999.21
519.96	33027.30
520.14	33572.64
520.31	33146.67
520.48	33530.51
520.65	33516.47
520.83	33518.81
521.00	33895.64
521.17	33439.23
521.34	33970.54
521.52	33706.05
521.69	33670.95
521.86	34064.16
522.03	34106.29
522.20	34029.05
522.38	34574.39
522.55	34391.83
522.72	34068.84
522.89	34092.24
523.07	34651.63
523.24	34644.61
523.41	34574.39
523.58	34349.70
523.75	34536.94
523.92	35002.71
524.10	34534.60
524.27	34986.33
524.44	35005.05
524.61	35388.90
524.78	35225.06
524.96	35634.66
525.13	34941.86
525.30	35185.27
525.47	35477.84
525.64	35669.76
525.81	36098.08
525.98	35580.82
526.16	35894.46
526.33	35449.75
526.50	36149.57
526.67	35510.61
526.84	35325.71
527.01	35882.75
527.18	36051.27
527.36	36467.89
527.53	35995.10
527.70	36458.52
527.87	36346.18
528.04	36294.69
528.21	36268.94
528.38	36570.87
528.55	36381.29
528.72	36070.00
528.89	36512.36
529.07	36535.76
529.24	36886.84
529.41	36538.10
529.58	36886.84
529.75	36680.88
529.92	36741.73
530.09	36877.48
530.26	36781.52
530.43	37308.14
530.60	37092.81
530.77	37296.44
530.94	37347.93
531.11	37120.90
531.28	37144.30
531.46	37074.09
531.63	37724.75
531.80	37432.19
531.97	37900.29
532.14	37507.08
532.31	37841.78
532.48	37565.60
532.65	37900.29
532.82	37572.62
532.99	37853.48
533.16	37771.57
533.33	38012.64
533.50	38347.34
533.67	37944.76
533.84	38141.37
534.01	38277.12
534.18	38225.63
534.35	38134.35
534.52	38115.62
534.69	38862.26
534.86	38890.34
535.03	38637.56
535.20	39007.37
535.37	38607.14
535.54	38340.32
535.71	38700.76
535.88	38579.05
536.05	38632.88
536.22	38892.68
536.38	38834.17
536.55	38962.90
536.72	38880.98
536.89	38911.41
537.06	38890.34
537.23	39173.55
537.40	39143.12
537.57	38998.01
537.74	38707.78
537.91	39257.81
538.08	39807.83
538.25	39180.57
538.42	39480.16
538.59	39817.19
538.75	38941.83
538.92	39236.74
539.09	39985.71
539.26	39770.38
539.43	39447.39
539.60	39842.94
539.77	39887.41
539.94	40437.44
540.11	39754.00
540.28	40105.08
540.44	40580.21
540.61	40004.44
540.78	40030.18
540.95	40521.69
541.12	40517.01
541.29	40554.46
541.46	40844.69
541.62	40418.71
541.79	40755.75
541.96	40465.52
542.13	40760.43
542.30	40762.77
542.47	41113.85
542.63	41125.55
542.80	41092.79
542.97	41478.97
543.14	41329.18
543.31	41404.08
543.48	40989.80
543.64	42045.38
543.81	41853.46
543.98	41708.35
544.15	41972.83
544.32	41521.10
544.48	41900.27
544.65	41879.21
544.82	41804.31
544.99	41319.82
545.16	41694.30
545.32	41579.62
545.49	42799.04
545.66	42749.88
545.83	43100.97
546.00	42946.49
546.16	42600.09
546.33	41958.78
546.50	41663.88
546.67	41808.99
546.83	41539.83
547.00	41888.57
547.17	41757.50
547.34	42155.39
547.50	42232.63
547.67	42167.09
547.84	42447.96
548.00	42478.38
548.17	42820.10
548.34	42216.24
548.51	42424.55
548.67	42263.05
548.84	42408.17
549.01	42590.73
549.18	42241.99
549.34	42337.95
549.51	42515.83
549.68	42462.00
549.84	42246.67
550.01	42721.80
550.18	42459.66
550.34	42682.01
550.51	42693.71
550.68	43199.27
550.84	42398.80
551.01	42777.97
551.18	42763.93
551.34	42567.32
551.51	42932.45
551.68	42841.17
551.84	42717.12
552.01	43166.50
552.18	43234.38
552.34	42997.98
552.51	42887.98
552.68	42979.26
552.84	43194.59
553.01	43613.54
553.18	43100.97
553.34	43281.19
553.51	42958.19
553.67	43466.09
553.84	43246.08
554.01	43683.76
554.17	43599.50
554.34	43056.50
554.51	42707.76
554.67	43583.12
554.84	43669.72
555.00	43110.33
555.17	43505.88
555.33	43765.68
555.50	43473.11
555.67	43335.02
555.83	43721.21
556.00	43599.50
556.16	43952.92
556.33	43662.69
556.50	43824.19
556.66	43906.11
556.83	43711.84
556.99	43959.94
557.16	43854.62
557.32	43887.39
557.49	44196.34
557.65	43749.29
557.82	43756.32
557.98	43920.15
558.15	43707.16
558.32	44151.87
558.48	43962.28
558.65	43840.57
558.81	44273.57
558.98	44032.50
559.14	43966.96
559.31	43889.73
559.47	44051.22
559.64	44055.90
559.80	43976.33
559.97	44552.10
560.13	44086.33
560.30	43983.35
560.46	44409.32
560.63	44439.75
560.79	44002.07
560.96	44582.52
561.12	43981.01
561.29	44685.51
561.45	44271.23
561.61	44713.59
561.78	44631.68
561.94	44414.01
562.11	45048.29
562.27	44767.43
562.44	44512.31
562.60	43959.94
562.77	44498.26
562.93	44229.10
563.10	45165.32
563.26	44619.97
563.42	44814.24
563.59	44753.38
563.75	44729.98
563.92	44755.72
564.08	44624.65
564.24	44388.26
564.41	44540.39
564.57	44535.71
564.74	44755.72
564.90	44924.24
565.07	44921.90
565.23	44762.75
565.39	45043.61
565.56	44917.22
565.72	45130.21
565.88	44905.52
566.05	44893.82
566.21	44959.35
566.38	44825.94
566.54	44655.08
566.70	45209.79
566.87	45296.39
567.03	44863.39
567.19	45006.16
567.36	44626.99
567.52	44772.11
567.68	45003.82
567.85	44624.65
568.01	44467.84
568.17	44959.35
568.34	45123.19
568.50	44884.45
568.66	44800.19
568.83	45153.62
568.99	45006.16
569.15	44952.33
569.32	44910.20
569.48	44708.91
569.64	45179.36
569.81	44818.92
569.97	45127.87
570.13	45265.96
570.30	45544.48
570.46	45338.52
570.62	44954.67
570.78	44910.20
570.95	44811.90
571.11	44954.67
571.27	44685.51
571.43	44624.65
571.60	44903.18
571.76	45523.42
571.92	45214.47
572.09	44978.07
572.25	45439.16
572.41	45092.76
572.57	45357.24
572.74	45734.07
572.90	44839.98
573.06	45284.68
573.22	45322.13
573.38	45750.45
573.55	45214.47
573.71	45713.00
573.87	45453.20
574.03	45617.04
574.20	45361.92
574.36	45340.86
574.52	45808.96
574.68	45071.70
574.84	45364.26
575.01	45247.24
575.17	45521.08
575.33	45284.68
575.49	45366.60
575.65	45106.80
575.82	45619.38
575.98	45272.98
576.14	45331.50
576.30	45354.90
576.46	45713.00
576.62	45322.13
576.79	45769.18
576.95	45563.21
577.11	45525.76
577.27	45745.77
577.43	45738.75
577.59	45439.16
577.75	45483.63
577.92	45146.59
578.08	45045.95
578.24	44762.75
578.40	45219.15
578.56	45710.66
578.72	45876.84
578.88	46167.07
579.04	46026.63
579.21	45771.52
579.37	45724.71
579.53	45357.24
579.69	45507.04
579.85	45834.71
580.01	45371.28
580.17	45268.30
580.33	45579.59
580.49	45736.41
580.65	45556.19
580.82	45635.77
580.98	45783.22
581.14	45743.43
581.30	45366.60
581.46	45600.66
581.62	45724.71
581.78	45256.60
581.94	45574.91
582.10	45296.39
582.26	45408.73
582.42	45607.68
582.58	46253.67
582.74	45453.20
582.90	45291.71
583.06	45918.97
583.22	45752.79
583.38	45530.44
583.54	45778.54
583.70	45684.92
583.86	45979.82
584.02	45329.16
584.18	46038.34
584.34	45560.87
584.50	45769.18
584.66	45591.30
584.82	45572.57
584.98	45357.24
585.14	45420.44
585.30	45265.96
585.46	45872.16
585.62	45713.00
585.78	45696.62
585.94	45846.41
586.10	45942.38
586.26	46122.60
586.42	46014.93
586.58	46115.58
586.74	45698.96
586.90	45790.24
587.06	45563.21
587.22	46026.63
587.38	45610.02
587.54	45872.16
587.70	45661.51
587.86	45862.80
588.02	45883.86
588.18	46281.75
588.34	46057.06
588.49	46021.95
588.65	45792.58
588.81	45776.20
588.97	45844.07
589.13	46038.34
589.29	45909.61
589.45	46148.34
589.61	45975.14
589.77	46227.92
589.93	46052.38
590.08	46302.82
590.24	46155.36
590.40	46164.73
590.56	46157.70
590.72	46131.96
590.88	45815.99
