SpectraSuite Data File
++++++++++++++++++++++++++++++++++++
Date: Fri Oct 04 11:39:50 GMT-05:00 2013
User: price-jones
Dark Spectrum Present: No
Reference Spectrum Present: No
Number of Sampled Component Spectra: 1
Spectrometers: USB2+H05261
Integration Time (usec): 100000 (USB2+H05261)
Spectra Averaged: 1 (USB2+H05261)
Boxcar Smoothing: 0 (USB2+H05261)
Correct for Electrical Dark: No (USB2+H05261)
Strobe/Lamp Enabled: No (USB2+H05261)
Correct for Detector Non-linearity: No (USB2+H05261)
Correct for Stray Light: No (USB2+H05261)
Number of Pixels in Processed Spectrum: 2048
>>>>>Begin Processed Spectral Data<<<<<
365.73	142.77
365.92	142.77
366.12	142.77
366.32	21.06
366.52	0.00
366.72	0.00
366.91	0.00
367.11	0.00
367.31	0.00
367.51	0.00
367.70	0.00
367.90	0.00
368.10	0.00
368.30	0.00
368.49	0.00
368.69	0.00
368.89	0.00
369.09	0.00
369.28	0.00
369.48	0.00
369.68	0.00
369.87	28.09
370.07	0.00
370.27	65.54
370.47	70.22
370.66	0.00
370.86	51.49
371.06	128.73
371.25	203.63
371.45	46.81
371.65	175.54
371.84	42.13
372.04	74.90
372.24	119.37
372.44	191.92
372.63	128.73
372.83	131.07
373.03	126.39
373.22	67.88
373.42	147.45
373.62	203.63
373.81	166.18
374.01	149.79
374.21	133.41
374.40	126.39
374.60	135.75
374.79	180.22
374.99	133.41
375.19	180.22
375.38	168.52
375.58	212.99
375.78	156.82
375.97	166.18
376.17	203.63
376.37	152.13
376.56	126.39
376.76	117.03
376.95	142.77
377.15	194.26
377.35	173.20
377.54	107.66
377.74	142.77
377.93	119.37
378.13	170.86
378.33	161.50
378.52	175.54
378.72	196.60
378.91	170.86
379.11	135.75
379.31	131.07
379.50	161.50
379.70	184.90
379.89	210.65
380.09	203.63
380.28	140.43
380.48	201.29
380.68	124.05
380.87	161.50
381.07	177.88
381.26	187.24
381.46	147.45
381.65	255.12
381.85	93.62
382.04	210.65
382.24	138.09
382.43	112.35
382.63	95.96
382.83	142.77
383.02	124.05
383.22	184.90
383.41	156.82
383.61	175.54
383.80	88.94
384.00	182.56
384.19	173.20
384.39	124.05
384.58	175.54
384.78	198.95
384.97	234.05
385.17	189.58
385.36	175.54
385.56	145.11
385.75	119.37
385.95	145.11
386.14	133.41
386.34	166.18
386.53	133.41
386.72	161.50
386.92	217.67
387.11	201.29
387.31	173.20
387.50	208.31
387.70	180.22
387.89	166.18
388.09	182.56
388.28	133.41
388.48	105.32
388.67	149.79
388.86	182.56
389.06	173.20
389.25	201.29
389.45	72.56
389.64	234.05
389.84	180.22
390.03	224.69
390.22	184.90
390.42	182.56
390.61	156.82
390.81	142.77
391.00	210.65
391.19	236.39
391.39	133.41
391.58	238.73
391.78	220.01
391.97	191.92
392.16	65.54
392.36	170.86
392.55	154.48
392.75	236.39
392.94	189.58
393.13	182.56
393.33	180.22
393.52	222.35
393.71	273.84
393.91	180.22
394.10	177.88
394.29	208.31
394.49	205.97
394.68	299.59
394.88	278.52
395.07	285.55
395.26	243.42
395.46	269.16
395.65	313.63
395.84	262.14
396.04	341.72
396.23	189.58
396.42	210.65
396.62	196.60
396.81	259.80
397.00	334.70
397.19	168.52
397.39	250.44
397.58	259.80
397.77	220.01
397.97	241.08
398.16	276.18
398.35	241.08
398.55	217.67
398.74	205.97
398.93	250.44
399.12	248.10
399.32	276.18
399.51	266.82
399.70	304.27
399.90	297.25
400.09	271.50
400.28	318.31
400.47	308.95
400.67	320.65
400.86	264.48
401.05	280.86
401.24	325.33
401.44	383.85
401.63	297.25
401.82	241.08
402.01	330.02
402.21	287.89
402.40	276.18
402.59	369.80
402.78	325.33
402.97	376.83
403.17	334.70
403.36	325.33
403.55	330.02
403.74	411.93
403.93	362.78
404.13	454.06
404.32	461.09
404.51	397.89
404.70	402.57
404.89	423.64
405.09	435.34
405.28	322.99
405.47	362.78
405.66	395.55
405.85	440.02
406.05	451.72
406.24	430.66
406.43	423.64
406.62	444.70
406.81	421.30
407.00	503.22
407.20	477.47
407.39	447.04
407.58	463.43
407.77	477.47
407.96	519.60
408.15	528.96
408.34	484.49
408.54	486.83
408.73	477.47
408.92	482.15
409.11	512.58
409.30	533.64
409.49	575.77
409.68	442.36
409.87	559.39
410.07	477.47
410.26	528.96
410.45	622.58
410.64	500.87
410.83	568.75
411.02	627.26
411.21	528.96
411.40	573.43
411.59	596.84
411.78	653.01
411.98	664.71
412.17	674.07
412.36	641.31
412.55	540.66
412.74	582.79
412.93	713.86
413.12	704.50
413.31	774.72
413.50	688.12
413.69	685.78
413.88	725.57
414.07	737.27
414.26	704.50
414.45	741.95
414.64	730.25
414.83	713.86
415.02	770.04
415.22	798.12
415.41	802.80
415.60	809.83
415.79	802.80
415.98	849.61
416.17	765.36
416.36	758.33
416.55	840.25
416.74	784.08
416.93	774.72
417.12	819.19
417.31	819.19
417.50	837.91
417.69	1022.81
417.88	858.98
418.07	919.83
418.26	882.38
418.45	896.43
418.64	877.70
418.83	908.13
419.02	894.08
419.21	943.24
419.39	943.24
419.58	924.51
419.77	887.06
419.96	917.49
420.15	1032.18
420.34	896.43
420.53	926.85
420.72	971.32
420.91	952.60
421.10	910.47
421.29	990.05
421.48	1027.50
421.67	945.58
421.86	1008.77
422.05	1046.22
422.24	1006.43
422.43	943.24
422.61	1048.56
422.80	1011.11
422.99	1041.54
423.18	1032.18
423.37	1071.97
423.56	1062.60
423.75	1076.65
423.94	1029.84
424.13	870.68
424.32	973.66
424.50	1027.50
424.69	990.05
424.88	1050.90
425.07	1102.39
425.26	992.39
425.45	1048.56
425.64	1057.92
425.83	1083.67
426.01	1083.67
426.20	1111.75
426.39	1001.75
426.58	1032.18
426.77	1067.28
426.96	1053.24
427.15	1088.35
427.33	1121.12
427.52	1022.81
427.71	1149.20
427.90	1125.80
428.09	1170.27
428.28	1158.57
428.46	1165.59
428.65	1027.50
428.84	1156.22
429.03	1142.18
429.22	1153.88
429.40	1156.22
429.59	1235.80
429.78	1074.31
429.97	1097.71
430.16	1179.63
430.34	1196.01
430.53	1256.87
430.72	1165.59
430.91	1151.54
431.10	1196.01
431.28	1252.19
431.47	1247.51
431.66	1184.31
431.85	1231.12
432.03	1282.61
432.22	1343.47
432.41	1362.19
432.60	1315.38
432.79	1247.51
432.97	1160.91
433.16	1287.29
433.35	1238.14
433.54	1259.21
433.72	1322.40
433.91	1256.87
434.10	1334.11
434.28	1334.11
434.47	1331.76
434.66	1301.34
434.85	1317.72
435.03	1413.68
435.22	1610.29
435.41	1781.15
435.59	1739.02
435.78	1535.39
435.97	1511.99
436.16	1425.39
436.34	1406.66
436.53	1495.60
436.72	1465.18
436.90	1483.90
437.09	1327.08
437.28	1376.24
437.46	1357.51
437.65	1453.47
437.84	1465.18
438.02	1387.94
438.21	1439.43
438.40	1465.18
438.58	1341.13
438.77	1495.60
438.96	1460.49
439.14	1490.92
439.33	1472.20
439.52	1605.61
439.70	1540.07
439.89	1600.93
440.08	1533.05
440.26	1626.67
440.45	1645.40
440.63	1600.93
440.82	1621.99
441.01	1547.09
441.19	1586.88
441.38	1652.42
441.57	1591.56
441.75	1645.40
441.94	1591.56
442.12	1577.52
442.31	1762.42
442.50	1596.25
442.68	1549.43
442.87	1692.21
443.05	1661.78
443.24	1706.25
443.43	1769.44
443.61	1762.42
443.80	1755.40
443.98	1685.19
444.17	1570.50
444.35	1757.74
444.54	1743.70
444.73	1659.44
444.91	1760.08
445.10	1678.16
445.28	1694.55
445.47	1760.08
445.65	1713.27
445.84	1743.70
446.02	1767.10
446.21	1746.04
446.39	1689.87
446.58	1842.00
446.77	1764.76
446.95	1767.10
447.14	1652.42
447.32	1818.60
447.51	1809.23
447.69	1668.80
447.88	1837.32
448.06	1804.55
448.25	1799.87
448.43	1769.44
448.62	1689.87
448.80	1834.98
448.99	1825.62
449.17	1813.92
449.36	1755.40
449.54	1762.42
449.73	1867.75
449.91	1888.81
450.10	1870.09
450.28	1870.09
450.46	1853.70
450.65	1884.13
450.83	1928.60
451.02	1863.07
451.20	1991.80
451.39	1944.99
451.57	1879.45
451.76	1942.64
451.94	1923.92
452.13	1891.15
452.31	1968.39
452.49	1930.94
452.68	1914.56
452.86	1942.64
453.05	1984.77
453.23	1923.92
453.42	1898.17
453.60	1902.86
453.78	1977.75
453.97	1994.14
454.15	2010.52
454.34	1884.13
454.52	1975.41
454.70	1975.41
454.89	1991.80
455.07	1959.03
455.26	2052.65
455.44	2005.84
455.62	2005.84
455.81	2001.16
455.99	2066.69
456.17	2246.91
456.36	2080.74
456.54	2167.34
456.73	2129.89
456.91	2172.02
457.09	2195.42
457.28	2054.99
457.46	2125.21
457.64	2132.23
457.83	2078.40
458.01	2036.27
458.19	2165.00
458.38	2132.23
458.56	2244.57
458.74	2122.87
458.93	2244.57
459.11	2148.61
459.29	2174.36
459.48	2097.12
459.66	2211.81
459.84	2368.62
460.03	2267.98
460.21	2253.94
460.39	2270.32
460.57	2209.47
460.76	2225.85
460.94	2303.09
461.12	2368.62
461.31	2312.45
461.49	2303.09
461.67	2284.36
461.85	2307.77
462.04	2272.66
462.22	2801.62
462.40	2305.43
462.59	2296.07
462.77	2403.73
462.95	2420.11
463.13	2270.32
463.32	2429.48
463.50	2354.58
463.68	2445.86
463.86	2228.19
464.05	2321.81
464.23	2349.90
464.41	2495.01
464.59	2317.13
464.78	2455.22
464.96	2382.67
465.14	2307.77
465.32	2382.67
465.50	2443.52
465.69	2347.56
465.87	2417.77
466.05	2399.05
466.23	2375.64
466.41	2380.32
466.60	2464.58
466.78	2448.20
466.96	2525.44
467.14	2427.14
467.32	2560.55
467.51	2562.89
467.69	2548.84
467.87	2525.44
468.05	2506.71
468.23	2483.31
468.41	2495.01
468.60	2576.93
468.78	2490.33
468.96	2506.71
469.14	2593.31
469.32	2696.30
469.50	2560.55
469.69	2605.02
469.87	2621.40
470.05	2654.17
470.23	2586.29
470.41	2684.59
470.59	2541.82
470.77	2647.15
470.95	2717.36
471.14	2729.06
471.32	2621.40
471.50	2703.32
471.68	2698.64
471.86	2759.49
472.04	2691.62
472.22	2897.58
472.40	2637.78
472.58	2693.96
472.77	2846.09
472.95	2841.41
473.13	2906.95
473.31	2892.90
473.49	2778.22
473.67	2775.88
473.85	2963.12
474.03	2881.20
474.21	2902.26
474.39	2860.13
474.57	2981.84
474.75	2883.54
474.93	3014.61
475.12	2860.13
475.30	3014.61
475.48	2991.20
475.66	3005.25
475.84	2967.80
476.02	2897.58
476.20	3066.10
476.38	3192.49
476.56	3126.96
476.74	3035.67
476.92	3119.93
477.10	3124.62
477.28	3283.77
477.46	3145.68
477.64	3199.51
477.82	3105.89
478.00	3344.63
478.18	3260.37
478.36	3342.28
478.54	3307.18
478.72	3412.50
478.90	3494.42
479.08	3260.37
479.26	3421.86
479.44	3492.08
479.62	3538.89
479.80	3536.55
479.98	3562.30
480.16	3480.38
480.34	3604.42
480.52	3604.42
480.70	3581.02
480.88	3606.77
481.06	3625.49
481.24	3620.81
481.41	3740.18
481.59	3810.39
481.77	3946.14
481.95	3754.22
482.13	3817.41
482.31	3833.80
482.49	3922.74
482.67	3852.52
482.85	3992.95
483.03	4149.77
483.21	4028.06
483.39	4117.00
483.57	4037.42
483.74	4084.23
483.92	4079.55
484.10	4163.81
484.28	4327.65
484.46	4236.37
484.64	4386.16
484.82	4173.18
485.00	4329.99
485.18	4334.67
485.35	4315.95
485.53	4390.84
485.71	4372.12
485.89	4578.09
486.07	4475.10
486.25	4676.39
486.43	4484.47
486.61	4627.24
486.78	4615.54
486.96	4603.83
487.14	4788.74
487.32	4870.65
487.50	4870.65
487.68	4861.29
487.85	4840.23
488.03	4882.36
488.21	5048.54
488.39	4933.85
488.57	5207.69
488.75	4971.30
488.92	5359.83
489.10	5055.56
489.28	4954.91
489.46	5359.83
489.64	5275.57
489.81	5289.61
489.99	5231.10
490.17	5123.43
490.35	5256.84
490.53	5392.59
490.70	5434.72
490.88	5254.50
491.06	5322.38
491.24	5434.72
491.41	5563.45
491.59	5490.90
491.77	5607.92
491.95	5631.33
492.13	5671.12
492.30	5603.24
492.48	5699.20
492.66	5827.93
492.84	5727.29
493.01	5729.63
493.19	5898.15
493.37	5921.56
493.54	5902.83
493.72	5902.83
493.90	5954.32
494.08	5872.40
494.25	6036.24
494.43	6047.94
494.61	6160.29
494.79	6022.20
494.96	6083.05
495.14	6136.88
495.32	6256.25
495.49	6181.35
495.67	6113.48
495.85	6406.05
496.02	6516.05
496.20	6476.26
496.38	6384.98
496.55	6422.43
496.73	6462.22
496.91	6593.29
497.09	6499.67
497.26	6633.08
497.44	6801.60
497.62	6530.09
497.79	6640.10
497.97	6546.48
498.14	6768.83
498.32	6670.53
498.50	6892.88
498.67	6881.18
498.85	6813.30
499.03	6740.74
499.20	6803.94
499.38	7014.59
499.56	6937.35
499.73	7037.99
499.91	6974.80
500.08	7166.72
500.26	6906.92
500.44	7030.97
500.61	7049.69
500.79	6970.12
500.97	7218.21
501.14	7155.02
501.32	7304.81
501.49	7279.07
501.67	7342.26
501.84	7229.91
502.02	7016.93
502.20	7309.49
502.37	7328.22
502.55	7365.67
502.72	7325.88
502.90	7396.09
503.07	7300.13
503.25	7417.16
503.43	7463.97
503.60	7389.07
503.78	7585.68
503.95	7515.46
504.13	7520.14
504.30	7564.61
504.48	7463.97
504.65	7714.41
504.83	7688.66
505.01	7793.98
505.18	7857.18
505.36	7859.52
505.53	7810.37
505.71	7676.96
505.88	8074.85
506.06	7758.88
506.23	7751.85
506.41	7859.52
506.58	7887.61
506.76	7819.73
506.93	7843.14
507.11	7775.26
507.28	8021.02
507.46	7906.33
507.63	7894.63
507.81	8121.66
507.98	8037.40
508.16	8154.43
508.33	8065.49
508.50	8205.92
508.68	7985.91
508.85	8030.38
509.03	8191.88
509.20	8332.31
509.38	8327.63
509.55	8482.10
509.73	8280.82
509.90	8526.57
510.08	8215.28
510.25	8322.94
510.42	8365.07
510.60	8631.90
510.77	8634.24
510.95	8622.53
511.12	8428.27
511.30	8585.08
511.47	8699.77
511.64	8772.33
511.82	8524.23
511.99	8568.70
512.17	8418.91
512.34	8629.56
512.51	8695.09
512.69	8671.68
512.86	8709.13
513.04	8837.86
513.21	8915.10
513.38	8826.16
513.56	8760.63
513.73	8699.77
513.90	8807.44
514.08	8854.25
514.25	9015.74
514.43	8985.32
514.60	9015.74
514.77	8982.98
514.95	9111.71
515.12	8943.19
515.29	9114.05
515.47	9191.28
515.64	9186.60
515.81	8966.59
515.99	8973.61
516.16	9053.19
516.33	9240.44
516.51	9411.29
516.68	8971.27
516.85	9261.50
517.03	9284.91
517.20	9305.97
517.37	9247.46
517.54	9242.78
517.72	9364.48
517.89	9174.90
518.06	9430.02
518.24	9430.02
518.41	9315.33
518.58	9427.68
518.75	9336.40
518.93	9556.41
519.10	9483.85
519.27	9469.81
519.45	9427.68
519.62	9490.87
519.79	9614.92
519.96	9673.43
520.14	9619.60
520.31	9568.11
520.48	9748.33
520.65	9643.01
520.83	9600.88
521.00	9783.44
521.17	9771.74
521.34	9668.75
521.52	9762.37
521.69	9816.21
521.86	9701.52
522.03	9984.73
522.20	9848.97
522.38	9886.42
522.55	9947.28
522.72	9949.62
522.89	9886.42
523.07	10143.88
523.24	10059.62
523.41	10083.03
523.58	9980.04
523.75	9823.23
523.92	10083.03
524.10	9968.34
524.27	9980.04
524.44	10052.60
524.61	10384.96
524.78	10143.88
524.96	10303.04
525.13	10340.49
525.30	10324.10
525.47	10040.90
525.64	10321.76
525.81	10342.83
525.98	10183.67
526.16	10389.64
526.33	10352.19
526.50	10352.19
526.67	10289.00
526.84	10207.08
527.01	10225.80
527.18	10239.84
527.36	10434.11
527.53	10216.44
527.70	10689.23
527.87	10607.31
528.04	10640.08
528.21	10586.24
528.38	10576.88
528.55	10609.65
528.72	10792.21
528.89	10752.42
529.07	10609.65
529.24	10649.44
529.41	10579.22
529.58	10611.99
529.75	10513.69
529.92	10431.77
530.09	10464.54
530.26	10635.39
530.43	10707.95
530.60	10604.97
530.77	10729.02
530.94	10832.00
531.11	10544.11
531.28	10647.10
531.46	10733.70
531.63	10864.77
531.80	10726.68
531.97	10984.13
532.14	10916.26
532.31	10918.60
532.48	10792.21
532.65	10827.32
532.82	10717.31
532.99	10995.84
533.16	10743.06
533.33	11133.93
533.50	10972.43
533.67	10953.71
533.84	10874.13
534.01	10822.64
534.18	11089.46
534.35	11033.29
534.52	11089.46
534.69	11176.06
534.86	11265.00
535.03	10729.02
535.20	11030.94
535.37	11159.67
535.54	11019.24
535.71	10995.84
535.88	11028.60
536.05	11133.93
536.22	11030.94
536.38	11253.30
536.55	11302.45
536.72	11257.98
536.89	11075.42
537.06	11375.00
537.23	11241.59
537.40	11290.74
537.57	11208.83
537.74	11293.08
537.91	11389.05
538.08	11337.56
538.25	11096.48
538.42	11564.59
538.59	11417.13
538.75	11087.12
538.92	11384.37
539.09	11517.78
539.26	11405.43
539.43	11482.67
539.60	11754.17
539.77	11545.86
539.94	11506.07
540.11	11440.54
540.28	11667.57
540.44	11709.70
540.61	11730.76
540.78	11618.42
540.95	11779.92
541.12	11910.99
541.29	11985.88
541.46	11651.19
541.62	11903.96
541.79	11889.92
541.96	11850.13
542.13	11864.18
542.30	12056.10
542.47	11971.84
542.63	11843.11
542.80	12013.97
542.97	12135.68
543.14	12105.25
543.31	12189.51
543.48	12313.56
543.64	12196.53
543.81	12224.62
543.98	12070.14
544.15	12121.63
544.32	12023.33
544.48	12072.48
544.65	12093.55
544.82	12346.33
544.99	12070.14
545.16	12327.60
545.32	12248.02
545.49	12606.13
545.66	12966.57
545.83	13060.19
546.00	13200.62
546.16	12606.13
546.33	12564.00
546.50	11960.14
546.67	12390.80
546.83	12058.44
547.00	12056.10
547.17	12299.52
547.34	12030.35
547.50	12409.52
547.67	12428.24
547.84	12297.17
548.00	12355.69
548.17	12229.30
548.34	12065.46
548.51	12175.47
548.67	12514.84
548.84	12411.86
549.01	12198.87
549.18	12297.17
549.34	12175.47
549.51	12245.68
549.68	12393.14
549.84	12035.03
550.01	12404.84
550.18	12304.20
550.34	12343.99
550.51	12250.36
550.68	12287.81
550.84	12269.09
551.01	12400.16
551.18	12320.58
551.34	12231.64
551.51	12360.37
551.68	12325.26
551.84	12355.69
552.01	12329.94
552.18	12393.14
552.34	12449.31
552.51	12512.50
552.68	12152.06
552.84	12386.12
553.01	12283.13
553.18	12367.39
553.34	12355.69
553.51	12423.56
553.67	12465.69
553.84	12222.28
554.01	12444.63
554.17	12510.16
554.34	12512.50
554.51	12561.66
554.67	12351.01
554.84	12468.03
555.00	12379.09
555.17	12046.74
555.33	12212.92
555.50	12339.30
555.67	12489.10
555.83	12411.86
556.00	12521.87
556.16	12573.36
556.33	12437.61
556.50	12430.59
556.66	12601.44
556.83	12205.89
556.99	12395.48
557.16	12648.26
557.32	12374.41
557.49	12416.54
557.65	12332.28
557.82	12475.06
557.98	12528.89
558.15	12526.55
558.32	12486.76
558.48	12507.82
558.65	12585.06
558.81	12645.91
558.98	12257.39
559.14	12545.27
559.31	12348.67
559.47	12767.62
559.64	12285.47
559.80	12664.64
559.97	12418.88
560.13	12482.08
560.30	12704.43
560.46	12812.09
560.63	12648.26
560.79	12685.70
560.96	12587.40
561.12	12718.47
561.29	12313.56
561.45	12643.57
561.61	12592.08
561.78	12627.19
561.94	12622.51
562.11	12540.59
562.27	12683.36
562.44	12556.97
562.60	12601.44
562.77	12746.56
562.93	12470.37
563.10	12823.80
563.26	12709.11
563.42	13001.68
563.59	12645.91
563.75	12606.13
563.92	12666.98
564.08	12767.62
564.24	12589.74
564.41	12465.69
564.57	12479.74
564.74	12674.00
564.90	12968.91
565.07	12788.69
565.23	12566.34
565.39	12631.87
565.56	12648.26
565.72	12781.67
565.88	12751.24
566.05	12393.14
566.21	12662.30
566.38	12386.12
566.54	12547.61
566.70	12542.93
566.87	12669.32
567.03	12617.83
567.19	12968.91
567.36	12737.20
567.52	12519.53
567.68	12882.31
567.85	13041.46
568.01	12695.07
568.17	12662.30
568.34	12734.85
568.50	12702.09
568.66	12571.02
568.83	12638.89
568.99	12753.58
569.15	12697.41
569.32	12683.36
569.48	12341.64
569.64	13158.49
569.81	12571.02
569.97	12849.54
570.13	12695.07
570.30	12610.81
570.46	12908.05
570.62	12776.98
570.78	12816.77
570.95	12652.94
571.11	12805.07
571.27	12676.34
571.43	12716.13
571.60	12741.88
571.76	12554.63
571.92	12727.83
572.09	12681.02
572.25	12802.73
572.41	12879.97
572.57	12688.04
572.74	12727.83
572.90	12622.51
573.06	12748.90
573.22	12620.17
573.38	13001.68
573.55	12718.47
573.71	12833.16
573.87	12730.17
574.03	12879.97
574.20	12688.04
574.36	12758.26
574.52	12533.57
574.68	12762.94
574.84	12592.08
575.01	12886.99
575.17	13088.28
575.33	12540.59
575.49	12828.48
575.65	12755.92
575.82	12994.65
575.98	12856.56
576.14	13048.49
576.30	12578.04
576.46	12879.97
576.62	12812.09
576.79	13081.25
576.95	12992.31
577.11	12996.99
577.27	12704.43
577.43	12901.03
577.59	12765.28
577.75	12814.43
577.92	12620.17
578.08	12793.37
578.24	12634.21
578.40	12910.40
578.56	12968.91
578.72	13179.56
578.88	12959.55
579.04	12966.57
579.21	12912.74
579.37	13085.94
579.53	12903.37
579.69	12957.21
579.85	12858.90
580.01	12725.49
580.17	12947.84
580.33	12966.57
580.49	12933.80
580.65	12973.59
580.82	12730.17
580.98	12940.82
581.14	12912.74
581.30	13034.44
581.46	12758.26
581.62	12791.03
581.78	13008.70
581.94	12784.01
582.10	12844.86
582.26	13327.01
582.42	12996.99
582.58	12695.07
582.74	12769.96
582.90	13099.98
583.06	12896.35
583.22	12854.22
583.38	12800.39
583.54	12994.65
583.70	12849.54
583.86	13048.49
584.02	12936.14
584.18	13097.64
584.34	12961.89
584.50	13142.11
584.66	12938.48
584.82	12833.16
584.98	12889.33
585.14	12910.40
585.30	12936.14
585.46	12936.14
585.62	12746.56
585.78	12809.75
585.94	12924.44
586.10	12861.24
586.26	12833.16
586.42	12975.93
586.58	12842.52
586.74	13055.51
586.90	12828.48
587.06	12922.10
587.22	12966.57
587.38	12886.99
587.54	13088.28
587.70	13013.38
587.86	13123.38
588.02	12931.46
588.18	12704.43
588.34	13081.25
588.49	12898.69
588.65	12648.26
588.81	13041.46
588.97	12992.31
589.13	12613.15
589.29	12943.16
589.45	12924.44
589.61	13188.92
589.77	12950.18
589.93	13039.12
590.08	13043.81
590.24	12957.21
590.40	13095.30
590.56	13057.85
590.72	12830.82
590.88	13053.17
591.04	12982.95
591.20	12954.87
591.35	13015.72
591.51	13235.73
591.67	13053.17
591.83	13071.89
591.99	12734.85
592.15	13123.38
592.31	12964.23
592.46	13247.43
592.62	12950.18
592.78	12788.69
592.94	13050.83
593.10	12863.58
593.26	12966.57
593.41	13135.09
593.57	12727.83
593.73	12924.44
593.89	12957.21
594.05	13099.98
594.20	12865.92
594.36	12999.34
594.52	13001.68
594.68	12751.24
594.84	12681.02
