SpectraSuite Data File
++++++++++++++++++++++++++++++++++++
Date: Fri Oct 04 11:39:16 GMT-05:00 2013
User: price-jones
Dark Spectrum Present: No
Reference Spectrum Present: No
Number of Sampled Component Spectra: 1
Spectrometers: USB2+H05261
Integration Time (usec): 100000 (USB2+H05261)
Spectra Averaged: 1 (USB2+H05261)
Boxcar Smoothing: 0 (USB2+H05261)
Correct for Electrical Dark: No (USB2+H05261)
Strobe/Lamp Enabled: No (USB2+H05261)
Correct for Detector Non-linearity: No (USB2+H05261)
Correct for Stray Light: No (USB2+H05261)
Number of Pixels in Processed Spectrum: 2048
>>>>>Begin Processed Spectral Data<<<<<
365.73	32.77
365.92	32.77
366.12	32.77
366.32	0.00
366.52	37.45
366.72	0.00
366.91	0.00
367.11	0.00
367.31	0.00
367.51	0.00
367.70	0.00
367.90	0.00
368.10	37.45
368.30	0.00
368.49	0.00
368.69	0.00
368.89	0.00
369.09	0.00
369.28	0.00
369.48	0.00
369.68	9.36
369.87	74.90
370.07	0.00
370.27	102.98
370.47	25.75
370.66	182.56
370.86	198.95
371.06	236.39
371.25	348.74
371.45	337.04
371.65	379.17
371.84	337.04
372.04	212.99
372.24	271.50
372.44	194.26
372.63	297.25
372.83	332.36
373.03	311.29
373.22	334.70
373.42	257.46
373.62	383.85
373.81	351.08
374.01	334.70
374.21	489.17
374.40	341.72
374.60	315.97
374.79	351.08
374.99	390.87
375.19	337.04
375.38	308.95
375.58	379.17
375.78	381.51
375.97	383.85
376.17	390.87
376.37	360.44
376.56	390.87
376.76	292.57
376.95	407.25
377.15	409.59
377.35	358.10
377.54	395.55
377.74	428.32
377.93	395.55
378.13	383.85
378.33	421.30
378.52	433.00
378.72	395.55
378.91	379.17
379.11	407.25
379.31	540.66
379.50	456.40
379.70	376.83
379.89	421.30
380.09	418.96
380.28	393.21
380.48	454.06
380.68	409.59
380.87	430.66
381.07	514.92
381.26	498.53
381.46	489.17
381.65	519.60
381.85	475.13
382.04	512.58
382.24	395.55
382.43	444.70
382.63	404.91
382.83	500.87
383.02	550.03
383.22	519.60
383.41	442.36
383.61	430.66
383.80	493.85
384.00	540.66
384.19	505.56
384.39	615.56
384.58	472.79
384.78	526.62
384.97	550.03
385.17	472.79
385.36	571.09
385.56	596.84
385.75	505.56
385.95	603.86
386.14	575.77
386.34	564.07
386.53	484.49
386.72	592.16
386.92	641.31
387.11	617.90
387.31	573.43
387.50	526.62
387.70	510.24
387.89	517.26
388.09	503.22
388.28	543.00
388.48	580.45
388.67	685.78
388.86	575.77
389.06	645.99
389.25	578.11
389.45	620.24
389.64	545.34
389.84	645.99
390.03	690.46
390.22	550.03
390.42	692.80
390.61	676.41
390.81	578.11
391.00	587.47
391.19	674.07
391.39	615.56
391.58	631.94
391.78	765.36
391.97	664.71
392.16	653.01
392.36	755.99
392.55	699.82
392.75	699.82
392.94	699.82
393.13	685.78
393.33	643.65
393.52	690.46
393.71	741.95
393.91	723.23
394.10	779.40
394.29	777.06
394.49	702.16
394.68	805.14
394.88	837.91
395.07	828.55
395.26	833.23
395.46	737.27
395.65	800.46
395.84	793.44
396.04	795.78
396.23	849.61
396.42	856.64
396.62	889.40
396.81	800.46
397.00	770.04
397.19	912.81
397.39	856.64
397.58	863.66
397.77	840.25
397.97	858.98
398.16	880.04
398.35	931.53
398.55	877.70
398.74	856.64
398.93	968.98
399.12	924.51
399.32	954.94
399.51	870.68
399.70	1008.77
399.90	954.94
400.09	1004.09
400.28	1071.97
400.47	1025.15
400.67	976.00
400.86	1034.52
401.05	976.00
401.24	1088.35
401.44	954.94
401.63	1053.24
401.82	1095.37
402.01	983.02
402.21	1132.82
402.40	1081.33
402.59	1067.28
402.78	1020.47
402.97	1090.69
403.17	1165.59
403.36	1142.18
403.55	1111.75
403.74	1207.72
403.93	1198.35
404.13	1247.51
404.32	1210.06
404.51	1294.32
404.70	1203.04
404.89	1273.25
405.09	1238.14
405.28	1226.44
405.47	1249.85
405.66	1296.66
405.85	1231.12
406.05	1245.16
406.24	1252.19
406.43	1315.38
406.62	1331.76
406.81	1397.30
407.00	1380.92
407.20	1409.00
407.39	1406.66
407.58	1355.17
407.77	1397.30
407.96	1486.24
408.15	1458.15
408.34	1425.39
408.54	1462.83
408.73	1558.80
408.92	1533.05
409.11	1549.43
409.30	1481.56
409.49	1511.99
409.68	1582.20
409.87	1598.59
410.07	1605.61
410.26	1551.78
410.45	1591.56
410.64	1717.95
410.83	1687.53
411.02	1568.16
411.21	1750.72
411.40	1811.57
411.59	1706.25
411.78	1760.08
411.98	1806.89
412.17	1750.72
412.36	1746.04
412.55	1865.41
412.74	1874.77
412.93	1790.51
413.12	1804.55
413.31	2038.61
413.50	1984.77
413.69	1937.96
413.88	2148.61
414.07	2090.10
414.26	2005.84
414.45	2195.42
414.64	1998.82
414.83	2143.93
415.02	2118.18
415.22	2115.84
415.41	2317.13
415.60	1947.33
415.79	2242.23
415.98	2143.93
416.17	2277.34
416.36	2136.91
416.55	2340.54
416.74	2377.98
416.93	2420.11
417.12	2499.69
417.31	2356.92
417.50	2382.67
417.69	2370.96
417.88	2413.09
418.07	2415.43
418.26	2382.67
418.45	2492.67
418.64	2558.21
418.83	2553.52
419.02	2605.02
419.21	2562.89
419.39	2530.12
419.58	2452.88
419.77	2417.77
419.96	2733.75
420.15	2647.15
420.34	2640.12
420.53	2710.34
420.72	2668.21
420.91	2605.02
421.10	2757.15
421.29	2719.70
421.48	2637.78
421.67	2729.06
421.86	2794.60
422.05	2860.13
422.24	2698.64
422.43	2782.90
422.61	2871.84
422.80	2871.84
422.99	2890.56
423.18	2890.56
423.37	2960.78
423.56	2911.63
423.75	2839.07
423.94	2719.70
424.13	2569.91
424.32	2810.98
424.50	2928.01
424.69	2928.01
424.88	2803.96
425.07	2867.16
425.26	2775.88
425.45	2925.67
425.64	2888.22
425.83	2909.29
426.01	3082.49
426.20	2916.31
426.39	2991.20
426.58	2918.65
426.77	2939.71
426.96	3019.29
427.15	3096.53
427.33	3042.70
427.52	2972.48
427.71	3126.96
427.90	3131.64
428.09	3145.68
428.28	3080.14
428.46	3145.68
428.65	3187.81
428.84	3096.53
429.03	3222.92
429.22	3197.17
429.40	3229.94
429.59	3178.45
429.78	3129.30
429.97	3066.10
430.16	3094.19
430.34	3307.18
430.53	3337.60
430.72	3342.28
430.91	3339.94
431.10	3297.81
431.28	3510.80
431.47	3447.61
431.66	3368.03
431.85	3534.21
432.03	3574.00
432.22	3578.68
432.41	3412.50
432.60	3562.30
432.79	3574.00
432.97	3463.99
433.16	3588.04
433.35	3473.36
433.54	3751.88
433.72	3583.36
433.91	3503.78
434.10	3616.13
434.28	3503.78
434.47	3742.52
434.66	3660.60
434.85	3747.20
435.03	3786.99
435.22	3948.48
435.41	4299.56
435.59	4028.06
435.78	3948.48
435.97	4065.51
436.16	3899.33
436.34	3817.41
436.53	3866.56
436.72	3990.61
436.90	3754.22
437.09	3915.72
437.28	3843.16
437.46	3880.61
437.65	3964.87
437.84	3861.88
438.02	3943.80
438.21	4007.00
438.40	4065.51
438.58	4140.41
438.77	4159.13
438.96	4177.86
439.14	4095.94
439.33	4191.90
439.52	4154.45
439.70	4170.83
439.89	4353.40
440.08	4318.29
440.26	4362.76
440.45	4318.29
440.63	4437.66
440.82	4479.79
441.01	4423.61
441.19	4552.34
441.38	4662.35
441.57	4734.90
441.75	4809.80
441.94	4758.31
442.12	4737.24
442.31	4725.54
442.50	4732.56
442.68	4587.45
442.87	4608.51
443.05	4685.75
443.24	4915.12
443.43	4816.82
443.61	5006.41
443.80	4992.36
443.98	4751.29
444.17	4667.03
444.35	4943.21
444.54	4947.89
444.73	4985.34
444.91	4835.55
445.10	4954.91
445.28	4961.94
445.47	5130.45
445.65	4889.38
445.84	4861.29
446.02	4938.53
446.21	4975.98
446.39	5111.73
446.58	5090.67
446.77	5078.96
446.95	4823.84
447.14	4873.00
447.32	5006.41
447.51	5116.41
447.69	5029.81
447.88	5177.26
448.06	5130.45
448.25	5146.84
448.43	5111.73
448.62	5083.64
448.80	4973.64
448.99	5104.71
449.17	5273.23
449.36	5263.86
449.54	5102.37
449.73	5343.44
449.91	5153.86
450.10	5357.49
450.28	5387.91
450.46	5221.74
450.65	5224.08
450.83	5404.30
451.02	5451.11
451.20	5493.24
451.39	5387.91
451.57	5430.04
451.76	5514.30
451.94	5380.89
452.13	5617.29
452.31	5472.17
452.49	5437.06
452.68	5497.92
452.86	5483.88
453.05	5504.94
453.23	5631.33
453.42	5516.64
453.60	5577.50
453.78	5453.45
453.97	5636.01
454.15	5568.13
454.34	5507.28
454.52	5434.72
454.70	5647.71
454.89	5685.16
455.07	5675.80
455.26	5785.80
455.44	5804.53
455.62	5727.29
455.81	5877.09
455.99	6033.90
456.17	5937.94
456.36	5944.96
456.54	5989.43
456.73	5937.94
456.91	6115.82
457.09	6064.33
457.28	6221.14
457.46	6038.58
457.64	6239.87
457.83	6338.17
458.01	6129.86
458.19	6307.74
458.38	6307.74
458.56	6413.07
458.74	6462.22
458.93	6265.61
459.11	6258.59
459.29	6387.32
459.48	6459.88
459.66	6427.11
459.84	6607.33
460.03	6572.22
460.21	6441.15
460.39	6382.64
460.57	6520.73
460.76	6640.10
460.94	6480.94
461.12	6485.62
461.31	6572.22
461.49	6530.09
461.67	6619.04
461.85	6750.10
462.04	6691.59
462.22	7108.21
462.40	7002.88
462.59	6995.86
462.77	6799.26
462.95	6913.94
463.13	6869.47
463.32	6834.36
463.50	7012.24
463.68	7012.24
463.86	7014.59
464.05	6792.23
464.23	6967.77
464.41	6970.12
464.59	6892.88
464.78	7117.57
464.96	7037.99
465.14	6979.48
465.32	7056.72
465.50	7171.40
465.69	7124.59
465.87	7206.51
466.05	7234.60
466.23	7136.29
466.41	7435.88
466.60	7492.05
466.78	7239.28
466.96	7171.40
467.14	7370.35
467.32	7531.84
467.51	7468.65
467.69	7300.13
467.87	7307.15
468.05	7304.81
468.23	7318.86
468.41	7403.11
468.60	7442.90
468.78	7625.47
468.96	7412.48
469.14	7456.95
469.32	7456.95
469.50	7379.71
469.69	7681.64
469.87	7583.34
470.05	7829.09
470.23	7627.81
470.41	7510.78
470.59	7782.28
470.77	7669.94
470.95	7943.78
471.14	8070.17
471.32	7934.42
471.50	7978.89
471.68	8023.36
471.86	8107.62
472.04	8023.36
472.22	8255.07
472.40	7985.91
472.58	8238.69
472.77	8168.47
472.95	8358.05
473.13	8465.72
473.31	8243.37
473.49	8236.35
473.67	8383.80
473.85	8388.48
474.03	8695.09
474.21	8446.99
474.39	8580.40
474.57	8748.92
474.75	8765.31
474.93	8830.84
475.12	8730.20
475.30	8814.46
475.48	8779.35
475.66	8959.57
475.84	8861.27
476.02	8875.31
476.20	8975.95
476.38	9179.58
476.56	9366.82
476.74	9303.63
476.92	9280.22
477.10	9296.61
477.28	9488.53
477.46	9359.80
477.64	9415.98
477.82	9699.18
478.00	9717.90
478.18	9781.10
478.36	9860.68
478.54	10115.80
478.72	9839.61
478.90	10078.35
479.08	10214.10
479.26	10230.48
479.44	10387.30
479.62	10523.05
479.80	10558.16
479.98	10576.88
480.16	10740.72
480.34	10832.00
480.52	10890.51
480.70	11080.10
480.88	10927.96
481.06	10998.18
481.24	11012.22
481.41	11147.97
481.59	11138.61
481.77	11414.79
481.95	11396.07
482.13	11576.29
482.31	11672.25
482.49	11559.91
482.67	11721.40
482.85	11985.88
483.03	12035.03
483.21	12180.15
483.39	12182.49
483.57	12461.01
483.74	12308.88
483.92	12587.40
484.10	12435.27
484.28	12524.21
484.46	12795.71
484.64	13123.38
484.82	12959.55
485.00	12973.59
485.18	13048.49
485.35	13551.70
485.53	13341.05
485.71	13633.62
485.89	13603.19
486.07	13745.97
486.25	13565.74
486.43	13813.84
486.61	13895.76
486.78	14178.97
486.96	14342.80
487.14	14464.51
487.32	14429.40
487.50	14548.77
487.68	14406.00
487.85	14918.57
488.03	14799.21
488.21	15283.70
488.39	15379.66
488.57	15033.26
488.75	15267.31
488.92	15445.20
489.10	15597.33
489.28	15583.29
489.46	15910.96
489.64	15807.98
489.81	16390.77
489.99	16231.62
490.17	16173.10
490.35	16341.62
490.53	16397.79
490.70	16585.04
490.88	16671.64
491.06	16968.88
491.24	16676.32
491.41	17046.12
491.59	16823.77
491.77	17032.08
491.95	17418.27
492.13	17446.35
492.30	17642.96
492.48	17334.01
492.66	17584.44
492.84	17944.89
493.01	18164.90
493.19	18003.40
493.37	18129.79
493.54	18429.38
493.72	18494.91
493.90	18302.99
494.08	18565.13
494.25	18841.31
494.43	18752.37
494.61	18757.05
494.79	19042.60
494.96	18918.55
495.14	19316.44
495.32	19168.99
495.49	19454.53
495.67	19407.72
495.85	19765.82
496.02	19775.19
496.20	19726.04
496.38	19669.86
496.55	19910.94
496.73	20393.09
496.91	20327.55
497.09	20198.82
497.26	20566.29
497.44	20491.39
497.62	20322.87
497.79	20798.00
497.97	20669.27
498.14	21179.51
498.32	21341.00
498.50	21371.43
498.67	21834.86
498.85	21214.62
499.03	21268.45
499.20	21280.15
499.38	21364.41
499.56	21909.75
499.73	21720.17
499.91	22169.55
500.08	22061.89
500.26	21827.84
500.44	21654.64
500.61	22094.66
500.79	21984.65
500.97	22132.11
501.14	22658.73
501.32	23021.51
501.49	22249.13
501.67	22368.50
501.84	22604.89
502.02	22640.00
502.20	22970.02
502.37	23108.11
502.55	22876.40
502.72	23491.96
502.90	23468.55
503.07	22829.59
503.25	23307.05
503.43	23274.29
503.60	23381.95
503.78	23449.83
503.95	23758.78
504.13	23592.60
504.30	23920.28
504.48	23934.32
504.65	23924.96
504.83	24287.74
505.01	24140.29
505.18	24201.14
505.36	24474.98
505.53	24566.26
505.71	24154.33
505.88	24582.65
506.06	24072.41
506.23	24533.50
506.41	24662.22
506.58	24603.71
506.76	25081.18
506.93	24985.22
507.11	24812.02
507.28	25256.72
507.46	24992.24
507.63	25071.82
507.81	25654.61
507.98	25270.76
508.16	25411.20
508.33	25242.68
508.50	25811.43
508.68	25579.71
508.85	26202.30
509.03	25495.46
509.20	25717.81
509.38	25933.14
509.55	26274.85
509.73	26167.19
509.90	26611.89
510.08	26504.23
510.25	26307.62
510.42	26434.01
510.60	27014.46
510.77	26663.38
510.95	27082.34
511.12	26492.52
511.30	26637.64
511.47	26728.92
511.64	27082.34
511.82	26881.05
511.99	26981.70
512.17	27087.02
512.34	26984.04
512.51	27489.59
512.69	27374.91
512.86	27623.00
513.04	27548.11
513.21	27611.30
513.38	27821.95
513.56	27910.89
513.73	27793.86
513.90	28229.20
514.08	27833.65
514.25	28313.46
514.43	27950.68
514.60	28048.98
514.77	28166.01
514.95	28694.97
515.12	28273.67
515.29	28371.97
515.47	28404.74
515.64	28655.18
515.81	28690.29
515.99	29095.20
516.16	29029.66
516.33	28900.94
516.51	29151.37
516.68	28966.47
516.85	28982.85
517.03	29270.74
517.20	29223.93
517.37	29507.13
517.54	29649.91
517.72	29479.05
517.89	29535.22
518.06	29523.52
518.24	29687.36
518.41	29530.54
518.58	29518.84
518.75	30075.88
518.93	30118.01
519.10	29675.65
519.27	30015.03
519.45	29703.74
519.62	29827.79
519.79	30092.27
519.96	29921.41
520.14	30347.39
520.31	30349.73
520.48	30483.14
520.65	30815.49
520.83	30796.77
521.00	30801.45
521.17	30588.46
521.34	30848.26
521.52	30888.05
521.69	31398.29
521.86	31201.68
522.03	31302.32
522.20	31206.36
522.38	31028.48
522.55	31517.65
522.72	31269.56
522.89	31379.56
523.07	31761.07
523.24	31477.86
523.41	31515.31
523.58	31915.54
523.75	31634.68
523.92	31821.92
524.10	31950.65
524.27	31608.93
524.44	32009.17
524.61	32407.06
524.78	32299.39
524.96	32084.06
525.13	32053.64
525.30	32535.79
525.47	31983.42
525.64	32098.11
525.81	32514.72
525.98	32699.62
526.16	32573.24
526.33	32285.35
526.50	32734.73
526.67	32886.87
526.84	32978.15
527.01	32627.07
527.18	33031.98
527.36	32975.81
527.53	33167.73
527.70	33500.09
527.87	33029.64
528.04	33310.50
528.21	33394.76
528.38	33560.94
528.55	33612.43
528.72	33645.20
528.89	33223.90
529.07	33387.74
529.24	33436.89
529.41	33837.12
529.58	33537.54
529.75	33635.84
529.92	33495.41
530.09	33816.06
530.26	33867.55
530.43	33729.46
530.60	33663.93
530.77	33989.26
530.94	34478.43
531.11	34153.10
531.28	33893.30
531.46	34190.55
531.63	34309.91
531.80	34197.57
531.97	34148.42
532.14	34279.49
532.31	34167.14
532.48	34845.90
532.65	34361.40
532.82	34483.11
532.99	34728.87
533.16	34710.14
533.33	35161.87
533.50	35058.88
533.67	35093.99
533.84	34635.25
534.01	34614.18
534.18	34553.33
534.35	35295.28
534.52	35082.29
534.69	35306.98
534.86	35573.80
535.03	35414.65
535.20	35449.75
535.37	35388.90
535.54	35522.31
535.71	35124.42
535.88	35314.00
536.05	35405.28
536.22	35934.24
536.38	35679.13
536.55	35653.38
536.72	35957.65
536.89	35796.15
537.06	35667.42
537.23	36240.86
537.40	36004.46
537.57	36062.97
537.74	35840.62
537.91	36481.93
538.08	36699.60
538.25	36332.14
538.42	36343.84
538.59	36828.33
538.75	36205.75
538.92	36582.57
539.09	36189.36
539.26	36706.62
539.43	36641.09
539.60	36631.72
539.77	36811.95
539.94	37010.89
540.11	36720.66
540.28	36587.25
540.44	36980.46
540.61	36718.32
540.78	36823.65
540.95	36809.61
541.12	37497.72
541.29	37429.85
541.46	37455.59
541.62	37446.23
541.79	37083.45
541.96	37102.17
542.13	37420.48
542.30	37359.63
542.47	37654.54
542.63	37876.89
542.80	37769.22
542.97	37916.68
543.14	37706.03
543.31	37942.42
543.48	37970.51
543.64	37968.17
543.81	38124.99
543.98	38433.94
544.15	38698.42
544.32	38574.37
544.48	38546.28
544.65	38431.60
544.82	38464.36
544.99	38115.62
545.16	38490.11
545.32	38281.80
545.49	38630.54
545.66	39428.66
545.83	39491.86
546.00	39758.68
546.16	38646.93
546.33	38775.66
546.50	37949.45
546.67	39012.05
546.83	38195.20
547.00	38485.43
547.17	38820.13
547.34	39356.11
547.50	38714.80
547.67	38813.10
547.84	39021.41
548.00	38883.32
548.17	38871.62
548.34	38628.20
548.51	39026.09
548.67	38974.60
548.84	39154.82
549.01	39496.54
549.18	39400.58
549.34	39122.05
549.51	39571.44
549.68	39227.38
549.84	39285.89
550.01	39171.21
550.18	39096.31
550.34	39875.71
550.51	39594.84
550.68	39655.70
550.84	39145.46
551.01	39903.79
551.18	39379.51
551.34	39494.20
551.51	39416.96
551.68	39611.23
551.84	39889.75
552.01	39847.62
552.18	39489.52
552.34	39098.65
552.51	39770.38
552.68	39709.53
552.84	40058.27
553.01	39723.57
553.18	39810.17
553.34	39751.66
553.51	39484.84
553.67	40203.38
553.84	40257.21
554.01	40287.64
554.17	40116.78
554.34	39903.79
554.51	40385.94
554.67	40048.91
554.84	40533.40
555.00	40275.94
555.17	39793.79
555.33	40554.46
555.50	40222.11
555.67	40404.67
555.83	40299.34
556.00	40367.22
556.16	40692.55
556.33	40594.25
556.50	40109.76
556.66	40273.60
556.83	40683.19
556.99	40851.71
557.16	40594.25
557.32	40924.27
557.49	40662.13
557.65	40664.47
557.82	40737.02
557.98	40629.36
558.15	40341.47
558.32	41174.70
558.48	40713.62
558.65	41368.97
558.81	40612.98
558.98	40751.07
559.14	41027.25
559.31	40659.79
559.47	40727.66
559.64	41132.57
559.80	40919.59
559.97	41074.06
560.13	41092.79
560.30	41294.07
560.46	41060.02
560.63	41434.50
560.79	41099.81
560.96	41237.90
561.12	40580.21
561.29	40795.54
561.45	40919.59
561.61	41064.70
561.78	41596.00
561.94	40989.80
562.11	41390.03
562.27	41448.55
562.44	41060.02
562.60	41418.12
562.77	41165.34
562.93	41265.99
563.10	41413.44
563.26	41301.09
563.42	41549.19
563.59	41656.85
563.75	41200.45
563.92	41574.94
564.08	41130.23
564.24	41647.49
564.41	41181.73
564.57	41123.21
564.74	41361.95
564.90	41825.37
565.07	41593.66
565.23	41867.50
565.39	41551.53
565.56	41605.36
565.72	41858.14
565.88	41387.69
566.05	41626.43
566.21	41581.96
566.38	41368.97
566.54	41635.79
566.70	41921.34
566.87	41933.04
567.03	41851.12
567.19	41951.76
567.36	42082.83
567.52	41392.37
567.68	41773.88
567.85	41687.28
568.01	42218.58
568.17	41586.64
568.34	41851.12
568.50	42249.01
568.66	42033.68
568.83	42040.70
568.99	41708.35
569.15	41621.75
569.32	41808.99
569.48	41626.43
569.64	41715.37
569.81	41647.49
569.97	41710.69
570.13	42155.39
570.30	42033.68
570.46	42099.22
570.62	41837.08
570.78	42108.58
570.95	41560.89
571.11	42237.31
571.27	42029.00
571.43	41556.21
571.60	42010.28
571.76	41893.25
571.92	42263.05
572.09	42319.23
572.25	42195.18
572.41	42614.13
572.57	42010.28
572.74	42302.84
572.90	42185.82
573.06	41944.74
573.22	42260.71
573.38	42117.94
573.55	42244.33
573.71	42892.66
573.87	42693.71
574.03	42316.89
574.20	42337.95
574.36	42050.06
574.52	42361.36
574.68	42330.93
574.84	42459.66
575.01	42553.28
575.17	41911.97
575.33	41968.15
575.49	42169.43
575.65	42536.90
575.82	42766.27
575.98	42494.77
576.14	42766.27
576.30	42387.10
576.46	41780.90
576.62	42342.63
576.79	42721.80
576.95	42583.71
577.11	42185.82
577.27	42499.45
577.43	42316.89
577.59	42462.00
577.75	42433.91
577.92	42234.97
578.08	42216.24
578.24	42253.69
578.40	42354.33
578.56	41993.89
578.72	42604.77
578.88	42930.11
579.04	42691.37
579.21	42712.44
579.37	42499.45
579.53	43040.11
579.69	42373.06
579.85	42239.65
580.01	42061.77
580.17	42202.20
580.33	42309.86
580.49	42728.82
580.65	42707.76
580.82	42499.45
580.98	42576.69
581.14	42759.25
581.30	42710.10
581.46	42291.14
581.62	42415.19
581.78	42761.59
581.94	42038.36
582.10	42450.30
582.26	42789.67
582.42	43084.58
582.58	42845.85
582.74	42693.71
582.90	43047.13
583.06	42920.74
583.22	42490.09
583.38	42827.12
583.54	42677.33
583.70	43019.05
583.86	42405.83
584.02	42246.67
584.18	42724.14
584.34	42792.01
584.50	42951.17
584.66	42658.60
584.82	43072.88
584.98	42384.76
585.14	42887.98
585.30	42525.19
585.46	42710.10
585.62	42639.88
585.78	42707.76
585.94	42492.43
586.10	42714.78
586.26	42651.58
586.42	42808.40
586.58	42871.59
586.74	43051.81
586.90	42536.90
587.06	42698.39
587.22	42925.42
587.38	42567.32
587.54	43030.75
587.70	42887.98
587.86	42986.28
588.02	43145.44
588.18	43262.46
588.34	42789.67
588.49	42838.83
588.65	42469.02
588.81	43140.75
588.97	42799.04
589.13	42852.87
589.29	43140.75
589.45	43009.68
589.61	42787.33
589.77	43070.54
589.93	42909.04
590.08	43393.53
590.24	43168.84
590.40	43400.55
590.56	44123.78
590.72	43189.91
590.88	43267.14
591.04	42909.04
