SpectraSuite Data File
++++++++++++++++++++++++++++++++++++
Date: Fri Oct 04 11:40:01 GMT-05:00 2013
User: price-jones
Dark Spectrum Present: No
Reference Spectrum Present: No
Number of Sampled Component Spectra: 1
Spectrometers: USB2+H05261
Integration Time (usec): 100000 (USB2+H05261)
Spectra Averaged: 1 (USB2+H05261)
Boxcar Smoothing: 0 (USB2+H05261)
Correct for Electrical Dark: No (USB2+H05261)
Strobe/Lamp Enabled: No (USB2+H05261)
Correct for Detector Non-linearity: No (USB2+H05261)
Correct for Stray Light: No (USB2+H05261)
Number of Pixels in Processed Spectrum: 2048
>>>>>Begin Processed Spectral Data<<<<<
365.73	16.38
365.92	16.38
366.12	16.38
366.32	0.00
366.52	0.00
366.72	0.00
366.91	0.00
367.11	0.00
367.31	0.00
367.51	0.00
367.70	0.00
367.90	4.68
368.10	0.00
368.30	0.00
368.49	0.00
368.69	0.00
368.89	0.00
369.09	0.00
369.28	0.00
369.48	0.00
369.68	0.00
369.87	4.68
370.07	0.00
370.27	11.70
370.47	30.43
370.66	2.34
370.86	70.22
371.06	145.11
371.25	79.58
371.45	60.85
371.65	91.28
371.84	112.35
372.04	135.75
372.24	138.09
372.44	117.03
372.63	145.11
372.83	166.18
373.03	168.52
373.22	124.05
373.42	142.77
373.62	156.82
373.81	100.64
374.01	152.13
374.21	145.11
374.40	189.58
374.60	182.56
374.79	145.11
374.99	117.03
375.19	166.18
375.38	180.22
375.58	154.48
375.78	138.09
375.97	135.75
376.17	243.42
376.37	238.73
376.56	117.03
376.76	119.37
376.95	114.69
377.15	133.41
377.35	147.45
377.54	173.20
377.74	133.41
377.93	133.41
378.13	112.35
378.33	166.18
378.52	182.56
378.72	163.84
378.91	168.52
379.11	175.54
379.31	191.92
379.50	159.16
379.70	131.07
379.89	234.05
380.09	170.86
380.28	117.03
380.48	175.54
380.68	128.73
380.87	117.03
381.07	147.45
381.26	119.37
381.46	227.03
381.65	154.48
381.85	194.26
382.04	110.01
382.24	88.94
382.43	222.35
382.63	182.56
382.83	91.28
383.02	154.48
383.22	175.54
383.41	234.05
383.61	208.31
383.80	145.11
384.00	205.97
384.19	121.71
384.39	194.26
384.58	224.69
384.78	126.39
384.97	119.37
385.17	140.43
385.36	201.29
385.56	252.78
385.75	126.39
385.95	156.82
386.14	224.69
386.34	182.56
386.53	222.35
386.72	100.64
386.92	133.41
387.11	102.98
387.31	229.37
387.50	126.39
387.70	154.48
387.89	166.18
388.09	184.90
388.28	163.84
388.48	95.96
388.67	149.79
388.86	102.98
389.06	196.60
389.25	140.43
389.45	243.42
389.64	208.31
389.84	297.25
390.03	222.35
390.22	208.31
390.42	205.97
390.61	217.67
390.81	126.39
391.00	227.03
391.19	168.52
391.39	154.48
391.58	278.52
391.78	231.71
391.97	271.50
392.16	180.22
392.36	231.71
392.55	173.20
392.75	243.42
392.94	161.50
393.13	252.78
393.33	189.58
393.52	229.37
393.71	262.14
393.91	147.45
394.10	191.92
394.29	224.69
394.49	163.84
394.68	180.22
394.88	196.60
395.07	278.52
395.26	248.10
395.46	184.90
395.65	161.50
395.84	318.31
396.04	299.59
396.23	217.67
396.42	280.86
396.62	220.01
396.81	273.84
397.00	276.18
397.19	257.46
397.39	224.69
397.58	283.20
397.77	243.42
397.97	234.05
398.16	248.10
398.35	308.95
398.55	304.27
398.74	194.26
398.93	292.57
399.12	262.14
399.32	376.83
399.51	255.12
399.70	236.39
399.90	203.63
400.09	243.42
400.28	351.08
400.47	276.18
400.67	280.86
400.86	248.10
401.05	322.99
401.24	322.99
401.44	259.80
401.63	285.55
401.82	327.68
402.01	297.25
402.21	301.93
402.40	290.23
402.59	264.48
402.78	341.72
402.97	332.36
403.17	355.76
403.36	330.02
403.55	411.93
403.74	327.68
403.93	365.12
404.13	416.62
404.32	425.98
404.51	433.00
404.70	362.78
404.89	315.97
405.09	383.85
405.28	433.00
405.47	346.40
405.66	440.02
405.85	437.68
406.05	416.62
406.24	362.78
406.43	451.72
406.62	444.70
406.81	440.02
407.00	428.32
407.20	493.85
407.39	404.91
407.58	498.53
407.77	486.83
407.96	507.90
408.15	510.24
408.34	416.62
408.54	472.79
408.73	472.79
408.92	479.81
409.11	500.87
409.30	535.98
409.49	484.49
409.68	498.53
409.87	603.86
410.07	503.22
410.26	507.90
410.45	512.58
410.64	472.79
410.83	664.71
411.02	528.96
411.21	608.54
411.40	592.16
411.59	662.37
411.78	634.29
411.98	615.56
412.17	554.71
412.36	578.11
412.55	657.69
412.74	643.65
412.93	671.73
413.12	676.41
413.31	667.05
413.50	622.58
413.69	636.63
413.88	690.46
414.07	695.14
414.26	660.03
414.45	718.54
414.64	725.57
414.83	730.25
415.02	746.63
415.22	692.80
415.41	788.76
415.60	702.16
415.79	781.74
415.98	753.65
416.17	727.91
416.36	788.76
416.55	770.04
416.74	887.06
416.93	819.19
417.12	751.31
417.31	863.66
417.50	800.46
417.69	887.06
417.88	819.19
418.07	889.40
418.26	884.72
418.45	882.38
418.64	805.14
418.83	858.98
419.02	819.19
419.21	910.47
419.39	924.51
419.58	870.68
419.77	870.68
419.96	919.83
420.15	1022.81
420.34	851.96
420.53	945.58
420.72	917.49
420.91	851.96
421.10	910.47
421.29	1034.52
421.48	1022.81
421.67	971.32
421.86	966.64
422.05	915.15
422.24	973.66
422.43	924.51
422.61	968.98
422.80	1053.24
422.99	978.34
423.18	957.28
423.37	961.96
423.56	898.77
423.75	997.07
423.94	976.00
424.13	894.08
424.32	912.81
424.50	964.30
424.69	1027.50
424.88	1020.47
425.07	971.32
425.26	968.98
425.45	1086.01
425.64	1067.28
425.83	1015.79
426.01	1086.01
426.20	994.73
426.39	1006.43
426.58	976.00
426.77	1057.92
426.96	1078.99
427.15	1097.71
427.33	1104.73
427.52	990.05
427.71	1041.54
427.90	1139.84
428.09	1025.15
428.28	1029.84
428.46	1128.14
428.65	1048.56
428.84	1039.20
429.03	1181.97
429.22	1046.22
429.40	1137.50
429.59	1008.77
429.78	1135.16
429.97	1034.52
430.16	1114.10
430.34	1160.91
430.53	1217.08
430.72	1212.40
430.91	1083.67
431.10	1093.03
431.28	1139.84
431.47	1280.27
431.66	1238.14
431.85	1179.63
432.03	1226.44
432.22	1219.42
432.41	1205.38
432.60	1207.72
432.79	1249.85
432.97	1165.59
433.16	1233.46
433.35	1231.12
433.54	1167.93
433.72	1270.91
433.91	1261.55
434.10	1233.46
434.28	1277.93
434.47	1291.98
434.66	1299.00
434.85	1345.81
435.03	1306.02
435.22	1624.33
435.41	1734.34
435.59	1722.63
435.78	1748.38
435.97	1511.99
436.16	1334.11
436.34	1371.55
436.53	1387.94
436.72	1399.64
436.90	1315.38
437.09	1317.72
437.28	1261.55
437.46	1390.28
437.65	1458.15
437.84	1401.98
438.02	1296.66
438.21	1425.39
438.40	1416.02
438.58	1427.73
438.77	1427.73
438.96	1486.24
439.14	1441.77
439.33	1488.58
439.52	1502.62
439.70	1549.43
439.89	1540.07
440.08	1488.58
440.26	1469.86
440.45	1624.33
440.63	1481.56
440.82	1502.62
441.01	1629.01
441.19	1582.20
441.38	1523.69
441.57	1577.52
441.75	1568.16
441.94	1621.99
442.12	1547.09
442.31	1701.57
442.50	1519.01
442.68	1591.56
442.87	1612.63
443.05	1624.33
443.24	1626.67
443.43	1591.56
443.61	1720.29
443.80	1713.27
443.98	1610.29
444.17	1591.56
444.35	1760.08
444.54	1607.95
444.73	1526.03
444.91	1598.59
445.10	1582.20
445.28	1638.38
445.47	1582.20
445.65	1657.10
445.84	1764.76
446.02	1640.72
446.21	1650.08
446.39	1708.59
446.58	1722.63
446.77	1734.34
446.95	1703.91
447.14	1727.32
447.32	1729.66
447.51	1739.02
447.69	1788.17
447.88	1767.10
448.06	1743.70
448.25	1722.63
448.43	1767.10
448.62	1696.89
448.80	1830.30
448.99	1746.04
449.17	1790.51
449.36	1776.47
449.54	1799.87
449.73	1858.39
449.91	1790.51
450.10	1736.68
450.28	1856.04
450.46	1823.28
450.65	1905.20
450.83	1867.75
451.02	1811.57
451.20	1881.79
451.39	1886.47
451.57	1825.62
451.76	1799.87
451.94	1844.34
452.13	1914.56
452.31	1928.60
452.49	1846.68
452.68	1923.92
452.86	1853.70
453.05	1916.90
453.23	1926.26
453.42	1902.86
453.60	1834.98
453.78	1914.56
453.97	1902.86
454.15	1907.54
454.34	1961.37
454.52	1940.30
454.70	1949.67
454.89	2015.20
455.07	1909.88
455.26	2015.20
455.44	2001.16
455.62	1963.71
455.81	2017.54
455.99	2036.27
456.17	2094.78
456.36	1898.17
456.54	2069.03
456.73	2141.59
456.91	2113.50
457.09	2050.31
457.28	2087.76
457.46	2033.93
457.64	2001.16
457.83	2047.97
458.01	2134.57
458.19	2073.71
458.38	1966.05
458.56	2108.82
458.74	2172.02
458.93	2172.02
459.11	2073.71
459.29	2125.21
459.48	2218.83
459.66	2207.13
459.84	2139.25
460.03	2317.13
460.21	2169.68
460.39	2190.74
460.57	2246.91
460.76	2232.87
460.94	2153.29
461.12	2118.18
461.31	2300.75
461.49	2282.02
461.67	2232.87
461.85	2260.96
462.04	2303.09
462.22	2780.56
462.40	2256.28
462.59	2317.13
462.77	2277.34
462.95	2286.70
463.13	2349.90
463.32	2342.88
463.50	2324.15
463.68	2324.15
463.86	2232.87
464.05	2270.32
464.23	2382.67
464.41	2368.62
464.59	2282.02
464.78	2366.28
464.96	2434.16
465.14	2399.05
465.32	2417.77
465.50	2340.54
465.69	2469.27
465.87	2382.67
466.05	2317.13
466.23	2462.24
466.41	2408.41
466.60	2499.69
466.78	2333.51
466.96	2373.30
467.14	2242.23
467.32	2530.12
467.51	2506.71
467.69	2347.56
467.87	2506.71
468.05	2471.61
468.23	2565.23
468.41	2495.01
468.60	2321.81
468.78	2574.59
468.96	2466.92
469.14	2490.33
469.32	2499.69
469.50	2513.74
469.69	2661.19
469.87	2672.89
470.05	2506.71
470.23	2565.23
470.41	2609.70
470.59	2619.06
470.77	2487.99
470.95	2567.57
471.14	2602.68
471.32	2647.15
471.50	2583.95
471.68	2750.13
471.86	2747.79
472.04	2663.53
472.22	2614.38
472.40	2691.62
472.58	2656.51
472.77	2813.32
472.95	2839.07
473.13	2883.54
473.31	2810.98
473.49	2616.72
473.67	2813.32
473.85	2850.77
474.03	2785.24
474.21	2827.37
474.39	2867.16
474.57	2810.98
474.75	2832.05
474.93	2930.35
475.12	2885.88
475.30	2874.18
475.48	2981.84
475.66	3026.31
475.84	2963.12
476.02	3002.91
476.20	3033.33
476.38	2993.55
476.56	3173.77
476.74	3112.91
476.92	3166.74
477.10	3171.43
477.28	3164.40
477.46	3232.28
477.64	3192.49
477.82	3141.00
478.00	3260.37
478.18	3251.00
478.36	3375.05
478.54	3304.84
478.72	3248.66
478.90	3269.73
479.08	3449.95
479.26	3485.06
479.44	3449.95
479.62	3538.89
479.80	3456.97
479.98	3417.18
480.16	3489.74
480.34	3515.48
480.52	3459.31
480.70	3662.94
480.88	3489.74
481.06	3660.60
481.24	3620.81
481.41	3623.15
481.59	3688.68
481.77	3688.68
481.95	3695.71
482.13	3852.52
482.31	3922.74
482.49	3892.31
482.67	3925.08
482.85	3962.53
483.03	3913.38
483.21	4007.00
483.39	4025.72
483.57	4044.45
483.74	4147.43
483.92	4093.60
484.10	4159.13
484.28	4119.34
484.46	4091.26
484.64	4297.22
484.82	4191.90
485.00	4180.20
485.18	4301.90
485.35	4273.82
485.53	4344.03
485.71	4493.83
485.89	4421.27
486.07	4465.74
486.25	4674.05
486.43	4533.62
486.61	4613.20
486.78	4660.01
486.96	4737.24
487.14	4720.86
487.32	4657.67
487.50	4868.31
487.68	4748.95
487.85	4891.72
488.03	4931.51
488.21	4971.30
488.39	5060.24
488.57	5074.28
488.75	4971.30
488.92	5444.09
489.10	5153.86
489.28	5184.29
489.46	5193.65
489.64	5048.54
489.81	5343.44
489.99	5284.93
490.17	5275.57
490.35	5481.53
490.53	5310.68
490.70	5268.55
490.88	5526.00
491.06	5556.43
491.24	5607.92
491.41	5413.66
491.59	5427.70
491.77	5593.88
491.95	5717.93
492.13	5568.13
492.30	5540.05
492.48	5713.25
492.66	5603.24
492.84	5579.84
493.01	5755.38
493.19	5760.06
493.37	5839.64
493.54	5877.09
493.72	5970.71
493.90	5823.25
494.08	6057.31
494.25	6061.99
494.43	6249.23
494.61	6094.76
494.79	6097.10
494.96	6125.18
495.14	6005.81
495.32	6176.67
495.49	6218.80
495.67	6429.45
495.85	6127.52
496.02	6136.88
496.20	6326.47
496.38	6328.81
496.55	6373.28
496.73	6581.59
496.91	6368.60
497.09	6703.29
497.26	6539.46
497.44	6532.44
497.62	6497.33
497.79	6544.14
497.97	6773.51
498.14	6675.21
498.32	6836.70
498.50	6757.13
498.67	6855.43
498.85	6750.10
499.03	6878.83
499.20	6939.69
499.38	6841.39
499.56	6892.88
499.73	7075.44
499.91	6918.62
500.08	7091.82
500.26	6724.36
500.44	7115.23
500.61	7047.35
500.79	7040.33
500.97	7131.61
501.14	7243.96
501.32	7229.91
501.49	7150.34
501.67	7232.26
501.84	7456.95
502.02	7337.58
502.20	7438.22
502.37	7384.39
502.55	7328.22
502.72	7297.79
502.90	7405.46
503.07	7461.63
503.25	7513.12
503.43	7288.43
503.60	7662.91
503.78	7564.61
503.95	7456.95
504.13	7449.93
504.30	7538.87
504.48	7662.91
504.65	7630.15
504.83	7588.02
505.01	7733.13
505.18	7824.41
505.36	7789.30
505.53	7616.10
505.71	7918.03
505.88	7714.41
506.06	7838.45
506.23	7948.46
506.41	7880.58
506.58	7758.88
506.76	7967.18
506.93	8004.63
507.11	7983.57
507.28	7953.14
507.46	8067.83
507.63	7962.50
507.81	8166.13
507.98	8290.18
508.16	8072.51
508.33	8016.33
508.50	8198.90
508.68	8208.26
508.85	8032.72
509.03	8271.45
509.20	8131.02
509.38	8262.09
509.55	8313.58
509.73	8390.82
509.90	8177.83
510.08	8140.38
510.25	8458.70
510.42	8423.59
510.60	8308.90
510.77	8552.32
510.95	8503.17
511.12	8435.29
511.30	8505.51
511.47	8564.02
511.64	8713.81
511.82	8479.76
511.99	8655.30
512.17	8711.47
512.34	8526.57
512.51	8676.37
512.69	8741.90
512.86	8732.54
513.04	8856.59
513.21	9032.13
513.38	8877.65
513.56	8812.12
513.73	8870.63
513.90	8936.17
514.08	8947.87
514.25	9078.94
514.43	8870.63
514.60	8961.91
514.77	9100.00
514.95	9121.07
515.12	8917.44
515.29	8987.66
515.47	8999.36
515.64	9074.26
515.81	9226.39
515.99	9256.82
516.16	9193.62
516.33	9200.65
516.51	9174.90
516.68	9207.67
516.85	9151.49
517.03	9245.12
517.20	9240.44
517.37	9228.73
517.54	9390.23
517.72	9291.93
517.89	9359.80
518.06	9439.38
518.24	9378.53
518.41	9320.01
518.58	9500.23
518.75	9493.21
518.93	9455.76
519.10	9444.06
519.27	9666.41
519.45	9582.15
519.62	9680.46
519.79	9509.60
519.96	9554.07
520.14	9734.29
520.31	9605.56
520.48	9448.74
520.65	9589.17
520.83	9858.34
521.00	9907.49
521.17	9951.96
521.34	9832.59
521.52	9792.80
521.69	9706.20
521.86	10139.20
522.03	9853.66
522.20	9935.57
522.38	9865.36
522.55	9947.28
522.72	9937.91
522.89	10204.74
523.07	10024.51
523.24	10015.15
523.41	10286.65
523.58	10017.49
523.75	10181.33
523.92	10139.20
524.10	10186.01
524.27	10132.18
524.44	10178.99
524.61	10277.29
524.78	10366.23
524.96	10160.27
525.13	10303.04
525.30	10415.38
525.47	10305.38
525.64	10113.45
525.81	10296.02
525.98	10186.01
526.16	10438.79
526.33	10464.54
526.50	10560.50
526.67	10354.53
526.84	10424.75
527.01	10373.25
527.18	10595.61
527.36	10485.60
527.53	10558.16
527.70	10764.12
527.87	10548.79
528.04	10457.51
528.21	10408.36
528.38	10562.84
528.55	10738.38
528.72	10586.24
528.89	10911.58
529.07	10689.23
529.24	10787.53
529.41	10672.84
529.58	10733.70
529.75	10750.08
529.92	10609.65
530.09	10836.68
530.26	10476.24
530.43	10729.02
530.60	10857.75
530.77	10721.99
530.94	10621.35
531.11	10761.78
531.28	10857.75
531.46	10824.98
531.63	10942.00
531.80	10827.32
531.97	11159.67
532.14	10785.19
532.31	10913.92
532.48	11110.52
532.65	11000.52
532.82	10981.79
532.99	11030.94
533.16	11096.48
533.33	11124.57
533.50	11283.72
533.67	11133.93
533.84	11178.40
534.01	11159.67
534.18	11103.50
534.35	11335.21
534.52	11143.29
534.69	11126.91
534.86	11056.69
535.03	11052.01
535.20	11267.34
535.37	11192.44
535.54	11349.26
535.71	11316.49
535.88	11461.60
536.05	11323.51
536.22	11358.62
536.38	11321.17
536.55	11576.29
536.72	11426.50
536.89	11105.84
537.06	11356.28
537.23	11426.50
537.40	11243.93
537.57	11424.15
537.74	11475.65
537.91	11761.19
538.08	11609.06
538.25	11379.68
538.42	11435.86
538.59	11475.65
538.75	11393.73
538.92	11648.85
539.09	11648.85
539.26	11712.04
539.43	11709.70
539.60	11618.42
539.77	11866.52
539.94	11672.25
540.11	11864.18
540.28	11852.47
540.44	11800.98
540.61	11796.30
540.78	11946.09
540.95	12013.97
541.12	12306.54
541.29	12067.80
541.46	12208.23
541.62	12308.88
541.79	12168.45
541.96	12020.99
542.13	11981.20
542.30	12187.17
542.47	12461.01
542.63	12173.13
542.80	12393.14
542.97	12395.48
543.14	12383.77
543.31	12491.44
543.48	12390.80
543.64	12320.58
543.81	12606.13
543.98	12423.56
544.15	12217.60
544.32	12365.05
544.48	12346.33
544.65	12346.33
544.82	12306.54
544.99	12088.87
545.16	12341.64
545.32	12367.39
545.49	12781.67
545.66	13247.43
545.83	13692.13
546.00	13408.93
546.16	12823.80
546.33	12620.17
546.50	12140.36
546.67	12468.03
546.83	12381.43
547.00	12383.77
547.17	12491.44
547.34	12538.25
547.50	12545.27
547.67	12484.42
547.84	12442.29
548.00	12624.85
548.17	12362.71
548.34	12402.50
548.51	12617.83
548.67	12561.66
548.84	12388.46
549.01	12374.41
549.18	12395.48
549.34	12273.77
549.51	12552.29
549.68	12561.66
549.84	12425.90
550.01	12507.82
550.18	12451.65
550.34	12636.55
550.51	12575.70
550.68	12383.77
550.84	12222.28
551.01	12807.41
551.18	12531.23
551.34	12404.84
551.51	12695.07
551.68	12517.18
551.84	12545.27
552.01	12578.04
552.18	12685.70
552.34	12437.61
552.51	12386.12
552.68	12524.21
552.84	12491.44
553.01	12512.50
553.18	12484.42
553.34	12486.76
553.51	12662.30
553.67	12589.74
553.84	12573.36
554.01	12613.15
554.17	12725.49
554.34	12538.25
554.51	12779.32
554.67	12676.34
554.84	12709.11
555.00	12655.28
555.17	12643.57
555.33	12788.69
555.50	12786.35
555.67	12713.79
555.83	12727.83
556.00	12568.68
556.16	12954.87
556.33	12683.36
556.50	12608.47
556.66	12791.03
556.83	12578.04
556.99	12746.56
557.16	12842.52
557.32	12910.40
557.49	12725.49
557.65	12571.02
557.82	12858.90
557.98	12858.90
558.15	12802.73
558.32	12856.56
558.48	12908.05
558.65	12858.90
558.81	12863.58
558.98	12835.50
559.14	12727.83
559.31	12615.49
559.47	12975.93
559.64	12844.86
559.80	12821.45
559.97	12765.28
560.13	12807.41
560.30	12807.41
560.46	12734.85
560.63	12877.63
560.79	12929.12
560.96	12765.28
561.12	12938.48
561.29	12919.76
561.45	12975.93
561.61	12910.40
561.78	13015.72
561.94	12879.97
562.11	12695.07
562.27	12992.31
562.44	12886.99
562.60	12690.38
562.77	12727.83
562.93	12889.33
563.10	12915.08
563.26	13027.42
563.42	13041.46
563.59	12840.18
563.75	12950.18
563.92	12931.46
564.08	12954.87
564.24	13118.70
564.41	12727.83
564.57	12999.34
564.74	12812.09
564.90	13149.13
565.07	13071.89
565.23	13020.40
565.39	13071.89
565.56	13132.75
565.72	12765.28
565.88	12926.78
566.05	12826.14
566.21	12975.93
566.38	12954.87
566.54	13057.85
566.70	12926.78
566.87	13135.09
567.03	12999.34
567.19	13111.68
567.36	13123.38
567.52	12802.73
567.68	12889.33
567.85	12980.61
568.01	13078.91
568.17	12739.54
568.34	12863.58
568.50	13060.19
568.66	13130.41
568.83	13050.83
568.99	13013.38
569.15	12809.75
569.32	12678.68
569.48	12744.22
569.64	13099.98
569.81	13036.78
569.97	12943.16
570.13	13006.36
570.30	12980.61
570.46	12943.16
570.62	12943.16
570.78	13144.45
570.95	12952.52
571.11	13104.66
571.27	13186.58
571.43	12954.87
571.60	13107.00
571.76	13226.37
571.92	13291.90
572.09	12978.27
572.25	13060.19
572.41	12992.31
572.57	12905.71
572.74	13153.81
572.90	13123.38
573.06	13053.17
573.22	13034.44
573.38	13153.81
573.55	13181.90
573.71	13036.78
573.87	13268.50
574.03	12865.92
574.20	12886.99
574.36	13036.78
574.52	12999.34
574.68	12929.12
574.84	12945.50
575.01	13200.62
575.17	13053.17
575.33	13083.59
575.49	13111.68
575.65	12851.88
575.82	13308.29
575.98	12872.95
576.14	13128.06
576.30	12901.03
576.46	13179.56
576.62	13165.51
576.79	13296.58
576.95	13305.95
577.11	13137.43
577.27	13167.85
577.43	13219.35
577.59	13036.78
577.75	13062.53
577.92	13004.02
578.08	13146.79
578.24	13081.25
578.40	13097.64
578.56	13348.08
578.72	13446.38
578.88	13273.18
579.04	13135.09
579.21	13429.99
579.37	13317.65
579.53	13242.75
579.69	13270.84
579.85	13132.75
580.01	12938.48
580.17	13116.36
580.33	13128.06
580.49	13245.09
580.65	13331.69
580.82	13160.83
580.98	13205.30
581.14	13303.60
581.30	13036.78
581.46	12959.55
581.62	13142.11
581.78	13118.70
581.94	13324.67
582.10	13191.26
582.26	13383.18
582.42	13448.72
582.58	13158.49
582.74	13280.20
582.90	13177.22
583.06	13202.96
583.22	13284.88
583.38	13212.32
583.54	13078.91
583.70	13202.96
583.86	13067.21
584.02	13298.92
584.18	13221.69
584.34	13376.16
584.50	13500.21
584.66	13207.64
584.82	13277.86
584.98	13221.69
585.14	13322.33
585.30	13074.23
585.46	13050.83
585.62	13373.82
585.78	13231.05
585.94	13205.30
586.10	13540.00
586.26	13420.63
586.42	13266.16
586.58	13296.58
586.74	13376.16
586.90	13621.92
587.06	13128.06
587.22	13469.78
587.38	13486.17
587.54	13350.42
587.70	13659.37
587.86	13254.45
588.02	13343.39
588.18	13238.07
588.34	13371.48
588.49	13273.18
588.65	12959.55
588.81	13404.25
588.97	13341.05
589.13	13018.06
589.29	13160.83
589.45	13233.39
589.61	13390.20
589.77	13469.78
589.93	13259.13
590.08	13348.08
590.24	13338.71
590.40	13467.44
590.56	13516.59
590.72	13303.60
590.88	13329.35
591.04	13123.38
591.20	13238.07
591.35	13493.19
591.51	13612.56
591.67	13319.99
591.83	13469.78
591.99	13593.83
592.15	13256.79
592.31	13282.54
592.46	13371.48
592.62	13408.93
592.78	13284.88
592.94	13472.12
593.10	13392.55
593.26	13523.62
593.41	13392.55
593.57	13455.74
593.73	13315.31
593.89	13329.35
594.05	13497.87
594.20	13135.09
594.36	13525.96
594.52	13671.07
594.68	13373.82
594.84	13397.23
