SpectraSuite Data File
++++++++++++++++++++++++++++++++++++
Date: Fri Oct 04 11:39:24 GMT-05:00 2013
User: price-jones
Dark Spectrum Present: No
Reference Spectrum Present: No
Number of Sampled Component Spectra: 1
Spectrometers: USB2+H05261
Integration Time (usec): 100000 (USB2+H05261)
Spectra Averaged: 1 (USB2+H05261)
Boxcar Smoothing: 0 (USB2+H05261)
Correct for Electrical Dark: No (USB2+H05261)
Strobe/Lamp Enabled: No (USB2+H05261)
Correct for Detector Non-linearity: No (USB2+H05261)
Correct for Stray Light: No (USB2+H05261)
Number of Pixels in Processed Spectrum: 2048
>>>>>Begin Processed Spectral Data<<<<<
365.73	105.32
365.92	105.32
366.12	105.32
366.32	0.00
366.52	0.00
366.72	0.00
366.91	0.00
367.11	0.00
367.31	0.00
367.51	0.00
367.70	0.00
367.90	0.00
368.10	0.00
368.30	0.00
368.49	0.00
368.69	0.00
368.89	0.00
369.09	0.00
369.28	0.00
369.48	0.00
369.68	9.36
369.87	0.00
370.07	14.04
370.27	7.02
370.47	35.11
370.66	117.03
370.86	234.05
371.06	301.93
371.25	215.33
371.45	269.16
371.65	358.10
371.84	217.67
372.04	337.04
372.24	376.83
372.44	271.50
372.63	266.82
372.83	327.68
373.03	269.16
373.22	304.27
373.42	276.18
373.62	259.80
373.81	313.63
374.01	470.45
374.21	330.02
374.40	330.02
374.60	388.53
374.79	297.25
374.99	250.44
375.19	409.59
375.38	458.74
375.58	344.06
375.78	407.25
375.97	407.25
376.17	463.43
376.37	332.36
376.56	315.97
376.76	367.46
376.95	411.93
377.15	362.78
377.35	376.83
377.54	334.70
377.74	280.86
377.93	372.15
378.13	362.78
378.33	374.49
378.52	315.97
378.72	425.98
378.91	397.89
379.11	458.74
379.31	395.55
379.50	358.10
379.70	390.87
379.89	353.42
380.09	315.97
380.28	381.51
380.48	395.55
380.68	447.04
380.87	400.23
381.07	407.25
381.26	407.25
381.46	493.85
381.65	440.02
381.85	440.02
382.04	376.83
382.24	409.59
382.43	393.21
382.63	435.34
382.83	430.66
383.02	519.60
383.22	440.02
383.41	505.56
383.61	470.45
383.80	414.27
384.00	517.26
384.19	477.47
384.39	475.13
384.58	451.72
384.78	526.62
384.97	526.62
385.17	503.22
385.36	472.79
385.56	514.92
385.75	482.15
385.95	512.58
386.14	482.15
386.34	447.04
386.53	557.05
386.72	451.72
386.92	528.96
387.11	484.49
387.31	507.90
387.50	573.43
387.70	503.22
387.89	468.11
388.09	505.56
388.28	500.87
388.48	552.37
388.67	540.66
388.86	568.75
389.06	589.82
389.25	512.58
389.45	596.84
389.64	512.58
389.84	629.60
390.03	512.58
390.22	578.11
390.42	503.22
390.61	554.71
390.81	594.50
391.00	718.54
391.19	589.82
391.39	629.60
391.58	608.54
391.78	653.01
391.97	624.92
392.16	613.22
392.36	657.69
392.55	559.39
392.75	660.03
392.94	645.99
393.13	690.46
393.33	631.94
393.52	645.99
393.71	727.91
393.91	613.22
394.10	645.99
394.29	730.25
394.49	732.59
394.68	748.97
394.88	720.88
395.07	760.67
395.26	753.65
395.46	671.73
395.65	746.63
395.84	781.74
396.04	732.59
396.23	716.20
396.42	753.65
396.62	849.61
396.81	767.70
397.00	798.12
397.19	809.83
397.39	791.10
397.58	926.85
397.77	926.85
397.97	950.26
398.16	863.66
398.35	833.23
398.55	807.48
398.74	866.00
398.93	908.13
399.12	912.81
399.32	875.36
399.51	866.00
399.70	917.49
399.90	828.55
400.09	940.90
400.28	968.98
400.47	940.90
400.67	945.58
400.86	954.94
401.05	889.40
401.24	1034.52
401.44	1050.90
401.63	968.98
401.82	1071.97
402.01	1071.97
402.21	999.41
402.40	1095.37
402.59	1121.12
402.78	1100.05
402.97	1055.58
403.17	1102.39
403.36	1090.69
403.55	1111.75
403.74	1093.03
403.93	1118.78
404.13	1228.78
404.32	1165.59
404.51	1256.87
404.70	1352.83
404.89	1217.08
405.09	1219.42
405.28	1308.36
405.47	1277.93
405.66	1303.68
405.85	1289.64
406.05	1249.85
406.24	1233.46
406.43	1261.55
406.62	1320.06
406.81	1441.77
407.00	1287.29
407.20	1322.40
407.39	1306.02
407.58	1383.26
407.77	1441.77
407.96	1500.28
408.15	1509.65
408.34	1376.24
408.54	1469.86
408.73	1509.65
408.92	1504.96
409.11	1462.83
409.30	1638.38
409.49	1549.43
409.68	1523.69
409.87	1596.25
410.07	1600.93
410.26	1685.19
410.45	1596.25
410.64	1624.33
410.83	1778.81
411.02	1617.31
411.21	1804.55
411.40	1804.55
411.59	1764.76
411.78	1788.17
411.98	1795.19
412.17	1872.43
412.36	1898.17
412.55	1825.62
412.74	2005.84
412.93	1975.41
413.12	1898.17
413.31	1933.28
413.50	1928.60
413.69	2059.67
413.88	2012.86
414.07	2005.84
414.26	2120.53
414.45	2111.16
414.64	2167.34
414.83	2204.78
415.02	2284.36
415.22	2190.74
415.41	2312.45
415.60	2312.45
415.79	2228.19
415.98	2251.60
416.17	2230.53
416.36	2354.58
416.55	2406.07
416.74	2452.88
416.93	2347.56
417.12	2406.07
417.31	2506.71
417.50	2457.56
417.69	2614.38
417.88	2583.95
418.07	2541.82
418.26	2448.20
418.45	2626.08
418.64	2647.15
418.83	2614.38
419.02	2597.99
419.21	2740.77
419.39	2729.06
419.58	2581.61
419.77	2719.70
419.96	2787.58
420.15	2745.45
420.34	2771.19
420.53	2726.72
420.72	2827.37
420.91	2869.50
421.10	2862.48
421.29	2883.54
421.48	2881.20
421.67	2925.67
421.86	2899.92
422.05	3054.40
422.24	2904.60
422.43	2785.24
422.61	3000.57
422.80	2923.33
422.99	2988.86
423.18	3073.12
423.37	3112.91
423.56	2979.50
423.75	2946.73
423.94	3084.83
424.13	2860.13
424.32	2813.32
424.50	3045.04
424.69	3059.08
424.88	3117.59
425.07	3005.25
425.26	3094.19
425.45	3052.06
425.64	3124.62
425.83	3105.89
426.01	3258.03
426.20	3084.83
426.39	3082.49
426.58	3091.85
426.77	3049.72
426.96	3077.80
427.15	3052.06
427.33	3215.90
427.52	3260.37
427.71	3194.83
427.90	3297.81
428.09	3192.49
428.28	3370.37
428.46	3248.66
428.65	3353.99
428.84	3363.35
429.03	3309.52
429.22	3124.62
429.40	3435.91
429.59	3288.45
429.78	3304.84
429.97	3384.41
430.16	3309.52
430.34	3466.33
430.53	3534.21
430.72	3496.76
430.91	3321.22
431.10	3419.52
431.28	3574.00
431.47	3541.23
431.66	3599.74
431.85	3536.55
432.03	3637.19
432.22	3681.66
432.41	3630.17
432.60	3735.50
432.79	3517.83
432.97	3721.45
433.16	3702.73
433.35	3588.04
433.54	3791.67
433.72	3688.68
433.91	3801.03
434.10	3723.79
434.28	3817.41
434.47	3765.92
434.66	3911.04
434.85	3929.76
435.03	3960.19
435.22	4035.08
435.41	4304.25
435.59	4315.95
435.78	4222.33
435.97	4135.73
436.16	4044.45
436.34	4056.15
436.53	3999.98
436.72	4117.00
436.90	4102.96
437.09	4224.67
437.28	3936.78
437.46	4238.71
437.65	4140.41
437.84	4271.48
438.02	4212.96
438.21	4182.54
438.40	4212.96
438.58	4203.60
438.77	4416.59
438.96	4318.29
439.14	4491.49
439.33	4585.11
439.52	4585.11
439.70	4416.59
439.89	4550.00
440.08	4561.70
440.26	4629.58
440.45	4648.30
440.63	4531.28
440.82	4652.98
441.01	4741.93
441.19	4791.08
441.38	4688.09
441.57	4891.72
441.75	5090.67
441.94	5020.45
442.12	4880.02
442.31	5088.32
442.50	5036.83
442.68	4912.78
442.87	4983.00
443.05	4931.51
443.24	5022.79
443.43	5144.50
443.61	5093.01
443.80	5245.14
443.98	5121.09
444.17	5022.79
444.35	5053.22
444.54	5275.57
444.73	5345.78
444.91	5186.63
445.10	5238.12
445.28	5277.91
445.47	4961.94
445.65	5013.43
445.84	5025.13
446.02	5355.15
446.21	5294.29
446.39	5111.73
446.58	5338.76
446.77	5235.78
446.95	5050.88
447.14	5401.96
447.32	5291.95
447.51	5062.58
447.69	5420.68
447.88	5406.64
448.06	5247.48
448.25	5200.67
448.43	5301.31
448.62	5160.88
448.80	5327.06
448.99	5383.23
449.17	5434.72
449.36	5444.09
449.54	5488.56
449.73	5678.14
449.91	5624.31
450.10	5418.34
450.28	5654.73
450.46	5551.75
450.65	5703.89
450.83	5584.52
451.02	5664.10
451.20	5652.39
451.39	5776.44
451.57	5666.44
451.76	5818.57
451.94	5671.12
452.13	5809.21
452.31	5785.80
452.49	5792.83
452.68	5830.27
452.86	5886.45
453.05	5827.93
453.23	6150.93
453.42	5841.98
453.60	5933.26
453.78	5956.66
453.97	5839.64
454.15	5928.58
454.34	6043.26
454.52	6279.66
454.70	5966.03
454.89	6059.65
455.07	5959.00
455.26	6183.70
455.44	6221.14
455.62	6132.20
455.81	6031.56
455.99	6270.30
456.17	6270.30
456.36	6214.12
456.54	6289.02
456.73	6380.30
456.91	6551.16
457.09	6548.82
457.28	6583.93
457.46	6256.25
457.64	6506.69
457.83	6520.73
458.01	6452.86
458.19	6429.45
458.38	6647.12
458.56	6656.48
458.74	6752.45
458.93	6637.76
459.11	6553.50
459.29	6555.84
459.48	6733.72
459.66	6670.53
459.84	6715.00
460.03	6930.33
460.21	6782.87
460.39	6951.39
460.57	6743.08
460.76	6899.90
460.94	6970.12
461.12	6942.03
461.31	7021.61
461.49	6867.13
461.67	6981.82
461.85	7110.55
462.04	6939.69
462.22	7222.89
462.40	7131.61
462.59	7075.44
462.77	6981.82
462.95	7084.80
463.13	7243.96
463.32	7171.40
463.50	7255.66
463.68	7323.54
463.86	7110.55
464.05	7243.96
464.23	7475.67
464.41	7447.58
464.59	7445.24
464.78	7573.97
464.96	7351.62
465.14	7487.37
465.32	7431.20
465.50	7550.57
465.69	7646.53
465.87	7456.95
466.05	7428.86
466.23	7419.50
466.41	7421.84
466.60	7557.59
466.78	7456.95
466.96	7660.57
467.14	7609.08
467.32	7463.97
467.51	7819.73
467.69	7658.23
467.87	7681.64
468.05	7691.00
468.23	7726.11
468.41	7775.26
468.60	7981.23
468.78	7889.95
468.96	7646.53
469.14	7894.63
469.32	7962.50
469.50	7859.52
469.69	7941.44
469.87	8175.49
470.05	8121.66
470.23	8100.59
470.41	8196.56
470.59	8266.77
470.77	7999.95
470.95	8109.96
471.14	8336.99
471.32	8131.02
471.50	8393.16
471.68	8416.57
471.86	8435.29
472.04	8250.39
472.22	8493.80
472.40	8430.61
472.58	8578.06
472.77	8561.68
472.95	8634.24
473.13	8769.99
473.31	8641.26
473.49	8688.07
473.67	8617.85
473.85	8737.22
474.03	8872.97
474.21	9018.08
474.39	9284.91
474.57	9221.71
474.75	9018.08
474.93	9308.31
475.12	9062.55
475.30	9359.80
475.48	9118.73
475.66	9350.44
475.84	9186.60
476.02	9324.69
476.20	9348.10
476.38	9525.98
476.56	9577.47
476.74	9783.44
476.92	9741.31
477.10	9886.42
477.28	10001.11
477.46	9809.19
477.64	9975.36
477.82	10101.75
478.00	10310.06
478.18	10370.91
478.36	10354.53
478.54	10518.37
478.72	10389.64
478.90	10724.33
479.08	10918.60
479.26	10740.72
479.44	10869.45
479.62	10787.53
479.80	10984.13
479.98	10890.51
480.16	11030.94
480.34	11243.93
480.52	11346.92
480.70	11391.39
480.88	11288.40
481.06	11393.73
481.24	11487.35
481.41	11850.13
481.59	11936.73
481.77	12035.03
481.95	12063.12
482.13	11929.71
482.31	12009.29
482.49	12170.79
482.67	12194.19
482.85	12573.36
483.03	12819.11
483.21	12741.88
483.39	12924.44
483.57	12739.54
483.74	12762.94
483.92	13099.98
484.10	12964.23
484.28	13373.82
484.46	13497.87
484.64	13589.15
484.82	13638.30
485.00	13701.50
485.18	14068.96
485.35	13816.18
485.53	13958.96
485.71	14284.29
485.89	14143.86
486.07	14090.02
486.25	14272.59
486.43	14579.20
486.61	14726.65
486.78	14506.64
486.96	14696.22
487.14	14958.36
487.32	15112.84
487.50	15178.37
487.68	15056.67
487.85	15426.47
488.03	15431.15
488.21	16032.67
488.39	15646.48
488.57	15866.49
488.75	15824.36
488.92	16449.28
489.10	16105.23
489.28	16285.45
489.46	16411.84
489.64	16374.39
489.81	17022.72
489.99	16793.34
490.17	16779.30
490.35	17254.43
490.53	17163.15
490.70	17528.27
490.88	17048.46
491.06	17837.22
491.24	17427.63
491.41	17448.69
491.59	17575.08
491.77	17696.79
491.95	18195.32
492.13	18071.28
492.30	18480.87
492.48	18253.84
492.66	18118.09
492.84	18607.26
493.01	18810.89
493.19	18801.52
493.37	18911.53
493.54	19199.41
493.72	19164.31
493.90	19227.50
494.08	19396.02
494.25	19489.64
494.43	19754.12
494.61	19676.88
494.79	20105.20
494.96	19786.89
495.14	19896.89
495.32	20123.93
495.49	20109.88
495.67	20266.70
495.85	20372.02
496.02	20776.94
496.20	20545.22
496.38	20847.15
496.55	20711.40
496.73	20912.69
496.91	20926.73
497.09	21603.14
497.26	21235.68
497.44	21638.25
497.62	21427.60
497.79	21738.90
497.97	21671.02
498.14	21888.69
498.32	22361.48
498.50	22036.14
498.67	22204.66
498.85	22157.85
499.03	22260.84
499.20	22169.55
499.38	22183.60
499.56	22579.15
499.73	22721.92
499.91	22750.01
500.08	22944.27
500.26	22515.95
500.44	23204.07
500.61	23278.97
500.79	23154.92
500.97	23349.18
501.14	23438.12
501.32	23398.34
501.49	23445.15
501.67	23608.98
501.84	23756.44
502.02	23709.63
502.20	23868.78
502.37	24177.73
502.55	23946.02
502.72	24283.06
502.90	24011.56
503.07	23896.87
503.25	24343.91
503.43	24088.79
503.60	24519.45
503.78	24788.61
503.95	24554.56
504.13	24776.91
504.30	24531.15
504.48	24950.11
504.65	24907.98
504.83	24776.91
505.01	24954.79
505.18	25266.08
505.36	25575.03
505.53	25458.01
505.71	25127.99
505.88	25333.96
506.06	25366.73
506.23	25621.84
506.41	25544.61
506.58	26150.81
506.76	25909.73
506.93	26253.79
507.11	25865.26
507.28	26118.04
507.46	25958.88
507.63	26281.88
507.81	26389.54
507.98	26324.01
508.16	26405.92
508.33	26263.15
508.50	26253.79
508.68	26436.35
508.85	27154.90
509.03	26930.20
509.20	26691.47
509.38	27405.33
509.55	27419.38
509.73	27227.45
509.90	26998.08
510.08	27257.88
510.25	27278.94
510.42	27578.53
510.60	27374.91
510.77	27608.96
510.95	27608.96
511.12	27421.72
511.30	27985.79
511.47	28144.94
511.64	28095.79
511.82	28215.16
511.99	28343.89
512.17	28496.02
512.34	28535.81
512.51	28931.36
512.69	28254.95
512.86	28542.83
513.04	28711.35
513.21	28943.06
513.38	29041.37
513.56	29139.67
513.73	29015.62
513.90	29027.32
514.08	28807.31
514.25	29399.47
514.43	29560.97
514.60	29537.56
514.77	29450.96
514.95	29582.03
515.12	29397.13
515.29	29472.03
515.47	29844.17
515.64	30005.67
515.81	29783.32
515.99	30422.28
516.16	29769.27
516.33	30218.66
516.51	30452.71
516.68	30064.18
516.85	30263.13
517.03	30251.42
517.20	30721.87
517.37	30621.23
517.54	31021.46
517.72	30623.57
517.89	30476.12
518.06	30972.31
518.24	31103.38
518.41	31096.36
518.58	30831.88
518.75	30759.32
518.93	31311.69
519.10	31087.00
519.27	31278.92
519.45	31321.05
519.62	31388.92
519.79	31608.93
519.96	31445.10
520.14	31831.29
520.31	31552.76
520.48	31988.10
520.65	31835.97
520.83	32208.11
521.00	32156.62
521.17	31913.20
521.34	32285.35
521.52	32009.17
521.69	32093.43
521.86	32341.52
522.03	32615.37
522.20	32503.02
522.38	32500.68
522.55	32797.93
522.72	32542.81
522.89	32624.73
523.07	32704.31
523.24	32903.25
523.41	32758.14
523.58	32666.86
523.75	33184.12
523.92	33195.82
524.10	33144.33
524.27	33294.12
524.44	33446.26
524.61	33479.02
524.78	33532.86
524.96	33640.52
525.13	33500.09
525.30	33792.65
525.47	33436.89
525.64	33717.76
525.81	34094.58
525.98	34113.31
526.16	33755.21
526.33	33869.89
526.50	33921.38
526.67	33652.22
526.84	34176.50
527.01	34375.45
527.18	34160.12
527.36	34412.90
527.53	34281.83
527.70	34316.93
527.87	34817.81
528.04	34485.45
528.21	34277.15
528.38	34618.86
528.55	34672.70
528.72	34836.53
528.89	34958.24
529.07	34742.91
529.24	34466.73
529.41	34955.90
529.58	34881.00
529.75	35002.71
529.92	34897.39
530.09	34803.77
530.26	34843.56
530.43	35171.23
530.60	34728.87
530.77	35213.36
530.94	35325.71
531.11	35204.00
531.28	35227.40
531.46	35318.68
531.63	35613.59
531.80	35576.14
531.97	35974.03
532.14	36273.62
532.31	35213.36
532.48	35878.07
532.65	35562.10
532.82	35985.74
532.99	36198.73
533.16	36112.13
533.33	36156.60
533.50	36409.37
533.67	36067.66
533.84	36383.63
534.01	35990.42
534.18	35857.01
534.35	36603.64
534.52	36208.09
534.69	36542.78
534.86	36699.60
535.03	36547.47
535.20	36676.19
535.37	36350.86
535.54	36959.40
535.71	36477.25
535.88	36627.04
536.05	36999.19
536.22	37359.63
536.38	37184.09
536.55	37205.16
536.72	37345.59
536.89	37046.00
537.06	36807.26
537.23	37429.85
537.40	37368.99
537.57	37544.53
537.74	37310.48
537.91	37759.86
538.08	37680.28
538.25	37399.42
538.42	37193.45
538.59	37663.90
538.75	37357.29
538.92	37846.46
539.09	37631.13
539.26	37949.45
539.43	38124.99
539.60	37731.78
539.77	38122.65
539.94	38054.77
540.11	38115.62
540.28	38066.47
540.44	38265.42
540.61	38249.03
540.78	38370.74
540.95	38263.08
541.12	38754.59
541.29	38043.07
541.46	38220.95
541.62	38543.94
541.79	38712.46
541.96	38335.63
542.13	38597.77
542.30	38663.31
542.47	38911.41
542.63	39117.37
542.80	39332.70
542.97	39655.70
543.14	39203.97
543.31	38923.11
543.48	39005.03
543.64	39407.60
543.81	39732.93
543.98	40048.91
544.15	39639.31
544.32	39552.71
544.48	39952.94
544.65	39100.99
544.82	39482.50
544.99	39541.01
545.16	39618.25
545.32	39115.03
545.49	40261.90
545.66	40835.33
545.83	40840.01
546.00	40889.16
546.16	40067.63
546.33	39477.82
546.50	39423.98
546.67	39828.90
546.83	39573.78
547.00	39901.45
547.17	40236.15
547.34	40238.49
547.50	40095.72
547.67	40114.44
547.84	39714.21
548.00	40147.21
548.17	40596.59
548.34	40245.51
548.51	40154.23
548.67	40666.81
548.84	40542.76
549.01	40526.38
549.18	40367.22
549.34	40311.05
549.51	40423.39
549.68	40451.48
549.84	40608.29
550.01	40198.70
550.18	39957.63
550.34	40282.96
550.51	40774.47
550.68	40575.53
550.84	40142.53
551.01	40563.82
551.18	41017.89
551.34	40727.66
551.51	40502.97
551.68	40713.62
551.84	41090.44
552.01	40921.93
552.18	40758.09
552.34	40388.28
552.51	40994.48
552.68	40502.97
552.84	41038.95
553.01	41158.32
553.18	41202.79
553.34	41029.59
553.51	41186.41
553.67	41490.68
553.84	41350.24
554.01	41474.29
554.17	41235.56
554.34	41008.53
554.51	41298.75
554.67	41366.63
554.84	41427.48
555.00	41361.95
555.17	41661.54
555.33	41361.95
555.50	41163.00
555.67	41443.87
555.83	41336.20
556.00	41130.23
556.16	41830.05
556.33	41806.65
556.50	41443.87
556.66	42043.04
556.83	41511.74
556.99	42024.32
557.16	41783.24
557.32	41872.18
557.49	41958.78
557.65	41663.88
557.82	41488.34
557.98	41624.09
558.15	41691.96
558.32	41968.15
558.48	41677.92
558.65	42520.51
558.81	41729.41
558.98	41474.29
559.14	41762.18
559.31	41734.09
559.47	41825.37
559.64	41947.08
559.80	42548.60
559.97	41991.55
560.13	42012.62
560.30	42139.00
560.46	42387.10
560.63	42040.70
560.79	41769.20
560.96	42438.59
561.12	42157.73
561.29	42557.96
561.45	42178.79
561.61	42225.60
561.78	42293.48
561.94	42021.98
562.11	42398.80
562.27	42054.75
562.44	42146.03
562.60	41989.21
562.77	42241.99
562.93	42504.13
563.10	42436.25
563.26	42389.44
563.42	42553.28
563.59	42220.92
563.75	42670.31
563.92	42340.29
564.08	42316.89
564.24	42518.17
564.41	42429.23
564.57	42724.14
564.74	42141.35
564.90	42501.79
565.07	43058.84
565.23	42597.75
565.39	42724.14
565.56	42902.02
565.72	42747.54
565.88	42471.36
566.05	42494.77
566.21	42340.29
566.38	42602.43
566.54	42394.12
566.70	42969.90
566.87	42480.72
567.03	42770.95
567.19	42845.85
567.36	42787.33
567.52	42696.05
567.68	42857.55
567.85	42543.92
568.01	42773.29
568.17	43192.25
568.34	43295.23
568.50	42742.86
568.66	43100.97
568.83	42979.26
568.99	42696.05
569.15	42927.77
569.32	42244.33
569.48	42375.40
569.64	42920.74
569.81	42623.50
569.97	43002.66
570.13	42967.55
570.30	42909.04
570.46	42806.06
570.62	43360.76
570.78	42674.99
570.95	42419.87
571.11	42904.36
571.27	42731.16
571.43	42740.52
571.60	42808.40
571.76	42981.60
571.92	42850.53
572.09	43274.16
572.25	43339.70
572.41	42993.30
572.57	42476.04
572.74	43065.86
572.90	43236.72
573.06	43084.58
573.22	42567.32
573.38	42906.70
573.55	42920.74
573.71	43330.34
573.87	43290.55
574.03	43391.19
574.20	42941.81
574.36	43044.79
574.52	43440.34
574.68	43065.86
574.84	43196.93
575.01	42976.92
575.17	43505.88
575.33	42974.58
575.49	43173.52
575.65	43269.48
575.82	43164.16
575.98	43358.42
576.14	43255.44
576.30	42909.04
576.46	43154.80
576.62	43140.75
576.79	43164.16
576.95	43592.48
577.11	43309.27
577.27	43168.84
577.43	43178.20
577.59	43407.58
577.75	43454.39
577.92	42890.32
578.08	43033.09
578.24	42969.90
578.40	43229.69
578.56	43180.54
578.72	43611.20
578.88	43915.47
579.04	43536.30
579.21	43210.97
579.37	44048.88
579.53	43040.11
579.69	43075.22
579.85	43225.01
580.01	43665.03
580.17	43131.39
580.33	43585.46
580.49	43311.61
580.65	43679.08
580.82	43920.15
580.98	43576.09
581.14	43274.16
581.30	43428.64
581.46	42944.15
581.62	43182.88
581.78	43119.69
581.94	43569.07
582.10	43089.26
582.26	43363.11
582.42	43335.02
582.58	43473.11
582.74	43171.18
582.90	43351.40
583.06	43725.89
583.22	43592.48
583.38	43192.25
583.54	42911.38
583.70	42993.30
583.86	43449.70
584.02	43320.98
584.18	43543.33
584.34	43576.09
584.50	43494.18
584.66	43721.21
584.82	43225.01
584.98	43363.11
585.14	43508.22
585.30	43239.06
585.46	43459.07
585.62	43538.65
585.78	43555.03
585.94	43225.01
586.10	43267.14
586.26	43746.95
586.42	43707.16
586.58	43948.24
586.74	43650.99
586.90	43150.12
587.06	43538.65
587.22	43782.06
587.38	43367.79
587.54	43632.27
587.70	43859.30
587.86	43576.09
588.02	43573.75
588.18	43772.70
588.34	43576.09
588.49	43365.45
588.65	43526.94
588.81	43449.70
588.97	43601.84
589.13	43447.36
589.29	43533.96
589.45	43548.01
589.61	43765.68
589.77	43971.64
589.93	44128.46
590.08	44095.69
590.24	44091.01
590.40	43915.47
590.56	43838.23
590.72	43990.37
590.88	43196.93
591.04	43885.04
