SpectraSuite Data File
++++++++++++++++++++++++++++++++++++
Date: Fri Oct 04 11:39:35 GMT-05:00 2013
User: price-jones
Dark Spectrum Present: No
Reference Spectrum Present: No
Number of Sampled Component Spectra: 1
Spectrometers: USB2+H05261
Integration Time (usec): 100000 (USB2+H05261)
Spectra Averaged: 1 (USB2+H05261)
Boxcar Smoothing: 0 (USB2+H05261)
Correct for Electrical Dark: No (USB2+H05261)
Strobe/Lamp Enabled: No (USB2+H05261)
Correct for Detector Non-linearity: No (USB2+H05261)
Correct for Stray Light: No (USB2+H05261)
Number of Pixels in Processed Spectrum: 2048
>>>>>Begin Processed Spectral Data<<<<<
365.73	23.41
365.92	23.41
366.12	23.41
366.32	0.00
366.52	0.00
366.72	0.00
366.91	0.00
367.11	0.00
367.31	0.00
367.51	0.00
367.70	0.00
367.90	0.00
368.10	0.00
368.30	0.00
368.49	0.00
368.69	21.06
368.89	0.00
369.09	0.00
369.28	0.00
369.48	72.56
369.68	14.04
369.87	0.00
370.07	18.72
370.27	9.36
370.47	63.19
370.66	152.13
370.86	241.08
371.06	220.01
371.25	278.52
371.45	187.24
371.65	245.76
371.84	271.50
372.04	138.09
372.24	191.92
372.44	238.73
372.63	287.89
372.83	262.14
373.03	285.55
373.22	292.57
373.42	339.38
373.62	301.93
373.81	318.31
374.01	320.65
374.21	341.72
374.40	285.55
374.60	287.89
374.79	313.63
374.99	285.55
375.19	386.19
375.38	315.97
375.58	369.80
375.78	409.59
375.97	278.52
376.17	320.65
376.37	245.76
376.56	337.04
376.76	315.97
376.95	304.27
377.15	306.61
377.35	294.91
377.54	365.12
377.74	374.49
377.93	369.80
378.13	367.46
378.33	381.51
378.52	330.02
378.72	337.04
378.91	383.85
379.11	330.02
379.31	215.33
379.50	393.21
379.70	386.19
379.89	325.33
380.09	318.31
380.28	299.59
380.48	374.49
380.68	250.44
380.87	341.72
381.07	386.19
381.26	397.89
381.46	404.91
381.65	344.06
381.85	376.83
382.04	386.19
382.24	395.55
382.43	351.08
382.63	322.99
382.83	369.80
383.02	379.17
383.22	411.93
383.41	332.36
383.61	348.74
383.80	442.36
384.00	388.53
384.19	308.95
384.39	423.64
384.58	278.52
384.78	454.06
384.97	428.32
385.17	409.59
385.36	348.74
385.56	388.53
385.75	374.49
385.95	421.30
386.14	430.66
386.34	348.74
386.53	346.40
386.72	435.34
386.92	411.93
387.11	395.55
387.31	440.02
387.50	414.27
387.70	463.43
387.89	505.56
388.09	477.47
388.28	404.91
388.48	479.81
388.67	454.06
388.86	365.12
389.06	503.22
389.25	566.41
389.45	491.51
389.64	425.98
389.84	519.60
390.03	545.34
390.22	533.64
390.42	409.59
390.61	470.45
390.81	491.51
391.00	535.98
391.19	517.26
391.39	531.30
391.58	484.49
391.78	564.07
391.97	573.43
392.16	510.24
392.36	599.18
392.55	531.30
392.75	561.73
392.94	557.05
393.13	575.77
393.33	524.28
393.52	538.32
393.71	521.94
393.91	634.29
394.10	566.41
394.29	603.86
394.49	573.43
394.68	573.43
394.88	627.26
395.07	645.99
395.26	645.99
395.46	620.24
395.65	685.78
395.84	711.52
396.04	725.57
396.23	678.76
396.42	627.26
396.62	727.91
396.81	744.29
397.00	758.33
397.19	685.78
397.39	657.69
397.58	746.63
397.77	732.59
397.97	702.16
398.16	690.46
398.35	770.04
398.55	702.16
398.74	770.04
398.93	781.74
399.12	784.08
399.32	798.12
399.51	711.52
399.70	891.74
399.90	849.61
400.09	774.72
400.28	861.32
400.47	826.21
400.67	856.64
400.86	814.51
401.05	889.40
401.24	992.39
401.44	884.72
401.63	910.47
401.82	1022.81
402.01	915.15
402.21	929.19
402.40	933.87
402.59	973.66
402.78	950.26
402.97	1006.43
403.17	994.73
403.36	1055.58
403.55	1043.88
403.74	1020.47
403.93	1053.24
404.13	1137.50
404.32	1170.27
404.51	1100.05
404.70	1203.04
404.89	1170.27
405.09	1193.67
405.28	1104.73
405.47	1149.20
405.66	1289.64
405.85	1151.54
406.05	1263.89
406.24	1212.40
406.43	1266.23
406.62	1296.66
406.81	1280.27
407.00	1228.78
407.20	1268.57
407.39	1231.12
407.58	1343.47
407.77	1427.73
407.96	1394.96
408.15	1373.89
408.34	1385.60
408.54	1338.79
408.73	1441.77
408.92	1401.98
409.11	1526.03
409.30	1488.58
409.49	1488.58
409.68	1495.60
409.87	1540.07
410.07	1629.01
410.26	1526.03
410.45	1514.33
410.64	1661.78
410.83	1603.27
411.02	1563.48
411.21	1750.72
411.40	1696.89
411.59	1696.89
411.78	1743.70
411.98	1713.27
412.17	1849.02
412.36	1743.70
412.55	1870.09
412.74	1851.36
412.93	1818.60
413.12	1930.94
413.31	1952.01
413.50	1879.45
413.69	2054.99
413.88	2043.29
414.07	2111.16
414.26	1996.48
414.45	2069.03
414.64	2122.87
414.83	2183.72
415.02	2207.13
415.22	2258.62
415.41	2200.10
415.60	2265.64
415.79	2289.04
415.98	2260.96
416.17	2272.66
416.36	2345.22
416.55	2326.49
416.74	2340.54
416.93	2413.09
417.12	2455.22
417.31	2438.84
417.50	2450.54
417.69	2534.80
417.88	2546.50
418.07	2506.71
418.26	2546.50
418.45	2696.30
418.64	2715.02
418.83	2686.94
419.02	2682.25
419.21	2675.23
419.39	2619.06
419.58	2560.55
419.77	2672.89
419.96	2822.69
420.15	2928.01
420.34	2782.90
420.53	2874.18
420.72	2745.45
420.91	2738.43
421.10	2995.89
421.29	2897.58
421.48	2911.63
421.67	2892.90
421.86	2909.29
422.05	3054.40
422.24	2986.52
422.43	3002.91
422.61	2928.01
422.80	2979.50
422.99	3007.59
423.18	3157.38
423.37	3068.44
423.56	3201.85
423.75	3030.99
423.94	2930.35
424.13	2820.35
424.32	2998.23
424.50	3171.43
424.69	3126.96
424.88	3157.38
425.07	2965.46
425.26	3082.49
425.45	3131.64
425.64	3136.32
425.83	3061.42
426.01	3159.72
426.20	3166.74
426.39	3159.72
426.58	3171.43
426.77	3246.32
426.96	3253.34
427.15	3300.16
427.33	3316.54
427.52	3246.32
427.71	3302.50
427.90	3370.37
428.09	3403.14
428.28	3316.54
428.46	3435.91
428.65	3382.07
428.84	3541.23
429.03	3548.25
429.22	3276.75
429.40	3456.97
429.59	3459.31
429.78	3295.47
429.97	3386.76
430.16	3426.54
430.34	3578.68
430.53	3564.64
430.72	3562.30
430.91	3574.00
431.10	3508.46
431.28	3566.98
431.47	3782.31
431.66	3667.62
431.85	3684.00
432.03	3726.13
432.22	3861.88
432.41	3599.74
432.60	3854.86
432.79	3742.52
432.97	3831.46
433.16	3838.48
433.35	3786.99
433.54	3789.33
433.72	3932.10
433.91	3845.50
434.10	3866.56
434.28	3889.97
434.47	3922.74
434.66	4023.38
434.85	3957.85
435.03	3932.10
435.22	4234.03
435.41	4472.76
435.59	4311.27
435.78	4322.97
435.97	4063.17
436.16	4128.70
436.34	3976.57
436.53	4217.65
436.72	4292.54
436.90	4294.88
437.09	4159.13
437.28	4180.20
437.46	4191.90
437.65	4208.28
437.84	4339.35
438.02	4297.22
438.21	4297.22
438.40	4283.18
438.58	4313.61
438.77	4337.01
438.96	4514.89
439.14	4463.40
439.33	4568.73
439.52	4545.32
439.70	4470.42
439.89	4807.46
440.08	4645.96
440.26	4622.56
440.45	4622.56
440.63	4887.04
440.82	4889.38
441.01	4894.06
441.19	4842.57
441.38	5039.17
441.57	4774.69
441.75	4851.93
441.94	5069.60
442.12	5090.67
442.31	5062.58
442.50	5004.07
442.68	5020.45
442.87	5160.88
443.05	5167.90
443.24	5418.34
443.43	5315.36
443.61	5186.63
443.80	5249.82
443.98	5022.79
444.17	5111.73
444.35	5256.84
444.54	5315.36
444.73	5434.72
444.91	5191.31
445.10	5526.00
445.28	5268.55
445.47	5277.91
445.65	5261.52
445.84	5247.48
446.02	5352.81
446.21	5308.34
446.39	5385.57
446.58	5401.96
446.77	5425.36
446.95	5151.52
447.14	5298.97
447.32	5533.03
447.51	5493.24
447.69	5226.42
447.88	5310.68
448.06	5558.77
448.25	5408.98
448.43	5341.10
448.62	5432.38
448.80	5394.93
448.99	5540.05
449.17	5605.58
449.36	5537.71
449.54	5680.48
449.73	5652.39
449.91	5547.07
450.10	5675.80
450.28	5731.97
450.46	5614.95
450.65	5844.32
450.83	5668.78
451.02	5729.63
451.20	5884.11
451.39	5813.89
451.57	5818.57
451.76	5668.78
451.94	5879.43
452.13	5837.30
452.31	5926.24
452.49	5696.86
452.68	5881.77
452.86	5926.24
453.05	6078.37
453.23	6076.03
453.42	6001.13
453.60	6066.67
453.78	5928.58
453.97	6134.54
454.15	5895.81
454.34	6052.63
454.52	6197.74
454.70	6157.95
454.89	6169.65
455.07	6087.73
455.26	6237.53
455.44	6235.19
455.62	6352.21
455.81	6211.78
455.99	6307.74
456.17	6225.82
456.36	6284.34
456.54	6401.37
456.73	6459.88
456.91	6403.71
457.09	6633.08
457.28	6785.21
457.46	6497.33
457.64	6621.38
457.83	6595.63
458.01	6574.56
458.19	6761.81
458.38	6738.40
458.56	6712.66
458.74	6803.94
458.93	6684.57
459.11	6829.68
459.29	6953.73
459.48	6817.98
459.66	6920.96
459.84	6846.07
460.03	7309.49
460.21	6951.39
460.39	7016.93
460.57	7019.27
460.76	7124.59
460.94	6974.80
461.12	6946.71
461.31	7000.54
461.49	7136.29
461.67	6932.67
461.85	7250.98
462.04	7094.16
462.22	7382.05
462.40	7178.42
462.59	7148.00
462.77	7204.17
462.95	7215.87
463.13	7258.00
463.32	7391.41
463.50	7485.03
463.68	7428.86
463.86	7346.94
464.05	7330.56
464.23	7414.82
464.41	7485.03
464.59	7248.64
464.78	7655.89
464.96	7250.98
465.14	7370.35
465.32	7630.15
465.50	7585.68
465.69	7510.78
465.87	7449.93
466.05	7529.50
466.23	7513.12
466.41	7817.39
466.60	7885.26
466.78	7726.11
466.96	7625.47
467.14	7646.53
467.32	7700.36
467.51	7906.33
467.69	7602.06
467.87	7742.49
468.05	7777.60
468.23	7815.05
468.41	7777.60
468.60	7889.95
468.78	8079.53
468.96	7791.64
469.14	7946.12
469.32	7943.78
469.50	7840.79
469.69	8023.36
469.87	8163.79
470.05	8194.22
470.23	8264.43
470.41	7988.25
470.59	8269.11
470.77	8112.30
470.95	8505.51
471.14	8674.03
471.32	8325.29
471.50	8592.11
471.68	8334.65
471.86	8484.44
472.04	8610.83
472.22	8692.75
472.40	8449.33
472.58	8774.67
472.77	8606.15
472.95	8737.22
473.13	9048.51
473.31	8861.27
473.49	8919.78
473.67	8777.01
473.85	8798.07
474.03	8987.66
474.21	8973.61
474.39	9128.09
474.57	9324.69
474.75	9167.88
474.93	9226.39
475.12	9352.78
475.30	9490.87
475.48	9357.46
475.66	9399.59
475.84	9451.08
476.02	9617.26
476.20	9371.50
476.38	9783.44
476.56	9919.19
476.74	9884.08
476.92	9743.65
477.10	10033.88
477.28	10054.94
477.46	9867.70
477.64	10157.92
477.82	10274.95
478.00	10504.32
478.18	10391.98
478.36	10401.34
478.54	10579.22
478.72	10761.78
478.90	10588.58
479.08	10700.93
479.26	10934.98
479.44	11012.22
479.62	10925.62
479.80	10920.94
479.98	11204.14
480.16	11260.32
480.34	11311.81
480.52	11590.33
480.70	11508.41
480.88	11246.27
481.06	11314.15
481.24	11646.51
481.41	11536.50
481.59	11833.75
481.77	12081.85
481.95	12388.46
482.13	12257.39
482.31	12098.23
482.49	12369.73
482.67	12446.97
482.85	12559.31
483.03	12795.71
483.21	13111.68
483.39	13104.66
483.57	12781.67
483.74	12968.91
483.92	13235.73
484.10	13219.35
484.28	13392.55
484.46	13479.15
484.64	13944.91
484.82	13577.45
485.00	13650.00
485.18	13898.10
485.35	14113.43
485.53	14071.30
485.71	14106.41
485.89	14424.72
486.07	14375.57
486.25	14501.96
486.43	14394.29
486.61	14483.24
486.78	14785.16
486.96	14925.60
487.14	15180.71
487.32	15283.70
487.50	15283.70
487.68	15405.41
487.85	15695.63
488.03	15529.45
488.21	16114.59
488.39	15880.53
488.57	15953.09
488.75	16020.97
488.92	16269.06
489.10	16678.66
489.28	16690.36
489.46	16858.88
489.64	16631.85
489.81	17090.59
489.99	17015.69
490.17	16868.24
490.35	17476.78
490.53	17261.45
490.70	17448.69
490.88	17563.38
491.06	17785.73
491.24	17951.91
491.41	17778.71
491.59	17862.97
491.77	17834.88
491.95	18225.75
492.13	18478.53
492.30	18298.31
492.48	18408.31
492.66	18459.81
492.84	18415.34
493.01	18794.50
493.19	18871.74
493.37	19278.99
493.54	19033.24
493.72	19166.65
493.90	19232.18
494.08	19489.64
494.25	19695.61
494.43	19770.51
494.61	19601.99
494.79	19854.76
494.96	19864.13
495.14	20243.29
495.32	20170.74
495.49	20322.87
495.67	20376.70
495.85	20819.07
496.02	20311.17
496.20	20753.53
496.38	20786.30
496.55	20903.32
496.73	21355.05
496.91	21336.32
497.09	21085.89
497.26	21317.60
497.44	21415.90
497.62	21359.73
497.79	21687.40
497.97	21823.16
498.14	21898.05
498.32	22012.74
498.50	22101.68
498.67	22244.45
498.85	22551.06
499.03	22239.77
499.20	22260.84
499.38	22567.45
499.56	22925.55
499.73	22663.41
499.91	22937.25
500.08	23143.22
500.26	22780.43
500.44	23215.77
500.61	23222.80
500.79	23028.53
500.97	23300.03
501.14	23934.32
501.32	23218.11
501.49	23686.22
501.67	23784.52
501.84	23491.96
502.02	23634.73
502.20	23983.47
502.37	23910.91
502.55	24074.75
502.72	24027.94
502.90	24093.47
503.07	23871.12
503.25	24196.46
503.43	24114.54
503.60	24734.78
503.78	24596.69
503.95	24517.11
504.13	24552.22
504.30	24833.08
504.48	24900.96
504.65	25111.61
504.83	24837.76
505.01	25518.86
505.18	25130.33
505.36	25397.15
505.53	25240.34
505.71	25525.88
505.88	25539.93
506.06	25247.36
506.23	26012.71
506.41	25757.60
506.58	25710.78
506.76	25738.87
506.93	26099.31
507.11	25685.04
507.28	26108.68
507.46	26239.75
507.63	26096.97
507.81	26644.66
507.98	26120.38
508.16	26438.69
508.33	26565.08
508.50	26452.73
508.68	26948.93
508.85	27201.71
509.03	26981.70
509.20	27199.37
509.38	27094.04
509.55	26829.56
509.73	27105.74
509.90	27304.69
510.08	27260.22
510.25	27131.49
510.42	27690.88
510.60	27728.33
510.77	28114.52
510.95	28084.09
511.12	27728.33
511.30	27852.38
511.47	28011.53
511.64	28177.71
511.82	28287.71
511.99	27969.40
512.17	28624.75
512.34	28383.68
512.51	28510.07
512.69	28561.56
512.86	28797.95
513.04	28882.21
513.21	28924.34
513.38	29006.26
513.56	29359.68
513.73	28973.49
513.90	28861.15
514.08	28795.61
514.25	29102.22
514.43	29193.50
514.60	29453.30
514.77	29565.65
514.95	29795.02
515.12	29219.25
515.29	29502.45
515.47	29933.11
515.64	29940.13
515.81	29979.92
515.99	30118.01
516.16	30073.54
516.33	30188.23
516.51	30363.77
516.68	30160.14
516.85	29764.59
517.03	30466.75
517.20	30387.18
517.37	30401.22
517.54	30934.86
517.72	30731.23
517.89	30808.47
518.06	30335.68
518.24	30525.27
518.41	30621.23
518.58	31194.66
518.75	30656.34
518.93	31309.35
519.10	31098.70
519.27	31419.35
519.45	31187.64
519.62	31431.05
519.79	30984.01
519.96	31145.51
520.14	31531.70
520.31	31601.91
520.48	32002.14
520.65	31262.54
520.83	31800.86
521.00	31887.46
521.17	31601.91
521.34	31765.75
521.52	32154.28
521.69	32081.72
521.86	32341.52
522.03	32643.45
522.20	32484.30
522.38	32472.59
522.55	32320.46
522.72	32287.69
522.89	32957.08
523.07	32727.71
523.24	32559.19
523.41	33202.84
523.58	32463.23
523.75	32769.84
523.92	32549.83
524.10	33141.99
524.27	33109.22
524.44	33027.30
524.61	33598.39
524.78	33209.86
524.96	33542.22
525.13	33427.53
525.30	33748.18
525.47	33659.24
525.64	33432.21
525.81	33699.03
525.98	33930.75
526.16	33715.42
526.33	33797.34
526.50	34192.89
526.67	33811.38
526.84	34113.31
527.01	33790.31
527.18	34040.75
527.36	34164.80
527.53	34237.36
527.70	34340.34
527.87	34494.82
528.04	34342.68
528.21	34387.15
528.38	34462.05
528.55	34492.47
528.72	34469.07
528.89	34616.52
529.07	34733.55
529.24	34445.66
529.41	34721.85
529.58	34522.90
529.75	34808.45
529.92	34916.11
530.09	35014.41
530.26	35012.07
530.43	35079.95
530.60	34707.80
530.77	35089.31
530.94	35229.74
531.11	35225.06
531.28	35260.17
531.46	34972.28
531.63	35620.61
531.80	35442.73
531.97	35576.14
532.14	35878.07
532.31	35866.37
532.48	35594.87
532.65	35557.42
532.82	35395.92
532.99	35503.59
533.16	35583.16
533.33	35976.37
533.50	35864.03
533.67	36488.95
533.84	35880.41
534.01	35971.69
534.18	35655.72
534.35	36360.22
534.52	36568.53
534.69	36275.96
534.86	36802.58
535.03	36378.95
535.20	36676.19
535.37	36676.19
535.54	36542.78
535.71	36458.52
535.88	36395.33
536.05	36165.96
536.22	36561.51
536.38	36725.35
536.55	36851.73
536.72	36701.94
536.89	36603.64
537.06	37202.82
537.23	37034.30
537.40	37078.77
537.57	37076.43
537.74	37148.98
537.91	37689.65
538.08	37404.10
538.25	37177.07
538.42	37237.92
538.59	37457.93
538.75	37212.18
538.92	37298.78
539.09	37610.07
539.26	37701.35
539.43	37420.48
539.60	37139.62
539.77	37207.50
539.94	37680.28
540.11	37727.10
540.28	37785.61
540.44	37965.83
540.61	37745.82
540.78	37605.39
540.95	38075.84
541.12	37975.19
541.29	38637.56
541.46	38513.52
541.62	38281.80
541.79	38471.39
541.96	38073.49
542.13	38382.45
542.30	38553.30
542.47	39019.07
542.63	38553.30
542.80	38841.19
542.97	38852.89
543.14	39236.74
543.31	38869.28
543.48	38766.29
543.64	39138.44
543.81	39250.78
543.98	39033.11
544.15	38602.46
544.32	39082.27
544.48	39526.97
544.65	39187.59
544.82	39313.98
544.99	38604.80
545.16	38925.45
545.32	38998.01
545.49	39641.65
545.66	40573.19
545.83	40449.14
546.00	40212.74
546.16	40013.80
546.33	39318.66
546.50	39145.46
546.67	39342.06
546.83	38927.79
547.00	39435.69
547.17	39552.71
547.34	39508.24
547.50	39761.02
547.67	39768.04
547.84	39559.73
548.00	39854.64
548.17	40224.45
548.34	39564.42
548.51	40053.59
548.67	39756.34
548.84	40224.45
549.01	39835.92
549.18	40294.66
549.34	39791.45
549.51	39711.87
549.68	40041.88
549.84	39351.43
550.01	40187.00
550.18	40062.95
550.34	40016.14
550.51	40196.36
550.68	39938.90
550.84	39966.99
551.01	40243.17
551.18	40224.45
551.34	39573.78
551.51	40322.75
551.68	40404.67
551.84	40491.27
552.01	40055.93
552.18	40154.23
552.34	40158.91
552.51	40252.53
552.68	40215.08
552.84	40472.54
553.01	40339.13
553.18	40575.53
553.34	40481.91
553.51	40582.55
553.67	40552.12
553.84	40947.67
554.01	41034.27
554.17	40631.70
554.34	40542.76
554.51	40676.17
554.67	40711.28
554.84	40671.49
555.00	40814.26
555.17	40832.99
555.33	40706.60
555.50	40917.25
555.67	40402.33
555.83	40332.11
556.00	40741.71
556.16	41095.13
556.33	40816.60
556.50	40971.08
556.66	41230.88
556.83	41219.17
556.99	41488.34
557.16	41006.19
557.32	41354.93
557.49	41170.02
557.65	40531.06
557.82	40840.01
557.98	40617.66
558.15	40980.44
558.32	40891.50
558.48	41099.81
558.65	41155.98
558.81	41053.00
558.98	41202.79
559.14	41003.85
559.31	40900.86
559.47	40926.61
559.64	41235.56
559.80	41193.43
559.97	41237.90
560.13	41371.31
560.30	41221.52
560.46	40987.46
560.63	41118.53
560.79	41631.11
560.96	41301.09
561.12	41226.20
561.29	41434.50
561.45	41350.24
561.61	41654.51
561.78	41596.00
561.94	41394.71
562.11	41399.40
562.27	41811.33
562.44	41577.28
562.60	41357.27
562.77	41420.46
562.93	41495.36
563.10	41785.58
563.26	41268.33
563.42	41832.39
563.59	41364.29
563.75	41691.96
563.92	41820.69
564.08	41748.14
564.24	41408.76
564.41	41364.29
564.57	41736.43
564.74	41731.75
564.90	41881.55
565.07	41670.90
565.23	41635.79
565.39	41553.87
565.56	42038.36
565.72	41457.91
565.88	41483.66
566.05	41626.43
566.21	41750.48
566.38	41727.07
566.54	42071.13
566.70	41851.12
566.87	42012.62
567.03	41715.37
567.19	41958.78
567.36	41649.83
567.52	41528.13
567.68	41883.89
567.85	41890.91
568.01	41745.80
568.17	41572.60
568.34	41911.97
568.50	41635.79
568.66	41694.30
568.83	42291.14
568.99	41874.52
569.15	41776.22
569.32	42113.26
569.48	41734.09
569.64	41556.21
569.81	41572.60
569.97	41612.38
570.13	41794.95
570.30	41532.81
570.46	41675.58
570.62	41862.82
570.78	41724.73
570.95	41542.17
571.11	42202.20
571.27	41806.65
571.43	41439.18
571.60	41745.80
571.76	41820.69
571.92	42370.72
572.09	42160.07
572.25	41832.39
572.41	41886.23
572.57	42117.94
572.74	42366.04
572.90	41911.97
573.06	42139.00
573.22	42134.32
573.38	42220.92
573.55	41982.19
573.71	42684.35
573.87	42377.74
574.03	41823.03
574.20	41720.05
574.36	41895.59
574.52	42227.95
574.68	42270.08
574.84	42286.46
575.01	42026.66
575.17	42251.35
575.33	42087.51
575.49	42153.05
575.65	42012.62
575.82	42497.11
575.98	42284.12
576.14	42251.35
576.30	41816.01
576.46	42026.66
576.62	42340.29
576.79	42375.40
576.95	42307.52
577.11	42602.43
577.27	42366.04
577.43	42354.33
577.59	42288.80
577.75	42148.37
577.92	41940.06
578.08	42092.19
578.24	42532.22
578.40	42300.50
578.56	42232.63
578.72	42045.38
578.88	42494.77
579.04	42347.31
579.21	42143.69
579.37	42211.56
579.53	42237.31
579.69	42288.80
579.85	42136.66
580.01	42452.64
580.17	41979.85
580.33	41935.38
580.49	42197.52
580.65	42543.92
580.82	42113.26
580.98	42178.79
581.14	42244.33
581.30	42410.51
581.46	42103.90
581.62	42246.67
581.78	41979.85
581.94	42122.62
582.10	41993.89
582.26	42106.24
582.42	42293.48
582.58	42340.29
582.74	42586.05
582.90	42038.36
583.06	42169.43
583.22	42082.83
583.38	42120.28
583.54	42024.32
583.70	42225.60
583.86	42550.94
584.02	41706.01
584.18	42658.60
584.34	42185.82
584.50	42347.31
584.66	42110.92
584.82	42174.11
584.98	42000.91
585.14	42139.00
585.30	42169.43
585.46	42284.12
585.62	42335.61
585.78	42089.85
585.94	42019.64
586.10	42581.37
586.26	42445.62
586.42	42295.82
586.58	42359.02
586.74	42209.22
586.90	41970.49
587.06	41937.72
587.22	42412.85
587.38	42211.56
587.54	42564.98
587.70	42234.97
587.86	42520.51
588.02	42375.40
588.18	42417.53
588.34	42185.82
588.49	42462.00
588.65	42052.41
588.81	42504.13
588.97	42330.93
589.13	42403.49
589.29	42239.65
589.45	42801.38
589.61	42078.15
589.77	42820.10
589.93	42834.14
590.08	42466.68
590.24	42806.06
590.40	42536.90
590.56	42621.16
590.72	42246.67
590.88	42155.39
591.04	42639.88
