SpectraSuite Data File
++++++++++++++++++++++++++++++++++++
Date: Fri Oct 04 11:39:12 GMT-05:00 2013
User: price-jones
Dark Spectrum Present: No
Reference Spectrum Present: No
Number of Sampled Component Spectra: 1
Spectrometers: USB2+H05261
Integration Time (usec): 100000 (USB2+H05261)
Spectra Averaged: 1 (USB2+H05261)
Boxcar Smoothing: 0 (USB2+H05261)
Correct for Electrical Dark: No (USB2+H05261)
Strobe/Lamp Enabled: No (USB2+H05261)
Correct for Detector Non-linearity: No (USB2+H05261)
Correct for Stray Light: No (USB2+H05261)
Number of Pixels in Processed Spectrum: 2048
>>>>>Begin Processed Spectral Data<<<<<
365.73	42.13
365.92	42.13
366.12	42.13
366.32	0.00
366.52	0.00
366.72	0.00
366.91	0.00
367.11	0.00
367.31	0.00
367.51	0.00
367.70	0.00
367.90	0.00
368.10	0.00
368.30	0.00
368.49	0.00
368.69	0.00
368.89	0.00
369.09	0.00
369.28	0.00
369.48	0.00
369.68	0.00
369.87	46.81
370.07	0.00
370.27	88.94
370.47	110.01
370.66	86.60
370.86	88.94
371.06	112.35
371.25	159.16
371.45	229.37
371.65	175.54
371.84	166.18
372.04	182.56
372.24	191.92
372.44	161.50
372.63	173.20
372.83	224.69
373.03	175.54
373.22	241.08
373.42	203.63
373.62	198.95
373.81	264.48
374.01	266.82
374.21	322.99
374.40	227.03
374.60	304.27
374.79	208.31
374.99	227.03
375.19	227.03
375.38	255.12
375.58	173.20
375.78	292.57
375.97	308.95
376.17	325.33
376.37	285.55
376.56	304.27
376.76	208.31
376.95	229.37
377.15	278.52
377.35	220.01
377.54	236.39
377.74	255.12
377.93	196.60
378.13	285.55
378.33	269.16
378.52	208.31
378.72	280.86
378.91	215.33
379.11	271.50
379.31	290.23
379.50	257.46
379.70	250.44
379.89	217.67
380.09	278.52
380.28	238.73
380.48	229.37
380.68	280.86
380.87	236.39
381.07	215.33
381.26	315.97
381.46	313.63
381.65	332.36
381.85	276.18
382.04	222.35
382.24	262.14
382.43	311.29
382.63	252.78
382.83	341.72
383.02	341.72
383.22	337.04
383.41	212.99
383.61	229.37
383.80	271.50
384.00	269.16
384.19	248.10
384.39	278.52
384.58	325.33
384.78	257.46
384.97	257.46
385.17	280.86
385.36	334.70
385.56	341.72
385.75	257.46
385.95	304.27
386.14	325.33
386.34	283.20
386.53	294.91
386.72	322.99
386.92	348.74
387.11	346.40
387.31	374.49
387.50	318.31
387.70	297.25
387.89	301.93
388.09	306.61
388.28	271.50
388.48	276.18
388.67	369.80
388.86	376.83
389.06	346.40
389.25	320.65
389.45	313.63
389.64	313.63
389.84	358.10
390.03	449.38
390.22	386.19
390.42	379.17
390.61	285.55
390.81	297.25
391.00	355.76
391.19	397.89
391.39	346.40
391.58	330.02
391.78	311.29
391.97	414.27
392.16	390.87
392.36	379.17
392.55	411.93
392.75	386.19
392.94	433.00
393.13	369.80
393.33	348.74
393.52	409.59
393.71	437.68
393.91	416.62
394.10	337.04
394.29	346.40
394.49	367.46
394.68	475.13
394.88	376.83
395.07	428.32
395.26	454.06
395.46	430.66
395.65	433.00
395.84	372.15
396.04	458.74
396.23	437.68
396.42	486.83
396.62	486.83
396.81	468.11
397.00	458.74
397.19	456.40
397.39	484.49
397.58	463.43
397.77	503.22
397.97	475.13
398.16	468.11
398.35	437.68
398.55	463.43
398.74	447.04
398.93	458.74
399.12	505.56
399.32	442.36
399.51	451.72
399.70	514.92
399.90	517.26
400.09	489.17
400.28	512.58
400.47	526.62
400.67	599.18
400.86	491.51
401.05	561.73
401.24	599.18
401.44	575.77
401.63	512.58
401.82	535.98
402.01	524.28
402.21	580.45
402.40	578.11
402.59	543.00
402.78	559.39
402.97	547.69
403.17	608.54
403.36	498.53
403.55	538.32
403.74	507.90
403.93	650.67
404.13	636.63
404.32	617.90
404.51	622.58
404.70	608.54
404.89	622.58
405.09	643.65
405.28	648.33
405.47	603.86
405.66	622.58
405.85	676.41
406.05	624.92
406.24	617.90
406.43	573.43
406.62	716.20
406.81	772.38
407.00	650.67
407.20	650.67
407.39	667.05
407.58	788.76
407.77	667.05
407.96	748.97
408.15	858.98
408.34	751.31
408.54	746.63
408.73	744.29
408.92	678.76
409.11	840.25
409.30	784.08
409.49	755.99
409.68	767.70
409.87	706.84
410.07	835.57
410.26	725.57
410.45	765.36
410.64	737.27
410.83	840.25
411.02	784.08
411.21	847.27
411.40	980.68
411.59	795.78
411.78	812.17
411.98	791.10
412.17	868.34
412.36	873.02
412.55	861.32
412.74	915.15
412.93	945.58
413.12	938.55
413.31	891.74
413.50	983.02
413.69	957.28
413.88	959.62
414.07	929.19
414.26	870.68
414.45	985.37
414.64	924.51
414.83	987.71
415.02	992.39
415.22	1013.45
415.41	1064.94
415.60	1004.09
415.79	1104.73
415.98	1071.97
416.17	1121.12
416.36	1104.73
416.55	1097.71
416.74	1032.18
416.93	1027.50
417.12	1053.24
417.31	1095.37
417.50	1034.52
417.69	1151.54
417.88	1158.57
418.07	1125.80
418.26	1111.75
418.45	1144.52
418.64	1226.44
418.83	1233.46
419.02	1167.93
419.21	1261.55
419.39	1261.55
419.58	1217.08
419.77	1128.14
419.96	1181.97
420.15	1191.33
420.34	1174.95
420.53	1210.06
420.72	1261.55
420.91	1238.14
421.10	1235.80
421.29	1331.76
421.48	1324.74
421.67	1317.72
421.86	1242.82
422.05	1263.89
422.24	1224.10
422.43	1287.29
422.61	1306.02
422.80	1224.10
422.99	1266.23
423.18	1280.27
423.37	1338.79
423.56	1341.13
423.75	1226.44
423.94	1275.59
424.13	1324.74
424.32	1315.38
424.50	1380.92
424.69	1268.57
424.88	1418.36
425.07	1308.36
425.26	1313.04
425.45	1294.32
425.64	1331.76
425.83	1362.19
426.01	1366.87
426.20	1343.47
426.39	1355.17
426.58	1350.49
426.77	1327.08
426.96	1383.26
427.15	1418.36
427.33	1348.15
427.52	1451.13
427.71	1420.71
427.90	1444.11
428.09	1420.71
428.28	1455.81
428.46	1434.75
428.65	1413.68
428.84	1488.58
429.03	1563.48
429.22	1458.15
429.40	1460.49
429.59	1558.80
429.78	1497.94
429.97	1327.08
430.16	1418.36
430.34	1502.62
430.53	1502.62
430.72	1488.58
430.91	1413.68
431.10	1430.07
431.28	1514.33
431.47	1638.38
431.66	1591.56
431.85	1458.15
432.03	1591.56
432.22	1600.93
432.41	1537.73
432.60	1633.69
432.79	1528.37
432.97	1614.97
433.16	1582.20
433.35	1565.82
433.54	1584.54
433.72	1668.80
433.91	1593.90
434.10	1603.27
434.28	1717.95
434.47	1624.33
434.66	1713.27
434.85	1671.14
435.03	1792.85
435.22	1881.79
435.41	1912.22
435.59	2029.24
435.78	1806.89
435.97	1804.55
436.16	1851.36
436.34	1652.42
436.53	1696.89
436.72	1755.40
436.90	1724.97
437.09	1877.11
437.28	1699.23
437.46	1739.02
437.65	1706.25
437.84	1750.72
438.02	1750.72
438.21	1809.23
438.40	1746.04
438.58	1888.81
438.77	1902.86
438.96	1764.76
439.14	1806.89
439.33	1877.11
439.52	2015.20
439.70	1788.17
439.89	1909.88
440.08	1863.07
440.26	1874.77
440.45	1898.17
440.63	1994.14
440.82	1975.41
441.01	1977.75
441.19	1952.01
441.38	1947.33
441.57	1977.75
441.75	1952.01
441.94	1947.33
442.12	2024.56
442.31	2054.99
442.50	2139.25
442.68	2076.06
442.87	2202.44
443.05	2277.34
443.24	2134.57
443.43	2209.47
443.61	2157.97
443.80	2094.78
443.98	2186.06
444.17	2040.95
444.35	2183.72
444.54	2181.38
444.73	2207.13
444.91	2165.00
445.10	2083.08
445.28	2253.94
445.47	2146.27
445.65	2083.08
445.84	2188.40
446.02	2333.51
446.21	2069.03
446.39	2303.09
446.58	2317.13
446.77	2223.51
446.95	2272.66
447.14	2155.63
447.32	2225.85
447.51	2209.47
447.69	2132.23
447.88	2282.02
448.06	2282.02
448.25	2242.23
448.43	2202.44
448.62	2169.68
448.80	2223.51
448.99	2293.72
449.17	2232.87
449.36	2146.27
449.54	2223.51
449.73	2324.15
449.91	2312.45
450.10	2342.88
450.28	2399.05
450.46	2338.20
450.65	2345.22
450.83	2284.36
451.02	2298.41
451.20	2291.38
451.39	2333.51
451.57	2289.04
451.76	2473.95
451.94	2413.09
452.13	2483.31
452.31	2429.48
452.49	2356.92
452.68	2424.80
452.86	2335.85
453.05	2352.24
453.23	2469.27
453.42	2413.09
453.60	2457.56
453.78	2406.07
453.97	2354.58
454.15	2523.10
454.34	2553.52
454.52	2605.02
454.70	2525.44
454.89	2427.14
455.07	2506.71
455.26	2567.57
455.44	2609.70
455.62	2509.05
455.81	2497.35
455.99	2605.02
456.17	2565.23
456.36	2579.27
456.54	2586.29
456.73	2569.91
456.91	2750.13
457.09	2588.63
457.28	2710.34
457.46	2693.96
457.64	2693.96
457.83	2710.34
458.01	2670.55
458.19	2761.83
458.38	2705.66
458.56	2806.30
458.74	2700.98
458.93	2705.66
459.11	2803.96
459.29	2785.24
459.48	2832.05
459.66	2820.35
459.84	2801.62
460.03	2825.03
460.21	2839.07
460.39	2796.94
460.57	2850.77
460.76	2752.47
460.94	2930.35
461.12	2813.32
461.31	2895.24
461.49	2759.49
461.67	2818.00
461.85	2986.52
462.04	2895.24
462.22	3068.44
462.40	2993.55
462.59	2995.89
462.77	2967.80
462.95	2925.67
463.13	2984.18
463.32	2977.16
463.50	2904.60
463.68	2958.44
463.86	2899.92
464.05	3028.65
464.23	2906.95
464.41	3063.76
464.59	2972.48
464.78	2993.55
464.96	2965.46
465.14	3112.91
465.32	3112.91
465.50	3253.34
465.69	3110.57
465.87	3033.33
466.05	3054.40
466.23	3061.42
466.41	3028.65
466.60	3082.49
466.78	3038.02
466.96	3038.02
467.14	3115.25
467.32	3040.36
467.51	3262.71
467.69	2904.60
467.87	3052.06
468.05	3192.49
468.23	3204.19
468.41	3173.77
468.60	3155.04
468.78	3192.49
468.96	3290.79
469.14	3157.38
469.32	3293.13
469.50	3126.96
469.69	3243.98
469.87	3365.69
470.05	3225.26
470.23	3309.52
470.41	3229.94
470.59	3255.69
470.77	3361.01
470.95	3251.00
471.14	3325.90
471.32	3379.73
471.50	3405.48
471.68	3243.98
471.86	3485.06
472.04	3485.06
472.22	3503.78
472.40	3426.54
472.58	3473.36
472.77	3510.80
472.95	3485.06
473.13	3581.02
473.31	3524.85
473.49	3529.53
473.67	3632.51
473.85	3578.68
474.03	3571.66
474.21	3630.17
474.39	3684.00
474.57	3684.00
474.75	3772.94
474.93	3744.86
475.12	3754.22
475.30	3698.05
475.48	3765.92
475.66	3733.15
475.84	3751.88
476.02	3843.16
476.20	3894.65
476.38	3922.74
476.56	3894.65
476.74	3880.61
476.92	3801.03
477.10	4044.45
477.28	4112.32
477.46	4121.68
477.64	4086.58
477.82	3988.27
478.00	4156.79
478.18	4208.28
478.36	4325.31
478.54	4133.39
478.72	4187.22
478.90	4348.72
479.08	4402.55
479.26	4255.09
479.44	4222.33
479.62	4423.61
479.80	4418.93
479.98	4538.30
480.16	4535.96
480.34	4535.96
480.52	4652.98
480.70	4496.17
480.88	4484.47
481.06	4587.45
481.24	4582.77
481.41	4826.18
481.59	4704.48
481.77	4702.14
481.95	4812.14
482.13	4903.42
482.31	4774.69
482.49	4919.81
482.67	4985.34
482.85	5156.20
483.03	5093.01
483.21	5043.85
483.39	5188.97
483.57	5027.47
483.74	5212.37
483.92	5268.55
484.10	5221.74
484.28	5334.08
484.46	5305.99
484.64	5448.77
484.82	5614.95
485.00	5434.72
485.18	5589.20
485.35	5444.09
485.53	5582.18
485.71	5533.03
485.89	5790.49
486.07	5767.08
486.25	5767.08
486.43	5675.80
486.61	5949.64
486.78	6087.73
486.96	5853.68
487.14	5959.00
487.32	5954.32
487.50	6090.07
487.68	6253.91
487.85	6153.27
488.03	6179.01
488.21	6146.25
488.39	6157.95
488.57	6326.47
488.75	6246.89
488.92	6604.99
489.10	6633.08
489.28	6548.82
489.46	6616.69
489.64	6579.25
489.81	6719.68
489.99	6654.14
490.17	6862.45
490.35	6904.58
490.53	6778.19
490.70	6843.73
490.88	6984.16
491.06	6757.13
491.24	6885.86
491.41	6902.24
491.59	7190.13
491.77	6993.52
491.95	7197.15
492.13	7042.67
492.30	7171.40
492.48	7218.21
492.66	7243.96
492.84	7204.17
493.01	7304.81
493.19	7447.58
493.37	7492.05
493.54	7489.71
493.72	7695.68
493.90	7576.31
494.08	7709.72
494.25	7719.09
494.43	7616.10
494.61	7742.49
494.79	7772.92
494.96	7887.61
495.14	7866.54
495.32	8032.72
495.49	7983.57
495.67	8032.72
495.85	7955.48
496.02	7974.21
496.20	8030.38
496.38	8067.83
496.55	8194.22
496.73	8196.56
496.91	8327.63
497.09	8341.67
497.26	8336.99
497.44	8196.56
497.62	8304.22
497.79	8650.62
497.97	8624.87
498.14	8767.65
498.32	8482.10
498.50	8858.93
498.67	8711.47
498.85	8674.03
499.03	8781.69
499.20	8744.24
499.38	8805.10
499.56	9001.70
499.73	9020.42
499.91	8959.57
500.08	8922.12
500.26	8865.95
500.44	8826.16
500.61	9057.87
500.79	9050.85
500.97	9055.53
501.14	9128.09
501.32	9282.56
501.49	9067.24
501.67	9132.77
501.84	9261.50
502.02	9359.80
502.20	9254.48
502.37	9235.75
502.55	9261.50
502.72	9427.68
502.90	9467.47
503.07	9191.28
503.25	9327.03
503.43	9338.74
503.60	9696.84
503.78	9783.44
503.95	9582.15
504.13	9469.81
504.30	9493.21
504.48	9579.81
504.65	9724.93
504.83	9764.72
505.01	9928.55
505.18	9781.10
505.36	9731.95
505.53	9937.91
505.71	9884.08
505.88	9900.47
506.06	9848.97
506.23	10036.22
506.41	9991.75
506.58	9982.38
506.76	9774.08
506.93	10326.44
507.11	10200.05
507.28	10136.86
507.46	10401.34
507.63	10216.44
507.81	10237.50
507.98	10104.09
508.16	10312.40
508.33	10029.20
508.50	10242.18
508.68	10363.89
508.85	10406.02
509.03	10422.41
509.20	10429.43
509.38	10572.20
509.55	10874.13
509.73	10651.78
509.90	10878.81
510.08	10649.44
510.25	10523.05
510.42	10600.29
510.60	11028.60
510.77	10729.02
510.95	11091.80
511.12	10946.69
511.30	10913.92
511.47	10925.62
511.64	10883.49
511.82	11052.01
511.99	10981.79
512.17	11105.84
512.34	11112.86
512.51	11218.19
512.69	10998.18
512.86	10967.75
513.04	11089.46
513.21	10960.73
513.38	11084.78
513.56	11143.29
513.73	11159.67
513.90	11080.10
514.08	11220.53
514.25	11358.62
514.43	11410.11
514.60	11470.97
514.77	11508.41
514.95	11396.07
515.12	11475.65
515.29	11485.01
515.47	11906.31
515.64	11564.59
515.81	11590.33
515.99	11611.40
516.16	11641.82
516.33	11679.27
516.51	11552.88
516.68	11482.67
516.85	11620.76
517.03	11763.53
517.20	11702.68
517.37	11822.05
517.54	11772.89
517.72	11791.62
517.89	11789.28
518.06	11941.41
518.24	11864.18
518.41	11866.52
518.58	11815.02
518.75	11885.24
518.93	11976.52
519.10	12051.42
519.27	12119.29
519.45	12046.74
519.62	12231.64
519.79	12023.33
519.96	12105.25
520.14	12287.81
520.31	12276.11
520.48	12292.49
520.65	12379.09
520.83	12301.86
521.00	12388.46
521.17	12313.56
521.34	12561.66
521.52	12397.82
521.69	12554.63
521.86	12421.22
522.03	12772.30
522.20	12732.51
522.38	12636.55
522.55	12753.58
522.72	12784.01
522.89	12697.41
523.07	12861.24
523.24	12599.10
523.41	12720.81
523.58	12571.02
523.75	12732.51
523.92	12531.23
524.10	12823.80
524.27	12638.89
524.44	12711.45
524.61	12919.76
524.78	12868.27
524.96	12947.84
525.13	13249.77
525.30	13104.66
525.47	12978.27
525.64	13104.66
525.81	13165.51
525.98	13282.54
526.16	13039.12
526.33	13233.39
526.50	13167.85
526.67	13135.09
526.84	13315.31
527.01	13200.62
527.18	13256.79
527.36	13256.79
527.53	13195.94
527.70	13483.83
527.87	13397.23
528.04	13385.52
528.21	13558.72
528.38	13315.31
528.55	13671.07
528.72	13366.80
528.89	13575.11
529.07	13458.08
529.24	13455.74
529.41	13427.65
529.58	13486.17
529.75	13561.06
529.92	13701.50
530.09	13628.94
530.26	13556.38
530.43	13624.26
530.60	13603.19
530.77	13685.11
530.94	13631.28
531.11	13657.03
531.28	13848.95
531.46	13745.97
531.63	13727.24
531.80	13521.27
531.97	13898.10
532.14	13886.40
532.31	13827.88
532.48	13589.15
532.65	13937.89
532.82	13767.03
532.99	13923.85
533.16	13886.40
533.33	13947.25
533.50	14092.37
533.67	13958.96
533.84	13874.70
534.01	13963.64
534.18	14235.14
534.35	14068.96
534.52	14377.91
534.69	14438.76
534.86	14256.20
535.03	13987.04
535.20	14356.85
535.37	14167.26
535.54	14281.95
535.71	14073.64
535.88	14473.87
536.05	14326.42
536.22	14387.27
536.38	14677.50
536.55	14373.23
536.72	14263.22
536.89	14260.88
537.06	14228.12
537.23	14375.57
537.40	14504.30
537.57	14506.64
537.74	14626.01
537.91	14736.01
538.08	14527.71
538.25	14523.02
538.42	14541.75
538.59	14679.84
538.75	14618.99
538.92	14560.47
539.09	14874.10
539.26	14527.71
539.43	14958.36
539.60	14970.07
539.77	14754.74
539.94	14771.12
540.11	14761.76
540.28	14710.27
540.44	14916.23
540.61	14897.51
540.78	15042.62
540.95	15236.89
541.12	14815.59
541.29	15220.50
541.46	15061.35
541.62	15169.01
541.79	15176.03
541.96	15171.35
542.13	14728.99
542.30	15363.28
542.47	15143.27
542.63	15555.20
542.80	15197.10
542.97	15510.73
543.14	15349.23
543.31	15414.77
543.48	15417.11
543.64	15438.17
543.81	15627.76
543.98	15580.95
544.15	15496.69
544.32	15372.64
544.48	15550.52
544.65	15267.31
544.82	15279.02
544.99	15552.86
545.16	15597.33
545.32	15499.03
545.49	15939.05
545.66	16130.97
545.83	16196.51
546.00	16016.29
546.16	15777.55
546.33	15742.44
546.50	15307.10
546.67	15492.01
546.83	15232.21
547.00	15889.90
547.17	15784.57
547.34	15618.39
547.50	15889.90
547.67	15749.46
547.84	15585.63
548.00	15758.83
548.17	15943.73
548.34	15616.05
548.51	15822.02
548.67	15822.02
548.84	15910.96
549.01	15616.05
549.18	15784.57
549.34	15634.78
549.51	15665.21
549.68	15695.63
549.84	15770.53
550.01	15812.66
550.18	15728.40
550.34	15653.50
550.51	15559.88
550.68	15531.80
550.84	15995.22
551.01	15726.06
551.18	15648.82
551.34	15829.04
551.51	15679.25
551.68	15887.56
551.84	15885.22
552.01	15742.44
552.18	16025.65
552.34	15592.65
552.51	15917.98
552.68	15875.85
552.84	15908.62
553.01	15962.45
553.18	16149.70
553.34	16049.05
553.51	15882.88
553.67	16070.12
553.84	16114.59
554.01	16154.38
554.17	16126.29
554.34	16189.49
554.51	15976.50
554.67	15983.52
554.84	16198.85
555.00	15955.43
555.17	15896.92
555.33	16035.01
555.50	16114.59
555.67	15990.54
555.83	15999.90
556.00	16379.07
556.16	15896.92
556.33	16107.57
556.50	16297.15
556.66	16109.91
556.83	16285.45
556.99	16336.94
557.16	16327.58
557.32	16189.49
557.49	16402.47
557.65	15859.47
557.82	16091.18
557.98	16107.57
558.15	16018.63
558.32	16320.56
558.48	16154.38
558.65	16219.91
558.81	16283.11
558.98	16578.01
559.14	16442.26
559.31	16290.13
559.47	16376.73
559.64	16383.75
559.80	16278.43
559.97	16468.01
560.13	16393.11
560.30	16608.44
560.46	16561.63
560.63	16238.64
560.79	16484.39
560.96	16526.52
561.12	16320.56
561.29	16589.72
561.45	16503.12
561.61	16592.06
561.78	16627.17
561.94	16411.84
562.11	16547.59
562.27	16194.17
562.44	16559.29
562.60	16568.65
562.77	16510.14
562.93	16512.48
563.10	16622.48
563.26	16465.67
563.42	16638.87
563.59	16554.61
563.75	16369.71
563.92	16685.68
564.08	16706.74
564.24	16561.63
564.41	16561.63
564.57	16505.46
564.74	16669.30
564.90	16610.78
565.07	16641.21
565.23	16819.09
565.39	16592.06
565.56	16568.65
565.72	16421.20
565.88	16765.26
566.05	16243.32
566.21	16465.67
566.38	16327.58
566.54	16531.20
566.70	16545.25
566.87	16662.27
567.03	16718.45
567.19	16786.32
567.36	16594.40
567.52	16559.29
567.68	16741.85
567.85	16442.26
568.01	16402.47
568.17	16407.16
568.34	16533.54
568.50	16538.23
568.66	16671.64
568.83	16655.25
568.99	16561.63
569.15	16732.49
569.32	16847.18
569.48	16795.68
569.64	16683.34
569.81	16739.51
569.97	16549.93
570.13	16755.90
570.30	16713.77
570.46	16793.34
570.62	16585.04
570.78	16341.62
570.95	16863.56
571.11	16517.16
571.27	16774.62
571.43	16381.41
571.60	16706.74
571.76	16664.61
571.92	16718.45
572.09	16950.16
572.25	16606.10
572.41	16489.07
572.57	16666.95
572.74	16781.64
572.90	16840.15
573.06	16812.07
573.22	16882.28
573.38	16697.38
573.55	16826.11
573.71	17170.17
573.87	17165.49
574.03	16821.43
574.20	17062.51
574.36	16765.26
574.52	16769.94
574.68	16720.79
574.84	16826.11
575.01	16800.37
575.17	16802.71
575.33	17074.21
575.49	16751.21
575.65	16711.42
575.82	16823.77
575.98	16875.26
576.14	16805.05
576.30	16772.28
576.46	16950.16
576.62	16772.28
576.79	16812.07
576.95	17083.57
577.11	16723.13
577.27	16709.08
577.43	17043.78
577.59	16936.12
577.75	16994.63
577.92	16737.17
578.08	16877.60
578.24	16697.38
578.40	16929.09
578.56	16858.88
578.72	16985.27
578.88	17099.95
579.04	16809.73
579.21	16893.99
579.37	17011.01
579.53	16912.71
579.69	16821.43
579.85	16776.96
580.01	16961.86
580.17	16769.94
580.33	16917.39
580.49	16800.37
580.65	16882.28
580.82	17228.68
580.98	16931.44
581.14	16538.23
581.30	17057.82
581.46	16844.84
581.62	17067.19
581.78	16802.71
581.94	16688.02
582.10	16819.09
582.26	16793.34
582.42	16989.95
582.58	17008.67
582.74	17207.62
582.90	16968.88
583.06	17029.74
583.22	17069.53
583.38	17039.10
583.54	17146.76
583.70	17219.32
583.86	17252.09
584.02	16901.01
584.18	17181.87
584.34	17076.55
584.50	17186.55
584.66	16945.48
584.82	17322.30
584.98	17067.19
585.14	17078.89
585.30	17015.69
585.46	17095.27
585.62	17142.08
585.78	16798.02
585.94	16886.97
586.10	17202.94
586.26	17144.42
586.42	17029.74
586.58	17371.46
586.74	17043.78
586.90	17186.55
587.06	16671.64
587.22	17048.46
587.38	16716.11
587.54	17156.13
587.70	17043.78
587.86	17392.52
588.02	17071.87
588.18	17212.30
588.34	17090.59
588.49	16898.67
588.65	17085.91
588.81	16671.64
588.97	16893.99
589.13	16987.61
589.29	17067.19
589.45	16884.62
589.61	16975.91
589.77	17214.64
589.93	17104.64
590.08	17371.46
590.24	17078.89
590.40	17090.59
590.56	17266.13
590.72	17006.33
590.88	16889.31
591.04	17118.68
591.20	17277.83
591.35	17249.75
591.51	17554.02
591.67	17661.68
591.83	17317.62
591.99	17125.70
592.15	17170.17
592.31	17186.55
592.46	16952.50
592.62	17174.85
592.78	16889.31
592.94	17287.20
593.10	17273.15
593.26	17181.87
593.41	17537.63
