SpectraSuite Data File
++++++++++++++++++++++++++++++++++++
Date: Fri Oct 04 11:39:27 GMT-05:00 2013
User: price-jones
Dark Spectrum Present: No
Reference Spectrum Present: No
Number of Sampled Component Spectra: 1
Spectrometers: USB2+H05261
Integration Time (usec): 100000 (USB2+H05261)
Spectra Averaged: 1 (USB2+H05261)
Boxcar Smoothing: 0 (USB2+H05261)
Correct for Electrical Dark: No (USB2+H05261)
Strobe/Lamp Enabled: No (USB2+H05261)
Correct for Detector Non-linearity: No (USB2+H05261)
Correct for Stray Light: No (USB2+H05261)
Number of Pixels in Processed Spectrum: 2048
>>>>>Begin Processed Spectral Data<<<<<
365.73	79.58
365.92	79.58
366.12	79.58
366.32	0.00
366.52	0.00
366.72	11.70
366.91	0.00
367.11	0.00
367.31	0.00
367.51	0.00
367.70	0.00
367.90	0.00
368.10	21.06
368.30	0.00
368.49	0.00
368.69	4.68
368.89	0.00
369.09	0.00
369.28	42.13
369.48	0.00
369.68	21.06
369.87	0.00
370.07	65.54
370.27	86.60
370.47	35.11
370.66	154.48
370.86	128.73
371.06	224.69
371.25	201.29
371.45	117.03
371.65	196.60
371.84	133.41
372.04	147.45
372.24	84.26
372.44	187.24
372.63	173.20
372.83	245.76
373.03	163.84
373.22	114.69
373.42	250.44
373.62	170.86
373.81	189.58
374.01	224.69
374.21	250.44
374.40	222.35
374.60	257.46
374.79	257.46
374.99	285.55
375.19	234.05
375.38	248.10
375.58	191.92
375.78	257.46
375.97	241.08
376.17	276.18
376.37	252.78
376.56	245.76
376.76	287.89
376.95	203.63
377.15	234.05
377.35	285.55
377.54	255.12
377.74	241.08
377.93	205.97
378.13	248.10
378.33	205.97
378.52	252.78
378.72	255.12
378.91	234.05
379.11	210.65
379.31	250.44
379.50	196.60
379.70	234.05
379.89	290.23
380.09	243.42
380.28	245.76
380.48	224.69
380.68	189.58
380.87	264.48
381.07	217.67
381.26	327.68
381.46	215.33
381.65	269.16
381.85	290.23
382.04	346.40
382.24	250.44
382.43	276.18
382.63	257.46
382.83	248.10
383.02	273.84
383.22	285.55
383.41	266.82
383.61	280.86
383.80	264.48
384.00	238.73
384.19	285.55
384.39	285.55
384.58	217.67
384.78	294.91
384.97	330.02
385.17	299.59
385.36	388.53
385.56	283.20
385.75	264.48
385.95	255.12
386.14	287.89
386.34	266.82
386.53	285.55
386.72	290.23
386.92	337.04
387.11	334.70
387.31	372.15
387.50	320.65
387.70	266.82
387.89	330.02
388.09	341.72
388.28	318.31
388.48	259.80
388.67	395.55
388.86	294.91
389.06	301.93
389.25	372.15
389.45	386.19
389.64	339.38
389.84	425.98
390.03	369.80
390.22	365.12
390.42	353.42
390.61	355.76
390.81	337.04
391.00	346.40
391.19	388.53
391.39	404.91
391.58	355.76
391.78	421.30
391.97	409.59
392.16	372.15
392.36	414.27
392.55	374.49
392.75	341.72
392.94	393.21
393.13	381.51
393.33	376.83
393.52	407.25
393.71	447.04
393.91	341.72
394.10	386.19
394.29	451.72
394.49	484.49
394.68	416.62
394.88	435.34
395.07	482.15
395.26	428.32
395.46	395.55
395.65	503.22
395.84	465.77
396.04	510.24
396.23	461.09
396.42	468.11
396.62	484.49
396.81	500.87
397.00	421.30
397.19	489.17
397.39	468.11
397.58	550.03
397.77	496.19
397.97	524.28
398.16	533.64
398.35	573.43
398.55	603.86
398.74	615.56
398.93	554.71
399.12	566.41
399.32	540.66
399.51	538.32
399.70	538.32
399.90	592.16
400.09	648.33
400.28	589.82
400.47	566.41
400.67	540.66
400.86	631.94
401.05	645.99
401.24	681.10
401.44	603.86
401.63	650.67
401.82	620.24
402.01	627.26
402.21	737.27
402.40	732.59
402.59	678.76
402.78	674.07
402.97	746.63
403.17	713.86
403.36	674.07
403.55	767.70
403.74	746.63
403.93	688.12
404.13	774.72
404.32	774.72
404.51	856.64
404.70	767.70
404.89	793.44
405.09	854.30
405.28	800.46
405.47	844.93
405.66	795.78
405.85	863.66
406.05	847.27
406.24	894.08
406.43	849.61
406.62	847.27
406.81	873.02
407.00	889.40
407.20	816.85
407.39	908.13
407.58	952.60
407.77	919.83
407.96	849.61
408.15	905.79
408.34	1076.65
408.54	1032.18
408.73	1004.09
408.92	1011.11
409.11	1116.44
409.30	1146.86
409.49	1139.84
409.68	968.98
409.87	1015.79
410.07	1118.78
410.26	1181.97
410.45	1128.14
410.64	1111.75
410.83	1060.26
411.02	1191.33
411.21	1242.82
411.40	1231.12
411.59	1252.19
411.78	1268.57
411.98	1270.91
412.17	1219.42
412.36	1242.82
412.55	1263.89
412.74	1252.19
412.93	1401.98
413.12	1362.19
413.31	1409.00
413.50	1357.51
413.69	1488.58
413.88	1469.86
414.07	1514.33
414.26	1472.20
414.45	1493.26
414.64	1563.48
414.83	1551.78
415.02	1673.48
415.22	1610.29
415.41	1631.35
415.60	1558.80
415.79	1600.93
415.98	1556.46
416.17	1570.50
416.36	1743.70
416.55	1713.27
416.74	1741.36
416.93	1682.85
417.12	1741.36
417.31	1701.57
417.50	1696.89
417.69	1923.92
417.88	1799.87
418.07	1820.94
418.26	1809.23
418.45	2038.61
418.64	1877.11
418.83	1804.55
419.02	1991.80
419.21	1856.04
419.39	1877.11
419.58	1856.04
419.77	2017.54
419.96	1987.11
420.15	2120.53
420.34	2001.16
420.53	1900.52
420.72	2064.35
420.91	2195.42
421.10	2113.50
421.29	2200.10
421.48	2045.63
421.67	2265.64
421.86	2153.29
422.05	2165.00
422.24	2211.81
422.43	2150.95
422.61	2193.08
422.80	2165.00
422.99	2284.36
423.18	2188.40
423.37	2256.28
423.56	2193.08
423.75	2270.32
423.94	2108.82
424.13	2148.61
424.32	2132.23
424.50	2230.53
424.69	2239.89
424.88	2354.58
425.07	2214.15
425.26	2111.16
425.45	2289.04
425.64	2282.02
425.83	2190.74
426.01	2260.96
426.20	2312.45
426.39	2293.72
426.58	2270.32
426.77	2267.98
426.96	2312.45
427.15	2298.41
427.33	2328.83
427.52	2333.51
427.71	2410.75
427.90	2354.58
428.09	2342.88
428.28	2392.03
428.46	2401.39
428.65	2420.11
428.84	2597.99
429.03	2427.14
429.22	2385.01
429.40	2448.20
429.59	2459.90
429.78	2431.82
429.97	2375.64
430.16	2551.18
430.34	2541.82
430.53	2548.84
430.72	2628.42
430.91	2530.12
431.10	2464.58
431.28	2551.18
431.47	2576.93
431.66	2715.02
431.85	2581.61
432.03	2614.38
432.22	2682.25
432.41	2651.83
432.60	2712.68
432.79	2731.41
432.97	2724.38
433.16	2815.66
433.35	2836.73
433.54	2705.66
433.72	2766.51
433.91	2839.07
434.10	2850.77
434.28	2738.43
434.47	2771.19
434.66	2925.67
434.85	2930.35
435.03	2995.89
435.22	3112.91
435.41	3279.09
435.59	3323.56
435.78	3211.22
435.97	2993.55
436.16	3014.61
436.34	2988.86
436.53	2991.20
436.72	2928.01
436.90	2946.73
437.09	3005.25
437.28	2977.16
437.46	2958.44
437.65	3023.97
437.84	3028.65
438.02	2986.52
438.21	3133.98
438.40	2995.89
438.58	3169.09
438.77	3248.66
438.96	3241.64
439.14	3316.54
439.33	3199.51
439.52	3302.50
439.70	3220.58
439.89	3372.71
440.08	3213.56
440.26	3389.10
440.45	3283.77
440.63	3433.57
440.82	3435.91
441.01	3379.73
441.19	3524.85
441.38	3499.10
441.57	3517.83
441.75	3538.89
441.94	3648.90
442.12	3482.72
442.31	3550.59
442.50	3644.21
442.68	3754.22
442.87	3705.07
443.05	3770.60
443.24	3768.26
443.43	3798.69
443.61	3754.22
443.80	3789.33
443.98	3770.60
444.17	3637.19
444.35	3772.94
444.54	3763.58
444.73	3775.28
444.91	3786.99
445.10	3843.16
445.28	3817.41
445.47	3801.03
445.65	3803.37
445.84	3812.73
446.02	3843.16
446.21	3850.18
446.39	3786.99
446.58	3847.84
446.77	3812.73
446.95	3702.73
447.14	3880.61
447.32	3840.82
447.51	3775.28
447.69	3843.16
447.88	3859.54
448.06	3812.73
448.25	3829.12
448.43	3911.04
448.62	3810.39
448.80	4007.00
448.99	3887.63
449.17	3922.74
449.36	3899.33
449.54	3999.98
449.73	4100.62
449.91	4102.96
450.10	4135.73
450.28	4285.52
450.46	4187.22
450.65	4114.66
450.83	4175.52
451.02	4166.15
451.20	4091.26
451.39	4234.03
451.57	4173.18
451.76	4109.98
451.94	4262.12
452.13	4217.65
452.31	4049.13
452.49	4231.69
452.68	4210.62
452.86	4177.86
453.05	4320.63
453.23	4250.41
453.42	4163.81
453.60	4231.69
453.78	4283.18
453.97	4168.49
454.15	4297.22
454.34	4243.39
454.52	4381.48
454.70	4491.49
454.89	4449.36
455.07	4301.90
455.26	4521.92
455.44	4610.86
455.62	4353.40
455.81	4440.00
455.99	4477.44
456.17	4571.07
456.36	4566.39
456.54	4648.30
456.73	4498.51
456.91	4725.54
457.09	4723.20
457.28	4826.18
457.46	4634.26
457.64	4807.46
457.83	4671.71
458.01	4732.56
458.19	4793.42
458.38	4606.17
458.56	4837.89
458.74	4762.99
458.93	4732.56
459.11	4896.40
459.29	4882.36
459.48	4760.65
459.66	4964.28
459.84	4931.51
460.03	5018.11
460.21	4908.10
460.39	4929.17
460.57	4964.28
460.76	5022.79
460.94	5076.62
461.12	5001.72
461.31	5018.11
461.49	4926.83
461.67	4922.15
461.85	5118.75
462.04	5104.71
462.22	5249.82
462.40	5102.37
462.59	5245.14
462.77	5102.37
462.95	5043.85
463.13	5144.50
463.32	5224.08
463.50	5203.01
463.68	5139.82
463.86	5214.71
464.05	5228.76
464.23	5303.65
464.41	5261.52
464.59	5083.64
464.78	5247.48
464.96	5219.39
465.14	5338.76
465.32	5476.85
465.50	5486.22
465.69	5420.68
465.87	5359.83
466.05	5394.93
466.23	5341.10
466.41	5509.62
466.60	5633.67
466.78	5322.38
466.96	5430.04
467.14	5399.62
467.32	5624.31
467.51	5762.40
467.69	5500.26
467.87	5495.58
468.05	5687.50
468.23	5577.50
468.41	5425.36
468.60	5572.82
468.78	5593.88
468.96	5673.46
469.14	5743.67
469.32	5762.40
469.50	5724.95
469.69	5783.46
469.87	6017.52
470.05	5905.17
470.23	5895.81
470.41	5820.91
470.59	6045.60
470.77	5893.47
470.95	5977.73
471.14	5947.30
471.32	5694.52
471.50	6026.88
471.68	5977.73
471.86	6106.46
472.04	5996.45
472.22	6174.33
472.40	6001.13
472.58	6155.61
472.77	6073.69
472.95	6279.66
473.13	6429.45
473.31	6085.39
473.49	6047.94
473.67	6230.51
473.85	6366.26
474.03	6450.52
474.21	6324.13
474.39	6494.99
474.57	6537.12
474.75	6628.40
474.93	6726.70
475.12	6609.67
475.30	6670.53
475.48	6633.08
475.66	6707.98
475.84	6595.63
476.02	6796.92
476.20	6827.34
476.38	6963.09
476.56	6988.84
476.74	7124.59
476.92	6984.16
477.10	7063.74
477.28	7112.89
477.46	7269.70
477.64	7344.60
477.82	7391.41
478.00	7623.12
478.18	7503.76
478.36	7463.97
478.54	7585.68
478.72	7555.25
478.90	7630.15
479.08	7751.85
479.26	7700.36
479.44	7782.28
479.62	7786.96
479.80	8028.04
479.98	7880.58
480.16	8145.06
480.34	8133.36
480.52	8079.53
480.70	8189.53
480.88	8133.36
481.06	8255.07
481.24	8121.66
481.41	8351.03
481.59	8554.66
481.77	8184.85
481.95	8545.30
482.13	8723.18
482.31	8648.28
482.49	8620.19
482.67	8809.78
482.85	8891.70
483.03	8975.95
483.21	9097.66
483.39	9186.60
483.57	9252.14
483.74	9275.54
483.92	9380.87
484.10	9085.96
484.28	9504.92
484.46	9434.70
484.64	9743.65
484.82	9533.00
485.00	9582.15
485.18	10061.96
485.35	9933.23
485.53	10054.94
485.71	9863.02
485.89	10434.11
486.07	10047.92
486.25	10293.68
486.43	10326.44
486.61	10284.31
486.78	10434.11
486.96	10391.98
487.14	10714.97
487.32	10642.42
487.50	10991.16
487.68	10719.65
487.85	11089.46
488.03	11047.33
488.21	11037.97
488.39	11201.80
488.57	11288.40
488.75	11342.24
488.92	11492.03
489.10	11377.34
489.28	11793.96
489.46	11817.36
489.64	11667.57
489.81	12168.45
489.99	12037.38
490.17	11985.88
490.35	12248.02
490.53	12304.20
490.70	12301.86
490.88	12379.09
491.06	12362.71
491.24	12276.11
491.41	12580.38
491.59	12690.38
491.77	12517.18
491.95	12863.58
492.13	12837.84
492.30	12922.10
492.48	12879.97
492.66	13085.94
492.84	13266.16
493.01	13437.02
493.19	13397.23
493.37	13413.61
493.54	13490.85
493.72	13561.06
493.90	13453.40
494.08	13790.44
494.25	13823.20
494.43	13949.59
494.61	13907.46
494.79	13949.59
494.96	14040.87
495.14	14132.15
495.32	14480.89
495.49	14183.65
495.67	14312.38
495.85	14396.64
496.02	14686.86
496.20	14593.24
496.38	14452.81
496.55	14892.83
496.73	14911.55
496.91	14860.06
497.09	15372.64
497.26	15236.89
497.44	15110.50
497.62	15391.36
497.79	15281.36
497.97	15035.60
498.14	15599.67
498.32	15714.36
498.50	15482.64
498.67	15695.63
498.85	15917.98
499.03	15611.37
499.20	15704.99
499.38	15995.22
499.56	16105.23
499.73	16135.65
499.91	16147.36
500.08	16074.80
500.26	16074.80
500.44	16140.33
500.61	16423.54
500.79	16397.79
500.97	16563.97
501.14	16938.46
501.32	16669.30
501.49	16350.98
501.67	16779.30
501.84	16833.13
502.02	16339.28
502.20	16879.94
502.37	17160.81
502.55	17186.55
502.72	16938.46
502.90	17177.19
503.07	17048.46
503.25	16994.63
503.43	17135.06
503.60	17273.15
503.78	17326.99
503.95	17415.93
504.13	17481.46
504.30	17448.69
504.48	17027.40
504.65	17404.22
504.83	17715.51
505.01	17912.12
505.18	17664.02
505.36	17956.59
505.53	17750.62
505.71	17752.96
505.88	18073.62
506.06	18008.08
506.23	18120.43
506.41	18036.17
506.58	18293.63
506.76	18324.05
506.93	18190.64
507.11	18314.69
507.28	18368.52
507.46	18586.19
507.63	18221.07
507.81	18768.76
507.98	18487.89
508.16	18794.50
508.33	18773.44
508.50	18714.92
508.68	19023.87
508.85	18984.09
509.03	18869.40
509.20	18977.06
509.38	19140.90
509.55	19316.44
509.73	19557.52
509.90	19332.82
510.08	19379.64
510.25	19480.28
510.42	19620.71
510.60	19683.91
510.77	19620.71
510.95	19829.02
511.12	19566.88
511.30	19789.23
511.47	19644.12
511.64	19990.52
511.82	20166.06
511.99	20247.97
512.17	20189.46
512.34	19758.80
512.51	20247.97
512.69	20189.46
512.86	20039.67
513.04	20559.27
513.21	20065.41
513.38	20250.32
513.56	20695.02
513.73	20266.70
513.90	20339.26
514.08	20608.42
514.25	20800.34
514.43	20910.35
514.60	20744.17
514.77	20950.14
514.95	21074.18
515.12	20664.59
515.29	20985.24
515.47	20688.00
515.64	21003.97
515.81	20828.43
515.99	21205.25
516.16	21043.76
516.33	21062.48
516.51	21254.40
516.68	21301.22
516.85	21263.77
517.03	21687.40
517.20	21345.69
517.37	21624.21
517.54	21516.54
517.72	21474.42
517.89	21556.33
518.06	21511.86
518.24	21771.66
518.41	21881.67
518.58	21626.55
518.75	21703.79
518.93	22256.15
519.10	22012.74
519.27	22466.80
519.45	22359.14
519.62	22342.75
519.79	22045.51
519.96	22267.86
520.14	22595.53
520.31	22520.63
520.48	22345.09
520.65	22377.86
520.83	22764.05
521.00	22663.41
521.17	22904.48
521.34	22750.01
521.52	22661.07
521.69	22993.42
521.86	22747.67
522.03	22930.23
522.20	23108.11
522.38	22810.86
522.55	23129.17
522.72	22705.54
522.89	22712.56
523.07	23005.13
523.24	23115.13
523.41	23491.96
523.58	23201.73
523.75	23267.27
523.92	23477.91
524.10	23559.83
524.27	23475.57
524.44	23515.36
524.61	23555.15
524.78	23857.08
524.96	23824.31
525.13	23770.48
525.30	23639.41
525.47	23620.69
525.64	23828.99
525.81	23709.63
525.98	24292.42
526.16	23791.55
526.33	24091.13
526.50	24032.62
526.67	23885.17
526.84	23845.38
527.01	23477.91
527.18	24236.25
527.36	24327.53
527.53	24299.44
527.70	24645.84
527.87	24446.90
528.04	24638.82
528.21	24336.89
528.38	24510.09
528.55	24669.25
528.72	24484.34
528.89	24505.41
529.07	24814.36
529.24	24716.06
529.41	24484.34
529.58	24519.45
529.75	24592.01
529.92	24772.23
530.09	24587.33
530.26	24435.19
530.43	24460.94
530.60	25048.41
530.77	24652.86
530.94	24992.24
531.11	25013.31
531.28	24723.08
531.46	24959.47
531.63	24875.21
531.80	25191.19
531.97	25502.48
532.14	25399.49
532.31	25067.14
532.48	25310.55
532.65	25394.81
532.82	25280.13
532.99	25577.37
533.16	25460.35
533.33	25701.42
533.50	25708.44
533.67	25741.21
533.84	25631.21
534.01	25179.48
534.18	25586.74
534.35	26122.72
534.52	25411.20
534.69	25900.37
534.86	25537.59
535.03	25872.28
535.20	25902.71
535.37	26057.18
535.54	25778.66
535.71	26054.84
535.88	26073.57
536.05	25846.54
536.22	26284.22
536.38	26576.78
536.55	26403.58
536.72	26064.21
536.89	26036.12
537.06	26087.61
537.23	26431.67
537.40	26246.77
537.57	26398.90
537.74	26403.58
537.91	26525.29
538.08	26443.37
538.25	26277.19
538.42	26553.38
538.59	26565.08
538.75	26256.13
538.92	26431.67
539.09	26647.00
539.26	26757.00
539.43	26689.13
539.60	26588.49
539.77	26649.34
539.94	27042.55
540.11	27007.44
540.28	26955.95
540.44	27080.00
540.61	26923.18
540.78	26733.60
540.95	27358.52
541.12	27339.80
541.29	27080.00
541.46	27440.44
541.62	27255.54
541.79	27323.41
541.96	27232.13
542.13	27365.54
542.30	27573.85
542.47	27517.68
542.63	27721.30
542.80	27690.88
542.97	27896.85
543.14	28074.73
543.31	28013.87
543.48	27613.64
543.64	27978.76
543.81	28135.58
543.98	28217.50
544.15	27913.23
544.32	28130.90
544.48	28671.56
544.65	28259.63
544.82	28245.58
544.99	27990.47
545.16	28109.83
545.32	28041.96
545.49	28844.76
545.66	29586.71
545.83	28601.35
546.00	29399.47
546.16	28458.57
546.33	28091.11
546.50	28212.82
546.67	28261.97
546.83	27639.39
547.00	28379.00
547.17	28339.21
547.34	28446.87
547.50	28582.62
547.67	28666.88
547.84	28442.19
548.00	28500.70
548.17	28343.89
548.34	28486.66
548.51	28591.98
548.67	28566.24
548.84	28526.45
549.01	28678.58
549.18	28716.03
549.34	28439.85
549.51	28416.44
549.68	28510.07
549.84	28376.66
550.01	28371.97
550.18	28582.62
550.34	28416.44
550.51	28765.18
550.68	29127.97
550.84	28240.90
551.01	28690.29
551.18	28388.36
551.34	28451.55
551.51	28938.38
551.68	28760.50
551.84	28643.48
552.01	28966.47
552.18	29071.79
552.34	28645.82
552.51	28964.13
552.68	28364.95
552.84	28594.32
553.01	28594.32
553.18	28961.79
553.34	28940.72
553.51	29120.95
553.67	29179.46
553.84	29123.29
554.01	28879.87
554.17	28989.88
554.34	28919.66
554.51	28690.29
554.67	29015.62
554.84	29106.90
555.00	29081.16
555.17	28996.90
555.33	29397.13
555.50	29022.64
555.67	29134.99
555.83	28959.45
556.00	28929.02
556.16	29184.14
556.33	28964.13
556.50	29158.39
556.66	29095.20
556.83	29256.70
556.99	29134.99
557.16	29275.42
557.32	29188.82
557.49	29465.00
557.65	28882.21
557.82	29156.05
557.98	29048.39
558.15	29460.32
558.32	29392.45
558.48	29127.97
558.65	29406.49
558.81	29240.31
558.98	29605.44
559.14	29696.72
559.31	29556.28
559.47	29214.57
559.64	29326.91
559.80	29689.70
559.97	29720.12
560.13	29242.65
560.30	29628.84
560.46	29528.20
560.63	29677.99
560.79	29809.06
560.96	29436.92
561.12	29432.24
561.29	29640.54
561.45	29511.81
561.61	29612.46
561.78	29790.34
561.94	29788.00
562.11	29979.92
562.27	29610.12
562.44	29408.83
562.60	29546.92
562.77	29345.64
562.93	29617.14
563.10	29909.71
563.26	29788.00
563.42	29942.47
563.59	29928.43
563.75	29490.75
563.92	30038.44
564.08	29935.45
564.24	29977.58
564.41	29890.98
564.57	29708.42
564.74	29589.05
564.90	29605.44
565.07	30092.27
565.23	29961.20
565.39	29741.19
565.56	30499.52
565.72	29780.98
565.88	30134.40
566.05	29802.04
566.21	29930.77
566.38	29511.81
566.54	29993.97
566.70	30000.99
566.87	29942.47
567.03	30118.01
567.19	30375.47
567.36	29809.06
567.52	30031.41
567.68	30003.33
567.85	29802.04
568.01	29823.11
568.17	29848.85
568.34	30087.59
568.50	29692.04
568.66	29752.89
568.83	30239.72
568.99	29949.50
569.15	29598.41
569.32	29596.07
569.48	29736.51
569.64	29893.32
569.81	30073.54
569.97	29982.26
570.13	30342.70
570.30	30026.73
570.46	30080.56
570.62	30029.07
570.78	29504.79
570.95	29961.20
571.11	30171.85
571.27	29799.70
571.43	30054.82
571.60	30015.03
571.76	29692.04
571.92	30244.40
572.09	29736.51
572.25	30228.02
572.41	30026.73
572.57	29956.52
572.74	29692.04
572.90	30057.16
573.06	30150.78
573.22	30101.63
573.38	30148.44
573.55	30118.01
573.71	30394.20
573.87	30501.86
574.03	30228.02
574.20	30052.48
574.36	29883.96
574.52	30036.09
574.68	29839.49
574.84	30113.33
575.01	29659.27
575.17	29888.64
575.33	29886.30
575.49	30291.21
575.65	30113.33
575.82	30017.37
575.98	29785.66
576.14	30410.58
576.30	30047.80
576.46	30038.44
576.62	30050.14
576.79	30639.95
576.95	30569.74
577.11	30272.49
577.27	29905.02
577.43	30333.34
577.59	30141.42
577.75	30199.93
577.92	29872.26
578.08	30239.72
578.24	29923.75
578.40	30139.08
578.56	30267.81
578.72	30361.43
578.88	30408.24
579.04	30071.20
579.21	30122.69
579.37	30394.20
579.53	30333.34
579.69	30242.06
579.85	30120.35
580.01	30022.05
580.17	29930.77
580.33	30038.44
580.49	30438.67
580.65	30195.25
580.82	30321.64
580.98	30033.75
581.14	30192.91
581.30	30628.25
581.46	30340.36
581.62	30029.07
581.78	30010.35
581.94	30164.82
582.10	30377.81
582.26	30705.49
582.42	30333.34
582.58	30424.62
582.74	30190.57
582.90	29802.04
583.06	30623.57
583.22	29853.53
583.38	30249.08
583.54	29996.31
583.70	30188.23
583.86	30300.58
584.02	30363.77
584.18	30340.36
584.34	30448.03
584.50	30597.82
584.66	30258.45
584.82	30143.76
584.98	30038.44
585.14	30302.92
585.30	29949.50
585.46	30625.91
585.62	29867.58
585.78	30096.95
585.94	30045.46
586.10	30480.80
586.26	30288.87
586.42	30607.19
586.58	30164.82
586.74	30387.18
586.90	30092.27
587.06	30298.23
587.22	30710.17
587.38	30073.54
587.54	30387.18
587.70	30352.07
587.86	30483.14
588.02	30426.96
588.18	30778.04
588.34	30466.75
588.49	30113.33
588.65	29837.15
588.81	30026.73
588.97	30534.63
589.13	30036.09
589.29	30197.59
589.45	30389.52
589.61	30396.54
589.77	30649.32
589.93	30532.29
590.08	30628.25
590.24	30693.79
590.40	30363.77
590.56	30635.27
590.72	30295.89
590.88	30068.86
591.04	30508.88
591.20	30766.34
591.35	30883.37
591.51	30969.97
591.67	30499.52
591.83	30670.38
