SpectraSuite Data File
++++++++++++++++++++++++++++++++++++
Date: Fri Oct 04 11:40:03 GMT-05:00 2013
User: price-jones
Dark Spectrum Present: No
Reference Spectrum Present: No
Number of Sampled Component Spectra: 1
Spectrometers: USB2+H05261
Integration Time (usec): 100000 (USB2+H05261)
Spectra Averaged: 1 (USB2+H05261)
Boxcar Smoothing: 0 (USB2+H05261)
Correct for Electrical Dark: No (USB2+H05261)
Strobe/Lamp Enabled: No (USB2+H05261)
Correct for Detector Non-linearity: No (USB2+H05261)
Correct for Stray Light: No (USB2+H05261)
Number of Pixels in Processed Spectrum: 2048
>>>>>Begin Processed Spectral Data<<<<<
365.73	11.70
365.92	11.70
366.12	11.70
366.32	0.00
366.52	0.00
366.72	0.00
366.91	0.00
367.11	0.00
367.31	0.00
367.51	0.00
367.70	0.00
367.90	0.00
368.10	0.00
368.30	0.00
368.49	0.00
368.69	0.00
368.89	0.00
369.09	0.00
369.28	0.00
369.48	0.00
369.68	7.02
369.87	9.36
370.07	0.00
370.27	0.00
370.47	60.85
370.66	0.00
370.86	46.81
371.06	110.01
371.25	70.22
371.45	145.11
371.65	95.96
371.84	74.90
372.04	79.58
372.24	60.85
372.44	93.62
372.63	145.11
372.83	182.56
373.03	77.24
373.22	138.09
373.42	86.60
373.62	102.98
373.81	110.01
374.01	138.09
374.21	56.17
374.40	121.71
374.60	156.82
374.79	142.77
374.99	105.32
375.19	168.52
375.38	121.71
375.58	133.41
375.78	161.50
375.97	149.79
376.17	168.52
376.37	180.22
376.56	70.22
376.76	128.73
376.95	224.69
377.15	138.09
377.35	135.75
377.54	112.35
377.74	142.77
377.93	119.37
378.13	175.54
378.33	227.03
378.52	173.20
378.72	86.60
378.91	114.69
379.11	117.03
379.31	170.86
379.50	128.73
379.70	142.77
379.89	126.39
380.09	44.47
380.28	107.66
380.48	88.94
380.68	124.05
380.87	107.66
381.07	86.60
381.26	117.03
381.46	133.41
381.65	182.56
381.85	135.75
382.04	67.88
382.24	133.41
382.43	184.90
382.63	142.77
382.83	95.96
383.02	117.03
383.22	161.50
383.41	72.56
383.61	154.48
383.80	133.41
384.00	70.22
384.19	67.88
384.39	191.92
384.58	102.98
384.78	149.79
384.97	205.97
385.17	133.41
385.36	114.69
385.56	81.92
385.75	105.32
385.95	138.09
386.14	238.73
386.34	114.69
386.53	107.66
386.72	95.96
386.92	53.83
387.11	196.60
387.31	114.69
387.50	70.22
387.70	46.81
387.89	175.54
388.09	124.05
388.28	84.26
388.48	86.60
388.67	177.88
388.86	112.35
389.06	170.86
389.25	131.07
389.45	131.07
389.64	196.60
389.84	163.84
390.03	117.03
390.22	217.67
390.42	91.28
390.61	126.39
390.81	107.66
391.00	140.43
391.19	152.13
391.39	166.18
391.58	105.32
391.78	166.18
391.97	159.16
392.16	159.16
392.36	196.60
392.55	145.11
392.75	112.35
392.94	114.69
393.13	149.79
393.33	131.07
393.52	231.71
393.71	154.48
393.91	42.13
394.10	121.71
394.29	107.66
394.49	110.01
394.68	156.82
394.88	135.75
395.07	105.32
395.26	138.09
395.46	166.18
395.65	107.66
395.84	182.56
396.04	196.60
396.23	128.73
396.42	114.69
396.62	135.75
396.81	184.90
397.00	86.60
397.19	86.60
397.39	168.52
397.58	163.84
397.77	229.37
397.97	187.24
398.16	203.63
398.35	117.03
398.55	161.50
398.74	140.43
398.93	245.76
399.12	133.41
399.32	189.58
399.51	154.48
399.70	128.73
399.90	135.75
400.09	135.75
400.28	140.43
400.47	175.54
400.67	187.24
400.86	168.52
401.05	175.54
401.24	175.54
401.44	107.66
401.63	241.08
401.82	163.84
402.01	124.05
402.21	217.67
402.40	201.29
402.59	252.78
402.78	208.31
402.97	126.39
403.17	170.86
403.36	170.86
403.55	124.05
403.74	180.22
403.93	170.86
404.13	189.58
404.32	234.05
404.51	252.78
404.70	205.97
404.89	273.84
405.09	238.73
405.28	166.18
405.47	149.79
405.66	175.54
405.85	191.92
406.05	93.62
406.24	224.69
406.43	175.54
406.62	250.44
406.81	238.73
407.00	283.20
407.20	220.01
407.39	182.56
407.58	196.60
407.77	217.67
407.96	173.20
408.15	220.01
408.34	126.39
408.54	166.18
408.73	173.20
408.92	152.13
409.11	201.29
409.30	173.20
409.49	154.48
409.68	203.63
409.87	210.65
410.07	248.10
410.26	196.60
410.45	212.99
410.64	198.95
410.83	196.60
411.02	117.03
411.21	220.01
411.40	269.16
411.59	252.78
411.78	194.26
411.98	196.60
412.17	166.18
412.36	196.60
412.55	234.05
412.74	191.92
412.93	182.56
413.12	234.05
413.31	273.84
413.50	191.92
413.69	241.08
413.88	259.80
414.07	252.78
414.26	222.35
414.45	168.52
414.64	227.03
414.83	252.78
415.02	224.69
415.22	224.69
415.41	271.50
415.60	168.52
415.79	304.27
415.98	255.12
416.17	238.73
416.36	241.08
416.55	222.35
416.74	269.16
416.93	306.61
417.12	212.99
417.31	255.12
417.50	173.20
417.69	292.57
417.88	236.39
418.07	273.84
418.26	262.14
418.45	189.58
418.64	271.50
418.83	236.39
419.02	327.68
419.21	266.82
419.39	299.59
419.58	285.55
419.77	250.44
419.96	285.55
420.15	287.89
420.34	271.50
420.53	362.78
420.72	358.10
420.91	287.89
421.10	273.84
421.29	271.50
421.48	311.29
421.67	313.63
421.86	245.76
422.05	241.08
422.24	294.91
422.43	248.10
422.61	313.63
422.80	294.91
422.99	299.59
423.18	294.91
423.37	306.61
423.56	337.04
423.75	308.95
423.94	320.65
424.13	278.52
424.32	327.68
424.50	297.25
424.69	320.65
424.88	325.33
425.07	334.70
425.26	315.97
425.45	381.51
425.64	358.10
425.83	245.76
426.01	290.23
426.20	313.63
426.39	292.57
426.58	346.40
426.77	198.95
426.96	262.14
427.15	339.38
427.33	313.63
427.52	353.42
427.71	306.61
427.90	337.04
428.09	224.69
428.28	255.12
428.46	318.31
428.65	313.63
428.84	402.57
429.03	397.89
429.22	358.10
429.40	271.50
429.59	365.12
429.78	322.99
429.97	330.02
430.16	287.89
430.34	334.70
430.53	264.48
430.72	346.40
430.91	306.61
431.10	337.04
431.28	308.95
431.47	367.46
431.66	402.57
431.85	285.55
432.03	397.89
432.22	397.89
432.41	421.30
432.60	430.66
432.79	341.72
432.97	325.33
433.16	346.40
433.35	421.30
433.54	365.12
433.72	292.57
433.91	381.51
434.10	430.66
434.28	339.38
434.47	386.19
434.66	421.30
434.85	465.77
435.03	409.59
435.22	866.00
435.41	1277.93
435.59	1282.61
435.78	1020.47
435.97	660.03
436.16	444.70
436.34	376.83
436.53	393.21
436.72	447.04
436.90	393.21
437.09	418.96
437.28	332.36
437.46	390.87
437.65	351.08
437.84	367.46
438.02	411.93
438.21	393.21
438.40	402.57
438.58	430.66
438.77	425.98
438.96	374.49
439.14	395.55
439.33	287.89
439.52	458.74
439.70	383.85
439.89	505.56
440.08	386.19
440.26	393.21
440.45	428.32
440.63	395.55
440.82	386.19
441.01	411.93
441.19	402.57
441.38	484.49
441.57	374.49
441.75	491.51
441.94	430.66
442.12	346.40
442.31	489.17
442.50	440.02
442.68	404.91
442.87	437.68
443.05	372.15
443.24	442.36
443.43	402.57
443.61	404.91
443.80	444.70
443.98	470.45
444.17	449.38
444.35	475.13
444.54	440.02
444.73	444.70
444.91	493.85
445.10	435.34
445.28	463.43
445.47	430.66
445.65	517.26
445.84	449.38
446.02	444.70
446.21	433.00
446.39	493.85
446.58	468.11
446.77	493.85
446.95	430.66
447.14	503.22
447.32	449.38
447.51	425.98
447.69	414.27
447.88	418.96
448.06	423.64
448.25	479.81
448.43	402.57
448.62	416.62
448.80	489.17
448.99	449.38
449.17	421.30
449.36	411.93
449.54	519.60
449.73	528.96
449.91	568.75
450.10	477.47
450.28	489.17
450.46	533.64
450.65	512.58
450.83	524.28
451.02	433.00
451.20	479.81
451.39	447.04
451.57	395.55
451.76	526.62
451.94	470.45
452.13	477.47
452.31	503.22
452.49	498.53
452.68	456.40
452.86	505.56
453.05	540.66
453.23	524.28
453.42	444.70
453.60	573.43
453.78	482.15
453.97	486.83
454.15	454.06
454.34	454.06
454.52	550.03
454.70	493.85
454.89	489.17
455.07	468.11
455.26	578.11
455.44	491.51
455.62	512.58
455.81	425.98
455.99	503.22
456.17	479.81
456.36	512.58
456.54	454.06
456.73	521.94
456.91	482.15
457.09	500.87
457.28	615.56
457.46	535.98
457.64	571.09
457.83	491.51
458.01	519.60
458.19	582.79
458.38	456.40
458.56	535.98
458.74	500.87
458.93	456.40
459.11	510.24
459.29	465.77
459.48	449.38
459.66	557.05
459.84	582.79
460.03	592.16
460.21	550.03
460.39	624.92
460.57	559.39
460.76	535.98
460.94	496.19
461.12	559.39
461.31	631.94
461.49	587.47
461.67	496.19
461.85	521.94
462.04	526.62
462.22	868.34
462.40	589.82
462.59	528.96
462.77	521.94
462.95	543.00
463.13	596.84
463.32	528.96
463.50	528.96
463.68	566.41
463.86	610.88
464.05	491.51
464.23	543.00
464.41	552.37
464.59	564.07
464.78	580.45
464.96	636.63
465.14	580.45
465.32	484.49
465.50	559.39
465.69	592.16
465.87	545.34
466.05	531.30
466.23	503.22
466.41	648.33
466.60	505.56
466.78	552.37
466.96	503.22
467.14	578.11
467.32	636.63
467.51	650.67
467.69	535.98
467.87	615.56
468.05	505.56
468.23	674.07
468.41	603.86
468.60	582.79
468.78	620.24
468.96	638.97
469.14	660.03
469.32	533.64
469.50	594.50
469.69	606.20
469.87	606.20
470.05	655.35
470.23	578.11
470.41	573.43
470.59	568.75
470.77	592.16
470.95	669.39
471.14	601.52
471.32	575.77
471.50	622.58
471.68	641.31
471.86	697.48
472.04	648.33
472.22	592.16
472.40	557.05
472.58	650.67
472.77	653.01
472.95	645.99
473.13	713.86
473.31	627.26
473.49	606.20
473.67	594.50
473.85	699.82
474.03	671.73
474.21	645.99
474.39	664.71
474.57	695.14
474.75	720.88
474.93	624.92
475.12	641.31
475.30	716.20
475.48	688.12
475.66	744.29
475.84	615.56
476.02	671.73
476.20	732.59
476.38	678.76
476.56	791.10
476.74	718.54
476.92	711.52
477.10	660.03
477.28	685.78
477.46	631.94
477.64	767.70
477.82	713.86
478.00	730.25
478.18	739.61
478.36	732.59
478.54	674.07
478.72	718.54
478.90	748.97
479.08	770.04
479.26	720.88
479.44	816.85
479.62	662.37
479.80	774.72
479.98	765.36
480.16	763.01
480.34	727.91
480.52	725.57
480.70	739.61
480.88	772.38
481.06	741.95
481.24	720.88
481.41	823.87
481.59	894.08
481.77	858.98
481.95	812.17
482.13	812.17
482.31	880.04
482.49	812.17
482.67	835.57
482.85	866.00
483.03	882.38
483.21	837.91
483.39	940.90
483.57	866.00
483.74	926.85
483.92	901.11
484.10	882.38
484.28	966.64
484.46	959.62
484.64	1027.50
484.82	1015.79
485.00	922.17
485.18	964.30
485.35	1067.28
485.53	994.73
485.71	919.83
485.89	1034.52
486.07	973.66
486.25	1132.82
486.43	1004.09
486.61	1078.99
486.78	1029.84
486.96	966.64
487.14	1057.92
487.32	983.02
487.50	1165.59
487.68	1078.99
487.85	1132.82
488.03	1130.48
488.21	1111.75
488.39	1025.15
488.57	1172.61
488.75	1069.62
488.92	1371.55
489.10	1184.31
489.28	1167.93
489.46	1144.52
489.64	1078.99
489.81	1109.41
489.99	1100.05
490.17	1179.63
490.35	1170.27
490.53	1151.54
490.70	1198.35
490.88	1181.97
491.06	1111.75
491.24	1123.46
491.41	1263.89
491.59	1186.65
491.77	1165.59
491.95	1132.82
492.13	1165.59
492.30	1193.67
492.48	1196.01
492.66	1203.04
492.84	1196.01
493.01	1266.23
493.19	1163.25
493.37	1352.83
493.54	1235.80
493.72	1280.27
493.90	1196.01
494.08	1203.04
494.25	1261.55
494.43	1284.95
494.61	1310.70
494.79	1238.14
494.96	1205.38
495.14	1266.23
495.32	1280.27
495.49	1287.29
495.67	1270.91
495.85	1249.85
496.02	1280.27
496.20	1294.32
496.38	1387.94
496.55	1399.64
496.73	1273.25
496.91	1383.26
497.09	1308.36
497.26	1348.15
497.44	1308.36
497.62	1343.47
497.79	1317.72
497.97	1341.13
498.14	1327.08
498.32	1369.21
498.50	1376.24
498.67	1341.13
498.85	1387.94
499.03	1394.96
499.20	1338.79
499.38	1373.89
499.56	1376.24
499.73	1479.22
499.91	1352.83
500.08	1423.05
500.26	1483.90
500.44	1451.13
500.61	1284.95
500.79	1462.83
500.97	1334.11
501.14	1364.53
501.32	1350.49
501.49	1479.22
501.67	1411.34
501.84	1437.09
502.02	1387.94
502.20	1493.26
502.37	1439.43
502.55	1390.28
502.72	1423.05
502.90	1418.36
503.07	1465.18
503.25	1383.26
503.43	1465.18
503.60	1488.58
503.78	1561.14
503.95	1528.37
504.13	1483.90
504.30	1432.41
504.48	1514.33
504.65	1439.43
504.83	1570.50
505.01	1439.43
505.18	1519.01
505.36	1533.05
505.53	1420.71
505.71	1460.49
505.88	1493.26
506.06	1568.16
506.23	1448.79
506.41	1397.30
506.58	1516.67
506.76	1514.33
506.93	1540.07
507.11	1521.35
507.28	1544.75
507.46	1591.56
507.63	1647.74
507.81	1556.46
507.98	1612.63
508.16	1556.46
508.33	1519.01
508.50	1586.88
508.68	1526.03
508.85	1507.30
509.03	1561.14
509.20	1568.16
509.38	1732.00
509.55	1612.63
509.73	1626.67
509.90	1589.22
510.08	1561.14
510.25	1589.22
510.42	1504.96
510.60	1689.87
510.77	1568.16
510.95	1631.35
511.12	1575.18
511.30	1600.93
511.47	1582.20
511.64	1699.23
511.82	1661.78
511.99	1549.43
512.17	1605.61
512.34	1547.09
512.51	1549.43
512.69	1645.40
512.86	1764.76
513.04	1675.82
513.21	1741.36
513.38	1624.33
513.56	1703.91
513.73	1654.76
513.90	1640.72
514.08	1710.93
514.25	1657.10
514.43	1748.38
514.60	1636.03
514.77	1643.06
514.95	1685.19
515.12	1753.06
515.29	1605.61
515.47	1774.13
515.64	1636.03
515.81	1729.66
515.99	1680.50
516.16	1774.13
516.33	1696.89
516.51	1638.38
516.68	1666.46
516.85	1591.56
517.03	1689.87
517.20	1795.19
517.37	1776.47
517.54	1699.23
517.72	1774.13
517.89	1638.38
518.06	1802.21
518.24	1792.85
518.41	1806.89
518.58	1837.32
518.75	1785.83
518.93	1788.17
519.10	1809.23
519.27	1760.08
519.45	1806.89
519.62	1802.21
519.79	1720.29
519.96	1727.32
520.14	1799.87
520.31	1769.44
520.48	1771.79
520.65	1706.25
520.83	1659.44
521.00	1797.53
521.17	1769.44
521.34	1769.44
521.52	1900.52
521.69	1776.47
521.86	1881.79
522.03	1872.43
522.20	1872.43
522.38	1827.96
522.55	1722.63
522.72	1717.95
522.89	1858.39
523.07	1900.52
523.24	1942.64
523.41	1818.60
523.58	1844.34
523.75	1839.66
523.92	1893.49
524.10	1839.66
524.27	1844.34
524.44	1893.49
524.61	1928.60
524.78	1804.55
524.96	1907.54
525.13	1872.43
525.30	1900.52
525.47	1900.52
525.64	1940.30
525.81	1813.92
525.98	1909.88
526.16	1914.56
526.33	1830.30
526.50	1914.56
526.67	1846.68
526.84	1916.90
527.01	1863.07
527.18	1837.32
527.36	1949.67
527.53	1916.90
527.70	1846.68
527.87	1942.64
528.04	1905.20
528.21	1919.24
528.38	1916.90
528.55	1863.07
528.72	2174.36
528.89	1991.80
529.07	1942.64
529.24	1881.79
529.41	1998.82
529.58	1879.45
529.75	1870.09
529.92	1909.88
530.09	2062.01
530.26	1893.49
530.43	1952.01
530.60	1942.64
530.77	2062.01
530.94	1954.35
531.11	1923.92
531.28	2071.37
531.46	1940.30
531.63	1963.71
531.80	1902.86
531.97	1916.90
532.14	1909.88
532.31	2026.90
532.48	2008.18
532.65	1961.37
532.82	1989.46
532.99	2031.58
533.16	2076.06
533.33	2031.58
533.50	2083.08
533.67	2033.93
533.84	1968.39
534.01	1947.33
534.18	2076.06
534.35	1987.11
534.52	2108.82
534.69	2167.34
534.86	2080.74
535.03	2059.67
535.20	2008.18
535.37	2169.68
535.54	1989.46
535.71	1989.46
535.88	2141.59
536.05	2031.58
536.22	2015.20
536.38	2043.29
536.55	2026.90
536.72	2054.99
536.89	1954.35
537.06	2094.78
537.23	2204.78
537.40	2139.25
537.57	2132.23
537.74	2267.98
537.91	2216.49
538.08	2195.42
538.25	2223.51
538.42	2179.04
538.59	2249.25
538.75	2228.19
538.92	2232.87
539.09	2193.08
539.26	2272.66
539.43	2333.51
539.60	2244.57
539.77	2333.51
539.94	2319.47
540.11	2314.79
540.28	2445.86
540.44	2509.05
540.61	2502.03
540.78	2548.84
540.95	2597.99
541.12	2846.09
541.29	2949.08
541.46	3000.57
541.62	3026.31
541.79	2897.58
541.96	2899.92
542.13	2876.52
542.30	2970.14
542.47	2923.33
542.63	3007.59
542.80	2810.98
542.97	2972.48
543.14	2916.31
543.31	2829.71
543.48	2892.90
543.64	2979.50
543.81	2923.33
543.98	2820.35
544.15	2918.65
544.32	2916.31
544.48	2862.48
544.65	2846.09
544.82	2827.37
544.99	2883.54
545.16	2754.81
545.32	2892.90
545.49	3447.61
545.66	4248.07
545.83	4648.30
546.00	4449.36
546.16	3737.84
546.33	3227.60
546.50	2923.33
546.67	2778.22
546.83	2726.72
547.00	2626.08
547.17	2633.10
547.34	2525.44
547.50	2614.38
547.67	2616.72
547.84	2628.42
548.00	2635.44
548.17	2495.01
548.34	2473.95
548.51	2567.57
548.67	2534.80
548.84	2436.50
549.01	2457.56
549.18	2450.54
549.34	2415.43
549.51	2436.50
549.68	2483.31
549.84	2396.71
550.01	2413.09
550.18	2443.52
550.34	2480.97
550.51	2462.24
550.68	2340.54
550.84	2352.24
551.01	2431.82
551.18	2520.76
551.34	2270.32
551.51	2385.01
551.68	2361.60
551.84	2408.41
552.01	2284.36
552.18	2338.20
552.34	2267.98
552.51	2366.28
552.68	2282.02
552.84	2258.62
553.01	2422.45
553.18	2319.47
553.34	2260.96
553.51	2347.56
553.67	2434.16
553.84	2370.96
554.01	2270.32
554.17	2244.57
554.34	2291.38
554.51	2291.38
554.67	2293.72
554.84	2258.62
555.00	2272.66
555.17	2239.89
555.33	2214.15
555.50	2356.92
555.67	2305.43
555.83	2150.95
556.00	2223.51
556.16	2509.05
556.33	2209.47
556.50	2228.19
556.66	2214.15
556.83	2207.13
556.99	2225.85
557.16	2244.57
557.32	2237.55
557.49	2193.08
557.65	2193.08
557.82	2256.28
557.98	2242.23
558.15	2275.00
558.32	2242.23
558.48	2162.66
558.65	2291.38
558.81	2263.30
558.98	2169.68
559.14	2242.23
559.31	2246.91
559.47	2174.36
559.64	2289.04
559.80	2368.62
559.97	2167.34
560.13	2153.29
560.30	2228.19
560.46	2260.96
560.63	2328.83
560.79	2207.13
560.96	2242.23
561.12	2190.74
561.29	2174.36
561.45	2211.81
561.61	2143.93
561.78	2310.11
561.94	2162.66
562.11	2232.87
562.27	2289.04
562.44	2235.21
562.60	2275.00
562.77	2204.78
562.93	2218.83
563.10	2207.13
563.26	2162.66
563.42	2260.96
563.59	2076.06
563.75	2258.62
563.92	2307.77
564.08	2340.54
564.24	2312.45
564.41	2331.17
564.57	2321.81
564.74	2232.87
564.90	2253.94
565.07	2225.85
565.23	2232.87
565.39	2272.66
565.56	2193.08
565.72	2251.60
565.88	2256.28
566.05	2256.28
566.21	2188.40
566.38	2235.21
566.54	2251.60
566.70	2118.18
566.87	2272.66
567.03	2195.42
567.19	2190.74
567.36	2246.91
567.52	2244.57
567.68	2333.51
567.85	2115.84
568.01	2162.66
568.17	2193.08
568.34	2225.85
568.50	2242.23
568.66	2251.60
568.83	2209.47
568.99	2118.18
569.15	2211.81
569.32	2232.87
569.48	2181.38
569.64	2218.83
569.81	2129.89
569.97	2111.16
570.13	2267.98
570.30	2186.06
570.46	2279.68
570.62	2179.04
570.78	2239.89
570.95	2204.78
571.11	2200.10
571.27	2347.56
571.43	2284.36
571.60	2204.78
571.76	2209.47
571.92	2298.41
572.09	2239.89
572.25	2207.13
572.41	2167.34
572.57	2286.70
572.74	2150.95
572.90	2249.25
573.06	2197.76
573.22	2193.08
573.38	2275.00
573.55	2263.30
573.71	2345.22
573.87	2272.66
574.03	2279.68
574.20	2167.34
574.36	2260.96
574.52	2204.78
574.68	2209.47
574.84	2246.91
575.01	2162.66
575.17	2265.64
575.33	2197.76
575.49	2157.97
575.65	2347.56
575.82	2312.45
575.98	2333.51
576.14	2249.25
576.30	2183.72
576.46	2415.43
576.62	2438.84
576.79	2750.13
576.95	2628.42
577.11	2450.54
577.27	2338.20
577.43	2293.72
577.59	2296.07
577.75	2237.55
577.92	2242.23
578.08	2326.49
578.24	2289.04
578.40	2279.68
578.56	2506.71
578.72	2635.44
578.88	2682.25
579.04	2499.69
579.21	2509.05
579.37	2375.64
579.53	2300.75
579.69	2377.98
579.85	2225.85
580.01	2415.43
580.17	2286.70
580.33	2485.65
580.49	2282.02
580.65	2340.54
580.82	2172.02
580.98	2286.70
581.14	2410.75
581.30	2359.26
581.46	2335.85
581.62	2459.90
581.78	2284.36
581.94	2317.13
582.10	2380.32
582.26	2286.70
582.42	2459.90
582.58	2434.16
582.74	2452.88
582.90	2450.54
583.06	2375.64
583.22	2478.63
583.38	2354.58
583.54	2443.52
583.70	2452.88
583.86	2356.92
584.02	2427.14
584.18	2457.56
584.34	2434.16
584.50	2368.62
584.66	2387.35
584.82	2377.98
584.98	2305.43
585.14	2335.85
585.30	2459.90
585.46	2312.45
585.62	2307.77
585.78	2307.77
585.94	2392.03
586.10	2401.39
586.26	2331.17
586.42	2471.61
586.58	2455.22
586.74	2417.77
586.90	2480.97
587.06	2548.84
587.22	2605.02
587.38	2434.16
587.54	2354.58
587.70	2485.65
587.86	2403.73
588.02	2389.69
588.18	2450.54
588.34	2361.60
588.49	2260.96
588.65	2275.00
588.81	2218.83
588.97	2202.44
589.13	2232.87
589.29	2356.92
589.45	2289.04
589.61	2221.17
589.77	2352.24
589.93	2282.02
590.08	2251.60
590.24	2284.36
590.40	2230.53
590.56	2347.56
590.72	2401.39
590.88	2251.60
591.04	2289.04
591.20	2305.43
591.35	2368.62
591.51	2263.30
591.67	2239.89
591.83	2368.62
591.99	2368.62
592.15	2387.35
592.31	2361.60
592.46	2356.92
592.62	2499.69
592.78	2415.43
592.94	2455.22
593.10	2511.39
593.26	2422.45
593.41	2417.77
593.57	2333.51
593.73	2445.86
593.89	2298.41
594.05	2223.51
594.20	2275.00
594.36	2298.41
594.52	2310.11
594.68	2303.09
594.84	2321.81
594.99	2321.81
595.15	2326.49
595.31	2347.56
595.47	2286.70
595.62	2303.09
595.78	2282.02
595.94	2214.15
596.10	2183.72
596.25	2153.29
596.41	2265.64
596.57	2197.76
596.73	2225.85
596.88	2279.68
597.04	2204.78
597.20	2188.40
597.36	2331.17
597.51	2284.36
597.67	2312.45
597.83	2317.13
597.99	2321.81
598.14	2361.60
598.30	2342.88
598.46	2314.79
598.61	2385.01
598.77	2385.01
598.93	2441.18
599.09	2321.81
599.24	2349.90
599.40	2422.45
599.56	2434.16
599.71	2265.64
599.87	2380.32
600.03	2326.49
600.18	2216.49
600.34	2265.64
600.50	2267.98
600.65	2277.34
600.81	2354.58
600.97	2291.38
601.12	2251.60
601.28	2207.13
601.44	2153.29
601.59	2256.28
601.75	2291.38
601.91	2188.40
602.06	2172.02
602.22	2289.04
602.37	2253.94
602.53	2235.21
602.69	2253.94
602.84	2204.78
603.00	2279.68
603.16	2235.21
