SpectraSuite Data File
++++++++++++++++++++++++++++++++++++
Date: Fri Oct 04 11:39:20 GMT-05:00 2013
User: price-jones
Dark Spectrum Present: No
Reference Spectrum Present: No
Number of Sampled Component Spectra: 1
Spectrometers: USB2+H05261
Integration Time (usec): 100000 (USB2+H05261)
Spectra Averaged: 1 (USB2+H05261)
Boxcar Smoothing: 0 (USB2+H05261)
Correct for Electrical Dark: No (USB2+H05261)
Strobe/Lamp Enabled: No (USB2+H05261)
Correct for Detector Non-linearity: No (USB2+H05261)
Correct for Stray Light: No (USB2+H05261)
Number of Pixels in Processed Spectrum: 2048
>>>>>Begin Processed Spectral Data<<<<<
365.73	46.81
365.92	46.81
366.12	46.81
366.32	30.43
366.52	0.00
366.72	0.00
366.91	0.00
367.11	0.00
367.31	0.00
367.51	0.00
367.70	0.00
367.90	0.00
368.10	0.00
368.30	0.00
368.49	0.00
368.69	0.00
368.89	0.00
369.09	0.00
369.28	0.00
369.48	0.00
369.68	0.00
369.87	0.00
370.07	0.00
370.27	63.19
370.47	84.26
370.66	191.92
370.86	271.50
371.06	306.61
371.25	355.76
371.45	264.48
371.65	266.82
371.84	269.16
372.04	353.42
372.24	362.78
372.44	273.84
372.63	264.48
372.83	414.27
373.03	355.76
373.22	344.06
373.42	388.53
373.62	411.93
373.81	416.62
374.01	374.49
374.21	390.87
374.40	334.70
374.60	470.45
374.79	400.23
374.99	433.00
375.19	521.94
375.38	395.55
375.58	400.23
375.78	404.91
375.97	433.00
376.17	526.62
376.37	388.53
376.56	458.74
376.76	402.57
376.95	414.27
377.15	486.83
377.35	505.56
377.54	421.30
377.74	451.72
377.93	489.17
378.13	416.62
378.33	418.96
378.52	463.43
378.72	491.51
378.91	472.79
379.11	484.49
379.31	472.79
379.50	451.72
379.70	517.26
379.89	524.28
380.09	395.55
380.28	531.30
380.48	444.70
380.68	484.49
380.87	475.13
381.07	528.96
381.26	524.28
381.46	561.73
381.65	599.18
381.85	489.17
382.04	528.96
382.24	510.24
382.43	535.98
382.63	594.50
382.83	587.47
383.02	559.39
383.22	608.54
383.41	526.62
383.61	552.37
383.80	613.22
384.00	620.24
384.19	613.22
384.39	580.45
384.58	475.13
384.78	601.52
384.97	564.07
385.17	568.75
385.36	594.50
385.56	624.92
385.75	650.67
385.95	575.77
386.14	634.29
386.34	610.88
386.53	660.03
386.72	599.18
386.92	699.82
387.11	655.35
387.31	585.13
387.50	638.97
387.70	669.39
387.89	685.78
388.09	697.48
388.28	657.69
388.48	704.50
388.67	760.67
388.86	723.23
389.06	613.22
389.25	641.31
389.45	669.39
389.64	671.73
389.84	727.91
390.03	753.65
390.22	716.20
390.42	627.26
390.61	667.05
390.81	777.06
391.00	798.12
391.19	896.43
391.39	774.72
391.58	709.18
391.78	837.91
391.97	781.74
392.16	833.23
392.36	777.06
392.55	807.48
392.75	840.25
392.94	791.10
393.13	828.55
393.33	795.78
393.52	774.72
393.71	830.89
393.91	903.45
394.10	861.32
394.29	814.51
394.49	856.64
394.68	891.74
394.88	889.40
395.07	922.17
395.26	849.61
395.46	952.60
395.65	924.51
395.84	915.15
396.04	985.37
396.23	999.41
396.42	959.62
396.62	936.21
396.81	1043.88
397.00	976.00
397.19	1008.77
397.39	1039.20
397.58	1069.62
397.77	952.60
397.97	1029.84
398.16	1025.15
398.35	1104.73
398.55	978.34
398.74	1020.47
398.93	1069.62
399.12	1109.41
399.32	1011.11
399.51	1076.65
399.70	1057.92
399.90	1095.37
400.09	1149.20
400.28	1310.70
400.47	1102.39
400.67	1111.75
400.86	1116.44
401.05	1139.84
401.24	1219.42
401.44	1249.85
401.63	1196.01
401.82	1233.46
402.01	1284.95
402.21	1245.16
402.40	1343.47
402.59	1280.27
402.78	1252.19
402.97	1310.70
403.17	1423.05
403.36	1308.36
403.55	1308.36
403.74	1383.26
403.93	1439.43
404.13	1462.83
404.32	1394.96
404.51	1474.54
404.70	1474.54
404.89	1451.13
405.09	1572.84
405.28	1448.79
405.47	1479.22
405.66	1570.50
405.85	1521.35
406.05	1509.65
406.24	1561.14
406.43	1582.20
406.62	1680.50
406.81	1633.69
407.00	1734.34
407.20	1493.26
407.39	1568.16
407.58	1629.01
407.77	1619.65
407.96	1689.87
408.15	1692.21
408.34	1645.40
408.54	1717.95
408.73	1701.57
408.92	1732.00
409.11	1820.94
409.30	1891.15
409.49	1846.68
409.68	1905.20
409.87	1870.09
410.07	1919.24
410.26	1867.75
410.45	1872.43
410.64	1921.58
410.83	1926.26
411.02	1987.11
411.21	2057.33
411.40	2022.22
411.59	2064.35
411.78	2064.35
411.98	2069.03
412.17	2101.80
412.36	2015.20
412.55	2132.23
412.74	2246.91
412.93	2293.72
413.12	2207.13
413.31	2314.79
413.50	2260.96
413.69	2314.79
413.88	2377.98
414.07	2225.85
414.26	2289.04
414.45	2312.45
414.64	2476.29
414.83	2504.37
415.02	2555.86
415.22	2607.36
415.41	2586.29
415.60	2492.67
415.79	2574.59
415.98	2574.59
416.17	2677.57
416.36	2644.81
416.55	2644.81
416.74	2523.10
416.93	2766.51
417.12	2616.72
417.31	2813.32
417.50	2799.28
417.69	2860.13
417.88	2946.73
418.07	2918.65
418.26	2871.84
418.45	2949.08
418.64	3077.80
418.83	2944.39
419.02	3012.27
419.21	3143.34
419.39	3070.78
419.58	3019.29
419.77	2897.58
419.96	3028.65
420.15	3075.46
420.34	3094.19
420.53	3094.19
420.72	3166.74
420.91	3302.50
421.10	3272.07
421.29	3314.20
421.48	3122.27
421.67	3332.92
421.86	3269.73
422.05	3342.28
422.24	3295.47
422.43	3286.11
422.61	3309.52
422.80	3466.33
422.99	3349.31
423.18	3433.57
423.37	3475.70
423.56	3382.07
423.75	3304.84
423.94	3351.65
424.13	3148.02
424.32	3318.88
424.50	3365.69
424.69	3398.46
424.88	3419.52
425.07	3421.86
425.26	3454.63
425.45	3478.04
425.64	3442.93
425.83	3447.61
426.01	3426.54
426.20	3494.42
426.39	3461.65
426.58	3433.57
426.77	3494.42
426.96	3485.06
427.15	3550.59
427.33	3583.36
427.52	3426.54
427.71	3576.34
427.90	3751.88
428.09	3665.28
428.28	3583.36
428.46	3681.66
428.65	3742.52
428.84	3740.18
429.03	3868.91
429.22	3534.21
429.40	3810.39
429.59	3831.46
429.78	3772.94
429.97	3726.13
430.16	3616.13
430.34	3934.44
430.53	3906.35
430.72	3866.56
430.91	3873.59
431.10	3850.18
431.28	4058.49
431.47	4135.73
431.66	4170.83
431.85	3950.82
432.03	4030.40
432.22	4114.66
432.41	3997.64
432.60	4241.05
432.79	4060.83
432.97	4021.04
433.16	4086.58
433.35	4208.28
433.54	4182.54
433.72	4229.35
433.91	4205.94
434.10	4351.06
434.28	4280.84
434.47	4447.02
434.66	4437.66
434.85	4329.99
435.03	4444.68
435.22	4554.68
435.41	4905.76
435.59	4894.06
435.78	4753.63
435.97	4636.60
436.16	4571.07
436.34	4484.47
436.53	4552.34
436.72	4636.60
436.90	4547.66
437.09	4837.89
437.28	4545.32
437.46	4627.24
437.65	4617.88
437.84	4706.82
438.02	4734.90
438.21	4720.86
438.40	4835.55
438.58	4793.42
438.77	4800.44
438.96	4947.89
439.14	4865.97
439.33	5018.11
439.52	5006.41
439.70	5064.92
439.89	5121.09
440.08	5064.92
440.26	5093.01
440.45	5179.61
440.63	5226.42
440.82	5334.08
441.01	5207.69
441.19	5207.69
441.38	5327.06
441.57	5394.93
441.75	5544.73
441.94	5465.15
442.12	5465.15
442.31	5722.61
442.50	5628.99
442.68	5720.27
442.87	5657.07
443.05	5612.60
443.24	5701.54
443.43	5666.44
443.61	5647.71
443.80	5809.21
443.98	5612.60
444.17	5589.20
444.35	5706.23
444.54	5734.31
444.73	5820.91
444.91	5788.14
445.10	5757.72
445.28	5863.04
445.47	5907.51
445.65	5816.23
445.84	5959.00
446.02	6017.52
446.21	5956.66
446.39	5954.32
446.58	5921.56
446.77	5968.37
446.95	5785.80
447.14	5937.94
447.32	5984.75
447.51	5961.34
447.69	5895.81
447.88	5867.72
448.06	6052.63
448.25	5834.96
448.43	5980.07
448.62	5902.83
448.80	6069.01
448.99	5977.73
449.17	5886.45
449.36	6066.67
449.54	6307.74
449.73	6209.44
449.91	6108.80
450.10	6420.09
450.28	6368.60
450.46	6347.53
450.65	6258.59
450.83	6282.00
451.02	6286.68
451.20	6450.52
451.39	6415.41
451.57	6296.04
451.76	6237.53
451.94	6429.45
452.13	6368.60
452.31	6485.62
452.49	6408.39
452.68	6490.31
452.86	6466.90
453.05	6700.95
453.23	6602.65
453.42	6530.09
453.60	6558.18
453.78	6677.55
453.97	6586.27
454.15	6726.70
454.34	6642.44
454.52	6775.85
454.70	6747.76
454.89	6794.58
455.07	6724.36
455.26	6820.32
455.44	6967.77
455.62	6939.69
455.81	7028.63
455.99	6932.67
456.17	6965.43
456.36	6988.84
456.54	6951.39
456.73	7187.79
456.91	7276.73
457.09	7293.11
457.28	7344.60
457.46	7297.79
457.64	7421.84
457.83	7276.73
458.01	7178.42
458.19	7318.86
458.38	7250.98
458.56	7569.29
458.74	7541.21
458.93	7288.43
459.11	7475.67
459.29	7534.18
459.48	7527.16
459.66	7667.60
459.84	7595.04
460.03	7653.55
460.21	7573.97
460.39	7742.49
460.57	7646.53
460.76	7735.47
460.94	7777.60
461.12	7648.87
461.31	7817.39
461.49	7786.96
461.67	7847.82
461.85	7981.23
462.04	7775.26
462.22	8404.86
462.40	7997.61
462.59	8049.10
462.77	8210.60
462.95	8060.80
463.13	8119.32
463.32	8226.98
463.50	7953.14
463.68	8088.89
463.86	8114.64
464.05	8079.53
464.23	8166.13
464.41	8329.97
464.59	8248.05
464.78	8404.86
464.96	8243.37
465.14	8329.97
465.32	8521.89
465.50	8393.16
465.69	8432.95
465.87	8320.60
466.05	8393.16
466.23	8381.46
466.41	8582.74
466.60	8652.96
466.78	8566.36
466.96	8344.01
467.14	8416.57
467.32	8533.59
467.51	8730.20
467.69	8519.55
467.87	8589.77
468.05	8772.33
468.23	8409.54
468.41	8884.67
468.60	8702.11
468.78	8865.95
468.96	8833.18
469.14	8777.01
469.32	9067.24
469.50	8681.05
469.69	9062.55
469.87	9207.67
470.05	9102.34
470.23	9104.68
470.41	9128.09
470.59	9137.45
470.77	9322.35
470.95	9130.43
471.14	9544.70
471.32	9193.62
471.50	9598.54
471.68	9245.12
471.86	9497.89
472.04	9453.42
472.22	9568.11
472.40	9467.47
472.58	9769.40
472.77	9666.41
472.95	9858.34
473.13	10038.56
473.31	9898.13
473.49	9717.90
473.67	10150.90
473.85	10017.49
474.03	10157.92
474.21	10087.71
474.39	10141.54
474.57	10160.27
474.75	10462.19
474.93	10326.44
475.12	10246.87
475.30	10403.68
475.48	10375.59
475.66	10682.20
475.84	10483.26
476.02	10729.02
476.20	10862.43
476.38	10874.13
476.56	11126.91
476.74	10925.62
476.92	11091.80
477.10	11143.29
477.28	11176.06
477.46	11063.71
477.64	11307.13
477.82	11606.72
478.00	11758.85
478.18	11700.34
478.36	11791.62
478.54	11988.22
478.72	11953.12
478.90	11936.73
479.08	12023.33
479.26	12360.37
479.44	12224.62
479.62	12453.99
479.80	12414.20
479.98	12552.29
480.16	12784.01
480.34	12662.30
480.52	12636.55
480.70	12695.07
480.88	12737.20
481.06	12856.56
481.24	13090.62
481.41	13074.23
481.59	13671.07
481.77	13497.87
481.95	13769.37
482.13	13760.01
482.31	13558.72
482.49	14012.79
482.67	13907.46
482.85	14115.77
483.03	14253.86
483.21	14391.95
483.39	14527.71
483.57	14462.17
483.74	14600.26
483.92	14560.47
484.10	14780.48
484.28	14941.98
484.46	15063.69
484.64	15625.42
484.82	15176.03
485.00	15267.31
485.18	15648.82
485.35	16362.69
485.53	15906.28
485.71	15836.06
485.89	16386.09
486.07	16039.69
486.25	16425.88
486.43	16526.52
486.61	16332.26
486.78	16795.68
486.96	16908.03
487.14	16968.88
487.32	17027.40
487.50	17109.32
487.68	17322.30
487.85	17584.44
488.03	17563.38
488.21	17872.33
488.39	17734.24
488.57	18209.37
488.75	18031.49
488.92	18593.22
489.10	18827.27
489.28	18466.83
489.46	18628.32
489.64	18965.36
489.81	19269.63
489.99	19033.24
490.17	19264.95
490.35	19421.77
490.53	19328.14
490.70	19632.41
490.88	19800.93
491.06	19936.68
491.24	20030.30
491.41	19903.92
491.59	20336.91
491.77	20240.95
491.95	20608.42
492.13	20692.68
492.30	20744.17
492.48	20861.19
492.66	20828.43
492.84	20751.19
493.01	21151.42
493.19	21315.26
493.37	21652.30
493.54	21710.81
493.72	21561.02
493.90	21619.53
494.08	21926.14
494.25	21951.88
494.43	22579.15
494.61	22396.59
494.79	22499.57
494.96	22602.55
495.14	22628.30
495.32	22920.87
495.49	22855.33
495.67	23042.57
495.85	23044.91
496.02	23321.10
496.20	23672.18
496.38	23679.20
496.55	23639.41
496.73	24315.83
496.91	23744.73
497.09	24252.63
497.26	24137.94
497.44	24301.78
497.62	24257.31
497.79	24685.63
497.97	24503.07
498.14	25034.37
498.32	24917.34
498.50	24950.11
498.67	25317.57
498.85	25113.95
499.03	25135.01
499.20	25429.92
499.38	25516.52
499.56	25621.84
499.73	26101.65
499.91	25818.45
500.08	26094.63
500.26	26225.70
500.44	26115.70
500.61	26160.17
500.79	26501.89
500.97	26602.53
501.14	26780.41
501.32	26691.47
501.49	26689.13
501.67	26885.73
501.84	26850.63
502.02	27108.08
502.20	26965.31
502.37	27529.38
502.55	27096.38
502.72	27592.58
502.90	27358.52
503.07	27482.57
503.25	27505.98
503.43	27828.97
503.60	27810.25
503.78	28147.28
503.95	27833.65
504.13	27913.23
504.30	28306.44
504.48	27999.83
504.65	28444.53
504.83	28395.38
505.01	28683.27
505.18	28306.44
505.36	28982.85
505.53	29144.35
505.71	29003.92
505.88	29130.31
506.06	28788.59
506.23	28924.34
506.41	29387.77
506.58	29390.11
506.76	29570.33
506.93	29575.01
507.11	29380.74
507.28	29759.91
507.46	29851.19
507.63	30106.31
507.81	29972.90
507.98	30113.33
508.16	30190.57
508.33	30008.01
508.50	30260.79
508.68	30267.81
508.85	30761.66
509.03	30300.58
509.20	30459.73
509.38	30878.69
509.55	31297.64
509.73	30953.58
509.90	31061.25
510.08	31044.87
510.25	31122.10
510.42	31150.19
510.60	31875.76
510.77	31627.66
510.95	31740.00
511.12	31395.95
511.30	31714.26
511.47	31995.12
511.64	32271.31
511.82	32023.21
511.99	32177.68
512.17	32266.63
512.34	32371.95
512.51	32105.13
512.69	32479.61
512.86	32627.07
513.04	33188.80
513.21	32783.88
513.38	32952.40
513.56	33085.81
513.73	32952.40
513.90	33151.35
514.08	33046.02
514.25	33284.76
514.43	33500.09
514.60	33376.04
514.77	33858.19
514.95	33504.77
515.12	33659.24
515.29	33504.77
515.47	33582.01
515.64	34171.82
515.81	33905.00
515.99	34197.57
516.16	34363.75
516.33	34309.91
516.51	34745.25
516.68	34227.99
516.85	33979.90
517.03	34969.94
517.20	34714.83
517.37	34274.80
517.54	34948.88
517.72	35166.55
517.89	34986.33
518.06	35005.05
518.24	34696.10
518.41	35110.38
518.58	35342.09
518.75	34955.90
518.93	35196.98
519.10	35386.56
519.27	35339.75
519.45	35243.79
519.62	35431.03
519.79	35758.70
519.96	35854.67
520.14	35777.43
520.31	35505.93
520.48	35845.30
520.65	35992.76
520.83	36030.21
521.00	36130.85
521.17	36086.38
521.34	36109.78
521.52	36538.10
521.69	36854.08
521.86	36708.96
522.03	37060.04
522.20	36940.68
522.38	36973.44
522.55	36814.29
522.72	36701.94
522.89	36837.69
523.07	37635.81
523.24	37057.70
523.41	37675.60
523.58	37109.19
523.75	37525.81
523.92	37497.72
524.10	37310.48
524.27	37689.65
524.44	37596.03
524.61	38150.73
524.78	38106.26
524.96	38059.45
525.13	38277.12
525.30	38089.88
525.47	38061.79
525.64	38447.98
525.81	38604.80
525.98	38225.63
526.16	38361.38
526.33	38766.29
526.50	38735.87
526.67	38124.99
526.84	38806.08
527.01	38829.49
527.18	38869.28
527.36	38986.30
527.53	39126.74
527.70	39662.72
527.87	38888.00
528.04	39070.56
528.21	39384.19
528.38	38623.52
528.55	39257.81
528.72	39129.08
528.89	39894.43
529.07	39707.19
529.24	39524.63
529.41	40100.40
529.58	39459.09
529.75	39475.48
529.92	39964.65
530.09	39880.39
530.26	39842.94
530.43	39885.07
530.60	40112.10
530.77	39714.21
530.94	40027.84
531.11	40210.40
531.28	40170.61
531.46	40091.04
531.63	39803.15
531.80	40362.54
531.97	40533.40
532.14	40676.17
532.31	40563.82
532.48	40830.65
532.65	40875.12
532.82	40849.37
532.99	41109.17
533.16	40683.19
533.33	41301.09
533.50	41270.67
533.67	41155.98
533.84	40935.97
534.01	40807.24
534.18	40957.03
534.35	41488.34
534.52	41235.56
534.69	41869.84
534.86	41537.49
535.03	41439.18
535.20	41610.04
535.37	41329.18
535.54	41865.16
535.71	41504.72
535.88	41755.16
536.05	41574.94
536.22	42080.49
536.38	42396.46
536.55	42036.02
536.72	42232.63
536.89	42220.92
537.06	42469.02
537.23	42127.30
537.40	42330.93
537.57	42171.77
537.74	42216.24
537.91	42691.37
538.08	43058.84
538.25	42738.18
538.42	42810.74
538.59	42932.45
538.75	42548.60
538.92	42639.88
539.09	42485.40
539.26	42452.64
539.43	43068.20
539.60	43131.39
539.77	43278.85
539.94	43007.34
540.11	43522.26
540.28	43519.92
540.44	43119.69
540.61	43435.66
540.78	43122.03
540.95	43372.47
541.12	43489.49
541.29	43601.84
541.46	43908.45
541.62	43119.69
541.79	43693.12
541.96	43147.78
542.13	43363.11
542.30	43732.91
542.47	44067.61
542.63	44072.29
542.80	44432.73
542.97	44402.30
543.14	44397.62
543.31	44671.46
543.48	44254.85
543.64	44690.19
543.81	44692.53
543.98	44758.06
544.15	44598.91
544.32	44924.24
544.48	45174.68
544.65	44802.53
544.82	44423.37
544.99	44313.36
545.16	44711.25
545.32	44830.62
545.49	45696.62
545.66	45874.50
545.83	46227.92
546.00	46195.15
546.16	45343.20
546.33	45097.44
546.50	44734.66
546.67	45448.52
546.83	44849.35
547.00	45162.98
547.17	45237.87
547.34	45453.20
547.50	45478.95
547.67	45593.64
547.84	45230.85
548.00	45638.11
548.17	45675.55
548.34	45574.91
548.51	45549.17
548.67	45879.18
548.84	45361.92
549.01	45991.53
549.18	45202.77
549.34	46302.82
549.51	45673.21
549.68	45998.55
549.84	45598.32
550.01	45757.47
550.18	45593.64
550.34	46014.93
550.51	46281.75
550.68	46204.52
550.84	46202.18
551.01	46153.02
551.18	46307.50
551.34	45635.77
551.51	46232.60
551.68	46192.81
551.84	46202.18
552.01	46319.20
552.18	46220.90
552.34	46134.30
552.51	46412.82
552.68	46110.89
552.84	46309.84
553.01	46864.55
553.18	46712.41
553.34	46691.35
553.51	46253.67
553.67	46508.79
553.84	47185.20
554.01	47007.32
554.17	46754.54
554.34	46618.79
554.51	46424.53
554.67	46777.95
554.84	46679.64
555.00	46513.47
555.17	46981.57
555.33	46904.34
555.50	46499.42
555.67	46546.23
555.83	46815.40
556.00	46850.50
556.16	46883.27
556.33	46784.97
556.50	47180.52
556.66	47077.54
556.83	46660.92
556.99	47538.62
557.16	47765.65
557.32	47239.03
557.49	47402.87
557.65	46770.93
557.82	46824.76
557.98	47105.62
558.15	47423.93
558.32	47660.33
558.48	46958.17
558.65	47283.50
558.81	47330.31
558.98	47398.19
559.14	47615.86
559.31	47239.03
559.47	47452.02
559.64	47557.35
559.80	47468.40
559.97	47856.93
560.13	47271.80
560.30	47716.50
560.46	48123.75
560.63	47639.26
560.79	47868.64
560.96	48060.56
561.12	47730.54
561.29	48081.63
561.45	47962.26
561.61	47885.02
561.78	47573.73
561.94	47920.13
562.11	48165.88
562.27	47941.19
562.44	47817.14
562.60	47892.04
562.77	47749.27
562.93	47959.92
563.10	48093.33
563.26	47906.08
563.42	48470.15
563.59	48130.78
563.75	48236.10
563.92	48109.71
564.08	47826.51
564.24	48130.78
564.41	47796.08
564.57	47936.51
564.74	48093.33
564.90	48442.07
565.07	47915.45
565.23	48229.08
565.39	48437.39
565.56	48114.39
565.72	47985.66
565.88	47847.57
566.05	48182.27
566.21	48257.17
566.38	48151.84
566.54	48156.52
566.70	48388.24
566.87	48549.73
567.03	48346.11
567.19	49024.86
567.36	48512.28
567.52	48128.44
567.68	48215.04
567.85	48041.84
568.01	48327.38
568.17	48320.36
568.34	48385.89
568.50	48353.13
568.66	48545.05
568.83	48818.89
568.99	48648.03
569.15	48643.35
569.32	48320.36
569.48	48041.84
569.64	48638.67
569.81	48191.63
569.97	48622.29
570.13	48657.40
570.30	48626.97
570.46	48683.14
570.62	48626.97
570.78	49125.50
570.95	48545.05
571.11	48725.27
571.27	48533.35
571.43	48491.22
571.60	48535.69
571.76	48739.32
571.92	48825.92
572.09	48767.40
572.25	48549.73
572.41	48942.94
572.57	48802.51
572.74	48753.36
572.90	48247.80
573.06	48809.53
573.22	48615.27
573.38	48713.57
573.55	48945.28
573.71	49048.27
573.87	49139.55
574.03	48746.34
574.20	48671.44
574.36	48783.79
574.52	48650.38
574.68	48435.05
574.84	48516.96
575.01	48872.73
575.17	48865.70
575.33	48814.21
575.49	48992.09
575.65	49078.69
575.82	49158.27
575.98	48741.66
576.14	49074.01
576.30	49233.17
576.46	48514.62
576.62	48884.43
576.79	49226.15
576.95	48467.81
577.11	49066.99
577.27	48964.01
577.43	49249.55
577.59	48879.75
577.75	49172.31
577.92	49146.57
578.08	48802.51
578.24	48673.78
578.40	48755.70
578.56	48900.81
578.72	48779.10
578.88	49167.63
579.04	49277.64
579.21	48837.62
579.37	49041.24
579.53	49191.04
579.69	49034.22
579.85	49155.93
580.01	48945.28
580.17	48652.72
580.33	49186.36
580.49	49029.54
580.65	49572.55
580.82	49247.21
580.98	48975.71
581.14	49368.92
581.30	49162.95
581.46	48704.21
581.62	49251.89
581.78	48830.60
581.94	49305.73
582.10	49233.17
582.26	49317.43
582.42	49429.77
582.58	49296.36
582.74	49233.17
582.90	49656.81
583.06	49120.82
583.22	49448.50
583.38	49469.56
583.54	49078.69
583.70	49172.31
583.86	49139.55
584.02	49024.86
584.18	49212.10
584.34	49279.98
584.50	49481.27
584.66	49361.90
584.82	49050.61
584.98	49242.53
585.14	49179.34
585.30	48903.15
585.46	48989.75
585.62	48877.41
585.78	48938.26
585.94	49249.55
586.10	48975.71
586.26	49411.05
586.42	49340.83
586.58	49392.33
586.74	49095.08
586.90	49031.88
587.06	49162.95
587.22	49584.25
587.38	49432.11
587.54	49272.96
587.70	49221.47
587.86	49099.76
588.02	49462.54
588.18	49460.20
588.34	49296.36
588.49	49614.68
588.65	49081.03
588.81	49617.02
588.97	49633.40
589.13	48954.64
589.29	49434.45
589.45	49769.15
589.61	49610.00
589.77	49708.30
589.93	49715.32
590.08	49825.32
590.24	49574.89
590.40	49626.38
590.56	49705.96
