SpectraSuite Data File
++++++++++++++++++++++++++++++++++++
Date: Fri Oct 04 11:39:32 GMT-05:00 2013
User: price-jones
Dark Spectrum Present: No
Reference Spectrum Present: No
Number of Sampled Component Spectra: 1
Spectrometers: USB2+H05261
Integration Time (usec): 100000 (USB2+H05261)
Spectra Averaged: 1 (USB2+H05261)
Boxcar Smoothing: 0 (USB2+H05261)
Correct for Electrical Dark: No (USB2+H05261)
Strobe/Lamp Enabled: No (USB2+H05261)
Correct for Detector Non-linearity: No (USB2+H05261)
Correct for Stray Light: No (USB2+H05261)
Number of Pixels in Processed Spectrum: 2048
>>>>>Begin Processed Spectral Data<<<<<
365.73	32.77
365.92	32.77
366.12	32.77
366.32	0.00
366.52	0.00
366.72	0.00
366.91	0.00
367.11	0.00
367.31	0.00
367.51	0.00
367.70	0.00
367.90	0.00
368.10	0.00
368.30	0.00
368.49	0.00
368.69	0.00
368.89	0.00
369.09	0.00
369.28	0.00
369.48	49.15
369.68	14.04
369.87	11.70
370.07	0.00
370.27	21.06
370.47	32.77
370.66	147.45
370.86	184.90
371.06	205.97
371.25	236.39
371.45	161.50
371.65	196.60
371.84	212.99
372.04	166.18
372.24	327.68
372.44	191.92
372.63	257.46
372.83	234.05
373.03	168.52
373.22	248.10
373.42	245.76
373.62	285.55
373.81	257.46
374.01	297.25
374.21	215.33
374.40	257.46
374.60	280.86
374.79	280.86
374.99	306.61
375.19	313.63
375.38	341.72
375.58	245.76
375.78	320.65
375.97	355.76
376.17	402.57
376.37	332.36
376.56	348.74
376.76	327.68
376.95	360.44
377.15	383.85
377.35	271.50
377.54	344.06
377.74	304.27
377.93	250.44
378.13	322.99
378.33	280.86
378.52	255.12
378.72	344.06
378.91	327.68
379.11	390.87
379.31	308.95
379.50	313.63
379.70	344.06
379.89	379.17
380.09	407.25
380.28	351.08
380.48	299.59
380.68	327.68
380.87	332.36
381.07	351.08
381.26	276.18
381.46	355.76
381.65	315.97
381.85	407.25
382.04	292.57
382.24	369.80
382.43	346.40
382.63	379.17
382.83	358.10
383.02	353.42
383.22	411.93
383.41	322.99
383.61	358.10
383.80	404.91
384.00	393.21
384.19	463.43
384.39	383.85
384.58	351.08
384.78	454.06
384.97	390.87
385.17	409.59
385.36	465.77
385.56	393.21
385.75	381.51
385.95	346.40
386.14	409.59
386.34	418.96
386.53	388.53
386.72	372.15
386.92	444.70
387.11	435.34
387.31	395.55
387.50	362.78
387.70	320.65
387.89	362.78
388.09	421.30
388.28	435.34
388.48	393.21
388.67	433.00
388.86	533.64
389.06	433.00
389.25	365.12
389.45	456.40
389.64	465.77
389.84	416.62
390.03	468.11
390.22	454.06
390.42	440.02
390.61	442.36
390.81	355.76
391.00	463.43
391.19	500.87
391.39	531.30
391.58	564.07
391.78	482.15
391.97	540.66
392.16	475.13
392.36	543.00
392.55	575.77
392.75	496.19
392.94	456.40
393.13	535.98
393.33	519.60
393.52	482.15
393.71	603.86
393.91	580.45
394.10	561.73
394.29	533.64
394.49	547.69
394.68	594.50
394.88	575.77
395.07	538.32
395.26	606.20
395.46	571.09
395.65	561.73
395.84	575.77
396.04	645.99
396.23	613.22
396.42	624.92
396.62	706.84
396.81	678.76
397.00	608.54
397.19	671.73
397.39	685.78
397.58	638.97
397.77	620.24
397.97	727.91
398.16	716.20
398.35	753.65
398.55	681.10
398.74	748.97
398.93	741.95
399.12	727.91
399.32	727.91
399.51	751.31
399.70	791.10
399.90	821.53
400.09	758.33
400.28	779.40
400.47	763.01
400.67	781.74
400.86	837.91
401.05	798.12
401.24	887.06
401.44	926.85
401.63	847.27
401.82	826.21
402.01	898.77
402.21	894.08
402.40	917.49
402.59	917.49
402.78	987.71
402.97	868.34
403.17	961.96
403.36	994.73
403.55	1004.09
403.74	936.21
403.93	1078.99
404.13	1036.86
404.32	1046.22
404.51	1025.15
404.70	1076.65
404.89	1132.82
405.09	1121.12
405.28	1076.65
405.47	1086.01
405.66	1071.97
405.85	1193.67
406.05	1212.40
406.24	1282.61
406.43	1233.46
406.62	1188.99
406.81	1228.78
407.00	1144.52
407.20	1184.31
407.39	1179.63
407.58	1188.99
407.77	1217.08
407.96	1320.06
408.15	1310.70
408.34	1273.25
408.54	1394.96
408.73	1394.96
408.92	1366.87
409.11	1420.71
409.30	1352.83
409.49	1420.71
409.68	1446.45
409.87	1434.75
410.07	1423.05
410.26	1607.95
410.45	1533.05
410.64	1547.09
410.83	1544.75
411.02	1465.18
411.21	1612.63
411.40	1600.93
411.59	1556.46
411.78	1610.29
411.98	1638.38
412.17	1668.80
412.36	1626.67
412.55	1739.02
412.74	1727.32
412.93	1837.32
413.12	1799.87
413.31	1881.79
413.50	1827.96
413.69	1902.86
413.88	1879.45
414.07	1919.24
414.26	1919.24
414.45	1987.11
414.64	1933.28
414.83	1996.48
415.02	2113.50
415.22	2038.61
415.41	2094.78
415.60	2064.35
415.79	2188.40
415.98	2136.91
416.17	2204.78
416.36	2101.80
416.55	2197.76
416.74	2244.57
416.93	2232.87
417.12	2167.34
417.31	2319.47
417.50	2338.20
417.69	2448.20
417.88	2394.37
418.07	2284.36
418.26	2366.28
418.45	2436.50
418.64	2525.44
418.83	2422.45
419.02	2518.42
419.21	2597.99
419.39	2602.68
419.58	2443.52
419.77	2644.81
419.96	2642.46
420.15	2630.76
420.34	2672.89
420.53	2649.49
420.72	2684.59
420.91	2672.89
421.10	2691.62
421.29	2726.72
421.48	2642.46
421.67	2789.92
421.86	2799.28
422.05	2827.37
422.24	2841.41
422.43	2682.25
422.61	2850.77
422.80	2792.26
422.99	2888.22
423.18	2925.67
423.37	2916.31
423.56	2822.69
423.75	2829.71
423.94	2829.71
424.13	2684.59
424.32	2818.00
424.50	2956.10
424.69	3005.25
424.88	2902.26
425.07	2885.88
425.26	2871.84
425.45	2841.41
425.64	2864.82
425.83	2946.73
426.01	2937.37
426.20	3023.97
426.39	2918.65
426.58	2946.73
426.77	3002.91
426.96	3035.67
427.15	3103.55
427.33	2928.01
427.52	3040.36
427.71	3030.99
427.90	2967.80
428.09	3206.53
428.28	3148.02
428.46	3274.41
428.65	3267.39
428.84	3229.94
429.03	3323.56
429.22	3096.53
429.40	3197.17
429.59	3227.60
429.78	3265.05
429.97	3042.70
430.16	3323.56
430.34	3232.28
430.53	3330.58
430.72	3351.65
430.91	3370.37
431.10	3353.99
431.28	3499.10
431.47	3424.20
431.66	3414.84
431.85	3478.04
432.03	3602.08
432.22	3583.36
432.41	3527.19
432.60	3613.79
432.79	3569.32
432.97	3576.34
433.16	3669.96
433.35	3555.27
433.54	3597.40
433.72	3597.40
433.91	3576.34
434.10	3700.39
434.28	3660.60
434.47	3751.88
434.66	3747.20
434.85	3768.26
435.03	3859.54
435.22	3896.99
435.41	4252.75
435.59	4117.00
435.78	3981.25
435.97	3992.95
436.16	3948.48
436.34	3990.61
436.53	3786.99
436.72	4063.17
436.90	3838.48
437.09	4030.40
437.28	3955.51
437.46	3920.40
437.65	4049.13
437.84	3964.87
438.02	3962.53
438.21	4135.73
438.40	4107.64
438.58	4224.67
438.77	4238.71
438.96	4241.05
439.14	4269.14
439.33	4372.12
439.52	4285.52
439.70	4327.65
439.89	4404.89
440.08	4437.66
440.26	4262.12
440.45	4283.18
440.63	4400.21
440.82	4578.09
441.01	4456.38
441.19	4627.24
441.38	4468.08
441.57	4524.26
441.75	4634.26
441.94	4720.86
442.12	4664.69
442.31	4854.27
442.50	4793.42
442.68	4725.54
442.87	4765.33
443.05	4762.99
443.24	4990.02
443.43	4966.62
443.61	4837.89
443.80	5132.79
443.98	4840.23
444.17	4699.80
444.35	4954.91
444.54	4992.36
444.73	5146.84
444.91	5032.15
445.10	5032.15
445.28	4828.53
445.47	4919.81
445.65	5034.49
445.84	5146.84
446.02	5041.51
446.21	4994.70
446.39	5008.75
446.58	5078.96
446.77	5060.24
446.95	5041.51
447.14	4924.49
447.32	5266.21
447.51	5036.83
447.69	4978.32
447.88	5256.84
448.06	5064.92
448.25	4997.04
448.43	5184.29
448.62	5064.92
448.80	5165.56
448.99	5226.42
449.17	5245.14
449.36	5210.03
449.54	5303.65
449.73	5284.93
449.91	5327.06
450.10	5458.13
450.28	5418.34
450.46	5252.16
450.65	5380.89
450.83	5200.67
451.02	5369.19
451.20	5420.68
451.39	5591.54
451.57	5380.89
451.76	5521.32
451.94	5448.77
452.13	5701.54
452.31	5645.37
452.49	5575.16
452.68	5547.07
452.86	5699.20
453.05	5572.82
453.23	5774.10
453.42	5591.54
453.60	5434.72
453.78	5600.90
453.97	5685.16
454.15	5682.82
454.34	5570.48
454.52	5738.99
454.70	5834.96
454.89	5731.97
455.07	5774.10
455.26	5841.98
455.44	5884.11
455.62	5820.91
455.81	5888.79
455.99	5937.94
456.17	6022.20
456.36	5818.57
456.54	6092.41
456.73	6104.12
456.91	6193.06
457.09	6202.42
457.28	6218.80
457.46	6183.70
457.64	6300.72
457.83	6284.34
458.01	6150.93
458.19	6399.02
458.38	6122.84
458.56	6258.59
458.74	6342.85
458.93	6193.06
459.11	6413.07
459.29	6298.38
459.48	6251.57
459.66	6520.73
459.84	6572.22
460.03	6413.07
460.21	6452.86
460.39	6546.48
460.57	6380.30
460.76	6452.86
460.94	6700.95
461.12	6583.93
461.31	6562.86
461.49	6609.67
461.67	6640.10
461.85	6689.25
462.04	6665.85
462.22	6951.39
462.40	6860.11
462.59	6902.24
462.77	6698.61
462.95	6881.18
463.13	6754.79
463.32	6930.33
463.50	6888.20
463.68	7056.72
463.86	6850.75
464.05	6794.58
464.23	6927.99
464.41	6993.52
464.59	6935.01
464.78	7045.01
464.96	7143.32
465.14	7023.95
465.32	7002.88
465.50	7222.89
465.69	7229.91
465.87	7206.51
466.05	7119.91
466.23	7187.79
466.41	7386.73
466.60	7239.28
466.78	7204.17
466.96	7194.81
467.14	7171.40
467.32	7368.01
467.51	7302.47
467.69	7124.59
467.87	7431.20
468.05	7482.69
468.23	7253.32
468.41	7339.92
468.60	7363.33
468.78	7573.97
468.96	7520.14
469.14	7721.43
469.32	7765.90
469.50	7288.43
469.69	7644.19
469.87	7782.28
470.05	7770.58
470.23	7712.07
470.41	7857.18
470.59	7700.36
470.77	7555.25
470.95	7927.39
471.14	7955.48
471.32	7749.51
471.50	7978.89
471.68	8079.53
471.86	7925.05
472.04	8236.35
472.22	8269.11
472.40	7962.50
472.58	8278.47
472.77	8229.32
472.95	8306.56
473.13	8652.96
473.31	8091.23
473.49	8257.41
473.67	8472.74
473.85	8512.53
474.03	8486.78
474.21	8573.38
474.39	8674.03
474.57	8755.94
474.75	8875.31
474.93	8657.64
475.12	8819.14
475.30	8769.99
475.48	8816.80
475.66	8961.91
475.84	8786.37
476.02	9193.62
476.20	9107.02
476.38	9202.99
476.56	9469.81
476.74	9235.75
476.92	9181.92
477.10	9455.76
477.28	9404.27
477.46	9401.93
477.64	9507.26
477.82	9610.24
478.00	9832.59
478.18	9827.91
478.36	9767.06
478.54	10083.03
478.72	9870.04
478.90	10066.64
479.08	10068.98
479.26	10174.31
479.44	10197.71
479.62	10246.87
479.80	10200.05
479.98	10581.56
480.16	10785.19
480.34	10501.98
480.52	10752.42
480.70	10806.25
480.88	10661.14
481.06	10799.23
481.24	10832.00
481.41	10925.62
481.59	11159.67
481.77	11435.86
481.95	11442.88
482.13	11688.64
482.31	11412.45
482.49	11564.59
482.67	11613.74
482.85	11838.43
483.03	12133.34
483.21	12028.01
483.39	12128.66
483.57	12430.59
483.74	12311.22
483.92	12400.16
484.10	12575.70
484.28	12697.41
484.46	13081.25
484.64	13057.85
484.82	12779.32
485.00	12886.99
485.18	13029.76
485.35	13261.48
485.53	13453.40
485.71	13263.82
485.89	13664.05
486.07	13455.74
486.25	13661.71
486.43	13666.39
486.61	13612.56
486.78	14162.58
486.96	14146.20
487.14	14394.29
487.32	14010.45
487.50	14448.13
487.68	14267.91
487.85	14438.76
488.03	14885.81
488.21	14977.09
488.39	14867.08
488.57	15304.76
488.75	15150.29
488.92	15417.11
489.10	15290.72
489.28	15702.65
489.46	15723.72
489.64	15681.59
489.81	15857.13
489.99	15789.25
490.17	16063.10
490.35	16273.74
490.53	16315.87
490.70	16339.28
490.88	16376.73
491.06	16341.62
491.24	16538.23
491.41	16601.42
491.59	16856.54
491.77	16709.08
491.95	16945.48
492.13	17170.17
492.30	17191.23
492.48	17139.74
492.66	17502.53
492.84	17589.13
493.01	17598.49
493.19	17745.94
493.37	17947.23
493.54	18113.41
493.72	18111.07
493.90	17879.35
494.08	18288.95
494.25	18501.93
494.43	18707.90
494.61	18640.03
494.79	18635.35
494.96	18590.88
495.14	18686.84
495.32	18689.18
495.49	18939.62
495.67	19257.93
495.85	19260.27
496.02	19367.93
496.20	19723.69
496.38	19508.37
496.55	19688.59
496.73	19847.74
496.91	19852.42
497.09	20135.63
497.26	20144.99
497.44	20339.26
497.62	20278.40
497.79	20514.80
497.97	20255.00
498.14	20318.19
498.32	20732.47
498.50	20393.09
498.67	21083.55
498.85	20790.98
499.03	20788.64
499.20	21170.15
499.38	21324.62
499.56	21451.01
499.73	21542.29
499.91	21631.23
500.08	21645.27
500.26	21605.49
500.44	21568.04
500.61	21788.05
500.79	21813.79
500.97	21921.46
501.14	22157.85
501.32	22071.25
501.49	22417.65
501.67	22017.42
501.84	22256.15
502.02	22375.52
502.20	22616.60
502.37	22466.80
502.55	22618.94
502.72	22728.94
502.90	22602.55
503.07	22572.13
503.25	22675.11
503.43	22888.10
503.60	22967.68
503.78	23267.27
503.95	23073.00
504.13	23267.27
504.30	23353.87
504.48	23150.24
504.65	23866.44
504.83	23587.92
505.01	23857.08
505.18	23754.10
505.36	23789.20
505.53	23601.96
505.71	23953.04
505.88	23903.89
506.06	23749.42
506.23	24123.90
506.41	24027.94
506.58	24327.53
506.76	24063.05
506.93	24168.37
507.11	24217.52
507.28	24493.71
507.46	24460.94
507.63	24524.13
507.81	24648.18
507.98	24491.37
508.16	24828.40
508.33	24919.68
508.50	25053.09
508.68	25034.37
508.85	24800.32
509.03	25233.32
509.20	25392.47
509.38	25357.36
509.55	25860.58
509.73	25436.94
509.90	25731.85
510.08	25551.63
510.25	26101.65
510.42	26176.55
510.60	26169.53
510.77	26576.78
510.95	26565.08
511.12	25940.16
511.30	26080.59
511.47	26256.13
511.64	26178.89
511.82	26684.45
511.99	26366.13
512.17	26682.11
512.34	26326.35
512.51	26890.41
512.69	26586.15
512.86	27150.21
513.04	26977.01
513.21	27220.43
513.38	27501.29
513.56	27304.69
513.73	27061.27
513.90	27351.50
514.08	27337.46
514.25	27520.02
514.43	27527.04
514.60	27992.81
514.77	27520.02
514.95	27777.48
515.12	27709.60
515.29	27723.65
515.47	27887.48
515.64	28046.64
515.81	27964.72
515.99	28666.88
516.16	28357.93
516.33	28481.98
516.51	28678.58
516.68	28023.23
516.85	28261.97
517.03	28390.70
517.20	28739.44
517.37	28900.94
517.54	28535.81
517.72	28430.49
517.89	28973.49
518.06	28617.73
518.24	28980.51
518.41	28795.61
518.58	29125.63
518.75	29174.78
518.93	29127.97
519.10	29479.05
519.27	29132.65
519.45	29006.26
519.62	29647.57
519.79	29193.50
519.96	29586.71
520.14	29308.19
520.31	29703.74
520.48	29923.75
520.65	29685.01
520.83	29890.98
521.00	29862.90
521.17	29977.58
521.34	30202.27
521.52	30398.88
521.69	29907.37
521.86	30199.93
522.03	30005.67
522.20	30543.99
522.38	30771.02
522.55	30213.98
522.72	30501.86
522.89	30511.22
523.07	31164.23
523.24	30691.44
523.41	30843.58
523.58	30899.75
523.75	30754.64
523.92	30363.77
524.10	30976.99
524.27	31089.34
524.44	31009.76
524.61	31332.75
524.78	31332.75
524.96	31290.62
525.13	31105.72
525.30	31594.89
525.47	31667.45
525.64	31512.97
525.81	31952.99
525.98	31985.76
526.16	31910.86
526.33	31323.39
526.50	32187.05
526.67	31644.04
526.84	31777.45
527.01	31517.65
527.18	32055.98
527.36	31697.88
527.53	31845.33
527.70	32175.34
527.87	32685.58
528.04	32100.45
528.21	32622.39
528.38	32224.50
528.55	32486.64
528.72	32561.53
528.89	32582.60
529.07	32556.85
529.24	32252.58
529.41	32587.28
529.58	32418.76
529.75	32425.78
529.92	32601.32
530.09	32540.47
530.26	33069.43
530.43	33048.36
530.60	32903.25
530.77	32849.42
530.94	33406.47
531.11	32856.44
531.28	32950.06
531.46	32800.27
531.63	33240.29
531.80	33345.61
531.97	33493.07
532.14	33441.57
532.31	33354.97
532.48	33039.00
532.65	33303.48
532.82	33125.60
532.99	33692.01
533.16	33659.24
533.33	33352.63
533.50	33937.77
533.67	33539.88
533.84	33764.57
534.01	33944.79
534.18	33383.06
534.35	34125.01
534.52	34115.65
534.69	34452.69
534.86	34368.43
535.03	34494.82
535.20	34277.15
535.37	34265.44
535.54	34445.66
535.71	34352.04
535.88	34005.64
536.05	34440.98
536.22	34513.54
536.38	34630.57
536.55	34574.39
536.72	34857.60
536.89	34309.91
537.06	34387.15
537.23	34623.54
537.40	34560.35
537.57	34756.96
537.74	35023.78
537.91	35119.74
538.08	35173.57
538.25	35299.96
538.42	35079.95
538.59	35213.36
538.75	34515.88
538.92	34768.66
539.09	35613.59
539.26	35243.79
539.43	35414.65
539.60	35711.89
539.77	35384.22
539.94	35393.58
540.11	35999.78
540.28	35688.49
540.44	35519.97
540.61	35360.81
540.78	35660.40
540.95	35934.24
541.12	35653.38
541.29	36004.46
541.46	36004.46
541.62	36128.51
541.79	36320.43
541.96	35618.27
542.13	36208.09
542.30	36371.92
542.47	36048.93
542.63	36870.46
542.80	36610.66
542.97	36467.89
543.14	37046.00
543.31	36421.08
543.48	36685.56
543.64	36580.23
543.81	36727.69
543.98	36966.42
544.15	36886.84
544.32	36814.29
544.48	37418.14
544.65	36463.21
544.82	36943.02
544.99	36935.99
545.16	37153.66
545.32	36781.52
545.49	37668.58
545.66	37724.75
545.83	38047.75
546.00	37848.80
546.16	37326.86
546.33	36779.18
546.50	36985.15
546.67	37303.46
546.83	36538.10
547.00	36903.23
547.17	37317.50
547.34	37050.68
547.50	37413.46
547.67	37593.68
547.84	37268.35
548.00	37467.30
548.17	37598.37
548.34	37818.38
548.51	37462.61
548.67	37516.45
548.84	37895.61
549.01	37500.06
549.18	37537.51
549.34	37354.95
549.51	37392.40
549.68	37113.87
549.84	37411.12
550.01	37801.99
550.18	37603.05
550.34	37724.75
550.51	37834.76
550.68	38284.14
550.84	37745.82
551.01	37626.45
551.18	37825.40
551.34	37523.47
551.51	37909.66
551.68	37841.78
551.84	38213.93
552.01	37923.70
552.18	38330.95
552.34	38059.45
552.51	38237.33
552.68	37904.98
552.84	38045.41
553.01	37715.39
553.18	37708.37
553.34	38352.02
553.51	37958.81
553.67	38459.68
553.84	38473.73
554.01	38548.62
554.17	38253.72
554.34	38066.47
554.51	38389.47
554.67	38600.12
554.84	38073.49
555.00	38412.87
555.17	37872.21
555.33	38543.94
555.50	38080.52
555.67	37862.85
555.83	38078.18
556.00	38447.98
556.16	38253.72
556.33	38436.28
556.50	38464.36
556.66	38866.94
556.83	38452.66
556.99	38710.12
557.16	39051.84
557.32	38862.26
557.49	39072.90
557.65	38333.29
557.82	38600.12
557.98	38572.03
558.15	38550.96
558.32	39122.05
558.48	38768.63
558.65	38808.42
558.81	38539.26
558.98	38553.30
559.14	38904.38
559.31	38380.10
559.47	38368.40
559.64	38967.58
559.80	39171.21
559.97	39171.21
560.13	38742.89
560.30	38892.68
560.46	39051.84
560.63	39171.21
560.79	39262.49
560.96	38873.96
561.12	39019.07
561.29	39007.37
561.45	38988.64
561.61	38871.62
561.78	39543.35
561.94	39028.43
562.11	39218.02
562.27	39365.47
562.44	38880.98
562.60	39414.62
562.77	38782.68
562.93	38836.51
563.10	39323.34
563.26	39047.16
563.42	39426.32
563.59	39225.04
563.75	39281.21
563.92	39597.18
564.08	38684.37
564.24	38946.51
564.41	38939.49
564.57	38976.94
564.74	39295.25
564.90	39311.64
565.07	39325.68
565.23	39564.42
565.39	39316.32
565.56	39082.27
565.72	38944.17
565.88	39241.42
566.05	39442.71
566.21	38967.58
566.38	39112.69
566.54	39150.14
566.70	39583.14
566.87	39379.51
567.03	39576.12
567.19	39854.64
567.36	39683.78
567.52	39587.82
567.68	39393.56
567.85	39346.75
568.01	39185.25
568.17	39318.66
568.34	39372.49
568.50	39573.78
568.66	39835.92
568.83	39325.68
568.99	39356.11
569.15	39276.53
569.32	39304.62
569.48	38778.00
569.64	39695.49
569.81	39402.92
569.97	39271.85
570.13	39440.37
570.30	38993.32
570.46	39583.14
570.62	39749.32
570.78	39400.58
570.95	39098.65
571.11	39974.01
571.27	39328.02
571.43	39136.10
571.60	39735.27
571.76	39531.65
571.92	39491.86
572.09	39648.68
572.25	39929.54
572.41	39482.50
572.57	39721.23
572.74	39732.93
572.90	39290.57
573.06	39049.50
573.22	39395.90
573.38	39590.16
573.55	39796.13
573.71	39938.90
573.87	40009.12
574.03	39374.83
574.20	39002.69
574.36	39571.44
574.52	39632.29
574.68	39566.76
574.84	39641.65
575.01	39533.99
575.17	39927.20
575.33	39496.54
575.49	39438.03
575.65	39608.89
575.82	39573.78
575.98	39555.05
576.14	39742.30
576.30	40006.78
576.46	39796.13
576.62	39606.55
576.79	39894.43
576.95	39096.31
577.11	39906.13
577.27	40006.78
577.43	39854.64
577.59	39892.09
577.75	40013.80
577.92	39239.08
578.08	39632.29
578.24	39210.99
578.40	39173.55
578.56	39758.68
578.72	39739.96
578.88	40360.20
579.04	40128.48
579.21	39777.40
579.37	39629.95
579.53	39716.55
579.69	39342.06
579.85	39768.04
580.01	39400.58
580.17	39615.91
580.33	39363.13
580.49	39754.00
580.65	40189.34
580.82	39756.34
580.98	39524.63
581.14	39999.76
581.30	39845.28
581.46	39515.26
581.62	39957.63
581.78	39779.74
581.94	39655.70
582.10	39489.52
582.26	39903.79
582.42	39798.47
582.58	39440.37
582.74	39985.71
582.90	39791.45
583.06	40009.12
583.22	39721.23
583.38	40018.48
583.54	39817.19
583.70	39608.89
583.86	39959.97
584.02	39779.74
584.18	39796.13
584.34	39959.97
584.50	39974.01
584.66	39695.49
584.82	39342.06
584.98	39730.59
585.14	39674.42
585.30	39498.88
585.46	39917.84
585.62	39826.56
585.78	39709.53
585.94	39849.96
586.10	39653.36
586.26	39859.32
586.42	39716.55
586.58	40065.29
586.74	39985.71
586.90	39782.09
587.06	39735.27
587.22	40224.45
587.38	39704.85
587.54	40018.48
587.70	40140.19
587.86	40011.46
588.02	39880.39
588.18	40112.10
588.34	39723.57
588.49	39885.07
588.65	39807.83
588.81	39646.33
588.97	39983.37
589.13	39910.82
589.29	39957.63
589.45	40280.62
589.61	40229.13
589.77	40287.64
589.93	40121.46
590.08	39903.79
590.24	39770.38
590.40	40250.19
590.56	40189.34
590.72	39978.69
590.88	39690.80
591.04	40116.78
591.20	40472.54
