SpectraSuite Data File
++++++++++++++++++++++++++++++++++++
Date: Fri Oct 04 11:39:25 GMT-05:00 2013
User: price-jones
Dark Spectrum Present: No
Reference Spectrum Present: No
Number of Sampled Component Spectra: 1
Spectrometers: USB2+H05261
Integration Time (usec): 100000 (USB2+H05261)
Spectra Averaged: 1 (USB2+H05261)
Boxcar Smoothing: 0 (USB2+H05261)
Correct for Electrical Dark: No (USB2+H05261)
Strobe/Lamp Enabled: No (USB2+H05261)
Correct for Detector Non-linearity: No (USB2+H05261)
Correct for Stray Light: No (USB2+H05261)
Number of Pixels in Processed Spectrum: 2048
>>>>>Begin Processed Spectral Data<<<<<
365.73	49.15
365.92	49.15
366.12	49.15
366.32	0.00
366.52	16.38
366.72	7.02
366.91	0.00
367.11	0.00
367.31	0.00
367.51	0.00
367.70	0.00
367.90	0.00
368.10	0.00
368.30	0.00
368.49	2.34
368.69	0.00
368.89	0.00
369.09	0.00
369.28	0.00
369.48	0.00
369.68	0.00
369.87	39.79
370.07	0.00
370.27	0.00
370.47	107.66
370.66	159.16
370.86	271.50
371.06	212.99
371.25	229.37
371.45	259.80
371.65	294.91
371.84	255.12
372.04	238.73
372.24	236.39
372.44	271.50
372.63	276.18
372.83	278.52
373.03	311.29
373.22	299.59
373.42	308.95
373.62	315.97
373.81	290.23
374.01	337.04
374.21	411.93
374.40	341.72
374.60	369.80
374.79	322.99
374.99	311.29
375.19	322.99
375.38	479.81
375.58	318.31
375.78	362.78
375.97	325.33
376.17	400.23
376.37	360.44
376.56	365.12
376.76	346.40
376.95	315.97
377.15	292.57
377.35	351.08
377.54	355.76
377.74	379.17
377.93	360.44
378.13	374.49
378.33	440.02
378.52	404.91
378.72	444.70
378.91	348.74
379.11	400.23
379.31	315.97
379.50	351.08
379.70	386.19
379.89	388.53
380.09	379.17
380.28	409.59
380.48	376.83
380.68	351.08
380.87	320.65
381.07	479.81
381.26	395.55
381.46	447.04
381.65	425.98
381.85	306.61
382.04	465.77
382.24	470.45
382.43	465.77
382.63	376.83
382.83	353.42
383.02	397.89
383.22	423.64
383.41	414.27
383.61	404.91
383.80	444.70
384.00	440.02
384.19	414.27
384.39	491.51
384.58	470.45
384.78	416.62
384.97	533.64
385.17	449.38
385.36	470.45
385.56	435.34
385.75	449.38
385.95	528.96
386.14	479.81
386.34	465.77
386.53	550.03
386.72	430.66
386.92	486.83
387.11	540.66
387.31	491.51
387.50	489.17
387.70	550.03
387.89	512.58
388.09	510.24
388.28	498.53
388.48	444.70
388.67	482.15
388.86	503.22
389.06	564.07
389.25	587.47
389.45	622.58
389.64	524.28
389.84	629.60
390.03	547.69
390.22	575.77
390.42	547.69
390.61	521.94
390.81	594.50
391.00	629.60
391.19	585.13
391.39	477.47
391.58	638.97
391.78	521.94
391.97	587.47
392.16	568.75
392.36	629.60
392.55	653.01
392.75	557.05
392.94	692.80
393.13	627.26
393.33	624.92
393.52	634.29
393.71	629.60
393.91	671.73
394.10	589.82
394.29	676.41
394.49	650.67
394.68	702.16
394.88	802.80
395.07	681.10
395.26	690.46
395.46	662.37
395.65	683.44
395.84	681.10
396.04	837.91
396.23	772.38
396.42	667.05
396.62	711.52
396.81	709.18
397.00	741.95
397.19	751.31
397.39	800.46
397.58	840.25
397.77	741.95
397.97	819.19
398.16	851.96
398.35	795.78
398.55	826.21
398.74	760.67
398.93	844.93
399.12	802.80
399.32	823.87
399.51	746.63
399.70	999.41
399.90	973.66
400.09	863.66
400.28	870.68
400.47	873.02
400.67	961.96
400.86	985.37
401.05	933.87
401.24	1008.77
401.44	994.73
401.63	1041.54
401.82	1013.45
402.01	999.41
402.21	1001.75
402.40	976.00
402.59	973.66
402.78	1071.97
402.97	1107.07
403.17	945.58
403.36	1104.73
403.55	968.98
403.74	1078.99
403.93	1093.03
404.13	1137.50
404.32	1156.22
404.51	1224.10
404.70	1226.44
404.89	1160.91
405.09	1191.33
405.28	1210.06
405.47	1156.22
405.66	1254.53
405.85	1268.57
406.05	1301.34
406.24	1249.85
406.43	1160.91
406.62	1371.55
406.81	1317.72
407.00	1273.25
407.20	1303.68
407.39	1249.85
407.58	1369.21
407.77	1446.45
407.96	1427.73
408.15	1413.68
408.34	1413.68
408.54	1387.94
408.73	1397.30
408.92	1479.22
409.11	1504.96
409.30	1528.37
409.49	1561.14
409.68	1486.24
409.87	1589.22
410.07	1650.08
410.26	1582.20
410.45	1657.10
410.64	1629.01
410.83	1579.86
411.02	1673.48
411.21	1720.29
411.40	1661.78
411.59	1706.25
411.78	1748.38
411.98	1729.66
412.17	1849.02
412.36	1816.26
412.55	1764.76
412.74	1783.49
412.93	1926.26
413.12	1816.26
413.31	1921.58
413.50	1919.24
413.69	1909.88
413.88	1989.46
414.07	2012.86
414.26	2001.16
414.45	2043.29
414.64	2083.08
414.83	2059.67
415.02	2157.97
415.22	2148.61
415.41	2202.44
415.60	2303.09
415.79	2179.04
415.98	2218.83
416.17	2296.07
416.36	2314.79
416.55	2370.96
416.74	2370.96
416.93	2373.30
417.12	2382.67
417.31	2361.60
417.50	2399.05
417.69	2502.03
417.88	2586.29
418.07	2511.39
418.26	2483.31
418.45	2457.56
418.64	2644.81
418.83	2471.61
419.02	2619.06
419.21	2670.55
419.39	2553.52
419.58	2626.08
419.77	2513.74
419.96	2731.41
420.15	2710.34
420.34	2668.21
420.53	2626.08
420.72	2691.62
420.91	2724.38
421.10	2654.17
421.29	2813.32
421.48	2743.11
421.67	2792.26
421.86	2778.22
422.05	2801.62
422.24	2848.43
422.43	2883.54
422.61	2827.37
422.80	2944.39
422.99	2960.78
423.18	2885.88
423.37	2925.67
423.56	2892.90
423.75	2928.01
423.94	2864.82
424.13	2803.96
424.32	2782.90
424.50	2977.16
424.69	3009.93
424.88	3028.65
425.07	2953.76
425.26	3007.59
425.45	2991.20
425.64	2970.14
425.83	2829.71
426.01	3180.79
426.20	3089.51
426.39	2925.67
426.58	3084.83
426.77	2984.18
426.96	3091.85
427.15	3012.27
427.33	3225.26
427.52	3122.27
427.71	3194.83
427.90	3173.77
428.09	3286.11
428.28	3124.62
428.46	3101.21
428.65	3325.90
428.84	3262.71
429.03	3283.77
429.22	3040.36
429.40	3330.58
429.59	3412.50
429.78	3197.17
429.97	3176.11
430.16	3225.26
430.34	3375.05
430.53	3302.50
430.72	3365.69
430.91	3356.33
431.10	3330.58
431.28	3468.67
431.47	3438.25
431.66	3459.31
431.85	3438.25
432.03	3534.21
432.22	3597.40
432.41	3499.10
432.60	3613.79
432.79	3590.38
432.97	3581.02
433.16	3730.81
433.35	3662.94
433.54	3644.21
433.72	3695.71
433.91	3644.21
434.10	3789.33
434.28	3562.30
434.47	3719.11
434.66	3709.75
434.85	3742.52
435.03	3955.51
435.22	3929.76
435.41	4273.82
435.59	4346.37
435.78	4109.98
435.97	4030.40
436.16	4002.32
436.34	4063.17
436.53	3819.75
436.72	4100.62
436.90	3988.27
437.09	3927.42
437.28	3929.76
437.46	3948.48
437.65	4098.28
437.84	4145.09
438.02	4168.49
438.21	4023.38
438.40	3971.89
438.58	4299.56
438.77	4262.12
438.96	4152.11
439.14	4229.35
439.33	4248.07
439.52	4358.08
439.70	4465.74
439.89	4456.38
440.08	4444.68
440.26	4376.80
440.45	4440.00
440.63	4449.36
440.82	4648.30
441.01	4631.92
441.19	4568.73
441.38	4662.35
441.57	4660.01
441.75	4704.48
441.94	4758.31
442.12	4755.97
442.31	4938.53
442.50	4833.21
442.68	4706.82
442.87	4863.63
443.05	4926.83
443.24	4877.68
443.43	4896.40
443.61	4978.32
443.80	4997.04
443.98	4912.78
444.17	4917.47
444.35	5071.94
444.54	5093.01
444.73	4975.98
444.91	5020.45
445.10	5093.01
445.28	4968.96
445.47	4945.55
445.65	5015.77
445.84	5116.41
446.02	5130.45
446.21	5093.01
446.39	5085.98
446.58	5231.10
446.77	5184.29
446.95	5018.11
447.14	5174.92
447.32	5167.90
447.51	5102.37
447.69	5057.90
447.88	5144.50
448.06	5114.07
448.25	5055.56
448.43	5207.69
448.62	5135.14
448.80	5273.23
448.99	5296.63
449.17	5256.84
449.36	5231.10
449.54	5404.30
449.73	5322.38
449.91	5341.10
450.10	5376.21
450.28	5462.81
450.46	5455.79
450.65	5561.11
450.83	5495.58
451.02	5479.19
451.20	5659.42
451.39	5666.44
451.57	5441.75
451.76	5526.00
451.94	5558.77
452.13	5533.03
452.31	5591.54
452.49	5469.83
452.68	5685.16
452.86	5668.78
453.05	5696.86
453.23	5755.38
453.42	5577.50
453.60	5661.76
453.78	5727.29
453.97	5657.07
454.15	5717.93
454.34	5715.59
454.52	5893.47
454.70	5724.95
454.89	6008.16
455.07	5710.91
455.26	6076.03
455.44	6071.35
455.62	6001.13
455.81	5973.05
455.99	6069.01
456.17	6078.37
456.36	6120.50
456.54	5987.09
456.73	6017.52
456.91	6174.33
457.09	6209.44
457.28	6459.88
457.46	6071.35
457.64	6338.17
457.83	6373.28
458.01	6246.89
458.19	6473.92
458.38	6438.81
458.56	6616.69
458.74	6523.07
458.93	6267.95
459.11	6558.18
459.29	6483.28
459.48	6338.17
459.66	6478.60
459.84	6642.44
460.03	6689.25
460.21	6523.07
460.39	6768.83
460.57	6675.21
460.76	6686.91
460.94	6684.57
461.12	6658.82
461.31	6796.92
461.49	6700.95
461.67	6750.10
461.85	6923.30
462.04	6705.63
462.22	6810.96
462.40	6946.71
462.59	6909.26
462.77	6848.41
462.95	6750.10
463.13	6913.94
463.32	6853.09
463.50	6911.60
463.68	7155.02
463.86	7045.01
464.05	6902.24
464.23	7077.78
464.41	6981.82
464.59	7197.15
464.78	7246.30
464.96	6970.12
465.14	7208.85
465.32	7227.57
465.50	7171.40
465.69	7379.71
465.87	7129.27
466.05	7180.76
466.23	7171.40
466.41	7375.03
466.60	7665.25
466.78	7360.98
466.96	7194.81
467.14	7339.92
467.32	7515.46
467.51	7473.33
467.69	7330.56
467.87	7513.12
468.05	7445.24
468.23	7452.27
468.41	7403.11
468.60	7742.49
468.78	7581.00
468.96	7421.84
469.14	7641.85
469.32	7770.58
469.50	7557.59
469.69	7779.94
469.87	7962.50
470.05	7831.43
470.23	7847.82
470.41	7999.95
470.59	7889.95
470.77	7793.98
470.95	7981.23
471.14	8116.98
471.32	7929.74
471.50	8187.19
471.68	8177.83
471.86	8147.40
472.04	8156.77
472.22	8458.70
472.40	8112.30
472.58	8177.83
472.77	8138.04
472.95	8372.10
473.13	8692.75
473.31	8390.82
473.49	8608.49
473.67	8435.29
473.85	8549.98
474.03	8748.92
474.21	8557.00
474.39	8833.18
474.57	8898.72
474.75	8919.78
474.93	9029.79
475.12	8828.50
475.30	9144.47
475.48	8936.17
475.66	9022.77
475.84	8997.02
476.02	9277.88
476.20	9329.38
476.38	9191.28
476.56	9179.58
476.74	9483.85
476.92	9479.17
477.10	9247.46
477.28	9533.00
477.46	9603.22
477.64	9870.04
477.82	9984.73
478.00	10132.18
478.18	9856.00
478.36	10068.98
478.54	10235.16
478.72	10305.38
478.90	10136.86
479.08	10284.31
479.26	10394.32
479.44	10448.15
479.62	10600.29
479.80	10640.08
479.98	10656.46
480.16	10874.13
480.34	10766.46
480.52	10820.30
480.70	11147.97
480.88	10927.96
481.06	11325.85
481.24	11061.37
481.41	11105.84
481.59	11658.21
481.77	11679.27
481.95	11639.48
482.13	11515.44
482.31	11674.59
482.49	11698.00
482.67	11866.52
482.85	12156.74
483.03	12107.59
483.21	12203.55
483.39	12486.76
483.57	12334.62
483.74	12423.56
483.92	12737.20
484.10	12606.13
484.28	12709.11
484.46	13041.46
484.64	13238.07
484.82	13011.04
485.00	13184.24
485.18	13193.60
485.35	13724.90
485.53	13650.00
485.71	13673.41
485.89	13605.53
486.07	13914.48
486.25	14050.24
486.43	13956.61
486.61	14015.13
486.78	14178.97
486.96	14368.55
487.14	14733.67
487.32	14593.24
487.50	14766.44
487.68	14864.74
487.85	14827.29
488.03	14911.55
488.21	15447.54
488.39	15456.90
488.57	15426.47
488.75	15421.79
488.92	15754.15
489.10	15838.41
489.28	15733.08
489.46	15885.22
489.64	16044.37
489.81	16166.08
489.99	16273.74
490.17	16343.96
490.35	16760.58
490.53	16428.22
490.70	16826.11
490.88	16542.91
491.06	16933.78
491.24	16776.96
491.41	17200.60
491.59	17209.96
491.77	17245.07
491.95	17490.82
492.13	17404.22
492.30	17720.20
492.48	17839.56
492.66	17781.05
492.84	17734.24
493.01	18160.22
493.19	18188.30
493.37	18267.88
493.54	18291.29
493.72	18593.22
493.90	18434.06
494.08	18508.96
494.25	18857.70
494.43	18850.67
494.61	19075.37
494.79	18944.30
494.96	19094.09
495.14	19257.93
495.32	19250.91
495.49	19658.16
495.67	19248.57
495.85	19709.65
496.02	19604.33
496.20	19777.53
496.38	20336.91
496.55	20238.61
496.73	20575.65
496.91	20304.15
497.09	20517.14
497.26	20790.98
497.44	20718.42
497.62	20599.05
497.79	21214.62
497.97	20716.08
498.14	21195.89
498.32	21343.35
498.50	21336.32
498.67	21624.21
498.85	21160.78
499.03	21263.77
499.20	21364.41
499.38	21813.79
499.56	21930.82
499.73	22120.40
499.91	22307.65
500.08	22176.58
500.26	22162.53
500.44	22204.66
500.61	22169.55
500.79	21949.54
500.97	22558.08
501.14	22558.08
501.32	22359.14
501.49	22494.89
501.67	22967.68
501.84	22604.89
502.02	22941.93
502.20	23285.99
502.37	22979.38
502.55	22934.91
502.72	23386.63
502.90	23388.97
503.07	22855.33
503.25	23529.41
503.43	23360.89
503.60	23566.85
503.78	23370.25
503.95	23447.49
504.13	23803.25
504.30	23964.75
504.48	23718.99
504.65	24081.77
504.83	24077.09
505.01	23964.75
505.18	24641.16
505.36	24535.84
505.53	23995.17
505.71	24189.44
505.88	24243.27
506.06	24575.62
506.23	24833.08
506.41	24627.12
506.58	25036.71
506.76	25029.69
506.93	24936.07
507.11	24891.60
507.28	25067.14
507.46	25179.48
507.63	25439.28
507.81	25483.75
507.98	25689.72
508.16	25708.44
508.33	25589.08
508.50	24985.22
508.68	25804.41
508.85	25820.79
509.03	25783.34
509.20	25818.45
509.38	26073.57
509.55	26068.89
509.73	26436.35
509.90	26405.92
510.08	26321.66
510.25	26225.70
510.42	26616.57
510.60	26794.45
510.77	26630.62
510.95	26595.51
511.12	26576.78
511.30	26960.63
511.47	27152.55
511.64	26967.65
511.82	27147.87
511.99	27215.75
512.17	27297.67
512.34	27278.94
512.51	27597.26
512.69	27447.46
512.86	27735.35
513.04	28257.29
513.21	28126.22
513.38	28009.19
513.56	27913.23
513.73	27604.28
513.90	27707.26
514.08	27885.14
514.25	28638.80
514.43	28301.76
514.60	28367.29
514.77	28683.27
514.95	28659.86
515.12	28233.88
515.29	28414.10
515.47	28613.05
515.64	28577.94
515.81	28732.42
515.99	29184.14
516.16	29165.42
516.33	28987.53
516.51	28765.18
516.68	29200.52
516.85	28943.06
517.03	29366.70
517.20	29186.48
517.37	29436.92
517.54	29596.07
517.72	29600.76
517.89	29465.00
518.06	29497.77
518.24	29673.31
518.41	29474.37
518.58	29923.75
518.75	29584.37
518.93	29956.52
519.10	29907.37
519.27	30036.09
519.45	30132.06
519.62	30232.70
519.79	29802.04
519.96	30281.85
520.14	30300.58
520.31	30087.59
520.48	30370.79
520.65	30679.74
520.83	30543.99
521.00	30815.49
521.17	30742.94
521.34	30796.77
521.52	30782.73
521.69	31117.42
521.86	30841.24
522.03	31468.50
522.20	30988.69
522.38	31161.89
522.55	31197.00
522.72	31051.89
522.89	31299.98
523.07	31611.28
523.24	31321.05
523.41	31363.18
523.58	31431.05
523.75	31988.10
523.92	31438.08
524.10	31651.06
524.27	31938.95
524.44	32189.39
524.61	31995.12
524.78	32245.56
524.96	32376.63
525.13	32142.58
525.30	32137.90
525.47	32610.68
525.64	32488.98
525.81	32587.28
525.98	32622.39
526.16	32219.81
526.33	32481.95
526.50	32760.48
526.67	32493.66
526.84	32982.83
527.01	32678.56
527.18	32959.42
527.36	32954.74
527.53	32872.82
527.70	33369.02
527.87	33404.13
528.04	32893.89
528.21	33219.22
528.38	33462.64
528.55	33282.42
528.72	33282.42
528.89	33352.63
529.07	33273.06
529.24	33392.42
529.41	33654.56
529.58	33399.44
529.75	33439.23
529.92	33539.88
530.09	33830.10
530.26	33514.13
530.43	33764.57
530.60	33352.63
530.77	33727.12
530.94	34270.12
531.11	33872.23
531.28	34183.52
531.46	34038.41
531.63	34033.73
531.80	34370.77
531.97	34471.41
532.14	34698.44
532.31	34375.45
532.48	34347.36
532.65	34316.93
532.82	34274.80
532.99	34607.16
533.16	34333.32
533.33	34897.39
533.50	34988.67
533.67	35096.33
533.84	34969.94
534.01	34419.92
534.18	34611.84
534.35	34904.41
534.52	35030.80
534.69	35482.52
534.86	35388.90
535.03	34780.36
535.20	35337.41
535.37	35505.93
535.54	35370.18
535.71	35098.67
535.88	35667.42
536.05	35367.84
536.22	35688.49
536.38	35962.33
536.55	35775.09
536.72	35697.85
536.89	35564.44
537.06	35648.70
537.23	35667.42
537.40	35878.07
537.57	35381.88
537.74	35871.05
537.91	36156.60
538.08	36552.15
538.25	35847.64
538.42	35929.56
538.59	36282.98
538.75	35562.10
538.92	36189.36
539.09	36638.75
539.26	36212.77
539.43	36088.72
539.60	36479.59
539.77	36332.14
539.94	36430.44
540.11	36297.03
540.28	36500.65
540.44	36807.26
540.61	36802.58
540.78	37263.67
540.95	37024.93
541.12	37090.47
541.29	37116.22
541.46	37017.91
541.62	37031.96
541.79	37773.91
541.96	36973.44
542.13	37132.60
542.30	37092.81
542.47	37572.62
542.63	37333.89
542.80	37228.56
542.97	37563.26
543.14	37708.37
543.31	37743.48
543.48	37301.12
543.64	38178.82
543.81	38045.41
543.98	37734.12
544.15	38321.59
544.32	38024.34
544.48	37923.70
544.65	38124.99
544.82	37764.54
544.99	37656.88
545.16	37780.93
545.32	37986.89
545.49	38649.27
545.66	39115.03
545.83	39636.97
546.00	39555.05
546.16	38707.78
546.33	38438.62
546.50	37858.17
546.67	38536.92
546.83	37872.21
547.00	38160.09
547.17	38565.01
547.34	38300.53
547.50	38462.02
547.67	38859.91
547.84	38099.24
548.00	38438.62
548.17	38644.59
548.34	38513.52
548.51	39072.90
548.67	38962.90
548.84	38698.42
549.01	38473.73
549.18	38792.04
549.34	39150.14
549.51	38759.27
549.68	38993.32
549.84	38656.29
550.01	39021.41
550.18	38679.69
550.34	38899.70
550.51	39372.49
550.68	39241.42
550.84	38965.24
551.01	39517.60
551.18	38775.66
551.34	38473.73
551.51	38880.98
551.68	39241.42
551.84	39236.74
552.01	39416.96
552.18	39627.61
552.34	39166.52
552.51	39133.76
552.68	39262.49
552.84	39056.52
553.01	39159.50
553.18	39351.43
553.34	39353.77
553.51	39220.36
553.67	39688.46
553.84	39948.26
554.01	39587.82
554.17	39688.46
554.34	39875.71
554.51	39351.43
554.67	39681.44
554.84	39646.33
555.00	39838.26
555.17	39552.71
555.33	39988.05
555.50	39751.66
555.67	39981.03
555.83	39166.52
556.00	39838.26
556.16	40161.25
556.33	39887.41
556.50	39899.11
556.66	40102.74
556.83	40105.08
556.99	40203.38
557.16	40109.76
557.32	40194.02
557.49	40067.63
557.65	40156.57
557.82	39924.86
557.98	39814.85
558.15	39903.79
558.32	39859.32
558.48	40044.23
558.65	40383.60
558.81	40184.66
558.98	40161.25
559.14	40081.67
559.31	39758.68
559.47	39793.79
559.64	40481.91
559.80	40362.54
559.97	40346.15
560.13	39885.07
560.30	40219.77
560.46	40484.25
560.63	40205.72
560.79	40297.00
560.96	40570.85
561.12	40692.55
561.29	40306.37
561.45	40383.60
561.61	40435.10
561.78	40140.19
561.94	40844.69
562.11	40568.51
562.27	40900.86
562.44	40470.20
562.60	40502.97
562.77	40280.62
562.93	40428.07
563.10	40840.01
563.26	40533.40
563.42	40687.87
563.59	40863.41
563.75	40776.81
563.92	41022.57
564.08	40809.58
564.24	40727.66
564.41	40669.15
564.57	40746.39
564.74	40481.91
564.90	40807.24
565.07	40776.81
565.23	40928.95
565.39	40914.90
565.56	41036.61
565.72	40432.75
565.88	40837.67
566.05	40587.23
566.21	40549.78
566.38	40428.07
566.54	40816.60
566.70	40730.00
566.87	40851.71
567.03	40666.81
567.19	41439.18
567.36	40891.50
567.52	41076.40
567.68	41165.34
567.85	40687.87
568.01	40643.40
568.17	40325.09
568.34	40973.42
568.50	41408.76
568.66	41439.18
568.83	40744.05
568.99	40996.82
569.15	40776.81
569.32	40676.17
569.48	41071.72
569.64	40790.86
569.81	41200.45
569.97	40657.45
570.13	41036.61
570.30	40830.65
570.46	40933.63
570.62	40678.51
570.78	40818.94
570.95	41212.15
571.11	41041.29
571.27	40369.56
571.43	40921.93
571.60	41116.19
571.76	41125.55
571.92	40964.06
572.09	40938.31
572.25	41038.95
572.41	41347.90
572.57	41165.34
572.74	41130.23
572.90	40942.99
573.06	41312.80
573.22	41104.49
573.38	41090.44
573.55	41450.89
573.71	41680.26
573.87	41390.03
574.03	41455.57
574.20	41605.36
574.36	41289.39
574.52	41053.00
574.68	41130.23
574.84	41310.46
575.01	41441.53
575.17	41539.83
575.33	40725.32
575.49	41020.23
575.65	41516.42
575.82	40762.77
575.98	41062.36
576.14	41434.50
576.30	41453.23
576.46	41663.88
576.62	41490.68
576.79	41535.15
576.95	41120.87
577.11	41778.56
577.27	41067.04
577.43	41322.16
577.59	40959.38
577.75	41244.92
577.92	41139.60
578.08	41258.96
578.24	41354.93
578.40	41514.08
578.56	41598.34
578.72	41497.70
578.88	42047.72
579.04	41406.42
579.21	41535.15
579.37	41624.09
579.53	41682.60
579.69	40900.86
579.85	40940.65
580.01	41556.21
580.17	41247.26
580.33	41137.26
580.49	41373.65
580.65	41338.54
580.82	41439.18
580.98	41418.12
581.14	40973.42
581.30	41132.57
581.46	41413.44
581.62	41174.70
581.78	41228.54
581.94	41570.25
582.10	41214.49
582.26	41500.04
582.42	41813.67
582.58	41787.92
582.74	41523.44
582.90	41645.15
583.06	41537.49
583.22	41219.17
583.38	41670.90
583.54	41338.54
583.70	41673.24
583.86	41420.46
584.02	41198.11
584.18	41691.96
584.34	41490.68
584.50	41631.11
584.66	41827.71
584.82	41031.93
584.98	41544.51
585.14	41661.54
585.30	41720.05
585.46	41305.77
585.62	41214.49
585.78	41794.95
585.94	41036.61
586.10	41514.08
586.26	41298.75
586.42	41923.68
586.58	41965.81
586.74	41640.47
586.90	41408.76
587.06	41345.56
587.22	41888.57
587.38	41303.43
587.54	41797.29
587.70	41797.29
587.86	41691.96
588.02	42113.26
588.18	41986.87
588.34	41539.83
588.49	41764.52
588.65	41450.89
588.81	41544.51
588.97	41633.45
589.13	41223.86
589.29	42047.72
589.45	41787.92
589.61	41867.50
589.77	42305.18
589.93	41933.04
590.08	42249.01
590.24	41825.37
590.40	42012.62
590.56	41872.18
590.72	41549.19
590.88	41624.09
591.04	41851.12
