SpectraSuite Data File
++++++++++++++++++++++++++++++++++++
Date: Fri Oct 04 11:39:26 GMT-05:00 2013
User: price-jones
Dark Spectrum Present: No
Reference Spectrum Present: No
Number of Sampled Component Spectra: 1
Spectrometers: USB2+H05261
Integration Time (usec): 100000 (USB2+H05261)
Spectra Averaged: 1 (USB2+H05261)
Boxcar Smoothing: 0 (USB2+H05261)
Correct for Electrical Dark: No (USB2+H05261)
Strobe/Lamp Enabled: No (USB2+H05261)
Correct for Detector Non-linearity: No (USB2+H05261)
Correct for Stray Light: No (USB2+H05261)
Number of Pixels in Processed Spectrum: 2048
>>>>>Begin Processed Spectral Data<<<<<
365.73	112.35
365.92	112.35
366.12	112.35
366.32	0.00
366.52	0.00
366.72	0.00
366.91	0.00
367.11	0.00
367.31	0.00
367.51	0.00
367.70	0.00
367.90	0.00
368.10	30.43
368.30	0.00
368.49	0.00
368.69	0.00
368.89	0.00
369.09	0.00
369.28	18.72
369.48	23.41
369.68	0.00
369.87	37.45
370.07	0.00
370.27	39.79
370.47	58.51
370.66	81.92
370.86	98.30
371.06	184.90
371.25	215.33
371.45	77.24
371.65	283.20
371.84	215.33
372.04	248.10
372.24	269.16
372.44	215.33
372.63	201.29
372.83	229.37
373.03	271.50
373.22	273.84
373.42	201.29
373.62	184.90
373.81	276.18
374.01	287.89
374.21	318.31
374.40	236.39
374.60	280.86
374.79	257.46
374.99	203.63
375.19	292.57
375.38	297.25
375.58	301.93
375.78	322.99
375.97	231.71
376.17	264.48
376.37	285.55
376.56	229.37
376.76	241.08
376.95	283.20
377.15	304.27
377.35	290.23
377.54	262.14
377.74	264.48
377.93	262.14
378.13	250.44
378.33	341.72
378.52	259.80
378.72	299.59
378.91	315.97
379.11	287.89
379.31	259.80
379.50	294.91
379.70	369.80
379.89	313.63
380.09	285.55
380.28	306.61
380.48	311.29
380.68	271.50
380.87	337.04
381.07	332.36
381.26	348.74
381.46	311.29
381.65	308.95
381.85	259.80
382.04	374.49
382.24	306.61
382.43	301.93
382.63	308.95
382.83	355.76
383.02	325.33
383.22	402.57
383.41	330.02
383.61	388.53
383.80	407.25
384.00	433.00
384.19	348.74
384.39	390.87
384.58	325.33
384.78	348.74
384.97	351.08
385.17	440.02
385.36	320.65
385.56	402.57
385.75	355.76
385.95	337.04
386.14	421.30
386.34	327.68
386.53	327.68
386.72	400.23
386.92	409.59
387.11	447.04
387.31	437.68
387.50	308.95
387.70	367.46
387.89	367.46
388.09	351.08
388.28	322.99
388.48	353.42
388.67	437.68
388.86	390.87
389.06	458.74
389.25	367.46
389.45	383.85
389.64	386.19
389.84	393.21
390.03	423.64
390.22	465.77
390.42	365.12
390.61	451.72
390.81	381.51
391.00	475.13
391.19	493.85
391.39	477.47
391.58	528.96
391.78	379.17
391.97	433.00
392.16	475.13
392.36	507.90
392.55	517.26
392.75	397.89
392.94	444.70
393.13	512.58
393.33	425.98
393.52	451.72
393.71	557.05
393.91	505.56
394.10	566.41
394.29	451.72
394.49	498.53
394.68	521.94
394.88	510.24
395.07	526.62
395.26	566.41
395.46	500.87
395.65	606.20
395.84	543.00
396.04	636.63
396.23	585.13
396.42	603.86
396.62	535.98
396.81	585.13
397.00	589.82
397.19	587.47
397.39	653.01
397.58	634.29
397.77	587.47
397.97	648.33
398.16	634.29
398.35	683.44
398.55	624.92
398.74	634.29
398.93	610.88
399.12	648.33
399.32	723.23
399.51	624.92
399.70	683.44
399.90	706.84
400.09	660.03
400.28	699.82
400.47	667.05
400.67	718.54
400.86	727.91
401.05	730.25
401.24	798.12
401.44	664.71
401.63	727.91
401.82	812.17
402.01	730.25
402.21	894.08
402.40	786.42
402.59	774.72
402.78	779.40
402.97	802.80
403.17	713.86
403.36	887.06
403.55	908.13
403.74	1001.75
403.93	896.43
404.13	992.39
404.32	954.94
404.51	901.11
404.70	884.72
404.89	884.72
405.09	1020.47
405.28	983.02
405.47	990.05
405.66	968.98
405.85	952.60
406.05	997.07
406.24	1083.67
406.43	1053.24
406.62	1006.43
406.81	1001.75
407.00	1050.90
407.20	1020.47
407.39	1025.15
407.58	1011.11
407.77	1125.80
407.96	1224.10
408.15	1149.20
408.34	1118.78
408.54	1149.20
408.73	1128.14
408.92	1207.72
409.11	1235.80
409.30	1228.78
409.49	1181.97
409.68	1280.27
409.87	1205.38
410.07	1373.89
410.26	1394.96
410.45	1261.55
410.64	1247.51
410.83	1329.42
411.02	1245.16
411.21	1313.04
411.40	1338.79
411.59	1430.07
411.78	1404.32
411.98	1355.17
412.17	1474.54
412.36	1446.45
412.55	1516.67
412.74	1530.71
412.93	1570.50
413.12	1535.39
413.31	1626.67
413.50	1589.22
413.69	1598.59
413.88	1701.57
414.07	1692.21
414.26	1734.34
414.45	1790.51
414.64	1645.40
414.83	1657.10
415.02	1806.89
415.22	1675.82
415.41	1811.57
415.60	1722.63
415.79	1802.21
415.98	1963.71
416.17	1991.80
416.36	1926.26
416.55	1839.66
416.74	2022.22
416.93	1851.36
417.12	1954.35
417.31	1998.82
417.50	2017.54
417.69	2225.85
417.88	2036.27
418.07	2045.63
418.26	2097.12
418.45	2111.16
418.64	2195.42
418.83	2134.57
419.02	2127.55
419.21	2186.06
419.39	2296.07
419.58	2204.78
419.77	2223.51
419.96	2289.04
420.15	2359.26
420.34	2153.29
420.53	2286.70
420.72	2277.34
420.91	2359.26
421.10	2377.98
421.29	2471.61
421.48	2335.85
421.67	2417.77
421.86	2382.67
422.05	2415.43
422.24	2284.36
422.43	2434.16
422.61	2319.47
422.80	2410.75
422.99	2380.32
423.18	2345.22
423.37	2450.54
423.56	2410.75
423.75	2534.80
423.94	2380.32
424.13	2368.62
424.32	2410.75
424.50	2525.44
424.69	2553.52
424.88	2541.82
425.07	2492.67
425.26	2548.84
425.45	2459.90
425.64	2583.95
425.83	2462.24
426.01	2511.39
426.20	2593.31
426.39	2537.14
426.58	2438.84
426.77	2579.27
426.96	2642.46
427.15	2518.42
427.33	2693.96
427.52	2558.21
427.71	2663.53
427.90	2605.02
428.09	2583.95
428.28	2719.70
428.46	2705.66
428.65	2768.85
428.84	2848.43
429.03	2773.53
429.22	2792.26
429.40	2731.41
429.59	2829.71
429.78	2722.04
429.97	2616.72
430.16	2691.62
430.34	2829.71
430.53	2904.60
430.72	2862.48
430.91	2860.13
431.10	2787.58
431.28	2944.39
431.47	2963.12
431.66	3019.29
431.85	2871.84
432.03	3082.49
432.22	3187.81
432.41	2942.05
432.60	2986.52
432.79	2974.82
432.97	3101.21
433.16	3169.09
433.35	3115.25
433.54	3066.10
433.72	2981.84
433.91	3122.27
434.10	3141.00
434.28	3176.11
434.47	3166.74
434.66	3183.13
434.85	3239.30
435.03	3297.81
435.22	3557.61
435.41	3651.24
435.59	3574.00
435.78	3524.85
435.97	3353.99
436.16	3356.33
436.34	3328.24
436.53	3297.81
436.72	3485.06
436.90	3328.24
437.09	3543.57
437.28	3452.29
437.46	3400.80
437.65	3356.33
437.84	3426.54
438.02	3435.91
438.21	3513.14
438.40	3492.08
438.58	3428.88
438.77	3536.55
438.96	3510.80
439.14	3616.13
439.33	3604.42
439.52	3794.01
439.70	3653.58
439.89	3611.45
440.08	3712.09
440.26	3618.47
440.45	3789.33
440.63	3810.39
440.82	3911.04
441.01	3894.65
441.19	3901.67
441.38	3922.74
441.57	4009.34
441.75	3981.25
441.94	3971.89
442.12	4128.70
442.31	4081.89
442.50	4063.17
442.68	4011.68
442.87	4067.85
443.05	4119.34
443.24	4205.94
443.43	4126.36
443.61	4201.26
443.80	4301.90
443.98	4079.55
444.17	3915.72
444.35	4297.22
444.54	4255.09
444.73	4166.15
444.91	4341.69
445.10	4318.29
445.28	4322.97
445.47	4292.54
445.65	4257.43
445.84	4241.05
446.02	4397.87
446.21	4154.45
446.39	4227.01
446.58	4308.93
446.77	4236.37
446.95	4154.45
447.14	4320.63
447.32	4489.15
447.51	4362.76
447.69	4365.10
447.88	4259.78
448.06	4351.06
448.25	4081.89
448.43	4313.61
448.62	4311.27
448.80	4360.42
448.99	4390.84
449.17	4472.76
449.36	4376.80
449.54	4505.53
449.73	4505.53
449.91	4489.15
450.10	4458.72
450.28	4657.67
450.46	4727.88
450.65	4603.83
450.83	4683.41
451.02	4552.34
451.20	4620.22
451.39	4718.52
451.57	4641.28
451.76	4599.15
451.94	4528.94
452.13	4727.88
452.31	4809.80
452.49	4793.42
452.68	4758.31
452.86	4711.50
453.05	4884.70
453.23	4730.22
453.42	4800.44
453.60	4744.27
453.78	4643.62
453.97	4753.63
454.15	4718.52
454.34	4671.71
454.52	4842.57
454.70	4964.28
454.89	4896.40
455.07	4910.44
455.26	5022.79
455.44	5062.58
455.62	4997.04
455.81	4931.51
455.99	5053.22
456.17	5121.09
456.36	5067.26
456.54	5018.11
456.73	5083.64
456.91	5322.38
457.09	5135.14
457.28	5310.68
457.46	5137.48
457.64	5331.74
457.83	5317.70
458.01	5305.99
458.19	5486.22
458.38	5345.78
458.56	5533.03
458.74	5359.83
458.93	5242.80
459.11	5556.43
459.29	5383.23
459.48	5455.79
459.66	5474.51
459.84	5584.52
460.03	5661.76
460.21	5523.66
460.39	5558.77
460.57	5408.98
460.76	5483.88
460.94	5535.37
461.12	5767.08
461.31	5692.18
461.49	5722.61
461.67	5434.72
461.85	5722.61
462.04	5624.31
462.22	5980.07
462.40	5877.09
462.59	5863.04
462.77	5755.38
462.95	5795.17
463.13	5771.76
463.32	5919.21
463.50	5888.79
463.68	6026.88
463.86	5937.94
464.05	5891.13
464.23	6085.39
464.41	5851.34
464.59	5916.87
464.78	6015.18
464.96	5865.38
465.14	5809.21
465.32	6092.41
465.50	6099.44
465.69	6099.44
465.87	6045.60
466.05	6090.07
466.23	5907.51
466.41	6146.25
466.60	6394.34
466.78	6169.65
466.96	6256.25
467.14	5956.66
467.32	6061.99
467.51	6408.39
467.69	6059.65
467.87	6113.48
468.05	6380.30
468.23	6429.45
468.41	6303.06
468.60	6312.42
468.78	6443.49
468.96	6347.53
469.14	6469.24
469.32	6415.41
469.50	6333.49
469.69	6502.01
469.87	6597.97
470.05	6560.52
470.23	6551.16
470.41	6506.69
470.59	6686.91
470.77	6516.05
470.95	6686.91
471.14	6614.35
471.32	6569.88
471.50	6843.73
471.68	6883.52
471.86	6923.30
472.04	6696.27
472.22	7084.80
472.40	6789.89
472.58	7002.88
472.77	7082.46
472.95	7021.61
473.13	7103.53
473.31	7066.08
473.49	7059.06
473.67	7103.53
473.85	6979.48
474.03	7218.21
474.21	7157.36
474.39	7176.08
474.57	7379.71
474.75	7559.93
474.93	7424.18
475.12	7672.28
475.30	7531.84
475.48	7508.44
475.66	7536.52
475.84	7592.70
476.02	7475.67
476.20	7648.87
476.38	7768.24
476.56	7976.55
476.74	7819.73
476.92	7892.29
477.10	7868.88
477.28	7969.52
477.46	7911.01
477.64	8219.96
477.82	8079.53
478.00	8313.58
478.18	8250.39
478.36	8521.89
478.54	8512.53
478.72	8587.43
478.90	8599.13
479.08	8692.75
479.26	8704.45
479.44	8772.33
479.62	8716.16
479.80	9069.58
479.98	8924.46
480.16	9170.22
480.34	9046.17
480.52	9011.06
480.70	9048.51
480.88	9186.60
481.06	9146.81
481.24	9394.91
481.41	9579.81
481.59	9270.86
481.77	9568.11
481.95	9504.92
482.13	9816.21
482.31	9495.55
482.49	10003.45
482.67	9977.70
482.85	10106.43
483.03	9996.43
483.21	10094.73
483.39	10333.47
483.57	10317.08
483.74	10427.09
483.92	10509.01
484.10	10506.66
484.28	10794.55
484.46	10647.10
484.64	11052.01
484.82	10930.30
485.00	10930.30
485.18	11098.82
485.35	11110.52
485.53	11307.13
485.71	11255.64
485.89	11639.48
486.07	11290.74
486.25	11543.52
486.43	11592.67
486.61	11786.94
486.78	11749.49
486.96	11791.62
487.14	12362.71
487.32	12138.02
487.50	11906.31
487.68	12194.19
487.85	12491.44
488.03	12849.54
488.21	12868.27
488.39	12706.77
488.57	12943.16
488.75	12695.07
488.92	13284.88
489.10	12898.69
489.28	13090.62
489.46	13060.19
489.64	13291.90
489.81	13570.43
489.99	13535.32
490.17	13745.97
490.35	13961.30
490.53	13781.07
490.70	13717.88
490.88	13830.23
491.06	14274.93
491.24	13891.08
491.41	14249.18
491.59	14511.32
491.77	14427.06
491.95	14396.64
492.13	14452.81
492.30	14684.52
492.48	14593.24
492.66	14728.99
492.84	14750.06
493.01	14998.15
493.19	15087.09
493.37	15091.77
493.54	15269.66
493.72	15314.13
493.90	15463.92
494.08	15592.65
494.25	15447.54
494.43	15536.48
494.61	15770.53
494.79	15740.10
494.96	15852.45
495.14	15770.53
495.32	16397.79
495.49	15857.13
495.67	16360.34
495.85	16369.71
496.02	16383.75
496.20	16669.30
496.38	16442.26
496.55	16828.45
496.73	16758.24
496.91	17055.48
497.09	16905.69
497.26	17025.06
497.44	16868.24
497.62	17221.66
497.79	17322.30
497.97	16975.91
498.14	17523.59
498.32	17717.86
498.50	17668.70
498.67	17781.05
498.85	17741.26
499.03	17809.14
499.20	17825.52
499.38	17961.27
499.56	17914.46
499.73	17975.31
499.91	18260.86
500.08	18375.55
500.26	18001.06
500.44	18324.05
500.61	18689.18
500.79	18656.41
500.97	18710.24
501.14	18953.66
501.32	18672.79
501.49	18700.88
501.67	18665.77
501.84	19073.03
502.02	18661.09
502.20	18792.16
502.37	19166.65
502.55	19047.28
502.72	19173.67
502.90	19173.67
503.07	19330.48
503.25	19304.74
503.43	19253.25
503.60	19751.78
503.78	19817.32
503.95	19714.33
504.13	20159.03
504.30	19789.23
504.48	19559.86
504.65	20023.28
504.83	19953.07
505.01	20025.62
505.18	20191.80
505.36	20004.56
505.53	20102.86
505.71	20063.07
505.88	20418.83
506.06	20360.32
506.23	20559.27
506.41	20032.65
506.58	20421.17
506.76	20769.91
506.93	20531.18
507.11	20297.13
507.28	20753.53
507.46	20524.16
507.63	20837.79
507.81	21291.85
507.98	20814.38
508.16	20751.19
508.33	20982.90
508.50	21282.49
508.68	21341.00
508.85	21811.45
509.03	21495.48
509.20	21778.68
509.38	21851.24
509.55	21785.71
509.73	21689.74
509.90	21577.40
510.08	21907.41
510.25	21898.05
510.42	22345.09
510.60	22401.27
510.77	22352.12
510.95	21832.52
511.12	22136.79
511.30	22377.86
511.47	22710.22
511.64	22511.27
511.82	22937.25
511.99	22651.70
512.17	22508.93
512.34	22717.24
512.51	22874.06
512.69	22934.91
512.86	22522.98
513.04	22852.99
513.21	23108.11
513.38	23173.64
513.56	23262.58
513.73	23330.46
513.90	22815.54
514.08	22941.93
514.25	23421.74
514.43	23403.02
514.60	23733.03
514.77	23513.02
514.95	23536.43
515.12	23711.97
515.29	23262.58
515.47	23541.11
515.64	23679.20
515.81	23782.18
515.99	24407.11
516.16	24142.63
516.33	24051.34
516.51	23824.31
516.68	23859.42
516.85	24063.05
517.03	24269.01
517.20	24439.87
517.37	24369.66
517.54	24315.83
517.72	24702.01
517.89	24264.33
518.06	24622.44
518.24	24528.81
518.41	24439.87
518.58	24758.19
518.75	24395.40
518.93	24589.67
519.10	24748.82
519.27	24762.87
519.45	24805.00
519.62	24788.61
519.79	25027.35
519.96	24978.20
520.14	24917.34
520.31	24999.26
520.48	25296.51
520.65	25137.35
520.83	25298.85
521.00	25413.54
521.17	25083.52
521.34	25591.42
521.52	25776.32
521.69	25935.48
521.86	25865.26
522.03	25858.24
522.20	26033.78
522.38	25818.45
522.55	25738.87
522.72	25823.13
522.89	25759.94
523.07	25865.26
523.24	25982.29
523.41	26417.63
523.58	25998.67
523.75	26057.18
523.92	26249.11
524.10	26469.12
524.27	26263.15
524.44	26649.34
524.61	26951.27
524.78	26497.20
524.96	26487.84
525.13	26426.99
525.30	26815.52
525.47	26778.07
525.64	27197.02
525.81	26595.51
525.98	27194.68
526.16	26944.25
526.33	27220.43
526.50	27185.32
526.67	26810.84
526.84	27065.96
527.01	26771.05
527.18	27241.50
527.36	27014.46
527.53	27206.39
527.70	27843.01
527.87	27384.27
528.04	27377.25
528.21	27421.72
528.38	27421.72
528.55	27782.16
528.72	27777.48
528.89	27559.81
529.07	27742.37
529.24	27936.63
529.41	27833.65
529.58	27763.43
529.75	27810.25
529.92	27990.47
530.09	27597.26
530.26	27824.29
530.43	27864.08
530.60	27938.97
530.77	28247.93
530.94	28191.75
531.11	27892.16
531.28	28481.98
531.46	28343.89
531.63	28187.07
531.80	28283.03
531.97	28360.27
532.14	28624.75
532.31	28292.40
532.48	28432.83
532.65	28622.41
532.82	28306.44
532.99	28348.57
533.16	28170.69
533.33	28762.84
533.50	28650.50
533.67	28758.16
533.84	28709.01
534.01	28629.43
534.18	28709.01
534.35	29111.58
534.52	28666.88
534.69	29579.69
534.86	29134.99
535.03	28807.31
535.20	28741.78
535.37	29106.90
535.54	29123.29
535.71	28823.70
535.88	29532.88
536.05	29088.18
536.22	29387.77
536.38	29242.65
536.55	29345.64
536.72	29039.03
536.89	29453.30
537.06	29486.07
537.23	29223.93
537.40	29453.30
537.57	29689.70
537.74	29429.90
537.91	29706.08
538.08	29853.53
538.25	29415.85
538.42	29813.74
538.59	29926.09
538.75	29886.30
538.92	29729.48
539.09	30094.61
539.26	30213.98
539.43	30096.95
539.60	30221.00
539.77	29907.37
539.94	30316.96
540.11	30543.99
540.28	30394.20
540.44	30251.42
540.61	30312.28
540.78	30499.52
540.95	30529.95
541.12	30155.46
541.29	30555.69
541.46	30754.64
541.62	30965.29
541.79	31035.50
541.96	30749.96
542.13	30911.46
542.30	30866.98
542.47	30986.35
542.63	31005.08
542.80	31054.23
542.97	31248.49
543.14	31391.26
543.31	31150.19
543.48	31094.02
543.64	31541.06
543.81	31632.34
543.98	31175.94
544.15	31482.55
544.32	31580.85
544.48	31784.48
544.65	31365.52
544.82	31353.82
544.99	31234.45
545.16	31487.23
545.32	31587.87
545.49	32205.77
545.66	32730.05
545.83	32748.78
546.00	32570.90
546.16	32151.94
546.33	31807.88
546.50	31648.72
546.67	31875.76
546.83	31140.83
547.00	31697.88
547.17	31456.80
547.34	31496.59
547.50	31981.08
547.67	32189.39
547.84	32151.94
548.00	31683.83
548.17	32018.53
548.34	32027.89
548.51	32116.83
548.67	32137.90
548.84	32325.14
549.01	31974.06
549.18	32254.92
549.34	32161.30
549.51	32135.56
549.68	32376.63
549.84	32142.58
550.01	32072.36
550.18	31878.10
550.34	32456.21
550.51	32591.96
550.68	32109.81
550.84	32163.64
551.01	32074.70
551.18	32252.58
551.34	31967.04
551.51	32421.10
551.68	32081.72
551.84	32472.59
552.01	32184.71
552.18	32203.43
552.34	32194.07
552.51	32411.74
552.68	32641.11
552.84	32680.90
553.01	32767.50
553.18	32348.54
553.34	32648.13
553.51	32222.16
553.67	32575.58
553.84	32886.87
554.01	32687.92
554.17	32765.16
554.34	32423.44
554.51	32322.80
554.67	32968.79
554.84	32910.27
555.00	32507.70
555.17	32598.98
555.33	32725.37
555.50	32692.60
555.67	32849.42
555.83	32570.90
556.00	32631.75
556.16	32769.84
556.33	32669.20
556.50	32933.68
556.66	32952.40
556.83	32971.13
556.99	33078.79
557.16	33266.03
557.32	33144.33
557.49	33193.48
557.65	32662.18
557.82	32971.13
557.98	33198.16
558.15	33172.41
558.32	32966.45
558.48	32671.54
558.65	33083.47
558.81	33535.20
558.98	33291.78
559.14	33022.62
559.31	32898.57
559.47	33057.73
559.64	32795.59
559.80	32973.47
559.97	33303.48
560.13	33259.01
560.30	33099.86
560.46	33305.82
560.63	33181.77
560.79	33329.23
560.96	32828.35
561.12	33085.81
561.29	33055.39
561.45	33088.15
561.61	33476.68
561.78	32905.59
561.94	33385.40
562.11	33364.34
562.27	33525.83
562.44	33504.77
562.60	33607.75
562.77	33818.40
562.93	33362.00
563.10	33596.05
563.26	33617.11
563.42	33521.15
563.59	33474.34
563.75	33284.76
563.92	33385.40
564.08	33273.06
564.24	33317.53
564.41	33345.61
564.57	33322.21
564.74	33280.08
564.90	33383.06
565.07	33790.31
565.23	33816.06
565.39	33450.94
565.56	33380.72
565.72	33436.89
565.88	33787.97
566.05	33448.60
566.21	33244.97
566.38	33647.54
566.54	33607.75
566.70	33652.22
566.87	33813.72
567.03	33986.92
567.19	34029.05
567.36	33661.58
567.52	33565.62
567.68	33727.12
567.85	33675.63
568.01	33991.60
568.17	33633.50
568.34	33677.97
568.50	33790.31
568.66	33476.68
568.83	33570.30
568.99	33656.90
569.15	33851.17
569.32	33621.80
569.48	33312.84
569.64	33701.37
569.81	33624.14
569.97	33668.61
570.13	33834.78
570.30	33809.04
570.46	34183.52
570.62	33839.47
570.78	33507.11
570.95	33207.52
571.11	33537.54
571.27	33689.67
571.43	33263.69
571.60	33848.83
571.76	34054.79
571.92	33675.63
572.09	33996.28
572.25	34031.39
572.41	33977.56
572.57	33743.50
572.74	34113.31
572.90	33715.42
573.06	34050.11
573.22	33656.90
573.38	33961.17
573.55	33954.15
573.71	34263.10
573.87	33989.26
574.03	34160.12
574.20	33741.16
574.36	33289.44
574.52	33677.97
574.68	33586.69
574.84	33563.28
575.01	33940.11
575.17	33970.54
575.33	34019.69
575.49	33867.55
575.65	33951.81
575.82	34073.52
575.98	33701.37
576.14	34050.11
576.30	34078.20
576.46	34129.69
576.62	34267.78
576.79	33979.90
576.95	34218.63
577.11	33907.34
577.27	33975.22
577.43	33888.62
577.59	33593.71
577.75	34206.93
577.92	33724.78
578.08	33610.09
578.24	33614.77
578.40	33881.60
578.56	34176.50
578.72	34314.59
578.88	34550.99
579.04	34668.02
579.21	33937.77
579.37	34178.84
579.53	34347.36
579.69	33902.66
579.85	33738.82
580.01	34017.35
580.17	33696.69
580.33	33954.15
580.49	33818.40
580.65	33722.44
580.82	34047.77
580.98	34012.66
581.14	33963.51
581.30	33881.60
581.46	33809.04
581.62	33633.50
581.78	33741.16
581.94	34108.63
582.10	33986.92
582.26	34246.72
582.42	33928.41
582.58	34265.44
582.74	34134.37
582.90	34000.96
583.06	34384.81
583.22	33804.36
583.38	34141.39
583.54	33979.90
583.70	34197.57
583.86	34464.39
584.02	34195.23
584.18	34050.11
584.34	33940.11
584.50	34490.13
584.66	34244.38
584.82	34129.69
584.98	34431.62
585.14	34213.95
585.30	33811.38
585.46	33984.58
585.62	33890.96
585.78	34349.70
585.94	33757.55
586.10	33937.77
586.26	34277.15
586.42	34525.24
586.58	34419.92
586.74	33982.24
586.90	33989.26
587.06	33661.58
587.22	34125.01
587.38	34036.07
587.54	34204.59
587.70	34738.23
587.86	34485.45
588.02	33949.47
588.18	34059.48
588.34	34270.12
588.49	34029.05
588.65	33797.34
588.81	34068.84
588.97	34036.07
589.13	34094.58
589.29	33970.54
589.45	34237.36
589.61	34417.58
589.77	34677.38
589.93	34181.18
590.08	33816.06
590.24	34550.99
590.40	34256.08
590.56	34527.58
590.72	34176.50
590.88	33809.04
591.04	34272.46
591.20	34274.80
591.35	34513.54
591.51	34536.94
