SpectraSuite Data File
++++++++++++++++++++++++++++++++++++
Date: Fri Oct 04 11:39:54 GMT-05:00 2013
User: price-jones
Dark Spectrum Present: No
Reference Spectrum Present: No
Number of Sampled Component Spectra: 1
Spectrometers: USB2+H05261
Integration Time (usec): 100000 (USB2+H05261)
Spectra Averaged: 1 (USB2+H05261)
Boxcar Smoothing: 0 (USB2+H05261)
Correct for Electrical Dark: No (USB2+H05261)
Strobe/Lamp Enabled: No (USB2+H05261)
Correct for Detector Non-linearity: No (USB2+H05261)
Correct for Stray Light: No (USB2+H05261)
Number of Pixels in Processed Spectrum: 2048
>>>>>Begin Processed Spectral Data<<<<<
365.73	44.47
365.92	44.47
366.12	44.47
366.32	0.00
366.52	0.00
366.72	9.36
366.91	0.00
367.11	4.68
367.31	0.00
367.51	0.00
367.70	0.00
367.90	0.00
368.10	0.00
368.30	0.00
368.49	0.00
368.69	0.00
368.89	0.00
369.09	0.00
369.28	0.00
369.48	4.68
369.68	28.09
369.87	18.72
370.07	0.00
370.27	51.49
370.47	39.79
370.66	81.92
370.86	25.75
371.06	117.03
371.25	224.69
371.45	147.45
371.65	149.79
371.84	126.39
372.04	187.24
372.24	121.71
372.44	110.01
372.63	147.45
372.83	168.52
373.03	217.67
373.22	227.03
373.42	238.73
373.62	156.82
373.81	269.16
374.01	245.76
374.21	168.52
374.40	208.31
374.60	201.29
374.79	278.52
374.99	266.82
375.19	161.50
375.38	241.08
375.58	212.99
375.78	252.78
375.97	308.95
376.17	238.73
376.37	210.65
376.56	278.52
376.76	124.05
376.95	152.13
377.15	215.33
377.35	234.05
377.54	234.05
377.74	170.86
377.93	212.99
378.13	196.60
378.33	227.03
378.52	166.18
378.72	196.60
378.91	210.65
379.11	189.58
379.31	205.97
379.50	241.08
379.70	198.95
379.89	257.46
380.09	229.37
380.28	212.99
380.48	252.78
380.68	198.95
380.87	189.58
381.07	229.37
381.26	266.82
381.46	257.46
381.65	250.44
381.85	227.03
382.04	215.33
382.24	301.93
382.43	287.89
382.63	280.86
382.83	208.31
383.02	304.27
383.22	327.68
383.41	184.90
383.61	252.78
383.80	259.80
384.00	241.08
384.19	238.73
384.39	257.46
384.58	269.16
384.78	330.02
384.97	245.76
385.17	283.20
385.36	280.86
385.56	248.10
385.75	205.97
385.95	280.86
386.14	348.74
386.34	245.76
386.53	210.65
386.72	266.82
386.92	301.93
387.11	231.71
387.31	252.78
387.50	255.12
387.70	290.23
387.89	245.76
388.09	283.20
388.28	208.31
388.48	224.69
388.67	257.46
388.86	299.59
389.06	285.55
389.25	301.93
389.45	290.23
389.64	341.72
389.84	334.70
390.03	297.25
390.22	341.72
390.42	269.16
390.61	259.80
390.81	248.10
391.00	245.76
391.19	318.31
391.39	308.95
391.58	358.10
391.78	250.44
391.97	353.42
392.16	297.25
392.36	365.12
392.55	313.63
392.75	306.61
392.94	304.27
393.13	379.17
393.33	337.04
393.52	315.97
393.71	437.68
393.91	383.85
394.10	283.20
394.29	306.61
394.49	388.53
394.68	381.51
394.88	320.65
395.07	409.59
395.26	341.72
395.46	348.74
395.65	360.44
395.84	428.32
396.04	428.32
396.23	301.93
396.42	376.83
396.62	418.96
396.81	425.98
397.00	407.25
397.19	360.44
397.39	365.12
397.58	451.72
397.77	425.98
397.97	414.27
398.16	374.49
398.35	433.00
398.55	418.96
398.74	493.85
398.93	514.92
399.12	456.40
399.32	435.34
399.51	395.55
399.70	482.15
399.90	486.83
400.09	517.26
400.28	564.07
400.47	465.77
400.67	552.37
400.86	468.11
401.05	491.51
401.24	603.86
401.44	519.60
401.63	571.09
401.82	592.16
402.01	526.62
402.21	552.37
402.40	629.60
402.59	667.05
402.78	550.03
402.97	648.33
403.17	503.22
403.36	608.54
403.55	601.52
403.74	613.22
403.93	713.86
404.13	723.23
404.32	734.93
404.51	713.86
404.70	755.99
404.89	732.59
405.09	781.74
405.28	655.35
405.47	770.04
405.66	734.93
405.85	664.71
406.05	720.88
406.24	734.93
406.43	798.12
406.62	770.04
406.81	826.21
407.00	716.20
407.20	763.01
407.39	842.59
407.58	863.66
407.77	849.61
407.96	854.30
408.15	952.60
408.34	870.68
408.54	887.06
408.73	856.64
408.92	992.39
409.11	894.08
409.30	1062.60
409.49	842.59
409.68	992.39
409.87	1020.47
410.07	1029.84
410.26	1008.77
410.45	1015.79
410.64	987.71
410.83	1057.92
411.02	1025.15
411.21	1015.79
411.40	1062.60
411.59	1081.33
411.78	1137.50
411.98	1097.71
412.17	1076.65
412.36	1069.62
412.55	1100.05
412.74	1132.82
412.93	1294.32
413.12	1240.48
413.31	1287.29
413.50	1210.06
413.69	1256.87
413.88	1416.02
414.07	1364.53
414.26	1373.89
414.45	1327.08
414.64	1341.13
414.83	1397.30
415.02	1483.90
415.22	1453.47
415.41	1488.58
415.60	1437.09
415.79	1479.22
415.98	1476.88
416.17	1507.30
416.36	1439.43
416.55	1537.73
416.74	1568.16
416.93	1465.18
417.12	1556.46
417.31	1591.56
417.50	1556.46
417.69	1692.21
417.88	1596.25
418.07	1666.46
418.26	1584.54
418.45	1638.38
418.64	1710.93
418.83	1699.23
419.02	1626.67
419.21	1722.63
419.39	1743.70
419.58	1708.59
419.77	1703.91
419.96	1781.15
420.15	1888.81
420.34	1774.13
420.53	1823.28
420.72	1856.04
420.91	1732.00
421.10	1921.58
421.29	1893.49
421.48	1912.22
421.67	1879.45
421.86	1792.85
422.05	1870.09
422.24	1776.47
422.43	1956.69
422.61	1963.71
422.80	1966.05
422.99	1839.66
423.18	1970.73
423.37	2026.90
423.56	1930.94
423.75	1926.26
423.94	1823.28
424.13	1827.96
424.32	2008.18
424.50	1989.46
424.69	2026.90
424.88	2022.22
425.07	1930.94
425.26	1935.62
425.45	2064.35
425.64	2033.93
425.83	1996.48
426.01	2029.24
426.20	2085.42
426.39	2064.35
426.58	1977.75
426.77	1975.41
426.96	2195.42
427.15	2001.16
427.33	2033.93
427.52	2104.14
427.71	2104.14
427.90	2003.50
428.09	2143.93
428.28	2186.06
428.46	2204.78
428.65	2160.31
428.84	2279.68
429.03	2368.62
429.22	2127.55
429.40	2214.15
429.59	2267.98
429.78	2172.02
429.97	2195.42
430.16	2094.78
430.34	2270.32
430.53	2272.66
430.72	2284.36
430.91	2190.74
431.10	2310.11
431.28	2436.50
431.47	2492.67
431.66	2361.60
431.85	2277.34
432.03	2469.27
432.22	2413.09
432.41	2363.94
432.60	2485.65
432.79	2363.94
432.97	2511.39
433.16	2476.29
433.35	2331.17
433.54	2485.65
433.72	2375.64
433.91	2504.37
434.10	2478.63
434.28	2532.46
434.47	2473.95
434.66	2579.27
434.85	2698.64
435.03	2609.70
435.22	2759.49
435.41	3019.29
435.59	2951.42
435.78	2801.62
435.97	2698.64
436.16	2703.32
436.34	2691.62
436.53	2541.82
436.72	2782.90
436.90	2698.64
437.09	2738.43
437.28	2621.40
437.46	2616.72
437.65	2689.28
437.84	2789.92
438.02	2740.77
438.21	2794.60
438.40	2775.88
438.58	2895.24
438.77	2822.69
438.96	2825.03
439.14	2925.67
439.33	2850.77
439.52	2909.29
439.70	2942.05
439.89	2953.76
440.08	2883.54
440.26	3028.65
440.45	2963.12
440.63	3026.31
440.82	3054.40
441.01	3084.83
441.19	2974.82
441.38	3316.54
441.57	3178.45
441.75	3162.06
441.94	3096.53
442.12	3194.83
442.31	3330.58
442.50	3267.39
442.68	3309.52
442.87	3211.22
443.05	3344.63
443.24	3337.60
443.43	3372.71
443.61	3400.80
443.80	3410.16
443.98	3243.98
444.17	3150.36
444.35	3297.81
444.54	3375.05
444.73	3396.12
444.91	3412.50
445.10	3356.33
445.28	3332.92
445.47	3339.94
445.65	3419.52
445.84	3461.65
446.02	3267.39
446.21	3339.94
446.39	3433.57
446.58	3435.91
446.77	3454.63
446.95	3351.65
447.14	3517.83
447.32	3571.66
447.51	3412.50
447.69	3438.25
447.88	3496.76
448.06	3552.93
448.25	3454.63
448.43	3564.64
448.62	3482.72
448.80	3541.23
448.99	3510.80
449.17	3679.32
449.36	3478.04
449.54	3597.40
449.73	3581.02
449.91	3726.13
450.10	3606.77
450.28	3669.96
450.46	3632.51
450.65	3616.13
450.83	3772.94
451.02	3662.94
451.20	3669.96
451.39	3932.10
451.57	3672.30
451.76	3620.81
451.94	3726.13
452.13	3751.88
452.31	3791.67
452.49	3808.05
452.68	3768.26
452.86	3756.56
453.05	3808.05
453.23	3904.01
453.42	3925.08
453.60	3815.07
453.78	3913.38
453.97	3932.10
454.15	3791.67
454.34	3779.97
454.52	3981.25
454.70	4035.08
454.89	4168.49
455.07	3913.38
455.26	3985.93
455.44	3964.87
455.62	4077.21
455.81	3932.10
455.99	4032.74
456.17	4028.06
456.36	3957.85
456.54	4063.17
456.73	4074.87
456.91	4248.07
457.09	4248.07
457.28	4212.96
457.46	4198.92
457.64	4318.29
457.83	4182.54
458.01	4227.01
458.19	4278.50
458.38	4367.44
458.56	4299.56
458.74	4376.80
458.93	4269.14
459.11	4360.42
459.29	4367.44
459.48	4402.55
459.66	4519.57
459.84	4432.97
460.03	4545.32
460.21	4470.42
460.39	4498.51
460.57	4482.13
460.76	4531.28
460.94	4641.28
461.12	4606.17
461.31	4613.20
461.49	4547.66
461.67	4496.17
461.85	4582.77
462.04	4641.28
462.22	4983.00
462.40	4723.20
462.59	4660.01
462.77	4638.94
462.95	4702.14
463.13	4786.40
463.32	4634.26
463.50	4793.42
463.68	4816.82
463.86	4718.52
464.05	4730.22
464.23	4751.29
464.41	4830.87
464.59	4891.72
464.78	4947.89
464.96	4826.18
465.14	4835.55
465.32	4873.00
465.50	4926.83
465.69	4968.96
465.87	4802.78
466.05	4943.21
466.23	4964.28
466.41	4940.87
466.60	5057.90
466.78	4961.94
466.96	4887.04
467.14	5064.92
467.32	5067.26
467.51	5210.03
467.69	4929.17
467.87	4940.87
468.05	4854.27
468.23	5020.45
468.41	5027.47
468.60	5121.09
468.78	5167.90
468.96	5210.03
469.14	5160.88
469.32	5018.11
469.50	5210.03
469.69	5259.18
469.87	5231.10
470.05	5219.39
470.23	5341.10
470.41	5303.65
470.59	5315.36
470.77	5280.25
470.95	5500.26
471.14	5317.70
471.32	5364.51
471.50	5425.36
471.68	5598.56
471.86	5547.07
472.04	5624.31
472.22	5624.31
472.40	5563.45
472.58	5516.64
472.77	5607.92
472.95	5598.56
473.13	5909.85
473.31	5666.44
473.49	5657.07
473.67	5650.05
473.85	5661.76
474.03	5874.74
474.21	5738.99
474.39	6019.86
474.57	5930.92
474.75	5877.09
474.93	6043.26
475.12	5987.09
475.30	6092.41
475.48	6050.28
475.66	6078.37
475.84	6218.80
476.02	6218.80
476.20	6228.17
476.38	6286.68
476.56	6410.73
476.74	6434.13
476.92	6218.80
477.10	6413.07
477.28	6434.13
477.46	6466.90
477.64	6523.07
477.82	6576.91
478.00	6867.13
478.18	6963.09
478.36	6757.13
478.54	6799.26
478.72	6843.73
478.90	6806.28
479.08	6846.07
479.26	6904.58
479.44	6960.75
479.62	7073.10
479.80	7016.93
479.98	7215.87
480.16	7258.00
480.34	7363.33
480.52	7323.54
480.70	7253.32
480.88	7267.36
481.06	7400.77
481.24	7426.52
481.41	7625.47
481.59	7576.31
481.77	7588.02
481.95	7763.56
482.13	7857.18
482.31	7824.41
482.49	7964.84
482.67	8058.46
482.85	8360.39
483.03	8114.64
483.21	8449.33
483.39	8372.10
483.57	8344.01
483.74	8402.52
483.92	8439.97
484.10	8531.25
484.28	8496.14
484.46	8685.73
484.64	8901.06
484.82	8613.17
485.00	8800.41
485.18	8950.21
485.35	9034.47
485.53	8929.14
485.71	9102.34
485.89	9188.94
486.07	9397.25
486.25	9350.44
486.43	9598.54
486.61	9502.58
486.78	9451.08
486.96	9717.90
487.14	9771.74
487.32	9617.26
487.50	9804.50
487.68	9942.60
487.85	10111.11
488.03	10167.29
488.21	10373.25
488.39	10429.43
488.57	10284.31
488.75	10333.47
488.92	10668.16
489.10	10396.66
489.28	10501.98
489.46	10876.47
489.64	10721.99
489.81	11000.52
489.99	10846.04
490.17	10888.17
490.35	11367.98
490.53	11215.85
490.70	11276.70
490.88	11367.98
491.06	11346.92
491.24	11183.08
491.41	11492.03
491.59	11730.76
491.77	11683.95
491.95	11845.45
492.13	11569.27
492.30	11922.69
492.48	11873.54
492.66	11793.96
492.84	11915.67
493.01	12046.74
493.19	12053.76
493.37	12341.64
493.54	12306.54
493.72	12472.71
493.90	12390.80
494.08	12746.56
494.25	12512.50
494.43	12659.96
494.61	12723.15
494.79	12697.41
494.96	12938.48
495.14	12779.32
495.32	12760.60
495.49	12966.57
495.67	13212.32
495.85	13273.18
496.02	13441.70
496.20	13254.45
496.38	13319.99
496.55	13554.04
496.73	13619.58
496.91	13605.53
497.09	13699.16
497.26	13806.82
497.44	13626.60
497.62	13748.31
497.79	13853.63
497.97	14059.60
498.14	13907.46
498.32	14209.39
498.50	13867.67
498.67	14338.12
498.85	14183.65
499.03	14403.66
499.20	14595.58
499.38	14743.03
499.56	14714.95
499.73	14860.06
499.91	14637.71
500.08	14932.62
500.26	14588.56
500.44	14897.51
500.61	14920.92
500.79	14810.91
500.97	14927.94
501.14	15243.91
501.32	14953.68
501.49	15229.87
501.67	15051.99
501.84	15606.69
502.02	15236.89
502.20	15321.15
502.37	15487.32
502.55	15672.23
502.72	15534.14
502.90	15690.95
503.07	15723.72
503.25	15758.83
503.43	15587.97
503.60	15887.56
503.78	15929.69
503.95	16056.08
504.13	15880.53
504.30	16074.80
504.48	15974.16
504.65	16065.44
504.83	16100.55
505.01	16379.07
505.18	16362.69
505.36	16292.47
505.53	16238.64
505.71	16439.92
505.88	16510.14
506.06	16322.90
506.23	16643.55
506.41	16648.23
506.58	16889.31
506.76	16641.21
506.93	16964.20
507.11	17046.12
507.28	16762.92
507.46	17111.66
507.63	16896.33
507.81	17432.31
507.98	16994.63
508.16	17057.82
508.33	17158.47
508.50	17167.83
508.68	17050.80
508.85	17369.12
509.03	17174.85
509.20	17692.11
509.38	17830.20
509.55	17626.57
509.73	17818.50
509.90	17970.63
510.08	17860.63
510.25	17706.15
510.42	17949.57
510.60	18249.16
510.77	18099.36
510.95	18265.54
511.12	18010.42
511.30	17984.68
511.47	18200.01
511.64	18473.85
511.82	18380.23
511.99	18270.22
512.17	18513.64
512.34	18127.45
512.51	18663.43
512.69	18527.68
512.86	18733.65
513.04	18621.30
513.21	18902.17
513.38	18970.04
513.56	18874.08
513.73	18857.70
513.90	18885.78
514.08	18860.04
514.25	18911.53
514.43	18991.11
514.60	19234.52
514.77	19367.93
514.95	18995.79
515.12	19592.62
515.29	19075.37
515.47	19267.29
515.64	19393.68
515.81	19211.12
515.99	19484.96
516.16	19576.24
516.33	19646.46
516.51	19618.37
516.68	19529.43
516.85	19779.87
517.03	19932.00
517.20	19723.69
517.37	19896.89
517.54	19978.81
517.72	19852.42
517.89	19960.09
518.06	20056.05
518.24	20161.37
518.41	20201.16
518.58	20304.15
518.75	19857.10
518.93	20465.64
519.10	20135.63
519.27	20477.35
519.45	20159.03
519.62	20458.62
519.79	20442.24
519.96	20318.19
520.14	20624.80
520.31	20568.63
520.48	20886.94
520.65	20695.02
520.83	21048.44
521.00	20847.15
521.17	20755.87
521.34	20926.73
521.52	20893.96
521.69	20879.92
521.86	21111.63
522.03	21312.92
522.20	21146.74
522.38	21060.14
522.55	21029.71
522.72	21207.59
522.89	21427.60
523.07	21617.19
523.24	21535.27
523.41	21638.25
523.58	21507.18
523.75	21666.34
523.92	21570.38
524.10	21486.12
524.27	21591.44
524.44	21652.30
524.61	22183.60
524.78	21755.28
524.96	21785.71
525.13	22052.53
525.30	21982.31
525.47	22129.77
525.64	21755.28
525.81	22080.61
525.98	22167.21
526.16	22216.36
526.33	21884.01
526.50	22338.07
526.67	22242.11
526.84	22019.76
527.01	22216.36
527.18	22302.96
527.36	22630.64
527.53	22487.87
527.70	22731.28
527.87	22740.64
528.04	22340.41
528.21	22499.57
528.38	22377.86
528.55	22932.57
528.72	22504.25
528.89	22960.66
529.07	22963.00
529.24	22567.45
529.41	23264.92
529.58	22558.08
529.75	22789.80
529.92	22913.84
530.09	23094.07
530.26	22869.37
530.43	23225.14
530.60	23140.88
530.77	23339.82
530.94	23152.58
531.11	23204.07
531.28	23094.07
531.46	23229.82
531.63	23592.60
531.80	23393.65
531.97	23428.76
532.14	23199.39
532.31	23122.15
532.48	23461.53
532.65	23639.41
532.82	23468.55
532.99	23318.76
533.16	23658.14
533.33	23627.71
533.50	24058.37
533.67	23702.61
533.84	23508.34
534.01	23587.92
534.18	23726.01
534.35	23978.79
534.52	23861.76
534.69	24250.29
534.86	24451.58
535.03	23992.83
535.20	24128.58
535.37	23957.72
535.54	23957.72
535.71	24016.24
535.88	24112.20
536.05	24381.36
536.22	24325.19
536.38	24734.78
536.55	24503.07
536.72	24451.58
536.89	24196.46
537.06	24294.76
537.23	24304.12
537.40	24592.01
537.57	24142.63
537.74	24376.68
537.91	24315.83
538.08	24430.51
538.25	24655.20
538.42	24889.26
538.59	24575.62
538.75	24685.63
538.92	24372.00
539.09	24830.74
539.26	24570.94
539.43	24952.45
539.60	25123.31
539.77	24882.24
539.94	25252.04
540.11	24907.98
540.28	25188.85
540.44	25523.54
540.61	25280.13
540.78	25245.02
540.95	25436.94
541.12	25193.53
541.29	25188.85
541.46	25558.65
541.62	25612.48
541.79	25333.96
541.96	25593.76
542.13	25593.76
542.30	25675.68
542.47	26279.54
542.63	25832.49
542.80	25778.66
542.97	25996.33
543.14	26120.38
543.31	26136.76
543.48	25949.52
543.64	26562.74
543.81	26270.17
543.98	26328.69
544.15	26082.93
544.32	26417.63
544.48	26572.10
544.65	26071.23
544.82	25986.97
544.99	25696.74
545.16	26572.10
545.32	26008.03
545.49	27014.46
545.66	27477.89
545.83	27140.85
546.00	27185.32
546.16	26515.93
546.33	26288.90
546.50	26359.11
546.67	26314.64
546.83	25886.32
547.00	26450.39
547.17	26513.59
547.34	26059.52
547.50	26579.12
547.67	26668.06
547.84	26373.16
548.00	26045.48
548.17	26700.83
548.34	26473.80
548.51	26661.04
548.67	26408.26
548.84	26733.60
549.01	26558.06
549.18	26506.57
549.34	26698.49
549.51	26511.25
549.68	26527.63
549.84	26604.87
550.01	26586.15
550.18	26560.40
550.34	26658.70
550.51	26742.96
550.68	26698.49
550.84	26682.11
551.01	26951.27
551.18	26197.62
551.34	26654.02
551.51	26951.27
551.68	26749.98
551.84	27019.14
552.01	27047.23
552.18	26918.50
552.34	26808.50
552.51	27000.42
552.68	26918.50
552.84	26895.10
553.01	26965.31
553.18	27215.75
553.34	26899.78
553.51	26817.86
553.67	27281.28
553.84	27384.27
554.01	27314.05
554.17	27330.44
554.34	27131.49
554.51	27049.57
554.67	27398.31
554.84	27185.32
555.00	27131.49
555.17	27342.14
555.33	27234.47
555.50	27232.13
555.67	27229.79
555.83	26859.99
556.00	27278.94
556.16	27318.73
556.33	27323.41
556.50	27133.83
556.66	27370.22
556.83	27466.19
556.99	27440.44
557.16	27534.06
557.32	27854.72
557.49	27859.40
557.65	27138.51
557.82	26944.25
557.98	27470.87
558.15	27365.54
558.32	27391.29
558.48	27346.82
558.65	27779.82
558.81	27363.20
558.98	27454.48
559.14	27351.50
559.31	27695.56
559.47	27531.72
559.64	27796.20
559.80	27637.05
559.97	27648.75
560.13	27531.72
560.30	27585.55
560.46	27770.46
560.63	27236.81
560.79	27590.24
560.96	27880.46
561.12	27606.62
561.29	27875.78
561.45	27910.89
561.61	28013.87
561.78	27971.74
561.94	27646.41
562.11	27803.22
562.27	27611.30
562.44	27410.01
562.60	27962.38
562.77	27672.15
562.93	27702.58
563.10	27583.21
563.26	27721.30
563.42	28191.75
563.59	27833.65
563.75	27789.18
563.92	28091.11
564.08	27779.82
564.24	27758.75
564.41	27875.78
564.57	27639.39
564.74	27929.61
564.90	27964.72
565.07	27990.47
565.23	28023.23
565.39	27690.88
565.56	27723.65
565.72	27585.55
565.88	28151.96
566.05	27601.94
566.21	28056.00
566.38	27611.30
566.54	27999.83
566.70	28290.06
566.87	28158.99
567.03	27901.53
567.19	28149.62
567.36	27934.29
567.52	27917.91
567.68	28053.66
567.85	27796.20
568.01	28285.37
568.17	28086.43
568.34	28163.67
568.50	28112.17
568.66	28203.46
568.83	28224.52
568.99	27803.22
569.15	28151.96
569.32	28081.75
569.48	27845.35
569.64	27814.93
569.81	28006.85
569.97	27744.71
570.13	28203.46
570.30	28144.94
570.46	28418.78
570.62	28180.05
570.78	28032.60
570.95	28191.75
571.11	28088.77
571.27	27793.86
571.43	28304.10
571.60	28156.64
571.76	28226.86
571.92	28411.76
572.09	28402.40
572.25	28074.73
572.41	27962.38
572.57	28147.28
572.74	28322.82
572.90	28100.47
573.06	28121.54
573.22	28084.09
573.38	28397.72
573.55	28201.11
573.71	28322.82
573.87	28491.34
574.03	28182.39
574.20	28163.67
574.36	28109.83
574.52	28011.53
574.68	28147.28
574.84	28364.95
575.01	28526.45
575.17	28353.25
575.33	28100.47
575.49	28093.45
575.65	28790.93
575.82	28458.57
575.98	28224.52
576.14	28758.16
576.30	28535.81
576.46	28245.58
576.62	28348.57
576.79	28903.28
576.95	28678.58
577.11	28322.82
577.27	28418.78
577.43	28306.44
577.59	28243.24
577.75	28933.70
577.92	28690.29
578.08	28278.35
578.24	27868.76
578.40	28540.49
578.56	28423.47
578.72	28828.38
578.88	28847.10
579.04	28945.41
579.21	28126.22
579.37	28748.80
579.53	28374.31
579.69	28273.67
579.85	28451.55
580.01	28486.66
580.17	28727.74
580.33	28479.64
580.49	28273.67
580.65	28381.34
580.82	28580.28
580.98	28561.56
581.14	28456.23
581.30	28624.75
581.46	28526.45
581.62	28428.15
581.78	28226.86
581.94	28404.74
582.10	28442.19
582.26	28753.48
582.42	28648.16
582.58	28624.75
582.74	28510.07
582.90	28807.31
583.06	28739.44
583.22	28924.34
583.38	28737.10
583.54	28687.95
583.70	28439.85
583.86	28711.35
584.02	28217.50
584.18	28545.17
584.34	28725.39
584.50	28507.72
584.66	28613.05
584.82	28477.30
584.98	28519.43
585.14	28603.69
585.30	28526.45
585.46	28547.51
585.62	28704.33
585.78	29010.94
585.94	28774.55
586.10	28477.30
586.26	28837.74
586.42	28723.05
586.58	28840.08
586.74	28341.55
586.90	28629.43
587.06	28615.39
587.22	28884.55
587.38	28517.09
587.54	28982.85
587.70	28865.83
587.86	28596.67
588.02	28709.01
588.18	28849.44
588.34	29074.13
588.49	28823.70
588.65	28577.94
588.81	28395.38
588.97	28804.97
589.13	28652.84
589.29	28517.09
589.45	28816.68
589.61	28723.05
589.77	28898.59
589.93	29008.60
590.08	28840.08
590.24	28840.08
590.40	29156.05
590.56	29008.60
590.72	28978.17
590.88	28940.72
591.04	29149.03
591.20	29343.30
591.35	29219.25
591.51	29130.31
591.67	29158.39
591.83	29067.11
591.99	29172.44
