SpectraSuite Data File
++++++++++++++++++++++++++++++++++++
Date: Fri Oct 04 11:39:28 GMT-05:00 2013
User: price-jones
Dark Spectrum Present: No
Reference Spectrum Present: No
Number of Sampled Component Spectra: 1
Spectrometers: USB2+H05261
Integration Time (usec): 100000 (USB2+H05261)
Spectra Averaged: 1 (USB2+H05261)
Boxcar Smoothing: 0 (USB2+H05261)
Correct for Electrical Dark: No (USB2+H05261)
Strobe/Lamp Enabled: No (USB2+H05261)
Correct for Detector Non-linearity: No (USB2+H05261)
Correct for Stray Light: No (USB2+H05261)
Number of Pixels in Processed Spectrum: 2048
>>>>>Begin Processed Spectral Data<<<<<
365.73	46.81
365.92	46.81
366.12	46.81
366.32	0.00
366.52	0.00
366.72	0.00
366.91	0.00
367.11	0.00
367.31	0.00
367.51	0.00
367.70	2.34
367.90	0.00
368.10	0.00
368.30	0.00
368.49	0.00
368.69	0.00
368.89	0.00
369.09	0.00
369.28	11.70
369.48	0.00
369.68	14.04
369.87	14.04
370.07	0.00
370.27	30.43
370.47	14.04
370.66	93.62
370.86	142.77
371.06	142.77
371.25	175.54
371.45	161.50
371.65	105.32
371.84	161.50
372.04	152.13
372.24	159.16
372.44	180.22
372.63	161.50
372.83	257.46
373.03	145.11
373.22	215.33
373.42	114.69
373.62	184.90
373.81	168.52
374.01	220.01
374.21	198.95
374.40	191.92
374.60	210.65
374.79	220.01
374.99	271.50
375.19	248.10
375.38	243.42
375.58	184.90
375.78	264.48
375.97	269.16
376.17	337.04
376.37	234.05
376.56	196.60
376.76	196.60
376.95	224.69
377.15	248.10
377.35	198.95
377.54	182.56
377.74	203.63
377.93	313.63
378.13	198.95
378.33	276.18
378.52	280.86
378.72	304.27
378.91	229.37
379.11	229.37
379.31	224.69
379.50	243.42
379.70	266.82
379.89	250.44
380.09	236.39
380.28	220.01
380.48	250.44
380.68	266.82
380.87	252.78
381.07	273.84
381.26	276.18
381.46	255.12
381.65	262.14
381.85	273.84
382.04	203.63
382.24	252.78
382.43	290.23
382.63	322.99
382.83	262.14
383.02	351.08
383.22	301.93
383.41	205.97
383.61	264.48
383.80	236.39
384.00	194.26
384.19	283.20
384.39	297.25
384.58	322.99
384.78	283.20
384.97	301.93
385.17	341.72
385.36	280.86
385.56	287.89
385.75	210.65
385.95	308.95
386.14	334.70
386.34	220.01
386.53	318.31
386.72	262.14
386.92	315.97
387.11	332.36
387.31	262.14
387.50	283.20
387.70	271.50
387.89	322.99
388.09	313.63
388.28	259.80
388.48	301.93
388.67	353.42
388.86	306.61
389.06	322.99
389.25	337.04
389.45	285.55
389.64	262.14
389.84	365.12
390.03	315.97
390.22	353.42
390.42	217.67
390.61	259.80
390.81	276.18
391.00	337.04
391.19	397.89
391.39	322.99
391.58	320.65
391.78	425.98
391.97	365.12
392.16	332.36
392.36	351.08
392.55	402.57
392.75	390.87
392.94	330.02
393.13	372.15
393.33	379.17
393.52	365.12
393.71	400.23
393.91	449.38
394.10	407.25
394.29	421.30
394.49	365.12
394.68	353.42
394.88	360.44
395.07	395.55
395.26	416.62
395.46	409.59
395.65	454.06
395.84	423.64
396.04	538.32
396.23	407.25
396.42	447.04
396.62	479.81
396.81	472.79
397.00	388.53
397.19	449.38
397.39	454.06
397.58	533.64
397.77	463.43
397.97	505.56
398.16	507.90
398.35	444.70
398.55	491.51
398.74	479.81
398.93	648.33
399.12	482.15
399.32	564.07
399.51	575.77
399.70	514.92
399.90	489.17
400.09	561.73
400.28	552.37
400.47	571.09
400.67	524.28
400.86	601.52
401.05	624.92
401.24	603.86
401.44	620.24
401.63	664.71
401.82	638.97
402.01	617.90
402.21	702.16
402.40	716.20
402.59	730.25
402.78	627.26
402.97	683.44
403.17	706.84
403.36	660.03
403.55	734.93
403.74	716.20
403.93	657.69
404.13	781.74
404.32	798.12
404.51	784.08
404.70	816.85
404.89	755.99
405.09	702.16
405.28	777.06
405.47	847.27
405.66	847.27
405.85	767.70
406.05	758.33
406.24	772.38
406.43	898.77
406.62	919.83
406.81	938.55
407.00	842.59
407.20	912.81
407.39	880.04
407.58	968.98
407.77	926.85
407.96	896.43
408.15	994.73
408.34	926.85
408.54	1004.09
408.73	992.39
408.92	971.32
409.11	1015.79
409.30	976.00
409.49	1062.60
409.68	1057.92
409.87	1114.10
410.07	1130.48
410.26	1088.35
410.45	1062.60
410.64	1107.07
410.83	1217.08
411.02	1198.35
411.21	1240.48
411.40	1212.40
411.59	1184.31
411.78	1203.04
411.98	1219.42
412.17	1357.51
412.36	1252.19
412.55	1401.98
412.74	1322.40
412.93	1446.45
413.12	1394.96
413.31	1385.60
413.50	1308.36
413.69	1404.32
413.88	1469.86
414.07	1404.32
414.26	1437.09
414.45	1437.09
414.64	1497.94
414.83	1568.16
415.02	1540.07
415.22	1619.65
415.41	1561.14
415.60	1607.95
415.79	1572.84
415.98	1739.02
416.17	1664.12
416.36	1682.85
416.55	1671.14
416.74	1678.16
416.93	1760.08
417.12	1659.44
417.31	1809.23
417.50	1743.70
417.69	1895.83
417.88	1739.02
418.07	1769.44
418.26	1760.08
418.45	1799.87
418.64	1907.54
418.83	1937.96
419.02	1987.11
419.21	2008.18
419.39	1977.75
419.58	1863.07
419.77	1872.43
419.96	2010.52
420.15	2059.67
420.34	1973.07
420.53	2019.88
420.72	2150.95
420.91	2064.35
421.10	2204.78
421.29	2017.54
421.48	2017.54
421.67	2036.27
421.86	2057.33
422.05	2148.61
422.24	2179.04
422.43	2136.91
422.61	2097.12
422.80	2141.59
422.99	2211.81
423.18	2094.78
423.37	2108.82
423.56	2157.97
423.75	2118.18
423.94	2223.51
424.13	2120.53
424.32	2029.24
424.50	2183.72
424.69	2162.66
424.88	2338.20
425.07	2181.38
425.26	2172.02
425.45	2291.38
425.64	2270.32
425.83	2200.10
426.01	2265.64
426.20	2352.24
426.39	2211.81
426.58	2228.19
426.77	2174.36
426.96	2340.54
427.15	2251.60
427.33	2204.78
427.52	2312.45
427.71	2569.91
427.90	2279.68
428.09	2326.49
428.28	2368.62
428.46	2349.90
428.65	2469.27
428.84	2389.69
429.03	2469.27
429.22	2462.24
429.40	2370.96
429.59	2530.12
429.78	2359.26
429.97	2375.64
430.16	2471.61
430.34	2448.20
430.53	2619.06
430.72	2541.82
430.91	2586.29
431.10	2480.97
431.28	2661.19
431.47	2750.13
431.66	2635.44
431.85	2534.80
432.03	2750.13
432.22	2665.87
432.41	2698.64
432.60	2630.76
432.79	2597.99
432.97	2675.23
433.16	2740.77
433.35	2722.04
433.54	2708.00
433.72	2766.51
433.91	2799.28
434.10	2705.66
434.28	2724.38
434.47	2815.66
434.66	2803.96
434.85	2815.66
435.03	2930.35
435.22	2984.18
435.41	3447.61
435.59	3222.92
435.78	3171.43
435.97	3014.61
436.16	3054.40
436.34	2951.42
436.53	3038.02
436.72	3084.83
436.90	2944.39
437.09	2928.01
437.28	3035.67
437.46	3077.80
437.65	2998.23
437.84	3096.53
438.02	3056.74
438.21	3143.34
438.40	2986.52
438.58	3061.42
438.77	3157.38
438.96	3080.14
439.14	3375.05
439.33	3283.77
439.52	3239.30
439.70	3307.18
439.89	3346.97
440.08	3286.11
440.26	3148.02
440.45	3300.16
440.63	3274.41
440.82	3346.97
441.01	3318.88
441.19	3435.91
441.38	3475.70
441.57	3473.36
441.75	3407.82
441.94	3705.07
442.12	3637.19
442.31	3686.34
442.50	3534.21
442.68	3543.57
442.87	3735.50
443.05	3789.33
443.24	3791.67
443.43	3733.15
443.61	3632.51
443.80	3929.76
443.98	3719.11
444.17	3653.58
444.35	3847.84
444.54	3904.01
444.73	3932.10
444.91	3765.92
445.10	3695.71
445.28	3782.31
445.47	3812.73
445.65	3852.52
445.84	3786.99
446.02	3688.68
446.21	3794.01
446.39	3857.20
446.58	3840.82
446.77	3784.65
446.95	3700.39
447.14	3974.23
447.32	3950.82
447.51	3786.99
447.69	3868.91
447.88	3901.67
448.06	3812.73
448.25	3847.84
448.43	3995.29
448.62	3946.14
448.80	3875.93
448.99	3941.46
449.17	3871.25
449.36	3899.33
449.54	3953.16
449.73	4032.74
449.91	4124.02
450.10	4074.87
450.28	4147.43
450.46	4166.15
450.65	4051.47
450.83	4177.86
451.02	4140.41
451.20	4175.52
451.39	4091.26
451.57	4088.92
451.76	4114.66
451.94	4023.38
452.13	4259.78
452.31	4156.79
452.49	4184.88
452.68	4173.18
452.86	4248.07
453.05	4306.59
453.23	4287.86
453.42	4322.97
453.60	4227.01
453.78	4329.99
453.97	4278.50
454.15	4285.52
454.34	4119.34
454.52	4390.84
454.70	4407.23
454.89	4348.72
455.07	4348.72
455.26	4440.00
455.44	4463.40
455.62	4404.89
455.81	4344.03
455.99	4477.44
456.17	4507.87
456.36	4601.49
456.54	4713.84
456.73	4723.20
456.91	4723.20
457.09	4594.47
457.28	4791.08
457.46	4557.02
457.64	4737.24
457.83	4594.47
458.01	4587.45
458.19	4840.23
458.38	4585.11
458.56	4856.61
458.74	4807.46
458.93	4816.82
459.11	4819.16
459.29	4849.59
459.48	4847.25
459.66	5029.81
459.84	4896.40
460.03	5011.09
460.21	4908.10
460.39	4950.23
460.57	4922.15
460.76	4985.34
460.94	5018.11
461.12	4887.04
461.31	5083.64
461.49	5006.41
461.67	4957.25
461.85	5277.91
462.04	5125.77
462.22	5380.89
462.40	5172.58
462.59	5214.71
462.77	5036.83
462.95	5195.99
463.13	5233.44
463.32	5303.65
463.50	5284.93
463.68	5266.21
463.86	5357.49
464.05	5167.90
464.23	5268.55
464.41	5437.06
464.59	5191.31
464.78	5313.02
464.96	5334.08
465.14	5308.34
465.32	5439.40
465.50	5451.11
465.69	5432.38
465.87	5380.89
466.05	5465.15
466.23	5378.55
466.41	5483.88
466.60	5556.43
466.78	5486.22
466.96	5362.17
467.14	5275.57
467.32	5518.98
467.51	5488.56
467.69	5427.70
467.87	5657.07
468.05	5572.82
468.23	5533.03
468.41	5507.28
468.60	5743.67
468.78	5668.78
468.96	5621.97
469.14	5706.23
469.32	5888.79
469.50	5617.29
469.69	5790.49
469.87	5902.83
470.05	5846.66
470.23	5799.85
470.41	5731.97
470.59	5921.56
470.77	5783.46
470.95	5891.13
471.14	5994.11
471.32	5858.36
471.50	6078.37
471.68	6129.86
471.86	6085.39
472.04	6094.76
472.22	6300.72
472.40	5905.17
472.58	6164.97
472.77	6260.93
472.95	6335.83
473.13	6609.67
473.31	6232.85
473.49	6228.17
473.67	6352.21
473.85	6200.08
474.03	6457.54
474.21	6392.00
474.39	6392.00
474.57	6654.14
474.75	6717.34
474.93	6595.63
475.12	6684.57
475.30	6434.13
475.48	6593.29
475.66	6523.07
475.84	6736.06
476.02	6932.67
476.20	6939.69
476.38	6927.99
476.56	7133.95
476.74	6930.33
476.92	6839.05
477.10	6958.41
477.28	7199.49
477.46	7110.55
477.64	7288.43
477.82	7248.64
478.00	7623.12
478.18	7578.65
478.36	7375.03
478.54	7569.29
478.72	7653.55
478.90	7644.19
479.08	7791.64
479.26	7908.67
479.44	7985.91
479.62	7873.56
479.80	7878.24
479.98	7859.52
480.16	8009.31
480.34	8116.98
480.52	8191.88
480.70	8152.09
480.88	8140.38
481.06	8208.26
481.24	8367.42
481.41	8400.18
481.59	8489.12
481.77	8489.12
481.95	8674.03
482.13	8685.73
482.31	8943.19
482.49	8748.92
482.67	8896.38
482.85	8994.68
483.03	9228.73
483.21	9312.99
483.39	9207.67
483.57	9013.40
483.74	9137.45
483.92	9275.54
484.10	9327.03
484.28	9427.68
484.46	9577.47
484.64	9977.70
484.82	9661.73
485.00	9638.33
485.18	9806.84
485.35	10010.47
485.53	10078.35
485.71	10015.15
485.89	10143.88
486.07	10303.04
486.25	10221.12
486.43	10441.13
486.61	10462.19
486.78	10492.62
486.96	10569.86
487.14	10754.76
487.32	10923.28
487.50	10771.15
487.68	10998.18
487.85	10871.79
488.03	11257.98
488.21	11229.89
488.39	11300.11
488.57	11391.39
488.75	11363.30
488.92	11646.51
489.10	11613.74
489.28	11777.58
489.46	11796.30
489.64	11599.70
489.81	12264.41
489.99	11946.09
490.17	12301.86
490.35	12140.36
490.53	12070.14
490.70	12304.20
490.88	12568.68
491.06	12348.67
491.24	12552.29
491.41	12634.21
491.59	12765.28
491.77	12908.05
491.95	12849.54
492.13	12877.63
492.30	13013.38
492.48	13041.46
492.66	12882.31
492.84	13172.54
493.01	13043.81
493.19	13104.66
493.37	13362.12
493.54	13415.95
493.72	13645.32
493.90	13535.32
494.08	13764.69
494.25	13858.31
494.43	13853.63
494.61	13928.53
494.79	14235.14
494.96	14139.18
495.14	14019.81
495.32	14321.74
495.49	14288.97
495.67	14235.14
495.85	14366.21
496.02	14740.69
496.20	14665.80
496.38	14658.78
496.55	14565.15
496.73	15234.55
496.91	14885.81
497.09	15002.83
497.26	15248.59
497.44	15218.16
497.62	15089.43
497.79	15360.94
497.97	15030.92
498.14	15468.60
498.32	15669.89
498.50	15463.92
498.67	15459.24
498.85	15747.12
499.03	15990.54
499.20	15836.06
499.38	15756.49
499.56	15800.96
499.73	16236.30
499.91	16318.22
500.08	16287.79
500.26	16404.81
500.44	16353.32
500.61	16299.49
500.79	16156.72
500.97	16191.83
501.14	16460.99
501.32	16758.24
501.49	16847.18
501.67	16648.23
501.84	16751.21
502.02	16868.24
502.20	17151.45
502.37	16882.28
502.55	16741.85
502.72	16865.90
502.90	17221.66
503.07	17015.69
503.25	17198.26
503.43	17198.26
503.60	17102.29
503.78	17219.32
503.95	17628.92
504.13	17713.17
504.30	17572.74
504.48	17446.35
504.65	17830.20
504.83	17989.36
505.01	17731.90
505.18	18038.51
505.36	17706.15
505.53	17790.41
505.71	17905.10
505.88	17771.69
506.06	17907.44
506.23	18118.09
506.41	18221.07
506.58	18368.52
506.76	18331.08
506.93	18333.42
507.11	18312.35
507.28	18504.28
507.46	18242.14
507.63	18562.79
507.81	18434.06
507.98	18698.54
508.16	18637.69
508.33	18785.14
508.50	18754.71
508.68	18731.31
508.85	19066.00
509.03	18932.59
509.20	19129.20
509.38	19199.41
509.55	19449.85
509.73	19494.32
509.90	19634.75
510.08	19136.22
510.25	19302.40
510.42	19578.58
510.60	19796.25
510.77	19700.29
510.95	19824.34
511.12	19737.74
511.30	19779.87
511.47	20154.35
511.64	19997.54
511.82	19917.96
511.99	20072.43
512.17	19946.05
512.34	20283.08
512.51	19873.49
512.69	20692.68
512.86	20320.53
513.04	20526.50
513.21	20552.24
513.38	20664.59
513.56	20788.64
513.73	20690.34
513.90	20739.49
514.08	20514.80
514.25	20917.37
514.43	20872.90
514.60	20739.49
514.77	20959.50
514.95	21085.89
515.12	20751.19
515.29	21270.79
515.47	21123.33
515.64	21535.27
515.81	21109.29
515.99	21191.21
516.16	21425.26
516.33	21390.16
516.51	21731.87
516.68	21233.34
516.85	21298.88
517.03	21476.76
517.20	21443.99
517.37	21497.82
517.54	21771.66
517.72	21617.19
517.89	21647.61
518.06	21682.72
518.24	21771.66
518.41	21830.18
518.58	21968.27
518.75	21820.81
518.93	22150.83
519.10	22153.17
519.27	22228.07
519.45	22260.84
519.62	21766.98
519.79	22431.69
519.96	22075.93
520.14	22588.51
520.31	22099.34
520.48	22614.26
520.65	22537.02
520.83	22572.13
521.00	22478.50
521.17	22689.15
521.34	22302.96
521.52	22654.05
521.69	22946.61
521.86	23288.33
522.03	22904.48
522.20	23166.62
522.38	22911.50
522.55	22960.66
522.72	22838.95
522.89	22955.97
523.07	23285.99
523.24	23183.01
523.41	23520.04
523.58	23175.98
523.75	23484.94
523.92	23480.25
524.10	23524.72
524.27	23377.27
524.44	23672.18
524.61	23922.62
524.78	23307.05
524.96	23601.96
525.13	23718.99
525.30	23733.03
525.47	23943.68
525.64	23370.25
525.81	24072.41
525.98	24261.99
526.16	23946.02
526.33	24049.00
526.50	24006.87
526.67	23700.26
526.84	23967.09
527.01	23864.10
527.18	24308.80
527.36	24046.66
527.53	24269.01
527.70	24823.72
527.87	24552.22
528.04	24353.27
528.21	24374.34
528.38	24449.24
528.55	24673.93
528.72	24636.48
528.89	24620.10
529.07	24357.96
529.24	25025.01
529.41	24940.75
529.58	24903.30
529.75	24711.38
529.92	25034.37
530.09	24814.36
530.26	25034.37
530.43	24952.45
530.60	24615.41
530.77	25050.75
530.94	25050.75
531.11	24608.39
531.28	24760.53
531.46	25277.79
531.63	25572.69
531.80	25177.14
531.97	25378.43
532.14	25357.36
532.31	25170.12
532.48	25862.92
532.65	25458.01
532.82	25207.57
532.99	25668.66
533.16	25268.42
533.33	25474.39
533.50	25539.93
533.67	25851.22
533.84	25479.07
534.01	25841.85
534.18	25687.38
534.35	25539.93
534.52	25504.82
534.69	25757.60
534.86	25839.51
535.03	25773.98
535.20	25823.13
535.37	26064.21
535.54	26015.05
535.71	25731.85
535.88	26487.84
536.05	25930.80
536.22	26059.52
536.38	26408.26
536.55	26192.94
536.72	26546.36
536.89	26101.65
537.06	26061.87
537.23	26609.55
537.40	26279.54
537.57	26316.98
537.74	26490.18
537.91	26569.76
538.08	26710.19
538.25	26415.29
538.42	26396.56
538.59	26558.06
538.75	26221.02
538.92	26548.70
539.09	26630.62
539.26	27037.87
539.43	26904.46
539.60	27220.43
539.77	26691.47
539.94	27360.86
540.11	26955.95
540.28	27094.04
540.44	27152.55
540.61	27115.11
540.78	27101.06
540.95	27292.99
541.12	27468.53
541.29	27419.38
541.46	27810.25
541.62	27615.98
541.79	27564.49
541.96	27356.18
542.13	27725.99
542.30	27402.99
542.47	27454.48
542.63	27929.61
542.80	27674.49
542.97	27889.82
543.14	28318.14
543.31	27917.91
543.48	27803.22
543.64	28189.41
543.81	28130.90
543.98	28229.20
544.15	27995.15
544.32	28465.60
544.48	28168.35
544.65	28105.15
544.82	28025.57
544.99	28168.35
545.16	27964.72
545.32	28371.97
545.49	28561.56
545.66	29247.33
545.83	29249.67
546.00	29282.44
546.16	29160.73
546.33	28676.24
546.50	28360.27
546.67	28077.07
546.83	28158.99
547.00	28350.91
547.17	28486.66
547.34	28477.30
547.50	28622.41
547.67	28643.48
547.84	28694.97
548.00	28261.97
548.17	28606.03
548.34	28432.83
548.51	28664.54
548.67	28762.84
548.84	28432.83
549.01	28491.34
549.18	28563.90
549.34	28299.42
549.51	28601.35
549.68	28830.72
549.84	28814.34
550.01	28776.89
550.18	28748.80
550.34	28659.86
550.51	29008.60
550.68	28863.49
550.84	29013.28
551.01	28479.64
551.18	28804.97
551.34	28451.55
551.51	28437.51
551.68	28891.57
551.84	28907.96
552.01	28577.94
552.18	28844.76
552.34	29027.32
552.51	28870.51
552.68	28886.89
552.84	28800.29
553.01	28943.06
553.18	29032.00
553.34	28996.90
553.51	29207.55
553.67	28945.41
553.84	29362.02
554.01	29053.07
554.17	29050.73
554.34	29013.28
554.51	28914.98
554.67	29172.44
554.84	29237.97
555.00	29214.57
555.17	29289.46
555.33	29439.26
555.50	29413.51
555.67	28912.64
555.83	28748.80
556.00	29001.58
556.16	29687.36
556.33	29123.29
556.50	29486.07
556.66	29544.58
556.83	29502.45
556.99	29876.94
557.16	29617.14
557.32	29521.18
557.49	29572.67
557.65	29263.72
557.82	29195.84
557.98	29092.86
558.15	29326.91
558.32	29436.92
558.48	29680.33
558.65	29565.65
558.81	29237.97
558.98	29502.45
559.14	29490.75
559.31	29378.40
559.47	29523.52
559.64	29385.43
559.80	29930.77
559.97	29469.69
560.13	29645.23
560.30	30031.41
560.46	29844.17
560.63	29619.48
560.79	29984.60
560.96	29797.36
561.12	29560.97
561.29	29663.95
561.45	29467.34
561.61	30017.37
561.78	29830.13
561.94	29701.40
562.11	29930.77
562.27	29788.00
562.44	29951.84
562.60	29677.99
562.77	29813.74
562.93	29912.05
563.10	29972.90
563.26	29813.74
563.42	30066.52
563.59	29865.24
563.75	29820.77
563.92	29907.37
564.08	29858.21
564.24	29743.53
564.41	29813.74
564.57	29528.20
564.74	29797.36
564.90	29792.68
565.07	29872.26
565.23	29947.15
565.39	29696.72
565.56	30094.61
565.72	29607.78
565.88	29914.39
566.05	29640.54
566.21	29670.97
566.38	29890.98
566.54	30122.69
566.70	29993.97
566.87	30157.80
567.03	30118.01
567.19	30319.30
567.36	29750.55
567.52	30202.27
567.68	30181.21
567.85	30127.38
568.01	30300.58
568.17	30010.35
568.34	29998.65
568.50	30199.93
568.66	30221.00
568.83	30143.76
568.99	29951.84
569.15	29855.87
569.32	29762.25
569.48	30118.01
569.64	29893.32
569.81	29818.42
569.97	29720.12
570.13	30363.77
570.30	30092.27
570.46	30183.55
570.62	30422.28
570.78	29858.21
570.95	30295.89
571.11	29909.71
571.27	29916.73
571.43	30047.80
571.60	30082.91
571.76	30368.45
571.92	30305.26
572.09	30387.18
572.25	30586.12
572.41	30363.77
572.57	30216.32
572.74	30466.75
572.90	29947.15
573.06	30017.37
573.22	30251.42
573.38	29975.24
573.55	30288.87
573.71	30520.59
573.87	30284.19
574.03	29935.45
574.20	30258.45
574.36	30221.00
574.52	29841.83
574.68	30026.73
574.84	30429.30
575.01	29881.62
575.17	30501.86
575.33	30551.01
575.49	30485.48
575.65	30256.11
575.82	30820.17
575.98	30529.95
576.14	29998.65
576.30	30359.09
576.46	30658.68
576.62	30501.86
576.79	30609.53
576.95	30501.86
577.11	30389.52
577.27	30249.08
577.43	30567.40
577.59	30284.19
577.75	29975.24
577.92	29961.20
578.08	29972.90
578.24	30103.97
578.40	30433.99
578.56	30232.70
578.72	30291.21
578.88	30925.50
579.04	30534.63
579.21	30742.94
579.37	30281.85
579.53	30157.80
579.69	30022.05
579.85	30228.02
580.01	30359.09
580.17	30087.59
580.33	30139.08
580.49	30347.39
580.65	30724.21
580.82	30642.29
580.98	30373.13
581.14	29956.52
581.30	30604.84
581.46	30274.83
581.62	30302.92
581.78	29900.34
581.94	30621.23
582.10	30583.78
582.26	30043.12
582.42	30604.84
582.58	30235.04
582.74	30426.96
582.90	30717.19
583.06	29996.31
583.22	30125.04
583.38	30305.26
583.54	30607.19
583.70	30218.66
583.86	30396.54
584.02	30448.03
584.18	30401.22
584.34	30883.37
584.50	30527.61
584.66	30560.37
584.82	30101.63
584.98	30661.02
585.14	30551.01
585.30	30279.51
585.46	30267.81
585.62	30586.12
585.78	30389.52
585.94	30113.33
586.10	30263.13
586.26	30433.99
586.42	30387.18
586.58	30646.97
586.74	30780.39
586.90	30202.27
587.06	30155.46
587.22	30471.43
587.38	30614.21
587.54	30522.93
587.70	30829.54
587.86	30885.71
588.02	30263.13
588.18	30848.26
588.34	30431.65
588.49	30567.40
588.65	30555.69
588.81	30696.13
588.97	30672.72
589.13	30373.13
589.29	30206.95
589.45	30682.08
589.61	30536.97
589.77	30869.33
589.93	30466.75
590.08	30558.03
590.24	30637.61
590.40	30759.32
590.56	30476.12
590.72	30611.87
590.88	30504.20
591.04	30607.19
591.20	30925.50
591.35	30824.86
591.51	30960.61
591.67	30656.34
591.83	30817.83
