SpectraSuite Data File
++++++++++++++++++++++++++++++++++++
Date: Fri Oct 04 11:39:57 GMT-05:00 2013
User: price-jones
Dark Spectrum Present: No
Reference Spectrum Present: No
Number of Sampled Component Spectra: 1
Spectrometers: USB2+H05261
Integration Time (usec): 100000 (USB2+H05261)
Spectra Averaged: 1 (USB2+H05261)
Boxcar Smoothing: 0 (USB2+H05261)
Correct for Electrical Dark: No (USB2+H05261)
Strobe/Lamp Enabled: No (USB2+H05261)
Correct for Detector Non-linearity: No (USB2+H05261)
Correct for Stray Light: No (USB2+H05261)
Number of Pixels in Processed Spectrum: 2048
>>>>>Begin Processed Spectral Data<<<<<
365.73	88.94
365.92	88.94
366.12	88.94
366.32	0.00
366.52	0.00
366.72	0.00
366.91	0.00
367.11	0.00
367.31	0.00
367.51	0.00
367.70	0.00
367.90	11.70
368.10	0.00
368.30	0.00
368.49	0.00
368.69	0.00
368.89	0.00
369.09	0.00
369.28	0.00
369.48	0.00
369.68	0.00
369.87	0.00
370.07	0.00
370.27	30.43
370.47	65.54
370.66	60.85
370.86	98.30
371.06	88.94
371.25	79.58
371.45	67.88
371.65	53.83
371.84	135.75
372.04	84.26
372.24	98.30
372.44	128.73
372.63	105.32
372.83	77.24
373.03	44.47
373.22	180.22
373.42	72.56
373.62	154.48
373.81	133.41
374.01	156.82
374.21	119.37
374.40	149.79
374.60	189.58
374.79	149.79
374.99	154.48
375.19	187.24
375.38	119.37
375.58	175.54
375.78	105.32
375.97	140.43
376.17	175.54
376.37	126.39
376.56	128.73
376.76	128.73
376.95	128.73
377.15	131.07
377.35	128.73
377.54	140.43
377.74	131.07
377.93	142.77
378.13	191.92
378.33	161.50
378.52	126.39
378.72	124.05
378.91	91.28
379.11	128.73
379.31	65.54
379.50	159.16
379.70	77.24
379.89	98.30
380.09	117.03
380.28	95.96
380.48	100.64
380.68	72.56
380.87	79.58
381.07	147.45
381.26	234.05
381.46	156.82
381.65	70.22
381.85	156.82
382.04	128.73
382.24	121.71
382.43	56.17
382.63	77.24
382.83	126.39
383.02	198.95
383.22	107.66
383.41	95.96
383.61	126.39
383.80	102.98
384.00	84.26
384.19	203.63
384.39	138.09
384.58	98.30
384.78	149.79
384.97	154.48
385.17	117.03
385.36	119.37
385.56	128.73
385.75	37.45
385.95	149.79
386.14	149.79
386.34	114.69
386.53	180.22
386.72	140.43
386.92	168.52
387.11	119.37
387.31	112.35
387.50	100.64
387.70	119.37
387.89	133.41
388.09	124.05
388.28	187.24
388.48	147.45
388.67	191.92
388.86	135.75
389.06	217.67
389.25	142.77
389.45	107.66
389.64	112.35
389.84	149.79
390.03	163.84
390.22	110.01
390.42	182.56
390.61	135.75
390.81	105.32
391.00	95.96
391.19	149.79
391.39	119.37
391.58	140.43
391.78	168.52
391.97	117.03
392.16	152.13
392.36	154.48
392.55	121.71
392.75	98.30
392.94	138.09
393.13	180.22
393.33	110.01
393.52	117.03
393.71	121.71
393.91	208.31
394.10	86.60
394.29	173.20
394.49	117.03
394.68	196.60
394.88	215.33
395.07	140.43
395.26	145.11
395.46	152.13
395.65	135.75
395.84	124.05
396.04	248.10
396.23	110.01
396.42	105.32
396.62	205.97
396.81	133.41
397.00	198.95
397.19	121.71
397.39	215.33
397.58	191.92
397.77	170.86
397.97	117.03
398.16	236.39
398.35	255.12
398.55	163.84
398.74	147.45
398.93	140.43
399.12	194.26
399.32	196.60
399.51	234.05
399.70	170.86
399.90	131.07
400.09	208.31
400.28	257.46
400.47	163.84
400.67	290.23
400.86	138.09
401.05	210.65
401.24	299.59
401.44	208.31
401.63	201.29
401.82	227.03
402.01	159.16
402.21	168.52
402.40	147.45
402.59	248.10
402.78	215.33
402.97	201.29
403.17	222.35
403.36	168.52
403.55	227.03
403.74	255.12
403.93	245.76
404.13	269.16
404.32	311.29
404.51	292.57
404.70	285.55
404.89	271.50
405.09	245.76
405.28	308.95
405.47	217.67
405.66	262.14
405.85	250.44
406.05	224.69
406.24	203.63
406.43	271.50
406.62	306.61
406.81	304.27
407.00	266.82
407.20	222.35
407.39	304.27
407.58	215.33
407.77	236.39
407.96	266.82
408.15	212.99
408.34	234.05
408.54	248.10
408.73	344.06
408.92	276.18
409.11	308.95
409.30	306.61
409.49	290.23
409.68	276.18
409.87	297.25
410.07	201.29
410.26	271.50
410.45	241.08
410.64	290.23
410.83	231.71
411.02	320.65
411.21	294.91
411.40	276.18
411.59	355.76
411.78	315.97
411.98	381.51
412.17	360.44
412.36	332.36
412.55	299.59
412.74	395.55
412.93	430.66
413.12	276.18
413.31	369.80
413.50	315.97
413.69	306.61
413.88	393.21
414.07	383.85
414.26	369.80
414.45	315.97
414.64	397.89
414.83	339.38
415.02	372.15
415.22	294.91
415.41	393.21
415.60	383.85
415.79	400.23
415.98	440.02
416.17	376.83
416.36	332.36
416.55	344.06
416.74	416.62
416.93	442.36
417.12	416.62
417.31	430.66
417.50	425.98
417.69	341.72
417.88	482.15
418.07	400.23
418.26	454.06
418.45	388.53
418.64	468.11
418.83	423.64
419.02	365.12
419.21	451.72
419.39	507.90
419.58	484.49
419.77	423.64
419.96	526.62
420.15	418.96
420.34	468.11
420.53	477.47
420.72	444.70
420.91	428.32
421.10	442.36
421.29	498.53
421.48	449.38
421.67	437.68
421.86	409.59
422.05	470.45
422.24	557.05
422.43	470.45
422.61	526.62
422.80	491.51
422.99	557.05
423.18	442.36
423.37	554.71
423.56	512.58
423.75	528.96
423.94	475.13
424.13	458.74
424.32	421.30
424.50	540.66
424.69	486.83
424.88	573.43
425.07	528.96
425.26	557.05
425.45	510.24
425.64	517.26
425.83	472.79
426.01	550.03
426.20	514.92
426.39	543.00
426.58	566.41
426.77	519.60
426.96	500.87
427.15	545.34
427.33	566.41
427.52	510.24
427.71	510.24
427.90	550.03
428.09	559.39
428.28	500.87
428.46	493.85
428.65	507.90
428.84	638.97
429.03	578.11
429.22	465.77
429.40	606.20
429.59	543.00
429.78	627.26
429.97	442.36
430.16	535.98
430.34	559.39
430.53	552.37
430.72	547.69
430.91	580.45
431.10	524.28
431.28	636.63
431.47	648.33
431.66	571.09
431.85	493.85
432.03	599.18
432.22	725.57
432.41	571.09
432.60	535.98
432.79	641.31
432.97	578.11
433.16	578.11
433.35	543.00
433.54	671.73
433.72	580.45
433.91	526.62
434.10	578.11
434.28	657.69
434.47	636.63
434.66	730.25
434.85	608.54
435.03	695.14
435.22	980.68
435.41	1336.45
435.59	1439.43
435.78	1064.94
435.97	924.51
436.16	720.88
436.34	622.58
436.53	641.31
436.72	667.05
436.90	653.01
437.09	631.94
437.28	620.24
437.46	571.09
437.65	620.24
437.84	683.44
438.02	674.07
438.21	641.31
438.40	638.97
438.58	571.09
438.77	744.29
438.96	662.37
439.14	695.14
439.33	706.84
439.52	617.90
439.70	664.71
439.89	683.44
440.08	669.39
440.26	681.10
440.45	648.33
440.63	755.99
440.82	685.78
441.01	660.03
441.19	709.18
441.38	798.12
441.57	732.59
441.75	713.86
441.94	798.12
442.12	725.57
442.31	840.25
442.50	741.95
442.68	741.95
442.87	709.18
443.05	784.08
443.24	669.39
443.43	767.70
443.61	758.33
443.80	772.38
443.98	741.95
444.17	795.78
444.35	861.32
444.54	802.80
444.73	734.93
444.91	739.61
445.10	695.14
445.28	772.38
445.47	842.59
445.65	798.12
445.84	770.04
446.02	786.42
446.21	746.63
446.39	695.14
446.58	812.17
446.77	814.51
446.95	823.87
447.14	755.99
447.32	866.00
447.51	802.80
447.69	758.33
447.88	863.66
448.06	847.27
448.25	702.16
448.43	746.63
448.62	730.25
448.80	826.21
448.99	847.27
449.17	758.33
449.36	840.25
449.54	828.55
449.73	800.46
449.91	924.51
450.10	826.21
450.28	877.70
450.46	887.06
450.65	788.76
450.83	760.67
451.02	770.04
451.20	861.32
451.39	812.17
451.57	795.78
451.76	819.19
451.94	847.27
452.13	896.43
452.31	901.11
452.49	816.85
452.68	837.91
452.86	819.19
453.05	964.30
453.23	791.10
453.42	884.72
453.60	826.21
453.78	903.45
453.97	833.23
454.15	821.53
454.34	795.78
454.52	840.25
454.70	784.08
454.89	889.40
455.07	875.36
455.26	924.51
455.44	1006.43
455.62	821.53
455.81	849.61
455.99	922.17
456.17	905.79
456.36	924.51
456.54	922.17
456.73	980.68
456.91	863.66
457.09	943.24
457.28	954.94
457.46	926.85
457.64	884.72
457.83	917.49
458.01	887.06
458.19	870.68
458.38	940.90
458.56	919.83
458.74	922.17
458.93	847.27
459.11	1022.81
459.29	863.66
459.48	957.28
459.66	983.02
459.84	978.34
460.03	1086.01
460.21	978.34
460.39	1062.60
460.57	985.37
460.76	905.79
460.94	952.60
461.12	983.02
461.31	992.39
461.49	983.02
461.67	990.05
461.85	1041.54
462.04	1116.44
462.22	1425.39
462.40	1039.20
462.59	987.71
462.77	1020.47
462.95	1053.24
463.13	1053.24
463.32	1064.94
463.50	964.30
463.68	1032.18
463.86	1050.90
464.05	924.51
464.23	1086.01
464.41	1006.43
464.59	971.32
464.78	1081.33
464.96	1020.47
465.14	1086.01
465.32	1022.81
465.50	1071.97
465.69	1064.94
465.87	1027.50
466.05	1020.47
466.23	1034.52
466.41	1015.79
466.60	1071.97
466.78	1041.54
466.96	1135.16
467.14	1057.92
467.32	1011.11
467.51	1095.37
467.69	1095.37
467.87	1158.57
468.05	1078.99
468.23	1078.99
468.41	1160.91
468.60	1032.18
468.78	1151.54
468.96	1104.73
469.14	1107.07
469.32	1041.54
469.50	1130.48
469.69	1060.26
469.87	1123.46
470.05	1116.44
470.23	1090.69
470.41	1067.28
470.59	1132.82
470.77	1069.62
470.95	1156.22
471.14	1186.65
471.32	1163.25
471.50	1144.52
471.68	1231.12
471.86	1165.59
472.04	1184.31
472.22	1217.08
472.40	1181.97
472.58	1125.80
472.77	1114.10
472.95	1114.10
473.13	1172.61
473.31	1118.78
473.49	1095.37
473.67	1135.16
473.85	1233.46
474.03	1238.14
474.21	1226.44
474.39	1263.89
474.57	1210.06
474.75	1196.01
474.93	1200.69
475.12	1238.14
475.30	1226.44
475.48	1263.89
475.66	1282.61
475.84	1240.48
476.02	1338.79
476.20	1266.23
476.38	1310.70
476.56	1341.13
476.74	1238.14
476.92	1240.48
477.10	1315.38
477.28	1364.53
477.46	1303.68
477.64	1380.92
477.82	1352.83
478.00	1380.92
478.18	1383.26
478.36	1451.13
478.54	1441.77
478.72	1383.26
478.90	1446.45
479.08	1418.36
479.26	1434.75
479.44	1406.66
479.62	1453.47
479.80	1460.49
479.98	1528.37
480.16	1460.49
480.34	1504.96
480.52	1394.96
480.70	1540.07
480.88	1483.90
481.06	1565.82
481.24	1521.35
481.41	1483.90
481.59	1577.52
481.77	1570.50
481.95	1504.96
482.13	1537.73
482.31	1619.65
482.49	1664.12
482.67	1547.09
482.85	1746.04
483.03	1650.08
483.21	1694.55
483.39	1717.95
483.57	1703.91
483.74	1732.00
483.92	1771.79
484.10	1753.06
484.28	1842.00
484.46	1741.36
484.64	1799.87
484.82	1720.29
485.00	1750.72
485.18	1823.28
485.35	1771.79
485.53	1898.17
485.71	1930.94
485.89	2001.16
486.07	1825.62
486.25	1994.14
486.43	1980.09
486.61	2029.24
486.78	1954.35
486.96	1891.15
487.14	2022.22
487.32	1956.69
487.50	2031.58
487.68	2062.01
487.85	2157.97
488.03	1949.67
488.21	2221.17
488.39	2043.29
488.57	2183.72
488.75	2160.31
488.92	2349.90
489.10	2176.70
489.28	2284.36
489.46	2132.23
489.64	2087.76
489.81	2129.89
489.99	2136.91
490.17	2221.17
490.35	2331.17
490.53	2160.31
490.70	2277.34
490.88	2286.70
491.06	2270.32
491.24	2263.30
491.41	2385.01
491.59	2347.56
491.77	2359.26
491.95	2345.22
492.13	2422.45
492.30	2270.32
492.48	2289.04
492.66	2361.60
492.84	2385.01
493.01	2338.20
493.19	2385.01
493.37	2487.99
493.54	2349.90
493.72	2420.11
493.90	2392.03
494.08	2424.80
494.25	2574.59
494.43	2593.31
494.61	2459.90
494.79	2464.58
494.96	2382.67
495.14	2448.20
495.32	2485.65
495.49	2513.74
495.67	2621.40
495.85	2586.29
496.02	2448.20
496.20	2553.52
496.38	2616.72
496.55	2630.76
496.73	2628.42
496.91	2710.34
497.09	2703.32
497.26	2619.06
497.44	2761.83
497.62	2605.02
497.79	2799.28
497.97	2619.06
498.14	2719.70
498.32	2656.51
498.50	2726.72
498.67	2792.26
498.85	2729.06
499.03	2768.85
499.20	2661.19
499.38	2743.11
499.56	2778.22
499.73	2848.43
499.91	2832.05
500.08	2867.16
500.26	2825.03
500.44	2768.85
500.61	2841.41
500.79	2874.18
500.97	2918.65
501.14	2939.71
501.32	2839.07
501.49	2857.79
501.67	2761.83
501.84	2885.88
502.02	2857.79
502.20	3070.78
502.37	2939.71
502.55	2871.84
502.72	2876.52
502.90	2942.05
503.07	2920.99
503.25	2949.08
503.43	2853.11
503.60	2909.29
503.78	3035.67
503.95	2935.03
504.13	3016.95
504.30	3028.65
504.48	3054.40
504.65	3077.80
504.83	3094.19
505.01	3038.02
505.18	3103.55
505.36	2979.50
505.53	3054.40
505.71	3047.38
505.88	3117.59
506.06	3035.67
506.23	3098.87
506.41	3150.36
506.58	3236.96
506.76	3117.59
506.93	3101.21
507.11	3030.99
507.28	3112.91
507.46	3087.17
507.63	3145.68
507.81	3206.53
507.98	3251.00
508.16	3232.28
508.33	3290.79
508.50	3225.26
508.68	3201.85
508.85	3339.94
509.03	3222.92
509.20	3148.02
509.38	3225.26
509.55	3414.84
509.73	3236.96
509.90	3190.15
510.08	3325.90
510.25	3246.32
510.42	3272.07
510.60	3222.92
510.77	3349.31
510.95	3356.33
511.12	3337.60
511.30	3445.27
511.47	3337.60
511.64	3471.01
511.82	3353.99
511.99	3398.46
512.17	3342.28
512.34	3370.37
512.51	3309.52
512.69	3522.51
512.86	3541.23
513.04	3407.82
513.21	3520.17
513.38	3426.54
513.56	3487.40
513.73	3414.84
513.90	3527.19
514.08	3356.33
514.25	3431.23
514.43	3471.01
514.60	3520.17
514.77	3517.83
514.95	3463.99
515.12	3466.33
515.29	3625.49
515.47	3571.66
515.64	3499.10
515.81	3644.21
515.99	3548.25
516.16	3604.42
516.33	3620.81
516.51	3576.34
516.68	3494.42
516.85	3644.21
517.03	3597.40
517.20	3660.60
517.37	3686.34
517.54	3620.81
517.72	3735.50
517.89	3618.47
518.06	3721.45
518.24	3623.15
518.41	3805.71
518.58	3714.43
518.75	3616.13
518.93	3791.67
519.10	3646.55
519.27	3789.33
519.45	3730.81
519.62	3747.20
519.79	3676.98
519.96	3737.84
520.14	3599.74
520.31	3709.75
520.48	3758.90
520.65	3686.34
520.83	3911.04
521.00	3861.88
521.17	3765.92
521.34	3726.13
521.52	3782.31
521.69	3794.01
521.86	3866.56
522.03	3847.84
522.20	3840.82
522.38	3798.69
522.55	3875.93
522.72	3822.09
522.89	3791.67
523.07	3887.63
523.24	3864.22
523.41	3887.63
523.58	3829.12
523.75	4021.04
523.92	3978.91
524.10	3906.35
524.27	3955.51
524.44	4009.34
524.61	3927.42
524.78	3969.55
524.96	3962.53
525.13	3978.91
525.30	3957.85
525.47	3911.04
525.64	4070.19
525.81	4063.17
525.98	3936.78
526.16	4124.02
526.33	4067.85
526.50	4086.58
526.67	3964.87
526.84	4021.04
527.01	3974.23
527.18	4133.39
527.36	4138.07
527.53	4056.15
527.70	4100.62
527.87	4009.34
528.04	4035.08
528.21	4002.32
528.38	4135.73
528.55	4109.98
528.72	4222.33
528.89	4196.58
529.07	4173.18
529.24	4037.42
529.41	4112.32
529.58	3999.98
529.75	4025.72
529.92	4100.62
530.09	4067.85
530.26	4180.20
530.43	4177.86
530.60	4290.20
530.77	4159.13
530.94	3997.64
531.11	4070.19
531.28	4065.51
531.46	4180.20
531.63	4065.51
531.80	4086.58
531.97	4180.20
532.14	4299.56
532.31	4280.84
532.48	4168.49
532.65	4205.94
532.82	4189.56
532.99	4180.20
533.16	4358.08
533.33	4273.82
533.50	4339.35
533.67	4315.95
533.84	4257.43
534.01	4248.07
534.18	4294.88
534.35	4360.42
534.52	4243.39
534.69	4414.25
534.86	4376.80
535.03	4269.14
535.20	4210.62
535.37	4421.27
535.54	4308.93
535.71	4222.33
535.88	4386.16
536.05	4341.69
536.22	4447.02
536.38	4472.76
536.55	4369.78
536.72	4545.32
536.89	4484.47
537.06	4367.44
537.23	4493.83
537.40	4461.06
537.57	4491.49
537.74	4280.84
537.91	4496.17
538.08	4613.20
538.25	4451.70
538.42	4486.81
538.59	4547.66
538.75	4540.64
538.92	4521.92
539.09	4622.56
539.26	4430.63
539.43	4709.16
539.60	4737.24
539.77	4697.46
539.94	4641.28
540.11	4667.03
540.28	4781.71
540.44	4873.00
540.61	5050.88
540.78	5022.79
540.95	5041.51
541.12	5203.01
541.29	5315.36
541.46	5411.32
541.62	5322.38
541.79	5287.27
541.96	5334.08
542.13	5369.19
542.30	5359.83
542.47	5301.31
542.63	5179.61
542.80	5188.97
542.97	5327.06
543.14	5263.86
543.31	5163.22
543.48	5418.34
543.64	5355.15
543.81	5348.12
543.98	5371.53
544.15	5345.78
544.32	5245.14
544.48	5476.85
544.65	5235.78
544.82	5249.82
544.99	5114.07
545.16	5217.05
545.32	5284.93
545.49	5724.95
545.66	6541.80
545.83	6946.71
546.00	6555.84
546.16	5853.68
546.33	5526.00
546.50	5343.44
546.67	5142.16
546.83	5027.47
547.00	4812.14
547.17	5029.81
547.34	4961.94
547.50	4882.36
547.67	4961.94
547.84	4966.62
548.00	5034.49
548.17	4938.53
548.34	4908.10
548.51	5027.47
548.67	4961.94
548.84	5022.79
549.01	4980.66
549.18	4954.91
549.34	4835.55
549.51	4938.53
549.68	4865.97
549.84	4844.91
550.01	4821.50
550.18	4788.74
550.34	4950.23
550.51	4896.40
550.68	4924.49
550.84	4723.20
551.01	4954.91
551.18	4931.51
551.34	4863.63
551.51	4760.65
551.68	4781.71
551.84	4894.06
552.01	4765.33
552.18	4753.63
552.34	4858.95
552.51	4774.69
552.68	4786.40
552.84	4926.83
553.01	4800.44
553.18	4816.82
553.34	4828.53
553.51	4739.58
553.67	4709.16
553.84	4922.15
554.01	4875.34
554.17	4788.74
554.34	4809.80
554.51	4861.29
554.67	4980.66
554.84	4856.61
555.00	4713.84
555.17	4847.25
555.33	4805.12
555.50	4863.63
555.67	5006.41
555.83	4905.76
556.00	4779.37
556.16	5064.92
556.33	4903.42
556.50	4877.68
556.66	4793.42
556.83	4713.84
556.99	4835.55
557.16	4896.40
557.32	4788.74
557.49	4741.93
557.65	4772.35
557.82	4833.21
557.98	4849.59
558.15	4741.93
558.32	4779.37
558.48	4690.43
558.65	4727.88
558.81	4844.91
558.98	4821.50
559.14	4882.36
559.31	4837.89
559.47	4894.06
559.64	4828.53
559.80	4936.19
559.97	4676.39
560.13	4868.31
560.30	4816.82
560.46	4809.80
560.63	4791.08
560.79	4887.04
560.96	4753.63
561.12	4723.20
561.29	4868.31
561.45	4755.97
561.61	4760.65
561.78	5022.79
561.94	4887.04
562.11	4807.46
562.27	4861.29
562.44	4758.31
562.60	4830.87
562.77	4802.78
562.93	4887.04
563.10	4819.16
563.26	4863.63
563.42	4947.89
563.59	4802.78
563.75	4840.23
563.92	4858.95
564.08	4788.74
564.24	4917.47
564.41	4748.95
564.57	4777.03
564.74	4713.84
564.90	4830.87
565.07	4863.63
565.23	4791.08
565.39	4725.54
565.56	4842.57
565.72	4662.35
565.88	4744.27
566.05	4641.28
566.21	4784.06
566.38	4922.15
566.54	4863.63
566.70	4753.63
566.87	4978.32
567.03	4777.03
567.19	4947.89
567.36	4959.60
567.52	4842.57
567.68	4781.71
567.85	4699.80
568.01	4807.46
568.17	4833.21
568.34	4835.55
568.50	4933.85
568.66	4713.84
568.83	4751.29
568.99	4896.40
569.15	4884.70
569.32	4882.36
569.48	4877.68
569.64	4760.65
569.81	4837.89
569.97	4774.69
570.13	4826.18
570.30	4875.34
570.46	4772.35
570.62	4720.86
570.78	4753.63
570.95	4840.23
571.11	4903.42
571.27	4788.74
571.43	4781.71
571.60	4908.10
571.76	4711.50
571.92	4905.76
572.09	4945.55
572.25	4887.04
572.41	4877.68
572.57	4910.44
572.74	4873.00
572.90	4990.02
573.06	4912.78
573.22	4957.25
573.38	4929.17
573.55	4908.10
573.71	4910.44
573.87	4816.82
574.03	4805.12
574.20	4723.20
574.36	4945.55
574.52	4861.29
574.68	4865.97
574.84	4849.59
575.01	4908.10
575.17	4931.51
575.33	4971.30
575.49	4882.36
575.65	4882.36
575.82	4840.23
575.98	4901.08
576.14	4802.78
576.30	4847.25
576.46	5135.14
576.62	5093.01
576.79	5210.03
576.95	5207.69
577.11	5116.41
577.27	4875.34
577.43	4903.42
577.59	5043.85
577.75	4936.19
577.92	4842.57
578.08	4863.63
578.24	4891.72
578.40	5069.60
578.56	5060.24
578.72	5247.48
578.88	5273.23
579.04	5249.82
579.21	5032.15
579.37	4985.34
579.53	4959.60
579.69	5057.90
579.85	4933.85
580.01	5032.15
580.17	5109.39
580.33	5046.20
580.49	5085.98
580.65	4957.25
580.82	4980.66
580.98	4816.82
581.14	5032.15
581.30	5043.85
581.46	4943.21
581.62	5004.07
581.78	4961.94
581.94	5032.15
582.10	5041.51
582.26	4954.91
582.42	4943.21
582.58	5071.94
582.74	5184.29
582.90	4983.00
583.06	4954.91
583.22	4990.02
583.38	4997.04
583.54	4964.28
583.70	5041.51
583.86	4922.15
584.02	4987.68
584.18	5060.24
584.34	5043.85
584.50	5212.37
584.66	4873.00
584.82	4968.96
584.98	4898.74
585.14	4966.62
585.30	5025.13
585.46	4997.04
585.62	5046.20
585.78	4896.40
585.94	4912.78
586.10	4922.15
586.26	5034.49
586.42	5151.52
586.58	5036.83
586.74	5186.63
586.90	4957.25
587.06	5142.16
587.22	5081.30
587.38	5078.96
587.54	5123.43
587.70	4968.96
587.86	5020.45
588.02	4964.28
588.18	5018.11
588.34	5008.75
588.49	4971.30
588.65	4961.94
588.81	4943.21
588.97	5085.98
589.13	4987.68
589.29	4952.57
589.45	4870.65
589.61	5053.22
589.77	4985.34
589.93	4784.06
590.08	4884.70
590.24	4940.87
590.40	4933.85
590.56	5071.94
590.72	4884.70
590.88	4959.60
591.04	4975.98
591.20	4856.61
591.35	5015.77
591.51	5057.90
591.67	4924.49
591.83	5006.41
591.99	4896.40
592.15	4945.55
592.31	5088.32
592.46	5114.07
592.62	4854.27
592.78	5146.84
592.94	5053.22
593.10	4980.66
593.26	5181.95
593.41	5100.03
593.57	5006.41
593.73	4896.40
593.89	5018.11
594.05	4887.04
594.20	4924.49
594.36	4933.85
594.52	4912.78
594.68	4856.61
594.84	4865.97
594.99	4973.64
595.15	4795.76
595.31	4985.34
595.47	5022.79
595.62	4983.00
595.78	4896.40
595.94	5041.51
596.10	4992.36
596.25	4901.08
596.41	4908.10
596.57	5025.13
596.73	5041.51
596.88	4929.17
597.04	4870.65
597.20	4849.59
597.36	4952.57
597.51	5027.47
597.67	4865.97
597.83	4847.25
597.99	4983.00
598.14	4990.02
598.30	5022.79
598.46	5060.24
598.61	4973.64
598.77	4968.96
598.93	4992.36
599.09	5071.94
599.24	4975.98
599.40	4980.66
599.56	5057.90
599.71	4973.64
599.87	5135.14
600.03	5053.22
600.18	4901.08
600.34	4952.57
600.50	5006.41
600.65	4819.16
600.81	5027.47
600.97	4915.12
601.12	5137.48
601.28	4903.42
601.44	4933.85
601.59	4910.44
601.75	4975.98
