SpectraSuite Data File
++++++++++++++++++++++++++++++++++++
Date: Fri Oct 04 11:39:48 GMT-05:00 2013
User: price-jones
Dark Spectrum Present: No
Reference Spectrum Present: No
Number of Sampled Component Spectra: 1
Spectrometers: USB2+H05261
Integration Time (usec): 100000 (USB2+H05261)
Spectra Averaged: 1 (USB2+H05261)
Boxcar Smoothing: 0 (USB2+H05261)
Correct for Electrical Dark: No (USB2+H05261)
Strobe/Lamp Enabled: No (USB2+H05261)
Correct for Detector Non-linearity: No (USB2+H05261)
Correct for Stray Light: No (USB2+H05261)
Number of Pixels in Processed Spectrum: 2048
>>>>>Begin Processed Spectral Data<<<<<
365.73	23.41
365.92	23.41
366.12	23.41
366.32	25.75
366.52	0.00
366.72	0.00
366.91	0.00
367.11	0.00
367.31	0.00
367.51	0.00
367.70	0.00
367.90	0.00
368.10	0.00
368.30	0.00
368.49	0.00
368.69	0.00
368.89	0.00
369.09	0.00
369.28	0.00
369.48	0.00
369.68	21.06
369.87	35.11
370.07	0.00
370.27	39.79
370.47	53.83
370.66	241.08
370.86	283.20
371.06	257.46
371.25	337.04
371.45	351.08
371.65	278.52
371.84	294.91
372.04	348.74
372.24	330.02
372.44	395.55
372.63	341.72
372.83	444.70
373.03	411.93
373.22	313.63
373.42	301.93
373.62	304.27
373.81	327.68
374.01	416.62
374.21	444.70
374.40	463.43
374.60	435.34
374.79	372.15
374.99	435.34
375.19	407.25
375.38	444.70
375.58	433.00
375.78	418.96
375.97	416.62
376.17	517.26
376.37	500.87
376.56	414.27
376.76	444.70
376.95	423.64
377.15	458.74
377.35	442.36
377.54	475.13
377.74	388.53
377.93	437.68
378.13	444.70
378.33	454.06
378.52	435.34
378.72	526.62
378.91	463.43
379.11	379.17
379.31	414.27
379.50	435.34
379.70	500.87
379.89	524.28
380.09	554.71
380.28	493.85
380.48	505.56
380.68	465.77
380.87	491.51
381.07	503.22
381.26	519.60
381.46	524.28
381.65	554.71
381.85	557.05
382.04	557.05
382.24	592.16
382.43	449.38
382.63	479.81
382.83	517.26
383.02	636.63
383.22	629.60
383.41	505.56
383.61	573.43
383.80	503.22
384.00	573.43
384.19	547.69
384.39	566.41
384.58	599.18
384.78	671.73
384.97	667.05
385.17	582.79
385.36	566.41
385.56	608.54
385.75	475.13
385.95	566.41
386.14	610.88
386.34	603.86
386.53	559.39
386.72	550.03
386.92	695.14
387.11	603.86
387.31	613.22
387.50	629.60
387.70	645.99
387.89	685.78
388.09	631.94
388.28	636.63
388.48	655.35
388.67	653.01
388.86	681.10
389.06	697.48
389.25	559.39
389.45	615.56
389.64	645.99
389.84	819.19
390.03	688.12
390.22	720.88
390.42	688.12
390.61	748.97
390.81	692.80
391.00	779.40
391.19	795.78
391.39	805.14
391.58	702.16
391.78	770.04
391.97	793.44
392.16	805.14
392.36	765.36
392.55	788.76
392.75	781.74
392.94	840.25
393.13	816.85
393.33	767.70
393.52	826.21
393.71	739.61
393.91	814.51
394.10	873.02
394.29	894.08
394.49	866.00
394.68	793.44
394.88	802.80
395.07	833.23
395.26	847.27
395.46	847.27
395.65	856.64
395.84	947.92
396.04	947.92
396.23	905.79
396.42	924.51
396.62	950.26
396.81	894.08
397.00	936.21
397.19	929.19
397.39	912.81
397.58	1006.43
397.77	992.39
397.97	954.94
398.16	894.08
398.35	952.60
398.55	954.94
398.74	994.73
398.93	1034.52
399.12	1001.75
399.32	999.41
399.51	976.00
399.70	1118.78
399.90	1032.18
400.09	1064.94
400.28	1069.62
400.47	1090.69
400.67	1076.65
400.86	1146.86
401.05	1086.01
401.24	1165.59
401.44	1121.12
401.63	1158.57
401.82	1151.54
402.01	1186.65
402.21	1174.95
402.40	1163.25
402.59	1224.10
402.78	1170.27
402.97	1160.91
403.17	1137.50
403.36	1268.57
403.55	1259.21
403.74	1317.72
403.93	1233.46
404.13	1348.15
404.32	1385.60
404.51	1188.99
404.70	1331.76
404.89	1315.38
405.09	1416.02
405.28	1336.45
405.47	1394.96
405.66	1401.98
405.85	1387.94
406.05	1462.83
406.24	1411.34
406.43	1411.34
406.62	1469.86
406.81	1549.43
407.00	1427.73
407.20	1434.75
407.39	1509.65
407.58	1584.54
407.77	1570.50
407.96	1540.07
408.15	1537.73
408.34	1509.65
408.54	1556.46
408.73	1612.63
408.92	1666.46
409.11	1547.09
409.30	1664.12
409.49	1675.82
409.68	1666.46
409.87	1687.53
410.07	1682.85
410.26	1692.21
410.45	1778.81
410.64	1746.04
410.83	1717.95
411.02	1739.02
411.21	1877.11
411.40	1863.07
411.59	1928.60
411.78	1755.40
411.98	1795.19
412.17	1916.90
412.36	1907.54
412.55	1947.33
412.74	2080.74
412.93	2069.03
413.12	1928.60
413.31	2106.48
413.50	2050.31
413.69	2097.12
413.88	2136.91
414.07	2073.71
414.26	2153.29
414.45	2136.91
414.64	2263.30
414.83	2181.38
415.02	2214.15
415.22	2356.92
415.41	2392.03
415.60	2293.72
415.79	2263.30
415.98	2382.67
416.17	2380.32
416.36	2415.43
416.55	2321.81
416.74	2459.90
416.93	2469.27
417.12	2415.43
417.31	2387.35
417.50	2551.18
417.69	2605.02
417.88	2665.87
418.07	2427.14
418.26	2518.42
418.45	2569.91
418.64	2548.84
418.83	2780.56
419.02	2679.91
419.21	2586.29
419.39	2651.83
419.58	2703.32
419.77	2675.23
419.96	2752.47
420.15	2820.35
420.34	2768.85
420.53	2810.98
420.72	2836.73
420.91	2773.53
421.10	2815.66
421.29	2841.41
421.48	2810.98
421.67	2928.01
421.86	2747.79
422.05	2942.05
422.24	2937.37
422.43	2871.84
422.61	2860.13
422.80	3070.78
422.99	3023.97
423.18	2984.18
423.37	3002.91
423.56	2986.52
423.75	3016.95
423.94	2963.12
424.13	2862.48
424.32	2869.50
424.50	3033.33
424.69	3070.78
424.88	3187.81
425.07	2920.99
425.26	2937.37
425.45	2930.35
425.64	3030.99
425.83	2986.52
426.01	2970.14
426.20	3115.25
426.39	3133.98
426.58	3094.19
426.77	2960.78
426.96	3136.32
427.15	3206.53
427.33	3204.19
427.52	3150.36
427.71	3211.22
427.90	3232.28
428.09	3227.60
428.28	3300.16
428.46	3183.13
428.65	3241.64
428.84	3400.80
429.03	3412.50
429.22	3304.84
429.40	3337.60
429.59	3452.29
429.78	3349.31
429.97	3199.51
430.16	3241.64
430.34	3358.67
430.53	3386.76
430.72	3576.34
430.91	3503.78
431.10	3435.91
431.28	3590.38
431.47	3552.93
431.66	3599.74
431.85	3534.21
432.03	3606.77
432.22	3758.90
432.41	3618.47
432.60	3669.96
432.79	3527.19
432.97	3644.21
433.16	3660.60
433.35	3634.85
433.54	3571.66
433.72	3803.37
433.91	3686.34
434.10	3826.78
434.28	3707.41
434.47	3822.09
434.66	3894.65
434.85	3854.86
435.03	4074.87
435.22	3906.35
435.41	4318.29
435.59	4212.96
435.78	4100.62
435.97	4060.83
436.16	4042.11
436.34	3941.46
436.53	3939.12
436.72	4147.43
436.90	4018.70
437.09	4112.32
437.28	3983.59
437.46	4198.92
437.65	4002.32
437.84	4077.21
438.02	4107.64
438.21	4152.11
438.40	4028.06
438.58	4264.46
438.77	4322.97
438.96	4173.18
439.14	4269.14
439.33	4170.83
439.52	4269.14
439.70	4484.47
439.89	4566.39
440.08	4512.55
440.26	4411.91
440.45	4547.66
440.63	4601.49
440.82	4461.06
441.01	4601.49
441.19	4594.47
441.38	4690.43
441.57	4664.69
441.75	4643.62
441.94	4809.80
442.12	4800.44
442.31	4922.15
442.50	5013.43
442.68	4837.89
442.87	4894.06
443.05	4807.46
443.24	5060.24
443.43	5153.86
443.61	5022.79
443.80	5153.86
443.98	5081.30
444.17	4788.74
444.35	4917.47
444.54	5322.38
444.73	5088.32
444.91	4980.66
445.10	5029.81
445.28	5111.73
445.47	4889.38
445.65	4959.60
445.84	5107.05
446.02	5116.41
446.21	5083.64
446.39	4964.28
446.58	5198.33
446.77	5107.05
446.95	5205.35
447.14	5064.92
447.32	5301.31
447.51	5179.61
447.69	5275.57
447.88	5116.41
448.06	5259.18
448.25	5186.63
448.43	5188.97
448.62	5317.70
448.80	5137.48
448.99	5453.45
449.17	5235.78
449.36	5259.18
449.54	5411.32
449.73	5542.39
449.91	5568.13
450.10	5502.60
450.28	5584.52
450.46	5516.64
450.65	5530.69
450.83	5483.88
451.02	5586.86
451.20	5582.18
451.39	5533.03
451.57	5652.39
451.76	5352.81
451.94	5509.62
452.13	5713.25
452.31	5708.57
452.49	5537.71
452.68	5748.36
452.86	5582.18
453.05	5738.99
453.23	5893.47
453.42	5668.78
453.60	5640.69
453.78	5797.51
453.97	5638.35
454.15	5774.10
454.34	5769.42
454.52	5837.30
454.70	5771.76
454.89	5907.51
455.07	5764.74
455.26	5989.43
455.44	5996.45
455.62	6200.08
455.81	5994.11
455.99	5959.00
456.17	6064.33
456.36	6073.69
456.54	6125.18
456.73	6179.01
456.91	6267.95
457.09	6380.30
457.28	6225.82
457.46	6293.70
457.64	6375.62
457.83	6307.74
458.01	6253.91
458.19	6450.52
458.38	6670.53
458.56	6366.26
458.74	6525.41
458.93	6569.88
459.11	6689.25
459.29	6658.82
459.48	6530.09
459.66	6504.35
459.84	6609.67
460.03	6829.68
460.21	6707.98
460.39	6658.82
460.57	6619.04
460.76	6567.54
460.94	6822.66
461.12	6736.06
461.31	6733.72
461.49	6815.64
461.67	6707.98
461.85	6899.90
462.04	6937.35
462.22	7475.67
462.40	6951.39
462.59	7023.95
462.77	7000.54
462.95	6984.16
463.13	7117.57
463.32	7171.40
463.50	7162.04
463.68	7000.54
463.86	6939.69
464.05	7012.24
464.23	7115.23
464.41	7253.32
464.59	7108.21
464.78	7365.67
464.96	7066.08
465.14	7246.30
465.32	7300.13
465.50	7363.33
465.69	7332.90
465.87	7370.35
466.05	7293.11
466.23	7321.20
466.41	7449.93
466.60	7363.33
466.78	7419.50
466.96	7440.56
467.14	7499.08
467.32	7541.21
467.51	7644.19
467.69	7314.17
467.87	7506.10
468.05	7583.34
468.23	7588.02
468.41	7473.33
468.60	7431.20
468.78	7815.05
468.96	7578.65
469.14	7653.55
469.32	7819.73
469.50	7801.01
469.69	7955.48
469.87	8006.97
470.05	7798.66
470.23	7922.71
470.41	7976.55
470.59	7882.92
470.77	7824.41
470.95	7985.91
471.14	8065.49
471.32	7761.22
471.50	8315.92
471.68	8248.05
471.86	8180.17
472.04	8093.57
472.22	8348.69
472.40	8201.24
472.58	8336.99
472.77	8374.44
472.95	8262.09
473.13	8814.46
473.31	8491.46
473.49	8610.83
473.67	8421.25
473.85	8470.40
474.03	8765.31
474.21	8772.33
474.39	8985.32
474.57	8922.12
474.75	8952.55
474.93	9078.94
475.12	9121.07
475.30	9057.87
475.48	9085.96
475.66	9142.13
475.84	8887.01
476.02	9217.03
476.20	9137.45
476.38	9535.34
476.56	9626.62
476.74	9418.32
476.92	9593.86
477.10	9593.86
477.28	9680.46
477.46	9624.28
477.64	9776.42
477.82	9963.66
478.00	10148.56
478.18	10132.18
478.36	10289.00
478.54	10274.95
478.72	10258.57
478.90	10494.96
479.08	10754.76
479.26	10621.35
479.44	10366.23
479.62	10813.28
479.80	11054.35
479.98	10764.12
480.16	11096.48
480.34	10857.75
480.52	11070.73
480.70	10949.03
480.88	11080.10
481.06	11386.71
481.24	11084.78
481.41	11335.21
481.59	11679.27
481.77	11782.26
481.95	11831.41
482.13	11751.83
482.31	11779.92
482.49	11936.73
482.67	11885.24
482.85	12262.07
483.03	12463.35
483.21	12322.92
483.39	12451.65
483.57	12603.78
483.74	12828.48
483.92	12835.50
484.10	13036.78
484.28	13004.02
484.46	13266.16
484.64	13383.18
484.82	13153.81
485.00	13025.08
485.18	13727.24
485.35	13802.14
485.53	13525.96
485.71	13752.99
485.89	13958.96
486.07	13954.27
486.25	13980.02
486.43	14228.12
486.61	14314.72
486.78	14485.58
486.96	14583.88
487.14	14728.99
487.32	14785.16
487.50	14899.85
487.68	15063.69
487.85	14963.04
488.03	15398.38
488.21	15697.97
488.39	15290.72
488.57	15690.95
488.75	15669.89
488.92	16065.44
489.10	15723.72
489.28	16278.43
489.46	16175.44
489.64	16446.94
489.81	16751.21
489.99	16332.26
490.17	16510.14
490.35	16760.58
490.53	17050.80
490.70	16893.99
490.88	16884.62
491.06	17305.92
491.24	17085.91
491.41	17076.55
491.59	17444.01
491.77	17603.17
491.95	17692.11
492.13	17811.48
492.30	17905.10
492.48	17717.86
492.66	18038.51
492.84	18415.34
493.01	18431.72
493.19	18288.95
493.37	18443.42
493.54	18707.90
493.72	18677.48
493.90	18810.89
494.08	18888.12
494.25	19122.18
494.43	19339.85
494.61	19424.11
494.79	19545.81
494.96	19534.11
495.14	19747.10
495.32	19707.31
495.49	19711.99
495.67	19976.47
495.85	20147.33
496.02	20332.23
496.20	20137.97
496.38	20479.69
496.55	20210.53
496.73	20786.30
496.91	20912.69
497.09	20973.54
497.26	20849.49
497.44	20915.03
497.62	20875.24
497.79	21390.16
497.97	21156.10
498.14	21701.45
498.32	21535.27
498.50	21493.14
498.67	21867.63
498.85	21818.47
499.03	21792.73
499.20	22038.48
499.38	22036.14
499.56	21806.77
499.73	22272.54
499.91	21940.18
500.08	22600.21
500.26	22274.88
500.44	22530.00
500.61	22560.42
500.79	22726.60
500.97	22885.76
501.14	23239.18
501.32	23021.51
501.49	23250.88
501.67	22787.46
501.84	23314.08
502.02	23433.44
502.20	23290.67
502.37	23538.77
502.55	23344.50
502.72	23838.36
502.90	23550.47
503.07	23388.97
503.25	23836.02
503.43	24009.22
503.60	24161.35
503.78	24173.05
503.95	24266.67
504.13	24233.91
504.30	23798.57
504.48	24315.83
504.65	24671.59
504.83	24730.10
505.01	24739.46
505.18	24479.66
505.36	25245.02
505.53	24910.32
505.71	24793.29
505.88	24861.17
506.06	24943.09
506.23	25280.13
506.41	24856.49
506.58	25551.63
506.76	25254.38
506.93	25184.16
507.11	25357.36
507.28	25387.79
507.46	25736.53
507.63	26101.65
507.81	25909.73
507.98	25809.09
508.16	26059.52
508.33	25570.35
508.50	26038.46
508.68	26431.67
508.85	26644.66
509.03	26560.40
509.20	26094.63
509.38	26728.92
509.55	26607.21
509.73	27009.78
509.90	27098.72
510.08	26707.85
510.25	27040.21
510.42	27154.90
510.60	26951.27
510.77	27555.13
510.95	27758.75
511.12	27260.22
511.30	27367.88
511.47	27119.79
511.64	27550.45
511.82	27955.36
511.99	27604.28
512.17	28292.40
512.34	27880.46
512.51	28257.29
512.69	28137.92
512.86	28198.77
513.04	28376.66
513.21	28367.29
513.38	28496.02
513.56	28594.32
513.73	28683.27
513.90	28566.24
514.08	28397.72
514.25	28961.79
514.43	28376.66
514.60	29060.09
514.77	28772.21
514.95	28835.40
515.12	28709.01
515.29	28849.44
515.47	29090.52
515.64	29469.69
515.81	29270.74
515.99	29436.92
516.16	29848.85
516.33	29619.48
516.51	29720.12
516.68	29921.41
516.85	29689.70
517.03	29949.50
517.20	30038.44
517.37	29837.15
517.54	29816.08
517.72	29675.65
517.89	29694.38
518.06	30155.46
518.24	29986.94
518.41	30071.20
518.58	30689.10
518.75	30398.88
518.93	30682.08
519.10	30614.21
519.27	30478.46
519.45	30410.58
519.62	30520.59
519.79	30808.47
519.96	31012.10
520.14	31037.84
520.31	30960.61
520.48	31232.11
520.65	31040.18
520.83	31079.97
521.00	31211.04
521.17	31421.69
521.34	31351.48
521.52	31761.07
521.69	31281.26
521.86	31271.90
522.03	31665.11
522.20	32020.87
522.38	31625.32
522.55	31665.11
522.72	31845.33
522.89	32044.27
523.07	32666.86
523.24	32388.33
523.41	32390.67
523.58	31948.31
523.75	32173.00
523.92	32023.21
524.10	32077.04
524.27	32985.17
524.44	32425.78
524.61	32753.46
524.78	32826.01
524.96	32957.08
525.13	33071.77
525.30	32685.58
525.47	32479.61
525.64	32919.63
525.81	32760.48
525.98	33097.52
526.16	33057.73
526.33	33270.72
526.50	33319.87
526.67	33305.82
526.84	33483.70
527.01	33441.57
527.18	33507.11
527.36	33661.58
527.53	33530.51
527.70	34071.18
527.87	34024.37
528.04	33649.88
528.21	33560.94
528.38	33855.85
528.55	34431.62
528.72	34366.09
528.89	34352.04
529.07	34195.23
529.24	33958.83
529.41	34075.86
529.58	33867.55
529.75	34024.37
529.92	34239.70
530.09	34246.72
530.26	34747.59
530.43	34588.44
530.60	34569.71
530.77	34267.78
530.94	34958.24
531.11	34541.63
531.28	34307.57
531.46	34532.26
531.63	34979.31
531.80	34976.97
531.97	35012.07
532.14	34981.65
532.31	34883.34
532.48	35316.34
532.65	35110.38
532.82	34878.66
532.99	35213.36
533.16	34958.24
533.33	35365.49
533.50	35592.53
533.67	35608.91
533.84	35335.07
534.01	36048.93
534.18	35318.68
534.35	35683.81
534.52	35604.23
534.69	35861.69
534.86	35812.54
535.03	35920.20
535.20	36231.49
535.37	35910.84
535.54	35978.72
535.71	35732.96
535.88	36100.42
536.05	35990.42
536.22	36273.62
536.38	36208.09
536.55	36161.28
536.72	36320.43
536.89	35978.72
537.06	35908.50
537.23	36224.47
537.40	35894.46
537.57	36971.10
537.74	36692.58
537.91	36676.19
538.08	36563.85
538.25	36528.74
538.42	36935.99
538.59	36727.69
538.75	36889.18
538.92	37191.11
539.09	36999.19
539.26	37291.76
539.43	37165.37
539.60	37242.60
539.77	37207.50
539.94	37743.48
540.11	37453.25
540.28	37745.82
540.44	37420.48
540.61	37345.59
540.78	37305.80
540.95	37408.78
541.12	37928.38
541.29	37642.84
541.46	37738.80
541.62	37769.22
541.79	38270.10
541.96	37397.08
542.13	37928.38
542.30	38298.19
542.47	38253.72
542.63	38349.68
542.80	38873.96
542.97	38749.91
543.14	38965.24
543.31	38700.76
543.48	38506.49
543.64	38995.67
543.81	38862.26
543.98	38801.40
544.15	39056.52
544.32	38710.12
544.48	39199.29
544.65	39021.41
544.82	38670.33
544.99	38487.77
545.16	38866.94
545.32	39161.84
545.49	39222.70
545.66	40278.28
545.83	39955.29
546.00	40037.20
546.16	39580.80
546.33	39531.65
546.50	39075.24
546.67	38660.97
546.83	38333.29
547.00	39206.31
547.17	39318.66
547.34	39271.85
547.50	39634.63
547.67	39288.23
547.84	39335.04
548.00	39098.65
548.17	39440.37
548.34	39487.18
548.51	39873.37
548.67	39941.24
548.84	39718.89
549.01	39189.93
549.18	39831.24
549.34	39559.73
549.51	39683.78
549.68	39688.46
549.84	40088.70
550.01	39646.33
550.18	39515.26
550.34	39999.76
550.51	40081.67
550.68	39885.07
550.84	39620.59
551.01	40088.70
551.18	39882.73
551.34	39723.57
551.51	39615.91
551.68	39997.41
551.84	40076.99
552.01	39941.24
552.18	40315.73
552.34	40128.48
552.51	40552.12
552.68	39945.92
552.84	40247.85
553.01	40631.70
553.18	40341.47
553.34	40287.64
553.51	40744.05
553.67	40107.42
553.84	40910.22
554.01	40713.62
554.17	40666.81
554.34	40432.75
554.51	40318.07
554.67	40500.63
554.84	40900.86
555.00	40685.53
555.17	40484.25
555.33	40816.60
555.50	40802.56
555.67	40690.21
555.83	40687.87
556.00	40514.67
556.16	40938.31
556.33	40657.45
556.50	40701.92
556.66	40978.10
556.83	40917.25
556.99	41003.85
557.16	40912.56
557.32	41383.01
557.49	41476.63
557.65	41249.60
557.82	40825.96
557.98	41001.50
558.15	41036.61
558.32	41099.81
558.48	41034.27
558.65	40889.16
558.81	41216.83
558.98	41722.39
559.14	41340.88
559.31	41254.28
559.47	41570.25
559.64	41624.09
559.80	41523.44
559.97	41741.11
560.13	41118.53
560.30	41713.03
560.46	41247.26
560.63	41874.52
560.79	41717.71
560.96	41439.18
561.12	41567.91
561.29	41205.13
561.45	41298.75
561.61	41598.34
561.78	41993.89
561.94	41462.59
562.11	41635.79
562.27	41813.67
562.44	41249.60
562.60	41560.89
562.77	41701.32
562.93	41621.75
563.10	41717.71
563.26	41720.05
563.42	42155.39
563.59	41797.29
563.75	41844.10
563.92	42103.90
564.08	41923.68
564.24	41794.95
564.41	41521.10
564.57	41830.05
564.74	41778.56
564.90	41624.09
565.07	41827.71
565.23	42223.26
565.39	42536.90
565.56	42309.86
565.72	42019.64
565.88	42120.28
566.05	41816.01
566.21	41703.67
566.38	41982.19
566.54	41661.54
566.70	42335.61
566.87	42424.55
567.03	42075.81
567.19	42403.49
567.36	42621.16
567.52	42146.03
567.68	42410.51
567.85	42113.26
568.01	42085.17
568.17	42169.43
568.34	42146.03
568.50	42059.43
568.66	42513.49
568.83	42522.85
568.99	42630.52
569.15	42216.24
569.32	41755.16
569.48	42014.96
569.64	42291.14
569.81	42050.06
569.97	42443.27
570.13	42780.31
570.30	42309.86
570.46	42691.37
570.62	42230.29
570.78	42312.20
570.95	42155.39
571.11	42864.57
571.27	42312.20
571.43	42064.11
571.60	42682.01
571.76	42012.62
571.92	42745.20
572.09	42623.50
572.25	42775.63
572.41	42806.06
572.57	42932.45
572.74	42501.79
572.90	42115.60
573.06	42649.24
573.22	42887.98
573.38	42705.41
573.55	42485.40
573.71	42583.71
573.87	42902.02
574.03	42686.69
574.20	42560.30
574.36	42782.65
574.52	42923.08
574.68	42726.48
574.84	43016.71
575.01	42618.81
575.17	43112.67
575.33	42696.05
575.49	42864.57
575.65	42707.76
575.82	43082.24
575.98	42450.30
576.14	42824.78
576.30	42550.94
576.46	42689.03
576.62	42660.94
576.79	43089.26
576.95	42600.09
577.11	42700.73
577.27	42880.95
577.43	43096.28
577.59	42848.19
577.75	42710.10
577.92	42738.18
578.08	42312.20
578.24	42934.79
578.40	42536.90
578.56	42880.95
578.72	42492.43
578.88	43213.31
579.04	43491.83
579.21	43082.24
579.37	42895.00
579.53	42728.82
579.69	42925.42
579.85	42492.43
580.01	42642.22
580.17	42747.54
580.33	43194.59
580.49	43061.18
580.65	43063.52
580.82	43096.28
580.98	42899.68
581.14	42969.90
581.30	43054.15
581.46	42698.39
581.62	42899.68
581.78	42604.77
581.94	42740.52
582.10	42677.33
582.26	42784.99
582.42	42911.38
582.58	42941.81
582.74	43065.86
582.90	43058.84
583.06	42820.10
583.22	42670.31
583.38	42696.05
583.54	43063.52
583.70	42838.83
583.86	42607.11
584.02	43100.97
584.18	43339.70
584.34	43409.92
584.50	43028.41
584.66	42635.20
584.82	42749.88
584.98	42948.83
585.14	43166.50
585.30	42794.36
585.46	43028.41
585.62	42829.46
585.78	42920.74
585.94	42962.87
586.10	43203.95
586.26	43353.74
586.42	43117.35
586.58	43555.03
586.74	42672.65
586.90	42452.64
587.06	43049.47
587.22	43459.07
587.38	42866.91
587.54	43215.65
587.70	43943.56
587.86	43491.83
588.02	43414.60
588.18	43412.26
588.34	42976.92
588.49	42948.83
588.65	43056.50
588.81	43182.88
588.97	43517.58
589.13	42981.60
589.29	42962.87
589.45	43313.95
589.61	43379.49
589.77	43508.22
589.93	43246.08
590.08	43508.22
590.24	43187.56
590.40	43328.00
590.56	43283.53
590.72	43468.43
590.88	43276.51
