SpectraSuite Data File
++++++++++++++++++++++++++++++++++++
Date: Fri Oct 04 11:39:51 GMT-05:00 2013
User: price-jones
Dark Spectrum Present: No
Reference Spectrum Present: No
Number of Sampled Component Spectra: 1
Spectrometers: USB2+H05261
Integration Time (usec): 100000 (USB2+H05261)
Spectra Averaged: 1 (USB2+H05261)
Boxcar Smoothing: 0 (USB2+H05261)
Correct for Electrical Dark: No (USB2+H05261)
Strobe/Lamp Enabled: No (USB2+H05261)
Correct for Detector Non-linearity: No (USB2+H05261)
Correct for Stray Light: No (USB2+H05261)
Number of Pixels in Processed Spectrum: 2048
>>>>>Begin Processed Spectral Data<<<<<
365.73	39.79
365.92	39.79
366.12	39.79
366.32	0.00
366.52	0.00
366.72	0.00
366.91	0.00
367.11	0.00
367.31	0.00
367.51	0.00
367.70	0.00
367.90	7.02
368.10	0.00
368.30	0.00
368.49	0.00
368.69	23.41
368.89	0.00
369.09	0.00
369.28	42.13
369.48	11.70
369.68	0.00
369.87	74.90
370.07	42.13
370.27	74.90
370.47	53.83
370.66	0.00
370.86	21.06
371.06	114.69
371.25	159.16
371.45	49.15
371.65	100.64
371.84	44.47
372.04	37.45
372.24	128.73
372.44	74.90
372.63	74.90
372.83	140.43
373.03	147.45
373.22	105.32
373.42	177.88
373.62	93.62
373.81	166.18
374.01	147.45
374.21	98.30
374.40	135.75
374.60	156.82
374.79	102.98
374.99	142.77
375.19	93.62
375.38	88.94
375.58	100.64
375.78	128.73
375.97	161.50
376.17	112.35
376.37	124.05
376.56	84.26
376.76	140.43
376.95	105.32
377.15	72.56
377.35	81.92
377.54	163.84
377.74	93.62
377.93	77.24
378.13	147.45
378.33	145.11
378.52	131.07
378.72	79.58
378.91	156.82
379.11	112.35
379.31	37.45
379.50	72.56
379.70	126.39
379.89	145.11
380.09	147.45
380.28	152.13
380.48	39.79
380.68	95.96
380.87	67.88
381.07	131.07
381.26	152.13
381.46	84.26
381.65	95.96
381.85	102.98
382.04	152.13
382.24	98.30
382.43	182.56
382.63	81.92
382.83	145.11
383.02	170.86
383.22	107.66
383.41	142.77
383.61	117.03
383.80	53.83
384.00	119.37
384.19	126.39
384.39	91.28
384.58	163.84
384.78	110.01
384.97	208.31
385.17	77.24
385.36	102.98
385.56	159.16
385.75	79.58
385.95	81.92
386.14	79.58
386.34	117.03
386.53	93.62
386.72	131.07
386.92	131.07
387.11	100.64
387.31	152.13
387.50	110.01
387.70	100.64
387.89	128.73
388.09	102.98
388.28	91.28
388.48	152.13
388.67	86.60
388.86	93.62
389.06	88.94
389.25	138.09
389.45	177.88
389.64	133.41
389.84	152.13
390.03	107.66
390.22	121.71
390.42	166.18
390.61	147.45
390.81	25.75
391.00	170.86
391.19	138.09
391.39	180.22
391.58	170.86
391.78	91.28
391.97	102.98
392.16	35.11
392.36	147.45
392.55	100.64
392.75	91.28
392.94	98.30
393.13	135.75
393.33	53.83
393.52	163.84
393.71	72.56
393.91	58.51
394.10	88.94
394.29	138.09
394.49	117.03
394.68	84.26
394.88	173.20
395.07	128.73
395.26	88.94
395.46	53.83
395.65	140.43
395.84	91.28
396.04	234.05
396.23	159.16
396.42	194.26
396.62	128.73
396.81	140.43
397.00	60.85
397.19	119.37
397.39	100.64
397.58	159.16
397.77	131.07
397.97	159.16
398.16	110.01
398.35	142.77
398.55	124.05
398.74	81.92
398.93	210.65
399.12	191.92
399.32	154.48
399.51	84.26
399.70	91.28
399.90	149.79
400.09	142.77
400.28	105.32
400.47	70.22
400.67	131.07
400.86	63.19
401.05	105.32
401.24	184.90
401.44	117.03
401.63	131.07
401.82	177.88
402.01	110.01
402.21	53.83
402.40	110.01
402.59	105.32
402.78	93.62
402.97	112.35
403.17	56.17
403.36	201.29
403.55	107.66
403.74	163.84
403.93	173.20
404.13	301.93
404.32	276.18
404.51	231.71
404.70	133.41
404.89	119.37
405.09	182.56
405.28	128.73
405.47	65.54
405.66	135.75
405.85	156.82
406.05	112.35
406.24	93.62
406.43	117.03
406.62	107.66
406.81	177.88
407.00	131.07
407.20	159.16
407.39	105.32
407.58	72.56
407.77	53.83
407.96	145.11
408.15	140.43
408.34	147.45
408.54	117.03
408.73	175.54
408.92	91.28
409.11	145.11
409.30	138.09
409.49	145.11
409.68	72.56
409.87	161.50
410.07	128.73
410.26	93.62
410.45	177.88
410.64	175.54
410.83	184.90
411.02	124.05
411.21	175.54
411.40	114.69
411.59	166.18
411.78	67.88
411.98	135.75
412.17	100.64
412.36	112.35
412.55	142.77
412.74	161.50
412.93	203.63
413.12	224.69
413.31	168.52
413.50	182.56
413.69	152.13
413.88	159.16
414.07	149.79
414.26	163.84
414.45	180.22
414.64	187.24
414.83	196.60
415.02	187.24
415.22	250.44
415.41	187.24
415.60	110.01
415.79	86.60
415.98	110.01
416.17	147.45
416.36	203.63
416.55	84.26
416.74	161.50
416.93	177.88
417.12	163.84
417.31	140.43
417.50	152.13
417.69	229.37
417.88	124.05
418.07	114.69
418.26	208.31
418.45	126.39
418.64	159.16
418.83	173.20
419.02	163.84
419.21	147.45
419.39	224.69
419.58	138.09
419.77	131.07
419.96	121.71
420.15	266.82
420.34	191.92
420.53	182.56
420.72	117.03
420.91	168.52
421.10	175.54
421.29	135.75
421.48	215.33
421.67	184.90
421.86	212.99
422.05	161.50
422.24	133.41
422.43	184.90
422.61	152.13
422.80	161.50
422.99	95.96
423.18	124.05
423.37	121.71
423.56	128.73
423.75	119.37
423.94	112.35
424.13	147.45
424.32	168.52
424.50	238.73
424.69	191.92
424.88	217.67
425.07	168.52
425.26	184.90
425.45	140.43
425.64	84.26
425.83	203.63
426.01	140.43
426.20	140.43
426.39	138.09
426.58	170.86
426.77	58.51
426.96	161.50
427.15	133.41
427.33	110.01
427.52	107.66
427.71	187.24
427.90	110.01
428.09	215.33
428.28	175.54
428.46	212.99
428.65	229.37
428.84	177.88
429.03	208.31
429.22	138.09
429.40	149.79
429.59	191.92
429.78	245.76
429.97	220.01
430.16	196.60
430.34	135.75
430.53	161.50
430.72	114.69
430.91	201.29
431.10	166.18
431.28	86.60
431.47	126.39
431.66	138.09
431.85	257.46
432.03	238.73
432.22	180.22
432.41	187.24
432.60	110.01
432.79	119.37
432.97	224.69
433.16	227.03
433.35	147.45
433.54	140.43
433.72	163.84
433.91	175.54
434.10	175.54
434.28	142.77
434.47	161.50
434.66	245.76
434.85	180.22
435.03	220.01
435.22	615.56
435.41	1118.78
435.59	1226.44
435.78	924.51
435.97	407.25
436.16	271.50
436.34	168.52
436.53	163.84
436.72	189.58
436.90	262.14
437.09	189.58
437.28	184.90
437.46	173.20
437.65	163.84
437.84	184.90
438.02	194.26
438.21	184.90
438.40	210.65
438.58	145.11
438.77	168.52
438.96	166.18
439.14	91.28
439.33	210.65
439.52	220.01
439.70	175.54
439.89	156.82
440.08	117.03
440.26	227.03
440.45	145.11
440.63	154.48
440.82	243.42
441.01	88.94
441.19	173.20
441.38	154.48
441.57	182.56
441.75	203.63
441.94	189.58
442.12	212.99
442.31	205.97
442.50	217.67
442.68	149.79
442.87	182.56
443.05	156.82
443.24	201.29
443.43	201.29
443.61	168.52
443.80	238.73
443.98	182.56
444.17	142.77
444.35	142.77
444.54	210.65
444.73	198.95
444.91	231.71
445.10	131.07
445.28	166.18
445.47	198.95
445.65	175.54
445.84	93.62
446.02	196.60
446.21	245.76
446.39	147.45
446.58	142.77
446.77	112.35
446.95	135.75
447.14	203.63
447.32	210.65
447.51	163.84
447.69	210.65
447.88	177.88
448.06	257.46
448.25	60.85
448.43	168.52
448.62	205.97
448.80	217.67
448.99	175.54
449.17	145.11
449.36	175.54
449.54	177.88
449.73	243.42
449.91	189.58
450.10	189.58
450.28	194.26
450.46	194.26
450.65	212.99
450.83	220.01
451.02	126.39
451.20	149.79
451.39	156.82
451.57	189.58
451.76	147.45
451.94	159.16
452.13	238.73
452.31	210.65
452.49	266.82
452.68	154.48
452.86	194.26
453.05	201.29
453.23	161.50
453.42	220.01
453.60	135.75
453.78	234.05
453.97	107.66
454.15	91.28
454.34	102.98
454.52	135.75
454.70	210.65
454.89	177.88
455.07	217.67
455.26	177.88
455.44	180.22
455.62	152.13
455.81	184.90
455.99	196.60
456.17	217.67
456.36	105.32
456.54	191.92
456.73	131.07
456.91	215.33
457.09	198.95
457.28	231.71
457.46	210.65
457.64	173.20
457.83	173.20
458.01	161.50
458.19	248.10
458.38	177.88
458.56	159.16
458.74	198.95
458.93	234.05
459.11	245.76
459.29	124.05
459.48	166.18
459.66	250.44
459.84	168.52
460.03	322.99
460.21	215.33
460.39	184.90
460.57	201.29
460.76	173.20
460.94	196.60
461.12	215.33
461.31	243.42
461.49	166.18
461.67	154.48
461.85	168.52
462.04	208.31
462.22	655.35
462.40	191.92
462.59	205.97
462.77	126.39
462.95	222.35
463.13	212.99
463.32	215.33
463.50	208.31
463.68	234.05
463.86	175.54
464.05	224.69
464.23	236.39
464.41	215.33
464.59	166.18
464.78	184.90
464.96	79.58
465.14	198.95
465.32	194.26
465.50	191.92
465.69	191.92
465.87	231.71
466.05	241.08
466.23	135.75
466.41	138.09
466.60	81.92
466.78	177.88
466.96	243.42
467.14	159.16
467.32	236.39
467.51	224.69
467.69	217.67
467.87	241.08
468.05	159.16
468.23	252.78
468.41	222.35
468.60	236.39
468.78	177.88
468.96	229.37
469.14	161.50
469.32	154.48
469.50	212.99
469.69	194.26
469.87	175.54
470.05	217.67
470.23	159.16
470.41	189.58
470.59	201.29
470.77	257.46
470.95	205.97
471.14	255.12
471.32	166.18
471.50	194.26
471.68	177.88
471.86	163.84
472.04	227.03
472.22	241.08
472.40	217.67
472.58	182.56
472.77	177.88
472.95	194.26
473.13	224.69
473.31	191.92
473.49	198.95
473.67	149.79
473.85	224.69
474.03	175.54
474.21	217.67
474.39	220.01
474.57	191.92
474.75	255.12
474.93	236.39
475.12	159.16
475.30	140.43
475.48	114.69
475.66	149.79
475.84	121.71
476.02	152.13
476.20	173.20
476.38	203.63
476.56	285.55
476.74	222.35
476.92	198.95
477.10	177.88
477.28	227.03
477.46	266.82
477.64	238.73
477.82	236.39
478.00	234.05
478.18	222.35
478.36	198.95
478.54	208.31
478.72	191.92
478.90	196.60
479.08	252.78
479.26	126.39
479.44	182.56
479.62	217.67
479.80	241.08
479.98	243.42
480.16	152.13
480.34	177.88
480.52	156.82
480.70	308.95
480.88	245.76
481.06	173.20
481.24	215.33
481.41	262.14
481.59	234.05
481.77	187.24
481.95	259.80
482.13	262.14
482.31	241.08
482.49	238.73
482.67	217.67
482.85	318.31
483.03	299.59
483.21	203.63
483.39	212.99
483.57	248.10
483.74	227.03
483.92	259.80
484.10	234.05
484.28	276.18
484.46	322.99
484.64	287.89
484.82	248.10
485.00	297.25
485.18	264.48
485.35	299.59
485.53	271.50
485.71	311.29
485.89	318.31
486.07	367.46
486.25	381.51
486.43	294.91
486.61	315.97
486.78	383.85
486.96	367.46
487.14	339.38
487.32	339.38
487.50	360.44
487.68	318.31
487.85	285.55
488.03	390.87
488.21	461.09
488.39	311.29
488.57	334.70
488.75	346.40
488.92	645.99
489.10	337.04
489.28	379.17
489.46	313.63
489.64	311.29
489.81	374.49
489.99	315.97
490.17	390.87
490.35	376.83
490.53	322.99
490.70	301.93
490.88	292.57
491.06	374.49
491.24	360.44
491.41	365.12
491.59	313.63
491.77	360.44
491.95	332.36
492.13	285.55
492.30	297.25
492.48	320.65
492.66	304.27
492.84	355.76
493.01	311.29
493.19	257.46
493.37	369.80
493.54	341.72
493.72	299.59
493.90	283.20
494.08	311.29
494.25	283.20
494.43	280.86
494.61	308.95
494.79	297.25
494.96	227.03
495.14	351.08
495.32	337.04
495.49	280.86
495.67	280.86
495.85	262.14
496.02	290.23
496.20	320.65
496.38	360.44
496.55	362.78
496.73	278.52
496.91	337.04
497.09	365.12
497.26	299.59
497.44	276.18
497.62	290.23
497.79	301.93
497.97	355.76
498.14	308.95
498.32	313.63
498.50	346.40
498.67	379.17
498.85	292.57
499.03	299.59
499.20	287.89
499.38	283.20
499.56	255.12
499.73	390.87
499.91	245.76
500.08	315.97
500.26	297.25
500.44	292.57
500.61	285.55
500.79	262.14
500.97	311.29
501.14	306.61
501.32	290.23
501.49	306.61
501.67	262.14
501.84	231.71
502.02	287.89
502.20	259.80
502.37	304.27
502.55	287.89
502.72	250.44
502.90	301.93
503.07	301.93
503.25	294.91
503.43	271.50
503.60	222.35
503.78	250.44
503.95	184.90
504.13	294.91
504.30	287.89
504.48	304.27
504.65	252.78
504.83	238.73
505.01	255.12
505.18	255.12
505.36	280.86
505.53	327.68
505.71	243.42
505.88	320.65
506.06	355.76
506.23	257.46
506.41	306.61
506.58	252.78
506.76	334.70
506.93	322.99
507.11	252.78
507.28	259.80
507.46	220.01
507.63	236.39
507.81	215.33
507.98	257.46
508.16	245.76
508.33	346.40
508.50	311.29
508.68	257.46
508.85	250.44
509.03	217.67
509.20	262.14
509.38	365.12
509.55	327.68
509.73	191.92
509.90	280.86
510.08	271.50
510.25	308.95
510.42	362.78
510.60	264.48
510.77	304.27
510.95	348.74
511.12	358.10
511.30	313.63
511.47	327.68
511.64	283.20
511.82	332.36
511.99	315.97
512.17	313.63
512.34	241.08
512.51	280.86
512.69	255.12
512.86	315.97
513.04	294.91
513.21	285.55
513.38	315.97
513.56	257.46
513.73	257.46
513.90	217.67
514.08	177.88
514.25	238.73
514.43	322.99
514.60	315.97
514.77	290.23
514.95	285.55
515.12	271.50
515.29	248.10
515.47	283.20
515.64	259.80
515.81	330.02
515.99	320.65
516.16	330.02
516.33	287.89
516.51	327.68
516.68	250.44
516.85	297.25
517.03	194.26
517.20	306.61
517.37	318.31
517.54	292.57
517.72	269.16
517.89	266.82
518.06	259.80
518.24	292.57
518.41	304.27
518.58	311.29
518.75	257.46
518.93	351.08
519.10	344.06
519.27	292.57
519.45	341.72
519.62	285.55
519.79	322.99
519.96	248.10
520.14	243.42
520.31	334.70
520.48	362.78
520.65	222.35
520.83	269.16
521.00	318.31
521.17	358.10
521.34	322.99
521.52	299.59
521.69	322.99
521.86	269.16
522.03	402.57
522.20	344.06
522.38	238.73
522.55	266.82
522.72	276.18
522.89	332.36
523.07	276.18
523.24	269.16
523.41	315.97
523.58	327.68
523.75	315.97
523.92	322.99
524.10	287.89
524.27	320.65
524.44	297.25
524.61	325.33
524.78	330.02
524.96	341.72
525.13	308.95
525.30	315.97
525.47	280.86
525.64	355.76
525.81	297.25
525.98	308.95
526.16	250.44
526.33	280.86
526.50	292.57
526.67	208.31
526.84	257.46
527.01	262.14
527.18	348.74
527.36	330.02
527.53	348.74
527.70	374.49
527.87	292.57
528.04	332.36
528.21	278.52
528.38	337.04
528.55	386.19
528.72	325.33
528.89	294.91
529.07	348.74
529.24	180.22
529.41	304.27
529.58	299.59
529.75	292.57
529.92	266.82
530.09	273.84
530.26	330.02
530.43	325.33
530.60	339.38
530.77	306.61
530.94	318.31
531.11	318.31
531.28	372.15
531.46	264.48
531.63	330.02
531.80	330.02
531.97	355.76
532.14	283.20
532.31	283.20
532.48	428.32
532.65	360.44
532.82	334.70
532.99	334.70
533.16	325.33
533.33	360.44
533.50	320.65
533.67	276.18
533.84	341.72
534.01	292.57
534.18	327.68
534.35	297.25
534.52	367.46
534.69	393.21
534.86	306.61
535.03	325.33
535.20	381.51
535.37	442.36
535.54	369.80
535.71	280.86
535.88	358.10
536.05	327.68
536.22	430.66
536.38	355.76
536.55	308.95
536.72	454.06
536.89	449.38
537.06	428.32
537.23	437.68
537.40	451.72
537.57	512.58
537.74	482.15
537.91	468.11
538.08	437.68
538.25	496.19
538.42	524.28
538.59	540.66
538.75	477.47
538.92	510.24
539.09	440.02
539.26	571.09
539.43	559.39
539.60	645.99
539.77	573.43
539.94	660.03
540.11	753.65
540.28	826.21
540.44	884.72
540.61	828.55
540.78	802.80
540.95	1022.81
541.12	1210.06
541.29	1277.93
541.46	1362.19
541.62	1329.42
541.79	1455.81
541.96	1296.66
542.13	1334.11
542.30	1170.27
542.47	1221.76
542.63	1146.86
542.80	1121.12
542.97	1196.01
543.14	1186.65
543.31	1205.38
543.48	1214.74
543.64	1132.82
543.81	1200.69
543.98	1263.89
544.15	1200.69
544.32	1146.86
544.48	1165.59
544.65	1123.46
544.82	1107.07
544.99	1093.03
545.16	1102.39
545.32	1111.75
545.49	1673.48
545.66	2576.93
545.83	3126.96
546.00	2710.34
546.16	1916.90
546.33	1549.43
546.50	1205.38
546.67	905.79
546.83	940.90
547.00	851.96
547.17	800.46
547.34	870.68
547.50	746.63
547.67	746.63
547.84	777.06
548.00	734.93
548.17	777.06
548.34	807.48
548.51	767.70
548.67	772.38
548.84	648.33
549.01	748.97
549.18	650.67
549.34	758.33
549.51	688.12
549.68	617.90
549.84	636.63
550.01	585.13
550.18	662.37
550.34	692.80
550.51	573.43
550.68	641.31
550.84	554.71
551.01	535.98
551.18	533.64
551.34	568.75
551.51	500.87
551.68	521.94
551.84	500.87
552.01	505.56
552.18	568.75
552.34	535.98
552.51	477.47
552.68	514.92
552.84	414.27
553.01	526.62
553.18	498.53
553.34	451.72
553.51	482.15
553.67	496.19
553.84	465.77
554.01	404.91
554.17	395.55
554.34	428.32
554.51	454.06
554.67	383.85
554.84	444.70
555.00	376.83
555.17	383.85
555.33	383.85
555.50	341.72
555.67	344.06
555.83	346.40
556.00	318.31
556.16	461.09
556.33	386.19
556.50	367.46
556.66	332.36
556.83	362.78
556.99	301.93
557.16	311.29
557.32	411.93
557.49	351.08
557.65	278.52
557.82	257.46
557.98	355.76
558.15	297.25
558.32	332.36
558.48	351.08
558.65	337.04
558.81	393.21
558.98	327.68
559.14	351.08
559.31	301.93
559.47	390.87
559.64	358.10
559.80	404.91
559.97	294.91
560.13	325.33
560.30	318.31
560.46	339.38
560.63	341.72
560.79	311.29
560.96	362.78
561.12	229.37
561.29	306.61
561.45	334.70
561.61	348.74
561.78	367.46
561.94	301.93
562.11	351.08
562.27	287.89
562.44	304.27
562.60	311.29
562.77	315.97
562.93	395.55
563.10	318.31
563.26	346.40
563.42	393.21
563.59	273.84
563.75	337.04
563.92	372.15
564.08	383.85
564.24	367.46
564.41	369.80
564.57	278.52
564.74	337.04
564.90	332.36
565.07	283.20
565.23	313.63
565.39	283.20
565.56	393.21
565.72	402.57
565.88	376.83
566.05	386.19
566.21	297.25
566.38	306.61
566.54	280.86
566.70	243.42
566.87	220.01
567.03	250.44
567.19	348.74
567.36	297.25
567.52	262.14
567.68	353.42
567.85	360.44
568.01	325.33
568.17	283.20
568.34	318.31
568.50	353.42
568.66	306.61
568.83	351.08
568.99	341.72
569.15	292.57
569.32	299.59
569.48	327.68
569.64	327.68
569.81	297.25
569.97	313.63
570.13	381.51
570.30	311.29
570.46	255.12
570.62	227.03
570.78	320.65
570.95	241.08
571.11	400.23
571.27	409.59
571.43	271.50
571.60	318.31
571.76	306.61
571.92	283.20
572.09	327.68
572.25	318.31
572.41	355.76
572.57	308.95
572.74	353.42
572.90	325.33
573.06	346.40
573.22	388.53
573.38	402.57
573.55	369.80
573.71	395.55
573.87	318.31
574.03	315.97
574.20	351.08
574.36	393.21
574.52	313.63
574.68	358.10
574.84	325.33
575.01	348.74
575.17	346.40
575.33	372.15
575.49	444.70
575.65	416.62
575.82	402.57
575.98	393.21
576.14	367.46
576.30	374.49
576.46	641.31
576.62	805.14
576.79	835.57
576.95	741.95
577.11	545.34
577.27	449.38
577.43	400.23
577.59	440.02
577.75	315.97
577.92	351.08
578.08	337.04
578.24	330.02
578.40	421.30
578.56	599.18
578.72	734.93
578.88	788.76
579.04	697.48
579.21	514.92
579.37	414.27
579.53	458.74
579.69	521.94
579.85	526.62
580.01	571.09
580.17	507.90
580.33	463.43
580.49	482.15
580.65	470.45
580.82	580.45
580.98	390.87
581.14	435.34
581.30	463.43
581.46	484.49
581.62	491.51
581.78	400.23
581.94	430.66
582.10	390.87
582.26	449.38
582.42	456.40
582.58	500.87
582.74	535.98
582.90	482.15
583.06	566.41
583.22	521.94
583.38	580.45
583.54	435.34
583.70	503.22
583.86	582.79
584.02	528.96
584.18	573.43
584.34	524.28
584.50	545.34
584.66	463.43
584.82	465.77
584.98	491.51
585.14	559.39
585.30	524.28
585.46	449.38
585.62	463.43
585.78	425.98
585.94	573.43
586.10	472.79
586.26	433.00
586.42	517.26
586.58	582.79
586.74	543.00
586.90	697.48
587.06	699.82
587.22	748.97
587.38	683.44
587.54	613.22
587.70	573.43
587.86	559.39
588.02	491.51
588.18	486.83
588.34	503.22
588.49	447.04
588.65	414.27
588.81	393.21
588.97	372.15
589.13	383.85
589.29	409.59
589.45	376.83
589.61	379.17
589.77	411.93
589.93	449.38
590.08	440.02
590.24	454.06
590.40	376.83
590.56	358.10
590.72	447.04
590.88	381.51
591.04	386.19
591.20	409.59
591.35	440.02
591.51	414.27
591.67	390.87
591.83	442.36
591.99	496.19
592.15	489.17
592.31	505.56
592.46	561.73
592.62	641.31
592.78	543.00
592.94	507.90
593.10	535.98
593.26	571.09
593.41	540.66
593.57	500.87
593.73	435.34
593.89	425.98
594.05	404.91
594.20	402.57
594.36	414.27
594.52	428.32
594.68	416.62
594.84	397.89
594.99	428.32
595.15	327.68
595.31	358.10
595.47	442.36
595.62	411.93
595.78	379.17
595.94	433.00
596.10	374.49
596.25	383.85
596.41	400.23
596.57	367.46
596.73	297.25
596.88	318.31
597.04	341.72
597.20	400.23
597.36	482.15
597.51	360.44
597.67	404.91
597.83	358.10
597.99	414.27
598.14	386.19
598.30	468.11
598.46	425.98
598.61	421.30
598.77	491.51
598.93	475.13
599.09	421.30
599.24	489.17
599.40	514.92
599.56	435.34
599.71	500.87
599.87	463.43
600.03	472.79
600.18	472.79
600.34	393.21
600.50	358.10
600.65	369.80
600.81	437.68
600.97	397.89
601.12	287.89
601.28	355.76
601.44	330.02
601.59	355.76
601.75	351.08
601.91	271.50
602.06	433.00
602.22	465.77
602.37	351.08
602.53	388.53
602.69	351.08
602.84	421.30
603.00	330.02
603.16	383.85
603.31	437.68
603.47	334.70
603.62	365.12
603.78	374.49
603.94	337.04
604.09	458.74
604.25	369.80
604.40	402.57
604.56	355.76
604.71	388.53
604.87	372.15
605.03	297.25
605.18	320.65
605.34	358.10
605.49	355.76
605.65	341.72
605.80	362.78
605.96	395.55
606.12	341.72
606.27	447.04
606.43	334.70
606.58	435.34
606.74	365.12
606.89	423.64
607.05	491.51
607.20	505.56
607.36	404.91
607.51	367.46
607.67	493.85
607.82	470.45
607.98	547.69
608.13	517.26
608.29	461.09
608.44	564.07
608.60	517.26
608.75	470.45
608.91	592.16
609.06	671.73
609.22	631.94
609.37	606.20
609.53	711.52
609.68	709.18
609.84	755.99
609.99	858.98
610.15	1032.18
610.30	1247.51
610.46	1479.22
610.61	1842.00
610.76	2188.40
610.92	2595.65
