SpectraSuite Data File
++++++++++++++++++++++++++++++++++++
Date: Fri Oct 04 11:39:30 GMT-05:00 2013
User: price-jones
Dark Spectrum Present: No
Reference Spectrum Present: No
Number of Sampled Component Spectra: 1
Spectrometers: USB2+H05261
Integration Time (usec): 100000 (USB2+H05261)
Spectra Averaged: 1 (USB2+H05261)
Boxcar Smoothing: 0 (USB2+H05261)
Correct for Electrical Dark: No (USB2+H05261)
Strobe/Lamp Enabled: No (USB2+H05261)
Correct for Detector Non-linearity: No (USB2+H05261)
Correct for Stray Light: No (USB2+H05261)
Number of Pixels in Processed Spectrum: 2048
>>>>>Begin Processed Spectral Data<<<<<
365.73	56.17
365.92	56.17
366.12	56.17
366.32	0.00
366.52	0.00
366.72	0.00
366.91	0.00
367.11	0.00
367.31	0.00
367.51	0.00
367.70	0.00
367.90	0.00
368.10	0.00
368.30	0.00
368.49	0.00
368.69	39.79
368.89	0.00
369.09	0.00
369.28	0.00
369.48	0.00
369.68	0.00
369.87	0.00
370.07	0.00
370.27	49.15
370.47	56.17
370.66	81.92
370.86	187.24
371.06	126.39
371.25	152.13
371.45	42.13
371.65	124.05
371.84	161.50
372.04	91.28
372.24	126.39
372.44	154.48
372.63	138.09
372.83	154.48
373.03	170.86
373.22	142.77
373.42	168.52
373.62	175.54
373.81	294.91
374.01	231.71
374.21	177.88
374.40	159.16
374.60	224.69
374.79	196.60
374.99	107.66
375.19	173.20
375.38	210.65
375.58	304.27
375.78	212.99
375.97	194.26
376.17	241.08
376.37	196.60
376.56	161.50
376.76	170.86
376.95	184.90
377.15	287.89
377.35	131.07
377.54	243.42
377.74	173.20
377.93	187.24
378.13	105.32
378.33	173.20
378.52	142.77
378.72	231.71
378.91	194.26
379.11	182.56
379.31	212.99
379.50	149.79
379.70	250.44
379.89	236.39
380.09	215.33
380.28	142.77
380.48	208.31
380.68	154.48
380.87	180.22
381.07	224.69
381.26	276.18
381.46	229.37
381.65	236.39
381.85	133.41
382.04	252.78
382.24	255.12
382.43	210.65
382.63	205.97
382.83	229.37
383.02	250.44
383.22	205.97
383.41	180.22
383.61	196.60
383.80	224.69
384.00	217.67
384.19	208.31
384.39	187.24
384.58	264.48
384.78	227.03
384.97	294.91
385.17	222.35
385.36	187.24
385.56	170.86
385.75	205.97
385.95	196.60
386.14	243.42
386.34	241.08
386.53	250.44
386.72	224.69
386.92	191.92
387.11	259.80
387.31	271.50
387.50	248.10
387.70	210.65
387.89	241.08
388.09	182.56
388.28	271.50
388.48	266.82
388.67	231.71
388.86	269.16
389.06	248.10
389.25	271.50
389.45	250.44
389.64	276.18
389.84	234.05
390.03	306.61
390.22	248.10
390.42	280.86
390.61	191.92
390.81	224.69
391.00	248.10
391.19	318.31
391.39	278.52
391.58	290.23
391.78	259.80
391.97	320.65
392.16	234.05
392.36	245.76
392.55	184.90
392.75	327.68
392.94	210.65
393.13	241.08
393.33	245.76
393.52	339.38
393.71	355.76
393.91	297.25
394.10	280.86
394.29	318.31
394.49	355.76
394.68	353.42
394.88	369.80
395.07	294.91
395.26	238.73
395.46	280.86
395.65	381.51
395.84	325.33
396.04	304.27
396.23	306.61
396.42	353.42
396.62	318.31
396.81	433.00
397.00	374.49
397.19	322.99
397.39	322.99
397.58	461.09
397.77	428.32
397.97	428.32
398.16	397.89
398.35	278.52
398.55	470.45
398.74	407.25
398.93	512.58
399.12	451.72
399.32	472.79
399.51	444.70
399.70	381.51
399.90	442.36
400.09	510.24
400.28	498.53
400.47	447.04
400.67	442.36
400.86	458.74
401.05	442.36
401.24	496.19
401.44	491.51
401.63	510.24
401.82	514.92
402.01	447.04
402.21	458.74
402.40	535.98
402.59	603.86
402.78	636.63
402.97	594.50
403.17	491.51
403.36	498.53
403.55	524.28
403.74	566.41
403.93	557.05
404.13	641.31
404.32	683.44
404.51	624.92
404.70	622.58
404.89	643.65
405.09	655.35
405.28	645.99
405.47	601.52
405.66	655.35
405.85	657.69
406.05	624.92
406.24	718.54
406.43	723.23
406.62	723.23
406.81	793.44
407.00	772.38
407.20	730.25
407.39	763.01
407.58	791.10
407.77	690.46
407.96	772.38
408.15	821.53
408.34	800.46
408.54	772.38
408.73	849.61
408.92	763.01
409.11	798.12
409.30	840.25
409.49	795.78
409.68	868.34
409.87	917.49
410.07	786.42
410.26	812.17
410.45	826.21
410.64	933.87
410.83	952.60
411.02	917.49
411.21	950.26
411.40	947.92
411.59	1050.90
411.78	994.73
411.98	1090.69
412.17	1078.99
412.36	997.07
412.55	1118.78
412.74	1142.18
412.93	1163.25
413.12	1128.14
413.31	1139.84
413.50	1146.86
413.69	1158.57
413.88	1165.59
414.07	1217.08
414.26	1210.06
414.45	1277.93
414.64	1186.65
414.83	1266.23
415.02	1214.74
415.22	1320.06
415.41	1324.74
415.60	1331.76
415.79	1327.08
415.98	1371.55
416.17	1411.34
416.36	1409.00
416.55	1320.06
416.74	1369.21
416.93	1448.79
417.12	1530.71
417.31	1500.28
417.50	1481.56
417.69	1563.48
417.88	1472.20
418.07	1357.51
418.26	1523.69
418.45	1521.35
418.64	1593.90
418.83	1558.80
419.02	1526.03
419.21	1596.25
419.39	1720.29
419.58	1530.71
419.77	1636.03
419.96	1603.27
420.15	1685.19
420.34	1657.10
420.53	1694.55
420.72	1692.21
420.91	1671.14
421.10	1652.42
421.29	1753.06
421.48	1764.76
421.67	1647.74
421.86	1741.36
422.05	1856.04
422.24	1631.35
422.43	1760.08
422.61	1802.21
422.80	1764.76
422.99	1825.62
423.18	1816.26
423.37	1823.28
423.56	1844.34
423.75	1853.70
423.94	1755.40
424.13	1790.51
424.32	1832.64
424.50	1753.06
424.69	1811.57
424.88	1884.13
425.07	1823.28
425.26	1879.45
425.45	1762.42
425.64	1870.09
425.83	1886.47
426.01	1954.35
426.20	1912.22
426.39	1947.33
426.58	1893.49
426.77	1961.37
426.96	2033.93
427.15	2045.63
427.33	1879.45
427.52	1940.30
427.71	2019.88
427.90	2010.52
428.09	1930.94
428.28	1959.03
428.46	1980.09
428.65	1851.36
428.84	2022.22
429.03	2052.65
429.22	1963.71
429.40	2064.35
429.59	1912.22
429.78	2087.76
429.97	1916.90
430.16	1921.58
430.34	2111.16
430.53	2174.36
430.72	2083.08
430.91	2265.64
431.10	2040.95
431.28	2111.16
431.47	2183.72
431.66	2104.14
431.85	2186.06
432.03	2172.02
432.22	2237.55
432.41	2300.75
432.60	2172.02
432.79	2230.53
432.97	2282.02
433.16	2307.77
433.35	2221.17
433.54	2298.41
433.72	2249.25
433.91	2326.49
434.10	2307.77
434.28	2216.49
434.47	2260.96
434.66	2284.36
434.85	2377.98
435.03	2485.65
435.22	2729.06
435.41	2857.79
435.59	2656.51
435.78	2621.40
435.97	2562.89
436.16	2504.37
436.34	2448.20
436.53	2469.27
436.72	2436.50
436.90	2314.79
437.09	2441.18
437.28	2464.58
437.46	2389.69
437.65	2380.32
437.84	2375.64
438.02	2565.23
438.21	2476.29
438.40	2445.86
438.58	2530.12
438.77	2595.65
438.96	2614.38
439.14	2818.00
439.33	2602.68
439.52	2759.49
439.70	2663.53
439.89	2841.41
440.08	2862.48
440.26	2855.45
440.45	2815.66
440.63	2764.17
440.82	2796.94
441.01	2743.11
441.19	2848.43
441.38	2883.54
441.57	2825.03
441.75	2981.84
441.94	2972.48
442.12	3084.83
442.31	2979.50
442.50	3026.31
442.68	3028.65
442.87	3023.97
443.05	3110.57
443.24	3040.36
443.43	3276.75
443.61	3019.29
443.80	3173.77
443.98	3028.65
444.17	3000.57
444.35	3075.46
444.54	3197.17
444.73	3122.27
444.91	3155.04
445.10	3112.91
445.28	3089.51
445.47	3166.74
445.65	3082.49
445.84	3241.64
446.02	3094.19
446.21	3094.19
446.39	3091.85
446.58	3194.83
446.77	3148.02
446.95	3283.77
447.14	3187.81
447.32	3283.77
447.51	3222.92
447.69	3110.57
447.88	3145.68
448.06	3297.81
448.25	3157.38
448.43	3302.50
448.62	3119.93
448.80	3049.72
448.99	3129.30
449.17	3281.43
449.36	3269.73
449.54	3351.65
449.73	3309.52
449.91	3379.73
450.10	3454.63
450.28	3344.63
450.46	3471.01
450.65	3449.95
450.83	3445.27
451.02	3370.37
451.20	3417.18
451.39	3393.78
451.57	3456.97
451.76	3508.46
451.94	3445.27
452.13	3566.98
452.31	3578.68
452.49	3403.14
452.68	3452.29
452.86	3655.92
453.05	3559.95
453.23	3543.57
453.42	3361.01
453.60	3531.87
453.78	3501.44
453.97	3667.62
454.15	3625.49
454.34	3513.14
454.52	3569.32
454.70	3662.94
454.89	3634.85
455.07	3609.11
455.26	3810.39
455.44	3805.71
455.62	3686.34
455.81	3723.79
455.99	3709.75
456.17	3782.31
456.36	3716.77
456.54	3854.86
456.73	3836.14
456.91	3873.59
457.09	3995.29
457.28	4014.02
457.46	3843.16
457.64	3939.12
457.83	4070.19
458.01	3929.76
458.19	3866.56
458.38	3948.48
458.56	4030.40
458.74	4079.55
458.93	3887.63
459.11	4084.23
459.29	3882.95
459.48	4105.30
459.66	4011.68
459.84	4126.36
460.03	4222.33
460.21	4241.05
460.39	4142.75
460.57	4060.83
460.76	4133.39
460.94	4210.62
461.12	4163.81
461.31	4044.45
461.49	4091.26
461.67	4035.08
461.85	4269.14
462.04	4149.77
462.22	4339.35
462.40	4250.41
462.59	4236.37
462.77	4308.93
462.95	4355.74
463.13	4297.22
463.32	4285.52
463.50	4369.78
463.68	4367.44
463.86	4276.16
464.05	4243.39
464.23	4372.12
464.41	4322.97
464.59	4163.81
464.78	4585.11
464.96	4367.44
465.14	4491.49
465.32	4374.46
465.50	4542.98
465.69	4507.87
465.87	4484.47
466.05	4409.57
466.23	4379.14
466.41	4535.96
466.60	4606.17
466.78	4631.92
466.96	4456.38
467.14	4538.30
467.32	4652.98
467.51	4692.77
467.69	4608.51
467.87	4629.58
468.05	4695.11
468.23	4662.35
468.41	4727.88
468.60	4713.84
468.78	4657.67
468.96	4489.15
469.14	4669.37
469.32	4898.74
469.50	4573.41
469.69	4805.12
469.87	4858.95
470.05	4938.53
470.23	4755.97
470.41	4744.27
470.59	4933.85
470.77	4929.17
470.95	4854.27
471.14	4875.34
471.32	4765.33
471.50	4924.49
471.68	4985.34
471.86	5135.14
472.04	4891.72
472.22	5135.14
472.40	5001.72
472.58	5102.37
472.77	5170.24
472.95	4968.96
473.13	5413.66
473.31	5013.43
473.49	5242.80
473.67	5046.20
473.85	5256.84
474.03	5298.97
474.21	5231.10
474.39	5357.49
474.57	5324.72
474.75	5507.28
474.93	5523.66
475.12	5511.96
475.30	5579.84
475.48	5462.81
475.66	5516.64
475.84	5643.03
476.02	5500.26
476.20	5727.29
476.38	5806.87
476.56	5968.37
476.74	5673.46
476.92	6038.58
477.10	5753.04
477.28	5746.02
477.46	5935.60
477.64	5947.30
477.82	6094.76
478.00	6076.03
478.18	6193.06
478.36	6207.10
478.54	6260.93
478.72	6272.64
478.90	6274.98
479.08	6186.04
479.26	6406.05
479.44	6293.70
479.62	6497.33
479.80	6520.73
479.98	6558.18
480.16	6604.99
480.34	6780.53
480.52	6817.98
480.70	6775.85
480.88	6626.06
481.06	6986.50
481.24	7012.24
481.41	6904.58
481.59	7075.44
481.77	7056.72
481.95	6970.12
482.13	7073.10
482.31	7215.87
482.49	7353.96
482.67	7279.07
482.85	7337.58
483.03	7548.23
483.21	7470.99
483.39	7538.87
483.57	7557.59
483.74	7674.62
483.92	7765.90
484.10	7648.87
484.28	7906.33
484.46	8006.97
484.64	8025.70
484.82	8044.42
485.00	7953.14
485.18	8250.39
485.35	8313.58
485.53	8306.56
485.71	8367.42
485.89	8468.06
486.07	8470.40
486.25	8629.56
486.43	8671.68
486.61	8592.11
486.78	8730.20
486.96	8552.32
487.14	8929.14
487.32	8959.57
487.50	8872.97
487.68	8870.63
487.85	9062.55
488.03	9151.49
488.21	9263.84
488.39	9284.91
488.57	9305.97
488.75	9469.81
488.92	9614.92
489.10	9666.41
489.28	9551.73
489.46	9809.19
489.64	9738.97
489.81	9893.44
489.99	9886.42
490.17	10104.09
490.35	10174.31
490.53	10010.47
490.70	10012.81
490.88	10120.48
491.06	10431.77
491.24	10176.65
491.41	10284.31
491.59	10410.70
491.77	10569.86
491.95	10581.56
492.13	10513.69
492.30	10668.16
492.48	10750.08
492.66	10876.47
492.84	10815.62
493.01	11061.37
493.19	11035.63
493.37	11344.58
493.54	11054.35
493.72	11124.57
493.90	11262.66
494.08	11211.17
494.25	11192.44
494.43	11265.00
494.61	11440.54
494.79	11466.28
494.96	11557.57
495.14	11470.97
495.32	11576.29
495.49	11681.61
495.67	11730.76
495.85	11829.07
496.02	11859.49
496.20	12325.26
496.38	12252.70
496.55	12145.04
496.73	12437.61
496.91	12645.91
497.09	12566.34
497.26	12648.26
497.44	12592.08
497.62	12437.61
497.79	12599.10
497.97	12638.89
498.14	12823.80
498.32	12800.39
498.50	12683.36
498.67	12868.27
498.85	12751.24
499.03	13214.66
499.20	13118.70
499.38	13212.32
499.56	13137.43
499.73	13355.10
499.91	13324.67
500.08	13493.19
500.26	13336.37
500.44	13282.54
500.61	13329.35
500.79	13406.59
500.97	13497.87
501.14	13635.96
501.32	13832.57
501.49	13855.97
501.67	13790.44
501.84	13898.10
502.02	13870.01
502.20	13968.32
502.37	13898.10
502.55	13855.97
502.72	13874.70
502.90	14075.98
503.07	13961.30
503.25	14183.65
503.43	14108.75
503.60	14146.20
503.78	14356.85
503.95	14462.17
504.13	14448.13
504.30	14558.13
504.48	14216.41
504.65	14576.86
504.83	14572.18
505.01	14820.27
505.18	14757.08
505.36	14651.75
505.53	14565.15
505.71	14614.30
505.88	14700.90
506.06	14792.19
506.23	14867.08
506.41	14827.29
506.58	14867.08
506.76	15019.22
506.93	14780.48
507.11	14984.11
507.28	15197.10
507.46	15157.31
507.63	15417.11
507.81	15536.48
507.98	15403.07
508.16	15426.47
508.33	15255.61
508.50	15503.71
508.68	15459.24
508.85	15826.70
509.03	15620.74
509.20	15541.16
509.38	15915.64
509.55	16252.68
509.73	15995.22
509.90	16060.76
510.08	16042.03
510.25	16119.27
510.42	16016.29
510.60	15927.35
510.77	16245.66
510.95	16542.91
511.12	16210.55
511.30	16002.24
511.47	16292.47
511.64	16477.37
511.82	16404.81
511.99	16004.58
512.17	16531.20
512.34	16702.06
512.51	16568.65
512.69	16657.59
512.86	16690.36
513.04	16702.06
513.21	16968.88
513.38	17153.79
513.56	16636.53
513.73	16940.80
513.90	16893.99
514.08	17074.21
514.25	17266.13
514.43	17174.85
514.60	17177.19
514.77	17151.45
514.95	17053.14
515.12	17256.77
515.29	17399.54
515.47	17441.67
515.64	17436.99
515.81	17593.81
515.99	17558.70
516.16	17415.93
516.33	17589.13
516.51	17837.22
516.68	17373.80
516.85	17785.73
517.03	17797.43
517.20	18024.47
517.37	17743.60
517.54	17902.76
517.72	17907.44
517.89	17806.80
518.06	17891.06
518.24	18120.43
518.41	17949.57
518.58	17736.58
518.75	17914.46
518.93	18429.38
519.10	18415.34
519.27	18214.05
519.45	18008.08
519.62	18366.18
519.79	18450.44
519.96	18410.65
520.14	18604.92
520.31	18780.46
520.48	18750.03
520.65	18560.45
520.83	18642.37
521.00	18600.24
521.17	18614.28
521.34	18724.29
521.52	18808.54
521.69	19002.81
521.86	18944.30
522.03	19061.32
522.20	19147.92
522.38	18909.19
522.55	18761.73
522.72	18934.93
522.89	19063.66
523.07	19082.39
523.24	19138.56
523.41	19407.72
523.58	19440.49
523.75	18923.23
523.92	19276.65
524.10	19190.05
524.27	19548.15
524.44	19403.04
524.61	19810.29
524.78	19847.74
524.96	19468.58
525.13	19751.78
525.30	19831.36
525.47	19777.53
525.64	19908.60
525.81	19641.78
525.98	19978.81
526.16	19606.67
526.33	19819.66
526.50	20102.86
526.67	19868.81
526.84	19847.74
527.01	19910.94
527.18	19981.15
527.36	20025.62
527.53	20318.19
527.70	20393.09
527.87	20180.10
528.04	20189.46
528.21	20121.59
528.38	20079.46
528.55	20133.29
528.72	20327.55
528.89	20760.55
529.07	20388.41
529.24	20280.74
529.41	20453.94
529.58	20154.35
529.75	20219.89
529.92	20421.17
530.09	20650.55
530.26	20659.91
530.43	20465.64
530.60	20659.91
530.77	20577.99
530.94	20875.24
531.11	20645.87
531.28	20709.06
531.46	20795.66
531.63	20641.18
531.80	20636.50
531.97	20830.77
532.14	21128.02
532.31	21036.74
532.48	21013.33
532.65	21209.93
532.82	20528.84
532.99	21010.99
533.16	21240.36
533.33	21233.34
533.50	21500.16
533.67	21436.97
533.84	21139.72
534.01	21167.80
534.18	21188.87
534.35	21336.32
534.52	21263.77
534.69	21525.91
534.86	21469.73
535.03	21226.32
535.20	21673.36
535.37	21535.27
535.54	21350.37
535.71	21427.60
535.88	21537.61
536.05	21736.56
536.22	21785.71
536.38	21865.28
536.55	21785.71
536.72	21687.40
536.89	21804.43
537.06	21710.81
537.23	21633.57
537.40	21752.94
537.57	21935.50
537.74	21558.67
537.91	22228.07
538.08	22195.30
538.25	21600.80
538.42	21645.27
538.59	22260.84
538.75	22061.89
538.92	21998.70
539.09	22113.38
539.26	22139.13
539.43	22104.02
539.60	22319.35
539.77	22431.69
539.94	22630.64
540.11	22377.86
540.28	22087.64
540.44	22429.35
540.61	22677.45
540.78	22249.13
540.95	22534.68
541.12	22682.13
541.29	22754.69
541.46	22750.01
541.62	22649.36
541.79	22565.10
541.96	22742.99
542.13	22909.16
542.30	23211.09
542.47	23215.77
542.63	22923.21
542.80	23328.12
542.97	22841.29
543.14	22937.25
543.31	23199.39
543.48	23108.11
543.64	23117.47
543.81	23630.05
543.98	23601.96
544.15	23243.86
544.32	23580.90
544.48	23508.34
544.65	23669.84
544.82	23342.16
544.99	23517.70
545.16	23316.42
545.32	23330.46
545.49	24201.14
545.66	24760.53
545.83	24554.56
546.00	24540.52
546.16	23906.23
546.33	23435.78
546.50	23342.16
546.67	23487.28
546.83	22897.46
547.00	23084.70
547.17	23513.02
547.34	23744.73
547.50	23477.91
547.67	24163.69
547.84	23550.47
548.00	23807.93
548.17	23290.67
548.34	23484.94
548.51	23758.78
548.67	23332.80
548.84	23716.65
549.01	23826.65
549.18	23707.29
549.34	23709.63
549.51	23894.53
549.68	23779.84
549.84	23779.84
550.01	23484.94
550.18	23754.10
550.34	24243.27
550.51	23784.52
550.68	23873.46
550.84	23644.09
551.01	23915.59
551.18	23480.25
551.34	23718.99
551.51	23969.43
551.68	23807.93
551.84	23955.38
552.01	23592.60
552.18	24177.73
552.34	23969.43
552.51	23910.91
552.68	23786.86
552.84	24034.96
553.01	23894.53
553.18	24116.88
553.34	24198.80
553.51	24119.22
553.67	23924.96
553.84	24119.22
554.01	24194.12
554.17	24065.39
554.34	24425.83
554.51	24039.64
554.67	24336.89
554.84	23894.53
555.00	24130.92
555.17	23910.91
555.33	24336.89
555.50	24315.83
555.67	23861.76
555.83	24535.84
556.00	23969.43
556.16	24617.75
556.33	24372.00
556.50	24346.25
556.66	24280.72
556.83	24250.29
556.99	24372.00
557.16	24687.97
557.32	24482.00
557.49	24613.07
557.65	24205.82
557.82	23899.21
557.98	24559.24
558.15	24631.80
558.32	24215.18
558.48	24587.33
558.65	24446.90
558.81	24783.93
558.98	24189.44
559.14	24261.99
559.31	24034.96
559.47	24563.92
559.64	24247.95
559.80	24751.17
559.97	24601.37
560.13	24177.73
560.30	24549.88
560.46	24381.36
560.63	24854.15
560.79	24320.51
560.96	24739.46
561.12	24383.70
561.29	24470.30
561.45	24540.52
561.61	24575.62
561.78	24491.37
561.94	24989.90
562.11	24657.54
562.27	24528.81
562.44	24393.06
562.60	24458.60
562.77	24552.22
562.93	24589.67
563.10	24821.38
563.26	24694.99
563.42	24987.56
563.59	24538.18
563.75	24613.07
563.92	24879.89
564.08	24517.11
564.24	24844.79
564.41	24533.50
564.57	24577.97
564.74	24907.98
564.90	24769.89
565.07	24599.03
565.23	24936.07
565.39	24662.22
565.56	24545.20
565.72	24805.00
565.88	24762.87
566.05	24648.18
566.21	24559.24
566.38	24500.73
566.54	24795.64
566.70	24830.74
566.87	25008.62
567.03	24507.75
567.19	24999.26
567.36	24842.45
567.52	24556.90
567.68	25013.31
567.85	24545.20
568.01	24807.34
568.17	24922.02
568.34	24957.13
568.50	24718.40
568.66	24929.05
568.83	24870.53
568.99	24730.10
569.15	25027.35
569.32	24692.65
569.48	24772.23
569.64	24938.41
569.81	24776.91
569.97	25032.03
570.13	25067.14
570.30	25010.96
570.46	24842.45
570.62	25074.16
570.78	24776.91
570.95	24786.27
571.11	25090.54
571.27	24947.77
571.43	24561.58
571.60	25109.27
571.76	24842.45
571.92	24971.18
572.09	24952.45
572.25	25137.35
572.41	25160.76
572.57	25010.96
572.74	25069.48
572.90	25015.65
573.06	25048.41
573.22	24608.39
573.38	25209.91
573.55	25310.55
573.71	24992.24
573.87	25235.66
574.03	24943.09
574.20	24687.97
574.36	24645.84
574.52	24467.96
574.68	25223.95
574.84	24844.79
575.01	25163.10
575.17	24896.28
575.33	24907.98
575.49	25174.80
575.65	25301.19
575.82	25142.03
575.98	25069.48
576.14	25027.35
576.30	25003.94
576.46	25116.29
576.62	25289.49
576.79	25177.14
576.95	25064.80
577.11	25343.32
577.27	24994.58
577.43	25205.23
577.59	24851.81
577.75	25076.50
577.92	24973.52
578.08	25074.16
578.24	25090.54
578.40	25308.21
578.56	24889.26
578.72	25226.29
578.88	25315.23
579.04	25064.80
579.21	25273.10
579.37	25214.59
579.53	24856.49
579.69	25057.78
579.85	25036.71
580.01	25589.08
580.17	24943.09
580.33	24933.73
580.49	25443.96
580.65	25184.16
580.82	25532.90
580.98	25317.57
581.14	25095.22
581.30	25219.27
581.46	24816.70
581.62	24917.34
581.78	24570.94
581.94	25151.40
582.10	24692.65
582.26	25172.46
582.42	25116.29
582.58	25408.86
582.74	25317.57
582.90	25462.69
583.06	25186.50
583.22	25303.53
583.38	24891.60
583.54	25135.01
583.70	25645.25
583.86	25050.75
584.02	25006.28
584.18	24943.09
584.34	25099.90
584.50	25095.22
584.66	24769.89
584.82	25039.05
584.98	25408.86
585.14	25305.87
585.30	24854.15
585.46	25273.10
585.62	24673.93
585.78	25310.55
585.94	24783.93
586.10	25259.06
586.26	25163.10
586.42	25525.88
586.58	25324.60
586.74	25319.92
586.90	24924.36
587.06	25179.48
587.22	25266.08
587.38	24978.20
587.54	25230.98
587.70	25495.46
587.86	25132.67
588.02	25284.81
588.18	25439.28
588.34	25326.94
588.49	25212.25
588.65	25043.73
588.81	25046.07
588.97	25055.43
589.13	25493.12
589.29	25025.01
589.45	25254.38
589.61	25436.94
589.77	25560.99
589.93	25439.28
590.08	25640.57
590.24	25429.92
590.40	25741.21
590.56	25663.97
590.72	25212.25
590.88	24870.53
591.04	25392.47
591.20	25666.31
591.35	25495.46
591.51	25865.26
591.67	25731.85
591.83	25291.83
591.99	25284.81
592.15	25357.36
592.31	25076.50
