SpectraSuite Data File
++++++++++++++++++++++++++++++++++++
Date: Fri Oct 04 11:39:57 GMT-05:00 2013
User: price-jones
Dark Spectrum Present: No
Reference Spectrum Present: No
Number of Sampled Component Spectra: 1
Spectrometers: USB2+H05261
Integration Time (usec): 100000 (USB2+H05261)
Spectra Averaged: 1 (USB2+H05261)
Boxcar Smoothing: 0 (USB2+H05261)
Correct for Electrical Dark: No (USB2+H05261)
Strobe/Lamp Enabled: No (USB2+H05261)
Correct for Detector Non-linearity: No (USB2+H05261)
Correct for Stray Light: No (USB2+H05261)
Number of Pixels in Processed Spectrum: 2048
>>>>>Begin Processed Spectral Data<<<<<
365.73	88.94
365.92	88.94
366.12	88.94
366.32	7.02
366.52	0.00
366.72	11.70
366.91	0.00
367.11	0.00
367.31	0.00
367.51	0.00
367.70	0.00
367.90	0.00
368.10	0.00
368.30	0.00
368.49	0.00
368.69	0.00
368.89	0.00
369.09	0.00
369.28	0.00
369.48	0.00
369.68	0.00
369.87	0.00
370.07	0.00
370.27	86.60
370.47	100.64
370.66	0.00
370.86	30.43
371.06	56.17
371.25	117.03
371.45	91.28
371.65	147.45
371.84	70.22
372.04	135.75
372.24	37.45
372.44	95.96
372.63	187.24
372.83	131.07
373.03	173.20
373.22	88.94
373.42	131.07
373.62	93.62
373.81	95.96
374.01	133.41
374.21	84.26
374.40	70.22
374.60	140.43
374.79	152.13
374.99	128.73
375.19	95.96
375.38	84.26
375.58	145.11
375.78	152.13
375.97	135.75
376.17	163.84
376.37	142.77
376.56	175.54
376.76	53.83
376.95	91.28
377.15	98.30
377.35	126.39
377.54	124.05
377.74	131.07
377.93	191.92
378.13	117.03
378.33	84.26
378.52	74.90
378.72	201.29
378.91	142.77
379.11	105.32
379.31	154.48
379.50	102.98
379.70	149.79
379.89	184.90
380.09	88.94
380.28	100.64
380.48	63.19
380.68	91.28
380.87	142.77
381.07	147.45
381.26	128.73
381.46	166.18
381.65	145.11
381.85	168.52
382.04	135.75
382.24	140.43
382.43	131.07
382.63	107.66
382.83	65.54
383.02	163.84
383.22	124.05
383.41	159.16
383.61	119.37
383.80	95.96
384.00	93.62
384.19	121.71
384.39	86.60
384.58	37.45
384.78	156.82
384.97	147.45
385.17	142.77
385.36	145.11
385.56	189.58
385.75	135.75
385.95	140.43
386.14	210.65
386.34	84.26
386.53	70.22
386.72	107.66
386.92	212.99
387.11	159.16
387.31	147.45
387.50	14.04
387.70	110.01
387.89	72.56
388.09	112.35
388.28	140.43
388.48	91.28
388.67	154.48
388.86	114.69
389.06	147.45
389.25	131.07
389.45	173.20
389.64	149.79
389.84	173.20
390.03	196.60
390.22	112.35
390.42	131.07
390.61	147.45
390.81	88.94
391.00	138.09
391.19	177.88
391.39	117.03
391.58	93.62
391.78	100.64
391.97	149.79
392.16	142.77
392.36	163.84
392.55	142.77
392.75	112.35
392.94	114.69
393.13	177.88
393.33	135.75
393.52	84.26
393.71	98.30
393.91	147.45
394.10	49.15
394.29	156.82
394.49	81.92
394.68	93.62
394.88	138.09
395.07	138.09
395.26	149.79
395.46	53.83
395.65	100.64
395.84	156.82
396.04	187.24
396.23	119.37
396.42	163.84
396.62	110.01
396.81	114.69
397.00	163.84
397.19	145.11
397.39	152.13
397.58	81.92
397.77	124.05
397.97	84.26
398.16	133.41
398.35	189.58
398.55	149.79
398.74	140.43
398.93	121.71
399.12	128.73
399.32	117.03
399.51	163.84
399.70	159.16
399.90	128.73
400.09	166.18
400.28	131.07
400.47	81.92
400.67	182.56
400.86	114.69
401.05	126.39
401.24	131.07
401.44	187.24
401.63	187.24
401.82	203.63
402.01	117.03
402.21	145.11
402.40	49.15
402.59	175.54
402.78	201.29
402.97	131.07
403.17	131.07
403.36	105.32
403.55	156.82
403.74	149.79
403.93	198.95
404.13	227.03
404.32	332.36
404.51	271.50
404.70	248.10
404.89	196.60
405.09	168.52
405.28	107.66
405.47	117.03
405.66	184.90
405.85	149.79
406.05	177.88
406.24	140.43
406.43	224.69
406.62	166.18
406.81	177.88
407.00	166.18
407.20	163.84
407.39	201.29
407.58	126.39
407.77	187.24
407.96	231.71
408.15	182.56
408.34	175.54
408.54	189.58
408.73	203.63
408.92	205.97
409.11	175.54
409.30	175.54
409.49	229.37
409.68	255.12
409.87	77.24
410.07	201.29
410.26	168.52
410.45	224.69
410.64	156.82
410.83	170.86
411.02	222.35
411.21	234.05
411.40	294.91
411.59	156.82
411.78	177.88
411.98	135.75
412.17	175.54
412.36	119.37
412.55	224.69
412.74	210.65
412.93	250.44
413.12	126.39
413.31	269.16
413.50	173.20
413.69	220.01
413.88	229.37
414.07	196.60
414.26	287.89
414.45	229.37
414.64	262.14
414.83	205.97
415.02	201.29
415.22	259.80
415.41	250.44
415.60	220.01
415.79	238.73
415.98	220.01
416.17	241.08
416.36	238.73
416.55	224.69
416.74	278.52
416.93	257.46
417.12	245.76
417.31	332.36
417.50	184.90
417.69	229.37
417.88	234.05
418.07	234.05
418.26	229.37
418.45	212.99
418.64	294.91
418.83	255.12
419.02	212.99
419.21	238.73
419.39	205.97
419.58	201.29
419.77	215.33
419.96	250.44
420.15	262.14
420.34	255.12
420.53	227.03
420.72	301.93
420.91	304.27
421.10	234.05
421.29	243.42
421.48	322.99
421.67	308.95
421.86	210.65
422.05	273.84
422.24	276.18
422.43	243.42
422.61	203.63
422.80	271.50
422.99	292.57
423.18	318.31
423.37	262.14
423.56	301.93
423.75	245.76
423.94	276.18
424.13	236.39
424.32	217.67
424.50	187.24
424.69	212.99
424.88	294.91
425.07	236.39
425.26	294.91
425.45	257.46
425.64	245.76
425.83	180.22
426.01	243.42
426.20	269.16
426.39	227.03
426.58	271.50
426.77	264.48
426.96	243.42
427.15	184.90
427.33	299.59
427.52	262.14
427.71	224.69
427.90	238.73
428.09	297.25
428.28	280.86
428.46	220.01
428.65	290.23
428.84	292.57
429.03	346.40
429.22	280.86
429.40	262.14
429.59	262.14
429.78	322.99
429.97	231.71
430.16	266.82
430.34	236.39
430.53	318.31
430.72	285.55
430.91	297.25
431.10	210.65
431.28	297.25
431.47	337.04
431.66	290.23
431.85	346.40
432.03	234.05
432.22	339.38
432.41	308.95
432.60	299.59
432.79	259.80
432.97	287.89
433.16	318.31
433.35	266.82
433.54	276.18
433.72	299.59
433.91	383.85
434.10	308.95
434.28	339.38
434.47	257.46
434.66	332.36
434.85	381.51
435.03	351.08
435.22	763.01
435.41	1153.88
435.59	1268.57
435.78	980.68
435.97	650.67
436.16	374.49
436.34	358.10
436.53	306.61
436.72	325.33
436.90	250.44
437.09	313.63
437.28	290.23
437.46	330.02
437.65	280.86
437.84	353.42
438.02	292.57
438.21	301.93
438.40	346.40
438.58	285.55
438.77	341.72
438.96	227.03
439.14	243.42
439.33	327.68
439.52	276.18
439.70	360.44
439.89	325.33
440.08	355.76
440.26	322.99
440.45	358.10
440.63	313.63
440.82	379.17
441.01	355.76
441.19	383.85
441.38	341.72
441.57	400.23
441.75	304.27
441.94	402.57
442.12	308.95
442.31	346.40
442.50	376.83
442.68	411.93
442.87	297.25
443.05	278.52
443.24	388.53
443.43	332.36
443.61	390.87
443.80	423.64
443.98	339.38
444.17	273.84
444.35	416.62
444.54	386.19
444.73	400.23
444.91	407.25
445.10	367.46
445.28	334.70
445.47	348.74
445.65	374.49
445.84	376.83
446.02	376.83
446.21	337.04
446.39	320.65
446.58	294.91
446.77	358.10
446.95	351.08
447.14	266.82
447.32	393.21
447.51	337.04
447.69	341.72
447.88	416.62
448.06	440.02
448.25	325.33
448.43	339.38
448.62	367.46
448.80	360.44
448.99	379.17
449.17	320.65
449.36	285.55
449.54	346.40
449.73	435.34
449.91	308.95
450.10	393.21
450.28	409.59
450.46	372.15
450.65	395.55
450.83	351.08
451.02	341.72
451.20	404.91
451.39	383.85
451.57	348.74
451.76	383.85
451.94	390.87
452.13	390.87
452.31	449.38
452.49	402.57
452.68	276.18
452.86	418.96
453.05	390.87
453.23	365.12
453.42	358.10
453.60	334.70
453.78	418.96
453.97	306.61
454.15	383.85
454.34	374.49
454.52	442.36
454.70	383.85
454.89	407.25
455.07	374.49
455.26	388.53
455.44	463.43
455.62	400.23
455.81	376.83
455.99	468.11
456.17	428.32
456.36	435.34
456.54	404.91
456.73	313.63
456.91	351.08
457.09	477.47
457.28	423.64
457.46	393.21
457.64	425.98
457.83	402.57
458.01	407.25
458.19	472.79
458.38	409.59
458.56	358.10
458.74	430.66
458.93	367.46
459.11	456.40
459.29	400.23
459.48	465.77
459.66	496.19
459.84	444.70
460.03	557.05
460.21	456.40
460.39	393.21
460.57	451.72
460.76	477.47
460.94	411.93
461.12	437.68
461.31	447.04
461.49	367.46
461.67	421.30
461.85	435.34
462.04	458.74
462.22	931.53
462.40	449.38
462.59	397.89
462.77	421.30
462.95	421.30
463.13	503.22
463.32	463.43
463.50	498.53
463.68	456.40
463.86	433.00
464.05	479.81
464.23	475.13
464.41	447.04
464.59	479.81
464.78	519.60
464.96	428.32
465.14	425.98
465.32	456.40
465.50	435.34
465.69	484.49
465.87	461.09
466.05	400.23
466.23	477.47
466.41	552.37
466.60	435.34
466.78	489.17
466.96	442.36
467.14	493.85
467.32	512.58
467.51	468.11
467.69	496.19
467.87	447.04
468.05	440.02
468.23	538.32
468.41	479.81
468.60	447.04
468.78	435.34
468.96	425.98
469.14	505.56
469.32	463.43
469.50	430.66
469.69	489.17
469.87	479.81
470.05	503.22
470.23	390.87
470.41	451.72
470.59	475.13
470.77	482.15
470.95	430.66
471.14	535.98
471.32	468.11
471.50	533.64
471.68	465.77
471.86	395.55
472.04	463.43
472.22	465.77
472.40	437.68
472.58	461.09
472.77	425.98
472.95	425.98
473.13	496.19
473.31	505.56
473.49	444.70
473.67	430.66
473.85	564.07
474.03	512.58
474.21	472.79
474.39	512.58
474.57	557.05
474.75	533.64
474.93	486.83
475.12	465.77
475.30	491.51
475.48	503.22
475.66	561.73
475.84	479.81
476.02	550.03
476.20	568.75
476.38	533.64
476.56	528.96
476.74	589.82
476.92	510.24
477.10	475.13
477.28	550.03
477.46	610.88
477.64	552.37
477.82	472.79
478.00	468.11
478.18	559.39
478.36	512.58
478.54	535.98
478.72	503.22
478.90	573.43
479.08	550.03
479.26	638.97
479.44	596.84
479.62	528.96
479.80	538.32
479.98	599.18
480.16	578.11
480.34	674.07
480.52	564.07
480.70	655.35
480.88	592.16
481.06	613.22
481.24	608.54
481.41	561.73
481.59	678.76
481.77	622.58
481.95	610.88
482.13	636.63
482.31	638.97
482.49	631.94
482.67	765.36
482.85	662.37
483.03	627.26
483.21	592.16
483.39	674.07
483.57	716.20
483.74	704.50
483.92	748.97
484.10	662.37
484.28	699.82
484.46	727.91
484.64	688.12
484.82	704.50
485.00	683.44
485.18	781.74
485.35	779.40
485.53	674.07
485.71	807.48
485.89	763.01
486.07	788.76
486.25	898.77
486.43	795.78
486.61	753.65
486.78	830.89
486.96	828.55
487.14	823.87
487.32	849.61
487.50	774.72
487.68	823.87
487.85	809.83
488.03	901.11
488.21	929.19
488.39	795.78
488.57	866.00
488.75	791.10
488.92	1086.01
489.10	861.32
489.28	898.77
489.46	826.21
489.64	954.94
489.81	795.78
489.99	961.96
490.17	814.51
490.35	1027.50
490.53	938.55
490.70	863.66
490.88	889.40
491.06	926.85
491.24	835.57
491.41	882.38
491.59	929.19
491.77	929.19
491.95	924.51
492.13	964.30
492.30	887.06
492.48	877.70
492.66	828.55
492.84	919.83
493.01	882.38
493.19	929.19
493.37	919.83
493.54	966.64
493.72	929.19
493.90	891.74
494.08	1006.43
494.25	945.58
494.43	1015.79
494.61	882.38
494.79	933.87
494.96	966.64
495.14	908.13
495.32	908.13
495.49	1069.62
495.67	896.43
495.85	940.90
496.02	1006.43
496.20	1018.13
496.38	950.26
496.55	997.07
496.73	1050.90
496.91	1043.88
497.09	966.64
497.26	980.68
497.44	943.24
497.62	954.94
497.79	978.34
497.97	1032.18
498.14	968.98
498.32	1027.50
498.50	952.60
498.67	959.62
498.85	1011.11
499.03	1041.54
499.20	997.07
499.38	1074.31
499.56	884.72
499.73	999.41
499.91	950.26
500.08	1046.22
500.26	1057.92
500.44	1076.65
500.61	1018.13
500.79	973.66
500.97	1036.86
501.14	1041.54
501.32	1074.31
501.49	1083.67
501.67	1060.26
501.84	1086.01
502.02	978.34
502.20	1086.01
502.37	1074.31
502.55	1029.84
502.72	1020.47
502.90	1013.45
503.07	1060.26
503.25	1043.88
503.43	950.26
503.60	1086.01
503.78	1081.33
503.95	1018.13
504.13	1139.84
504.30	1111.75
504.48	1053.24
504.65	1076.65
504.83	1027.50
505.01	1029.84
505.18	1093.03
505.36	1116.44
505.53	1088.35
505.71	1109.41
505.88	1130.48
506.06	1102.39
506.23	1067.28
506.41	1032.18
506.58	1186.65
506.76	1160.91
506.93	1095.37
507.11	1041.54
507.28	1069.62
507.46	1231.12
507.63	1121.12
507.81	1118.78
507.98	1102.39
508.16	1100.05
508.33	1135.16
508.50	1041.54
508.68	1083.67
508.85	1181.97
509.03	1158.57
509.20	1093.03
509.38	1149.20
509.55	1224.10
509.73	1125.80
509.90	1151.54
510.08	1090.69
510.25	1139.84
510.42	1146.86
510.60	1212.40
510.77	1172.61
510.95	1165.59
511.12	1137.50
511.30	1252.19
511.47	1212.40
511.64	1210.06
511.82	1167.93
511.99	1224.10
512.17	1231.12
512.34	1170.27
512.51	1142.18
512.69	1200.69
512.86	1238.14
513.04	1226.44
513.21	1226.44
513.38	1139.84
513.56	1205.38
513.73	1336.45
513.90	1263.89
514.08	1109.41
514.25	1196.01
514.43	1207.72
514.60	1221.76
514.77	1146.86
514.95	1210.06
515.12	1116.44
515.29	1252.19
515.47	1210.06
515.64	1329.42
515.81	1270.91
515.99	1359.85
516.16	1153.88
516.33	1214.74
516.51	1247.51
516.68	1193.67
516.85	1149.20
517.03	1153.88
517.20	1254.53
517.37	1226.44
517.54	1249.85
517.72	1282.61
517.89	1226.44
518.06	1315.38
518.24	1224.10
518.41	1301.34
518.58	1205.38
518.75	1235.80
518.93	1210.06
519.10	1291.98
519.27	1345.81
519.45	1270.91
519.62	1287.29
519.79	1310.70
519.96	1242.82
520.14	1210.06
520.31	1224.10
520.48	1266.23
520.65	1280.27
520.83	1357.51
521.00	1371.55
521.17	1322.40
521.34	1322.40
521.52	1460.49
521.69	1289.64
521.86	1240.48
522.03	1315.38
522.20	1437.09
522.38	1329.42
522.55	1385.60
522.72	1371.55
522.89	1306.02
523.07	1448.79
523.24	1385.60
523.41	1256.87
523.58	1238.14
523.75	1345.81
523.92	1301.34
524.10	1313.04
524.27	1317.72
524.44	1324.74
524.61	1376.24
524.78	1469.86
524.96	1280.27
525.13	1411.34
525.30	1371.55
525.47	1348.15
525.64	1362.19
525.81	1301.34
525.98	1219.42
526.16	1362.19
526.33	1331.76
526.50	1392.62
526.67	1313.04
526.84	1390.28
527.01	1313.04
527.18	1451.13
527.36	1390.28
527.53	1369.21
527.70	1376.24
527.87	1425.39
528.04	1511.99
528.21	1299.00
528.38	1427.73
528.55	1406.66
528.72	1479.22
528.89	1434.75
529.07	1427.73
529.24	1423.05
529.41	1446.45
529.58	1294.32
529.75	1294.32
529.92	1334.11
530.09	1406.66
530.26	1458.15
530.43	1448.79
530.60	1455.81
530.77	1483.90
530.94	1486.24
531.11	1387.94
531.28	1387.94
531.46	1390.28
531.63	1299.00
531.80	1462.83
531.97	1366.87
532.14	1481.56
532.31	1488.58
532.48	1430.07
532.65	1521.35
532.82	1455.81
532.99	1549.43
533.16	1362.19
533.33	1479.22
533.50	1404.32
533.67	1488.58
533.84	1509.65
534.01	1511.99
534.18	1521.35
534.35	1481.56
534.52	1423.05
534.69	1528.37
534.86	1430.07
535.03	1427.73
535.20	1528.37
535.37	1465.18
535.54	1556.46
535.71	1476.88
535.88	1565.82
536.05	1500.28
536.22	1486.24
536.38	1481.56
536.55	1479.22
536.72	1544.75
536.89	1575.18
537.06	1540.07
537.23	1554.12
537.40	1570.50
537.57	1638.38
537.74	1619.65
537.91	1682.85
538.08	1565.82
538.25	1465.18
538.42	1638.38
538.59	1699.23
538.75	1650.08
538.92	1654.76
539.09	1654.76
539.26	1596.25
539.43	1753.06
539.60	1806.89
539.77	1832.64
539.94	1893.49
540.11	1877.11
540.28	1940.30
540.44	2008.18
540.61	1968.39
540.78	2132.23
540.95	2272.66
541.12	2326.49
541.29	2380.32
541.46	2534.80
541.62	2396.71
541.79	2434.16
541.96	2427.14
542.13	2427.14
542.30	2413.09
542.47	2466.92
542.63	2253.94
542.80	2380.32
542.97	2396.71
543.14	2296.07
543.31	2291.38
543.48	2401.39
543.64	2363.94
543.81	2335.85
543.98	2401.39
544.15	2317.13
544.32	2251.60
544.48	2321.81
544.65	2324.15
544.82	2319.47
544.99	2333.51
545.16	2340.54
545.32	2277.34
545.49	2853.11
545.66	3648.90
545.83	4304.25
546.00	3859.54
546.16	3061.42
546.33	2663.53
546.50	2298.41
546.67	2169.68
546.83	2066.69
547.00	2064.35
547.17	2092.44
547.34	1956.69
547.50	2019.88
547.67	2008.18
547.84	2008.18
548.00	2012.86
548.17	1987.11
548.34	1963.71
548.51	1877.11
548.67	1984.77
548.84	2017.54
549.01	1963.71
549.18	1928.60
549.34	1902.86
549.51	1856.04
549.68	1774.13
549.84	1778.81
550.01	1762.42
550.18	1914.56
550.34	1933.28
550.51	1797.53
550.68	1872.43
550.84	1708.59
551.01	1755.40
551.18	1732.00
551.34	1790.51
551.51	1790.51
551.68	1732.00
551.84	1732.00
552.01	1696.89
552.18	1729.66
552.34	1792.85
552.51	1790.51
552.68	1799.87
552.84	1776.47
553.01	1734.34
553.18	1666.46
553.34	1734.34
553.51	1699.23
553.67	1701.57
553.84	1720.29
554.01	1661.78
554.17	1640.72
554.34	1638.38
554.51	1727.32
554.67	1666.46
554.84	1603.27
555.00	1680.50
555.17	1636.03
555.33	1610.29
555.50	1717.95
555.67	1565.82
555.83	1586.88
556.00	1591.56
556.16	1778.81
556.33	1584.54
556.50	1640.72
556.66	1629.01
556.83	1640.72
556.99	1493.26
557.16	1671.14
557.32	1619.65
557.49	1605.61
557.65	1554.12
557.82	1547.09
557.98	1521.35
558.15	1582.20
558.32	1561.14
558.48	1610.29
558.65	1638.38
558.81	1528.37
558.98	1523.69
559.14	1540.07
559.31	1600.93
559.47	1607.95
559.64	1533.05
559.80	1577.52
559.97	1570.50
560.13	1600.93
560.30	1568.16
560.46	1502.62
560.63	1610.29
560.79	1568.16
560.96	1638.38
561.12	1671.14
561.29	1558.80
561.45	1516.67
561.61	1535.39
561.78	1657.10
561.94	1633.69
562.11	1554.12
562.27	1568.16
562.44	1558.80
562.60	1666.46
562.77	1657.10
562.93	1577.52
563.10	1589.22
563.26	1493.26
563.42	1570.50
563.59	1600.93
563.75	1643.06
563.92	1568.16
564.08	1596.25
564.24	1561.14
564.41	1640.72
564.57	1437.09
564.74	1565.82
564.90	1586.88
565.07	1624.33
565.23	1624.33
565.39	1589.22
565.56	1610.29
565.72	1596.25
565.88	1572.84
566.05	1509.65
566.21	1526.03
566.38	1460.49
566.54	1582.20
566.70	1502.62
566.87	1551.78
567.03	1549.43
567.19	1619.65
567.36	1687.53
567.52	1607.95
567.68	1533.05
567.85	1614.97
568.01	1621.99
568.17	1549.43
568.34	1547.09
568.50	1633.69
568.66	1636.03
568.83	1605.61
568.99	1565.82
569.15	1678.16
569.32	1593.90
569.48	1544.75
569.64	1556.46
569.81	1614.97
569.97	1666.46
570.13	1598.59
570.30	1568.16
570.46	1526.03
570.62	1542.41
570.78	1610.29
570.95	1561.14
571.11	1600.93
571.27	1647.74
571.43	1626.67
571.60	1612.63
571.76	1600.93
571.92	1549.43
572.09	1603.27
572.25	1619.65
572.41	1577.52
572.57	1680.50
572.74	1659.44
572.90	1619.65
573.06	1495.60
573.22	1638.38
573.38	1621.99
573.55	1661.78
573.71	1544.75
573.87	1575.18
574.03	1600.93
574.20	1458.15
574.36	1645.40
574.52	1652.42
574.68	1619.65
574.84	1593.90
575.01	1664.12
575.17	1629.01
575.33	1629.01
575.49	1654.76
575.65	1570.50
575.82	1549.43
575.98	1621.99
576.14	1547.09
576.30	1734.34
576.46	1863.07
576.62	1947.33
576.79	2038.61
576.95	1874.77
577.11	1837.32
577.27	1650.08
577.43	1739.02
577.59	1481.56
577.75	1514.33
577.92	1614.97
578.08	1530.71
578.24	1528.37
578.40	1682.85
578.56	1947.33
578.72	2083.08
578.88	2106.48
579.04	1863.07
579.21	1877.11
579.37	1783.49
579.53	1776.47
579.69	1771.79
579.85	1668.80
580.01	1797.53
580.17	1746.04
580.33	1762.42
580.49	1687.53
580.65	1638.38
580.82	1626.67
580.98	1687.53
581.14	1659.44
581.30	1680.50
581.46	1652.42
581.62	1694.55
581.78	1638.38
581.94	1713.27
582.10	1708.59
582.26	1842.00
582.42	1785.83
582.58	1767.10
582.74	1664.12
582.90	1844.34
583.06	1790.51
583.22	1729.66
583.38	1827.96
583.54	1820.94
583.70	1884.13
583.86	1743.70
584.02	1675.82
584.18	1778.81
584.34	1783.49
584.50	1842.00
584.66	1827.96
584.82	1614.97
584.98	1769.44
585.14	1767.10
585.30	1680.50
585.46	1734.34
585.62	1783.49
585.78	1710.93
585.94	1727.32
586.10	1776.47
586.26	1748.38
586.42	1891.15
586.58	1860.73
586.74	1816.26
586.90	1851.36
587.06	1926.26
587.22	1966.05
587.38	1893.49
587.54	1881.79
587.70	1795.19
587.86	1830.30
588.02	1727.32
588.18	1687.53
588.34	1755.40
588.49	1671.14
588.65	1643.06
588.81	1687.53
588.97	1626.67
589.13	1563.48
589.29	1645.40
589.45	1668.80
589.61	1633.69
589.77	1654.76
589.93	1568.16
590.08	1577.52
590.24	1710.93
590.40	1710.93
590.56	1540.07
590.72	1732.00
590.88	1767.10
591.04	1661.78
591.20	1722.63
591.35	1680.50
591.51	1771.79
591.67	1732.00
591.83	1668.80
591.99	1687.53
592.15	1732.00
592.31	1764.76
592.46	1671.14
592.62	1872.43
592.78	1816.26
592.94	1858.39
593.10	1860.73
593.26	1809.23
593.41	1797.53
593.57	1722.63
593.73	1727.32
593.89	1790.51
594.05	1724.97
594.20	1591.56
594.36	1689.87
594.52	1600.93
594.68	1504.96
594.84	1652.42
594.99	1727.32
595.15	1631.35
595.31	1720.29
595.47	1682.85
595.62	1668.80
595.78	1652.42
595.94	1652.42
596.10	1610.29
596.25	1696.89
596.41	1713.27
596.57	1636.03
596.73	1657.10
596.88	1612.63
597.04	1682.85
597.20	1706.25
597.36	1650.08
597.51	1624.33
597.67	1572.84
597.83	1687.53
597.99	1790.51
598.14	1586.88
598.30	1708.59
598.46	1713.27
598.61	1626.67
598.77	1675.82
598.93	1696.89
599.09	1664.12
599.24	1785.83
599.40	1703.91
599.56	1671.14
599.71	1706.25
599.87	1694.55
600.03	1645.40
600.18	1720.29
600.34	1610.29
600.50	1551.78
600.65	1657.10
600.81	1715.61
600.97	1654.76
601.12	1713.27
601.28	1577.52
601.44	1643.06
601.59	1572.84
601.75	1533.05
601.91	1607.95
602.06	1666.46
602.22	1675.82
602.37	1537.73
602.53	1593.90
602.69	1540.07
602.84	1558.80
603.00	1617.31
603.16	1715.61
603.31	1577.52
603.47	1596.25
603.62	1584.54
603.78	1654.76
603.94	1689.87
