SpectraSuite Data File
++++++++++++++++++++++++++++++++++++
Date: Fri Oct 04 11:39:56 GMT-05:00 2013
User: price-jones
Dark Spectrum Present: No
Reference Spectrum Present: No
Number of Sampled Component Spectra: 1
Spectrometers: USB2+H05261
Integration Time (usec): 100000 (USB2+H05261)
Spectra Averaged: 1 (USB2+H05261)
Boxcar Smoothing: 0 (USB2+H05261)
Correct for Electrical Dark: No (USB2+H05261)
Strobe/Lamp Enabled: No (USB2+H05261)
Correct for Detector Non-linearity: No (USB2+H05261)
Correct for Stray Light: No (USB2+H05261)
Number of Pixels in Processed Spectrum: 2048
>>>>>Begin Processed Spectral Data<<<<<
365.73	98.30
365.92	98.30
366.12	98.30
366.32	0.00
366.52	0.00
366.72	0.00
366.91	18.72
367.11	0.00
367.31	0.00
367.51	0.00
367.70	0.00
367.90	0.00
368.10	0.00
368.30	0.00
368.49	0.00
368.69	18.72
368.89	0.00
369.09	0.00
369.28	9.36
369.48	0.00
369.68	0.00
369.87	0.00
370.07	2.34
370.27	0.00
370.47	67.88
370.66	187.24
370.86	229.37
371.06	294.91
371.25	285.55
371.45	236.39
371.65	163.84
371.84	163.84
372.04	262.14
372.24	248.10
372.44	203.63
372.63	257.46
372.83	266.82
373.03	381.51
373.22	290.23
373.42	276.18
373.62	250.44
373.81	318.31
374.01	341.72
374.21	301.93
374.40	369.80
374.60	327.68
374.79	297.25
374.99	313.63
375.19	353.42
375.38	353.42
375.58	334.70
375.78	360.44
375.97	313.63
376.17	322.99
376.37	322.99
376.56	367.46
376.76	252.78
376.95	332.36
377.15	414.27
377.35	348.74
377.54	402.57
377.74	318.31
377.93	332.36
378.13	358.10
378.33	337.04
378.52	344.06
378.72	339.38
378.91	374.49
379.11	290.23
379.31	390.87
379.50	308.95
379.70	407.25
379.89	379.17
380.09	355.76
380.28	269.16
380.48	306.61
380.68	360.44
380.87	322.99
381.07	299.59
381.26	404.91
381.46	346.40
381.65	409.59
381.85	386.19
382.04	435.34
382.24	362.78
382.43	418.96
382.63	313.63
382.83	390.87
383.02	397.89
383.22	397.89
383.41	407.25
383.61	440.02
383.80	362.78
384.00	367.46
384.19	463.43
384.39	489.17
384.58	395.55
384.78	477.47
384.97	458.74
385.17	395.55
385.36	503.22
385.56	461.09
385.75	444.70
385.95	423.64
386.14	388.53
386.34	425.98
386.53	409.59
386.72	475.13
386.92	395.55
387.11	517.26
387.31	479.81
387.50	578.11
387.70	447.04
387.89	470.45
388.09	465.77
388.28	468.11
388.48	498.53
388.67	545.34
388.86	407.25
389.06	477.47
389.25	564.07
389.45	540.66
389.64	557.05
389.84	575.77
390.03	486.83
390.22	526.62
390.42	564.07
390.61	456.40
390.81	437.68
391.00	545.34
391.19	617.90
391.39	550.03
391.58	540.66
391.78	568.75
391.97	587.47
392.16	594.50
392.36	608.54
392.55	573.43
392.75	608.54
392.94	543.00
393.13	650.67
393.33	594.50
393.52	631.94
393.71	613.22
393.91	610.88
394.10	573.43
394.29	566.41
394.49	629.60
394.68	617.90
394.88	662.37
395.07	695.14
395.26	706.84
395.46	645.99
395.65	660.03
395.84	650.67
396.04	755.99
396.23	702.16
396.42	657.69
396.62	734.93
396.81	671.73
397.00	641.31
397.19	697.48
397.39	690.46
397.58	667.05
397.77	692.80
397.97	683.44
398.16	669.39
398.35	774.72
398.55	704.50
398.74	753.65
398.93	713.86
399.12	627.26
399.32	812.17
399.51	758.33
399.70	868.34
399.90	847.27
400.09	837.91
400.28	870.68
400.47	809.83
400.67	891.74
400.86	903.45
401.05	866.00
401.24	912.81
401.44	929.19
401.63	961.96
401.82	779.40
402.01	929.19
402.21	877.70
402.40	884.72
402.59	964.30
402.78	929.19
402.97	973.66
403.17	952.60
403.36	987.71
403.55	973.66
403.74	1071.97
403.93	1132.82
404.13	1086.01
404.32	999.41
404.51	1095.37
404.70	1118.78
404.89	1025.15
405.09	1172.61
405.28	1130.48
405.47	1022.81
405.66	1083.67
405.85	1203.04
406.05	1097.71
406.24	1125.80
406.43	1193.67
406.62	1207.72
406.81	1212.40
407.00	1256.87
407.20	1224.10
407.39	1245.16
407.58	1200.69
407.77	1329.42
407.96	1350.49
408.15	1331.76
408.34	1231.12
408.54	1306.02
408.73	1362.19
408.92	1291.98
409.11	1411.34
409.30	1416.02
409.49	1362.19
409.68	1397.30
409.87	1418.36
410.07	1511.99
410.26	1423.05
410.45	1383.26
410.64	1439.43
410.83	1519.01
411.02	1565.82
411.21	1626.67
411.40	1544.75
411.59	1582.20
411.78	1533.05
411.98	1523.69
412.17	1551.78
412.36	1523.69
412.55	1654.76
412.74	1739.02
412.93	1762.42
413.12	1624.33
413.31	1774.13
413.50	1753.06
413.69	1781.15
413.88	1811.57
414.07	1771.79
414.26	1860.73
414.45	1792.85
414.64	1802.21
414.83	1898.17
415.02	1849.02
415.22	2003.50
415.41	1987.11
415.60	1905.20
415.79	2017.54
415.98	2010.52
416.17	2057.33
416.36	2132.23
416.55	2080.74
416.74	2026.90
416.93	2064.35
417.12	2111.16
417.31	2188.40
417.50	2113.50
417.69	2202.44
417.88	2104.14
418.07	2132.23
418.26	2232.87
418.45	2282.02
418.64	2319.47
418.83	2401.39
419.02	2307.77
419.21	2314.79
419.39	2303.09
419.58	2267.98
419.77	2349.90
419.96	2380.32
420.15	2443.52
420.34	2417.77
420.53	2361.60
420.72	2429.48
420.91	2448.20
421.10	2361.60
421.29	2541.82
421.48	2424.80
421.67	2445.86
421.86	2459.90
422.05	2537.14
422.24	2532.46
422.43	2473.95
422.61	2623.74
422.80	2609.70
422.99	2572.25
423.18	2626.08
423.37	2626.08
423.56	2576.93
423.75	2583.95
423.94	2534.80
424.13	2441.18
424.32	2539.48
424.50	2471.61
424.69	2572.25
424.88	2677.57
425.07	2605.02
425.26	2595.65
425.45	2562.89
425.64	2647.15
425.83	2621.40
426.01	2731.41
426.20	2647.15
426.39	2719.70
426.58	2546.50
426.77	2633.10
426.96	2745.45
427.15	2698.64
427.33	2644.81
427.52	2759.49
427.71	2780.56
427.90	2752.47
428.09	2719.70
428.28	2820.35
428.46	2818.00
428.65	2778.22
428.84	2878.86
429.03	3005.25
429.22	2857.79
429.40	2902.26
429.59	2984.18
429.78	2825.03
429.97	2682.25
430.16	2743.11
430.34	2944.39
430.53	2906.95
430.72	2993.55
430.91	2937.37
431.10	2913.97
431.28	3002.91
431.47	3023.97
431.66	3012.27
431.85	2967.80
432.03	3082.49
432.22	3262.71
432.41	3157.38
432.60	3124.62
432.79	3061.42
432.97	3241.64
433.16	3206.53
433.35	3159.72
433.54	3190.15
433.72	3297.81
433.91	3211.22
434.10	3307.18
434.28	3215.90
434.47	3185.47
434.66	3398.46
434.85	3255.69
435.03	3344.63
435.22	3602.08
435.41	3822.09
435.59	3786.99
435.78	3688.68
435.97	3515.48
436.16	3492.08
436.34	3361.01
436.53	3389.10
436.72	3478.04
436.90	3349.31
437.09	3463.99
437.28	3473.36
437.46	3520.17
437.65	3545.91
437.84	3536.55
438.02	3412.50
438.21	3618.47
438.40	3520.17
438.58	3616.13
438.77	3702.73
438.96	3672.30
439.14	3679.32
439.33	3864.22
439.52	3887.63
439.70	3733.15
439.89	3763.58
440.08	3838.48
440.26	3934.44
440.45	3948.48
440.63	3929.76
440.82	3824.44
441.01	3857.20
441.19	3915.72
441.38	4175.52
441.57	3925.08
441.75	4114.66
441.94	4112.32
442.12	4234.03
442.31	4243.39
442.50	4074.87
442.68	4138.07
442.87	4262.12
443.05	4250.41
443.24	4344.03
443.43	4299.56
443.61	4243.39
443.80	4425.95
443.98	4252.75
444.17	4102.96
444.35	4287.86
444.54	4348.72
444.73	4428.29
444.91	4461.06
445.10	4339.35
445.28	4372.12
445.47	4327.65
445.65	4318.29
445.84	4407.23
446.02	4376.80
446.21	4325.31
446.39	4374.46
446.58	4561.70
446.77	4442.34
446.95	4215.30
447.14	4477.44
447.32	4615.54
447.51	4540.64
447.69	4449.36
447.88	4395.53
448.06	4477.44
448.25	4484.47
448.43	4470.42
448.62	4531.28
448.80	4393.19
448.99	4461.06
449.17	4414.25
449.36	4505.53
449.54	4582.77
449.73	4678.73
449.91	4479.79
450.10	4657.67
450.28	4613.20
450.46	4645.96
450.65	4678.73
450.83	4685.75
451.02	4744.27
451.20	4959.60
451.39	4826.18
451.57	4690.43
451.76	4802.78
451.94	4702.14
452.13	4809.80
452.31	4751.29
452.49	4821.50
452.68	4933.85
452.86	5008.75
453.05	4985.34
453.23	4954.91
453.42	4884.70
453.60	4919.81
453.78	4908.10
453.97	4903.42
454.15	5036.83
454.34	5083.64
454.52	5048.54
454.70	5081.30
454.89	5146.84
455.07	5146.84
455.26	4990.02
455.44	5156.20
455.62	5259.18
455.81	5006.41
455.99	5226.42
456.17	4954.91
456.36	5219.39
456.54	5355.15
456.73	5179.61
456.91	5317.70
457.09	5331.74
457.28	5621.97
457.46	5425.36
457.64	5432.38
457.83	5469.83
458.01	5291.95
458.19	5481.53
458.38	5490.90
458.56	5439.40
458.74	5549.41
458.93	5586.86
459.11	5460.47
459.29	5483.88
459.48	5526.00
459.66	5715.59
459.84	5760.06
460.03	5776.44
460.21	5633.67
460.39	5664.10
460.57	5741.33
460.76	5673.46
460.94	5788.14
461.12	5870.06
461.31	5944.96
461.49	5790.49
461.67	5654.73
461.85	5944.96
462.04	5832.62
462.22	6303.06
462.40	5954.32
462.59	6127.52
462.77	5891.13
462.95	6029.22
463.13	6106.46
463.32	5919.21
463.50	5916.87
463.68	6106.46
463.86	6174.33
464.05	5942.62
464.23	6005.81
464.41	6015.18
464.59	5987.09
464.78	6214.12
464.96	6183.70
465.14	6069.01
465.32	6176.67
465.50	6305.40
465.69	6228.17
465.87	5982.41
466.05	6202.42
466.23	6181.35
466.41	6338.17
466.60	6579.25
466.78	6291.36
466.96	6265.61
467.14	6284.34
467.32	6361.58
467.51	6450.52
467.69	6305.40
467.87	6375.62
468.05	6534.78
468.23	6441.15
468.41	6380.30
468.60	6555.84
468.78	6445.84
468.96	6389.66
469.14	6635.42
469.32	6593.29
469.50	6373.28
469.69	6764.15
469.87	6724.36
470.05	6787.55
470.23	6745.42
470.41	6715.00
470.59	6801.60
470.77	6672.87
470.95	6759.47
471.14	6946.71
471.32	6862.45
471.50	7117.57
471.68	6949.05
471.86	6991.18
472.04	6986.50
472.22	7323.54
472.40	6902.24
472.58	7077.78
472.77	7061.40
472.95	7164.38
473.13	7442.90
473.31	7026.29
473.49	7159.70
473.67	7314.17
473.85	7307.15
474.03	7330.56
474.21	7470.99
474.39	7447.58
474.57	7482.69
474.75	7473.33
474.93	7531.84
475.12	7559.93
475.30	7613.76
475.48	7592.70
475.66	7695.68
475.84	7634.83
476.02	7826.75
476.20	7805.69
476.38	7957.82
476.56	8065.49
476.74	8126.34
476.92	8079.53
477.10	8138.04
477.28	8273.79
477.46	8037.40
477.64	8397.84
477.82	8503.17
478.00	8561.68
478.18	8617.85
478.36	8704.45
478.54	8716.16
478.72	8587.43
478.90	8861.27
479.08	8870.63
479.26	8901.06
479.44	8861.27
479.62	9041.49
479.80	9181.92
479.98	8978.30
480.16	9167.88
480.34	9221.71
480.52	9362.14
480.70	9514.28
480.88	9380.87
481.06	9420.66
481.24	9413.63
481.41	9647.69
481.59	9790.46
481.77	9802.16
481.95	9919.19
482.13	10033.88
482.31	9961.32
482.49	9949.62
482.67	10097.07
482.85	10218.78
483.03	10375.59
483.21	10565.18
483.39	10572.20
483.57	10443.47
483.74	10436.45
483.92	10801.57
484.10	10506.66
484.28	11030.94
484.46	11082.44
484.64	11304.79
484.82	11166.70
485.00	11194.78
485.18	11466.28
485.35	11733.11
485.53	11328.19
485.71	11391.39
485.89	11763.53
486.07	11709.70
486.25	11878.22
486.43	11637.14
486.61	12112.27
486.78	12091.21
486.96	12013.97
487.14	12318.24
487.32	12336.96
487.50	12388.46
487.68	12514.84
487.85	12606.13
488.03	12891.67
488.21	12940.82
488.39	12924.44
488.57	13001.68
488.75	12896.35
488.92	13561.06
489.10	13057.85
489.28	13509.57
489.46	13699.16
489.64	13549.36
489.81	13729.58
489.99	13827.88
490.17	13764.69
490.35	13947.25
490.53	14134.50
490.70	14443.45
490.88	14122.79
491.06	14410.68
491.24	14321.74
491.41	14457.49
491.59	14789.85
491.77	14635.37
491.95	14792.19
492.13	14953.68
492.30	14977.09
492.48	15009.86
492.66	15328.17
492.84	15143.27
493.01	15316.47
493.19	15414.77
493.37	15276.68
493.54	15515.41
493.72	15754.15
493.90	15728.40
494.08	15700.31
494.25	16116.93
494.43	15999.90
494.61	16119.27
494.79	15960.11
494.96	16332.26
495.14	16095.86
495.32	16484.39
495.49	16304.17
495.67	16683.34
495.85	16915.05
496.02	16840.15
496.20	16926.75
496.38	16931.44
496.55	17083.57
496.73	17221.66
496.91	17205.28
497.09	17448.69
497.26	17102.29
497.44	17097.61
497.62	17387.84
497.79	17722.54
497.97	17635.94
498.14	17837.22
498.32	17886.37
498.50	17914.46
498.67	18071.28
498.85	18047.87
499.03	18099.36
499.20	18017.44
499.38	18317.03
499.56	18293.63
499.73	18555.77
499.91	18789.82
500.08	18934.93
500.26	18623.64
500.44	18670.45
500.61	18834.29
500.79	18717.26
500.97	18937.27
501.14	19110.47
501.32	19293.04
501.49	19161.97
501.67	19274.31
501.84	19412.40
502.02	19168.99
502.20	19513.05
502.37	19389.00
502.55	19580.92
502.72	19344.53
502.90	19651.14
503.07	19609.01
503.25	19836.04
503.43	19737.74
503.60	19910.94
503.78	19939.02
503.95	19920.30
504.13	19702.63
504.30	19992.86
504.48	19742.42
504.65	20315.85
504.83	20535.86
505.01	20482.03
505.18	20350.96
505.36	20465.64
505.53	20077.12
505.71	20540.54
505.88	20748.85
506.06	20678.63
506.23	21081.21
506.41	20577.99
506.58	20762.89
506.76	21116.31
506.93	20805.02
507.11	20989.92
507.28	21331.64
507.46	21167.80
507.63	21469.73
507.81	21420.58
507.98	21259.09
508.16	21509.52
508.33	21504.84
508.50	21474.42
508.68	21687.40
508.85	22111.04
509.03	21830.18
509.20	21954.22
509.38	22089.98
509.55	22101.68
509.73	22251.47
509.90	22106.36
510.08	22176.58
510.25	22263.18
510.42	22424.67
510.60	22314.67
510.77	22724.26
510.95	22427.01
511.12	22679.79
511.30	22532.34
511.47	22457.44
511.64	22845.97
511.82	23131.51
511.99	22801.50
512.17	23075.34
512.34	22719.58
512.51	23157.26
512.69	23403.02
512.86	23367.91
513.04	23573.88
513.21	23386.63
513.38	23501.32
513.56	23452.17
513.73	23175.98
513.90	23559.83
514.08	23379.61
514.25	23655.79
514.43	23775.16
514.60	23824.31
514.77	24173.05
514.95	23889.85
515.12	23735.37
515.29	23681.54
515.47	23728.35
515.64	23976.45
515.81	24063.05
515.99	24341.57
516.16	24339.23
516.33	24322.85
516.51	24666.91
516.68	24072.41
516.85	24334.55
517.03	24360.30
517.20	24627.12
517.37	24690.31
517.54	24912.66
517.72	24697.33
517.89	24690.31
518.06	24503.07
518.24	24664.57
518.41	24858.83
518.58	24959.47
518.75	24893.94
518.93	25329.28
519.10	25441.62
519.27	25401.83
519.45	25235.66
519.62	24905.64
519.79	25453.33
519.96	25254.38
520.14	25795.04
520.31	25532.90
520.48	25542.27
520.65	25628.87
520.83	25532.90
521.00	25795.04
521.17	25692.06
521.34	25582.06
521.52	25942.50
521.69	25982.29
521.86	26185.91
522.03	26073.57
522.20	26321.66
522.38	26338.05
522.55	26085.27
522.72	26085.27
522.89	26377.84
523.07	26368.48
523.24	26527.63
523.41	26415.29
523.58	26157.83
523.75	26859.99
523.92	26597.85
524.10	26738.28
524.27	27065.96
524.44	27318.73
524.61	27424.06
524.78	26841.26
524.96	27138.51
525.13	26616.57
525.30	27016.80
525.47	27072.98
525.64	27321.07
525.81	27147.87
525.98	27440.44
526.16	27463.85
526.33	27037.87
526.50	27468.53
526.67	27515.34
526.84	27112.77
527.01	27264.90
527.18	27515.34
527.36	27740.03
527.53	27700.24
527.70	28100.47
527.87	28006.85
528.04	27494.27
528.21	27606.62
528.38	28112.17
528.55	28072.39
528.72	27992.81
528.89	28147.28
529.07	27894.50
529.24	27866.42
529.41	28079.41
529.58	27985.79
529.75	27765.78
529.92	28224.52
530.09	28018.55
530.26	28229.20
530.43	28732.42
530.60	28168.35
530.77	28252.61
530.94	28599.01
531.11	28034.94
531.28	28463.25
531.46	28135.58
531.63	28631.77
531.80	28320.48
531.97	28573.26
532.14	28833.06
532.31	28613.05
532.48	28659.86
532.65	28809.65
532.82	28610.71
532.99	28767.52
533.16	28753.48
533.33	29060.09
533.50	29259.04
533.67	29352.66
533.84	28748.80
534.01	28879.87
534.18	28877.53
534.35	29359.68
534.52	28985.19
534.69	29247.33
534.86	29329.25
535.03	29418.19
535.20	29369.04
535.37	29680.33
535.54	29418.19
535.71	29355.00
535.88	29109.24
536.05	29748.21
536.22	29963.54
536.38	30132.06
536.55	29923.75
536.72	29570.33
536.89	29663.95
537.06	29898.00
537.23	29834.81
537.40	29778.64
537.57	29757.57
537.74	29860.55
537.91	29820.77
538.08	30050.14
538.25	29940.13
538.42	30099.29
538.59	30305.26
538.75	29933.11
538.92	30068.86
539.09	30272.49
539.26	30258.45
539.43	30368.45
539.60	30632.93
539.77	30696.13
539.94	30593.14
540.11	30824.86
540.28	30391.86
540.44	30469.09
540.61	30405.90
540.78	30773.36
540.95	30843.58
541.12	31005.08
541.29	31002.74
541.46	31061.25
541.62	30857.62
541.79	30993.37
541.96	30885.71
542.13	30792.09
542.30	31468.50
542.47	31239.13
542.63	31658.09
542.80	31386.58
542.97	31791.50
543.14	31723.62
543.31	31431.05
543.48	31646.38
543.64	31835.97
543.81	31728.30
543.98	31681.49
544.15	31681.49
544.32	31943.63
544.48	31845.33
544.65	31885.12
544.82	31936.61
544.99	31295.30
545.16	31894.48
545.32	32020.87
545.49	32582.60
545.66	33158.37
545.83	33219.22
546.00	33036.66
546.16	32198.75
546.33	32128.53
546.50	31810.22
546.67	31756.39
546.83	31459.14
547.00	31917.89
547.17	31892.14
547.34	32383.65
547.50	32123.85
547.67	31995.12
547.84	32074.70
548.00	31969.38
548.17	32575.58
548.34	31782.13
548.51	32409.40
548.67	32055.98
548.84	32046.62
549.01	32334.50
549.18	32449.19
549.34	31945.97
549.51	32140.24
549.68	32126.19
549.84	32231.52
550.01	32332.16
550.18	32283.01
550.34	32315.78
550.51	32437.48
550.68	32577.92
550.84	32547.49
551.01	32545.15
551.18	32514.72
551.34	31985.76
551.51	32343.86
551.68	32739.41
551.84	32266.63
552.01	32460.89
552.18	32629.41
552.34	32446.85
552.51	32786.22
552.68	32818.99
552.84	32528.77
553.01	32577.92
553.18	32474.93
553.34	32636.43
553.51	32659.84
553.67	32779.20
553.84	33230.93
554.01	32945.38
554.17	32465.57
554.34	32821.33
554.51	32561.53
554.67	32961.76
554.84	32945.38
555.00	32528.77
555.17	32851.76
555.33	33296.46
555.50	32933.68
555.67	32788.56
555.83	33006.23
556.00	33202.84
556.16	33338.59
556.33	33001.55
556.50	33378.38
556.66	32856.44
556.83	32940.70
556.99	33261.35
557.16	33523.49
557.32	33261.35
557.49	33186.46
557.65	32858.78
557.82	33020.28
557.98	32781.54
558.15	33174.75
558.32	33280.08
558.48	33160.71
558.65	33113.90
558.81	33743.50
558.98	33006.23
559.14	33464.98
559.31	32898.57
559.47	33305.82
559.64	33324.55
559.80	33350.29
559.97	33645.20
560.13	33376.04
560.30	33362.00
560.46	33699.03
560.63	33640.52
560.79	33701.37
560.96	33170.07
561.12	33759.89
561.29	33621.80
561.45	33537.54
561.61	33706.05
561.78	33312.84
561.94	33570.30
562.11	33642.86
562.27	33200.50
562.44	33469.66
562.60	33708.40
562.77	33497.75
562.93	33490.73
563.10	33668.61
563.26	33589.03
563.42	33979.90
563.59	33577.33
563.75	33591.37
563.92	33654.56
564.08	33090.49
564.24	33600.73
564.41	33509.45
564.57	33893.30
564.74	33530.51
564.90	33825.42
565.07	33888.62
565.23	33706.05
565.39	33640.52
565.56	33909.68
565.72	33464.98
565.88	33888.62
566.05	33408.81
566.21	33392.42
566.38	33422.85
566.54	33586.69
566.70	33802.02
566.87	33968.19
567.03	33876.91
567.19	33839.47
567.36	33776.27
567.52	33530.51
567.68	33783.29
567.85	33652.22
568.01	33731.80
568.17	33965.85
568.34	33507.11
568.50	33933.09
568.66	33876.91
568.83	33951.81
568.99	33830.10
569.15	33546.90
569.32	33886.28
569.48	33668.61
569.64	33675.63
569.81	33813.72
569.97	33876.91
570.13	34181.18
570.30	33797.34
570.46	34113.31
570.62	33598.39
570.78	33544.56
570.95	33769.25
571.11	33778.61
571.27	33570.30
571.43	33869.89
571.60	34089.90
571.76	33818.40
571.92	34071.18
572.09	34220.97
572.25	34061.82
572.41	34038.41
572.57	34005.64
572.74	34150.76
572.90	33991.60
573.06	33605.41
573.22	33656.90
573.38	34129.69
573.55	34321.62
573.71	34412.90
573.87	34293.53
574.03	33919.04
574.20	34064.16
574.36	33926.07
574.52	33916.70
574.68	34043.09
574.84	34263.10
575.01	33996.28
575.17	34288.85
575.33	33839.47
575.49	33802.02
575.65	34342.68
575.82	34239.70
575.98	33741.16
576.14	33652.22
576.30	34022.03
576.46	34436.30
576.62	34059.48
576.79	33862.87
576.95	33923.72
577.11	34167.14
577.27	34408.22
577.43	33949.47
577.59	34230.33
577.75	34143.74
577.92	34092.24
578.08	33617.11
578.24	34164.80
578.40	34139.05
578.56	34309.91
578.72	34419.92
578.88	34314.59
579.04	34560.35
579.21	34127.35
579.37	34022.03
579.53	34190.55
579.69	34075.86
579.85	34354.38
580.01	34286.51
580.17	34129.69
580.33	34335.66
580.49	34169.48
580.65	34157.78
580.82	34349.70
580.98	33825.42
581.14	33792.65
581.30	34022.03
581.46	34150.76
581.62	33717.76
581.78	33825.42
581.94	33921.38
582.10	33745.84
582.26	34199.91
582.42	34401.19
582.58	34424.60
582.74	33951.81
582.90	33916.70
583.06	34288.85
583.22	34085.22
583.38	34202.25
583.54	34284.17
583.70	34181.18
583.86	34246.72
584.02	33947.13
584.18	34457.37
584.34	34476.09
584.50	34256.08
584.66	34277.15
584.82	34178.84
584.98	34225.65
585.14	34059.48
585.30	33544.56
585.46	33944.79
585.62	34071.18
585.78	34085.22
585.94	34012.66
586.10	34263.10
586.26	34024.37
586.42	34396.51
586.58	34445.66
586.74	33816.06
586.90	33897.98
587.06	34040.75
587.22	34352.04
587.38	34167.14
587.54	34632.91
587.70	34183.52
587.86	34462.05
588.02	34389.49
588.18	34600.14
588.34	34361.40
588.49	34448.00
588.65	34232.68
588.81	34202.25
588.97	33930.75
589.13	34246.72
589.29	34256.08
589.45	34625.89
589.61	34096.92
589.77	34499.50
589.93	34745.25
590.08	34562.69
590.24	34377.79
590.40	34394.17
590.56	34457.37
590.72	33961.17
590.88	34429.28
591.04	34286.51
591.20	34323.96
591.35	34422.26
