SpectraSuite Data File
++++++++++++++++++++++++++++++++++++
Date: Fri Oct 04 11:39:35 GMT-05:00 2013
User: price-jones
Dark Spectrum Present: No
Reference Spectrum Present: No
Number of Sampled Component Spectra: 1
Spectrometers: USB2+H05261
Integration Time (usec): 100000 (USB2+H05261)
Spectra Averaged: 1 (USB2+H05261)
Boxcar Smoothing: 0 (USB2+H05261)
Correct for Electrical Dark: No (USB2+H05261)
Strobe/Lamp Enabled: No (USB2+H05261)
Correct for Detector Non-linearity: No (USB2+H05261)
Correct for Stray Light: No (USB2+H05261)
Number of Pixels in Processed Spectrum: 2048
>>>>>Begin Processed Spectral Data<<<<<
365.73	86.60
365.92	86.60
366.12	86.60
366.32	0.00
366.52	0.00
366.72	7.02
366.91	0.00
367.11	0.00
367.31	0.00
367.51	21.06
367.70	0.00
367.90	0.00
368.10	0.00
368.30	11.70
368.49	0.00
368.69	14.04
368.89	0.00
369.09	0.00
369.28	0.00
369.48	0.00
369.68	0.00
369.87	0.00
370.07	25.75
370.27	25.75
370.47	124.05
370.66	196.60
370.86	280.86
371.06	266.82
371.25	269.16
371.45	196.60
371.65	320.65
371.84	241.08
372.04	248.10
372.24	285.55
372.44	266.82
372.63	341.72
372.83	276.18
373.03	297.25
373.22	287.89
373.42	271.50
373.62	290.23
373.81	229.37
374.01	299.59
374.21	346.40
374.40	318.31
374.60	362.78
374.79	292.57
374.99	341.72
375.19	372.15
375.38	461.09
375.58	451.72
375.78	367.46
375.97	421.30
376.17	409.59
376.37	318.31
376.56	306.61
376.76	280.86
376.95	358.10
377.15	395.55
377.35	351.08
377.54	353.42
377.74	414.27
377.93	334.70
378.13	379.17
378.33	454.06
378.52	425.98
378.72	381.51
378.91	409.59
379.11	414.27
379.31	313.63
379.50	325.33
379.70	334.70
379.89	390.87
380.09	421.30
380.28	365.12
380.48	435.34
380.68	386.19
380.87	365.12
381.07	425.98
381.26	500.87
381.46	397.89
381.65	386.19
381.85	393.21
382.04	416.62
382.24	369.80
382.43	400.23
382.63	400.23
382.83	423.64
383.02	411.93
383.22	379.17
383.41	435.34
383.61	496.19
383.80	428.32
384.00	461.09
384.19	414.27
384.39	479.81
384.58	498.53
384.78	463.43
384.97	397.89
385.17	454.06
385.36	521.94
385.56	416.62
385.75	440.02
385.95	489.17
386.14	451.72
386.34	589.82
386.53	531.30
386.72	507.90
386.92	444.70
387.11	505.56
387.31	517.26
387.50	407.25
387.70	479.81
387.89	540.66
388.09	500.87
388.28	468.11
388.48	512.58
388.67	561.73
388.86	535.98
389.06	571.09
389.25	571.09
389.45	454.06
389.64	573.43
389.84	571.09
390.03	521.94
390.22	524.28
390.42	589.82
390.61	566.41
390.81	571.09
391.00	533.64
391.19	526.62
391.39	636.63
391.58	613.22
391.78	617.90
391.97	557.05
392.16	624.92
392.36	606.20
392.55	634.29
392.75	566.41
392.94	582.79
393.13	716.20
393.33	596.84
393.52	681.10
393.71	683.44
393.91	603.86
394.10	678.76
394.29	653.01
394.49	622.58
394.68	739.61
394.88	744.29
395.07	678.76
395.26	709.18
395.46	781.74
395.65	716.20
395.84	755.99
396.04	840.25
396.23	779.40
396.42	795.78
396.62	826.21
396.81	744.29
397.00	732.59
397.19	875.36
397.39	718.54
397.58	835.57
397.77	798.12
397.97	788.76
398.16	751.31
398.35	809.83
398.55	840.25
398.74	903.45
398.93	887.06
399.12	837.91
399.32	781.74
399.51	863.66
399.70	933.87
399.90	870.68
400.09	994.73
400.28	966.64
400.47	922.17
400.67	1020.47
400.86	931.53
401.05	976.00
401.24	971.32
401.44	1055.58
401.63	968.98
401.82	1006.43
402.01	959.62
402.21	1032.18
402.40	992.39
402.59	1008.77
402.78	1050.90
402.97	1139.84
403.17	1116.44
403.36	1128.14
403.55	1093.03
403.74	1170.27
403.93	1196.01
404.13	1102.39
404.32	1097.71
404.51	1156.22
404.70	1291.98
404.89	1149.20
405.09	1287.29
405.28	1329.42
405.47	1221.76
405.66	1275.59
405.85	1256.87
406.05	1376.24
406.24	1266.23
406.43	1348.15
406.62	1331.76
406.81	1502.62
407.00	1366.87
407.20	1308.36
407.39	1481.56
407.58	1448.79
407.77	1486.24
407.96	1540.07
408.15	1565.82
408.34	1497.94
408.54	1526.03
408.73	1481.56
408.92	1568.16
409.11	1554.12
409.30	1486.24
409.49	1619.65
409.68	1589.22
409.87	1582.20
410.07	1668.80
410.26	1682.85
410.45	1703.91
410.64	1724.97
410.83	1804.55
411.02	1753.06
411.21	1856.04
411.40	1795.19
411.59	1863.07
411.78	1818.60
411.98	1884.13
412.17	1909.88
412.36	1851.36
412.55	2010.52
412.74	2052.65
412.93	1930.94
413.12	1912.22
413.31	2134.57
413.50	2125.21
413.69	2057.33
413.88	2214.15
414.07	2050.31
414.26	2054.99
414.45	2366.28
414.64	2289.04
414.83	2244.57
415.02	2307.77
415.22	2300.75
415.41	2450.54
415.60	2300.75
415.79	2347.56
415.98	2422.45
416.17	2443.52
416.36	2408.41
416.55	2520.76
416.74	2590.97
416.93	2415.43
417.12	2546.50
417.31	2626.08
417.50	2619.06
417.69	2724.38
417.88	2672.89
418.07	2616.72
418.26	2630.76
418.45	2778.22
418.64	2848.43
418.83	2965.46
419.02	2691.62
419.21	2897.58
419.39	2850.77
419.58	2876.52
419.77	2825.03
419.96	2909.29
420.15	3019.29
420.34	3007.59
420.53	2942.05
420.72	3054.40
420.91	3052.06
421.10	2981.84
421.29	3084.83
421.48	3080.14
421.67	3082.49
421.86	3138.66
422.05	3267.39
422.24	3234.62
422.43	3155.04
422.61	3171.43
422.80	3171.43
422.99	3232.28
423.18	3260.37
423.37	3337.60
423.56	3311.86
423.75	3199.51
423.94	3206.53
424.13	2998.23
424.32	3089.51
424.50	3328.24
424.69	3389.10
424.88	3365.69
425.07	3255.69
425.26	3136.32
425.45	3251.00
425.64	3368.03
425.83	3157.38
426.01	3318.88
426.20	3239.30
426.39	3227.60
426.58	3293.13
426.77	3211.22
426.96	3375.05
427.15	3302.50
427.33	3222.92
427.52	3482.72
427.71	3417.18
427.90	3410.16
428.09	3468.67
428.28	3447.61
428.46	3492.08
428.65	3651.24
428.84	3695.71
429.03	3819.75
429.22	3508.46
429.40	3672.30
429.59	3644.21
429.78	3536.55
429.97	3428.88
430.16	3602.08
430.34	3768.26
430.53	3798.69
430.72	3801.03
430.91	3744.86
431.10	3786.99
431.28	3730.81
431.47	3885.29
431.66	3962.53
431.85	3859.54
432.03	3934.44
432.22	3948.48
432.41	3815.07
432.60	3955.51
432.79	3864.22
432.97	3815.07
433.16	3925.08
433.35	3887.63
433.54	3953.16
433.72	4117.00
433.91	4023.38
434.10	4011.68
434.28	4084.23
434.47	4184.88
434.66	4124.02
434.85	4191.90
435.03	4339.35
435.22	4461.06
435.41	4564.04
435.59	4575.75
435.78	4557.02
435.97	4327.65
436.16	4234.03
436.34	4308.93
436.53	4315.95
436.72	4416.59
436.90	4304.25
437.09	4594.47
437.28	4285.52
437.46	4360.42
437.65	4407.23
437.84	4498.51
438.02	4379.14
438.21	4524.26
438.40	4477.44
438.58	4552.34
438.77	4592.13
438.96	4571.07
439.14	4528.94
439.33	4702.14
439.52	4624.90
439.70	4774.69
439.89	4844.91
440.08	4828.53
440.26	4791.08
440.45	4873.00
440.63	4795.76
440.82	4957.25
441.01	4905.76
441.19	5050.88
441.38	5160.88
441.57	5301.31
441.75	5085.98
441.94	5233.44
442.12	5291.95
442.31	5238.12
442.50	5266.21
442.68	5334.08
442.87	5416.00
443.05	5158.54
443.24	5401.96
443.43	5357.49
443.61	5497.92
443.80	5453.45
443.98	5406.64
444.17	5280.25
444.35	5413.66
444.54	5376.21
444.73	5497.92
444.91	5551.75
445.10	5659.42
445.28	5554.09
445.47	5411.32
445.65	5469.83
445.84	5582.18
446.02	5668.78
446.21	5509.62
446.39	5521.32
446.58	5568.13
446.77	5668.78
446.95	5678.14
447.14	5638.35
447.32	5507.28
447.51	5565.79
447.69	5518.98
447.88	5738.99
448.06	5654.73
448.25	5701.54
448.43	5650.05
448.62	5565.79
448.80	5734.31
448.99	5774.10
449.17	5909.85
449.36	5783.46
449.54	5717.93
449.73	5907.51
449.91	6059.65
450.10	5951.98
450.28	6024.54
450.46	5832.62
450.65	5956.66
450.83	5940.28
451.02	6015.18
451.20	6101.78
451.39	6083.05
451.57	6108.80
451.76	6076.03
451.94	6036.24
452.13	6122.84
452.31	6139.23
452.49	5912.19
452.68	6125.18
452.86	6136.88
453.05	6373.28
453.23	6291.36
453.42	6200.08
453.60	6125.18
453.78	6277.32
453.97	6164.97
454.15	6237.53
454.34	6225.82
454.52	6438.81
454.70	6487.96
454.89	6242.21
455.07	6340.51
455.26	6546.48
455.44	6506.69
455.62	6450.52
455.81	6516.05
455.99	6527.75
456.17	6649.46
456.36	6752.45
456.54	6595.63
456.73	6623.72
456.91	6864.79
457.09	6942.03
457.28	6977.14
457.46	6794.58
457.64	6899.90
457.83	6892.88
458.01	6729.04
458.19	7080.12
458.38	6979.48
458.56	7157.36
458.74	7012.24
458.93	7009.90
459.11	6899.90
459.29	6970.12
459.48	7094.16
459.66	7007.56
459.84	7115.23
460.03	7335.24
460.21	7403.11
460.39	7377.37
460.57	7215.87
460.76	7293.11
460.94	7360.98
461.12	7353.96
461.31	7382.05
461.49	7265.02
461.67	7302.47
461.85	7494.40
462.04	7449.93
462.22	7679.30
462.40	7660.57
462.59	7583.34
462.77	7583.34
462.95	7801.01
463.13	7588.02
463.32	7681.64
463.50	7559.93
463.68	7482.69
463.86	7866.54
464.05	7632.49
464.23	7606.74
464.41	7700.36
464.59	7576.31
464.78	7742.49
464.96	7623.12
465.14	7641.85
465.32	7932.08
465.50	7840.79
465.69	7852.50
465.87	7770.58
466.05	7857.18
466.23	7805.69
466.41	8063.15
466.60	8147.40
466.78	7854.84
466.96	7866.54
467.14	7901.65
467.32	8161.45
467.51	8116.98
467.69	7948.46
467.87	8049.10
468.05	8327.63
468.23	8004.63
468.41	8320.60
468.60	8215.28
468.78	8308.90
468.96	8245.71
469.14	8266.77
469.32	8470.40
469.50	8159.11
469.69	8348.69
469.87	8489.12
470.05	8505.51
470.23	8538.27
470.41	8510.19
470.59	8610.83
470.77	8486.78
470.95	8823.82
471.14	8629.56
471.32	8538.27
471.50	8849.57
471.68	8812.12
471.86	8667.00
472.04	9046.17
472.22	9039.15
472.40	8751.26
472.58	9139.79
472.77	9240.44
472.95	9146.81
473.13	9350.44
473.31	9165.54
473.49	9053.19
473.67	9273.20
473.85	9247.46
474.03	9446.40
474.21	9371.50
474.39	9252.14
474.57	9495.55
474.75	9710.88
474.93	9612.58
475.12	9591.52
475.30	9727.27
475.48	9881.74
475.66	9980.04
475.84	9671.09
476.02	9977.70
476.20	10001.11
476.38	10284.31
476.56	10363.89
476.74	10328.78
476.92	10286.65
477.10	10164.95
477.28	10382.62
477.46	10487.94
477.64	10630.71
477.82	10754.76
478.00	10986.47
478.18	10806.25
478.36	11047.33
478.54	11255.64
478.72	11222.87
478.90	11023.92
479.08	11187.76
479.26	11435.86
479.44	11531.82
479.62	11485.01
479.80	11681.61
479.98	11545.86
480.16	12044.40
480.34	11740.13
480.52	11812.68
480.70	12013.97
480.88	11826.73
481.06	12032.69
481.24	11899.28
481.41	12343.99
481.59	12479.74
481.77	12318.24
481.95	12648.26
482.13	12814.43
482.31	12587.40
482.49	13078.91
482.67	12945.50
482.85	13205.30
483.03	12959.55
483.21	13205.30
483.39	13427.65
483.57	13582.13
483.74	13490.85
483.92	13692.13
484.10	13493.19
484.28	13991.72
484.46	13907.46
484.64	14333.44
484.82	14040.87
485.00	14038.53
485.18	14593.24
485.35	14721.97
485.53	14876.44
485.71	14778.14
485.89	14881.13
486.07	15059.01
486.25	14904.53
486.43	15154.97
486.61	15241.57
486.78	15484.98
486.96	15756.49
487.14	16058.42
487.32	15878.19
487.50	15651.16
487.68	16030.33
487.85	16072.46
488.03	16379.07
488.21	16690.36
488.39	16568.65
488.57	16709.08
488.75	17036.76
488.92	16936.12
489.10	17137.40
489.28	16952.50
489.46	17336.35
489.64	17366.78
489.81	17657.00
489.99	17886.37
490.17	17797.43
490.35	17891.06
490.53	17914.46
490.70	18483.21
490.88	18207.03
491.06	18438.74
491.24	18134.47
491.41	18558.11
491.59	18633.00
491.77	19007.49
491.95	18988.77
492.13	19077.71
492.30	19381.98
492.48	19094.09
492.66	19094.09
492.84	19257.93
493.01	19644.12
493.19	19740.08
493.37	19864.13
493.54	19976.47
493.72	20166.06
493.90	20168.40
494.08	20133.29
494.25	20526.50
494.43	20446.92
494.61	20720.76
494.79	21003.97
494.96	20659.91
495.14	20912.69
495.32	21219.30
495.49	21373.77
495.67	21532.93
495.85	21319.94
496.02	21612.51
496.20	21675.70
496.38	21589.10
496.55	21706.13
496.73	22005.72
496.91	21778.68
497.09	22230.41
497.26	22431.69
497.44	22340.41
497.62	22434.03
497.79	22845.97
497.97	22757.03
498.14	23040.23
498.32	23112.79
498.50	23002.78
498.67	23489.62
498.85	23374.93
499.03	23374.93
499.20	23400.68
499.38	23665.16
499.56	23644.09
499.73	23550.47
499.91	23850.06
500.08	23892.19
500.26	23517.70
500.44	23868.78
500.61	24063.05
500.79	23934.32
500.97	24205.82
501.14	24629.46
501.32	24634.14
501.49	24428.17
501.67	24376.68
501.84	24584.99
502.02	24636.48
502.20	24732.44
502.37	25064.80
502.55	25104.59
502.72	25476.73
502.90	25479.07
503.07	25156.08
503.25	25153.74
503.43	25261.40
503.60	25710.78
503.78	25804.41
503.95	26115.70
504.13	25895.69
504.30	25720.15
504.48	25993.99
504.65	25905.05
504.83	26352.09
505.01	26342.73
505.18	26529.97
505.36	26485.50
505.53	25872.28
505.71	26429.33
505.88	26888.07
506.06	26438.69
506.23	26689.13
506.41	26967.65
506.58	26859.99
506.76	26801.47
506.93	27154.90
507.11	26801.47
507.28	27117.45
507.46	27201.71
507.63	27522.36
507.81	27580.87
507.98	27166.60
508.16	27461.51
508.33	27721.30
508.50	27681.52
508.68	27847.69
508.85	28388.36
509.03	28166.01
509.20	28168.35
509.38	28393.04
509.55	28472.62
509.73	28371.97
509.90	28329.84
510.08	28713.69
510.25	27997.49
510.42	28620.07
510.60	28699.65
510.77	29041.37
510.95	29153.71
511.12	28636.45
511.30	28694.97
511.47	29362.02
511.64	29570.33
511.82	28835.40
511.99	29291.80
512.17	29727.14
512.34	29076.48
512.51	29652.25
512.69	29553.94
512.86	29659.27
513.04	29954.18
513.21	29818.42
513.38	30426.96
513.56	30431.65
513.73	29935.45
513.90	30216.32
514.08	29912.05
514.25	30661.02
514.43	30422.28
514.60	30511.22
514.77	30506.54
514.95	30874.01
515.12	30602.50
515.29	30799.11
515.47	30583.78
515.64	31358.50
515.81	31026.14
515.99	30986.35
516.16	31527.02
516.33	31349.14
516.51	31531.70
516.68	31058.91
516.85	31428.71
517.03	31363.18
517.20	31477.86
517.37	31545.74
517.54	32102.79
517.72	32105.13
517.89	31985.76
518.06	32037.25
518.24	31969.38
518.41	31908.52
518.58	32037.25
518.75	32357.91
518.93	32177.68
519.10	32449.19
519.27	32343.86
519.45	32327.48
519.62	32254.92
519.79	32767.50
519.96	32154.28
520.14	32924.32
520.31	32580.26
520.48	33111.56
520.65	33331.57
520.83	33483.70
521.00	33050.70
521.17	33305.82
521.34	32929.00
521.52	33509.45
521.69	33294.12
521.86	33684.99
522.03	33755.21
522.20	33472.00
522.38	33670.95
522.55	34106.29
522.72	33799.68
522.89	33996.28
523.07	34026.71
523.24	34380.13
523.41	34380.13
523.58	34061.82
523.75	34532.26
523.92	34265.44
524.10	34183.52
524.27	34232.68
524.44	34951.22
524.61	34459.71
524.78	35019.10
524.96	34717.17
525.13	34780.36
525.30	34487.79
525.47	34459.71
525.64	34710.14
525.81	34906.75
525.98	35084.63
526.16	35122.08
526.33	35346.77
526.50	35412.31
526.67	34670.36
526.84	35044.84
527.01	35033.14
527.18	34864.62
527.36	35672.10
527.53	35452.09
527.70	35903.82
527.87	35714.23
528.04	35576.14
528.21	35758.70
528.38	35782.11
528.55	35613.59
528.72	35679.13
528.89	35592.53
529.07	35903.82
529.24	35674.45
529.41	36126.17
529.58	35594.87
529.75	36135.53
529.92	35859.35
530.09	35824.24
530.26	35852.33
530.43	36325.11
530.60	35840.62
530.77	36545.12
530.94	36884.50
531.11	36091.06
531.28	36198.73
531.46	36727.69
531.63	36652.79
531.80	37034.30
531.97	36933.65
532.14	36954.72
532.31	36872.80
532.48	36624.70
532.65	37195.79
532.82	36987.49
532.99	37165.37
533.16	36907.91
533.33	37081.11
533.50	37731.78
533.67	37497.72
533.84	37343.25
534.01	37083.45
534.18	37034.30
534.35	37399.42
534.52	37207.50
534.69	37996.26
534.86	38082.86
535.03	37436.87
535.20	37408.78
535.37	38150.73
535.54	37926.04
535.71	37546.87
535.88	37986.89
536.05	37841.78
536.22	38291.16
536.38	38181.16
536.55	38370.74
536.72	38136.69
536.89	38218.61
537.06	37923.70
537.23	38209.25
537.40	38022.00
537.57	38218.61
537.74	38134.35
537.91	38579.05
538.08	38672.67
538.25	38352.02
538.42	38604.80
538.59	38885.66
538.75	38405.85
538.92	38738.21
539.09	38380.10
539.26	38827.15
539.43	38862.26
539.60	39145.46
539.77	39014.39
539.94	39208.65
540.11	39009.71
540.28	39040.14
540.44	39028.43
540.61	39154.82
540.78	38976.94
540.95	39866.34
541.12	39737.62
541.29	39651.02
541.46	39557.39
541.62	39482.50
541.79	39856.98
541.96	39311.64
542.13	39526.97
542.30	39903.79
542.47	40051.25
542.63	40053.59
542.80	39971.67
542.97	40034.86
543.14	40208.06
543.31	40362.54
543.48	39959.97
543.64	40715.96
543.81	40404.67
543.98	40556.80
544.15	40369.56
544.32	40624.68
544.48	40863.41
544.65	40306.37
544.82	40683.19
544.99	39931.88
545.16	40540.42
545.32	40620.00
545.49	41193.43
545.66	41951.76
545.83	41518.76
546.00	41823.03
546.16	41067.04
546.33	40945.33
546.50	40840.01
546.67	40835.33
546.83	40634.04
547.00	40952.35
547.17	40648.08
547.34	41375.99
547.50	41537.49
547.67	41111.51
547.84	40980.44
548.00	41167.68
548.17	41455.57
548.34	41249.60
548.51	41312.80
548.67	41364.29
548.84	41511.74
549.01	41177.04
549.18	41212.15
549.34	41237.90
549.51	41062.36
549.68	40840.01
549.84	41457.91
550.01	41493.02
550.18	41230.88
550.34	41743.45
550.51	41455.57
550.68	41628.77
550.84	41635.79
551.01	41584.30
551.18	41462.59
551.34	41497.70
551.51	41497.70
551.68	41656.85
551.84	41748.14
552.01	41748.14
552.18	41656.85
552.34	41722.39
552.51	41462.59
552.68	41989.21
552.84	41790.27
553.01	41769.20
553.18	42047.72
553.34	42220.92
553.51	42071.13
553.67	41965.81
553.84	42487.74
554.01	42249.01
554.17	42068.79
554.34	42082.83
554.51	42171.77
554.67	42162.41
554.84	42176.45
555.00	41766.86
555.17	42050.06
555.33	42351.99
555.50	42204.54
555.67	42323.91
555.83	42490.09
556.00	41724.73
556.16	42300.50
556.33	42136.66
556.50	41933.04
556.66	42499.45
556.83	42153.05
556.99	42890.32
557.16	42480.72
557.32	42792.01
557.49	42813.08
557.65	42323.91
557.82	42515.83
557.98	42600.09
558.15	42394.12
558.32	42267.73
558.48	42398.80
558.65	42691.37
558.81	42469.02
558.98	42698.39
559.14	42698.39
559.31	42733.50
559.47	42494.77
559.64	42557.96
559.80	42979.26
559.97	42937.13
560.13	42749.88
560.30	42429.23
560.46	42838.83
560.63	42728.82
560.79	43047.13
560.96	43026.07
561.12	42981.60
561.29	42382.42
561.45	42850.53
561.61	42618.81
561.78	43320.98
561.94	42745.20
562.11	42948.83
562.27	43196.93
562.44	43082.24
562.60	42813.08
562.77	42990.96
562.93	42651.58
563.10	43236.72
563.26	42993.30
563.42	43119.69
563.59	43072.88
563.75	42997.98
563.92	43019.05
564.08	42792.01
564.24	43295.23
564.41	42958.19
564.57	43281.19
564.74	42691.37
564.90	43014.37
565.07	43356.08
565.23	43084.58
565.39	43337.36
565.56	43332.68
565.72	43220.33
565.88	43054.15
566.05	43225.01
566.21	42841.17
566.38	43079.90
566.54	43335.02
566.70	43435.66
566.87	43445.02
567.03	43470.77
567.19	43639.29
567.36	43538.65
567.52	43379.49
567.68	43407.58
567.85	43454.39
568.01	43161.82
568.17	43365.45
568.34	43711.84
568.50	43435.66
568.66	43400.55
568.83	43285.87
568.99	43335.02
569.15	43309.27
569.32	43625.25
569.48	43077.56
569.64	43267.14
569.81	43189.91
569.97	43154.80
570.13	43576.09
570.30	43309.27
570.46	43440.34
570.62	43349.06
570.78	43222.67
570.95	42981.60
571.11	43325.66
571.27	43274.16
571.43	43445.02
571.60	43346.72
571.76	43505.88
571.92	43503.54
572.09	43826.53
572.25	43522.26
572.41	43615.88
572.57	43667.37
572.74	43491.83
572.90	43545.67
573.06	43557.37
573.22	43430.98
573.38	43447.36
573.55	43491.83
573.71	43906.11
573.87	43981.01
574.03	43545.67
574.20	43573.75
574.36	42939.47
574.52	43051.81
574.68	43674.40
574.84	43597.16
575.01	44046.54
575.17	43482.47
575.33	43107.99
575.49	43566.73
575.65	43842.92
575.82	43360.76
575.98	43344.38
576.14	43625.25
576.30	43515.24
576.46	43405.23
576.62	43711.84
576.79	43548.01
576.95	43419.28
577.11	43508.22
577.27	43863.98
577.43	43735.25
577.59	43634.61
577.75	43456.73
577.92	43756.32
578.08	43440.34
578.24	43086.92
578.40	43449.70
578.56	43583.12
578.72	43838.23
578.88	43849.94
579.04	43812.49
579.21	43627.59
579.37	43943.56
579.53	43866.32
579.69	43723.55
579.85	43564.39
580.01	43428.64
580.17	43229.69
580.33	43304.59
580.49	43821.85
580.65	43810.15
580.82	43768.02
580.98	43391.19
581.14	43423.96
581.30	43491.83
581.46	43243.74
581.62	43271.82
581.78	43370.13
581.94	43885.04
582.10	43489.49
582.26	43728.23
582.42	43599.50
582.58	43606.52
582.74	43576.09
582.90	43548.01
583.06	43501.20
583.22	43643.97
583.38	43239.06
583.54	43398.21
583.70	43562.05
583.86	43398.21
584.02	43838.23
584.18	43931.86
584.34	43566.73
584.50	44271.23
584.66	43770.36
584.82	43203.95
584.98	43576.09
585.14	43351.40
585.30	43746.95
585.46	44039.52
585.62	44182.29
585.78	43999.73
585.94	43210.97
586.10	44060.58
586.26	43908.45
586.42	43990.37
586.58	43973.98
586.74	43833.55
586.90	43323.32
587.06	43613.54
587.22	43805.47
587.38	43821.85
587.54	43831.21
587.70	44044.20
587.86	44053.56
588.02	44091.01
588.18	43917.81
588.34	43796.10
588.49	43625.25
588.65	43374.81
588.81	43981.01
588.97	43620.56
589.13	43756.32
589.29	43543.33
589.45	44175.27
589.61	44048.88
589.77	44165.91
589.93	43819.51
590.08	43723.55
590.24	43924.83
590.40	44388.26
590.56	43948.24
590.72	44149.53
590.88	43716.53
