SpectraSuite Data File
++++++++++++++++++++++++++++++++++++
Date: Fri Oct 04 11:39:21 GMT-05:00 2013
User: price-jones
Dark Spectrum Present: No
Reference Spectrum Present: No
Number of Sampled Component Spectra: 1
Spectrometers: USB2+H05261
Integration Time (usec): 100000 (USB2+H05261)
Spectra Averaged: 1 (USB2+H05261)
Boxcar Smoothing: 0 (USB2+H05261)
Correct for Electrical Dark: No (USB2+H05261)
Strobe/Lamp Enabled: No (USB2+H05261)
Correct for Detector Non-linearity: No (USB2+H05261)
Correct for Stray Light: No (USB2+H05261)
Number of Pixels in Processed Spectrum: 2048
>>>>>Begin Processed Spectral Data<<<<<
365.73	53.83
365.92	53.83
366.12	53.83
366.32	0.00
366.52	0.00
366.72	0.00
366.91	0.00
367.11	0.00
367.31	0.00
367.51	0.00
367.70	0.00
367.90	0.00
368.10	4.68
368.30	0.00
368.49	0.00
368.69	16.38
368.89	0.00
369.09	0.00
369.28	21.06
369.48	0.00
369.68	11.70
369.87	28.09
370.07	37.45
370.27	58.51
370.47	107.66
370.66	198.95
370.86	276.18
371.06	262.14
371.25	250.44
371.45	191.92
371.65	360.44
371.84	241.08
372.04	304.27
372.24	285.55
372.44	313.63
372.63	365.12
372.83	334.70
373.03	294.91
373.22	367.46
373.42	318.31
373.62	318.31
373.81	332.36
374.01	421.30
374.21	362.78
374.40	388.53
374.60	402.57
374.79	348.74
374.99	463.43
375.19	414.27
375.38	390.87
375.58	411.93
375.78	334.70
375.97	360.44
376.17	433.00
376.37	311.29
376.56	472.79
376.76	414.27
376.95	451.72
377.15	484.49
377.35	449.38
377.54	440.02
377.74	409.59
377.93	397.89
378.13	395.55
378.33	425.98
378.52	416.62
378.72	458.74
378.91	435.34
379.11	477.47
379.31	456.40
379.50	447.04
379.70	477.47
379.89	428.32
380.09	421.30
380.28	482.15
380.48	486.83
380.68	428.32
380.87	341.72
381.07	470.45
381.26	482.15
381.46	437.68
381.65	500.87
381.85	433.00
382.04	449.38
382.24	461.09
382.43	449.38
382.63	418.96
382.83	470.45
383.02	491.51
383.22	566.41
383.41	447.04
383.61	538.32
383.80	545.34
384.00	416.62
384.19	500.87
384.39	526.62
384.58	554.71
384.78	552.37
384.97	559.39
385.17	510.24
385.36	564.07
385.56	575.77
385.75	505.56
385.95	479.81
386.14	564.07
386.34	507.90
386.53	524.28
386.72	519.60
386.92	641.31
387.11	573.43
387.31	580.45
387.50	566.41
387.70	580.45
387.89	561.73
388.09	580.45
388.28	557.05
388.48	491.51
388.67	603.86
388.86	617.90
389.06	592.16
389.25	671.73
389.45	713.86
389.64	636.63
389.84	685.78
390.03	589.82
390.22	683.44
390.42	657.69
390.61	564.07
390.81	643.65
391.00	587.47
391.19	699.82
391.39	727.91
391.58	655.35
391.78	697.48
391.97	763.01
392.16	671.73
392.36	667.05
392.55	741.95
392.75	765.36
392.94	739.61
393.13	720.88
393.33	681.10
393.52	697.48
393.71	774.72
393.91	748.97
394.10	784.08
394.29	798.12
394.49	734.93
394.68	809.83
394.88	868.34
395.07	840.25
395.26	828.55
395.46	809.83
395.65	835.57
395.84	807.48
396.04	898.77
396.23	821.53
396.42	814.51
396.62	919.83
396.81	861.32
397.00	870.68
397.19	896.43
397.39	805.14
397.58	861.32
397.77	915.15
397.97	978.34
398.16	933.87
398.35	898.77
398.55	950.26
398.74	894.08
398.93	992.39
399.12	917.49
399.32	915.15
399.51	901.11
399.70	961.96
399.90	983.02
400.09	1078.99
400.28	985.37
400.47	961.96
400.67	1050.90
400.86	1088.35
401.05	1060.26
401.24	1025.15
401.44	1078.99
401.63	1198.35
401.82	1123.46
402.01	1102.39
402.21	1170.27
402.40	1158.57
402.59	1165.59
402.78	1146.86
402.97	1226.44
403.17	1170.27
403.36	1231.12
403.55	1217.08
403.74	1259.21
403.93	1263.89
404.13	1306.02
404.32	1282.61
404.51	1210.06
404.70	1291.98
404.89	1210.06
405.09	1406.66
405.28	1299.00
405.47	1313.04
405.66	1432.41
405.85	1383.26
406.05	1472.20
406.24	1451.13
406.43	1448.79
406.62	1399.64
406.81	1572.84
407.00	1460.49
407.20	1392.62
407.39	1493.26
407.58	1397.30
407.77	1544.75
407.96	1540.07
408.15	1575.18
408.34	1668.80
408.54	1500.28
408.73	1654.76
408.92	1579.86
409.11	1577.52
409.30	1645.40
409.49	1706.25
409.68	1701.57
409.87	1605.61
410.07	1762.42
410.26	1682.85
410.45	1767.10
410.64	1820.94
410.83	1755.40
411.02	1771.79
411.21	1813.92
411.40	1811.57
411.59	1856.04
411.78	1888.81
411.98	1907.54
412.17	1937.96
412.36	2015.20
412.55	1987.11
412.74	2001.16
412.93	2043.29
413.12	2031.58
413.31	2057.33
413.50	2087.76
413.69	2064.35
413.88	2136.91
414.07	2167.34
414.26	2118.18
414.45	2230.53
414.64	2373.30
414.83	2354.58
415.02	2347.56
415.22	2239.89
415.41	2373.30
415.60	2385.01
415.79	2282.02
415.98	2410.75
416.17	2406.07
416.36	2548.84
416.55	2480.97
416.74	2478.63
416.93	2448.20
417.12	2574.59
417.31	2562.89
417.50	2679.91
417.69	2637.78
417.88	2565.23
418.07	2565.23
418.26	2693.96
418.45	2579.27
418.64	2792.26
418.83	2813.32
419.02	2736.09
419.21	2761.83
419.39	2813.32
419.58	2871.84
419.77	2771.19
419.96	2897.58
420.15	2892.90
420.34	2768.85
420.53	2899.92
420.72	2979.50
420.91	3007.59
421.10	2970.14
421.29	3045.04
421.48	2923.33
421.67	2958.44
421.86	2918.65
422.05	3131.64
422.24	2977.16
422.43	3019.29
422.61	3148.02
422.80	3108.23
422.99	3019.29
423.18	3141.00
423.37	3141.00
423.56	3124.62
423.75	3098.87
423.94	3091.85
424.13	2888.22
424.32	3019.29
424.50	3166.74
424.69	3323.56
424.88	3220.58
425.07	3148.02
425.26	3297.81
425.45	3176.11
425.64	3229.94
425.83	3183.13
426.01	3323.56
426.20	3302.50
426.39	3262.71
426.58	3295.47
426.77	3442.93
426.96	3255.69
427.15	3101.21
427.33	3204.19
427.52	3260.37
427.71	3211.22
427.90	3258.03
428.09	3332.92
428.28	3361.01
428.46	3391.44
428.65	3454.63
428.84	3555.27
429.03	3463.99
429.22	3499.10
429.40	3421.86
429.59	3588.04
429.78	3421.86
429.97	3396.12
430.16	3487.40
430.34	3597.40
430.53	3679.32
430.72	3637.19
430.91	3634.85
431.10	3543.57
431.28	3723.79
431.47	3782.31
431.66	3648.90
431.85	3756.56
432.03	3742.52
432.22	3805.71
432.41	3815.07
432.60	3810.39
432.79	3655.92
432.97	3822.09
433.16	3838.48
433.35	3695.71
433.54	3861.88
433.72	4049.13
433.91	3913.38
434.10	3913.38
434.28	3932.10
434.47	4084.23
434.66	4173.18
434.85	4121.68
435.03	4025.72
435.22	4159.13
435.41	4442.34
435.59	4505.53
435.78	4393.19
435.97	4355.74
436.16	4231.69
436.34	4070.19
436.53	4287.86
436.72	4341.69
436.90	4311.27
437.09	4292.54
437.28	4280.84
437.46	4409.57
437.65	4292.54
437.84	4198.92
438.02	4440.00
438.21	4461.06
438.40	4252.75
438.58	4521.92
438.77	4585.11
438.96	4379.14
439.14	4678.73
439.33	4667.03
439.52	4748.95
439.70	4660.01
439.89	4755.97
440.08	4828.53
440.26	4695.11
440.45	4765.33
440.63	4821.50
440.82	4964.28
441.01	4634.26
441.19	4933.85
441.38	4870.65
441.57	5064.92
441.75	5109.39
441.94	5020.45
442.12	5172.58
442.31	5256.84
442.50	5078.96
442.68	5284.93
442.87	5233.44
443.05	5132.79
443.24	5149.18
443.43	5289.61
443.61	5280.25
443.80	5411.32
443.98	5259.18
444.17	5048.54
444.35	5359.83
444.54	5266.21
444.73	5359.83
444.91	5392.59
445.10	5373.87
445.28	5350.46
445.47	5252.16
445.65	5451.11
445.84	5394.93
446.02	5624.31
446.21	5233.44
446.39	5322.38
446.58	5575.16
446.77	5355.15
446.95	5425.36
447.14	5540.05
447.32	5558.77
447.51	5497.92
447.69	5530.69
447.88	5542.39
448.06	5603.24
448.25	5451.11
448.43	5518.98
448.62	5631.33
448.80	5444.09
448.99	5668.78
449.17	5643.03
449.36	5313.02
449.54	5774.10
449.73	5788.14
449.91	5757.72
450.10	5879.43
450.28	5792.83
450.46	5858.36
450.65	5944.96
450.83	5818.57
451.02	5746.02
451.20	5863.04
451.39	5853.68
451.57	5827.93
451.76	5998.79
451.94	5984.75
452.13	6076.03
452.31	5891.13
452.49	5959.00
452.68	6057.31
452.86	5975.39
453.05	6218.80
453.23	6186.04
453.42	5994.11
453.60	6094.76
453.78	6108.80
453.97	6003.47
454.15	6022.20
454.34	5975.39
454.52	6143.91
454.70	6305.40
454.89	6377.96
455.07	6291.36
455.26	6373.28
455.44	6415.41
455.62	6253.91
455.81	6356.90
455.99	6354.55
456.17	6527.75
456.36	6551.16
456.54	6672.87
456.73	6558.18
456.91	6616.69
457.09	6700.95
457.28	6740.74
457.46	6506.69
457.64	6825.00
457.83	6614.35
458.01	6773.51
458.19	6888.20
458.38	6817.98
458.56	6778.19
458.74	6827.34
458.93	6836.70
459.11	6775.85
459.29	6995.86
459.48	6906.92
459.66	7014.59
459.84	7103.53
460.03	7178.42
460.21	7054.37
460.39	7096.50
460.57	7030.97
460.76	7199.49
460.94	7169.06
461.12	7082.46
461.31	7133.95
461.49	7021.61
461.67	7112.89
461.85	7377.37
462.04	7122.25
462.22	7847.82
462.40	7201.83
462.59	7442.90
462.77	7295.45
462.95	7403.11
463.13	7501.42
463.32	7541.21
463.50	7606.74
463.68	7335.24
463.86	7452.27
464.05	7421.84
464.23	7414.82
464.41	7630.15
464.59	7424.18
464.78	7599.72
464.96	7705.04
465.14	7555.25
465.32	7672.28
465.50	7749.51
465.69	7845.48
465.87	7674.62
466.05	7829.09
466.23	7768.24
466.41	7882.92
466.60	8021.02
466.78	7702.70
466.96	7719.09
467.14	8023.36
467.32	7892.29
467.51	8018.68
467.69	7950.80
467.87	7875.90
468.05	7913.35
468.23	7967.18
468.41	7908.67
468.60	7962.50
468.78	8271.45
468.96	7852.50
469.14	8168.47
469.32	8187.19
469.50	7915.69
469.69	8226.98
469.87	8332.31
470.05	8365.07
470.23	8217.62
470.41	8435.29
470.59	8425.93
470.77	8444.65
470.95	8449.33
471.14	8659.98
471.32	8521.89
471.50	8762.97
471.68	8575.72
471.86	8847.22
472.04	8779.35
472.22	8884.67
472.40	8833.18
472.58	8800.41
472.77	8924.46
472.95	8922.12
473.13	9151.49
473.31	9020.42
473.49	8812.12
473.67	8887.01
473.85	9109.36
474.03	9434.70
474.21	8940.85
474.39	9362.14
474.57	9689.82
474.75	9584.49
474.93	9841.95
475.12	9497.89
475.30	9427.68
475.48	9671.09
475.66	9802.16
475.84	9750.67
476.02	9778.76
476.20	9745.99
476.38	10078.35
476.56	10120.48
476.74	10097.07
476.92	10005.79
477.10	10031.54
477.28	10256.23
477.46	10188.35
477.64	10462.19
477.82	10621.35
478.00	10738.38
478.18	10663.48
478.36	10714.97
478.54	10951.37
478.72	11164.36
478.90	11110.52
479.08	11075.42
479.26	11250.96
479.44	11267.34
479.62	11531.82
479.80	11431.18
479.98	11433.52
480.16	11800.98
480.34	11389.05
480.52	11604.38
480.70	11915.67
480.88	11419.47
481.06	11833.75
481.24	11985.88
481.41	11903.96
481.59	12334.62
481.77	12486.76
481.95	12339.30
482.13	12610.81
482.31	12575.70
482.49	12650.60
482.67	12968.91
482.85	12842.52
483.03	13172.54
483.21	13209.98
483.39	13312.97
483.57	13378.50
483.74	13507.23
483.92	13722.56
484.10	13504.89
484.28	13891.08
484.46	14031.51
484.64	14139.18
484.82	14050.24
485.00	14125.13
485.18	14452.81
485.35	14700.90
485.53	14487.92
485.71	14604.94
485.89	14764.10
486.07	14773.46
486.25	14867.08
486.43	15094.11
486.61	15171.35
486.78	15318.81
486.96	15342.21
487.14	15730.74
487.32	15630.10
487.50	15925.00
487.68	15735.42
487.85	15875.85
488.03	16360.34
488.21	16458.65
488.39	16521.84
488.57	16519.50
488.75	16393.11
488.92	16842.50
489.10	16901.01
489.28	17149.11
489.46	16994.63
489.64	17104.64
489.81	17598.49
489.99	17633.60
490.17	17586.79
490.35	17759.98
490.53	17816.16
490.70	18291.29
490.88	17891.06
491.06	18181.28
491.24	18293.63
491.41	18537.04
491.59	18398.95
491.77	18649.39
491.95	18705.56
492.13	18977.06
492.30	19089.41
492.48	19147.92
492.66	19250.91
492.84	19372.61
493.01	19489.64
493.19	19489.64
493.37	19625.39
493.54	19550.49
493.72	20074.77
493.90	19976.47
494.08	20140.31
494.25	20285.42
494.43	20563.95
494.61	20800.34
494.79	20608.42
494.96	20357.98
495.14	20498.41
495.32	20786.30
495.49	21092.91
495.67	21207.59
495.85	21568.04
496.02	21668.68
496.20	21596.12
496.38	21841.88
496.55	21481.44
496.73	21872.31
496.91	21827.84
497.09	21961.25
497.26	22108.70
497.44	22171.89
497.62	22438.72
497.79	22324.03
497.97	22740.64
498.14	22867.03
498.32	23037.89
498.50	22862.35
498.67	22995.76
498.85	22944.27
499.03	23204.07
499.20	23138.54
499.38	23641.75
499.56	23517.70
499.73	23772.82
499.91	23714.31
500.08	23730.69
500.26	23878.15
500.44	23850.06
500.61	24056.03
500.79	23772.82
500.97	24446.90
501.14	24613.07
501.32	24416.47
501.49	24350.93
501.67	24657.54
501.84	24844.79
502.02	24559.24
502.20	24814.36
502.37	24964.15
502.55	24683.29
502.72	24957.13
502.90	25020.33
503.07	25025.01
503.25	25050.75
503.43	25350.34
503.60	25486.09
503.78	25256.72
503.95	25483.75
504.13	25750.57
504.30	25504.82
504.48	25539.93
504.65	25806.75
504.83	26024.42
505.01	26459.76
505.18	26246.77
505.36	26314.64
505.53	26068.89
505.71	26525.29
505.88	26696.15
506.06	26314.64
506.23	26850.63
506.41	26831.90
506.58	27005.10
506.76	27218.09
506.93	26813.18
507.11	27007.44
507.28	27140.85
507.46	27110.43
507.63	27386.61
507.81	27402.99
507.98	27639.39
508.16	27344.48
508.33	27215.75
508.50	27576.19
508.68	27941.32
508.85	27835.99
509.03	28056.00
509.20	28140.26
509.38	28198.77
509.55	28545.17
509.73	28079.41
509.90	28327.50
510.08	28535.81
510.25	28713.69
510.42	28407.08
510.60	28589.64
510.77	29083.50
510.95	29254.36
511.12	29071.79
511.30	29034.35
511.47	29095.20
511.64	29212.23
511.82	29422.87
511.99	29385.43
512.17	29675.65
512.34	29230.95
512.51	29827.79
512.69	29560.97
512.86	29769.27
513.04	30202.27
513.21	30064.18
513.38	30345.05
513.56	30342.70
513.73	29975.24
513.90	30050.14
514.08	29993.97
514.25	30518.25
514.43	30473.78
514.60	30466.75
514.77	30719.53
514.95	30728.89
515.12	30286.53
515.29	30543.99
515.47	30976.99
515.64	30803.79
515.81	30595.48
515.99	31218.07
516.16	31536.38
516.33	31145.51
516.51	31351.48
516.68	31400.63
516.85	30979.33
517.03	31702.56
517.20	31559.78
517.37	31651.06
517.54	31981.08
517.72	31969.38
517.89	31704.90
518.06	31976.40
518.24	32196.41
518.41	31627.66
518.58	32472.59
518.75	32261.94
518.93	32287.69
519.10	32130.87
519.27	32624.73
519.45	32378.97
519.62	32687.92
519.79	32734.73
519.96	32910.27
520.14	32856.44
520.31	32659.84
520.48	32980.49
520.65	32954.74
520.83	33303.48
521.00	33022.62
521.17	33408.81
521.34	32704.31
521.52	33668.61
521.69	33507.11
521.86	33507.11
522.03	33481.36
522.20	33617.11
522.38	33916.70
522.55	33942.45
522.72	33577.33
522.89	33855.85
523.07	34253.74
523.24	33909.68
523.41	34188.21
523.58	33706.05
523.75	34450.35
523.92	34188.21
524.10	34293.53
524.27	34845.90
524.44	34471.41
524.61	35072.93
524.78	34857.60
524.96	34670.36
525.13	35047.18
525.30	34972.28
525.47	35075.27
525.64	35290.60
525.81	35023.78
525.98	35187.61
526.16	34937.18
526.33	34838.87
526.50	35232.08
526.67	35019.10
526.84	35342.09
527.01	35096.33
527.18	35442.73
527.36	35716.58
527.53	35449.75
527.70	35543.38
527.87	35821.90
528.04	36006.80
528.21	35718.92
528.38	35828.92
528.55	35835.94
528.72	35660.40
528.89	36222.13
529.07	36084.04
529.24	35983.40
529.41	36039.57
529.58	36275.96
529.75	36093.40
529.92	36231.49
530.09	36048.93
530.26	36378.95
530.43	36425.76
530.60	36568.53
530.77	36367.24
530.94	36542.78
531.11	36547.47
531.28	36985.15
531.46	36561.51
531.63	37095.15
531.80	36903.23
531.97	37268.35
532.14	37399.42
532.31	36849.39
532.48	36914.93
532.65	37188.77
532.82	37233.24
532.99	37401.76
533.16	37404.10
533.33	37666.24
533.50	38033.71
533.67	37720.07
533.84	37647.52
534.01	37722.41
534.18	37195.79
534.35	37743.48
534.52	37581.98
534.69	38171.80
534.86	38178.82
535.03	37965.83
535.20	38403.51
535.37	37846.46
535.54	38361.38
535.71	37834.76
535.88	37694.33
536.05	38162.43
536.22	38345.00
536.38	38689.06
536.55	38719.48
536.72	38600.12
536.89	38382.45
537.06	38639.90
537.23	38347.34
537.40	38775.66
537.57	38541.60
537.74	38408.19
537.91	38700.76
538.08	39318.66
538.25	38562.67
538.42	38934.81
538.59	38939.49
538.75	38918.43
538.92	39068.22
539.09	39241.42
539.26	39138.44
539.43	39372.49
539.60	39526.97
539.77	39321.00
539.94	39758.68
540.11	39227.38
540.28	39800.81
540.44	39632.29
540.61	39367.81
540.78	39636.97
540.95	39824.22
541.12	39913.16
541.29	40065.29
541.46	39887.41
541.62	39634.63
541.79	39945.92
541.96	40430.41
542.13	40261.90
542.30	40268.92
542.47	40294.66
542.63	40215.08
542.80	41069.38
542.97	40774.47
543.14	40598.93
543.31	40657.45
543.48	40722.98
543.64	40809.58
543.81	41118.53
543.98	41265.99
544.15	41181.73
544.32	41249.60
544.48	41209.81
544.65	40858.73
544.82	40390.62
544.99	40671.49
545.16	40706.60
545.32	41148.96
545.49	42064.11
545.66	42710.10
545.83	42260.71
546.00	42784.99
546.16	42024.32
546.33	41600.68
546.50	41020.23
546.67	41228.54
546.83	40769.79
547.00	41413.44
547.17	41450.89
547.34	41457.91
547.50	41963.46
547.67	41998.57
547.84	41825.37
548.00	41841.76
548.17	41783.24
548.34	41670.90
548.51	41874.52
548.67	42333.27
548.84	42190.50
549.01	41591.32
549.18	41682.60
549.34	42260.71
549.51	41759.84
549.68	41909.63
549.84	41806.65
550.01	42263.05
550.18	41748.14
550.34	42543.92
550.51	42466.68
550.68	42054.75
550.84	42225.60
551.01	42113.26
551.18	42146.03
551.34	42075.81
551.51	42206.88
551.68	41963.46
551.84	42038.36
552.01	42195.18
552.18	42347.31
552.34	42740.52
552.51	42312.20
552.68	42036.02
552.84	42368.38
553.01	42689.03
553.18	42876.27
553.34	42850.53
553.51	42698.39
553.67	42625.84
553.84	42579.03
554.01	43173.52
554.17	42698.39
554.34	42529.87
554.51	42579.03
554.67	42784.99
554.84	42773.29
555.00	43152.46
555.17	43320.98
555.33	43100.97
555.50	43173.52
555.67	43051.81
555.83	42562.64
556.00	42941.81
556.16	43625.25
556.33	42944.15
556.50	43126.71
556.66	43023.73
556.83	43082.24
556.99	43674.40
557.16	43447.36
557.32	43508.22
557.49	43400.55
557.65	43007.34
557.82	43271.82
557.98	43325.66
558.15	43119.69
558.32	43878.02
558.48	43419.28
558.65	43428.64
558.81	43377.15
558.98	43288.21
559.14	43501.20
559.31	43353.74
559.47	43356.08
559.64	43459.07
559.80	43295.23
559.97	43896.75
560.13	43496.52
560.30	43784.40
560.46	43512.90
560.63	43796.10
560.79	43753.97
560.96	44170.59
561.12	43812.49
561.29	43711.84
561.45	43660.35
561.61	43423.96
561.78	44006.75
561.94	43636.95
562.11	43840.57
562.27	44041.86
562.44	44105.06
562.60	43653.33
562.77	43999.73
562.93	43789.08
563.10	44126.12
563.26	44254.85
563.42	44034.84
563.59	44266.55
563.75	43995.05
563.92	44182.29
564.08	44119.10
564.24	44364.85
564.41	43943.56
564.57	44074.63
564.74	43966.96
564.90	44278.25
565.07	44165.91
565.23	43896.75
565.39	44271.23
565.56	43868.66
565.72	44025.48
565.88	43892.07
566.05	43782.06
566.21	44362.51
566.38	43852.28
566.54	44577.84
566.70	44617.63
566.87	44491.24
567.03	44215.06
567.19	45050.63
567.36	43981.01
567.52	44409.32
567.68	44540.39
567.85	44360.17
568.01	44208.04
568.17	44114.42
568.34	44795.51
568.50	44844.66
568.66	44673.81
568.83	45029.57
568.99	44463.16
569.15	44463.16
569.32	44423.37
569.48	44285.28
569.64	44596.57
569.81	44280.60
569.97	44430.39
570.13	45078.72
570.30	44694.87
570.46	44823.60
570.62	44561.46
570.78	44287.62
570.95	44135.48
571.11	44491.24
571.27	44215.06
571.43	44325.07
571.60	44563.80
571.76	44369.54
571.92	44601.25
572.09	44584.86
572.25	44832.96
572.41	44563.80
572.57	44814.24
572.74	44828.28
572.90	44624.65
573.06	44474.86
573.22	44734.66
573.38	45074.04
573.55	45010.84
573.71	45052.97
573.87	44849.35
574.03	44282.94
574.20	44591.89
574.36	44493.58
574.52	44753.38
574.68	44765.09
574.84	44107.40
575.01	44858.71
575.17	44596.57
575.33	44739.34
575.49	45027.23
575.65	44959.35
575.82	44648.06
575.98	44645.72
576.14	44971.05
576.30	44980.42
576.46	45184.04
576.62	44746.36
576.79	45088.08
576.95	44933.60
577.11	44975.73
577.27	45003.82
577.43	45460.23
577.59	44898.50
577.75	45240.21
577.92	44486.56
578.08	44507.63
578.24	44488.90
578.40	44734.66
578.56	45116.17
578.72	44978.07
578.88	44959.35
579.04	45373.63
579.21	45029.57
579.37	44900.84
579.53	44704.23
579.69	44945.31
579.85	45085.74
580.01	44751.04
580.17	44538.05
580.33	44825.94
580.49	44851.69
580.65	45205.11
580.82	45516.40
580.98	45406.39
581.14	45228.51
581.30	45050.63
581.46	44879.77
581.62	44900.84
581.78	44631.68
581.94	44989.78
582.10	44851.69
582.26	44957.01
582.42	44947.65
582.58	45532.78
582.74	45167.66
582.90	45179.36
583.06	45200.43
583.22	45076.38
583.38	45141.91
583.54	44692.53
583.70	44842.32
583.86	44835.30
584.02	44865.73
584.18	45375.97
584.34	45294.05
584.50	45593.64
584.66	45165.32
584.82	44893.82
584.98	45195.74
585.14	45038.93
585.30	44793.17
585.46	45076.38
585.62	44659.76
585.78	45485.97
585.94	45067.02
586.10	45125.53
586.26	45022.54
586.42	45359.58
586.58	45514.06
586.74	45450.86
586.90	45272.98
587.06	45186.38
587.22	45219.15
587.38	44947.65
587.54	45525.76
587.70	45214.47
587.86	45647.47
588.02	44807.22
588.18	45567.89
588.34	45401.71
588.49	45343.20
588.65	45055.31
588.81	45158.30
588.97	45247.24
589.13	44985.10
589.29	45434.48
589.45	45249.58
589.61	45104.46
589.77	45710.66
589.93	45785.56
590.08	45790.24
590.24	45425.12
590.40	45656.83
590.56	46043.02
590.72	45387.67
590.88	45013.18
