SpectraSuite Data File
++++++++++++++++++++++++++++++++++++
Date: Fri Oct 04 11:39:32 GMT-05:00 2013
User: price-jones
Dark Spectrum Present: No
Reference Spectrum Present: No
Number of Sampled Component Spectra: 1
Spectrometers: USB2+H05261
Integration Time (usec): 100000 (USB2+H05261)
Spectra Averaged: 1 (USB2+H05261)
Boxcar Smoothing: 0 (USB2+H05261)
Correct for Electrical Dark: No (USB2+H05261)
Strobe/Lamp Enabled: No (USB2+H05261)
Correct for Detector Non-linearity: No (USB2+H05261)
Correct for Stray Light: No (USB2+H05261)
Number of Pixels in Processed Spectrum: 2048
>>>>>Begin Processed Spectral Data<<<<<
365.73	60.85
365.92	60.85
366.12	60.85
366.32	14.04
366.52	23.41
366.72	0.00
366.91	0.00
367.11	0.00
367.31	0.00
367.51	0.00
367.70	0.00
367.90	0.00
368.10	0.00
368.30	0.00
368.49	0.00
368.69	0.00
368.89	0.00
369.09	0.00
369.28	0.00
369.48	18.72
369.68	0.00
369.87	0.00
370.07	0.00
370.27	53.83
370.47	93.62
370.66	229.37
370.86	229.37
371.06	290.23
371.25	353.42
371.45	248.10
371.65	313.63
371.84	322.99
372.04	280.86
372.24	355.76
372.44	248.10
372.63	332.36
372.83	407.25
373.03	330.02
373.22	365.12
373.42	322.99
373.62	278.52
373.81	369.80
374.01	407.25
374.21	344.06
374.40	311.29
374.60	433.00
374.79	365.12
374.99	416.62
375.19	402.57
375.38	442.36
375.58	390.87
375.78	465.77
375.97	362.78
376.17	390.87
376.37	386.19
376.56	411.93
376.76	425.98
376.95	301.93
377.15	374.49
377.35	425.98
377.54	418.96
377.74	353.42
377.93	430.66
378.13	395.55
378.33	400.23
378.52	463.43
378.72	374.49
378.91	451.72
379.11	430.66
379.31	416.62
379.50	334.70
379.70	374.49
379.89	456.40
380.09	416.62
380.28	388.53
380.48	444.70
380.68	482.15
380.87	468.11
381.07	475.13
381.26	531.30
381.46	470.45
381.65	468.11
381.85	444.70
382.04	416.62
382.24	491.51
382.43	498.53
382.63	442.36
382.83	498.53
383.02	587.47
383.22	552.37
383.41	465.77
383.61	514.92
383.80	491.51
384.00	486.83
384.19	528.96
384.39	472.79
384.58	510.24
384.78	566.41
384.97	545.34
385.17	479.81
385.36	500.87
385.56	552.37
385.75	528.96
385.95	507.90
386.14	491.51
386.34	601.52
386.53	601.52
386.72	507.90
386.92	573.43
387.11	559.39
387.31	571.09
387.50	566.41
387.70	547.69
387.89	552.37
388.09	559.39
388.28	596.84
388.48	582.79
388.67	568.75
388.86	559.39
389.06	664.71
389.25	587.47
389.45	664.71
389.64	655.35
389.84	720.88
390.03	634.29
390.22	645.99
390.42	688.12
390.61	634.29
390.81	587.47
391.00	683.44
391.19	713.86
391.39	667.05
391.58	695.14
391.78	594.50
391.97	723.23
392.16	716.20
392.36	660.03
392.55	821.53
392.75	690.46
392.94	746.63
393.13	706.84
393.33	690.46
393.52	636.63
393.71	758.33
393.91	734.93
394.10	753.65
394.29	727.91
394.49	732.59
394.68	716.20
394.88	795.78
395.07	868.34
395.26	788.76
395.46	774.72
395.65	880.04
395.84	793.44
396.04	915.15
396.23	821.53
396.42	856.64
396.62	891.74
396.81	894.08
397.00	863.66
397.19	875.36
397.39	880.04
397.58	978.34
397.77	891.74
397.97	952.60
398.16	849.61
398.35	938.55
398.55	966.64
398.74	926.85
398.93	1062.60
399.12	1011.11
399.32	947.92
399.51	1025.15
399.70	1006.43
399.90	1027.50
400.09	936.21
400.28	1057.92
400.47	1053.24
400.67	1046.22
400.86	1093.03
401.05	1071.97
401.24	1107.07
401.44	1160.91
401.63	1018.13
401.82	1055.58
402.01	1149.20
402.21	1090.69
402.40	1198.35
402.59	1151.54
402.78	1217.08
402.97	1144.52
403.17	1149.20
403.36	1306.02
403.55	1163.25
403.74	1306.02
403.93	1306.02
404.13	1378.58
404.32	1329.42
404.51	1423.05
404.70	1373.89
404.89	1355.17
405.09	1406.66
405.28	1409.00
405.47	1310.70
405.66	1453.47
405.85	1497.94
406.05	1371.55
406.24	1526.03
406.43	1401.98
406.62	1469.86
406.81	1533.05
407.00	1507.30
407.20	1474.54
407.39	1432.41
407.58	1474.54
407.77	1577.52
407.96	1570.50
408.15	1664.12
408.34	1540.07
408.54	1680.50
408.73	1600.93
408.92	1624.33
409.11	1734.34
409.30	1643.06
409.49	1713.27
409.68	1720.29
409.87	1699.23
410.07	1783.49
410.26	1818.60
410.45	1820.94
410.64	1790.51
410.83	1781.15
411.02	1926.26
411.21	1895.83
411.40	1914.56
411.59	1968.39
411.78	1968.39
411.98	1870.09
412.17	2038.61
412.36	2031.58
412.55	2040.95
412.74	2160.31
412.93	2122.87
413.12	2150.95
413.31	2174.36
413.50	2127.55
413.69	2160.31
413.88	2258.62
414.07	2179.04
414.26	2354.58
414.45	2228.19
414.64	2399.05
414.83	2326.49
415.02	2401.39
415.22	2506.71
415.41	2469.27
415.60	2438.84
415.79	2410.75
415.98	2565.23
416.17	2560.55
416.36	2647.15
416.55	2672.89
416.74	2555.86
416.93	2593.31
417.12	2679.91
417.31	2775.88
417.50	2605.02
417.69	2768.85
417.88	2836.73
418.07	2813.32
418.26	2733.75
418.45	2935.03
418.64	3030.99
418.83	2970.14
419.02	2965.46
419.21	3016.95
419.39	2995.89
419.58	2935.03
419.77	3009.93
419.96	3019.29
420.15	3070.78
420.34	3117.59
420.53	3194.83
420.72	3150.36
420.91	3103.55
421.10	3173.77
421.29	3229.94
421.48	3187.81
421.67	3318.88
421.86	3274.41
422.05	3101.21
422.24	3178.45
422.43	3239.30
422.61	3222.92
422.80	3316.54
422.99	3321.22
423.18	3229.94
423.37	3323.56
423.56	3290.79
423.75	3204.19
423.94	3262.71
424.13	3166.74
424.32	3227.60
424.50	3445.27
424.69	3449.95
424.88	3529.53
425.07	3351.65
425.26	3307.18
425.45	3449.95
425.64	3393.78
425.83	3461.65
426.01	3482.72
426.20	3414.84
426.39	3382.07
426.58	3449.95
426.77	3513.14
426.96	3482.72
427.15	3426.54
427.33	3438.25
427.52	3424.20
427.71	3473.36
427.90	3641.87
428.09	3737.84
428.28	3651.24
428.46	3634.85
428.65	3632.51
428.84	3854.86
429.03	3702.73
429.22	3644.21
429.40	3784.65
429.59	3693.37
429.78	3562.30
429.97	3658.26
430.16	3693.37
430.34	3847.84
430.53	3705.07
430.72	3899.33
430.91	3812.73
431.10	3934.44
431.28	3918.06
431.47	4051.47
431.66	3929.76
431.85	3882.95
432.03	4007.00
432.22	3985.93
432.41	4035.08
432.60	4088.92
432.79	3983.59
432.97	4109.98
433.16	4051.47
433.35	4028.06
433.54	4091.26
433.72	4234.03
433.91	4133.39
434.10	4067.85
434.28	4170.83
434.47	4358.08
434.66	4252.75
434.85	4313.61
435.03	4339.35
435.22	4418.93
435.41	4692.77
435.59	4681.07
435.78	4706.82
435.97	4507.87
436.16	4334.67
436.34	4475.10
436.53	4432.97
436.72	4428.29
436.90	4512.55
437.09	4573.41
437.28	4505.53
437.46	4430.63
437.65	4636.60
437.84	4608.51
438.02	4568.73
438.21	4585.11
438.40	4540.64
438.58	4732.56
438.77	4842.57
438.96	4898.74
439.14	4636.60
439.33	4910.44
439.52	5041.51
439.70	4791.08
439.89	4908.10
440.08	5081.30
440.26	4959.60
440.45	5198.33
440.63	5062.58
440.82	5100.03
441.01	5198.33
441.19	5195.99
441.38	5252.16
441.57	5350.46
441.75	5219.39
441.94	5327.06
442.12	5341.10
442.31	5535.37
442.50	5458.13
442.68	5385.57
442.87	5678.14
443.05	5675.80
443.24	5729.63
443.43	5570.48
443.61	5591.54
443.80	5795.17
443.98	5432.38
444.17	5411.32
444.35	5680.48
444.54	5738.99
444.73	5802.19
444.91	5542.39
445.10	5652.39
445.28	5666.44
445.47	5643.03
445.65	5767.08
445.84	5694.52
446.02	5680.48
446.21	5844.32
446.39	5638.35
446.58	5907.51
446.77	5736.65
446.95	5652.39
447.14	5755.38
447.32	5774.10
447.51	5818.57
447.69	5818.57
447.88	5881.77
448.06	5802.19
448.25	5877.09
448.43	5886.45
448.62	5891.13
448.80	5898.15
448.99	5764.74
449.17	5944.96
449.36	5813.89
449.54	6012.84
449.73	6076.03
449.91	6129.86
450.10	6148.59
450.28	6253.91
450.46	5984.75
450.65	6061.99
450.83	6232.85
451.02	6064.33
451.20	6249.23
451.39	6265.61
451.57	6335.83
451.76	6256.25
451.94	6256.25
452.13	6394.34
452.31	6478.60
452.49	6260.93
452.68	6349.87
452.86	6399.02
453.05	6366.26
453.23	6494.99
453.42	6408.39
453.60	6389.66
453.78	6410.73
453.97	6401.37
454.15	6487.96
454.34	6392.00
454.52	6722.02
454.70	6623.72
454.89	6544.14
455.07	6644.78
455.26	6558.18
455.44	6682.23
455.62	6700.95
455.81	6640.10
455.99	6869.47
456.17	6787.55
456.36	6850.75
456.54	6951.39
456.73	7002.88
456.91	6995.86
457.09	7045.01
457.28	7073.10
457.46	6897.56
457.64	7136.29
457.83	7112.89
458.01	7035.65
458.19	7126.93
458.38	7159.70
458.56	7215.87
458.74	7136.29
458.93	7171.40
459.11	7124.59
459.29	7215.87
459.48	7265.02
459.66	7328.22
459.84	7494.40
460.03	7492.05
460.21	7393.75
460.39	7438.22
460.57	7573.97
460.76	7538.87
460.94	7590.36
461.12	7550.57
461.31	7515.46
461.49	7480.35
461.67	7531.84
461.85	7588.02
462.04	7691.00
462.22	7796.32
462.40	7630.15
462.59	7667.60
462.77	7730.79
462.95	7791.64
463.13	7953.14
463.32	7817.39
463.50	8074.85
463.68	8028.04
463.86	7936.76
464.05	7737.81
464.23	7836.11
464.41	7955.48
464.59	7831.43
464.78	8208.26
464.96	7981.23
465.14	8053.78
465.32	8210.60
465.50	7990.59
465.69	8269.11
465.87	8175.49
466.05	8112.30
466.23	8098.25
466.41	8243.37
466.60	8362.73
466.78	8313.58
466.96	8182.51
467.14	8205.92
467.32	8184.85
467.51	8486.78
467.69	8234.00
467.87	8156.77
468.05	8402.52
468.23	8334.65
468.41	8231.66
468.60	8376.78
468.78	8557.00
468.96	8496.14
469.14	8477.42
469.32	8568.70
469.50	8395.50
469.69	8802.75
469.87	8856.59
470.05	8730.20
470.23	8931.48
470.41	8809.78
470.59	8933.82
470.77	8652.96
470.95	8805.10
471.14	8879.99
471.32	8823.82
471.50	9245.12
471.68	9088.30
471.86	9212.35
472.04	9153.84
472.22	9151.49
472.40	9172.56
472.58	9530.66
472.77	9224.05
472.95	9650.03
473.13	9668.75
473.31	9572.79
473.49	9441.72
473.67	9570.45
473.85	9582.15
474.03	9809.19
474.21	9738.97
474.39	9607.90
474.57	9891.10
474.75	9865.36
474.93	10092.39
475.12	9977.70
475.30	10003.45
475.48	9970.68
475.66	9937.91
475.84	10078.35
476.02	10354.53
476.20	10359.21
476.38	10284.31
476.56	10579.22
476.74	10534.75
476.92	10518.37
477.10	10555.82
477.28	10686.89
477.46	10604.97
477.64	10808.59
477.82	10986.47
478.00	11185.42
478.18	11276.70
478.36	11529.48
478.54	11370.32
478.72	11403.09
478.90	11571.61
479.08	11632.46
479.26	11786.94
479.44	11576.29
479.62	11918.01
479.80	11974.18
479.98	12140.36
480.16	12138.02
480.34	12011.63
480.52	12526.55
480.70	12145.04
480.88	12250.36
481.06	12334.62
481.24	12477.40
481.41	12510.16
481.59	12842.52
481.77	12992.31
481.95	12898.69
482.13	12889.33
482.31	13174.88
482.49	13214.66
482.67	13305.95
482.85	13549.36
483.03	13699.16
483.21	13769.37
483.39	13872.36
483.57	13937.89
483.74	13956.61
483.92	14288.97
484.10	13893.42
484.28	14317.06
484.46	14539.41
484.64	14916.23
484.82	14841.34
485.00	14604.94
485.18	15346.89
485.35	15147.95
485.53	15009.86
485.71	15253.27
485.89	15405.41
486.07	15190.08
486.25	15529.45
486.43	15609.03
486.61	15768.19
486.78	15852.45
486.96	15688.61
487.14	16203.53
487.32	16191.83
487.50	16439.92
487.68	16669.30
487.85	16531.20
488.03	16776.96
488.21	17060.16
488.39	16952.50
488.57	16856.54
488.75	17558.70
488.92	17781.05
489.10	17830.20
489.28	17748.28
489.46	17474.44
489.64	17804.46
489.81	18242.14
489.99	18319.37
490.17	18066.60
490.35	18574.49
490.53	18698.54
490.70	18438.74
490.88	18930.25
491.06	19187.71
491.24	18782.80
491.41	19236.86
491.59	19140.90
491.77	19220.48
491.95	19470.92
492.13	19777.53
492.30	19726.04
492.48	19665.18
492.66	19616.03
492.84	20140.31
493.01	20222.23
493.19	20074.77
493.37	20545.22
493.54	20353.30
493.72	20477.35
493.90	20755.87
494.08	20540.54
494.25	21085.89
494.43	21315.26
494.61	21301.22
494.79	21308.24
494.96	21792.73
495.14	21703.79
495.32	21453.35
495.49	21626.55
495.67	21771.66
495.85	22181.26
496.02	22209.34
496.20	22183.60
496.38	22511.27
496.55	22572.13
496.73	22824.90
496.91	22363.82
497.09	22981.72
497.26	23307.05
497.44	23026.19
497.62	23063.64
497.79	22827.24
497.97	23323.44
498.14	23377.27
498.32	23630.05
498.50	23709.63
498.67	23632.39
498.85	24049.00
499.03	23969.43
499.20	24210.50
499.38	24039.64
499.56	24510.09
499.73	24627.12
499.91	24730.10
500.08	24379.02
500.26	24334.55
500.44	24772.23
500.61	24762.87
500.79	24547.54
500.97	24933.73
501.14	25343.32
501.32	25305.87
501.49	25266.08
501.67	25160.76
501.84	25418.22
502.02	25748.23
502.20	25771.64
502.37	25858.24
502.55	25736.53
502.72	25799.73
502.90	25788.02
503.07	25661.63
503.25	26209.32
503.43	26089.95
503.60	26373.16
503.78	26164.85
503.95	26581.46
504.13	26256.13
504.30	26611.89
504.48	26939.57
504.65	26785.09
504.83	26829.56
505.01	27194.68
505.18	27164.26
505.36	27262.56
505.53	27091.70
505.71	27147.87
505.88	27613.64
506.06	27033.19
506.23	27660.45
506.41	27384.27
506.58	27807.90
506.76	27569.17
506.93	27789.18
507.11	27758.75
507.28	27978.76
507.46	27962.38
507.63	28079.41
507.81	28243.24
507.98	28088.77
508.16	27831.31
508.33	28769.86
508.50	28610.71
508.68	28634.11
508.85	28821.36
509.03	28973.49
509.20	28779.23
509.38	29191.16
509.55	29132.65
509.73	29333.93
509.90	29076.48
510.08	29825.45
510.25	29432.24
510.42	29626.50
510.60	29685.01
510.77	29631.18
510.95	29799.70
511.12	29876.94
511.30	29696.72
511.47	29666.29
511.64	30164.82
511.82	30188.23
511.99	30373.13
512.17	30225.68
512.34	30476.12
512.51	30658.68
512.69	30560.37
512.86	30455.05
513.04	31159.55
513.21	30913.80
513.38	31061.25
513.56	30852.94
513.73	30611.87
513.90	31019.12
514.08	31098.70
514.25	31353.82
514.43	31630.00
514.60	31679.15
514.77	31613.62
514.95	31622.98
515.12	31346.79
515.29	31358.50
515.47	31559.78
515.64	31938.95
515.81	31857.03
515.99	32222.16
516.16	32481.95
516.33	32055.98
516.51	32156.62
516.68	31934.27
516.85	32170.66
517.03	32591.96
517.20	32488.98
517.37	32601.32
517.54	32650.47
517.72	32582.60
517.89	32636.43
518.06	32945.38
518.24	32896.23
518.41	32627.07
518.58	33235.61
518.75	32882.19
518.93	33195.82
519.10	33102.20
519.27	33390.08
519.45	33186.46
519.62	33333.91
519.79	33369.02
519.96	33589.03
520.14	33684.99
520.31	33507.11
520.48	33839.47
520.65	33778.61
520.83	34132.03
521.00	33888.62
521.17	34354.38
521.34	34148.42
521.52	33827.76
521.69	34632.91
521.86	34525.24
522.03	34590.78
522.20	34768.66
522.38	34635.25
522.55	34321.62
522.72	34602.48
522.89	34778.02
523.07	34850.58
523.24	34885.68
523.41	34815.47
523.58	34983.99
523.75	35526.99
523.92	35267.19
524.10	34857.60
524.27	35655.72
524.44	35613.59
524.61	35749.34
524.78	35522.31
524.96	35639.34
525.13	35550.40
525.30	35475.50
525.47	35864.03
525.64	35569.12
525.81	35990.42
525.98	36266.60
526.16	35859.35
526.33	36091.06
526.50	35992.76
526.67	36187.02
526.84	36460.87
527.01	35669.76
527.18	36261.92
527.36	36631.72
527.53	36580.23
527.70	36926.63
527.87	37195.79
528.04	36404.69
528.21	36690.24
528.38	36690.24
528.55	36898.55
528.72	36737.05
528.89	36868.12
529.07	37113.87
529.24	36776.84
529.41	36959.40
529.58	36856.42
529.75	36943.02
529.92	37132.60
530.09	36971.10
530.26	36844.71
530.43	37422.83
530.60	37031.96
530.77	37170.05
530.94	37497.72
531.11	37408.78
531.28	37626.45
531.46	37724.75
531.63	37649.86
531.80	37610.07
531.97	37993.92
532.14	38192.86
532.31	37881.57
532.48	38099.24
532.65	38101.58
532.82	38108.60
532.99	38204.56
533.16	38082.86
533.33	38199.88
533.50	38782.68
533.67	38218.61
533.84	38616.50
534.01	38438.62
534.18	38110.94
534.35	38595.43
534.52	38728.84
534.69	38831.83
534.86	39028.43
535.03	38815.44
535.20	38447.98
535.37	38632.88
535.54	39122.05
535.71	38405.85
535.88	38829.49
536.05	38712.46
536.22	39374.83
536.38	38976.94
536.55	39636.97
536.72	38962.90
536.89	38885.66
537.06	39047.16
537.23	39306.96
537.40	39496.54
537.57	39440.37
537.74	38726.50
537.91	39536.33
538.08	39470.79
538.25	39639.31
538.42	39316.32
538.59	39524.63
538.75	39414.62
538.92	40191.68
539.09	40058.27
539.26	40210.40
539.43	40133.17
539.60	40311.05
539.77	39587.82
539.94	39999.76
540.11	40198.70
540.28	40055.93
540.44	40020.82
540.61	40318.07
540.78	40219.77
540.95	40355.52
541.12	40856.39
541.29	40856.39
541.46	40708.94
541.62	40353.18
541.79	40858.73
541.96	40364.88
542.13	40313.39
542.30	40961.72
542.47	40912.56
542.63	41439.18
542.80	41198.11
542.97	41233.22
543.14	41399.40
543.31	41319.82
543.48	40966.40
543.64	41579.62
543.81	41441.53
543.98	41703.67
544.15	41792.61
544.32	41907.29
544.48	42164.75
544.65	41324.50
544.82	41965.81
544.99	41553.87
545.16	41717.71
545.32	41610.04
545.49	42298.16
545.66	42986.28
545.83	42625.84
546.00	42857.55
546.16	42525.19
546.33	41834.74
546.50	41500.04
546.67	42342.63
546.83	41383.01
547.00	42052.41
547.17	42139.00
547.34	42085.17
547.50	42511.15
547.67	42298.16
547.84	41918.99
548.00	42501.79
548.17	42199.86
548.34	42305.18
548.51	42408.17
548.67	42691.37
548.84	42368.38
549.01	42623.50
549.18	42485.40
549.34	42452.64
549.51	42340.29
549.68	42408.17
549.84	42564.98
550.01	42497.11
550.18	42576.69
550.34	42445.62
550.51	42740.52
550.68	43140.75
550.84	42366.04
551.01	43086.92
551.18	42632.86
551.34	42611.79
551.51	42974.58
551.68	42721.80
551.84	43168.84
552.01	42698.39
552.18	43276.51
552.34	42890.32
552.51	42937.13
552.68	42923.08
552.84	42784.99
553.01	42972.24
553.18	43082.24
553.34	43278.85
553.51	42806.06
553.67	43473.11
553.84	43847.60
554.01	43459.07
554.17	43234.38
554.34	43044.79
554.51	43005.00
554.67	43445.02
554.84	43215.65
555.00	43470.77
555.17	43398.21
555.33	43709.50
555.50	43388.85
555.67	43482.47
555.83	43438.00
556.00	43236.72
556.16	43826.53
556.33	43517.58
556.50	43393.53
556.66	43512.90
556.83	43608.86
556.99	43810.15
557.16	43856.96
557.32	43676.74
557.49	43442.68
557.65	43248.42
557.82	43746.95
557.98	43512.90
558.15	43566.73
558.32	44018.46
558.48	43639.29
558.65	43973.98
558.81	43702.48
558.98	43592.48
559.14	43615.88
559.31	43428.64
559.47	43702.48
559.64	44168.25
559.80	44074.63
559.97	44065.27
560.13	43618.22
560.30	43838.23
560.46	43934.20
560.63	44002.07
560.79	43838.23
560.96	44224.42
561.12	43765.68
561.29	44074.63
561.45	43922.49
561.61	43861.64
561.78	44467.84
561.94	44243.15
562.11	44112.08
562.27	43695.46
562.44	43749.29
562.60	44332.09
562.77	44182.29
562.93	43894.41
563.10	44505.29
563.26	44196.34
563.42	44458.48
563.59	44493.58
563.75	44364.85
563.92	44175.27
564.08	44210.38
564.24	44238.47
564.41	43861.64
564.57	44189.31
564.74	44589.55
564.90	43990.37
565.07	44278.25
565.23	44598.91
565.39	44521.67
565.56	44409.32
565.72	44144.84
565.88	44091.01
566.05	44023.14
566.21	44348.47
566.38	44238.47
566.54	44095.69
566.70	44491.24
566.87	44299.32
567.03	44308.68
567.19	44678.49
567.36	44563.80
567.52	44626.99
567.68	44772.11
567.85	43800.79
568.01	44554.44
568.17	44313.36
568.34	44942.97
568.50	44666.78
568.66	44795.51
568.83	44601.25
568.99	44362.51
569.15	44552.10
569.32	44470.18
569.48	44535.71
569.64	44479.54
569.81	44278.25
569.97	44369.54
570.13	44769.77
570.30	44280.60
570.46	44818.92
570.62	44835.30
570.78	44931.26
570.95	44566.14
571.11	44800.19
571.27	44509.97
571.43	44231.44
571.60	44229.10
571.76	44797.85
571.92	44715.93
572.09	45034.25
572.25	45092.76
572.41	44619.97
572.57	44196.34
572.74	44982.76
572.90	44666.78
573.06	44605.93
573.22	44807.22
573.38	44634.02
573.55	44521.67
573.71	45310.43
573.87	45240.21
574.03	44704.23
574.20	44580.18
574.36	44409.32
574.52	44596.57
574.68	44587.21
574.84	44856.37
575.01	44809.56
575.17	44713.59
575.33	44329.75
575.49	44484.22
575.65	45132.55
575.82	45041.27
575.98	45045.95
576.14	44954.67
576.30	45214.47
576.46	44673.81
576.62	44643.38
576.79	45132.55
576.95	44938.29
577.11	45200.43
577.27	44598.91
577.43	44776.79
577.59	45045.95
577.75	44711.25
577.92	44254.85
578.08	44292.30
578.24	44847.00
578.40	44889.13
578.56	45116.17
578.72	44687.85
578.88	45109.14
579.04	45287.03
579.21	44722.96
579.37	44652.74
579.53	45088.08
579.69	44538.05
579.85	44524.01
580.01	44584.86
580.17	44175.27
580.33	44641.04
580.49	45017.86
580.65	45200.43
580.82	44975.73
580.98	44851.69
581.14	44844.66
581.30	44919.56
581.46	44762.75
581.62	44397.62
581.78	44861.05
581.94	44610.61
582.10	44907.86
582.26	44495.92
582.42	45141.91
582.58	45076.38
582.74	45024.89
582.90	45345.54
583.06	45092.76
583.22	45483.63
583.38	44966.37
583.54	44964.03
583.70	44818.92
583.86	44994.46
584.02	44882.11
584.18	44971.05
584.34	45535.12
584.50	45198.09
584.66	44669.12
584.82	44451.45
584.98	45207.45
585.14	44643.38
585.30	44575.50
585.46	44844.66
585.62	44748.70
585.78	45008.50
585.94	44739.34
586.10	44907.86
586.26	45081.06
586.42	44996.80
586.58	45130.21
586.74	44765.09
586.90	44828.28
587.06	45160.64
587.22	44921.90
587.38	44952.33
587.54	45336.18
587.70	45062.33
587.86	45331.50
588.02	45303.41
588.18	45265.96
588.34	45317.45
588.49	45102.12
588.65	44776.79
588.81	45024.89
588.97	45132.55
589.13	44982.76
589.29	44619.97
589.45	45071.70
589.61	45134.89
589.77	45778.54
589.93	45504.70
590.08	45287.03
590.24	45474.27
590.40	45216.81
590.56	45158.30
590.72	44966.37
