SpectraSuite Data File
++++++++++++++++++++++++++++++++++++
Date: Fri Oct 04 11:39:55 GMT-05:00 2013
User: price-jones
Dark Spectrum Present: No
Reference Spectrum Present: No
Number of Sampled Component Spectra: 1
Spectrometers: USB2+H05261
Integration Time (usec): 100000 (USB2+H05261)
Spectra Averaged: 1 (USB2+H05261)
Boxcar Smoothing: 0 (USB2+H05261)
Correct for Electrical Dark: No (USB2+H05261)
Strobe/Lamp Enabled: No (USB2+H05261)
Correct for Detector Non-linearity: No (USB2+H05261)
Correct for Stray Light: No (USB2+H05261)
Number of Pixels in Processed Spectrum: 2048
>>>>>Begin Processed Spectral Data<<<<<
365.73	28.09
365.92	28.09
366.12	28.09
366.32	0.00
366.52	0.00
366.72	0.00
366.91	0.00
367.11	0.00
367.31	0.00
367.51	0.00
367.70	0.00
367.90	0.00
368.10	0.00
368.30	0.00
368.49	0.00
368.69	0.00
368.89	0.00
369.09	0.00
369.28	0.00
369.48	0.00
369.68	0.00
369.87	0.00
370.07	35.11
370.27	37.45
370.47	147.45
370.66	372.15
370.86	416.62
371.06	456.40
371.25	540.66
371.45	519.60
371.65	578.11
371.84	510.24
372.04	454.06
372.24	557.05
372.44	580.45
372.63	587.47
372.83	629.60
373.03	603.86
373.22	648.33
373.42	547.69
373.62	554.71
373.81	566.41
374.01	653.01
374.21	681.10
374.40	629.60
374.60	674.07
374.79	603.86
374.99	596.84
375.19	599.18
375.38	641.31
375.58	615.56
375.78	631.94
375.97	706.84
376.17	660.03
376.37	634.29
376.56	690.46
376.76	643.65
376.95	669.39
377.15	692.80
377.35	641.31
377.54	795.78
377.74	631.94
377.93	725.57
378.13	755.99
378.33	779.40
378.52	718.54
378.72	772.38
378.91	748.97
379.11	765.36
379.31	791.10
379.50	770.04
379.70	858.98
379.89	816.85
380.09	854.30
380.28	800.46
380.48	816.85
380.68	814.51
380.87	809.83
381.07	830.89
381.26	826.21
381.46	866.00
381.65	786.42
381.85	807.48
382.04	866.00
382.24	795.78
382.43	880.04
382.63	873.02
382.83	917.49
383.02	938.55
383.22	959.62
383.41	856.64
383.61	912.81
383.80	903.45
384.00	959.62
384.19	903.45
384.39	910.47
384.58	933.87
384.78	933.87
384.97	961.96
385.17	856.64
385.36	990.05
385.56	959.62
385.75	987.71
385.95	968.98
386.14	1062.60
386.34	1090.69
386.53	1004.09
386.72	1076.65
386.92	1137.50
387.11	1121.12
387.31	1177.29
387.50	1046.22
387.70	1086.01
387.89	1050.90
388.09	1123.46
388.28	1160.91
388.48	1057.92
388.67	1153.88
388.86	1043.88
389.06	1137.50
389.25	1081.33
389.45	1107.07
389.64	1196.01
389.84	1186.65
390.03	1186.65
390.22	1261.55
390.42	1181.97
390.61	1200.69
390.81	1245.16
391.00	1163.25
391.19	1289.64
391.39	1313.04
391.58	1329.42
391.78	1214.74
391.97	1284.95
392.16	1224.10
392.36	1331.76
392.55	1324.74
392.75	1219.42
392.94	1373.89
393.13	1364.53
393.33	1336.45
393.52	1411.34
393.71	1411.34
393.91	1357.51
394.10	1313.04
394.29	1350.49
394.49	1331.76
394.68	1451.13
394.88	1474.54
395.07	1427.73
395.26	1465.18
395.46	1521.35
395.65	1556.46
395.84	1666.46
396.04	1544.75
396.23	1568.16
396.42	1558.80
396.62	1589.22
396.81	1598.59
397.00	1544.75
397.19	1575.18
397.39	1558.80
397.58	1657.10
397.77	1645.40
397.97	1668.80
398.16	1666.46
398.35	1774.13
398.55	1675.82
398.74	1741.36
398.93	1762.42
399.12	1626.67
399.32	1682.85
399.51	1792.85
399.70	1837.32
399.90	1760.08
400.09	1834.98
400.28	1916.90
400.47	1832.64
400.67	1834.98
400.86	1870.09
401.05	1891.15
401.24	1912.22
401.44	2010.52
401.63	1991.80
401.82	1867.75
402.01	1811.57
402.21	1989.46
402.40	1996.48
402.59	2019.88
402.78	2101.80
402.97	1973.07
403.17	2115.84
403.36	2085.42
403.55	2050.31
403.74	2169.68
403.93	2143.93
404.13	2275.00
404.32	2218.83
404.51	2319.47
404.70	2221.17
404.89	2214.15
405.09	2289.04
405.28	2293.72
405.47	2253.94
405.66	2422.45
405.85	2275.00
406.05	2258.62
406.24	2366.28
406.43	2368.62
406.62	2406.07
406.81	2466.92
407.00	2303.09
407.20	2408.41
407.39	2476.29
407.58	2499.69
407.77	2616.72
407.96	2495.01
408.15	2546.50
408.34	2579.27
408.54	2504.37
408.73	2621.40
408.92	2551.18
409.11	2546.50
409.30	2602.68
409.49	2623.74
409.68	2672.89
409.87	2733.75
410.07	2911.63
410.26	2789.92
410.45	2747.79
410.64	2799.28
410.83	2841.41
411.02	2832.05
411.21	2967.80
411.40	3005.25
411.59	3000.57
411.78	3063.76
411.98	2836.73
412.17	2834.39
412.36	3005.25
412.55	3061.42
412.74	3206.53
412.93	3169.09
413.12	3155.04
413.31	3293.13
413.50	3269.73
413.69	3229.94
413.88	3346.97
414.07	3239.30
414.26	3311.86
414.45	3382.07
414.64	3459.31
414.83	3550.59
415.02	3471.01
415.22	3590.38
415.41	3693.37
415.60	3623.15
415.79	3691.02
415.98	3805.71
416.17	3737.84
416.36	3751.88
416.55	3756.56
416.74	3960.19
416.93	3808.05
417.12	3901.67
417.31	3843.16
417.50	3934.44
417.69	4011.68
417.88	4060.83
418.07	4021.04
418.26	4091.26
418.45	4131.05
418.64	4042.11
418.83	4248.07
419.02	4070.19
419.21	4161.47
419.39	4236.37
419.58	4184.88
419.77	4049.13
419.96	4341.69
420.15	4400.21
420.34	4407.23
420.53	4409.57
420.72	4386.16
420.91	4470.42
421.10	4500.85
421.29	4348.72
421.48	4421.27
421.67	4734.90
421.86	4477.44
422.05	4407.23
422.24	4498.51
422.43	4535.96
422.61	4571.07
422.80	4798.10
422.99	4568.73
423.18	4695.11
423.37	4762.99
423.56	4709.16
423.75	4674.05
423.94	4545.32
424.13	4465.74
424.32	4589.79
424.50	4809.80
424.69	4910.44
424.88	4814.48
425.07	4711.50
425.26	4655.33
425.45	4837.89
425.64	4816.82
425.83	4765.33
426.01	4762.99
426.20	4734.90
426.39	4924.49
426.58	4784.06
426.77	4772.35
426.96	4870.65
427.15	4870.65
427.33	4847.25
427.52	4940.87
427.71	5085.98
427.90	5018.11
428.09	5107.05
428.28	5064.92
428.46	5135.14
428.65	5156.20
428.84	5235.78
429.03	5200.67
429.22	5114.07
429.40	5142.16
429.59	5111.73
429.78	4826.18
429.97	5013.43
430.16	5193.65
430.34	5448.77
430.53	5430.04
430.72	5432.38
430.91	5277.91
431.10	5327.06
431.28	5509.62
431.47	5413.66
431.66	5561.11
431.85	5474.51
432.03	5537.71
432.22	5886.45
432.41	5659.42
432.60	5710.91
432.79	5603.24
432.97	5874.74
433.16	5673.46
433.35	5816.23
433.54	5893.47
433.72	5991.77
433.91	5741.33
434.10	5853.68
434.28	5692.18
434.47	5860.70
434.66	6094.76
434.85	5914.53
435.03	6164.97
435.22	6272.64
435.41	6541.80
435.59	6604.99
435.78	6380.30
435.97	6193.06
436.16	6319.45
436.34	6246.89
436.53	6417.75
436.72	6342.85
436.90	6146.25
437.09	6335.83
437.28	6207.10
437.46	6286.68
437.65	6513.71
437.84	6583.93
438.02	6284.34
438.21	6459.88
438.40	6642.44
438.58	6691.59
438.77	6689.25
438.96	6733.72
439.14	6860.11
439.33	6810.96
439.52	6871.81
439.70	7066.08
439.89	7075.44
440.08	7063.74
440.26	6984.16
440.45	7119.91
440.63	7152.68
440.82	7232.26
441.01	7236.94
441.19	7199.49
441.38	7578.65
441.57	7473.33
441.75	7456.95
441.94	7791.64
442.12	7602.06
442.31	7765.90
442.50	7854.84
442.68	7662.91
442.87	7887.61
443.05	7705.04
443.24	7985.91
443.43	7707.38
443.61	7873.56
443.80	8140.38
443.98	7700.36
444.17	7597.38
444.35	7995.27
444.54	7906.33
444.73	7985.91
444.91	8093.57
445.10	8004.63
445.28	8081.87
445.47	8046.76
445.65	8056.12
445.84	8135.70
446.02	8161.45
446.21	8168.47
446.39	7964.84
446.58	8063.15
446.77	8372.10
446.95	8140.38
447.14	8140.38
447.32	8257.41
447.51	8177.83
447.69	8184.85
447.88	8468.06
448.06	8219.96
448.25	8093.57
448.43	8564.02
448.62	8301.88
448.80	8376.78
448.99	8318.26
449.17	8397.84
449.36	8442.31
449.54	8557.00
449.73	8727.86
449.91	8631.90
450.10	8624.87
450.28	8734.88
450.46	8767.65
450.65	8709.13
450.83	8865.95
451.02	8784.03
451.20	8774.67
451.39	9078.94
451.57	8739.56
451.76	8802.75
451.94	8985.32
452.13	9151.49
452.31	8898.72
452.49	8800.41
452.68	8837.86
452.86	8982.98
453.05	9029.79
453.23	8964.25
453.42	8968.93
453.60	9202.99
453.78	9224.05
453.97	9032.13
454.15	9151.49
454.34	9027.45
454.52	9502.58
454.70	9343.42
454.89	9430.02
455.07	9415.98
455.26	9525.98
455.44	9675.77
455.62	9715.56
455.81	9628.96
455.99	9926.21
456.17	9673.43
456.36	9813.87
456.54	9977.70
456.73	9788.12
456.91	10097.07
457.09	10155.58
457.28	10113.45
457.46	9987.07
457.64	10368.57
457.83	10244.52
458.01	9884.08
458.19	10361.55
458.38	10155.58
458.56	10277.29
458.74	10384.96
458.93	10415.38
459.11	10406.02
459.29	10373.25
459.48	10527.73
459.66	10509.01
459.84	10623.69
460.03	10911.58
460.21	10679.86
460.39	10682.20
460.57	10420.06
460.76	10970.09
460.94	10864.77
461.12	10649.44
461.31	10803.91
461.49	10745.40
461.67	10663.48
461.85	11110.52
462.04	11000.52
462.22	11585.65
462.40	11126.91
462.59	11021.58
462.77	11033.29
462.95	11269.68
463.13	11176.06
463.32	11169.04
463.50	11358.62
463.68	11372.66
463.86	11346.92
464.05	11410.11
464.23	11227.55
464.41	11569.27
464.59	11375.00
464.78	11576.29
464.96	11679.27
465.14	11646.51
465.32	11709.70
465.50	11812.68
465.69	11969.50
465.87	11733.11
466.05	11763.53
466.23	11833.75
466.41	11864.18
466.60	12060.78
466.78	11744.81
466.96	11967.16
467.14	11620.76
467.32	11964.82
467.51	12355.69
467.69	11793.96
467.87	11974.18
468.05	12255.04
468.23	12067.80
468.41	12116.95
468.60	12161.42
468.78	12493.78
468.96	12336.96
469.14	12512.50
469.32	12463.35
469.50	12409.52
469.69	12458.67
469.87	12851.88
470.05	12868.27
470.23	12891.67
470.41	12706.77
470.59	12713.79
470.77	12685.70
470.95	12674.00
471.14	13139.77
471.32	12868.27
471.50	13198.28
471.68	13181.90
471.86	13209.98
472.04	13319.99
472.22	13589.15
472.40	13352.76
472.58	13565.74
472.77	13362.12
472.95	13598.51
473.13	14310.04
473.31	13610.22
473.49	13884.06
473.67	13935.55
473.85	13975.34
474.03	14164.92
474.21	14298.33
474.39	14319.40
474.57	14174.28
474.75	14281.95
474.93	14614.30
475.12	14286.63
475.30	14693.88
475.48	14560.47
475.66	14944.32
475.84	14899.85
476.02	15040.28
476.20	15213.48
476.38	15304.76
476.56	15454.56
476.74	15335.19
476.92	15522.43
477.10	15377.32
477.28	16173.10
477.46	15452.22
477.64	15765.85
477.82	15946.07
478.00	16383.75
478.18	16465.67
478.36	16475.03
478.54	16769.94
478.72	16559.29
478.90	16854.20
479.08	17231.02
479.26	17153.79
479.44	17298.90
479.62	17345.71
479.80	17619.55
479.98	17741.26
480.16	17912.12
480.34	17661.68
480.52	18192.98
480.70	18305.33
480.88	17834.88
481.06	18286.61
481.24	18352.14
481.41	18361.50
481.59	18696.20
481.77	18724.29
481.95	18984.09
482.13	19323.46
482.31	19438.15
482.49	19639.44
482.67	19721.35
482.85	20063.07
483.03	20173.08
483.21	20397.77
483.39	20512.46
483.57	20271.38
483.74	20563.95
483.92	20800.34
484.10	20709.06
484.28	20980.56
484.46	21631.23
484.64	21972.95
484.82	21406.54
485.00	21965.93
485.18	21879.33
485.35	22487.87
485.53	22249.13
485.71	22455.10
485.89	23154.92
486.07	22534.68
486.25	22967.68
486.43	23222.80
486.61	23508.34
486.78	23332.80
486.96	23826.65
487.14	23978.79
487.32	23777.50
487.50	24159.01
487.68	24393.06
487.85	25043.73
488.03	25336.30
488.21	25287.15
488.39	25280.13
488.57	25579.71
488.75	25628.87
488.92	26581.46
489.10	26078.25
489.28	26338.05
489.46	26520.61
489.64	26850.63
489.81	27056.59
489.99	27042.55
490.17	27197.02
490.35	27569.17
490.53	27843.01
490.70	27763.43
490.88	28039.62
491.06	28453.89
491.24	28217.50
491.41	28292.40
491.59	28587.30
491.77	28858.81
491.95	29113.92
492.13	29153.71
492.30	29443.94
492.48	29291.80
492.66	29549.26
492.84	29792.68
493.01	30059.50
493.19	30401.22
493.37	30642.29
493.54	30663.36
493.72	30778.04
493.90	30719.53
494.08	30960.61
494.25	31283.60
494.43	31697.88
494.61	31718.94
494.79	32070.02
494.96	32027.89
495.14	32385.99
495.32	32147.26
495.49	32273.65
495.67	32631.75
495.85	32697.28
496.02	32994.53
496.20	33345.61
496.38	33141.99
496.55	33354.97
496.73	34246.72
496.91	34038.41
497.09	33954.15
497.26	34249.06
497.44	34155.44
497.62	34277.15
497.79	34775.68
497.97	34974.63
498.14	35386.56
498.32	35578.48
498.50	35253.15
498.67	35906.16
498.85	35826.58
499.03	35866.37
499.20	35924.88
499.38	35772.75
499.56	36554.49
499.73	36313.41
499.91	36580.23
500.08	36844.71
500.26	36306.39
500.44	37060.04
500.61	37137.28
500.79	37242.60
500.97	37394.74
501.14	37759.86
501.32	37965.83
501.49	37780.93
501.67	37912.00
501.84	37799.65
502.02	37954.13
502.20	38188.18
502.37	38562.67
502.55	38464.36
502.72	38876.30
502.90	38749.91
503.07	38508.83
503.25	38778.00
503.43	39140.78
503.60	39290.57
503.78	39669.74
503.95	38998.01
504.13	39344.41
504.30	39660.38
504.48	39777.40
504.65	39896.77
504.83	40299.34
505.01	40627.02
505.18	40201.04
505.36	40411.69
505.53	40465.52
505.71	40224.45
505.88	40718.30
506.06	40582.55
506.23	41148.96
506.41	41392.37
506.58	41797.29
506.76	41610.04
506.93	41345.56
507.11	41394.71
507.28	41940.06
507.46	42024.32
507.63	41862.82
507.81	42204.54
507.98	42122.62
508.16	42061.77
508.33	42363.70
508.50	42623.50
508.68	42478.38
508.85	43716.53
509.03	42972.24
509.20	42969.90
509.38	43618.22
509.55	43463.75
509.73	43702.48
509.90	44048.88
510.08	43679.08
510.25	43615.88
510.42	43779.72
510.60	43952.92
510.77	44552.10
510.95	44432.73
511.12	44175.27
511.30	44374.22
511.47	44655.08
511.64	44769.77
511.82	45188.72
511.99	44807.22
512.17	44863.39
512.34	45165.32
512.51	45441.50
512.69	45647.47
512.86	45354.90
513.04	45675.55
513.21	45916.63
513.38	45464.91
513.56	46438.57
513.73	45682.58
513.90	46213.88
514.08	46251.33
514.25	46660.92
514.43	46326.22
514.60	46635.17
514.77	46600.07
514.95	46965.19
515.12	46590.70
515.29	46700.71
515.47	47281.16
515.64	47234.35
515.81	47370.10
515.99	47732.89
516.16	47945.87
516.33	47594.79
516.51	47627.56
516.68	47346.70
516.85	47753.95
517.03	48013.75
517.20	47908.43
517.37	47945.87
517.54	48006.73
517.72	47892.04
517.89	48098.01
518.06	48413.98
518.24	48619.95
518.41	48151.84
518.58	48638.67
518.75	48474.84
518.93	48790.81
519.10	48795.49
519.27	49308.07
519.45	48802.51
519.62	48973.37
519.79	49043.59
519.96	49216.78
520.14	49794.90
520.31	49111.46
520.48	49099.76
520.65	49366.58
520.83	49954.05
521.00	49799.58
521.17	49621.70
521.34	49710.64
521.52	49958.73
521.69	49860.43
521.86	50164.70
522.03	50358.97
522.20	50370.67
522.38	50220.87
522.55	50225.56
522.72	50153.00
522.89	50511.10
523.07	50501.74
523.24	50726.43
523.41	50901.97
523.58	50571.96
523.75	50955.80
523.92	51016.66
524.10	51117.30
524.27	51154.75
524.44	51414.55
524.61	51344.33
524.78	51634.56
524.96	51573.70
525.13	51475.40
525.30	51545.62
525.47	51482.42
525.64	51786.69
525.81	51835.84
525.98	52025.43
526.16	52156.50
526.33	51870.95
526.50	52205.65
526.67	51840.53
526.84	51831.16
527.01	51938.83
527.18	52233.74
527.36	52231.40
527.53	52327.36
527.70	52381.19
527.87	52655.03
528.04	52523.96
528.21	52561.41
528.38	52369.49
528.55	52900.79
528.72	52671.42
528.89	53017.82
529.07	52875.04
529.24	52978.03
529.41	52945.26
529.58	52989.73
529.75	53055.26
529.92	52905.47
530.09	52753.33
530.26	53228.46
530.43	53375.92
530.60	53125.48
530.77	53209.74
530.94	53661.46
531.11	53272.93
531.28	53312.72
531.46	53483.58
531.63	53539.75
531.80	53705.93
531.97	53829.98
532.14	53827.64
532.31	53492.94
532.48	53602.95
532.65	53649.76
532.82	53907.22
532.99	53935.30
533.16	53949.35
533.33	54209.15
533.50	54239.57
533.67	54349.58
533.84	54160.00
534.01	54206.81
534.18	53904.88
534.35	54265.32
534.52	54497.03
534.69	54639.81
534.86	54365.96
535.03	54377.67
535.20	54658.53
535.37	54768.54
535.54	54890.24
535.71	54323.83
535.88	54553.21
536.05	54482.99
536.22	55061.10
536.38	55096.21
536.55	54972.16
536.72	54848.11
536.89	54738.11
537.06	54897.27
537.23	55257.71
537.40	55016.63
537.57	55201.53
537.74	55210.90
537.91	55414.52
538.08	55477.72
538.25	55304.52
538.42	55400.48
538.59	55117.28
538.75	55166.43
538.92	55348.99
539.09	55669.64
539.26	55585.38
539.43	55641.56
539.60	55664.96
539.77	55758.58
539.94	55969.23
540.11	55737.52
540.28	55728.16
540.44	55774.97
540.61	55700.07
540.78	55994.98
540.95	56154.13
541.12	55999.66
541.29	56048.81
541.46	55901.36
541.62	56037.11
541.79	55959.87
541.96	55943.48
542.13	56069.87
542.30	56060.51
542.47	56360.10
542.63	56254.78
542.80	56624.58
542.97	56605.86
543.14	56802.46
543.31	56383.51
543.48	56552.02
543.64	56671.39
543.81	56769.69
543.98	56865.66
544.15	56800.12
544.32	56940.55
544.48	57073.96
544.65	56900.76
544.82	56690.12
544.99	56519.26
545.16	57001.41
545.32	56750.97
545.49	57277.59
545.66	57577.18
545.83	57584.20
546.00	57502.28
546.16	57352.49
546.33	57109.07
546.50	56818.84
546.67	57308.02
546.83	56926.51
547.00	57193.33
547.17	57315.04
547.34	57221.42
547.50	57324.40
547.67	57539.73
547.84	57345.47
548.00	57485.90
548.17	57340.78
548.34	57418.02
548.51	57427.38
548.67	57663.78
548.84	57663.78
549.01	57602.92
549.18	57640.37
549.34	57841.66
549.51	57619.31
549.68	57745.70
549.84	57490.58
550.01	57609.95
550.18	57577.18
550.34	57792.51
550.51	57635.69
550.68	57832.30
550.84	57811.23
551.01	57822.93
551.18	57715.27
551.34	57633.35
551.51	57825.28
551.68	57858.04
551.84	57925.92
552.01	57829.96
552.18	58148.27
552.34	57733.99
552.51	57944.64
552.68	57921.24
552.84	58038.26
553.01	58056.99
553.18	58134.23
553.34	58314.45
553.51	58220.83
553.67	58326.15
553.84	58157.63
554.01	58277.00
554.17	58131.89
554.34	58195.08
554.51	58155.29
554.67	58429.13
554.84	58150.61
555.00	58450.20
555.17	58330.83
555.33	58295.72
555.50	58487.65
555.67	58379.98
555.83	58237.21
556.00	58560.20
556.16	58504.03
556.33	58536.80
556.50	58520.41
556.66	58595.31
556.83	58555.52
556.99	58983.84
557.16	58829.37
557.32	58766.17
557.49	58688.93
557.65	58567.23
557.82	58494.67
557.98	58653.82
558.15	58571.91
558.32	58759.15
558.48	58775.53
558.65	58557.86
558.81	58965.12
558.98	58752.13
559.14	58955.75
559.31	58731.06
559.47	58801.28
559.64	59016.61
559.80	58817.66
559.97	58944.05
560.13	58684.25
560.30	58981.50
560.46	59128.95
560.63	59107.89
560.79	59105.55
560.96	59093.85
561.12	59171.08
561.29	58995.54
561.45	59016.61
561.61	59028.31
561.78	59313.86
561.94	59166.40
562.11	59304.49
562.27	59281.09
562.44	59091.51
562.60	59112.57
562.77	59203.85
562.93	59269.39
563.10	59276.41
563.26	59192.15
563.42	59437.90
563.59	59316.20
563.75	59227.26
563.92	59363.01
564.08	59285.77
564.24	59320.88
564.41	59229.60
564.57	59451.95
564.74	59185.13
564.90	59613.44
565.07	59253.00
565.23	59339.60
565.39	59381.73
565.56	59430.88
565.72	59395.77
565.88	59468.33
566.05	59494.08
566.21	59278.75
566.38	59423.86
566.54	59512.80
566.70	59470.67
566.87	59655.57
567.03	59519.82
567.19	59676.64
567.36	59819.41
567.52	59512.80
567.68	59498.76
567.85	59339.60
568.01	59550.25
568.17	59503.44
568.34	59524.50
568.50	59629.83
568.66	59606.42
568.83	59611.10
568.99	59749.20
569.15	59550.25
569.32	59615.79
569.48	59503.44
569.64	59896.65
569.81	59606.42
569.97	59697.70
570.13	59671.96
570.30	59784.30
570.46	59810.05
570.62	59758.56
570.78	59657.91
570.95	59791.33
571.11	59737.49
571.27	59391.09
571.43	59641.53
571.60	59814.73
571.76	59681.32
571.92	59866.22
572.09	59686.00
572.25	59774.94
572.41	59671.96
572.57	59819.41
572.74	60006.65
572.90	59716.43
573.06	59999.63
573.22	59920.05
573.38	60065.17
573.55	59910.69
573.71	60072.19
573.87	59906.01
574.03	59728.13
574.20	59901.33
574.36	59898.99
574.52	59861.54
574.68	60032.40
574.84	60004.31
575.01	59969.21
575.17	59894.31
575.33	60009.00
575.49	59798.35
575.65	59915.37
575.82	59964.52
575.98	59943.46
576.14	60076.87
576.30	59950.48
576.46	60055.81
576.62	60034.74
576.79	60004.31
576.95	59894.31
577.11	60229.01
577.27	59969.21
577.43	60034.74
577.59	60196.24
577.75	60044.10
577.92	59718.77
578.08	59812.39
578.24	59934.10
578.40	60018.36
578.56	60212.62
578.72	60055.81
578.88	60339.01
579.04	60432.63
579.21	60102.62
579.37	60350.71
579.53	60116.66
579.69	59863.88
579.85	59969.21
580.01	60142.41
580.17	60119.00
580.33	59924.74
580.49	60193.90
580.65	60231.35
580.82	60076.87
580.98	60191.56
581.14	59999.63
581.30	60343.69
581.46	59959.84
581.62	59990.27
581.78	60095.60
581.94	60191.56
582.10	60133.04
582.26	60219.64
582.42	60247.73
582.58	60196.24
582.74	60107.30
582.90	60285.18
583.06	60289.86
583.22	60175.17
583.38	60034.74
583.54	60128.36
583.70	60214.96
583.86	60156.45
584.02	60126.02
584.18	60219.64
584.34	60495.83
584.50	60264.11
584.66	60062.83
584.82	60037.08
584.98	60236.03
585.14	60247.73
585.30	59910.69
585.46	60278.16
585.62	60121.34
585.78	60271.14
585.94	60229.01
586.10	60549.66
586.26	60217.30
586.42	60449.02
586.58	60481.78
586.74	60212.62
586.90	60278.16
587.06	60214.96
587.22	60247.73
587.38	60315.61
587.54	60271.14
587.70	60486.46
587.86	60432.63
588.02	60402.21
588.18	60612.85
588.34	60484.12
588.49	60568.38
588.65	60247.73
588.81	60273.48
588.97	60437.31
589.13	60381.14
