SpectraSuite Data File
++++++++++++++++++++++++++++++++++++
Date: Fri Oct 04 11:39:20 GMT-05:00 2013
User: price-jones
Dark Spectrum Present: No
Reference Spectrum Present: No
Number of Sampled Component Spectra: 1
Spectrometers: USB2+H05261
Integration Time (usec): 100000 (USB2+H05261)
Spectra Averaged: 1 (USB2+H05261)
Boxcar Smoothing: 0 (USB2+H05261)
Correct for Electrical Dark: No (USB2+H05261)
Strobe/Lamp Enabled: No (USB2+H05261)
Correct for Detector Non-linearity: No (USB2+H05261)
Correct for Stray Light: No (USB2+H05261)
Number of Pixels in Processed Spectrum: 2048
>>>>>Begin Processed Spectral Data<<<<<
365.73	63.19
365.92	63.19
366.12	63.19
366.32	0.00
366.52	0.00
366.72	0.00
366.91	0.00
367.11	0.00
367.31	0.00
367.51	0.00
367.70	0.00
367.90	0.00
368.10	0.00
368.30	0.00
368.49	0.00
368.69	0.00
368.89	0.00
369.09	0.00
369.28	0.00
369.48	0.00
369.68	0.00
369.87	30.43
370.07	18.72
370.27	30.43
370.47	105.32
370.66	212.99
370.86	220.01
371.06	334.70
371.25	330.02
371.45	327.68
371.65	346.40
371.84	234.05
372.04	262.14
372.24	355.76
372.44	381.51
372.63	367.46
372.83	390.87
373.03	360.44
373.22	414.27
373.42	351.08
373.62	440.02
373.81	397.89
374.01	489.17
374.21	402.57
374.40	383.85
374.60	503.22
374.79	418.96
374.99	449.38
375.19	430.66
375.38	489.17
375.58	449.38
375.78	505.56
375.97	386.19
376.17	571.09
376.37	365.12
376.56	540.66
376.76	421.30
376.95	393.21
377.15	475.13
377.35	589.82
377.54	468.11
377.74	440.02
377.93	470.45
378.13	503.22
378.33	395.55
378.52	463.43
378.72	468.11
378.91	414.27
379.11	500.87
379.31	489.17
379.50	451.72
379.70	397.89
379.89	437.68
380.09	468.11
380.28	535.98
380.48	461.09
380.68	465.77
380.87	524.28
381.07	512.58
381.26	533.64
381.46	589.82
381.65	627.26
381.85	517.26
382.04	547.69
382.24	489.17
382.43	608.54
382.63	477.47
382.83	566.41
383.02	573.43
383.22	634.29
383.41	554.71
383.61	603.86
383.80	575.77
384.00	571.09
384.19	641.31
384.39	613.22
384.58	617.90
384.78	606.20
384.97	498.53
385.17	660.03
385.36	585.13
385.56	634.29
385.75	557.05
385.95	667.05
386.14	608.54
386.34	671.73
386.53	662.37
386.72	641.31
386.92	683.44
387.11	631.94
387.31	692.80
387.50	727.91
387.70	624.92
387.89	716.20
388.09	620.24
388.28	620.24
388.48	629.60
388.67	674.07
388.86	704.50
389.06	744.29
389.25	760.67
389.45	702.16
389.64	688.12
389.84	763.01
390.03	678.76
390.22	725.57
390.42	760.67
390.61	751.31
390.81	763.01
391.00	842.59
391.19	912.81
391.39	837.91
391.58	844.93
391.78	730.25
391.97	802.80
392.16	758.33
392.36	842.59
392.55	807.48
392.75	903.45
392.94	798.12
393.13	805.14
393.33	784.08
393.52	814.51
393.71	905.79
393.91	844.93
394.10	779.40
394.29	919.83
394.49	844.93
394.68	961.96
394.88	959.62
395.07	973.66
395.26	938.55
395.46	976.00
395.65	968.98
395.84	877.70
396.04	1053.24
396.23	983.02
396.42	983.02
396.62	980.68
396.81	985.37
397.00	976.00
397.19	1083.67
397.39	1011.11
397.58	1053.24
397.77	1055.58
397.97	1097.71
398.16	1156.22
398.35	1086.01
398.55	1027.50
398.74	1062.60
398.93	1111.75
399.12	1186.65
399.32	1071.97
399.51	1137.50
399.70	1156.22
399.90	1186.65
400.09	1275.59
400.28	1205.38
400.47	1221.76
400.67	1287.29
400.86	1221.76
401.05	1184.31
401.24	1287.29
401.44	1263.89
401.63	1228.78
401.82	1308.36
402.01	1212.40
402.21	1416.02
402.40	1320.06
402.59	1263.89
402.78	1371.55
402.97	1394.96
403.17	1378.58
403.36	1362.19
403.55	1352.83
403.74	1488.58
403.93	1437.09
404.13	1565.82
404.32	1519.01
404.51	1404.32
404.70	1495.60
404.89	1399.64
405.09	1507.30
405.28	1497.94
405.47	1493.26
405.66	1551.78
405.85	1554.12
406.05	1657.10
406.24	1645.40
406.43	1692.21
406.62	1654.76
406.81	1701.57
407.00	1699.23
407.20	1631.35
407.39	1710.93
407.58	1783.49
407.77	1746.04
407.96	1811.57
408.15	1753.06
408.34	1696.89
408.54	1753.06
408.73	1767.10
408.92	1954.35
409.11	1853.70
409.30	1851.36
409.49	1991.80
409.68	1877.11
409.87	1893.49
410.07	1863.07
410.26	1949.67
410.45	1900.52
410.64	1909.88
410.83	2015.20
411.02	2115.84
411.21	2090.10
411.40	2010.52
411.59	2162.66
411.78	2125.21
411.98	2193.08
412.17	2104.14
412.36	2235.21
412.55	2260.96
412.74	2427.14
412.93	2270.32
413.12	2356.92
413.31	2389.69
413.50	2310.11
413.69	2263.30
413.88	2518.42
414.07	2490.33
414.26	2431.82
414.45	2389.69
414.64	2546.50
414.83	2576.93
415.02	2595.65
415.22	2656.51
415.41	2597.99
415.60	2684.59
415.79	2637.78
415.98	2792.26
416.17	2684.59
416.36	2782.90
416.55	2754.81
416.74	2972.48
416.93	2846.09
417.12	2825.03
417.31	2911.63
417.50	2942.05
417.69	3019.29
417.88	2857.79
418.07	2913.97
418.26	2967.80
418.45	3042.70
418.64	2986.52
418.83	3171.43
419.02	3117.59
419.21	3063.76
419.39	3178.45
419.58	3054.40
419.77	3117.59
419.96	3206.53
420.15	3225.26
420.34	3131.64
420.53	3239.30
420.72	3398.46
420.91	3339.94
421.10	3325.90
421.29	3405.48
421.48	3258.03
421.67	3363.35
421.86	3438.25
422.05	3393.78
422.24	3405.48
422.43	3325.90
422.61	3421.86
422.80	3529.53
422.99	3421.86
423.18	3499.10
423.37	3625.49
423.56	3487.40
423.75	3531.87
423.94	3435.91
424.13	3304.84
424.32	3323.56
424.50	3527.19
424.69	3463.99
424.88	3665.28
425.07	3585.70
425.26	3531.87
425.45	3440.59
425.64	3721.45
425.83	3513.14
426.01	3625.49
426.20	3620.81
426.39	3569.32
426.58	3543.57
426.77	3571.66
426.96	3646.55
427.15	3712.09
427.33	3599.74
427.52	3691.02
427.71	3662.94
427.90	3789.33
428.09	3889.97
428.28	3730.81
428.46	3880.61
428.65	3927.42
428.84	3850.18
429.03	3941.46
429.22	3700.39
429.40	4058.49
429.59	3913.38
429.78	3662.94
429.97	3801.03
430.16	3833.80
430.34	3934.44
430.53	4121.68
430.72	4056.15
430.91	3976.57
431.10	3950.82
431.28	4072.53
431.47	4147.43
431.66	4383.82
431.85	4159.13
432.03	4306.59
432.22	4262.12
432.41	4306.59
432.60	4327.65
432.79	4259.78
432.97	4306.59
433.16	4304.25
433.35	4432.97
433.54	4409.57
433.72	4395.53
433.91	4278.50
434.10	4322.97
434.28	4411.91
434.47	4428.29
434.66	4437.66
434.85	4582.77
435.03	4573.41
435.22	4683.41
435.41	5074.28
435.59	4978.32
435.78	5001.72
435.97	4898.74
436.16	4755.97
436.34	4762.99
436.53	4802.78
436.72	4959.60
436.90	4603.83
437.09	4744.27
437.28	4552.34
437.46	4807.46
437.65	4599.15
437.84	4793.42
438.02	4919.81
438.21	4851.93
438.40	4910.44
438.58	5048.54
438.77	4947.89
438.96	4987.68
439.14	5149.18
439.33	5165.56
439.52	5219.39
439.70	5160.88
439.89	5193.65
440.08	5399.62
440.26	5331.74
440.45	5240.46
440.63	5453.45
440.82	5418.34
441.01	5441.75
441.19	5530.69
441.38	5741.33
441.57	5612.60
441.75	5706.23
441.94	5792.83
442.12	5811.55
442.31	5769.42
442.50	5844.32
442.68	5823.25
442.87	5628.99
443.05	5802.19
443.24	6092.41
443.43	5956.66
443.61	6050.28
443.80	6141.57
443.98	5902.83
444.17	5619.63
444.35	5891.13
444.54	6026.88
444.73	5926.24
444.91	5984.75
445.10	5881.77
445.28	6047.94
445.47	5930.92
445.65	5977.73
445.84	5879.43
446.02	6120.50
446.21	6101.78
446.39	6052.63
446.58	6195.40
446.77	6153.27
446.95	5959.00
447.14	6272.64
447.32	6260.93
447.51	6157.95
447.69	6036.24
447.88	6155.61
448.06	6197.74
448.25	6171.99
448.43	6005.81
448.62	6345.19
448.80	6310.08
448.99	6296.04
449.17	6331.15
449.36	6207.10
449.54	6375.62
449.73	6438.81
449.91	6420.09
450.10	6399.02
450.28	6686.91
450.46	6574.56
450.65	6530.09
450.83	6560.52
451.02	6642.44
451.20	6710.32
451.39	6623.72
451.57	6422.43
451.76	6628.40
451.94	6729.04
452.13	6717.34
452.31	6773.51
452.49	6642.44
452.68	6546.48
452.86	6656.48
453.05	6752.45
453.23	6803.94
453.42	6871.81
453.60	6698.61
453.78	6759.47
453.97	6897.56
454.15	6829.68
454.34	6965.43
454.52	7056.72
454.70	7080.12
454.89	7023.95
455.07	7150.34
455.26	7283.75
455.44	7213.53
455.62	7054.37
455.81	7066.08
455.99	7108.21
456.17	7232.26
456.36	7311.83
456.54	7414.82
456.73	7456.95
456.91	7627.81
457.09	7435.88
457.28	7719.09
457.46	7332.90
457.64	7669.94
457.83	7522.48
458.01	7583.34
458.19	7742.49
458.38	7590.36
458.56	7719.09
458.74	7772.92
458.93	7833.77
459.11	7726.11
459.29	7714.41
459.48	7789.30
459.66	7903.99
459.84	7995.27
460.03	8161.45
460.21	7871.22
460.39	7941.44
460.57	8006.97
460.76	7946.12
460.94	8032.72
461.12	8145.06
461.31	8397.84
461.49	8133.36
461.67	7983.57
461.85	8329.97
462.04	8128.68
462.22	8655.30
462.40	8477.42
462.59	8262.09
462.77	8234.00
462.95	8411.89
463.13	8287.84
463.32	8479.76
463.50	8421.25
463.68	8374.44
463.86	8383.80
464.05	8540.61
464.23	8482.10
464.41	8554.66
464.59	8245.71
464.78	8667.00
464.96	8638.92
465.14	8510.19
465.32	8683.39
465.50	8769.99
465.69	8861.27
465.87	8629.56
466.05	8688.07
466.23	8718.50
466.41	8809.78
466.60	9039.15
466.78	8678.71
466.96	8732.54
467.14	8720.84
467.32	8823.82
467.51	9081.28
467.69	8814.46
467.87	8992.34
468.05	8938.51
468.23	8812.12
468.41	8875.31
468.60	8926.80
468.78	9067.24
468.96	8933.82
469.14	9263.84
469.32	9170.22
469.50	9085.96
469.69	9224.05
469.87	9504.92
470.05	9509.60
470.23	9472.15
470.41	9453.42
470.59	9434.70
470.77	9404.27
470.95	9582.15
471.14	9465.13
471.32	9568.11
471.50	9830.25
471.68	9748.33
471.86	9760.03
472.04	9818.55
472.22	9940.26
472.40	9790.46
472.58	10066.64
472.77	9848.97
472.95	10132.18
473.13	10394.32
473.31	10050.26
473.49	10237.50
473.67	10394.32
473.85	10244.52
474.03	10410.70
474.21	10314.74
474.39	10504.32
474.57	10604.97
474.75	10803.91
474.93	10731.36
475.12	10663.48
475.30	10953.71
475.48	10782.85
475.66	10960.73
475.84	10862.43
476.02	11194.78
476.20	11073.07
476.38	11412.45
476.56	11309.47
476.74	11185.42
476.92	11246.27
477.10	11115.20
477.28	11595.01
477.46	11541.18
477.64	11599.70
477.82	11875.88
478.00	11995.25
478.18	12266.75
478.36	12308.88
478.54	12332.28
478.72	12095.89
478.90	12720.81
479.08	12402.50
479.26	12760.60
479.44	12961.89
479.62	12964.23
479.80	13018.06
479.98	12994.65
480.16	13359.78
480.34	13193.60
480.52	13434.68
480.70	13135.09
480.88	13439.36
481.06	13270.84
481.24	13446.38
481.41	13640.64
481.59	13666.39
481.77	13905.12
481.95	13923.85
482.13	14176.62
482.31	14356.85
482.49	14230.46
482.67	14422.38
482.85	14347.48
483.03	14609.62
483.21	14885.81
483.39	15005.17
483.57	14876.44
483.74	15370.30
483.92	15232.21
484.10	15185.40
484.28	15700.31
484.46	15653.50
484.64	16086.50
484.82	15896.92
485.00	15843.09
485.18	16011.60
485.35	16458.65
485.53	16430.56
485.71	16542.91
485.89	16926.75
486.07	16879.94
486.25	16870.58
486.43	16973.56
486.61	17216.98
486.78	17106.98
486.96	17539.97
487.14	17888.71
487.32	17493.16
487.50	17659.34
487.68	17877.01
487.85	18104.04
488.03	18551.09
488.21	18361.50
488.39	18640.03
488.57	18567.47
488.75	19009.83
488.92	19211.12
489.10	19384.32
489.28	19353.89
489.46	19398.36
489.64	19386.66
489.81	20123.93
489.99	19697.95
490.17	19810.29
490.35	20032.65
490.53	20121.59
490.70	20524.16
490.88	20081.80
491.06	20617.78
491.24	20676.29
491.41	20748.85
491.59	21043.76
491.77	21163.12
491.95	21268.45
492.13	21455.69
492.30	21088.23
492.48	21277.81
492.66	21352.71
492.84	22005.72
493.01	22211.68
493.19	22139.13
493.37	22239.77
493.54	22532.34
493.72	22649.36
493.90	22518.29
494.08	22647.02
494.25	23012.15
494.43	23002.78
494.61	23601.96
494.79	23377.27
494.96	23367.91
495.14	23473.23
495.32	23557.49
495.49	23859.42
495.67	23836.02
495.85	23941.34
496.02	23992.83
496.20	24247.95
496.38	24505.41
496.55	24973.52
496.73	24891.60
496.91	24460.94
497.09	25174.80
497.26	25207.57
497.44	24760.53
497.62	25298.85
497.79	25546.95
497.97	25427.58
498.14	26089.95
498.32	25844.20
498.50	26272.51
498.67	26171.87
498.85	26122.72
499.03	26024.42
499.20	26644.66
499.38	26043.14
499.56	26593.17
499.73	26984.04
499.91	26946.59
500.08	27283.62
500.26	26871.69
500.44	26803.82
500.61	27094.04
500.79	26960.63
500.97	27290.65
501.14	27646.41
501.32	27646.41
501.49	27510.66
501.67	27648.75
501.84	28074.73
502.02	27835.99
502.20	28320.48
502.37	28271.33
502.55	28484.32
502.72	28320.48
502.90	28704.33
503.07	28161.33
503.25	28879.87
503.43	28912.64
503.60	28788.59
503.78	29366.70
503.95	29294.14
504.13	29041.37
504.30	28945.41
504.48	29048.39
504.65	29333.93
504.83	29582.03
505.01	29949.50
505.18	30050.14
505.36	29867.58
505.53	29935.45
505.71	29970.56
505.88	30085.25
506.06	30335.68
506.23	30441.01
506.41	30141.42
506.58	30433.99
506.76	30445.69
506.93	30525.27
507.11	30387.18
507.28	30625.91
507.46	31040.18
507.63	31098.70
507.81	31122.10
507.98	30991.03
508.16	30960.61
508.33	31091.68
508.50	31211.04
508.68	31686.17
508.85	31840.65
509.03	31828.95
509.20	31873.42
509.38	31931.93
509.55	31850.01
509.73	32397.70
509.90	31761.07
510.08	32144.92
510.25	32402.38
510.42	32243.22
510.60	32694.94
510.77	32701.96
510.95	33034.32
511.12	32861.12
511.30	32884.53
511.47	32940.70
511.64	33151.35
511.82	32987.51
511.99	33390.08
512.17	33268.37
512.34	33326.89
512.51	33469.66
512.69	33886.28
512.86	33844.15
513.04	34387.15
513.21	33773.93
513.38	33881.60
513.56	33972.88
513.73	34284.17
513.90	34338.00
514.08	34064.16
514.25	34235.02
514.43	34457.37
514.60	34625.89
514.77	34670.36
514.95	34792.06
515.12	34684.40
515.29	34691.42
515.47	35330.39
515.64	35428.69
515.81	35168.89
515.99	35093.99
516.16	35271.87
516.33	35367.84
516.51	35964.67
516.68	35487.20
516.85	35555.08
517.03	35714.23
517.20	35489.54
517.37	36025.53
517.54	36261.92
517.72	35922.54
517.89	35931.90
518.06	35786.79
518.24	36165.96
518.41	36472.57
518.58	36453.84
518.75	36371.92
518.93	36825.99
519.10	36608.32
519.27	37043.66
519.45	36320.43
519.62	37097.49
519.79	36659.81
519.96	36935.99
520.14	37184.09
520.31	36762.79
520.48	37191.11
520.65	37418.14
520.83	37558.58
521.00	37366.65
521.17	37146.64
521.34	37127.92
521.52	37614.75
521.69	37652.20
521.86	38162.43
522.03	38286.48
522.20	38738.21
522.38	37900.29
522.55	38183.50
522.72	38026.68
522.89	38080.52
523.07	38773.31
523.24	38813.10
523.41	38726.50
523.58	38525.22
523.75	39000.35
523.92	38696.08
524.10	38691.40
524.27	39421.64
524.44	39501.22
524.61	39335.04
524.78	39288.23
524.96	39276.53
525.13	39356.11
525.30	39313.98
525.47	39531.65
525.64	39615.91
525.81	39419.30
525.98	39711.87
526.16	40006.78
526.33	39608.89
526.50	39824.22
526.67	39978.69
526.84	40095.72
527.01	40076.99
527.18	40161.25
527.36	40289.98
527.53	40308.71
527.70	40797.88
527.87	40952.35
528.04	40589.57
528.21	40378.92
528.38	40509.99
528.55	40463.18
528.72	40549.78
528.89	40900.86
529.07	41301.09
529.24	41090.44
529.41	40896.18
529.58	40722.98
529.75	41177.04
529.92	41387.69
530.09	40727.66
530.26	41003.85
530.43	41340.88
530.60	41050.66
530.77	41104.49
530.94	41984.53
531.11	41408.76
531.28	40804.90
531.46	41195.77
531.63	41256.62
531.80	41869.84
531.97	42326.25
532.14	42351.99
532.31	42223.26
532.48	42150.71
532.65	42241.99
532.82	42071.13
532.99	42244.33
533.16	42134.32
533.33	42674.99
533.50	42806.06
533.67	42616.47
533.84	42326.25
534.01	42672.65
534.18	42707.76
534.35	42724.14
534.52	42454.98
534.69	43110.33
534.86	43131.39
535.03	42508.81
535.20	42948.83
535.37	42937.13
535.54	42653.92
535.71	42817.76
535.88	43091.60
536.05	42990.96
536.22	43569.07
536.38	43372.47
536.55	43564.39
536.72	43913.13
536.89	43409.92
537.06	43325.66
537.23	44044.20
537.40	43601.84
537.57	43452.05
537.74	43779.72
537.91	44062.93
538.08	44198.68
538.25	43819.51
538.42	43763.34
538.59	43943.56
538.75	43704.82
538.92	43847.60
539.09	44423.37
539.26	44385.92
539.43	44182.29
539.60	44725.30
539.77	44271.23
539.94	44098.03
540.11	44725.30
540.28	44720.62
540.44	44516.99
540.61	44236.12
540.78	44706.57
540.95	44816.58
541.12	45144.25
541.29	45301.07
541.46	45006.16
541.62	44603.59
541.79	44563.80
541.96	44678.49
542.13	45289.37
542.30	45654.49
542.47	45268.30
542.63	45591.30
542.80	45717.68
542.97	45647.47
543.14	46078.13
543.31	45883.86
543.48	45928.33
543.64	46174.09
543.81	46082.81
543.98	46157.70
544.15	46143.66
544.32	46321.54
544.48	46628.15
544.65	46543.89
544.82	45961.10
544.99	45666.19
545.16	46494.74
545.32	46445.59
545.49	47332.65
545.66	47679.05
545.83	47449.68
546.00	47695.44
546.16	46890.29
546.33	46227.92
546.50	46340.27
546.67	46941.78
546.83	46146.00
547.00	47117.32
547.17	46714.75
547.34	46862.21
547.50	46852.84
547.67	46934.76
547.84	46960.51
548.00	46752.20
548.17	47295.21
548.34	47098.60
548.51	47405.21
548.67	47281.16
548.84	47339.68
549.01	46845.82
549.18	46672.62
549.34	47278.82
549.51	47381.80
549.68	47150.09
549.84	47423.93
550.01	47063.49
550.18	47313.93
550.34	47402.87
550.51	47398.19
550.68	47650.97
550.84	47346.70
551.01	47880.34
551.18	46904.34
551.34	47711.82
551.51	47236.69
551.68	47049.45
551.84	47459.04
552.01	47524.58
552.18	47831.19
552.34	47367.76
552.51	48254.82
552.68	47463.72
552.84	47346.70
553.01	48034.81
553.18	47536.28
553.34	47936.51
553.51	47901.40
553.67	48184.61
553.84	48666.76
554.01	47995.03
554.17	47913.11
554.34	47571.39
554.51	48020.77
554.67	48245.46
554.84	48123.75
555.00	48212.70
555.17	47866.30
555.33	48137.80
555.50	48254.82
555.67	47978.64
555.83	48229.08
556.00	48254.82
556.16	48797.83
556.33	47810.12
556.50	48523.99
556.66	48692.50
556.83	48617.61
556.99	48971.03
557.16	48748.68
557.32	48643.35
557.49	48381.21
557.65	48449.09
557.82	48018.43
557.98	48603.56
558.15	48802.51
558.32	48954.64
558.48	48470.15
558.65	48823.58
558.81	48966.35
558.98	49017.84
559.14	48786.13
559.31	48854.00
559.47	48765.06
559.64	49141.89
559.80	48975.71
559.97	48760.38
560.13	48769.74
560.30	48762.72
560.46	49038.90
560.63	49228.49
560.79	49364.24
560.96	49104.44
561.12	49031.88
561.29	49338.49
561.45	49481.27
561.61	49499.99
561.78	49322.11
561.94	49223.81
562.11	49090.40
562.27	49301.04
562.44	49078.69
562.60	48804.85
562.77	49041.24
562.93	49549.14
563.10	50040.65
563.26	49162.95
563.42	49530.42
563.59	49523.40
563.75	49593.61
563.92	49375.94
564.08	49333.81
564.24	49577.23
564.41	49488.29
564.57	49345.51
564.74	49570.21
564.90	49287.00
565.07	49558.50
565.23	49542.12
565.39	49656.81
565.56	49736.38
565.72	49551.48
565.88	49411.05
566.05	49544.46
566.21	49270.62
566.38	49275.30
566.54	49544.46
566.70	49595.95
566.87	49801.92
567.03	49607.65
567.19	50024.27
567.36	49722.34
567.52	49378.28
567.68	49853.41
567.85	49724.68
568.01	49780.85
568.17	49743.41
568.34	49741.06
568.50	49485.95
568.66	49867.45
568.83	50246.62
568.99	49848.73
569.15	49708.30
569.32	49755.11
569.48	49825.32
569.64	50019.59
569.81	49773.83
569.97	49406.37
570.13	49818.30
570.30	49792.56
570.46	49773.83
570.62	50087.46
570.78	49923.63
570.95	49467.22
571.11	49865.11
571.27	49881.50
571.43	49642.76
571.60	49851.07
571.76	50078.10
571.92	49937.67
572.09	49998.52
572.25	50492.38
572.41	50164.70
572.57	50291.09
572.74	50040.65
572.90	50199.81
573.06	49588.93
573.22	49757.45
573.38	49951.71
573.55	50005.55
573.71	50485.36
573.87	50375.35
574.03	49914.26
574.20	50078.10
574.36	49996.18
574.52	50038.31
574.68	49881.50
574.84	49965.76
575.01	49975.12
575.17	50398.76
575.33	49958.73
575.49	50150.66
575.65	50045.33
575.82	50202.15
575.98	49963.42
576.14	50417.48
576.30	50419.82
576.46	50178.75
576.62	49886.18
576.79	50382.37
576.95	50040.65
577.11	50576.64
577.27	50625.79
577.43	50473.65
577.59	50225.56
577.75	50321.52
577.92	49940.01
578.08	50122.57
578.24	50003.20
578.40	50274.71
578.56	50340.24
578.72	50284.07
578.88	50871.54
579.04	50553.23
579.21	50286.41
579.37	50607.06
579.53	50553.23
579.69	50167.04
579.85	50143.64
580.01	50244.28
580.17	50284.07
580.33	50370.67
580.49	50274.71
580.65	50279.39
580.82	50564.93
580.98	50740.47
581.14	50202.15
581.30	50475.99
581.46	49989.16
581.62	50251.30
581.78	50274.71
581.94	50534.51
582.10	50136.62
582.26	50485.36
582.42	50567.27
582.58	50553.23
582.74	50665.58
582.90	50630.47
583.06	50560.25
583.22	50417.48
583.38	50614.08
583.54	50042.99
583.70	50571.96
583.86	50478.33
584.02	50356.63
584.18	50286.41
584.34	50351.94
584.50	51014.32
584.66	50623.45
584.82	50241.94
584.98	50529.83
585.14	50677.28
585.30	50557.91
585.46	50281.73
585.62	50267.69
585.78	50562.59
585.94	50443.23
586.10	50590.68
586.26	50555.57
586.42	50637.49
586.58	50635.15
586.74	50656.21
586.90	50492.38
587.06	50490.04
587.22	50796.65
587.38	50862.18
587.54	50899.63
587.70	50827.07
587.86	50822.39
588.02	50838.78
588.18	51133.68
588.34	50885.59
588.49	50417.48
588.65	50693.66
588.81	50824.73
588.97	50981.55
589.13	51091.55
589.29	50635.15
589.45	50789.62
589.61	51014.32
589.77	51054.11
589.93	51054.11
590.08	50908.99
590.24	51035.38
590.40	51178.15
590.56	51110.28
