SpectraSuite Data File
++++++++++++++++++++++++++++++++++++
Date: Fri Oct 04 11:39:13 GMT-05:00 2013
User: price-jones
Dark Spectrum Present: No
Reference Spectrum Present: No
Number of Sampled Component Spectra: 1
Spectrometers: USB2+H05261
Integration Time (usec): 100000 (USB2+H05261)
Spectra Averaged: 1 (USB2+H05261)
Boxcar Smoothing: 0 (USB2+H05261)
Correct for Electrical Dark: No (USB2+H05261)
Strobe/Lamp Enabled: No (USB2+H05261)
Correct for Detector Non-linearity: No (USB2+H05261)
Correct for Stray Light: No (USB2+H05261)
Number of Pixels in Processed Spectrum: 2048
>>>>>Begin Processed Spectral Data<<<<<
365.73	0.00
365.92	0.00
366.12	0.00
366.32	0.00
366.52	0.00
366.72	0.00
366.91	0.00
367.11	0.00
367.31	0.00
367.51	0.00
367.70	0.00
367.90	25.75
368.10	0.00
368.30	0.00
368.49	0.00
368.69	0.00
368.89	0.00
369.09	0.00
369.28	0.00
369.48	0.00
369.68	0.00
369.87	16.38
370.07	0.00
370.27	0.00
370.47	56.17
370.66	72.56
370.86	37.45
371.06	292.57
371.25	238.73
371.45	168.52
371.65	217.67
371.84	131.07
372.04	184.90
372.24	217.67
372.44	222.35
372.63	227.03
372.83	313.63
373.03	215.33
373.22	187.24
373.42	250.44
373.62	220.01
373.81	290.23
374.01	224.69
374.21	271.50
374.40	234.05
374.60	227.03
374.79	229.37
374.99	194.26
375.19	215.33
375.38	259.80
375.58	191.92
375.78	346.40
375.97	262.14
376.17	320.65
376.37	311.29
376.56	266.82
376.76	306.61
376.95	175.54
377.15	238.73
377.35	257.46
377.54	259.80
377.74	227.03
377.93	243.42
378.13	205.97
378.33	257.46
378.52	241.08
378.72	243.42
378.91	308.95
379.11	224.69
379.31	304.27
379.50	243.42
379.70	315.97
379.89	294.91
380.09	278.52
380.28	327.68
380.48	337.04
380.68	217.67
380.87	173.20
381.07	250.44
381.26	339.38
381.46	322.99
381.65	259.80
381.85	299.59
382.04	297.25
382.24	264.48
382.43	290.23
382.63	269.16
382.83	341.72
383.02	320.65
383.22	369.80
383.41	313.63
383.61	313.63
383.80	245.76
384.00	248.10
384.19	224.69
384.39	266.82
384.58	362.78
384.78	278.52
384.97	266.82
385.17	297.25
385.36	264.48
385.56	313.63
385.75	341.72
385.95	351.08
386.14	367.46
386.34	358.10
386.53	416.62
386.72	348.74
386.92	306.61
387.11	365.12
387.31	341.72
387.50	287.89
387.70	330.02
387.89	322.99
388.09	362.78
388.28	327.68
388.48	355.76
388.67	337.04
388.86	299.59
389.06	358.10
389.25	369.80
389.45	301.93
389.64	407.25
389.84	418.96
390.03	337.04
390.22	334.70
390.42	395.55
390.61	278.52
390.81	388.53
391.00	374.49
391.19	351.08
391.39	339.38
391.58	393.21
391.78	367.46
391.97	433.00
392.16	344.06
392.36	395.55
392.55	341.72
392.75	454.06
392.94	397.89
393.13	337.04
393.33	376.83
393.52	360.44
393.71	493.85
393.91	383.85
394.10	465.77
394.29	449.38
394.49	407.25
394.68	433.00
394.88	449.38
395.07	479.81
395.26	400.23
395.46	442.36
395.65	477.47
395.84	447.04
396.04	533.64
396.23	451.72
396.42	503.22
396.62	437.68
396.81	418.96
397.00	451.72
397.19	463.43
397.39	447.04
397.58	540.66
397.77	500.87
397.97	456.40
398.16	458.74
398.35	496.19
398.55	526.62
398.74	493.85
398.93	589.82
399.12	491.51
399.32	521.94
399.51	505.56
399.70	571.09
399.90	484.49
400.09	552.37
400.28	552.37
400.47	521.94
400.67	533.64
400.86	653.01
401.05	557.05
401.24	627.26
401.44	557.05
401.63	526.62
401.82	603.86
402.01	657.69
402.21	540.66
402.40	575.77
402.59	535.98
402.78	568.75
402.97	624.92
403.17	643.65
403.36	580.45
403.55	662.37
403.74	596.84
403.93	650.67
404.13	730.25
404.32	599.18
404.51	739.61
404.70	763.01
404.89	617.90
405.09	664.71
405.28	681.10
405.47	631.94
405.66	741.95
405.85	709.18
406.05	638.97
406.24	660.03
406.43	669.39
406.62	650.67
406.81	800.46
407.00	697.48
407.20	760.67
407.39	713.86
407.58	781.74
407.77	727.91
407.96	753.65
408.15	835.57
408.34	730.25
408.54	720.88
408.73	704.50
408.92	786.42
409.11	779.40
409.30	809.83
409.49	758.33
409.68	798.12
409.87	830.89
410.07	812.17
410.26	837.91
410.45	770.04
410.64	786.42
410.83	851.96
411.02	812.17
411.21	912.81
411.40	873.02
411.59	905.79
411.78	889.40
411.98	936.21
412.17	926.85
412.36	858.98
412.55	1004.09
412.74	978.34
412.93	880.04
413.12	947.92
413.31	1006.43
413.50	950.26
413.69	1006.43
413.88	1060.26
414.07	1048.56
414.26	1029.84
414.45	1062.60
414.64	1025.15
414.83	997.07
415.02	1064.94
415.22	1123.46
415.41	1081.33
415.60	997.07
415.79	1139.84
415.98	1137.50
416.17	1116.44
416.36	1109.41
416.55	1125.80
416.74	1097.71
416.93	1090.69
417.12	1123.46
417.31	1163.25
417.50	1118.78
417.69	1149.20
417.88	1268.57
418.07	1268.57
418.26	1179.63
418.45	1118.78
418.64	1226.44
418.83	1224.10
419.02	1174.95
419.21	1233.46
419.39	1320.06
419.58	1306.02
419.77	1210.06
419.96	1289.64
420.15	1287.29
420.34	1306.02
420.53	1345.81
420.72	1331.76
420.91	1364.53
421.10	1313.04
421.29	1366.87
421.48	1334.11
421.67	1341.13
421.86	1380.92
422.05	1376.24
422.24	1369.21
422.43	1329.42
422.61	1383.26
422.80	1406.66
422.99	1376.24
423.18	1432.41
423.37	1434.75
423.56	1434.75
423.75	1336.45
423.94	1341.13
424.13	1289.64
424.32	1371.55
424.50	1411.34
424.69	1380.92
424.88	1420.71
425.07	1401.98
425.26	1427.73
425.45	1399.64
425.64	1387.94
425.83	1315.38
426.01	1493.26
426.20	1423.05
426.39	1462.83
426.58	1322.40
426.77	1418.36
426.96	1371.55
427.15	1474.54
427.33	1607.95
427.52	1453.47
427.71	1455.81
427.90	1483.90
428.09	1526.03
428.28	1432.41
428.46	1521.35
428.65	1502.62
428.84	1551.78
429.03	1617.31
429.22	1533.05
429.40	1474.54
429.59	1514.33
429.78	1568.16
429.97	1507.30
430.16	1446.45
430.34	1636.03
430.53	1584.54
430.72	1598.59
430.91	1528.37
431.10	1659.44
431.28	1633.69
431.47	1694.55
431.66	1732.00
431.85	1647.74
432.03	1682.85
432.22	1806.89
432.41	1584.54
432.60	1769.44
432.79	1617.31
432.97	1736.68
433.16	1694.55
433.35	1710.93
433.54	1678.16
433.72	1767.10
433.91	1832.64
434.10	1764.76
434.28	1760.08
434.47	1713.27
434.66	1774.13
434.85	1785.83
435.03	1907.54
435.22	1963.71
435.41	2235.21
435.59	2085.42
435.78	2038.61
435.97	1884.13
436.16	1888.81
436.34	1710.93
436.53	1863.07
436.72	1912.22
436.90	1804.55
437.09	1914.56
437.28	1881.79
437.46	1802.21
437.65	1881.79
437.84	1874.77
438.02	1834.98
438.21	1856.04
438.40	1790.51
438.58	1827.96
438.77	1928.60
438.96	1961.37
439.14	2092.44
439.33	2062.01
439.52	2008.18
439.70	2043.29
439.89	1989.46
440.08	2010.52
440.26	1998.82
440.45	2106.48
440.63	2071.37
440.82	2136.91
441.01	2052.65
441.19	2003.50
441.38	2148.61
441.57	2022.22
441.75	2132.23
441.94	2181.38
442.12	2260.96
442.31	2265.64
442.50	2298.41
442.68	2200.10
442.87	2321.81
443.05	2246.91
443.24	2303.09
443.43	2317.13
443.61	2382.67
443.80	2361.60
443.98	2221.17
444.17	2141.59
444.35	2335.85
444.54	2256.28
444.73	2396.71
444.91	2221.17
445.10	2324.15
445.28	2225.85
445.47	2230.53
445.65	2361.60
445.84	2298.41
446.02	2260.96
446.21	2349.90
446.39	2321.81
446.58	2413.09
446.77	2265.64
446.95	2363.94
447.14	2251.60
447.32	2282.02
447.51	2310.11
447.69	2443.52
447.88	2235.21
448.06	2387.35
448.25	2342.88
448.43	2340.54
448.62	2270.32
448.80	2443.52
448.99	2366.28
449.17	2340.54
449.36	2359.26
449.54	2464.58
449.73	2478.63
449.91	2560.55
450.10	2415.43
450.28	2462.24
450.46	2506.71
450.65	2525.44
450.83	2492.67
451.02	2434.16
451.20	2485.65
451.39	2485.65
451.57	2487.99
451.76	2523.10
451.94	2565.23
452.13	2593.31
452.31	2583.95
452.49	2558.21
452.68	2490.33
452.86	2520.76
453.05	2600.34
453.23	2597.99
453.42	2548.84
453.60	2612.04
453.78	2579.27
453.97	2523.10
454.15	2665.87
454.34	2527.78
454.52	2705.66
454.70	2684.59
454.89	2663.53
455.07	2595.65
455.26	2693.96
455.44	2682.25
455.62	2715.02
455.81	2703.32
455.99	2738.43
456.17	2712.68
456.36	2691.62
456.54	2717.36
456.73	2682.25
456.91	2829.71
457.09	2672.89
457.28	2820.35
457.46	2888.22
457.64	2752.47
457.83	2862.48
458.01	2771.19
458.19	2871.84
458.38	2986.52
458.56	2981.84
458.74	2981.84
458.93	2892.90
459.11	2771.19
459.29	2988.86
459.48	2920.99
459.66	2984.18
459.84	2904.60
460.03	3047.38
460.21	3007.59
460.39	3063.76
460.57	2972.48
460.76	3005.25
460.94	2951.42
461.12	3061.42
461.31	2963.12
461.49	2965.46
461.67	2979.50
461.85	3094.19
462.04	2984.18
462.22	3138.66
462.40	3110.57
462.59	3030.99
462.77	3169.09
462.95	3297.81
463.13	3103.55
463.32	3122.27
463.50	3112.91
463.68	3178.45
463.86	3192.49
464.05	3173.77
464.23	3213.56
464.41	3243.98
464.59	3061.42
464.78	3316.54
464.96	3323.56
465.14	3225.26
465.32	3290.79
465.50	3288.45
465.69	3337.60
465.87	3225.26
466.05	3236.96
466.23	3307.18
466.41	3337.60
466.60	3332.92
466.78	3335.26
466.96	3248.66
467.14	3213.56
467.32	3391.44
467.51	3382.07
467.69	3365.69
467.87	3445.27
468.05	3288.45
468.23	3447.61
468.41	3424.20
468.60	3356.33
468.78	3482.72
468.96	3475.70
469.14	3482.72
469.32	3398.46
469.50	3269.73
469.69	3337.60
469.87	3548.25
470.05	3468.67
470.23	3508.46
470.41	3449.95
470.59	3480.38
470.77	3531.87
470.95	3510.80
471.14	3599.74
471.32	3576.34
471.50	3508.46
471.68	3679.32
471.86	3590.38
472.04	3700.39
472.22	3782.31
472.40	3674.64
472.58	3669.96
472.77	3644.21
472.95	3801.03
473.13	3896.99
473.31	3705.07
473.49	3681.66
473.67	3913.38
473.85	3822.09
474.03	3833.80
474.21	3810.39
474.39	3794.01
474.57	3882.95
474.75	3918.06
474.93	4079.55
475.12	3936.78
475.30	3985.93
475.48	3908.69
475.66	3992.95
475.84	4173.18
476.02	4109.98
476.20	4070.19
476.38	4084.23
476.56	4369.78
476.74	4189.56
476.92	4161.47
477.10	4358.08
477.28	4255.09
477.46	4276.16
477.64	4287.86
477.82	4440.00
478.00	4603.83
478.18	4489.15
478.36	4554.68
478.54	4479.79
478.72	4306.59
478.90	4500.85
479.08	4538.30
479.26	4585.11
479.44	4601.49
479.62	4713.84
479.80	4840.23
479.98	4566.39
480.16	4800.44
480.34	4873.00
480.52	4947.89
480.70	4938.53
480.88	4856.61
481.06	4952.57
481.24	4758.31
481.41	5041.51
481.59	5123.43
481.77	5006.41
481.95	5219.39
482.13	5331.74
482.31	5200.67
482.49	5226.42
482.67	5345.78
482.85	5392.59
483.03	5291.95
483.21	5514.30
483.39	5383.23
483.57	5446.43
483.74	5631.33
483.92	5645.37
484.10	5467.49
484.28	5628.99
484.46	5764.74
484.64	5811.55
484.82	5621.97
485.00	5743.67
485.18	5792.83
485.35	6012.84
485.53	5996.45
485.71	5935.60
485.89	6221.14
486.07	6171.99
486.25	6141.57
486.43	6113.48
486.61	6157.95
486.78	6300.72
486.96	6279.66
487.14	6375.62
487.32	6518.39
487.50	6478.60
487.68	6604.99
487.85	6497.33
488.03	6670.53
488.21	6857.77
488.39	6740.74
488.57	6750.10
488.75	7014.59
488.92	7033.31
489.10	6937.35
489.28	6799.26
489.46	6951.39
489.64	7000.54
489.81	7000.54
489.99	7222.89
490.17	7260.34
490.35	7346.94
490.53	7241.62
490.70	7185.44
490.88	7368.01
491.06	7588.02
491.24	7353.96
491.41	7445.24
491.59	7623.12
491.77	7644.19
491.95	7559.93
492.13	7716.75
492.30	7705.04
492.48	7648.87
492.66	7548.23
492.84	7723.77
493.01	7943.78
493.19	7892.29
493.37	7974.21
493.54	8056.12
493.72	8173.15
493.90	8088.89
494.08	8196.56
494.25	8145.06
494.43	8299.54
494.61	8379.12
494.79	8339.33
494.96	8245.71
495.14	8610.83
495.32	8535.93
495.49	8599.13
495.67	8557.00
495.85	8578.06
496.02	8596.79
496.20	8702.11
496.38	8809.78
496.55	8603.81
496.73	8992.34
496.91	8982.98
497.09	8847.22
497.26	8929.14
497.44	8896.38
497.62	8980.64
497.79	8938.51
497.97	9224.05
498.14	9404.27
498.32	9104.68
498.50	9277.88
498.67	9352.78
498.85	9366.82
499.03	9191.28
499.20	9507.26
499.38	9476.83
499.56	9376.19
499.73	9514.28
499.91	9518.96
500.08	9444.06
500.26	9654.71
500.44	9727.27
500.61	9551.73
500.79	9514.28
500.97	9778.76
501.14	9750.67
501.32	9818.55
501.49	9877.06
501.67	9912.17
501.84	9949.62
502.02	9935.57
502.20	10160.27
502.37	10228.14
502.55	10054.94
502.72	10387.30
502.90	10281.97
503.07	10171.97
503.25	10190.69
503.43	10040.90
503.60	10340.49
503.78	10300.70
503.95	10139.20
504.13	10221.12
504.30	10537.09
504.48	10361.55
504.65	10296.02
504.83	10490.28
505.01	10443.47
505.18	10747.74
505.36	10567.52
505.53	10391.98
505.71	10717.31
505.88	10583.90
506.06	10551.14
506.23	10850.72
506.41	10469.22
506.58	10930.30
506.76	10834.34
506.93	10862.43
507.11	10647.10
507.28	10897.53
507.46	10956.05
507.63	11049.67
507.81	10902.22
507.98	11257.98
508.16	10988.82
508.33	11108.18
508.50	11075.42
508.68	11379.68
508.85	10916.26
509.03	11290.74
509.20	11211.17
509.38	11138.61
509.55	11218.19
509.73	11412.45
509.90	11419.47
510.08	11225.21
510.25	11496.71
510.42	11522.46
510.60	11499.05
510.77	11470.97
510.95	11679.27
511.12	11531.82
511.30	11580.97
511.47	11749.49
511.64	11709.70
511.82	11920.35
511.99	11566.93
512.17	11896.94
512.34	11775.24
512.51	11808.00
512.69	12044.40
512.86	12116.95
513.04	11990.56
513.21	11873.54
513.38	11892.26
513.56	12208.23
513.73	12201.21
513.90	11910.99
514.08	11901.62
514.25	12215.26
514.43	12325.26
514.60	12456.33
514.77	12271.43
514.95	12226.96
515.12	12196.53
515.29	12135.68
515.47	12505.48
515.64	12528.89
515.81	12243.34
515.99	12587.40
516.16	12645.91
516.33	12535.91
516.51	12592.08
516.68	12479.74
516.85	12540.59
517.03	12627.19
517.20	12643.57
517.37	12634.21
517.54	12865.92
517.72	12835.50
517.89	12688.04
518.06	12535.91
518.24	12519.53
518.41	12826.14
518.58	12685.70
518.75	12765.28
518.93	13048.49
519.10	12753.58
519.27	12767.62
519.45	12849.54
519.62	13006.36
519.79	13298.92
519.96	13193.60
520.14	13013.38
520.31	13167.85
520.48	13156.15
520.65	13228.71
520.83	13214.66
521.00	13331.69
521.17	13167.85
521.34	13242.75
521.52	13247.43
521.69	13369.14
521.86	13752.99
522.03	13462.76
522.20	13701.50
522.38	13355.10
522.55	13664.05
522.72	13558.72
522.89	13511.91
523.07	13820.86
523.24	13500.21
523.41	13884.06
523.58	13764.69
523.75	13682.77
523.92	13593.83
524.10	13638.30
524.27	13724.90
524.44	14104.07
524.61	13760.01
524.78	14008.11
524.96	13884.06
525.13	13919.17
525.30	13841.93
525.47	13935.55
525.64	13738.94
525.81	14052.58
525.98	14118.11
526.16	13980.02
526.33	13912.14
526.50	14022.15
526.67	14335.78
526.84	14043.21
527.01	14087.68
527.18	14171.94
527.36	14235.14
527.53	14216.41
527.70	14459.83
527.87	14572.18
528.04	14214.07
528.21	14609.62
528.38	14066.62
528.55	14677.50
528.72	14462.17
528.89	14429.40
529.07	14508.98
529.24	14326.42
529.41	14403.66
529.58	14438.76
529.75	14745.38
529.92	14675.16
530.09	14520.68
530.26	14686.86
530.43	14623.67
530.60	14562.81
530.77	14745.38
530.94	14684.52
531.11	14628.35
531.28	14670.48
531.46	14759.42
531.63	14757.08
531.80	14532.39
531.97	14965.39
532.14	14963.04
532.31	14836.66
532.48	14761.76
532.65	14874.10
532.82	14923.26
532.99	14888.15
533.16	14759.42
533.33	15201.78
533.50	15117.52
533.67	15115.18
533.84	15094.11
534.01	15435.83
534.18	14934.96
534.35	15220.50
534.52	15222.84
534.69	15257.95
534.86	15185.40
535.03	15115.18
535.20	15419.45
535.37	15599.67
535.54	15344.55
535.71	15061.35
535.88	15431.15
536.05	15365.62
536.22	15555.20
536.38	15653.50
536.55	15648.82
536.72	15382.00
536.89	15199.44
537.06	15433.49
537.23	15609.03
537.40	15538.82
537.57	15445.20
537.74	15510.73
537.91	15534.14
538.08	15594.99
538.25	15761.17
538.42	15587.97
538.59	15873.51
538.75	15763.51
538.92	15641.80
539.09	15866.49
539.26	15550.52
539.43	15749.46
539.60	16156.72
539.77	15768.19
539.94	15866.49
540.11	15939.05
540.28	16006.92
540.44	16084.16
540.61	15836.06
540.78	16037.35
540.95	16170.76
541.12	16353.32
541.29	16100.55
541.46	16313.53
541.62	16191.83
541.79	16236.30
541.96	16222.25
542.13	16173.10
542.30	16306.51
542.47	16512.48
542.63	16238.64
542.80	16343.96
542.97	16631.85
543.14	16545.25
543.31	16547.59
543.48	16446.94
543.64	16311.19
543.81	16659.93
543.98	16491.41
544.15	16709.08
544.32	16786.32
544.48	16585.04
544.65	16325.24
544.82	16655.25
544.99	16484.39
545.16	16601.42
545.32	16697.38
545.49	17008.67
545.66	17046.12
545.83	17415.93
546.00	17043.78
546.16	17085.91
546.33	16812.07
546.50	16762.92
546.67	16758.24
546.83	16362.69
547.00	16755.90
547.17	16755.90
547.34	16723.13
547.50	16992.29
547.67	17046.12
547.84	16816.75
548.00	16898.67
548.17	16966.54
548.34	16842.50
548.51	16971.22
548.67	17039.10
548.84	16868.24
549.01	16795.68
549.18	16931.44
549.34	16751.21
549.51	16861.22
549.68	16889.31
549.84	16664.61
550.01	17046.12
550.18	17146.76
550.34	16980.59
550.51	16716.11
550.68	17032.08
550.84	17048.46
551.01	16793.34
551.18	16840.15
551.34	16893.99
551.51	16992.29
551.68	17039.10
551.84	17076.55
552.01	17172.51
552.18	17270.81
552.34	16739.51
552.51	17088.25
552.68	17149.11
552.84	17231.02
553.01	17408.90
553.18	17268.47
553.34	17268.47
553.51	17160.81
553.67	17268.47
553.84	17242.73
554.01	17411.25
554.17	17338.69
554.34	17385.50
554.51	17326.99
554.67	17142.08
554.84	17277.83
555.00	17352.73
555.17	17235.70
555.33	17249.75
555.50	17144.42
555.67	17123.36
555.83	17352.73
556.00	17385.50
556.16	17425.29
556.33	17411.25
556.50	17247.41
556.66	17355.07
556.83	17390.18
556.99	17415.93
557.16	17427.63
557.32	17532.95
557.49	17432.31
557.65	17294.22
557.82	17511.89
557.98	17259.11
558.15	17479.12
558.32	17465.08
558.48	17118.68
558.65	17539.97
558.81	17502.53
558.98	17441.67
559.14	17626.57
559.31	17626.57
559.47	17671.04
559.64	17474.44
559.80	17703.81
559.97	17530.61
560.13	17797.43
560.30	17539.97
560.46	17448.69
560.63	17689.77
560.79	17486.14
560.96	17797.43
561.12	17446.35
561.29	17565.72
561.45	17385.50
561.61	17462.74
561.78	18066.60
561.94	17745.94
562.11	17722.54
562.27	17640.62
562.44	17640.62
562.60	17635.94
562.77	17570.40
562.93	17855.95
563.10	17795.09
563.26	17413.59
563.42	17764.67
563.59	17944.89
563.75	17942.55
563.92	18108.72
564.08	17781.05
564.24	17820.84
564.41	17757.64
564.57	17612.53
564.74	17769.35
564.90	17776.37
565.07	17673.39
565.23	17965.95
565.39	17792.75
565.56	17495.50
565.72	17937.87
565.88	17982.34
566.05	18033.83
566.21	17497.84
566.38	17666.36
566.54	17654.66
566.70	17804.46
566.87	17947.23
567.03	17862.97
567.19	18370.86
567.36	17813.82
567.52	17673.39
567.68	17905.10
567.85	17638.28
568.01	17958.93
568.17	17846.58
568.34	17905.10
568.50	17764.67
568.66	17919.14
568.83	18132.13
568.99	18017.44
569.15	17816.16
569.32	17804.46
569.48	18038.51
569.64	17972.97
569.81	17781.05
569.97	18082.98
570.13	18017.44
570.30	18211.71
570.46	18050.21
570.62	18106.38
570.78	17736.58
570.95	17909.78
571.11	17853.61
571.27	17987.02
571.43	17919.14
571.60	18022.12
571.76	17937.87
571.92	17914.46
572.09	17853.61
572.25	18094.68
572.41	18207.03
572.57	18024.47
572.74	18352.14
572.90	17848.93
573.06	18024.47
573.22	18237.45
573.38	18277.24
573.55	18106.38
573.71	18075.96
573.87	17914.46
574.03	17958.93
574.20	18127.45
574.36	18139.15
574.52	18080.64
574.68	18026.81
574.84	18452.78
575.01	18204.69
575.17	18286.61
575.33	18188.30
575.49	18075.96
575.65	18314.69
575.82	17980.00
575.98	17951.91
576.14	18185.96
576.30	18288.95
576.46	18167.24
576.62	18408.31
576.79	18162.56
576.95	18242.14
577.11	18181.28
577.27	18075.96
577.43	18286.61
577.59	18181.28
577.75	18403.63
577.92	18139.15
578.08	17919.14
578.24	17762.33
578.40	18071.28
578.56	17933.18
578.72	18157.88
578.88	18073.62
579.04	18284.26
579.21	18171.92
579.37	18134.47
579.53	18398.95
579.69	18010.42
579.85	17916.80
580.01	18169.58
580.17	18150.85
580.33	17905.10
580.49	18281.92
580.65	18352.14
580.82	18094.68
580.98	18476.19
581.14	18064.25
581.30	18359.16
581.46	18003.40
581.62	18104.04
581.78	18120.43
581.94	18087.66
582.10	18097.02
582.26	18317.03
582.42	18291.29
582.58	18410.65
582.74	18169.58
582.90	18326.39
583.06	18256.18
583.22	18436.40
583.38	18146.17
583.54	18277.24
583.70	18270.22
583.86	18335.76
584.02	18218.73
584.18	18537.04
584.34	18265.54
584.50	18483.21
584.66	18424.70
584.82	18415.34
584.98	18518.32
585.14	18483.21
585.30	18310.01
585.46	18527.68
585.62	18157.88
585.78	18326.39
585.94	18370.86
586.10	18057.23
586.26	18155.54
586.42	18267.88
586.58	18347.46
586.74	18090.00
586.90	18136.81
587.06	18129.79
587.22	18527.68
587.38	18338.10
587.54	18455.12
587.70	18265.54
587.86	18532.36
588.02	18429.38
588.18	18583.85
588.34	18265.54
588.49	18349.80
588.65	18148.51
588.81	17937.87
588.97	18490.23
589.13	18450.44
589.29	18190.64
589.45	18310.01
589.61	18319.37
589.77	18607.26
589.93	18338.10
590.08	18492.57
590.24	18359.16
590.40	18452.78
590.56	18277.24
590.72	18314.69
590.88	18436.40
591.04	18377.89
591.20	18625.98
591.35	18668.11
591.51	18822.59
591.67	18284.26
591.83	18443.42
591.99	18497.25
592.15	18555.77
592.31	18595.56
592.46	18562.79
592.62	18611.94
592.78	18195.32
592.94	18338.10
593.10	18368.52
