SpectraSuite Data File
++++++++++++++++++++++++++++++++++++
Date: Fri Oct 04 11:39:47 GMT-05:00 2013
User: price-jones
Dark Spectrum Present: No
Reference Spectrum Present: No
Number of Sampled Component Spectra: 1
Spectrometers: USB2+H05261
Integration Time (usec): 100000 (USB2+H05261)
Spectra Averaged: 1 (USB2+H05261)
Boxcar Smoothing: 0 (USB2+H05261)
Correct for Electrical Dark: No (USB2+H05261)
Strobe/Lamp Enabled: No (USB2+H05261)
Correct for Detector Non-linearity: No (USB2+H05261)
Correct for Stray Light: No (USB2+H05261)
Number of Pixels in Processed Spectrum: 2048
>>>>>Begin Processed Spectral Data<<<<<
365.73	51.49
365.92	51.49
366.12	51.49
366.32	42.13
366.52	0.00
366.72	4.68
366.91	0.00
367.11	0.00
367.31	0.00
367.51	0.00
367.70	0.00
367.90	0.00
368.10	0.00
368.30	0.00
368.49	0.00
368.69	0.00
368.89	0.00
369.09	0.00
369.28	0.00
369.48	0.00
369.68	0.00
369.87	0.00
370.07	63.19
370.27	46.81
370.47	159.16
370.66	444.70
370.86	552.37
371.06	507.90
371.25	585.13
371.45	566.41
371.65	613.22
371.84	571.09
372.04	575.77
372.24	653.01
372.44	596.84
372.63	667.05
372.83	720.88
373.03	725.57
373.22	624.92
373.42	674.07
373.62	734.93
373.81	772.38
374.01	692.80
374.21	748.97
374.40	809.83
374.60	706.84
374.79	657.69
374.99	695.14
375.19	821.53
375.38	744.29
375.58	727.91
375.78	849.61
375.97	732.59
376.17	774.72
376.37	840.25
376.56	809.83
376.76	828.55
376.95	828.55
377.15	828.55
377.35	866.00
377.54	828.55
377.74	816.85
377.93	840.25
378.13	877.70
378.33	887.06
378.52	849.61
378.72	905.79
378.91	947.92
379.11	873.02
379.31	912.81
379.50	833.23
379.70	936.21
379.89	1043.88
380.09	987.71
380.28	875.36
380.48	985.37
380.68	915.15
380.87	917.49
381.07	983.02
381.26	1057.92
381.46	952.60
381.65	936.21
381.85	1032.18
382.04	968.98
382.24	1041.54
382.43	1053.24
382.63	1060.26
382.83	1048.56
383.02	1013.45
383.22	1104.73
383.41	1107.07
383.61	1004.09
383.80	1125.80
384.00	1104.73
384.19	1046.22
384.39	1114.10
384.58	1104.73
384.78	1146.86
384.97	1196.01
385.17	1217.08
385.36	1214.74
385.56	1207.72
385.75	1144.52
385.95	1191.33
386.14	1224.10
386.34	1128.14
386.53	1207.72
386.72	1259.21
386.92	1219.42
387.11	1275.59
387.31	1350.49
387.50	1245.16
387.70	1294.32
387.89	1270.91
388.09	1301.34
388.28	1249.85
388.48	1343.47
388.67	1343.47
388.86	1416.02
389.06	1423.05
389.25	1366.87
389.45	1380.92
389.64	1378.58
389.84	1434.75
390.03	1460.49
390.22	1451.13
390.42	1364.53
390.61	1348.15
390.81	1409.00
391.00	1488.58
391.19	1493.26
391.39	1416.02
391.58	1504.96
391.78	1554.12
391.97	1469.86
392.16	1544.75
392.36	1708.59
392.55	1490.92
392.75	1647.74
392.94	1661.78
393.13	1647.74
393.33	1638.38
393.52	1554.12
393.71	1673.48
393.91	1706.25
394.10	1755.40
394.29	1664.12
394.49	1734.34
394.68	1809.23
394.88	1661.78
395.07	1767.10
395.26	1762.42
395.46	1710.93
395.65	1783.49
395.84	1783.49
396.04	1900.52
396.23	1799.87
396.42	1825.62
396.62	1898.17
396.81	1811.57
397.00	1867.75
397.19	1905.20
397.39	1907.54
397.58	2024.56
397.77	1902.86
397.97	2031.58
398.16	1900.52
398.35	2031.58
398.55	2146.27
398.74	1994.14
398.93	2183.72
399.12	1977.75
399.32	2064.35
399.51	2106.48
399.70	2223.51
399.90	2162.66
400.09	2221.17
400.28	2263.30
400.47	2232.87
400.67	2363.94
400.86	2340.54
401.05	2230.53
401.24	2382.67
401.44	2235.21
401.63	2368.62
401.82	2394.37
402.01	2319.47
402.21	2370.96
402.40	2427.14
402.59	2363.94
402.78	2373.30
402.97	2516.08
403.17	2527.78
403.36	2445.86
403.55	2499.69
403.74	2511.39
403.93	2700.98
404.13	2607.36
404.32	2565.23
404.51	2726.72
404.70	2637.78
404.89	2675.23
405.09	2708.00
405.28	2703.32
405.47	2815.66
405.66	2754.81
405.85	2841.41
406.05	2752.47
406.24	2855.45
406.43	2700.98
406.62	2895.24
406.81	3002.91
407.00	2897.58
407.20	2932.69
407.39	2974.82
407.58	3122.27
407.77	3187.81
407.96	3030.99
408.15	3077.80
408.34	3157.38
408.54	3138.66
408.73	3087.17
408.92	3159.72
409.11	3382.07
409.30	3243.98
409.49	3229.94
409.68	3304.84
409.87	3375.05
410.07	3435.91
410.26	3236.96
410.45	3405.48
410.64	3342.28
410.83	3440.59
411.02	3468.67
411.21	3581.02
411.40	3672.30
411.59	3777.62
411.78	3684.00
411.98	3562.30
412.17	3744.86
412.36	3695.71
412.55	3847.84
412.74	3822.09
412.93	3908.69
413.12	3824.44
413.31	4100.62
413.50	3901.67
413.69	3955.51
413.88	4028.06
414.07	4025.72
414.26	4098.28
414.45	4194.24
414.64	4271.48
414.83	4442.34
415.02	4346.37
415.22	4362.76
415.41	4465.74
415.60	4402.55
415.79	4498.51
415.98	4664.69
416.17	4477.44
416.36	4631.92
416.55	4770.01
416.74	4643.62
416.93	4835.55
417.12	4641.28
417.31	5043.85
417.50	4891.72
417.69	4908.10
417.88	4903.42
418.07	4999.38
418.26	4816.82
418.45	5034.49
418.64	5231.10
418.83	5240.46
419.02	5181.95
419.21	5191.31
419.39	5172.58
419.58	5158.54
419.77	5195.99
419.96	5291.95
420.15	5383.23
420.34	5338.76
420.53	5446.43
420.72	5439.40
420.91	5362.17
421.10	5556.43
421.29	5685.16
421.48	5371.53
421.67	5507.28
421.86	5703.89
422.05	5753.04
422.24	5584.52
422.43	5736.65
422.61	5577.50
422.80	5809.21
422.99	5853.68
423.18	5633.67
423.37	5540.05
423.56	5668.78
423.75	5563.45
423.94	5514.30
424.13	5303.65
424.32	5514.30
424.50	5753.04
424.69	5921.56
424.88	5895.81
425.07	5628.99
425.26	5650.05
425.45	5746.02
425.64	5804.53
425.83	5865.38
426.01	6019.86
426.20	5860.70
426.39	5795.17
426.58	5881.77
426.77	6071.35
426.96	5921.56
427.15	5984.75
427.33	6029.22
427.52	5977.73
427.71	6216.46
427.90	6195.40
428.09	6150.93
428.28	6160.29
428.46	6277.32
428.65	6153.27
428.84	6436.47
429.03	6457.54
429.22	6216.46
429.40	6366.26
429.59	6429.45
429.78	6223.48
429.97	6225.82
430.16	6214.12
430.34	6466.90
430.53	6672.87
430.72	6595.63
430.91	6583.93
431.10	6670.53
431.28	6743.08
431.47	6860.11
431.66	6881.18
431.85	6754.79
432.03	6745.42
432.22	6920.96
432.41	6906.92
432.60	7030.97
432.79	6995.86
432.97	7049.69
433.16	7070.76
433.35	6782.87
433.54	7162.04
433.72	7204.17
433.91	7290.77
434.10	7169.06
434.28	7162.04
434.47	7173.74
434.66	7173.74
434.85	7403.11
435.03	7440.56
435.22	7791.64
435.41	7948.46
435.59	7861.86
435.78	7777.60
435.97	7672.28
436.16	7714.41
436.34	7660.57
436.53	7501.42
436.72	7927.39
436.90	7510.78
437.09	8067.83
437.28	7672.28
437.46	7803.35
437.65	7847.82
437.84	8035.06
438.02	7714.41
438.21	8091.23
438.40	8023.36
438.58	8201.24
438.77	8189.53
438.96	8290.18
439.14	8507.85
439.33	8531.25
439.52	8638.92
439.70	8610.83
439.89	8690.41
440.08	8847.22
440.26	8648.28
440.45	8641.26
440.63	8849.57
440.82	8793.39
441.01	8856.59
441.19	9071.92
441.38	9046.17
441.57	9327.03
441.75	9284.91
441.94	9394.91
442.12	9383.21
442.31	9331.72
442.50	9472.15
442.68	9446.40
442.87	9444.06
443.05	9619.60
443.24	9659.39
443.43	9607.90
443.61	9736.63
443.80	10076.01
443.98	9783.44
444.17	9504.92
444.35	10026.86
444.54	9865.36
444.73	9926.21
444.91	9792.80
445.10	9926.21
445.28	9846.63
445.47	9879.40
445.65	9940.26
445.84	10050.26
446.02	10097.07
446.21	9785.78
446.39	9970.68
446.58	10071.33
446.77	10265.59
446.95	10017.49
447.14	10022.17
447.32	10068.98
447.51	10148.56
447.69	9980.04
447.88	10083.03
448.06	10265.59
448.25	10190.69
448.43	10256.23
448.62	10024.51
448.80	10160.27
448.99	10422.41
449.17	10506.66
449.36	10263.25
449.54	10312.40
449.73	10810.93
449.91	10834.34
450.10	10817.96
450.28	10869.45
450.46	10607.31
450.65	10787.53
450.83	10820.30
451.02	10853.06
451.20	10974.77
451.39	11009.88
451.57	11019.24
451.76	11087.12
451.94	11066.05
452.13	11169.04
452.31	11297.77
452.49	11047.33
452.68	11129.25
452.86	10995.84
453.05	11138.61
453.23	11274.36
453.42	11372.66
453.60	11225.21
453.78	11335.21
453.97	11318.83
454.15	11377.34
454.34	11349.26
454.52	11513.10
454.70	11573.95
454.89	11709.70
455.07	11426.50
455.26	11779.92
455.44	11953.12
455.62	11754.17
455.81	11808.00
455.99	11983.54
456.17	11976.52
456.36	12028.01
456.54	12063.12
456.73	12306.54
456.91	12489.10
457.09	12442.29
457.28	12779.32
457.46	12189.51
457.64	12772.30
457.83	12573.36
458.01	12224.62
458.19	12575.70
458.38	12486.76
458.56	13198.28
458.74	12695.07
458.93	12793.37
459.11	12737.20
459.29	12690.38
459.48	13032.10
459.66	12922.10
459.84	13156.15
460.03	13217.01
460.21	13069.55
460.39	12884.65
460.57	13252.11
460.76	13305.95
460.94	13575.11
461.12	13345.73
461.31	13432.33
461.49	13383.18
461.67	13235.73
461.85	13877.04
462.04	13762.35
462.22	14281.95
462.40	13991.72
462.59	13930.87
462.77	13935.55
462.95	14129.81
463.13	13956.61
463.32	14197.69
463.50	14207.05
463.68	14092.37
463.86	14221.10
464.05	13951.93
464.23	13888.74
464.41	14040.87
464.59	13958.96
464.78	14338.12
464.96	14167.26
465.14	14310.04
465.32	14558.13
465.50	14698.56
465.69	14750.06
465.87	14558.13
466.05	14567.49
466.23	14696.22
466.41	14862.40
466.60	15227.53
466.78	14658.78
466.96	14850.70
467.14	14523.02
467.32	14829.63
467.51	14993.47
467.69	14525.36
467.87	15098.80
468.05	15014.54
468.23	15215.82
468.41	14970.07
468.60	15147.95
468.78	15484.98
468.96	15227.53
469.14	15487.32
469.32	15374.98
469.50	15087.09
469.69	15702.65
469.87	16088.84
470.05	15871.17
470.23	15829.04
470.41	15850.11
470.59	16058.42
470.77	16049.05
470.95	16264.38
471.14	16011.60
471.32	15826.70
471.50	16538.23
471.68	16379.07
471.86	16358.00
472.04	16191.83
472.22	17043.78
472.40	16599.08
472.58	16732.49
472.77	16788.66
472.95	17209.96
473.13	17539.97
473.31	17186.55
473.49	16966.54
473.67	17282.52
473.85	17376.14
474.03	17610.19
474.21	17584.44
474.39	17851.27
474.57	17558.70
474.75	18033.83
474.93	18305.33
475.12	18066.60
475.30	18082.98
475.48	18295.97
475.66	18508.96
475.84	18417.68
476.02	18883.44
476.20	18635.35
476.38	19037.92
476.56	19119.84
476.74	19222.82
476.92	19229.84
477.10	19264.95
477.28	19501.34
477.46	19646.46
477.64	19639.44
477.82	19924.98
478.00	20741.83
478.18	20575.65
478.36	20669.27
478.54	20741.83
478.72	20938.43
478.90	21202.91
479.08	21200.57
479.26	21458.03
479.44	21598.46
479.62	21394.84
479.80	22143.81
479.98	21846.56
480.16	22260.84
480.34	21909.75
480.52	22588.51
480.70	22616.60
480.88	22436.38
481.06	22677.45
481.24	22719.58
481.41	23009.81
481.59	23428.76
481.77	23634.73
481.95	24116.88
482.13	23796.23
482.31	23679.20
482.49	24491.37
482.67	24456.26
482.85	24746.48
483.03	25181.82
483.21	25453.33
483.39	25483.75
483.57	25366.73
483.74	25563.33
483.92	26319.32
484.10	25853.56
484.28	26328.69
484.46	27075.32
484.64	27150.21
484.82	27091.70
485.00	27150.21
485.18	27597.26
485.35	28203.46
485.53	27644.07
485.71	27730.67
485.89	28882.21
486.07	28257.29
486.25	28556.88
486.43	28797.95
486.61	28826.04
486.78	29820.77
486.96	29563.31
487.14	29940.13
487.32	29846.51
487.50	30331.00
487.68	30331.00
487.85	31096.36
488.03	31335.09
488.21	31435.74
488.39	31637.02
488.57	31639.36
488.75	31688.51
488.92	32458.55
489.10	32465.57
489.28	32542.81
489.46	32767.50
489.64	33202.84
489.81	33839.47
489.99	33237.95
490.17	33446.26
490.35	33919.04
490.53	34366.09
490.70	34721.85
490.88	34632.91
491.06	35260.17
491.24	34955.90
491.41	35225.06
491.59	35559.76
491.77	35414.65
491.95	36236.17
492.13	36435.12
492.30	36416.40
492.48	36371.92
492.66	36526.40
492.84	36910.25
493.01	37130.26
493.19	37172.39
493.37	38253.72
493.54	37584.32
493.72	38651.61
493.90	38253.72
494.08	38703.10
494.25	39274.19
494.43	39051.84
494.61	39239.08
494.79	39290.57
494.96	39452.07
495.14	39550.37
495.32	40130.83
495.49	40561.48
495.67	40765.11
495.85	41151.30
496.02	41289.39
496.20	40994.48
496.38	41390.03
496.55	41453.23
496.73	41968.15
496.91	42057.09
497.09	42007.94
497.26	42682.01
497.44	42270.08
497.62	42635.20
497.79	43299.91
497.97	43349.06
498.14	43356.08
498.32	43393.53
498.50	43693.12
498.67	44051.22
498.85	43770.36
499.03	44032.50
499.20	44161.23
499.38	44669.12
499.56	44957.01
499.73	44987.44
499.91	45036.59
500.08	45212.13
500.26	44839.98
500.44	45502.35
500.61	45528.10
500.79	45127.87
500.97	45750.45
501.14	46770.93
501.32	46728.80
501.49	46312.18
501.67	46600.07
501.84	46796.67
502.02	46672.62
502.20	46665.60
502.37	47311.59
502.55	46824.76
502.72	47393.51
502.90	47576.07
503.07	47531.60
503.25	47653.31
503.43	47821.83
503.60	48142.48
503.78	48311.00
503.95	48020.77
504.13	47915.45
504.30	48343.77
504.48	48095.67
504.65	48830.60
504.83	49020.18
505.01	49397.01
505.18	48825.92
505.36	49319.77
505.53	49214.44
505.71	49350.20
505.88	49848.73
506.06	49469.56
506.23	49918.95
506.41	49776.17
506.58	50213.85
506.76	50321.52
506.93	50131.93
507.11	49759.79
507.28	50295.77
507.46	50635.15
507.63	50815.37
507.81	50974.53
507.98	50534.51
508.16	50787.28
508.33	51016.66
508.50	50738.13
508.68	51248.37
508.85	51730.52
509.03	51248.37
509.20	51847.55
509.38	52053.51
509.55	52023.09
509.73	52107.35
509.90	52041.81
510.08	51889.68
510.25	51779.67
510.42	52439.70
510.60	52596.52
510.77	52636.31
510.95	52898.45
511.12	52456.09
511.30	52594.18
511.47	52942.92
511.64	52797.80
511.82	53237.83
511.99	53333.79
512.17	53301.02
512.34	53516.35
512.51	53191.01
512.69	53537.41
512.86	53661.46
513.04	53874.45
513.21	53663.80
513.38	54028.93
513.56	53829.98
513.73	53509.33
513.90	53799.55
514.08	54115.53
514.25	54038.29
514.43	54387.03
514.60	54646.83
514.77	54061.69
514.95	54756.83
515.12	54323.83
515.29	54422.14
515.47	54663.21
515.64	54747.47
515.81	54747.47
515.99	55065.78
516.16	55140.68
516.33	55173.45
516.51	55381.76
516.68	55262.39
516.85	55187.49
517.03	55398.14
517.20	55358.35
517.37	55503.46
517.54	55674.32
517.72	55550.27
517.89	55688.37
518.06	55671.98
518.24	55552.62
518.41	55318.56
518.58	55856.88
518.75	55920.08
518.93	56261.80
519.10	56161.15
519.27	56294.56
519.45	56004.34
519.62	56182.22
519.79	56245.41
519.96	56603.52
520.14	56580.11
520.31	56528.62
520.48	56287.54
520.65	56472.45
520.83	56975.66
521.00	56987.36
521.17	56722.88
521.34	56584.79
521.52	56858.63
521.69	57162.90
521.86	57277.59
522.03	57118.43
522.20	57059.92
522.38	57251.84
522.55	57134.82
522.72	57298.65
522.89	57146.52
523.07	57574.84
523.24	57436.75
523.41	57801.87
523.58	57525.69
523.75	57783.15
523.92	57570.16
524.10	57715.27
524.27	57914.22
524.44	57972.73
524.61	58190.40
524.78	58295.72
524.96	58010.18
525.13	57996.13
525.30	58152.95
525.47	58209.12
525.64	58244.23
525.81	58195.08
525.98	58564.88
526.16	58501.69
526.33	58209.12
526.50	58841.07
526.67	58298.06
526.84	58515.73
527.01	58314.45
527.18	58576.59
527.36	58749.79
527.53	58852.77
527.70	58962.78
527.87	59035.33
528.04	58796.60
528.21	59023.63
528.38	58775.53
528.55	59044.69
528.72	59032.99
528.89	59040.01
529.07	59014.27
529.24	59133.63
529.41	59444.93
529.58	59351.30
529.75	59241.30
529.92	59325.56
530.09	59423.86
530.26	59494.08
530.43	59491.74
530.60	59515.14
530.77	59559.61
530.94	59711.75
531.11	59414.50
531.28	59316.20
531.46	59498.76
531.63	59753.88
531.80	59765.58
531.97	60081.55
532.14	60034.74
532.31	59962.18
532.48	59863.88
532.65	60170.49
532.82	59896.65
532.99	60011.34
533.16	60039.42
533.33	60364.76
533.50	60514.55
533.67	60264.11
533.84	60271.14
534.01	60158.79
534.18	60062.83
534.35	60601.15
534.52	60315.61
534.69	60552.00
534.86	60507.53
535.03	60568.38
535.20	60612.85
535.37	60498.17
535.54	60544.98
535.71	60477.10
535.88	60596.47
536.05	60678.39
536.22	60762.65
536.38	60809.46
536.55	60886.70
536.72	60879.67
536.89	60739.24
537.06	60736.90
537.23	60786.05
537.40	61090.32
537.57	60879.67
537.74	61066.92
537.91	61509.28
538.08	61197.99
538.25	61275.22
538.42	61261.18
538.59	61312.67
538.75	60982.66
538.92	61240.12
539.09	61249.48
539.26	61427.36
539.43	61291.61
539.60	61530.34
539.77	61326.72
539.94	61696.52
540.11	61558.43
540.28	61677.80
540.44	61722.27
540.61	61635.67
540.78	61656.73
540.95	61799.50
541.12	61872.06
541.29	62129.52
541.46	61881.42
541.62	61687.16
541.79	61675.46
541.96	61738.65
542.13	61946.96
542.30	61946.96
542.47	62195.06
542.63	62108.46
542.80	62080.37
542.97	62475.92
543.14	62461.88
543.31	62171.65
543.48	62426.77
543.64	62564.86
543.81	62602.31
543.98	62618.69
544.15	62681.89
544.32	62637.42
544.48	62763.81
544.65	62592.95
544.82	62548.48
544.99	62293.36
545.16	62525.07
545.32	62550.82
545.49	62829.34
545.66	63178.08
545.83	63213.19
546.00	63171.06
546.16	62890.19
546.33	62738.06
546.50	62560.18
546.67	62883.17
546.83	62602.31
547.00	62892.54
547.17	62770.83
547.34	62904.24
547.50	63084.46
547.67	63044.67
547.84	63145.31
548.00	63126.59
548.17	62960.41
548.34	63072.76
548.51	63206.17
548.67	63208.51
548.84	63164.04
549.01	63215.53
549.18	63227.23
549.34	63208.51
549.51	63295.11
549.68	63161.70
549.84	63075.10
550.01	63152.33
550.18	63164.04
550.34	63393.41
550.51	63515.12
550.68	63421.50
550.84	63360.64
551.01	63517.46
551.18	63449.58
551.34	63330.22
551.51	63477.67
551.68	63465.97
551.84	63472.99
552.01	63463.63
552.18	63625.12
552.34	63557.25
552.51	63739.81
552.68	63571.29
552.84	63573.63
553.01	63868.54
553.18	63693.00
553.34	63840.45
553.51	63730.45
553.67	63894.28
553.84	63973.86
554.01	63994.93
554.17	63880.24
554.34	63683.64
554.51	63800.66
554.67	64030.04
554.84	63997.27
555.00	63772.58
555.17	64074.51
555.33	64102.59
555.50	63999.61
555.67	63987.91
555.83	64034.72
556.00	64168.13
556.16	64268.77
556.33	64067.48
556.50	64182.17
556.66	64200.89
556.83	64109.61
556.99	64551.98
557.16	64329.62
557.32	64133.02
557.49	64362.39
557.65	64278.13
557.82	64212.60
557.98	64083.87
558.15	64296.86
558.32	64385.80
558.48	64500.48
558.65	64601.13
558.81	64533.25
558.98	64556.66
559.14	64299.20
559.31	64357.71
559.47	64350.69
559.64	64439.63
559.80	64439.63
559.97	64732.20
560.13	64477.08
560.30	64519.21
560.46	64647.94
560.63	64505.16
560.79	64514.53
560.96	64657.30
561.12	64516.87
561.29	64488.78
561.45	64783.69
561.61	64750.92
561.78	64643.26
561.94	64762.62
562.11	64853.90
562.27	64713.47
562.44	64549.63
562.60	64842.20
562.77	64734.54
562.93	64694.75
563.10	64952.21
563.26	64764.96
563.42	64928.80
563.59	64893.69
563.75	64900.71
563.92	65116.04
564.08	64718.15
564.24	64750.92
564.41	64739.22
564.57	64963.91
564.74	64928.80
564.90	64867.95
565.07	65059.87
565.23	64947.53
565.39	64952.21
565.56	65080.94
565.72	64903.06
565.88	65120.73
566.05	65001.36
566.21	64835.18
566.38	65031.78
566.54	64999.02
566.70	65242.43
566.87	65230.73
567.03	65120.73
567.19	65261.16
567.36	65127.75
567.52	65041.15
567.68	65059.87
567.85	64977.95
568.01	65254.14
568.17	65092.64
568.34	65256.48
568.50	65087.96
568.66	65176.90
568.83	65399.25
568.99	65331.37
569.15	65036.47
569.32	65064.55
569.48	65303.29
569.64	65212.01
569.81	65237.75
569.97	65162.85
570.13	65144.13
570.30	65455.42
570.46	65464.78
570.62	65188.60
570.78	65329.03
570.95	65183.92
571.11	65155.83
571.27	65230.73
571.43	65275.20
571.60	65176.90
571.76	65134.77
571.92	65326.69
572.09	65509.25
572.25	65457.76
572.41	65254.14
572.57	65314.99
572.74	65424.99
572.90	65373.50
573.06	65279.88
573.22	65387.55
573.38	65481.17
573.55	65378.18
573.71	65535.00
573.87	65535.00
574.03	65436.70
574.20	65492.87
574.36	65312.65
574.52	65455.42
574.68	65420.31
574.84	65499.89
575.01	65464.78
575.17	65535.00
575.33	65502.23
575.49	65403.93
575.65	65535.00
575.82	65535.00
575.98	65319.67
576.14	65535.00
576.30	65535.00
576.46	65535.00
576.62	65361.80
576.79	65457.76
576.95	65535.00
577.11	65509.25
577.27	65535.00
577.43	65535.00
577.59	65535.00
577.75	65535.00
577.92	65429.68
578.08	65464.78
578.24	65535.00
578.40	65535.00
578.56	65535.00
578.72	65535.00
578.88	65535.00
579.04	65535.00
579.21	65535.00
579.37	65535.00
579.53	65535.00
579.69	65417.97
579.85	65535.00
580.01	65527.98
580.17	65535.00
580.33	65535.00
580.49	65535.00
580.65	65535.00
580.82	65535.00
580.98	65535.00
581.14	65535.00
581.30	65535.00
581.46	65506.91
581.62	65471.81
581.78	65535.00
581.94	65535.00
582.10	65535.00
582.26	65535.00
582.42	65535.00
582.58	65535.00
582.74	65535.00
582.90	65535.00
583.06	65535.00
583.22	65535.00
583.38	65535.00
583.54	65535.00
583.70	65535.00
583.86	65535.00
584.02	65535.00
584.18	65535.00
584.34	65535.00
584.50	65535.00
584.66	65535.00
584.82	65535.00
584.98	65535.00
585.14	65535.00
585.30	65535.00
585.46	65535.00
585.62	65535.00
585.78	65535.00
585.94	65535.00
586.10	65535.00
586.26	65535.00
586.42	65535.00
586.58	65535.00
586.74	65535.00
586.90	65535.00
587.06	65535.00
587.22	65535.00
587.38	65535.00
587.54	65535.00
587.70	65535.00
587.86	65535.00
588.02	65535.00
588.18	65535.00
588.34	65535.00
