SpectraSuite Data File
++++++++++++++++++++++++++++++++++++
Date: Fri Oct 04 11:39:13 GMT-05:00 2013
User: price-jones
Dark Spectrum Present: No
Reference Spectrum Present: No
Number of Sampled Component Spectra: 1
Spectrometers: USB2+H05261
Integration Time (usec): 100000 (USB2+H05261)
Spectra Averaged: 1 (USB2+H05261)
Boxcar Smoothing: 0 (USB2+H05261)
Correct for Electrical Dark: No (USB2+H05261)
Strobe/Lamp Enabled: No (USB2+H05261)
Correct for Detector Non-linearity: No (USB2+H05261)
Correct for Stray Light: No (USB2+H05261)
Number of Pixels in Processed Spectrum: 2048
>>>>>Begin Processed Spectral Data<<<<<
365.73	53.83
365.92	53.83
366.12	53.83
366.32	0.00
366.52	0.00
366.72	2.34
366.91	0.00
367.11	0.00
367.31	0.00
367.51	0.00
367.70	0.00
367.90	0.00
368.10	0.00
368.30	0.00
368.49	0.00
368.69	0.00
368.89	0.00
369.09	0.00
369.28	0.00
369.48	0.00
369.68	0.00
369.87	0.00
370.07	30.43
370.27	112.35
370.47	58.51
370.66	159.16
370.86	175.54
371.06	117.03
371.25	177.88
371.45	163.84
371.65	177.88
371.84	259.80
372.04	110.01
372.24	198.95
372.44	231.71
372.63	217.67
372.83	266.82
373.03	238.73
373.22	255.12
373.42	259.80
373.62	276.18
373.81	238.73
374.01	236.39
374.21	203.63
374.40	259.80
374.60	224.69
374.79	259.80
374.99	252.78
375.19	327.68
375.38	252.78
375.58	255.12
375.78	210.65
375.97	259.80
376.17	365.12
376.37	280.86
376.56	252.78
376.76	285.55
376.95	285.55
377.15	220.01
377.35	285.55
377.54	217.67
377.74	259.80
377.93	252.78
378.13	273.84
378.33	271.50
378.52	184.90
378.72	236.39
378.91	285.55
379.11	276.18
379.31	238.73
379.50	227.03
379.70	320.65
379.89	271.50
380.09	383.85
380.28	257.46
380.48	294.91
380.68	311.29
380.87	353.42
381.07	285.55
381.26	334.70
381.46	299.59
381.65	292.57
381.85	311.29
382.04	341.72
382.24	250.44
382.43	313.63
382.63	294.91
382.83	297.25
383.02	304.27
383.22	318.31
383.41	313.63
383.61	252.78
383.80	273.84
384.00	250.44
384.19	264.48
384.39	250.44
384.58	306.61
384.78	322.99
384.97	404.91
385.17	339.38
385.36	327.68
385.56	397.89
385.75	306.61
385.95	322.99
386.14	367.46
386.34	287.89
386.53	351.08
386.72	362.78
386.92	306.61
387.11	334.70
387.31	372.15
387.50	280.86
387.70	351.08
387.89	386.19
388.09	322.99
388.28	327.68
388.48	318.31
388.67	372.15
388.86	346.40
389.06	367.46
389.25	437.68
389.45	355.76
389.64	402.57
389.84	353.42
390.03	421.30
390.22	421.30
390.42	308.95
390.61	395.55
390.81	372.15
391.00	301.93
391.19	409.59
391.39	374.49
391.58	353.42
391.78	407.25
391.97	416.62
392.16	402.57
392.36	433.00
392.55	470.45
392.75	402.57
392.94	386.19
393.13	444.70
393.33	381.51
393.52	425.98
393.71	444.70
393.91	493.85
394.10	528.96
394.29	491.51
394.49	428.32
394.68	411.93
394.88	449.38
395.07	547.69
395.26	390.87
395.46	486.83
395.65	514.92
395.84	503.22
396.04	521.94
396.23	503.22
396.42	514.92
396.62	458.74
396.81	524.28
397.00	479.81
397.19	444.70
397.39	472.79
397.58	521.94
397.77	521.94
397.97	447.04
398.16	533.64
398.35	491.51
398.55	564.07
398.74	587.47
398.93	564.07
399.12	517.26
399.32	552.37
399.51	505.56
399.70	561.73
399.90	538.32
400.09	531.30
400.28	559.39
400.47	491.51
400.67	564.07
400.86	585.13
401.05	636.63
401.24	643.65
401.44	578.11
401.63	645.99
401.82	636.63
402.01	589.82
402.21	641.31
402.40	645.99
402.59	552.37
402.78	589.82
402.97	585.13
403.17	664.71
403.36	695.14
403.55	645.99
403.74	674.07
403.93	795.78
404.13	683.44
404.32	718.54
404.51	641.31
404.70	798.12
404.89	650.67
405.09	692.80
405.28	709.18
405.47	706.84
405.66	716.20
405.85	685.78
406.05	732.59
406.24	685.78
406.43	751.31
406.62	774.72
406.81	791.10
407.00	809.83
407.20	723.23
407.39	763.01
407.58	823.87
407.77	772.38
407.96	870.68
408.15	734.93
408.34	755.99
408.54	844.93
408.73	828.55
408.92	854.30
409.11	755.99
409.30	798.12
409.49	816.85
409.68	861.32
409.87	854.30
410.07	924.51
410.26	800.46
410.45	882.38
410.64	929.19
410.83	912.81
411.02	873.02
411.21	896.43
411.40	908.13
411.59	903.45
411.78	950.26
411.98	898.77
412.17	950.26
412.36	856.64
412.55	983.02
412.74	1036.86
412.93	1004.09
413.12	950.26
413.31	973.66
413.50	1004.09
413.69	1153.88
413.88	1011.11
414.07	1081.33
414.26	999.41
414.45	997.07
414.64	1142.18
414.83	1149.20
415.02	1156.22
415.22	1207.72
415.41	1203.04
415.60	1137.50
415.79	1228.78
415.98	1254.53
416.17	1179.63
416.36	1200.69
416.55	1174.95
416.74	1228.78
416.93	1219.42
417.12	1167.93
417.31	1355.17
417.50	1210.06
417.69	1301.34
417.88	1273.25
418.07	1275.59
418.26	1310.70
418.45	1310.70
418.64	1409.00
418.83	1341.13
419.02	1310.70
419.21	1240.48
419.39	1366.87
419.58	1380.92
419.77	1306.02
419.96	1399.64
420.15	1357.51
420.34	1371.55
420.53	1331.76
420.72	1411.34
420.91	1364.53
421.10	1394.96
421.29	1448.79
421.48	1348.15
421.67	1439.43
421.86	1476.88
422.05	1544.75
422.24	1479.22
422.43	1490.92
422.61	1441.77
422.80	1490.92
422.99	1490.92
423.18	1504.96
423.37	1563.48
423.56	1547.09
423.75	1474.54
423.94	1549.43
424.13	1371.55
424.32	1369.21
424.50	1516.67
424.69	1526.03
424.88	1586.88
425.07	1540.07
425.26	1511.99
425.45	1413.68
425.64	1432.41
425.83	1575.18
426.01	1516.67
426.20	1554.12
426.39	1483.90
426.58	1572.84
426.77	1549.43
426.96	1591.56
427.15	1495.60
427.33	1633.69
427.52	1495.60
427.71	1568.16
427.90	1561.14
428.09	1645.40
428.28	1706.25
428.46	1591.56
428.65	1631.35
428.84	1554.12
429.03	1638.38
429.22	1563.48
429.40	1633.69
429.59	1547.09
429.78	1736.68
429.97	1572.84
430.16	1692.21
430.34	1671.14
430.53	1680.50
430.72	1743.70
430.91	1710.93
431.10	1633.69
431.28	1706.25
431.47	1746.04
431.66	1797.53
431.85	1727.32
432.03	1778.81
432.22	1778.81
432.41	1818.60
432.60	1874.77
432.79	1867.75
432.97	1778.81
433.16	1778.81
433.35	1713.27
433.54	1820.94
433.72	1816.26
433.91	1909.88
434.10	1804.55
434.28	1785.83
434.47	1909.88
434.66	1916.90
434.85	2010.52
435.03	1991.80
435.22	2141.59
435.41	2275.00
435.59	2256.28
435.78	2186.06
435.97	2111.16
436.16	2031.58
436.34	1879.45
436.53	1923.92
436.72	2047.97
436.90	2024.56
437.09	2022.22
437.28	1884.13
437.46	2073.71
437.65	2064.35
437.84	2001.16
438.02	1980.09
438.21	2078.40
438.40	1996.48
438.58	2080.74
438.77	2200.10
438.96	2113.50
439.14	2160.31
439.33	2214.15
439.52	2125.21
439.70	2165.00
439.89	2267.98
440.08	2010.52
440.26	2085.42
440.45	2235.21
440.63	2303.09
440.82	2312.45
441.01	2181.38
441.19	2223.51
441.38	2237.55
441.57	2331.17
441.75	2359.26
441.94	2326.49
442.12	2354.58
442.31	2335.85
442.50	2417.77
442.68	2422.45
442.87	2420.11
443.05	2502.03
443.24	2443.52
443.43	2445.86
443.61	2523.10
443.80	2544.16
443.98	2450.54
444.17	2331.17
444.35	2485.65
444.54	2499.69
444.73	2525.44
444.91	2443.52
445.10	2410.75
445.28	2333.51
445.47	2506.71
445.65	2399.05
445.84	2518.42
446.02	2424.80
446.21	2417.77
446.39	2459.90
446.58	2492.67
446.77	2408.41
446.95	2408.41
447.14	2537.14
447.32	2499.69
447.51	2541.82
447.69	2548.84
447.88	2574.59
448.06	2581.61
448.25	2527.78
448.43	2555.86
448.62	2558.21
448.80	2635.44
448.99	2516.08
449.17	2729.06
449.36	2504.37
449.54	2583.95
449.73	2656.51
449.91	2656.51
450.10	2700.98
450.28	2729.06
450.46	2745.45
450.65	2644.81
450.83	2649.49
451.02	2656.51
451.20	2686.94
451.39	2778.22
451.57	2717.36
451.76	2546.50
451.94	2679.91
452.13	2782.90
452.31	2761.83
452.49	2715.02
452.68	2743.11
452.86	2794.60
453.05	2789.92
453.23	2839.07
453.42	2766.51
453.60	2792.26
453.78	2684.59
453.97	2745.45
454.15	2799.28
454.34	2766.51
454.52	2822.69
454.70	2916.31
454.89	2853.11
455.07	2803.96
455.26	3000.57
455.44	2885.88
455.62	2881.20
455.81	2848.43
455.99	2885.88
456.17	3012.27
456.36	2967.80
456.54	3009.93
456.73	3126.96
456.91	3059.08
457.09	3112.91
457.28	3166.74
457.46	3066.10
457.64	3019.29
457.83	3075.46
458.01	3035.67
458.19	3094.19
458.38	3136.32
458.56	3141.00
458.74	3215.90
458.93	3155.04
459.11	3112.91
459.29	3007.59
459.48	3183.13
459.66	3162.06
459.84	3262.71
460.03	3328.24
460.21	3169.09
460.39	3049.72
460.57	3215.90
460.76	3232.28
460.94	3145.68
461.12	3300.16
461.31	3276.75
461.49	3342.28
461.67	3183.13
461.85	3389.10
462.04	3272.07
462.22	3515.48
462.40	3304.84
462.59	3272.07
462.77	3346.97
462.95	3417.18
463.13	3279.09
463.32	3318.88
463.50	3342.28
463.68	3440.59
463.86	3412.50
464.05	3405.48
464.23	3393.78
464.41	3569.32
464.59	3426.54
464.78	3571.66
464.96	3456.97
465.14	3478.04
465.32	3475.70
465.50	3545.91
465.69	3566.98
465.87	3442.93
466.05	3585.70
466.23	3471.01
466.41	3407.82
466.60	3641.87
466.78	3625.49
466.96	3564.64
467.14	3531.87
467.32	3616.13
467.51	3632.51
467.69	3515.48
467.87	3646.55
468.05	3623.15
468.23	3595.06
468.41	3571.66
468.60	3536.55
468.78	3665.28
468.96	3674.64
469.14	3669.96
469.32	3604.42
469.50	3494.42
469.69	3786.99
469.87	3817.41
470.05	3810.39
470.23	3775.28
470.41	3847.84
470.59	3831.46
470.77	3749.54
470.95	3950.82
471.14	3892.31
471.32	3786.99
471.50	4014.02
471.68	3887.63
471.86	3920.40
472.04	3864.22
472.22	3889.97
472.40	3866.56
472.58	4037.42
472.77	3889.97
472.95	4121.68
473.13	4095.94
473.31	4074.87
473.49	4140.41
473.67	4128.70
473.85	4039.76
474.03	4189.56
474.21	4149.77
474.39	4166.15
474.57	4264.46
474.75	4269.14
474.93	4238.71
475.12	4175.52
475.30	4358.08
475.48	4360.42
475.66	4451.70
475.84	4418.93
476.02	4351.06
476.20	4163.81
476.38	4332.33
476.56	4393.19
476.74	4592.13
476.92	4561.70
477.10	4437.66
477.28	4603.83
477.46	4648.30
477.64	4798.10
477.82	4559.36
478.00	4975.98
478.18	4837.89
478.36	4809.80
478.54	4793.42
478.72	4880.02
478.90	4898.74
479.08	5097.69
479.26	4999.38
479.44	4952.57
479.62	5041.51
479.80	5055.56
479.98	5067.26
480.16	5268.55
480.34	5165.56
480.52	5303.65
480.70	5301.31
480.88	5198.33
481.06	5165.56
481.24	5317.70
481.41	5434.72
481.59	5366.85
481.77	5701.54
481.95	5570.48
482.13	5467.49
482.31	5542.39
482.49	5703.89
482.67	5659.42
482.85	5666.44
483.03	5834.96
483.21	5893.47
483.39	5977.73
483.57	5790.49
483.74	5884.11
483.92	6148.59
484.10	6005.81
484.28	6300.72
484.46	6090.07
484.64	6143.91
484.82	6188.38
485.00	6464.56
485.18	6384.98
485.35	6499.67
485.53	6441.15
485.71	6518.39
485.89	6562.86
486.07	6651.80
486.25	6757.13
486.43	6588.61
486.61	6672.87
486.78	6672.87
486.96	6817.98
487.14	7124.59
487.32	7000.54
487.50	7112.89
487.68	7014.59
487.85	6974.80
488.03	7187.79
488.21	7316.51
488.39	7112.89
488.57	7353.96
488.75	7229.91
488.92	7630.15
489.10	7644.19
489.28	7365.67
489.46	7543.55
489.64	7552.91
489.81	7620.78
489.99	7660.57
490.17	7583.34
490.35	7946.12
490.53	7838.45
490.70	7829.09
490.88	7836.11
491.06	8170.81
491.24	8011.65
491.41	8046.76
491.59	8238.69
491.77	8177.83
491.95	8184.85
492.13	8248.05
492.30	8290.18
492.48	8304.22
492.66	8484.44
492.84	8351.03
493.01	8444.65
493.19	8517.21
493.37	8662.32
493.54	8641.26
493.72	8730.20
493.90	8711.47
494.08	8744.24
494.25	8938.51
494.43	8926.80
494.61	8994.68
494.79	8896.38
494.96	9011.06
495.14	9156.18
495.32	9202.99
495.49	9156.18
495.67	9067.24
495.85	9544.70
496.02	9261.50
496.20	9266.18
496.38	9528.32
496.55	9287.25
496.73	9518.96
496.91	9666.41
497.09	9638.33
497.26	9582.15
497.44	9713.22
497.62	9664.07
497.79	9982.38
497.97	9823.23
498.14	10033.88
498.32	10068.98
498.50	9928.55
498.67	10083.03
498.85	10289.00
499.03	10181.33
499.20	10108.77
499.38	10101.75
499.56	10235.16
499.73	10258.57
499.91	10382.62
500.08	10356.87
500.26	10136.86
500.44	10284.31
500.61	10548.79
500.79	10476.24
500.97	10441.13
501.14	10654.12
501.32	10509.01
501.49	10668.16
501.67	10750.08
501.84	10574.54
502.02	10558.16
502.20	10897.53
502.37	11000.52
502.55	10794.55
502.72	10953.71
502.90	10953.71
503.07	10642.42
503.25	11098.82
503.43	10780.51
503.60	10937.32
503.78	11154.99
503.95	11300.11
504.13	11126.91
504.30	11363.30
504.48	11229.89
504.65	11173.72
504.83	11176.06
505.01	11321.17
505.18	11543.52
505.36	11791.62
505.53	11311.81
505.71	11372.66
505.88	11587.99
506.06	11557.57
506.23	11545.86
506.41	11459.26
506.58	11637.14
506.76	11674.59
506.93	11510.75
507.11	11562.25
507.28	11761.19
507.46	11908.65
507.63	11859.49
507.81	11763.53
507.98	11857.15
508.16	11768.21
508.33	11906.31
508.50	12037.38
508.68	12049.08
508.85	12079.50
509.03	12079.50
509.20	12409.52
509.38	12243.34
509.55	12222.28
509.73	12524.21
509.90	12343.99
510.08	12411.86
510.25	12280.79
510.42	12528.89
510.60	12503.14
510.77	12622.51
510.95	12807.41
511.12	12542.93
511.30	12716.13
511.47	12718.47
511.64	12664.64
511.82	12769.96
511.99	12734.85
512.17	12760.60
512.34	13036.78
512.51	12774.64
512.69	12854.22
512.86	12720.81
513.04	13008.70
513.21	13156.15
513.38	13219.35
513.56	12959.55
513.73	12833.16
513.90	13060.19
514.08	13060.19
514.25	13125.72
514.43	13011.04
514.60	13493.19
514.77	13294.24
514.95	13345.73
515.12	13270.84
515.29	13209.98
515.47	13467.44
515.64	13687.45
515.81	13233.39
515.99	13579.79
516.16	13570.43
516.33	13703.84
516.51	13577.45
516.68	13614.90
516.85	13631.28
517.03	13394.89
517.20	13654.69
517.37	13778.73
517.54	13984.70
517.72	13729.58
517.89	13839.59
518.06	13645.32
518.24	13848.95
518.41	13926.19
518.58	13994.06
518.75	13839.59
518.93	13912.14
519.10	14164.92
519.27	13963.64
519.45	14054.92
519.62	14052.58
519.79	14066.62
519.96	13844.27
520.14	14216.41
520.31	14017.47
520.48	14216.41
520.65	14202.37
520.83	14232.80
521.00	14314.72
521.17	14335.78
521.34	14335.78
521.52	14431.74
521.69	14520.68
521.86	14445.79
522.03	14553.45
522.20	14565.15
522.38	14572.18
522.55	14523.02
522.72	14656.43
522.89	14801.55
523.07	14801.55
523.24	14778.14
523.41	14644.73
523.58	14883.47
523.75	14836.66
523.92	14855.38
524.10	14686.86
524.27	15021.56
524.44	14967.73
524.61	15201.78
524.78	15159.65
524.96	15000.49
525.13	15014.54
525.30	15124.54
525.47	15297.74
525.64	15154.97
525.81	15290.72
525.98	15096.46
526.16	15269.66
526.33	15145.61
526.50	15225.18
526.67	15330.51
526.84	15407.75
527.01	15183.06
527.18	15487.32
527.36	15534.14
527.53	15484.98
527.70	15503.71
527.87	15379.66
528.04	15377.32
528.21	15499.03
528.38	15468.60
528.55	15777.55
528.72	15754.15
528.89	15646.48
529.07	15700.31
529.24	15784.57
529.41	15819.68
529.58	15602.01
529.75	15550.52
529.92	15503.71
530.09	16065.44
530.26	16011.60
530.43	15840.75
530.60	15702.65
530.77	15704.99
530.94	15917.98
531.11	15852.45
531.28	15875.85
531.46	15964.79
531.63	16154.38
531.80	16051.39
531.97	16121.61
532.14	16065.44
532.31	16147.36
532.48	16121.61
532.65	16194.17
532.82	16336.94
532.99	16350.98
533.16	16023.31
533.33	16334.60
533.50	16456.31
533.67	16451.63
533.84	16315.87
534.01	16236.30
534.18	16294.81
534.35	16519.50
534.52	16561.63
534.69	16608.44
534.86	16177.78
535.03	16484.39
535.20	16374.39
535.37	16528.86
535.54	16683.34
535.71	16484.39
535.88	16732.49
536.05	16819.09
536.22	16795.68
536.38	16863.56
536.55	16690.36
536.72	16748.87
536.89	16538.23
537.06	16870.58
537.23	16615.46
537.40	16563.97
537.57	16676.32
537.74	16617.80
537.91	17132.72
538.08	17111.66
538.25	16908.03
538.42	17167.83
538.59	17001.65
538.75	16999.31
538.92	16922.07
539.09	17291.88
539.26	17256.77
539.43	17011.01
539.60	17334.01
539.77	17006.33
539.94	17195.92
540.11	17338.69
540.28	17032.08
540.44	17219.32
540.61	17139.74
540.78	17465.08
540.95	17605.51
541.12	17589.13
541.29	17621.89
541.46	17727.22
541.62	17502.53
541.79	17481.46
541.96	17418.27
542.13	17605.51
542.30	17755.30
542.47	17781.05
542.63	17565.72
542.80	17537.63
542.97	17846.58
543.14	17767.01
543.31	17902.76
543.48	17942.55
543.64	18153.20
543.81	17900.42
543.98	18040.85
544.15	17935.53
544.32	18178.94
544.48	18057.23
544.65	17919.14
544.82	17633.60
544.99	17785.73
545.16	18326.39
545.32	18045.53
545.49	18232.77
545.66	18560.45
545.83	18956.00
546.00	19138.56
546.16	18249.16
546.33	18462.15
546.50	18092.34
546.67	18122.77
546.83	17884.03
547.00	18312.35
547.17	18139.15
547.34	17958.93
547.50	18080.64
547.67	18118.09
547.84	18057.23
548.00	18391.93
548.17	18427.04
548.34	18434.06
548.51	18267.88
548.67	18457.46
548.84	18513.64
549.01	18223.41
549.18	18235.11
549.34	18148.51
549.51	18331.08
549.68	18253.84
549.84	18391.93
550.01	18555.77
550.18	18281.92
550.34	18258.52
550.51	18499.59
550.68	18611.94
550.84	18244.48
551.01	18244.48
551.18	18249.16
551.34	18295.97
551.51	18462.15
551.68	18221.07
551.84	18721.95
552.01	18583.85
552.18	18597.90
552.34	18274.90
552.51	18457.46
552.68	18555.77
552.84	18630.66
553.01	18595.56
553.18	18352.14
553.34	18834.29
553.51	18623.64
553.67	18750.03
553.84	18714.92
554.01	18541.72
554.17	18766.42
554.34	19009.83
554.51	18712.58
554.67	18637.69
554.84	18417.68
555.00	18663.43
555.17	18633.00
555.33	18537.04
555.50	18677.48
555.67	18813.23
555.83	18946.64
556.00	18913.87
556.16	19070.68
556.33	18743.01
556.50	18773.44
556.66	18675.13
556.83	18932.59
556.99	19068.34
557.16	18871.74
557.32	18925.57
557.49	18771.10
557.65	18862.38
557.82	18981.74
557.98	18902.17
558.15	18986.43
558.32	19021.53
558.48	18956.00
558.65	19096.43
558.81	19058.98
558.98	18822.59
559.14	19133.88
559.31	18958.34
559.47	18794.50
559.64	19389.00
559.80	19524.75
559.97	19143.24
560.13	19033.24
560.30	19110.47
560.46	19543.47
560.63	19269.63
560.79	19232.18
560.96	18885.78
561.12	19108.13
561.29	18890.46
561.45	19176.01
561.61	18972.38
561.78	19311.76
561.94	19204.10
562.11	19115.16
562.27	19286.01
562.44	19356.23
562.60	18995.79
562.77	18991.11
562.93	19047.28
563.10	19447.51
563.26	19391.34
563.42	19407.72
563.59	19466.24
563.75	18932.59
563.92	19470.92
564.08	19419.42
564.24	19206.44
564.41	19330.48
564.57	19414.74
564.74	19246.23
564.90	18967.70
565.07	19227.50
565.23	19384.32
565.39	19456.87
565.56	19248.57
565.72	19173.67
565.88	19384.32
566.05	19108.13
566.21	19335.17
566.38	19232.18
566.54	19470.92
566.70	19566.88
566.87	19597.31
567.03	19187.71
567.19	19503.68
567.36	19536.45
567.52	19271.97
567.68	19410.06
567.85	19154.94
568.01	19047.28
568.17	19367.93
568.34	19555.18
568.50	19506.02
568.66	19332.82
568.83	19559.86
568.99	19599.65
569.15	19342.19
569.32	19410.06
569.48	19309.42
569.64	19599.65
569.81	19330.48
569.97	19452.19
570.13	19658.16
570.30	19353.89
570.46	19468.58
570.62	19260.27
570.78	19154.94
570.95	19491.98
571.11	19601.99
571.27	19377.30
571.43	19627.73
571.60	19679.22
571.76	19412.40
571.92	19360.91
572.09	19424.11
572.25	19955.41
572.41	19281.33
572.57	19470.92
572.74	19637.09
572.90	19454.53
573.06	19683.91
573.22	19754.12
573.38	19632.41
573.55	19374.95
573.71	19669.86
573.87	19674.54
574.03	19424.11
574.20	19660.50
574.36	19459.21
574.52	19847.74
574.68	19508.37
574.84	19548.15
575.01	19941.36
575.17	20034.99
575.33	19740.08
575.49	19702.63
575.65	19768.16
575.82	19559.86
575.98	19541.13
576.14	19660.50
576.30	19707.31
576.46	19707.31
576.62	19499.00
576.79	19744.76
576.95	19866.47
577.11	19653.48
577.27	19843.06
577.43	19922.64
577.59	19644.12
577.75	19601.99
577.92	19803.27
578.08	19470.92
578.24	19667.52
578.40	19836.04
578.56	19831.36
578.72	19981.15
578.88	20016.26
579.04	19829.02
579.21	19770.51
579.37	19903.92
579.53	19625.39
579.69	19548.15
579.85	19756.46
580.01	19625.39
580.17	19721.35
580.33	19775.19
580.49	19721.35
580.65	20114.56
580.82	19899.23
580.98	19719.01
581.14	19536.45
581.30	19896.89
581.46	19644.12
581.62	19805.61
581.78	19793.91
581.94	19728.38
582.10	19517.73
582.26	19758.80
582.42	19833.70
582.58	19920.30
582.74	19700.29
582.90	19789.23
583.06	19793.91
583.22	19967.11
583.38	19721.35
583.54	19988.18
583.70	19662.84
583.86	19976.47
584.02	19936.68
584.18	19843.06
584.34	19969.45
584.50	19768.16
584.66	19871.15
584.82	19838.38
584.98	19936.68
585.14	19878.17
585.30	19974.13
585.46	20098.18
585.62	19800.93
585.78	20137.97
585.94	19943.70
586.10	19723.69
586.26	20051.37
586.42	19857.10
586.58	20191.80
586.74	19735.40
586.90	19950.73
587.06	19695.61
587.22	20020.94
587.38	19707.31
587.54	20102.86
587.70	20018.60
587.86	20016.26
588.02	19850.08
588.18	19913.28
588.34	19896.89
588.49	20266.70
588.65	19843.06
588.81	19648.80
588.97	19826.68
589.13	19976.47
589.29	19875.83
589.45	20247.97
589.61	19812.63
589.77	20016.26
589.93	20016.26
590.08	19939.02
590.24	20222.23
590.40	19861.79
590.56	20123.93
590.72	19793.91
590.88	19889.87
591.04	19969.45
591.20	20053.71
591.35	19990.52
591.51	20601.40
591.67	20381.38
591.83	20283.08
591.99	20154.35
592.15	19932.00
592.31	20175.42
592.46	19976.47
592.62	19939.02
592.78	20105.20
