SpectraSuite Data File
++++++++++++++++++++++++++++++++++++
Date: Fri Oct 04 11:40:05 GMT-05:00 2013
User: price-jones
Dark Spectrum Present: No
Reference Spectrum Present: No
Number of Sampled Component Spectra: 1
Spectrometers: USB2+H05261
Integration Time (usec): 100000 (USB2+H05261)
Spectra Averaged: 1 (USB2+H05261)
Boxcar Smoothing: 0 (USB2+H05261)
Correct for Electrical Dark: No (USB2+H05261)
Strobe/Lamp Enabled: No (USB2+H05261)
Correct for Detector Non-linearity: No (USB2+H05261)
Correct for Stray Light: No (USB2+H05261)
Number of Pixels in Processed Spectrum: 2048
>>>>>Begin Processed Spectral Data<<<<<
365.73	98.30
365.92	98.30
366.12	98.30
366.32	0.00
366.52	39.79
366.72	0.00
366.91	0.00
367.11	0.00
367.31	0.00
367.51	0.00
367.70	0.00
367.90	0.00
368.10	0.00
368.30	0.00
368.49	0.00
368.69	0.00
368.89	0.00
369.09	0.00
369.28	30.43
369.48	0.00
369.68	0.00
369.87	2.34
370.07	0.00
370.27	28.09
370.47	81.92
370.66	454.06
370.86	547.69
371.06	538.32
371.25	500.87
371.45	500.87
371.65	465.77
371.84	421.30
372.04	430.66
372.24	505.56
372.44	543.00
372.63	603.86
372.83	528.96
373.03	484.49
373.22	418.96
373.42	430.66
373.62	477.47
373.81	575.77
374.01	470.45
374.21	521.94
374.40	463.43
374.60	613.22
374.79	554.71
374.99	606.20
375.19	713.86
375.38	650.67
375.58	617.90
375.78	596.84
375.97	573.43
376.17	662.37
376.37	603.86
376.56	699.82
376.76	580.45
376.95	748.97
377.15	737.27
377.35	802.80
377.54	837.91
377.74	788.76
377.93	809.83
378.13	760.67
378.33	823.87
378.52	667.05
378.72	678.76
378.91	594.50
379.11	650.67
379.31	557.05
379.50	655.35
379.70	760.67
379.89	671.73
380.09	692.80
380.28	732.59
380.48	814.51
380.68	699.82
380.87	837.91
381.07	779.40
381.26	660.03
381.46	648.33
381.65	638.97
381.85	631.94
382.04	465.77
382.24	575.77
382.43	578.11
382.63	477.47
382.83	575.77
383.02	587.47
383.22	454.06
383.41	463.43
383.61	596.84
383.80	585.13
384.00	622.58
384.19	732.59
384.39	791.10
384.58	753.65
384.78	826.21
384.97	716.20
385.17	741.95
385.36	730.25
385.56	688.12
385.75	702.16
385.95	697.48
386.14	791.10
386.34	727.91
386.53	746.63
386.72	727.91
386.92	702.16
387.11	744.29
387.31	807.48
387.50	777.06
387.70	772.38
387.89	725.57
388.09	751.31
388.28	725.57
388.48	727.91
388.67	791.10
388.86	901.11
389.06	856.64
389.25	966.64
389.45	945.58
389.64	1048.56
389.84	924.51
390.03	908.13
390.22	971.32
390.42	1041.54
390.61	992.39
390.81	1177.29
391.00	1090.69
391.19	1011.11
391.39	1006.43
391.58	1090.69
391.78	954.94
391.97	954.94
392.16	940.90
392.36	877.70
392.55	711.52
392.75	526.62
392.94	500.87
393.13	615.56
393.33	554.71
393.52	655.35
393.71	821.53
393.91	908.13
394.10	945.58
394.29	1018.13
394.49	997.07
394.68	1212.40
394.88	1160.91
395.07	1186.65
395.26	1188.99
395.46	1132.82
395.65	1095.37
395.84	1022.81
396.04	912.81
396.23	650.67
396.42	683.44
396.62	606.20
396.81	653.01
397.00	849.61
397.19	985.37
397.39	1172.61
397.58	1219.42
397.77	1341.13
397.97	1341.13
398.16	1366.87
398.35	1406.66
398.55	1493.26
398.74	1479.22
398.93	1526.03
399.12	1540.07
399.32	1437.09
399.51	1544.75
399.70	1528.37
399.90	1675.82
400.09	1579.86
400.28	1575.18
400.47	1533.05
400.67	1699.23
400.86	1736.68
401.05	1664.12
401.24	1668.80
401.44	1715.61
401.63	1736.68
401.82	1762.42
402.01	1629.01
402.21	1666.46
402.40	1802.21
402.59	1675.82
402.78	1610.29
402.97	1600.93
403.17	1687.53
403.36	1762.42
403.55	1811.57
403.74	1750.72
403.93	1687.53
404.13	1593.90
404.32	1682.85
404.51	1666.46
404.70	1757.74
404.89	1678.16
405.09	1809.23
405.28	1694.55
405.47	1664.12
405.66	1713.27
405.85	1703.91
406.05	1692.21
406.24	1650.08
406.43	1685.19
406.62	1863.07
406.81	1788.17
407.00	1746.04
407.20	1685.19
407.39	1703.91
407.58	1795.19
407.77	1809.23
407.96	1877.11
408.15	1884.13
408.34	1872.43
408.54	1921.58
408.73	1881.79
408.92	1851.36
409.11	1963.71
409.30	1785.83
409.49	1694.55
409.68	1540.07
409.87	1589.22
410.07	1668.80
410.26	1724.97
410.45	1834.98
410.64	1935.62
410.83	1963.71
411.02	1877.11
411.21	2001.16
411.40	2054.99
411.59	2094.78
411.78	2033.93
411.98	2146.27
412.17	1935.62
412.36	2026.90
412.55	2022.22
412.74	2026.90
412.93	1961.37
413.12	1902.86
413.31	2162.66
413.50	2139.25
413.69	2120.53
413.88	2073.71
414.07	2001.16
414.26	2050.31
414.45	2108.82
414.64	2045.63
414.83	2106.48
415.02	2064.35
415.22	1982.43
415.41	2136.91
415.60	2139.25
415.79	2235.21
415.98	2380.32
416.17	2450.54
416.36	2340.54
416.55	2279.68
416.74	2223.51
416.93	2179.04
417.12	2179.04
417.31	2249.25
417.50	2160.31
417.69	2317.13
417.88	2335.85
418.07	2239.89
418.26	2225.85
418.45	2143.93
418.64	2207.13
418.83	2312.45
419.02	2244.57
419.21	2263.30
419.39	2251.60
419.58	2122.87
419.77	2092.44
419.96	2225.85
420.15	2429.48
420.34	2331.17
420.53	2408.41
420.72	2487.99
420.91	2385.01
421.10	2370.96
421.29	2471.61
421.48	2221.17
421.67	2448.20
421.86	2392.03
422.05	2181.38
422.24	1991.80
422.43	2008.18
422.61	2141.59
422.80	2349.90
422.99	2317.13
423.18	2218.83
423.37	2289.04
423.56	2146.27
423.75	2333.51
423.94	2359.26
424.13	2148.61
424.32	2282.02
424.50	2228.19
424.69	2209.47
424.88	2228.19
425.07	2139.25
425.26	2186.06
425.45	2174.36
425.64	2162.66
425.83	2127.55
426.01	2338.20
426.20	2129.89
426.39	2279.68
426.58	2076.06
426.77	1980.09
426.96	1989.46
427.15	2099.46
427.33	2094.78
427.52	2211.81
427.71	2242.23
427.90	2228.19
428.09	2155.63
428.28	2235.21
428.46	2045.63
428.65	1970.73
428.84	2057.33
429.03	2057.33
429.22	2059.67
429.40	1963.71
429.59	1844.34
429.78	1664.12
429.97	1636.03
430.16	1537.73
430.34	1631.35
430.53	1624.33
430.72	1617.31
430.91	1874.77
431.10	2054.99
431.28	2366.28
431.47	2469.27
431.66	2619.06
431.85	2424.80
432.03	2190.74
432.22	2216.49
432.41	2232.87
432.60	2457.56
432.79	2438.84
432.97	2415.43
433.16	2434.16
433.35	2275.00
433.54	2200.10
433.72	2019.88
433.91	2054.99
434.10	2307.77
434.28	2363.94
434.47	2499.69
434.66	2380.32
434.85	2373.30
435.03	2532.46
435.22	2656.51
435.41	3045.04
435.59	2885.88
435.78	2827.37
435.97	2822.69
436.16	2661.19
436.34	2654.17
436.53	2670.55
436.72	2686.94
436.90	2574.59
437.09	2476.29
437.28	2427.14
437.46	2476.29
437.65	2593.31
437.84	2363.94
438.02	2207.13
438.21	2221.17
438.40	2314.79
438.58	2300.75
438.77	2523.10
438.96	2492.67
439.14	2633.10
439.33	2626.08
439.52	2693.96
439.70	2619.06
439.89	2658.85
440.08	2647.15
440.26	2525.44
440.45	2602.68
440.63	2860.13
440.82	3101.21
441.01	2796.94
441.19	2904.60
441.38	2988.86
441.57	2963.12
441.75	3063.76
441.94	3070.78
442.12	3089.51
442.31	2972.48
442.50	3009.93
442.68	3047.38
442.87	2923.33
443.05	2867.16
443.24	3155.04
443.43	3101.21
443.61	3220.58
443.80	3108.23
443.98	3068.44
444.17	2965.46
444.35	3028.65
444.54	3171.43
444.73	3187.81
444.91	3035.67
445.10	2944.39
445.28	2745.45
445.47	2750.13
445.65	2722.04
445.84	2892.90
446.02	2937.37
446.21	2963.12
446.39	3061.42
446.58	3042.70
446.77	3052.06
446.95	2951.42
447.14	3178.45
447.32	3295.47
447.51	3063.76
447.69	3028.65
447.88	3007.59
448.06	3038.02
448.25	3052.06
448.43	3082.49
448.62	3173.77
448.80	3005.25
448.99	3066.10
449.17	3155.04
449.36	3108.23
449.54	3197.17
449.73	3241.64
449.91	3356.33
450.10	3400.80
450.28	3452.29
450.46	3492.08
450.65	3377.39
450.83	3389.10
451.02	3248.66
451.20	3382.07
451.39	3307.18
451.57	3204.19
451.76	3218.24
451.94	3232.28
452.13	3084.83
452.31	2993.55
452.49	2995.89
452.68	2871.84
452.86	2946.73
453.05	3028.65
453.23	3155.04
453.42	3145.68
453.60	3321.22
453.78	3220.58
453.97	3187.81
454.15	3108.23
454.34	3173.77
454.52	3218.24
454.70	3194.83
454.89	3215.90
455.07	3152.70
455.26	3162.06
455.44	3258.03
455.62	3272.07
455.81	3332.92
455.99	3365.69
456.17	3382.07
456.36	3398.46
456.54	3489.74
456.73	3412.50
456.91	3501.44
457.09	3410.16
457.28	3581.02
457.46	3321.22
457.64	3445.27
457.83	3330.58
458.01	3183.13
458.19	3318.88
458.38	3384.41
458.56	3293.13
458.74	3463.99
458.93	3456.97
459.11	3204.19
459.29	3243.98
459.48	3342.28
459.66	3339.94
459.84	3433.57
460.03	3440.59
460.21	3356.33
460.39	3445.27
460.57	3445.27
460.76	3515.48
460.94	3487.40
461.12	3487.40
461.31	3346.97
461.49	3421.86
461.67	3534.21
461.85	3503.78
462.04	3630.17
462.22	4030.40
462.40	3639.53
462.59	3611.45
462.77	3487.40
462.95	3463.99
463.13	3503.78
463.32	3489.74
463.50	3466.33
463.68	3461.65
463.86	3531.87
464.05	3410.16
464.23	3417.18
464.41	3236.96
464.59	3239.30
464.78	3517.83
464.96	3442.93
465.14	3274.41
465.32	3403.14
465.50	3461.65
465.69	3487.40
465.87	3564.64
466.05	3330.58
466.23	3148.02
466.41	3159.72
466.60	3274.41
466.78	3211.22
466.96	3295.47
467.14	3325.90
467.32	3447.61
467.51	3522.51
467.69	3344.63
467.87	3520.17
468.05	3393.78
468.23	3400.80
468.41	3435.91
468.60	3435.91
468.78	3447.61
468.96	3328.24
469.14	3433.57
469.32	3466.33
469.50	3398.46
469.69	3309.52
469.87	3351.65
470.05	3171.43
470.23	3318.88
470.41	3314.20
470.59	3353.99
470.77	3300.16
470.95	3433.57
471.14	3485.06
471.32	3433.57
471.50	3576.34
471.68	3655.92
471.86	3566.98
472.04	3660.60
472.22	3695.71
472.40	3506.12
472.58	3555.27
472.77	3459.31
472.95	3475.70
473.13	3625.49
473.31	3468.67
473.49	3456.97
473.67	3611.45
473.85	3499.10
474.03	3817.41
474.21	3737.84
474.39	3915.72
474.57	3735.50
474.75	3770.60
474.93	3672.30
475.12	3634.85
475.30	3672.30
475.48	3705.07
475.66	3789.33
475.84	3772.94
476.02	3712.09
476.20	3597.40
476.38	3620.81
476.56	3822.09
476.74	3826.78
476.92	3810.39
477.10	3878.27
477.28	3976.57
477.46	4011.68
477.64	3801.03
477.82	3936.78
478.00	4102.96
478.18	4079.55
478.36	4021.04
478.54	4018.70
478.72	3971.89
478.90	4159.13
479.08	4241.05
479.26	4203.60
479.44	4238.71
479.62	4344.03
479.80	4332.33
479.98	4248.07
480.16	4203.60
480.34	4252.75
480.52	4292.54
480.70	4329.99
480.88	4306.59
481.06	4358.08
481.24	4442.34
481.41	4606.17
481.59	4589.79
481.77	4582.77
481.95	4533.62
482.13	4545.32
482.31	4578.09
482.49	4475.10
482.67	4517.23
482.85	4603.83
483.03	4589.79
483.21	4706.82
483.39	4690.43
483.57	4697.46
483.74	4528.94
483.92	4720.86
484.10	4793.42
484.28	4809.80
484.46	4844.91
484.64	4880.02
484.82	4791.08
485.00	4699.80
485.18	4643.62
485.35	4472.76
485.53	4191.90
485.71	3960.19
485.89	3730.81
486.07	3899.33
486.25	4145.09
486.43	4456.38
486.61	4711.50
486.78	4603.83
486.96	4587.45
487.14	4755.97
487.32	4896.40
487.50	4877.68
487.68	5118.75
487.85	5095.35
488.03	5181.95
488.21	5181.95
488.39	4889.38
488.57	4961.94
488.75	5015.77
488.92	5350.46
489.10	5383.23
489.28	5619.63
489.46	5708.57
489.64	5603.24
489.81	5612.60
489.99	5621.97
490.17	5701.54
490.35	5675.80
490.53	5633.67
490.70	5514.30
490.88	5486.22
491.06	5863.04
491.24	5764.74
491.41	5638.35
491.59	5385.57
491.77	5193.65
491.95	5170.24
492.13	5446.43
492.30	5671.12
492.48	5863.04
492.66	5919.21
492.84	5687.50
493.01	5963.68
493.19	5846.66
493.37	5713.25
493.54	5563.45
493.72	5799.85
493.90	6033.90
494.08	6101.78
494.25	6291.36
494.43	6211.78
494.61	6274.98
494.79	6443.49
494.96	6319.45
495.14	6054.97
495.32	6090.07
495.49	5816.23
495.67	5935.60
495.85	6244.55
496.02	6289.02
496.20	6436.47
496.38	6399.02
496.55	6263.27
496.73	6375.62
496.91	6375.62
497.09	6462.22
497.26	6499.67
497.44	6441.15
497.62	6296.04
497.79	6286.68
497.97	5970.71
498.14	5991.77
498.32	6115.82
498.50	6373.28
498.67	6502.01
498.85	6403.71
499.03	6544.14
499.20	6586.27
499.38	6579.25
499.56	6640.10
499.73	6441.15
499.91	6373.28
500.08	6132.20
500.26	6122.84
500.44	6209.44
500.61	6373.28
500.79	6239.87
500.97	6136.88
501.14	6312.42
501.32	6071.35
501.49	6162.63
501.67	6176.67
501.84	6384.98
502.02	6394.34
502.20	6448.18
502.37	6576.91
502.55	6319.45
502.72	6417.75
502.90	6597.97
503.07	6471.58
503.25	6263.27
503.43	6047.94
503.60	5863.04
503.78	5877.09
503.95	5954.32
504.13	6162.63
504.30	6438.81
504.48	6429.45
504.65	6523.07
504.83	6637.76
505.01	6530.09
505.18	6726.70
505.36	6843.73
505.53	6684.57
505.71	6778.19
505.88	6827.34
506.06	6846.07
506.23	6750.10
506.41	6504.35
506.58	6506.69
506.76	6773.51
506.93	6663.51
507.11	6509.03
507.28	6513.71
507.46	6382.64
507.63	6382.64
507.81	6146.25
507.98	6216.46
508.16	6649.46
508.33	6855.43
508.50	6738.40
508.68	6822.66
508.85	7082.46
509.03	6991.18
509.20	6874.15
509.38	6848.41
509.55	6623.72
509.73	6541.80
509.90	6787.55
510.08	6871.81
510.25	6712.66
510.42	6836.70
510.60	6820.32
510.77	6808.62
510.95	6904.58
511.12	6937.35
511.30	6970.12
511.47	7262.68
511.64	7007.56
511.82	7098.84
511.99	6871.81
512.17	6822.66
512.34	6857.77
512.51	6679.89
512.69	6743.08
512.86	6796.92
513.04	6953.73
513.21	6974.80
513.38	6829.68
513.56	6733.72
513.73	6609.67
513.90	6595.63
514.08	6602.65
514.25	6626.06
514.43	6729.04
514.60	6722.02
514.77	6670.53
514.95	6642.44
515.12	6698.61
515.29	6864.79
515.47	6876.49
515.64	7126.93
515.81	6839.05
515.99	6867.13
516.16	6483.28
516.33	6169.65
516.51	5755.38
516.68	5331.74
516.85	5518.98
517.03	5483.88
517.20	5849.00
517.37	6600.31
517.54	6871.81
517.72	6649.46
517.89	6136.88
518.06	5902.83
518.24	5788.14
518.41	6120.50
518.58	6420.09
518.75	6551.16
518.93	6546.48
519.10	6607.33
519.27	6658.82
519.45	6705.63
519.62	6691.59
519.79	6904.58
519.96	6717.34
520.14	6813.30
520.31	6707.98
520.48	6562.86
520.65	6586.27
520.83	6946.71
521.00	6925.65
521.17	6836.70
521.34	6761.81
521.52	7047.35
521.69	7082.46
521.86	7122.25
522.03	7103.53
522.20	6693.93
522.38	6406.05
522.55	6565.20
522.72	6712.66
522.89	6766.49
523.07	6581.59
523.24	6808.62
523.41	6897.56
523.58	6984.16
523.75	7290.77
523.92	7000.54
524.10	7372.69
524.27	7133.95
524.44	7234.60
524.61	7246.30
524.78	7070.76
524.96	6902.24
525.13	6991.18
525.30	7136.29
525.47	7318.86
525.64	7255.66
525.81	6930.33
525.98	6890.54
526.16	6370.94
526.33	6235.19
526.50	6022.20
526.67	5975.39
526.84	6211.78
527.01	6333.49
527.18	6602.65
527.36	6766.49
527.53	6885.86
527.70	7045.01
527.87	6878.83
528.04	6857.77
528.21	6815.64
528.38	7084.80
528.55	7300.13
528.72	7316.51
528.89	7391.41
529.07	7227.57
529.24	7297.79
529.41	7122.25
529.58	6841.39
529.75	6857.77
529.92	6883.52
530.09	7037.99
530.26	7169.06
530.43	7169.06
530.60	7183.10
530.77	7440.56
530.94	7129.27
531.11	7222.89
531.28	7045.01
531.46	7059.06
531.63	7157.36
531.80	7101.19
531.97	6937.35
532.14	6995.86
532.31	6499.67
532.48	6494.99
532.65	6459.88
532.82	6602.65
532.99	6768.83
533.16	6965.43
533.33	7080.12
533.50	7033.31
533.67	6820.32
533.84	6864.79
534.01	6743.08
534.18	6855.43
534.35	6883.52
534.52	6829.68
534.69	7098.84
534.86	6871.81
535.03	7192.47
535.20	7208.85
535.37	7304.81
535.54	7323.54
535.71	7169.06
535.88	7190.13
536.05	7021.61
536.22	7068.42
536.38	6911.60
536.55	6745.42
536.72	6602.65
536.89	6530.09
537.06	6707.98
537.23	6796.92
537.40	7077.78
537.57	7028.63
537.74	6864.79
537.91	6956.07
538.08	7061.40
538.25	6860.11
538.42	6949.05
538.59	7129.27
538.75	6754.79
538.92	6736.06
539.09	6731.38
539.26	6654.14
539.43	6665.85
539.60	6665.85
539.77	6890.54
539.94	6614.35
540.11	6796.92
540.28	6513.71
540.44	6487.96
540.61	6509.03
540.78	6672.87
540.95	6689.25
541.12	6906.92
541.29	7066.08
541.46	7108.21
541.62	7155.02
541.79	7052.03
541.96	6761.81
542.13	7035.65
542.30	6949.05
542.47	7028.63
542.63	6986.50
542.80	6965.43
542.97	6874.15
543.14	7033.31
543.31	6935.01
543.48	6953.73
543.64	7136.29
543.81	7201.83
543.98	7475.67
544.15	7035.65
544.32	7080.12
544.48	7012.24
544.65	7014.59
544.82	7026.29
544.99	6902.24
545.16	7162.04
545.32	6832.02
545.49	7283.75
545.66	7740.15
545.83	7730.79
546.00	7529.50
546.16	7155.02
546.33	7098.84
546.50	6890.54
546.67	7096.50
546.83	7000.54
547.00	7049.69
547.17	6810.96
547.34	6635.42
547.50	6665.85
547.67	6693.93
547.84	6583.93
548.00	6832.02
548.17	6593.29
548.34	6881.18
548.51	6792.23
548.67	6913.94
548.84	6942.03
549.01	6986.50
549.18	6841.39
549.34	6593.29
549.51	6897.56
549.68	6834.36
549.84	6717.34
550.01	6878.83
550.18	6860.11
550.34	6757.13
550.51	6712.66
550.68	6815.64
550.84	6600.31
551.01	6511.37
551.18	6612.01
551.34	6637.76
551.51	6808.62
551.68	6857.77
551.84	6808.62
552.01	6663.51
552.18	6902.24
552.34	6473.92
552.51	6504.35
552.68	6583.93
552.84	6553.50
553.01	6743.08
553.18	6637.76
553.34	6616.69
553.51	6560.52
553.67	6703.29
553.84	6691.59
554.01	6752.45
554.17	6579.25
554.34	6576.91
554.51	6619.04
554.67	6642.44
554.84	6871.81
555.00	6651.80
555.17	6675.21
555.33	6813.30
555.50	6504.35
555.67	6663.51
555.83	6553.50
556.00	6516.05
556.16	6656.48
556.33	6370.94
556.50	6300.72
556.66	6293.70
556.83	6436.47
556.99	6399.02
557.16	6408.39
557.32	6436.47
557.49	6497.33
557.65	6300.72
557.82	6399.02
557.98	6399.02
558.15	6389.66
558.32	6200.08
558.48	6017.52
558.65	5956.66
558.81	6033.90
558.98	6066.67
559.14	6246.89
559.31	6284.34
559.47	6202.42
559.64	6080.71
559.80	6181.35
559.97	6066.67
560.13	6230.51
560.30	6260.93
560.46	6392.00
560.63	6530.09
560.79	6464.56
560.96	6380.30
561.12	6352.21
561.29	6167.31
561.45	6012.84
561.61	6176.67
561.78	6392.00
561.94	6090.07
562.11	6258.59
562.27	6216.46
562.44	6125.18
562.60	6183.70
562.77	6242.21
562.93	6441.15
563.10	6242.21
563.26	6193.06
563.42	6216.46
563.59	6207.10
563.75	6190.72
563.92	6284.34
564.08	6113.48
564.24	6265.61
564.41	6251.57
564.57	6204.76
564.74	6097.10
564.90	6127.52
565.07	6129.86
565.23	6099.44
565.39	6001.13
565.56	5877.09
565.72	5685.16
565.88	5860.70
566.05	5935.60
566.21	5865.38
566.38	5949.64
566.54	5837.30
566.70	6209.44
566.87	6015.18
567.03	5961.34
567.19	6069.01
567.36	5989.43
567.52	6043.26
567.68	6101.78
567.85	5757.72
568.01	5753.04
568.17	5633.67
568.34	5446.43
568.50	5523.66
568.66	5448.77
568.83	5652.39
568.99	5626.65
569.15	5722.61
569.32	5715.59
569.48	5666.44
569.64	5575.16
569.81	5570.48
569.97	5636.01
570.13	5710.91
570.30	5537.71
570.46	5535.37
570.62	5345.78
570.78	5334.08
570.95	5383.23
571.11	5523.66
571.27	5619.63
571.43	5619.63
571.60	5734.31
571.76	5535.37
571.92	5776.44
572.09	5591.54
572.25	5755.38
572.41	5671.12
572.57	5586.86
572.74	5621.97
572.90	5654.73
573.06	5682.82
573.22	5643.03
573.38	5696.86
573.55	5668.78
573.71	5717.93
573.87	5596.22
574.03	5507.28
574.20	5465.15
574.36	5582.18
574.52	5418.34
574.68	5589.20
574.84	5490.90
575.01	5280.25
575.17	5343.44
575.33	5554.09
575.49	5460.47
575.65	5493.24
575.82	5408.98
575.98	5373.87
576.14	5418.34
576.30	5518.98
576.46	5708.57
576.62	5516.64
576.79	5713.25
576.95	5652.39
577.11	5465.15
577.27	5488.56
577.43	5523.66
577.59	5467.49
577.75	5521.32
577.92	5163.22
578.08	5294.29
578.24	5198.33
578.40	5334.08
578.56	5448.77
578.72	5507.28
578.88	5596.22
579.04	5441.75
579.21	5558.77
579.37	5551.75
579.53	5404.30
579.69	5544.73
579.85	5600.90
580.01	5486.22
580.17	5495.58
580.33	5345.78
580.49	5387.91
580.65	5362.17
580.82	5582.18
580.98	5654.73
581.14	5544.73
581.30	5387.91
581.46	5540.05
581.62	5451.11
581.78	5514.30
581.94	5535.37
582.10	5474.51
582.26	5558.77
582.42	5509.62
582.58	5678.14
582.74	5607.92
582.90	5556.43
583.06	5687.50
583.22	5479.19
583.38	5390.25
583.54	5582.18
583.70	5497.92
583.86	5434.72
584.02	5500.26
584.18	5437.06
584.34	5535.37
584.50	5488.56
584.66	5324.72
584.82	5423.02
584.98	5376.21
585.14	5240.46
585.30	5338.76
585.46	5177.26
585.62	5085.98
585.78	5226.42
585.94	5107.05
586.10	5245.14
586.26	5149.18
586.42	5352.81
586.58	5387.91
586.74	5247.48
586.90	5242.80
587.06	5181.95
587.22	5095.35
587.38	4964.28
587.54	5146.84
587.70	5004.07
587.86	4875.34
588.02	4655.33
588.18	4624.90
588.34	4559.36
588.49	4250.41
588.65	3946.14
588.81	3946.14
588.97	3812.73
589.13	3929.76
589.29	3836.14
589.45	3899.33
589.61	4065.51
589.77	4004.66
589.93	4100.62
590.08	4294.88
590.24	4498.51
590.40	4550.00
590.56	4554.68
590.72	4454.04
590.88	4638.94
591.04	4559.36
591.20	4440.00
591.35	4299.56
591.51	4231.69
591.67	4372.12
591.83	4285.52
591.99	4304.25
592.15	4416.59
592.31	4606.17
592.46	4631.92
592.62	4606.17
592.78	4629.58
592.94	4589.79
593.10	4755.97
593.26	4723.20
593.41	4779.37
593.57	4610.86
593.73	4505.53
593.89	4493.83
594.05	4294.88
594.20	4257.43
594.36	4198.92
594.52	4189.56
594.68	4229.35
594.84	4353.40
594.99	4524.26
595.15	4432.97
595.31	4573.41
595.47	4517.23
595.62	4287.86
595.78	4430.63
595.94	4550.00
596.10	4629.58
596.25	4674.05
596.41	4631.92
596.57	4503.19
596.73	4493.83
596.88	4468.08
597.04	4514.89
597.20	4599.15
597.36	4578.09
597.51	4344.03
597.67	4554.68
