SpectraSuite Data File
++++++++++++++++++++++++++++++++++++
Date: Fri Oct 04 11:40:05 GMT-05:00 2013
User: price-jones
Dark Spectrum Present: No
Reference Spectrum Present: No
Number of Sampled Component Spectra: 1
Spectrometers: USB2+H05261
Integration Time (usec): 100000 (USB2+H05261)
Spectra Averaged: 1 (USB2+H05261)
Boxcar Smoothing: 0 (USB2+H05261)
Correct for Electrical Dark: No (USB2+H05261)
Strobe/Lamp Enabled: No (USB2+H05261)
Correct for Detector Non-linearity: No (USB2+H05261)
Correct for Stray Light: No (USB2+H05261)
Number of Pixels in Processed Spectrum: 2048
>>>>>Begin Processed Spectral Data<<<<<
365.73	56.17
365.92	56.17
366.12	56.17
366.32	0.00
366.52	0.00
366.72	0.00
366.91	0.00
367.11	0.00
367.31	0.00
367.51	0.00
367.70	0.00
367.90	0.00
368.10	0.00
368.30	0.00
368.49	0.00
368.69	0.00
368.89	0.00
369.09	0.00
369.28	0.00
369.48	0.00
369.68	0.00
369.87	0.00
370.07	0.00
370.27	58.51
370.47	53.83
370.66	81.92
370.86	161.50
371.06	175.54
371.25	173.20
371.45	180.22
371.65	142.77
371.84	98.30
372.04	161.50
372.24	189.58
372.44	175.54
372.63	180.22
372.83	259.80
373.03	131.07
373.22	161.50
373.42	98.30
373.62	203.63
373.81	140.43
374.01	187.24
374.21	177.88
374.40	177.88
374.60	198.95
374.79	212.99
374.99	234.05
375.19	299.59
375.38	264.48
375.58	238.73
375.78	163.84
375.97	273.84
376.17	301.93
376.37	191.92
376.56	173.20
376.76	177.88
376.95	175.54
377.15	285.55
377.35	187.24
377.54	196.60
377.74	205.97
377.93	154.48
378.13	126.39
378.33	224.69
378.52	227.03
378.72	224.69
378.91	196.60
379.11	238.73
379.31	236.39
379.50	140.43
379.70	327.68
379.89	187.24
380.09	170.86
380.28	152.13
380.48	159.16
380.68	217.67
380.87	114.69
381.07	231.71
381.26	145.11
381.46	215.33
381.65	243.42
381.85	191.92
382.04	163.84
382.24	187.24
382.43	180.22
382.63	126.39
382.83	182.56
383.02	210.65
383.22	203.63
383.41	166.18
383.61	173.20
383.80	196.60
384.00	252.78
384.19	161.50
384.39	147.45
384.58	152.13
384.78	184.90
384.97	203.63
385.17	252.78
385.36	145.11
385.56	208.31
385.75	278.52
385.95	212.99
386.14	222.35
386.34	187.24
386.53	222.35
386.72	131.07
386.92	294.91
387.11	201.29
387.31	315.97
387.50	191.92
387.70	262.14
387.89	194.26
388.09	173.20
388.28	196.60
388.48	163.84
388.67	330.02
388.86	264.48
389.06	264.48
389.25	276.18
389.45	292.57
389.64	229.37
389.84	238.73
390.03	248.10
390.22	248.10
390.42	299.59
390.61	241.08
390.81	234.05
391.00	283.20
391.19	287.89
391.39	283.20
391.58	196.60
391.78	236.39
391.97	252.78
392.16	252.78
392.36	250.44
392.55	201.29
392.75	191.92
392.94	147.45
393.13	224.69
393.33	205.97
393.52	196.60
393.71	236.39
393.91	236.39
394.10	245.76
394.29	248.10
394.49	255.12
394.68	252.78
394.88	348.74
395.07	304.27
395.26	212.99
395.46	337.04
395.65	252.78
395.84	180.22
396.04	299.59
396.23	271.50
396.42	147.45
396.62	257.46
396.81	236.39
397.00	285.55
397.19	238.73
397.39	262.14
397.58	297.25
397.77	273.84
397.97	259.80
398.16	290.23
398.35	320.65
398.55	257.46
398.74	358.10
398.93	318.31
399.12	311.29
399.32	238.73
399.51	306.61
399.70	367.46
399.90	273.84
400.09	299.59
400.28	337.04
400.47	337.04
400.67	365.12
400.86	320.65
401.05	348.74
401.24	360.44
401.44	339.38
401.63	395.55
401.82	292.57
402.01	320.65
402.21	315.97
402.40	397.89
402.59	332.36
402.78	337.04
402.97	397.89
403.17	355.76
403.36	322.99
403.55	341.72
403.74	397.89
403.93	482.15
404.13	643.65
404.32	643.65
404.51	671.73
404.70	500.87
404.89	437.68
405.09	449.38
405.28	304.27
405.47	351.08
405.66	327.68
405.85	337.04
406.05	290.23
406.24	320.65
406.43	287.89
406.62	374.49
406.81	465.77
407.00	489.17
407.20	400.23
407.39	404.91
407.58	395.55
407.77	414.27
407.96	496.19
408.15	440.02
408.34	416.62
408.54	351.08
408.73	376.83
408.92	414.27
409.11	379.17
409.30	435.34
409.49	421.30
409.68	325.33
409.87	393.21
410.07	372.15
410.26	341.72
410.45	351.08
410.64	339.38
410.83	414.27
411.02	388.53
411.21	423.64
411.40	386.19
411.59	468.11
411.78	407.25
411.98	332.36
412.17	337.04
412.36	367.46
412.55	409.59
412.74	348.74
412.93	411.93
413.12	266.82
413.31	442.36
413.50	395.55
413.69	477.47
413.88	421.30
414.07	430.66
414.26	404.91
414.45	376.83
414.64	472.79
414.83	451.72
415.02	425.98
415.22	411.93
415.41	503.22
415.60	451.72
415.79	458.74
415.98	470.45
416.17	468.11
416.36	535.98
416.55	451.72
416.74	428.32
416.93	470.45
417.12	468.11
417.31	374.49
417.50	449.38
417.69	421.30
417.88	500.87
418.07	395.55
418.26	425.98
418.45	451.72
418.64	463.43
418.83	475.13
419.02	383.85
419.21	444.70
419.39	503.22
419.58	365.12
419.77	423.64
419.96	395.55
420.15	433.00
420.34	423.64
420.53	428.32
420.72	433.00
420.91	437.68
421.10	547.69
421.29	444.70
421.48	381.51
421.67	517.26
421.86	444.70
422.05	465.77
422.24	442.36
422.43	362.78
422.61	383.85
422.80	489.17
422.99	383.85
423.18	524.28
423.37	507.90
423.56	451.72
423.75	437.68
423.94	454.06
424.13	477.47
424.32	386.19
424.50	468.11
424.69	479.81
424.88	451.72
425.07	447.04
425.26	404.91
425.45	381.51
425.64	442.36
425.83	400.23
426.01	526.62
426.20	496.19
426.39	404.91
426.58	418.96
426.77	435.34
426.96	400.23
427.15	428.32
427.33	482.15
427.52	400.23
427.71	486.83
427.90	524.28
428.09	423.64
428.28	404.91
428.46	407.25
428.65	421.30
428.84	442.36
429.03	442.36
429.22	456.40
429.40	390.87
429.59	346.40
429.78	381.51
429.97	367.46
430.16	381.51
430.34	369.80
430.53	308.95
430.72	355.76
430.91	407.25
431.10	461.09
431.28	514.92
431.47	510.24
431.66	447.04
431.85	430.66
432.03	496.19
432.22	475.13
432.41	498.53
432.60	547.69
432.79	561.73
432.97	493.85
433.16	493.85
433.35	451.72
433.54	456.40
433.72	418.96
433.91	440.02
434.10	496.19
434.28	472.79
434.47	552.37
434.66	517.26
434.85	564.07
435.03	695.14
435.22	1420.71
435.41	2525.44
435.59	2579.27
435.78	1961.37
435.97	1193.67
436.16	767.70
436.34	620.24
436.53	638.97
436.72	533.64
436.90	496.19
437.09	535.98
437.28	425.98
437.46	510.24
437.65	559.39
437.84	484.49
438.02	468.11
438.21	550.03
438.40	411.93
438.58	486.83
438.77	491.51
438.96	526.62
439.14	463.43
439.33	559.39
439.52	545.34
439.70	526.62
439.89	498.53
440.08	554.71
440.26	571.09
440.45	564.07
440.63	653.01
440.82	547.69
441.01	568.75
441.19	592.16
441.38	540.66
441.57	554.71
441.75	664.71
441.94	610.88
442.12	561.73
442.31	477.47
442.50	489.17
442.68	552.37
442.87	547.69
443.05	535.98
443.24	517.26
443.43	648.33
443.61	559.39
443.80	650.67
443.98	545.34
444.17	479.81
444.35	599.18
444.54	582.79
444.73	601.52
444.91	599.18
445.10	545.34
445.28	479.81
445.47	510.24
445.65	533.64
445.84	547.69
446.02	547.69
446.21	543.00
446.39	669.39
446.58	601.52
446.77	615.56
446.95	519.60
447.14	580.45
447.32	589.82
447.51	552.37
447.69	533.64
447.88	552.37
448.06	685.78
448.25	538.32
448.43	580.45
448.62	561.73
448.80	575.77
448.99	706.84
449.17	531.30
449.36	643.65
449.54	573.43
449.73	589.82
449.91	667.05
450.10	599.18
450.28	620.24
450.46	739.61
450.65	638.97
450.83	645.99
451.02	631.94
451.20	629.60
451.39	662.37
451.57	636.63
451.76	580.45
451.94	531.30
452.13	566.41
452.31	568.75
452.49	638.97
452.68	594.50
452.86	564.07
453.05	587.47
453.23	627.26
453.42	627.26
453.60	650.67
453.78	627.26
453.97	636.63
454.15	615.56
454.34	606.20
454.52	589.82
454.70	573.43
454.89	615.56
455.07	547.69
455.26	685.78
455.44	620.24
455.62	667.05
455.81	648.33
455.99	634.29
456.17	660.03
456.36	596.84
456.54	664.71
456.73	603.86
456.91	638.97
457.09	636.63
457.28	627.26
457.46	685.78
457.64	709.18
457.83	585.13
458.01	608.54
458.19	648.33
458.38	587.47
458.56	720.88
458.74	580.45
458.93	617.90
459.11	638.97
459.29	547.69
459.48	676.41
459.66	645.99
459.84	706.84
460.03	727.91
460.21	683.44
460.39	610.88
460.57	709.18
460.76	695.14
460.94	683.44
461.12	802.80
461.31	660.03
461.49	599.18
461.67	641.31
461.85	608.54
462.04	552.37
462.22	1149.20
462.40	643.65
462.59	650.67
462.77	634.29
462.95	657.69
463.13	653.01
463.32	648.33
463.50	681.10
463.68	622.58
463.86	655.35
464.05	631.94
464.23	629.60
464.41	629.60
464.59	573.43
464.78	587.47
464.96	582.79
465.14	638.97
465.32	589.82
465.50	655.35
465.69	655.35
465.87	575.77
466.05	608.54
466.23	620.24
466.41	664.71
466.60	690.46
466.78	554.71
466.96	692.80
467.14	676.41
467.32	664.71
467.51	671.73
467.69	608.54
467.87	667.05
468.05	674.07
468.23	725.57
468.41	617.90
468.60	671.73
468.78	706.84
468.96	603.86
469.14	725.57
469.32	676.41
469.50	624.92
469.69	629.60
469.87	596.84
470.05	648.33
470.23	615.56
470.41	606.20
470.59	603.86
470.77	723.23
470.95	657.69
471.14	613.22
471.32	685.78
471.50	716.20
471.68	706.84
471.86	685.78
472.04	671.73
472.22	732.59
472.40	667.05
472.58	594.50
472.77	575.77
472.95	695.14
473.13	655.35
473.31	695.14
473.49	709.18
473.67	685.78
473.85	650.67
474.03	716.20
474.21	734.93
474.39	645.99
474.57	737.27
474.75	681.10
474.93	660.03
475.12	596.84
475.30	657.69
475.48	645.99
475.66	746.63
475.84	669.39
476.02	634.29
476.20	702.16
476.38	774.72
476.56	695.14
476.74	744.29
476.92	650.67
477.10	617.90
477.28	741.95
477.46	734.93
477.64	746.63
477.82	660.03
478.00	755.99
478.18	620.24
478.36	681.10
478.54	739.61
478.72	781.74
478.90	730.25
479.08	795.78
479.26	727.91
479.44	844.93
479.62	765.36
479.80	699.82
479.98	662.37
480.16	793.44
480.34	884.72
480.52	709.18
480.70	807.48
480.88	779.40
481.06	788.76
481.24	819.19
481.41	812.17
481.59	795.78
481.77	849.61
481.95	903.45
482.13	873.02
482.31	851.96
482.49	772.38
482.67	919.83
482.85	880.04
483.03	908.13
483.21	896.43
483.39	891.74
483.57	877.70
483.74	1022.81
483.92	922.17
484.10	870.68
484.28	910.47
484.46	978.34
484.64	919.83
484.82	947.92
485.00	964.30
485.18	1001.75
485.35	992.39
485.53	837.91
485.71	931.53
485.89	922.17
486.07	938.55
486.25	1018.13
486.43	1053.24
486.61	931.53
486.78	987.71
486.96	931.53
487.14	992.39
487.32	1025.15
487.50	1069.62
487.68	959.62
487.85	1142.18
488.03	1048.56
488.21	1029.84
488.39	1069.62
488.57	1034.52
488.75	976.00
488.92	1268.57
489.10	1146.86
489.28	1142.18
489.46	1125.80
489.64	1121.12
489.81	1203.04
489.99	1081.33
490.17	1149.20
490.35	1221.76
490.53	1114.10
490.70	983.02
490.88	1146.86
491.06	1069.62
491.24	1144.52
491.41	1181.97
491.59	1198.35
491.77	1011.11
491.95	1078.99
492.13	1020.47
492.30	1074.31
492.48	1116.44
492.66	1151.54
492.84	1200.69
493.01	1095.37
493.19	1125.80
493.37	1156.22
493.54	1053.24
493.72	1025.15
493.90	1198.35
494.08	1210.06
494.25	1111.75
494.43	1137.50
494.61	1247.51
494.79	1107.07
494.96	1137.50
495.14	1109.41
495.32	1090.69
495.49	1078.99
495.67	1128.14
495.85	1132.82
496.02	1146.86
496.20	1128.14
496.38	1214.74
496.55	1214.74
496.73	1210.06
496.91	1153.88
497.09	1179.63
497.26	1158.57
497.44	1100.05
497.62	1217.08
497.79	1186.65
497.97	1093.03
498.14	1212.40
498.32	1121.12
498.50	1193.67
498.67	1142.18
498.85	1217.08
499.03	1193.67
499.20	1196.01
499.38	1184.31
499.56	1163.25
499.73	1186.65
499.91	1100.05
500.08	1083.67
500.26	1107.07
500.44	1090.69
500.61	1069.62
500.79	1130.48
500.97	1020.47
501.14	1027.50
501.32	1107.07
501.49	1149.20
501.67	1111.75
501.84	1081.33
502.02	1053.24
502.20	1057.92
502.37	1156.22
502.55	1142.18
502.72	1111.75
502.90	1121.12
503.07	1156.22
503.25	1039.20
503.43	1025.15
503.60	933.87
503.78	1001.75
503.95	1090.69
504.13	1060.26
504.30	1111.75
504.48	1125.80
504.65	1100.05
504.83	1130.48
505.01	1128.14
505.18	1142.18
505.36	1170.27
505.53	1170.27
505.71	1139.84
505.88	1188.99
506.06	1121.12
506.23	1226.44
506.41	1083.67
506.58	1001.75
506.76	1163.25
506.93	1071.97
507.11	1233.46
507.28	1287.29
507.46	1071.97
507.63	1116.44
507.81	1100.05
507.98	1041.54
508.16	1151.54
508.33	1196.01
508.50	1107.07
508.68	1203.04
508.85	1181.97
509.03	1102.39
509.20	1172.61
509.38	1177.29
509.55	1163.25
509.73	1090.69
509.90	1137.50
510.08	1142.18
510.25	1158.57
510.42	1093.03
510.60	1139.84
510.77	1139.84
510.95	1226.44
511.12	1153.88
511.30	1203.04
511.47	1193.67
511.64	1193.67
511.82	1249.85
511.99	1125.80
512.17	1142.18
512.34	1181.97
512.51	1132.82
512.69	1170.27
512.86	1207.72
513.04	1121.12
513.21	1205.38
513.38	1254.53
513.56	1153.88
513.73	1050.90
513.90	1027.50
514.08	1050.90
514.25	1247.51
514.43	1111.75
514.60	1226.44
514.77	1090.69
514.95	1238.14
515.12	1170.27
515.29	1135.16
515.47	1191.33
515.64	1235.80
515.81	1196.01
515.99	1144.52
516.16	1116.44
516.33	1118.78
516.51	980.68
516.68	936.21
516.85	931.53
517.03	987.71
517.20	1032.18
517.37	1153.88
517.54	1041.54
517.72	1125.80
517.89	1020.47
518.06	983.02
518.24	1111.75
518.41	1104.73
518.58	1114.10
518.75	1027.50
518.93	1046.22
519.10	1181.97
519.27	1156.22
519.45	1130.48
519.62	1137.50
519.79	1090.69
519.96	1118.78
520.14	1149.20
520.31	1151.54
520.48	1224.10
520.65	1109.41
520.83	1277.93
521.00	1170.27
521.17	1153.88
521.34	1125.80
521.52	1135.16
521.69	1231.12
521.86	1212.40
522.03	1224.10
522.20	1144.52
522.38	1132.82
522.55	1167.93
522.72	1118.78
522.89	1130.48
523.07	1186.65
523.24	1179.63
523.41	1109.41
523.58	1212.40
523.75	1137.50
523.92	1156.22
524.10	1144.52
524.27	1132.82
524.44	1270.91
524.61	1284.95
524.78	1167.93
524.96	1174.95
525.13	1214.74
525.30	1198.35
525.47	1238.14
525.64	1235.80
525.81	1179.63
525.98	1174.95
526.16	1053.24
526.33	1018.13
526.50	990.05
526.67	992.39
526.84	966.64
527.01	1053.24
527.18	1135.16
527.36	1160.91
527.53	1142.18
527.70	1235.80
527.87	1128.14
528.04	1212.40
528.21	1196.01
528.38	1198.35
528.55	1317.72
528.72	1301.34
528.89	1270.91
529.07	1217.08
529.24	1181.97
529.41	1207.72
529.58	1144.52
529.75	1114.10
529.92	1144.52
530.09	1252.19
530.26	1114.10
530.43	1198.35
530.60	1198.35
530.77	1273.25
530.94	1266.23
531.11	1212.40
531.28	1235.80
531.46	1196.01
531.63	1221.76
531.80	1301.34
531.97	1207.72
532.14	1310.70
532.31	1245.16
532.48	1256.87
532.65	1104.73
532.82	1128.14
532.99	1174.95
533.16	1308.36
533.33	1385.60
533.50	1193.67
533.67	1242.82
533.84	1128.14
534.01	1291.98
534.18	1233.46
534.35	1210.06
534.52	1214.74
534.69	1261.55
534.86	1275.59
535.03	1317.72
535.20	1268.57
535.37	1394.96
535.54	1371.55
535.71	1308.36
535.88	1390.28
536.05	1364.53
536.22	1263.89
536.38	1280.27
536.55	1341.13
536.72	1343.47
536.89	1266.23
537.06	1514.33
537.23	1437.09
537.40	1427.73
537.57	1458.15
537.74	1554.12
537.91	1404.32
538.08	1451.13
538.25	1455.81
538.42	1493.26
538.59	1458.15
538.75	1526.03
538.92	1563.48
539.09	1526.03
539.26	1610.29
539.43	1647.74
539.60	1717.95
539.77	1834.98
539.94	1811.57
540.11	1809.23
540.28	1987.11
540.44	1989.46
540.61	2078.40
540.78	2303.09
540.95	2455.22
541.12	2724.38
541.29	2956.10
541.46	3070.78
541.62	3112.91
541.79	2986.52
541.96	2853.11
542.13	2881.20
542.30	2853.11
542.47	2750.13
542.63	2691.62
542.80	2703.32
542.97	2677.57
543.14	2558.21
543.31	2663.53
543.48	2745.45
543.64	2656.51
543.81	2679.91
543.98	2635.44
544.15	2670.55
544.32	2637.78
544.48	2696.30
544.65	2579.27
544.82	2605.02
544.99	2499.69
545.16	2670.55
545.32	2623.74
545.49	3513.14
545.66	5542.39
545.83	6478.60
546.00	5701.54
546.16	4147.43
546.33	3433.57
546.50	2733.75
546.67	2492.67
546.83	2197.76
547.00	2282.02
547.17	2143.93
547.34	2059.67
547.50	2078.40
547.67	1987.11
547.84	1928.60
548.00	1982.43
548.17	2022.22
548.34	1944.99
548.51	2050.31
548.67	2005.84
548.84	1959.03
549.01	1769.44
549.18	1900.52
549.34	1870.09
549.51	1799.87
549.68	1844.34
549.84	1708.59
550.01	1753.06
550.18	1724.97
550.34	1652.42
550.51	1605.61
550.68	1591.56
550.84	1563.48
551.01	1526.03
551.18	1554.12
551.34	1547.09
551.51	1390.28
551.68	1523.69
551.84	1526.03
552.01	1544.75
552.18	1497.94
552.34	1455.81
552.51	1411.34
552.68	1378.58
552.84	1418.36
553.01	1357.51
553.18	1390.28
553.34	1284.95
553.51	1228.78
553.67	1416.02
553.84	1366.87
554.01	1226.44
554.17	1306.02
554.34	1322.40
554.51	1179.63
554.67	1320.06
554.84	1277.93
555.00	1242.82
555.17	1226.44
555.33	1296.66
555.50	1282.61
555.67	1235.80
555.83	1107.07
556.00	1284.95
556.16	1336.45
556.33	1228.78
556.50	1188.99
556.66	1097.71
556.83	1062.60
556.99	1163.25
557.16	1132.82
557.32	1100.05
557.49	1128.14
557.65	1240.48
557.82	1156.22
557.98	1200.69
558.15	1062.60
558.32	1100.05
558.48	1125.80
558.65	1095.37
558.81	1109.41
558.98	1039.20
559.14	1191.33
559.31	1088.35
559.47	1156.22
559.64	1174.95
559.80	1144.52
559.97	1135.16
560.13	1203.04
560.30	1116.44
560.46	1139.84
560.63	1086.01
560.79	1107.07
560.96	1188.99
561.12	1078.99
561.29	1139.84
561.45	1104.73
561.61	1053.24
561.78	1177.29
561.94	1034.52
562.11	1207.72
562.27	1111.75
562.44	1053.24
562.60	1200.69
562.77	1100.05
562.93	1100.05
563.10	1132.82
563.26	1043.88
563.42	1170.27
563.59	1102.39
563.75	1139.84
563.92	1151.54
564.08	1128.14
564.24	1158.57
564.41	1167.93
564.57	1039.20
564.74	1144.52
564.90	1078.99
565.07	1104.73
565.23	1074.31
565.39	945.58
565.56	973.66
565.72	1060.26
565.88	978.34
566.05	1029.84
566.21	1034.52
566.38	1130.48
566.54	1076.65
566.70	954.94
566.87	1034.52
567.03	1027.50
567.19	1121.12
567.36	1090.69
567.52	1029.84
567.68	1015.79
567.85	1062.60
568.01	1025.15
568.17	1078.99
568.34	1090.69
568.50	1036.86
568.66	1006.43
568.83	1158.57
568.99	978.34
569.15	1041.54
569.32	1130.48
569.48	1055.58
569.64	905.79
569.81	1074.31
569.97	1071.97
570.13	990.05
570.30	983.02
570.46	980.68
570.62	933.87
570.78	973.66
570.95	1008.77
571.11	1036.86
571.27	990.05
571.43	1107.07
571.60	968.98
571.76	1027.50
571.92	943.24
572.09	1111.75
572.25	1046.22
572.41	1137.50
572.57	1064.94
572.74	1060.26
572.90	1046.22
573.06	1081.33
573.22	1078.99
573.38	1088.35
573.55	1001.75
573.71	1149.20
573.87	1025.15
574.03	1015.79
574.20	1100.05
574.36	1015.79
574.52	1029.84
574.68	973.66
574.84	968.98
575.01	966.64
575.17	990.05
575.33	929.19
575.49	1039.20
575.65	1027.50
575.82	1048.56
575.98	1004.09
576.14	1078.99
576.30	1118.78
576.46	1535.39
576.62	1839.66
576.79	1989.46
576.95	1703.91
577.11	1387.94
577.27	1277.93
577.43	1109.41
577.59	1144.52
577.75	1043.88
577.92	1034.52
578.08	912.81
578.24	959.62
578.40	1226.44
578.56	1521.35
578.72	1809.23
578.88	1788.17
579.04	1631.35
579.21	1416.02
579.37	1355.17
579.53	1184.31
579.69	1273.25
579.85	1313.04
580.01	1401.98
580.17	1364.53
580.33	1287.29
580.49	1151.54
580.65	1266.23
580.82	1247.51
580.98	1270.91
581.14	1200.69
581.30	1252.19
581.46	1287.29
581.62	1329.42
581.78	1238.14
581.94	1338.79
582.10	1338.79
582.26	1352.83
582.42	1352.83
582.58	1303.68
582.74	1352.83
582.90	1352.83
583.06	1336.45
583.22	1310.70
583.38	1345.81
583.54	1380.92
583.70	1376.24
583.86	1327.08
584.02	1249.85
584.18	1371.55
584.34	1324.74
584.50	1390.28
584.66	1289.64
584.82	1320.06
584.98	1317.72
585.14	1235.80
585.30	1315.38
585.46	1177.29
585.62	1179.63
585.78	1217.08
585.94	1341.13
586.10	1221.76
586.26	1273.25
586.42	1352.83
586.58	1338.79
586.74	1483.90
586.90	1514.33
587.06	1598.59
587.22	1549.43
587.38	1493.26
587.54	1371.55
587.70	1430.07
587.86	1224.10
588.02	1181.97
588.18	1132.82
588.34	1121.12
588.49	903.45
588.65	1053.24
588.81	882.38
588.97	999.41
589.13	915.15
589.29	931.53
589.45	870.68
589.61	1027.50
589.77	980.68
589.93	1001.75
590.08	1034.52
590.24	1055.58
590.40	1076.65
590.56	1086.01
590.72	1095.37
590.88	1041.54
591.04	1132.82
591.20	999.41
591.35	1153.88
591.51	1071.97
591.67	1121.12
591.83	1060.26
591.99	1184.31
592.15	1252.19
592.31	1296.66
592.46	1310.70
592.62	1336.45
592.78	1371.55
592.94	1343.47
593.10	1277.93
593.26	1355.17
593.41	1214.74
593.57	1245.16
593.73	1263.89
593.89	1137.50
594.05	1020.47
594.20	957.28
594.36	1015.79
594.52	936.21
594.68	1015.79
594.84	1018.13
594.99	1090.69
595.15	1032.18
595.31	978.34
595.47	1088.35
595.62	950.26
595.78	983.02
595.94	1001.75
596.10	1062.60
596.25	987.71
596.41	1022.81
596.57	936.21
596.73	947.92
596.88	938.55
597.04	971.32
597.20	978.34
597.36	1004.09
597.51	980.68
597.67	990.05
597.83	990.05
597.99	1011.11
598.14	987.71
598.30	1060.26
598.46	1146.86
598.61	1130.48
598.77	1123.46
598.93	1142.18
599.09	1200.69
599.24	1240.48
599.40	1224.10
599.56	1116.44
599.71	1167.93
599.87	1130.48
600.03	990.05
600.18	1071.97
600.34	1050.90
600.50	987.71
600.65	1008.77
600.81	1067.28
600.97	1025.15
601.12	1071.97
601.28	999.41
601.44	889.40
601.59	1004.09
601.75	985.37
601.91	992.39
602.06	968.98
602.22	987.71
602.37	1027.50
602.53	1008.77
602.69	1062.60
602.84	957.28
603.00	966.64
603.16	1050.90
603.31	952.60
603.47	999.41
603.62	910.47
