SpectraSuite Data File
++++++++++++++++++++++++++++++++++++
Date: Fri Oct 04 11:39:34 GMT-05:00 2013
User: price-jones
Dark Spectrum Present: No
Reference Spectrum Present: No
Number of Sampled Component Spectra: 1
Spectrometers: USB2+H05261
Integration Time (usec): 100000 (USB2+H05261)
Spectra Averaged: 1 (USB2+H05261)
Boxcar Smoothing: 0 (USB2+H05261)
Correct for Electrical Dark: No (USB2+H05261)
Strobe/Lamp Enabled: No (USB2+H05261)
Correct for Detector Non-linearity: No (USB2+H05261)
Correct for Stray Light: No (USB2+H05261)
Number of Pixels in Processed Spectrum: 2048
>>>>>Begin Processed Spectral Data<<<<<
365.73	32.77
365.92	32.77
366.12	32.77
366.32	9.36
366.52	0.00
366.72	0.00
366.91	0.00
367.11	0.00
367.31	0.00
367.51	0.00
367.70	0.00
367.90	0.00
368.10	0.00
368.30	0.00
368.49	0.00
368.69	0.00
368.89	0.00
369.09	0.00
369.28	0.00
369.48	0.00
369.68	0.00
369.87	0.00
370.07	0.00
370.27	121.71
370.47	7.02
370.66	67.88
370.86	133.41
371.06	168.52
371.25	241.08
371.45	224.69
371.65	224.69
371.84	154.48
372.04	86.60
372.24	170.86
372.44	245.76
372.63	227.03
372.83	217.67
373.03	163.84
373.22	180.22
373.42	238.73
373.62	243.42
373.81	241.08
374.01	250.44
374.21	273.84
374.40	198.95
374.60	229.37
374.79	205.97
374.99	287.89
375.19	327.68
375.38	243.42
375.58	231.71
375.78	250.44
375.97	245.76
376.17	234.05
376.37	250.44
376.56	304.27
376.76	259.80
376.95	241.08
377.15	238.73
377.35	262.14
377.54	294.91
377.74	290.23
377.93	252.78
378.13	210.65
378.33	374.49
378.52	266.82
378.72	187.24
378.91	259.80
379.11	203.63
379.31	322.99
379.50	154.48
379.70	280.86
379.89	245.76
380.09	152.13
380.28	259.80
380.48	252.78
380.68	280.86
380.87	205.97
381.07	259.80
381.26	332.36
381.46	304.27
381.65	276.18
381.85	299.59
382.04	236.39
382.24	285.55
382.43	344.06
382.63	313.63
382.83	276.18
383.02	248.10
383.22	255.12
383.41	175.54
383.61	208.31
383.80	170.86
384.00	301.93
384.19	292.57
384.39	241.08
384.58	273.84
384.78	327.68
384.97	351.08
385.17	285.55
385.36	276.18
385.56	348.74
385.75	280.86
385.95	299.59
386.14	252.78
386.34	311.29
386.53	250.44
386.72	287.89
386.92	346.40
387.11	334.70
387.31	280.86
387.50	294.91
387.70	332.36
387.89	236.39
388.09	294.91
388.28	400.23
388.48	231.71
388.67	337.04
388.86	341.72
389.06	337.04
389.25	315.97
389.45	299.59
389.64	397.89
389.84	402.57
390.03	341.72
390.22	264.48
390.42	327.68
390.61	299.59
390.81	358.10
391.00	355.76
391.19	355.76
391.39	353.42
391.58	327.68
391.78	351.08
391.97	388.53
392.16	376.83
392.36	416.62
392.55	411.93
392.75	437.68
392.94	418.96
393.13	449.38
393.33	435.34
393.52	437.68
393.71	456.40
393.91	369.80
394.10	379.17
394.29	458.74
394.49	365.12
394.68	465.77
394.88	535.98
395.07	461.09
395.26	442.36
395.46	367.46
395.65	507.90
395.84	463.43
396.04	507.90
396.23	521.94
396.42	414.27
396.62	568.75
396.81	491.51
397.00	526.62
397.19	531.30
397.39	409.59
397.58	622.58
397.77	589.82
397.97	631.94
398.16	585.13
398.35	550.03
398.55	627.26
398.74	599.18
398.93	578.11
399.12	498.53
399.32	589.82
399.51	564.07
399.70	638.97
399.90	557.05
400.09	669.39
400.28	671.73
400.47	603.86
400.67	744.29
400.86	627.26
401.05	592.16
401.24	758.33
401.44	718.54
401.63	763.01
401.82	669.39
402.01	725.57
402.21	837.91
402.40	734.93
402.59	805.14
402.78	786.42
402.97	720.88
403.17	837.91
403.36	802.80
403.55	781.74
403.74	823.87
403.93	887.06
404.13	870.68
404.32	877.70
404.51	835.57
404.70	884.72
404.89	884.72
405.09	992.39
405.28	898.77
405.47	968.98
405.66	945.58
405.85	950.26
406.05	957.28
406.24	966.64
406.43	1029.84
406.62	1006.43
406.81	1076.65
407.00	922.17
407.20	978.34
407.39	959.62
407.58	1118.78
407.77	1086.01
407.96	1196.01
408.15	1224.10
408.34	1116.44
408.54	1088.35
408.73	1146.86
408.92	1139.84
409.11	1191.33
409.30	1280.27
409.49	1294.32
409.68	1261.55
409.87	1301.34
410.07	1322.40
410.26	1282.61
410.45	1341.13
410.64	1380.92
410.83	1317.72
411.02	1329.42
411.21	1458.15
411.40	1495.60
411.59	1439.43
411.78	1380.92
411.98	1432.41
412.17	1502.62
412.36	1586.88
412.55	1605.61
412.74	1596.25
412.93	1715.61
413.12	1607.95
413.31	1673.48
413.50	1619.65
413.69	1610.29
413.88	1785.83
414.07	1741.36
414.26	1699.23
414.45	1703.91
414.64	1734.34
414.83	1867.75
415.02	1937.96
415.22	1865.41
415.41	2003.50
415.60	1944.99
415.79	1909.88
415.98	1984.77
416.17	1900.52
416.36	1975.41
416.55	2019.88
416.74	2031.58
416.93	2078.40
417.12	2127.55
417.31	2054.99
417.50	2157.97
417.69	2321.81
417.88	2160.31
418.07	2214.15
418.26	2190.74
418.45	2193.08
418.64	2286.70
418.83	2307.77
419.02	2200.10
419.21	2457.56
419.39	2216.49
419.58	2342.88
419.77	2380.32
419.96	2450.54
420.15	2525.44
420.34	2410.75
420.53	2497.35
420.72	2499.69
420.91	2595.65
421.10	2497.35
421.29	2497.35
421.48	2581.61
421.67	2612.04
421.86	2551.18
422.05	2619.06
422.24	2583.95
422.43	2656.51
422.61	2562.89
422.80	2724.38
422.99	2808.64
423.18	2623.74
423.37	2675.23
423.56	2698.64
423.75	2593.31
423.94	2588.63
424.13	2537.14
424.32	2597.99
424.50	2757.15
424.69	2724.38
424.88	2686.94
425.07	2745.45
425.26	2705.66
425.45	2677.57
425.64	2703.32
425.83	2607.36
426.01	2820.35
426.20	2754.81
426.39	2785.24
426.58	2724.38
426.77	2693.96
426.96	2771.19
427.15	2729.06
427.33	2888.22
427.52	2850.77
427.71	2913.97
427.90	2822.69
428.09	2855.45
428.28	2862.48
428.46	2883.54
428.65	3019.29
428.84	3033.33
429.03	3002.91
429.22	2998.23
429.40	3047.38
429.59	3021.63
429.78	3000.57
429.97	2932.69
430.16	2923.33
430.34	3157.38
430.53	3115.25
430.72	3173.77
430.91	3166.74
431.10	3084.83
431.28	3239.30
431.47	3150.36
431.66	3204.19
431.85	3274.41
432.03	3412.50
432.22	3201.85
432.41	3344.63
432.60	3332.92
432.79	3267.39
432.97	3328.24
433.16	3295.47
433.35	3248.66
433.54	3330.58
433.72	3379.73
433.91	3386.76
434.10	3389.10
434.28	3358.67
434.47	3438.25
434.66	3445.27
434.85	3372.71
435.03	3609.11
435.22	3700.39
435.41	4011.68
435.59	3754.22
435.78	3866.56
435.97	3618.47
436.16	3637.19
436.34	3616.13
436.53	3552.93
436.72	3728.47
436.90	3620.81
437.09	3660.60
437.28	3646.55
437.46	3620.81
437.65	3702.73
437.84	3819.75
438.02	3791.67
438.21	3768.26
438.40	3740.18
438.58	3896.99
438.77	3878.27
438.96	3948.48
439.14	3995.29
439.33	4072.53
439.52	4014.02
439.70	4056.15
439.89	4222.33
440.08	4229.35
440.26	4091.26
440.45	4119.34
440.63	4159.13
440.82	4194.24
441.01	4119.34
441.19	4219.99
441.38	4393.19
441.57	4264.46
441.75	4292.54
441.94	4451.70
442.12	4461.06
442.31	4505.53
442.50	4486.81
442.68	4404.89
442.87	4416.59
443.05	4557.02
443.24	4432.97
443.43	4599.15
443.61	4622.56
443.80	4578.09
443.98	4578.09
444.17	4372.12
444.35	4585.11
444.54	4706.82
444.73	4585.11
444.91	4540.64
445.10	4648.30
445.28	4535.96
445.47	4620.22
445.65	4643.62
445.84	4657.67
446.02	4767.67
446.21	4723.20
446.39	4594.47
446.58	4713.84
446.77	4676.39
446.95	4704.48
447.14	4627.24
447.32	4903.42
447.51	4606.17
447.69	4800.44
447.88	4781.71
448.06	4777.03
448.25	4695.11
448.43	4720.86
448.62	4805.12
448.80	4770.01
448.99	4837.89
449.17	4940.87
449.36	4718.52
449.54	4975.98
449.73	4929.17
449.91	4919.81
450.10	5125.77
450.28	4922.15
450.46	4898.74
450.65	5041.51
450.83	5114.07
451.02	5132.79
451.20	5322.38
451.39	5186.63
451.57	5090.67
451.76	5193.65
451.94	4985.34
452.13	5270.89
452.31	5107.05
452.49	4926.83
452.68	5146.84
452.86	5121.09
453.05	5238.12
453.23	5219.39
453.42	5338.76
453.60	5212.37
453.78	5310.68
453.97	5259.18
454.15	5228.76
454.34	5284.93
454.52	5408.98
454.70	5406.64
454.89	5441.75
455.07	5313.02
455.26	5586.86
455.44	5481.53
455.62	5605.58
455.81	5636.01
455.99	5418.34
456.17	5673.46
456.36	5593.88
456.54	5671.12
456.73	5633.67
456.91	6071.35
457.09	5746.02
457.28	5710.91
457.46	5734.31
457.64	5849.00
457.83	5818.57
458.01	5673.46
458.19	5888.79
458.38	5926.24
458.56	6225.82
458.74	5877.09
458.93	5907.51
459.11	6080.71
459.29	5923.90
459.48	6076.03
459.66	6017.52
459.84	6047.94
460.03	6237.53
460.21	6101.78
460.39	6022.20
460.57	6052.63
460.76	6108.80
460.94	6300.72
461.12	6127.52
461.31	6277.32
461.49	6282.00
461.67	6043.26
461.85	6431.79
462.04	6317.11
462.22	6520.73
462.40	6251.57
462.59	6539.46
462.77	6279.66
462.95	6396.68
463.13	6420.09
463.32	6335.83
463.50	6384.98
463.68	6623.72
463.86	6473.92
464.05	6406.05
464.23	6445.84
464.41	6621.38
464.59	6520.73
464.78	6740.74
464.96	6731.38
465.14	6373.28
465.32	6820.32
465.50	6808.62
465.69	6799.26
465.87	6743.08
466.05	6902.24
466.23	6534.78
466.41	6677.55
466.60	6867.13
466.78	6825.00
466.96	6843.73
467.14	6736.06
467.32	6803.94
467.51	6942.03
467.69	6724.36
467.87	6806.28
468.05	6981.82
468.23	6930.33
468.41	6935.01
468.60	6937.35
468.78	7101.19
468.96	6810.96
469.14	6977.14
469.32	7033.31
469.50	6759.47
469.69	7222.89
469.87	7377.37
470.05	7311.83
470.23	7229.91
470.41	7243.96
470.59	7449.93
470.77	7190.13
470.95	7250.98
471.14	7503.76
471.32	7314.17
471.50	7555.25
471.68	7417.16
471.86	7639.51
472.04	7541.21
472.22	7728.45
472.40	7555.25
472.58	7573.97
472.77	7838.45
472.95	7824.41
473.13	7925.05
473.31	7765.90
473.49	7749.51
473.67	7623.12
473.85	7988.25
474.03	8168.47
474.21	8021.02
474.39	8042.08
474.57	8198.90
474.75	8072.51
474.93	8119.32
475.12	8058.46
475.30	8257.41
475.48	8311.24
475.66	8315.92
475.84	8517.21
476.02	8353.37
476.20	8428.27
476.38	8659.98
476.56	8566.36
476.74	8739.56
476.92	8814.46
477.10	8667.00
477.28	8781.69
477.46	8575.72
477.64	8812.12
477.82	8912.76
478.00	9046.17
478.18	9205.33
478.36	9312.99
478.54	9432.36
478.72	9371.50
478.90	9514.28
479.08	9317.67
479.26	9692.16
479.44	9542.36
479.62	9715.56
479.80	9584.49
479.98	9870.04
480.16	9987.07
480.34	9991.75
480.52	9914.51
480.70	10038.56
480.88	9949.62
481.06	10059.62
481.24	10286.65
481.41	10214.10
481.59	10501.98
481.77	10483.26
481.95	10469.22
482.13	10834.34
482.31	10731.36
482.49	10920.94
482.67	10902.22
482.85	11337.56
483.03	11344.58
483.21	11213.51
483.39	11529.48
483.57	11506.07
483.74	11632.46
483.92	11705.02
484.10	11426.50
484.28	11805.66
484.46	12301.86
484.64	12142.70
484.82	11861.84
485.00	11791.62
485.18	12655.28
485.35	12524.21
485.53	12491.44
485.71	12533.57
485.89	12774.64
486.07	12879.97
486.25	12720.81
486.43	13011.04
486.61	13132.75
486.78	13109.34
486.96	12961.89
487.14	13207.64
487.32	13380.84
487.50	13481.49
487.68	13575.11
487.85	13652.34
488.03	13832.57
488.21	14059.60
488.39	14064.28
488.57	13811.50
488.75	14157.90
488.92	14541.75
489.10	14490.26
489.28	14532.39
489.46	14750.06
489.64	14516.00
489.81	14899.85
489.99	14925.60
490.17	15136.24
490.35	15346.89
490.53	15335.19
490.70	15428.81
490.88	15606.69
491.06	15662.86
491.24	15489.67
491.41	15721.38
491.59	16152.04
491.77	15672.23
491.95	16081.82
492.13	16173.10
492.30	16135.65
492.48	15967.13
492.66	16105.23
492.84	16397.79
493.01	16395.45
493.19	16322.90
493.37	16840.15
493.54	16650.57
493.72	17083.57
493.90	17076.55
494.08	17046.12
494.25	17420.61
494.43	17343.37
494.61	17352.73
494.79	17401.88
494.96	17666.36
495.14	17980.00
495.32	17912.12
495.49	17795.09
495.67	18118.09
495.85	18029.15
496.02	18267.88
496.20	18195.32
496.38	18101.70
496.55	18342.78
496.73	18850.67
496.91	18279.58
497.09	18831.95
497.26	18897.49
497.44	18845.99
497.62	18782.80
497.79	19176.01
497.97	19215.80
498.14	19721.35
498.32	19433.47
498.50	19300.06
498.67	19833.70
498.85	19658.16
499.03	20039.67
499.20	19700.29
499.38	19775.19
499.56	20128.61
499.73	19896.89
499.91	20421.17
500.08	20505.43
500.26	20149.67
500.44	20353.30
500.61	20311.17
500.79	20229.25
500.97	20521.82
501.14	20552.24
501.32	20933.75
501.49	20624.80
501.67	20608.42
501.84	20978.22
502.02	20940.77
502.20	21312.92
502.37	21076.52
502.55	21003.97
502.72	21383.13
502.90	21090.57
503.07	21263.77
503.25	21355.05
503.43	21603.14
503.60	21722.51
503.78	21884.01
503.95	21694.43
504.13	21556.33
504.30	21895.71
504.48	21947.20
504.65	22092.32
504.83	22380.20
505.01	22422.33
505.18	22092.32
505.36	22471.48
505.53	22607.23
505.71	22242.11
505.88	22724.26
506.06	22256.15
506.23	22923.21
506.41	22698.52
506.58	22829.59
506.76	22932.57
506.93	22824.90
507.11	22948.95
507.28	22885.76
507.46	23007.47
507.63	23030.87
507.81	23550.47
507.98	23204.07
508.16	23400.68
508.33	23679.20
508.50	23702.61
508.68	23328.12
508.85	23967.09
509.03	23901.55
509.20	24011.56
509.38	24060.71
509.55	24290.08
509.73	24414.13
509.90	24086.45
510.08	24175.39
510.25	24095.82
510.42	24374.34
510.60	24561.58
510.77	24474.98
510.95	24474.98
511.12	24142.63
511.30	24482.00
511.47	24643.50
511.64	24812.02
511.82	25025.01
511.99	24875.21
512.17	25315.23
512.34	25149.06
512.51	25120.97
512.69	25467.37
512.86	25376.09
513.04	25415.88
513.21	25546.95
513.38	25699.08
513.56	25731.85
513.73	25511.84
513.90	25394.81
514.08	25858.24
514.25	26099.31
514.43	26251.45
514.60	26214.00
514.77	25832.49
514.95	26551.04
515.12	25912.07
515.29	25923.77
515.47	26649.34
515.64	26541.68
515.81	26536.99
515.99	26799.13
516.16	26342.73
516.33	26960.63
516.51	27030.85
516.68	26490.18
516.85	26504.23
517.03	26628.27
517.20	26969.99
517.37	27037.87
517.54	26948.93
517.72	27346.82
517.89	26780.41
518.06	26969.99
518.24	27307.03
518.41	27229.79
518.58	27323.41
518.75	27407.67
518.93	27688.54
519.10	27470.87
519.27	27346.82
519.45	27707.26
519.62	27674.49
519.79	27503.64
519.96	27695.56
520.14	28002.17
520.31	28006.85
520.48	27751.73
520.65	27812.59
520.83	28203.46
521.00	28151.96
521.17	28194.09
521.34	28156.64
521.52	28481.98
521.69	28584.96
521.86	28423.47
522.03	28449.21
522.20	28603.69
522.38	28755.82
522.55	28643.48
522.72	28809.65
522.89	29008.60
523.07	29214.57
523.24	28460.91
523.41	29078.82
523.58	28978.17
523.75	28945.41
523.92	29024.98
524.10	29408.83
524.27	29528.20
524.44	29586.71
524.61	29628.84
524.78	29460.32
524.96	29275.42
525.13	29731.83
525.30	29567.99
525.47	29811.40
525.64	29991.62
525.81	30000.99
525.98	30176.53
526.16	29930.77
526.33	30096.95
526.50	30265.47
526.67	30082.91
526.84	29855.87
527.01	29961.20
527.18	30031.41
527.36	30258.45
527.53	30515.90
527.70	30562.72
527.87	30242.06
528.04	30328.66
528.21	30754.64
528.38	30480.80
528.55	30417.60
528.72	30532.29
528.89	30670.38
529.07	30656.34
529.24	30614.21
529.41	30988.69
529.58	31005.08
529.75	31075.29
529.92	31255.51
530.09	31206.36
530.26	31065.93
530.43	31449.78
530.60	31028.48
530.77	31096.36
530.94	31433.39
531.11	31337.43
531.28	31292.96
531.46	31126.78
531.63	31328.07
531.80	31428.71
531.97	31744.69
532.14	31665.11
532.31	31484.89
532.48	32165.98
532.65	31608.93
532.82	31431.05
532.99	31999.80
533.16	31573.83
533.33	31828.95
533.50	32315.78
533.67	32074.70
533.84	31831.29
534.01	31927.25
534.18	31903.84
534.35	31580.85
534.52	32299.39
534.69	32720.69
534.86	32261.94
535.03	32126.19
535.20	32456.21
535.37	32404.72
535.54	32278.33
535.71	31983.42
535.88	32535.79
536.05	32570.90
536.22	32863.46
536.38	32994.53
536.55	32985.17
536.72	32821.33
536.89	32393.01
537.06	32814.31
537.23	32666.86
537.40	32865.80
537.57	32884.53
537.74	33394.76
537.91	33294.12
538.08	33074.11
538.25	33268.37
538.42	33029.64
538.59	33343.27
538.75	33333.91
538.92	33085.81
539.09	33645.20
539.26	33266.03
539.43	33425.19
539.60	33312.84
539.77	33673.29
539.94	33362.00
540.11	33495.41
540.28	33624.14
540.44	33469.66
540.61	33652.22
540.78	33710.74
540.95	34209.27
541.12	33825.42
541.29	34071.18
541.46	34031.39
541.62	34352.04
541.79	34347.36
541.96	34075.86
542.13	34237.36
542.30	34258.42
542.47	34553.33
542.63	34476.09
542.80	34787.38
542.97	34904.41
543.14	34838.87
543.31	34763.98
543.48	34391.83
543.64	35157.19
543.81	34691.42
543.98	35007.39
544.15	35040.16
544.32	35253.15
544.48	35171.23
544.65	35068.25
544.82	35068.25
544.99	34410.56
545.16	35250.81
545.32	34892.71
545.49	35737.64
545.66	35805.52
545.83	36313.41
546.00	36194.04
546.16	35309.32
546.33	35014.41
546.50	34724.19
546.67	35356.13
546.83	35079.95
547.00	34899.73
547.17	35093.99
547.34	35435.71
547.50	35009.73
547.67	35538.69
547.84	35505.93
548.00	35768.07
548.17	36100.42
548.34	35910.84
548.51	35342.09
548.67	35449.75
548.84	35683.81
549.01	35681.47
549.18	35360.81
549.34	35976.37
549.51	35447.41
549.68	35346.77
549.84	35896.80
550.01	35590.19
550.18	35342.09
550.34	35756.36
550.51	36107.44
550.68	35662.74
550.84	35344.43
551.01	35658.06
551.18	35278.89
551.34	35445.07
551.51	35803.17
551.68	35967.01
551.84	36140.21
552.01	35852.33
552.18	35566.78
552.34	35983.40
552.51	36112.13
552.68	35751.68
552.84	35428.69
553.01	35587.85
553.18	36070.00
553.34	35826.58
553.51	36140.21
553.67	36542.78
553.84	36320.43
554.01	36362.56
554.17	36252.56
554.34	35976.37
554.51	36236.17
554.67	35847.64
554.84	36123.83
555.00	36259.58
555.17	36353.20
555.33	36563.85
555.50	36400.01
555.67	36240.86
555.83	36112.13
556.00	36304.05
556.16	36788.54
556.33	36297.03
556.50	36376.61
556.66	36617.68
556.83	36362.56
556.99	36980.46
557.16	36664.49
557.32	36531.08
557.49	36538.10
557.65	36121.49
557.82	36655.13
557.98	36556.83
558.15	36362.56
558.32	36692.58
558.48	36713.64
558.65	36985.15
558.81	36957.06
558.98	36659.81
559.14	36535.76
559.31	36816.63
559.47	36404.69
559.64	36769.82
559.80	36737.05
559.97	37043.66
560.13	37067.06
560.30	36793.22
560.46	37186.43
560.63	36952.38
560.79	36877.48
560.96	36755.77
561.12	36737.05
561.29	36701.94
561.45	37179.41
561.61	37022.59
561.78	37060.04
561.94	37326.86
562.11	37104.51
562.27	36992.17
562.44	36849.39
562.60	36950.04
562.77	36879.82
562.93	36842.37
563.10	37163.03
563.26	37027.28
563.42	37371.33
563.59	37230.90
563.75	37275.37
563.92	36994.51
564.08	37106.85
564.24	37188.77
564.41	36816.63
564.57	37347.93
564.74	37055.36
564.90	37102.17
565.07	37081.11
565.23	37118.56
565.39	37181.75
565.56	37230.90
565.72	37055.36
565.88	36898.55
566.05	36889.18
566.21	36828.33
566.38	36957.06
566.54	37308.14
566.70	37366.65
566.87	37986.89
567.03	37401.76
567.19	37717.73
567.36	37558.58
567.52	37205.16
567.68	37361.97
567.85	37076.43
568.01	37258.99
568.17	37263.67
568.34	37537.51
568.50	37109.19
568.66	37310.48
568.83	37574.96
568.99	37158.34
569.15	37069.40
569.32	37132.60
569.48	36683.22
569.64	37626.45
569.81	37280.05
569.97	37308.14
570.13	37624.11
570.30	37612.41
570.46	37390.06
570.62	37364.31
570.78	37179.41
570.95	37160.69
571.11	37727.10
571.27	37600.71
571.43	37563.26
571.60	37137.28
571.76	37682.62
571.92	37523.47
572.09	37787.95
572.25	37851.14
572.41	37137.28
572.57	37635.81
572.74	37825.40
572.90	36858.76
573.06	37727.10
573.22	37776.25
573.38	37153.66
573.55	37982.21
573.71	37734.12
573.87	37607.73
574.03	37460.27
574.20	37670.92
574.36	37104.51
574.52	37303.46
574.68	37132.60
574.84	37289.42
575.01	37523.47
575.17	37708.37
575.33	37317.50
575.49	37373.67
575.65	37661.56
575.82	37462.61
575.98	37766.88
576.14	37523.47
576.30	37565.60
576.46	37659.22
576.62	37598.37
576.79	37813.70
576.95	37310.48
577.11	37567.94
577.27	37614.75
577.43	37251.97
577.59	37589.00
577.75	37701.35
577.92	37254.31
578.08	37631.13
578.24	37493.04
578.40	37085.79
578.56	37661.56
578.72	37628.79
578.88	37907.32
579.04	38120.31
579.21	37897.95
579.37	37762.20
579.53	38047.75
579.69	37684.97
579.85	37156.00
580.01	37493.04
580.17	37450.91
580.33	37720.07
580.49	37579.64
580.65	37883.91
580.82	37804.33
580.98	37607.73
581.14	37504.74
581.30	37741.14
581.46	37453.25
581.62	37399.42
581.78	37813.70
581.94	37764.54
582.10	37748.16
582.26	37797.31
582.42	37869.87
582.58	37853.48
582.74	37839.44
582.90	37422.83
583.06	37748.16
583.22	37666.24
583.38	37933.06
583.54	37434.53
583.70	37476.66
583.86	37792.63
584.02	37518.79
584.18	37642.84
584.34	37888.59
584.50	37837.10
584.66	37537.51
584.82	37474.32
584.98	38061.79
585.14	37827.74
585.30	37228.56
585.46	37179.41
585.62	37502.40
585.78	37867.53
585.94	37607.73
586.10	37729.44
586.26	37947.11
586.42	38078.18
586.58	37680.28
586.74	37741.14
586.90	37450.91
587.06	37869.87
587.22	37823.06
587.38	38029.02
587.54	38192.86
587.70	37914.34
587.86	38136.69
588.02	38054.77
588.18	38258.40
588.34	38136.69
588.49	37998.60
588.65	37495.38
588.81	37577.30
588.97	37846.46
589.13	38000.94
589.29	37986.89
589.45	37933.06
589.61	37935.40
589.77	38366.06
589.93	38593.09
590.08	37947.11
590.24	38007.96
590.40	37642.84
590.56	38059.45
590.72	37890.93
590.88	37874.55
591.04	37785.61
591.20	38391.81
591.35	38040.73
591.51	38724.16
