SpectraSuite Data File
++++++++++++++++++++++++++++++++++++
Date: Fri Oct 04 11:39:24 GMT-05:00 2013
User: price-jones
Dark Spectrum Present: No
Reference Spectrum Present: No
Number of Sampled Component Spectra: 1
Spectrometers: USB2+H05261
Integration Time (usec): 100000 (USB2+H05261)
Spectra Averaged: 1 (USB2+H05261)
Boxcar Smoothing: 0 (USB2+H05261)
Correct for Electrical Dark: No (USB2+H05261)
Strobe/Lamp Enabled: No (USB2+H05261)
Correct for Detector Non-linearity: No (USB2+H05261)
Correct for Stray Light: No (USB2+H05261)
Number of Pixels in Processed Spectrum: 2048
>>>>>Begin Processed Spectral Data<<<<<
365.73	49.15
365.92	49.15
366.12	49.15
366.32	0.00
366.52	0.00
366.72	0.00
366.91	21.06
367.11	0.00
367.31	0.00
367.51	0.00
367.70	0.00
367.90	0.00
368.10	0.00
368.30	0.00
368.49	0.00
368.69	0.00
368.89	0.00
369.09	0.00
369.28	0.00
369.48	0.00
369.68	0.00
369.87	0.00
370.07	0.00
370.27	30.43
370.47	114.69
370.66	259.80
370.86	152.13
371.06	280.86
371.25	276.18
371.45	318.31
371.65	255.12
371.84	304.27
372.04	212.99
372.24	243.42
372.44	320.65
372.63	238.73
372.83	334.70
373.03	330.02
373.22	259.80
373.42	322.99
373.62	367.46
373.81	360.44
374.01	330.02
374.21	362.78
374.40	386.19
374.60	365.12
374.79	346.40
374.99	395.55
375.19	409.59
375.38	360.44
375.58	367.46
375.78	397.89
375.97	390.87
376.17	374.49
376.37	423.64
376.56	407.25
376.76	440.02
376.95	374.49
377.15	287.89
377.35	318.31
377.54	381.51
377.74	334.70
377.93	362.78
378.13	411.93
378.33	386.19
378.52	365.12
378.72	505.56
378.91	435.34
379.11	337.04
379.31	407.25
379.50	376.83
379.70	397.89
379.89	440.02
380.09	360.44
380.28	400.23
380.48	500.87
380.68	358.10
380.87	365.12
381.07	458.74
381.26	409.59
381.46	519.60
381.65	365.12
381.85	456.40
382.04	411.93
382.24	437.68
382.43	404.91
382.63	475.13
382.83	402.57
383.02	428.32
383.22	465.77
383.41	454.06
383.61	411.93
383.80	433.00
384.00	568.75
384.19	449.38
384.39	505.56
384.58	482.15
384.78	505.56
384.97	409.59
385.17	559.39
385.36	554.71
385.56	430.66
385.75	512.58
385.95	486.83
386.14	482.15
386.34	521.94
386.53	433.00
386.72	575.77
386.92	538.32
387.11	566.41
387.31	601.52
387.50	491.51
387.70	557.05
387.89	526.62
388.09	585.13
388.28	514.92
388.48	573.43
388.67	535.98
388.86	514.92
389.06	519.60
389.25	582.79
389.45	561.73
389.64	568.75
389.84	645.99
390.03	706.84
390.22	599.18
390.42	573.43
390.61	615.56
390.81	648.33
391.00	580.45
391.19	608.54
391.39	610.88
391.58	699.82
391.78	667.05
391.97	671.73
392.16	662.37
392.36	709.18
392.55	610.88
392.75	662.37
392.94	711.52
393.13	723.23
393.33	648.33
393.52	615.56
393.71	751.31
393.91	770.04
394.10	716.20
394.29	716.20
394.49	706.84
394.68	751.31
394.88	758.33
395.07	692.80
395.26	760.67
395.46	697.48
395.65	713.86
395.84	795.78
396.04	819.19
396.23	812.17
396.42	772.38
396.62	788.76
396.81	840.25
397.00	779.40
397.19	854.30
397.39	786.42
397.58	894.08
397.77	854.30
397.97	765.36
398.16	851.96
398.35	833.23
398.55	887.06
398.74	950.26
398.93	898.77
399.12	884.72
399.32	856.64
399.51	931.53
399.70	1001.75
399.90	952.60
400.09	931.53
400.28	1008.77
400.47	987.71
400.67	1032.18
400.86	954.94
401.05	940.90
401.24	994.73
401.44	1018.13
401.63	1074.31
401.82	1048.56
402.01	1011.11
402.21	1090.69
402.40	1043.88
402.59	1102.39
402.78	1088.35
402.97	997.07
403.17	1093.03
403.36	1083.67
403.55	1142.18
403.74	1174.95
403.93	1263.89
404.13	1240.48
404.32	1191.33
404.51	1261.55
404.70	1214.74
404.89	1240.48
405.09	1320.06
405.28	1228.78
405.47	1142.18
405.66	1348.15
405.85	1228.78
406.05	1228.78
406.24	1378.58
406.43	1299.00
406.62	1348.15
406.81	1385.60
407.00	1406.66
407.20	1350.49
407.39	1441.77
407.58	1348.15
407.77	1462.83
407.96	1514.33
408.15	1570.50
408.34	1481.56
408.54	1469.86
408.73	1535.39
408.92	1612.63
409.11	1516.67
409.30	1488.58
409.49	1640.72
409.68	1577.52
409.87	1652.42
410.07	1650.08
410.26	1619.65
410.45	1687.53
410.64	1668.80
410.83	1774.13
411.02	1701.57
411.21	1678.16
411.40	1764.76
411.59	1834.98
411.78	1818.60
411.98	1806.89
412.17	1902.86
412.36	1923.92
412.55	1872.43
412.74	1905.20
412.93	1930.94
413.12	1944.99
413.31	2038.61
413.50	1947.33
413.69	2108.82
413.88	2064.35
414.07	2073.71
414.26	2038.61
414.45	2097.12
414.64	2120.53
414.83	2167.34
415.02	2209.47
415.22	2417.77
415.41	2225.85
415.60	2183.72
415.79	2312.45
415.98	2310.11
416.17	2356.92
416.36	2279.68
416.55	2375.64
416.74	2445.86
416.93	2366.28
417.12	2490.33
417.31	2424.80
417.50	2427.14
417.69	2597.99
417.88	2595.65
418.07	2516.08
418.26	2523.10
418.45	2546.50
418.64	2567.57
418.83	2715.02
419.02	2558.21
419.21	2672.89
419.39	2682.25
419.58	2696.30
419.77	2628.42
419.96	2794.60
420.15	2761.83
420.34	2810.98
420.53	2778.22
420.72	2970.14
420.91	2963.12
421.10	2818.00
421.29	2949.08
421.48	2850.77
421.67	3054.40
421.86	2930.35
422.05	2862.48
422.24	2967.80
422.43	3047.38
422.61	2949.08
422.80	3077.80
422.99	3122.27
423.18	3005.25
423.37	3108.23
423.56	2974.82
423.75	3059.08
423.94	3052.06
424.13	2909.29
424.32	2895.24
424.50	3061.42
424.69	3344.63
424.88	3052.06
425.07	2939.71
425.26	2925.67
425.45	3068.44
425.64	3131.64
425.83	3126.96
426.01	3225.26
426.20	3180.79
426.39	3101.21
426.58	3166.74
426.77	3248.66
426.96	3148.02
427.15	3129.30
427.33	3145.68
427.52	3243.98
427.71	3297.81
427.90	3314.20
428.09	3267.39
428.28	3328.24
428.46	3417.18
428.65	3332.92
428.84	3382.07
429.03	3304.84
429.22	3412.50
429.40	3503.78
429.59	3400.80
429.78	3321.22
429.97	3438.25
430.16	3229.94
430.34	3557.61
430.53	3534.21
430.72	3522.51
430.91	3517.83
431.10	3606.77
431.28	3634.85
431.47	3623.15
431.66	3630.17
431.85	3574.00
432.03	3648.90
432.22	3882.95
432.41	3808.05
432.60	3777.62
432.79	3775.28
432.97	3653.58
433.16	3857.20
433.35	3719.11
433.54	3812.73
433.72	3756.56
433.91	3868.91
434.10	3705.07
434.28	4060.83
434.47	3824.44
434.66	3887.63
434.85	3936.78
435.03	4053.81
435.22	4203.60
435.41	4587.45
435.59	4418.93
435.78	4184.88
435.97	4119.34
436.16	4131.05
436.34	3894.65
436.53	4138.07
436.72	4217.65
436.90	4224.67
437.09	4198.92
437.28	4088.92
437.46	4135.73
437.65	4222.33
437.84	4313.61
438.02	4149.77
438.21	4329.99
438.40	4224.67
438.58	4388.50
438.77	4517.23
438.96	4526.60
439.14	4578.09
439.33	4512.55
439.52	4615.54
439.70	4517.23
439.89	4594.47
440.08	4652.98
440.26	4709.16
440.45	4655.33
440.63	4645.96
440.82	4882.36
441.01	4898.74
441.19	4975.98
441.38	4765.33
441.57	4887.04
441.75	4915.12
441.94	4919.81
442.12	5198.33
442.31	5280.25
442.50	5078.96
442.68	4985.34
442.87	4975.98
443.05	4999.38
443.24	5102.37
443.43	5146.84
443.61	5137.48
443.80	5528.35
443.98	5125.77
444.17	5036.83
444.35	5273.23
444.54	5280.25
444.73	5448.77
444.91	5174.92
445.10	5219.39
445.28	5181.95
445.47	5242.80
445.65	5247.48
445.84	5242.80
446.02	5427.70
446.21	5364.51
446.39	5270.89
446.58	5446.43
446.77	5303.65
446.95	5172.58
447.14	5336.42
447.32	5235.78
447.51	5341.10
447.69	5289.61
447.88	5540.05
448.06	5294.29
448.25	5338.76
448.43	5437.06
448.62	5481.53
448.80	5465.15
448.99	5427.70
449.17	5544.73
449.36	5537.71
449.54	5643.03
449.73	5549.41
449.91	5661.76
450.10	5664.10
450.28	5696.86
450.46	5844.32
450.65	5748.36
450.83	5818.57
451.02	5771.76
451.20	5753.04
451.39	5818.57
451.57	5895.81
451.76	5647.71
451.94	5795.17
452.13	5724.95
452.31	5841.98
452.49	5949.64
452.68	5902.83
452.86	5933.26
453.05	5818.57
453.23	5813.89
453.42	5783.46
453.60	6019.86
453.78	6066.67
453.97	5809.21
454.15	5760.06
454.34	5905.17
454.52	6019.86
454.70	5949.64
454.89	6092.41
455.07	6141.57
455.26	6122.84
455.44	6239.87
455.62	6359.24
455.81	6242.21
455.99	6377.96
456.17	6253.91
456.36	6328.81
456.54	6499.67
456.73	6511.37
456.91	6736.06
457.09	6764.15
457.28	6640.10
457.46	6352.21
457.64	6719.68
457.83	6750.10
458.01	6384.98
458.19	6682.23
458.38	6635.42
458.56	6902.24
458.74	6820.32
458.93	6642.44
459.11	6829.68
459.29	6768.83
459.48	6935.01
459.66	6715.00
459.84	7192.47
460.03	6963.09
460.21	6843.73
460.39	6916.28
460.57	6705.63
460.76	6792.23
460.94	7021.61
461.12	7066.08
461.31	7005.22
461.49	6995.86
461.67	6993.52
461.85	6958.41
462.04	6970.12
462.22	7307.15
462.40	7391.41
462.59	7124.59
462.77	7236.94
462.95	7321.20
463.13	7169.06
463.32	7192.47
463.50	7316.51
463.68	7360.98
463.86	7283.75
464.05	7279.07
464.23	7520.14
464.41	7627.81
464.59	7283.75
464.78	7485.03
464.96	7463.97
465.14	7454.61
465.32	7534.18
465.50	7592.70
465.69	7541.21
465.87	7571.63
466.05	7515.46
466.23	7503.76
466.41	7648.87
466.60	7913.35
466.78	7681.64
466.96	7559.93
467.14	7618.44
467.32	7707.38
467.51	7873.56
467.69	7695.68
467.87	7784.62
468.05	7786.96
468.23	7871.22
468.41	7847.82
468.60	7995.27
468.78	7992.93
468.96	7843.14
469.14	7901.65
469.32	8124.00
469.50	7920.37
469.69	8184.85
469.87	8212.94
470.05	8241.03
470.23	8374.44
470.41	8091.23
470.59	8390.82
470.77	8121.66
470.95	8315.92
471.14	8423.59
471.32	8510.19
471.50	8540.61
471.68	8493.80
471.86	8489.12
472.04	8458.70
472.22	8648.28
472.40	8435.29
472.58	8760.63
472.77	8667.00
472.95	8929.14
473.13	9247.46
473.31	8791.05
473.49	8947.87
473.67	8767.65
473.85	9064.89
474.03	9034.47
474.21	8973.61
474.39	9116.39
474.57	9289.59
474.75	9437.04
474.93	9221.71
475.12	9280.22
475.30	9224.05
475.48	9200.65
475.66	9195.96
475.84	9547.05
476.02	9607.90
476.20	9439.38
476.38	9797.48
476.56	9872.38
476.74	9710.88
476.92	9848.97
477.10	9916.85
477.28	10047.92
477.46	9912.17
477.64	10195.37
477.82	10078.35
478.00	10464.54
478.18	10494.96
478.36	10424.75
478.54	10513.69
478.72	10534.75
478.90	10897.53
479.08	10892.85
479.26	10731.36
479.44	10998.18
479.62	11016.90
479.80	11236.91
479.98	10965.41
480.16	11246.27
480.34	11461.60
480.52	11260.32
480.70	11470.97
480.88	11353.94
481.06	11618.42
481.24	11637.14
481.41	11829.07
481.59	12131.00
481.77	12077.16
481.95	12116.95
482.13	12028.01
482.31	12166.10
482.49	12280.79
482.67	12559.31
482.85	12400.16
483.03	12791.03
483.21	12978.27
483.39	12889.33
483.57	12638.89
483.74	13130.41
483.92	13273.18
484.10	13235.73
484.28	13298.92
484.46	13699.16
484.64	14010.45
484.82	13392.55
485.00	13788.10
485.18	14031.51
485.35	14129.81
485.53	14218.75
485.71	14258.54
485.89	14497.28
486.07	14417.70
486.25	14553.45
486.43	14661.12
486.61	14773.46
486.78	14764.10
486.96	14867.08
487.14	15147.95
487.32	15218.16
487.50	15389.02
487.68	15297.74
487.85	15768.19
488.03	15899.26
488.21	15892.24
488.39	16205.87
488.57	16046.71
488.75	16107.57
488.92	16311.19
489.10	16362.69
489.28	16528.86
489.46	16819.09
489.64	16725.47
489.81	17111.66
489.99	17277.83
490.17	16950.16
490.35	17422.95
490.53	17591.47
490.70	17565.72
490.88	17813.82
491.06	17764.67
491.24	17514.23
491.41	17837.22
491.59	17968.29
491.77	18218.73
491.95	17935.53
492.13	18616.62
492.30	18410.65
492.48	18551.09
492.66	18663.43
492.84	18876.42
493.01	18691.52
493.19	18867.06
493.37	19281.33
493.54	19054.30
493.72	19199.41
493.90	19470.92
494.08	19536.45
494.25	19620.71
494.43	19859.45
494.61	19974.13
494.79	20053.71
494.96	19939.02
495.14	20421.17
495.32	20058.39
495.49	20585.01
495.67	20851.83
495.85	21158.44
496.02	20744.17
496.20	20929.07
496.38	21235.68
496.55	20938.43
496.73	21469.73
496.91	21551.65
497.09	21593.78
497.26	21752.94
497.44	21553.99
497.62	21523.57
497.79	21827.84
497.97	21830.18
498.14	21844.22
498.32	22377.86
498.50	22260.84
498.67	22455.10
498.85	22349.78
499.03	22508.93
499.20	22443.40
499.38	22719.58
499.56	22970.02
499.73	23033.21
499.91	23056.62
500.08	23229.82
500.26	23014.49
500.44	23456.85
500.61	23405.36
500.79	23417.06
500.97	23435.78
501.14	23810.27
501.32	23697.92
501.49	23639.41
501.67	23695.58
501.84	23880.49
502.02	24109.86
502.20	24339.23
502.37	24196.46
502.55	24531.15
502.72	24198.80
502.90	24336.89
503.07	24400.08
503.25	24479.66
503.43	24851.81
503.60	24769.89
503.78	24788.61
503.95	24547.54
504.13	24933.73
504.30	25010.96
504.48	24812.02
504.65	25109.27
504.83	25308.21
505.01	25694.40
505.18	25617.16
505.36	25544.61
505.53	25322.26
505.71	25479.07
505.88	25804.41
506.06	25331.62
506.23	25804.41
506.41	25942.50
506.58	25954.20
506.76	26307.62
506.93	26663.38
507.11	26274.85
507.28	26253.79
507.46	26394.22
507.63	26867.01
507.81	26815.52
507.98	26611.89
508.16	26911.48
508.33	26677.43
508.50	26974.67
508.68	26878.71
508.85	27185.32
509.03	26941.91
509.20	27225.11
509.38	27117.45
509.55	27468.53
509.73	27190.00
509.90	27433.42
510.08	27435.76
510.25	27906.21
510.42	28039.62
510.60	27845.35
510.77	28116.86
510.95	28056.00
511.12	28254.95
511.30	27950.68
511.47	28599.01
511.64	28563.90
511.82	28620.07
511.99	28283.03
512.17	29237.97
512.34	28566.24
512.51	29027.32
512.69	29022.64
512.86	28788.59
513.04	29298.83
513.21	28905.62
513.38	29270.74
513.56	29385.43
513.73	29607.78
513.90	29530.54
514.08	28814.34
514.25	29247.33
514.43	29532.88
514.60	29542.24
514.77	29717.78
514.95	30015.03
515.12	29553.94
515.29	29874.60
515.47	30061.84
515.64	30141.42
515.81	30309.94
515.99	30569.74
516.16	30799.11
516.33	30382.49
516.51	30738.26
516.68	30366.11
516.85	30473.78
517.03	30419.94
517.20	30897.41
517.37	30843.58
517.54	31108.06
517.72	30932.52
517.89	31042.53
518.06	30881.03
518.24	31175.94
518.41	31094.02
518.58	31321.05
518.75	31253.17
518.93	31857.03
519.10	31634.68
519.27	31744.69
519.45	31477.86
519.62	31475.52
519.79	31690.85
519.96	31679.15
520.14	32032.57
520.31	31564.46
520.48	32210.45
520.65	31889.80
520.83	32151.94
521.00	32219.81
521.17	32112.15
521.34	32177.68
521.52	32526.42
521.69	32559.19
521.86	32840.06
522.03	33486.04
522.20	32772.18
522.38	32638.77
522.55	32453.87
522.72	32645.79
522.89	32816.65
523.07	33029.64
523.24	33153.69
523.41	32964.10
523.58	32999.21
523.75	33312.84
523.92	33680.31
524.10	33528.17
524.27	33450.94
524.44	33802.02
524.61	33970.54
524.78	33654.56
524.96	33457.96
525.13	33530.51
525.30	34092.24
525.47	33778.61
525.64	34101.61
525.81	34127.35
525.98	34096.92
526.16	33757.55
526.33	34504.18
526.50	34092.24
526.67	33816.06
526.84	34251.40
527.01	34607.16
527.18	34916.11
527.36	34691.42
527.53	34789.72
527.70	35005.05
527.87	35248.47
528.04	34815.47
528.21	34923.13
528.38	34939.52
528.55	35009.73
528.72	34890.37
528.89	35035.48
529.07	35016.75
529.24	35133.78
529.41	35229.74
529.58	35206.34
529.75	35124.42
529.92	35618.27
530.09	35351.45
530.26	35608.91
530.43	35562.10
530.60	35564.44
530.77	35363.15
530.94	35590.19
531.11	35648.70
531.28	35800.83
531.46	35489.54
531.63	35945.95
531.80	35667.42
531.97	36594.28
532.14	36271.28
532.31	36217.45
532.48	35899.14
532.65	36388.31
532.82	36046.59
532.99	36465.55
533.16	36016.16
533.33	36488.95
533.50	36933.65
533.67	36723.01
533.84	36243.20
534.01	36622.36
534.18	36409.37
534.35	36615.34
534.52	36652.79
534.69	36645.77
534.86	37017.91
535.03	37069.40
535.20	36730.03
535.37	37516.45
535.54	37254.31
535.71	37024.93
535.88	36950.04
536.05	37345.59
536.22	37397.08
536.38	37390.06
536.55	37361.97
536.72	37436.87
536.89	37350.27
537.06	37364.31
537.23	37394.74
537.40	37773.91
537.57	37642.84
537.74	37301.12
537.91	38031.36
538.08	38164.78
538.25	37479.00
538.42	37804.33
538.59	37673.26
538.75	37654.54
538.92	37724.75
539.09	38405.85
539.26	38246.69
539.43	37762.20
539.60	38440.96
539.77	38459.68
539.94	38419.89
540.11	38389.47
540.28	38415.21
540.44	38567.35
540.61	38438.62
540.78	38623.52
540.95	38717.14
541.12	39316.32
541.29	38543.94
541.46	38892.68
541.62	39079.92
541.79	39051.84
541.96	38672.67
542.13	38754.59
542.30	39360.79
542.47	39283.55
542.63	39414.62
542.80	39391.22
542.97	39952.94
543.14	39480.16
543.31	39594.84
543.48	39365.47
543.64	39992.73
543.81	40109.76
543.98	39995.07
544.15	39976.35
544.32	39665.06
544.48	40126.14
544.65	40074.65
544.82	39812.51
544.99	39398.24
545.16	39739.96
545.32	39885.07
545.49	40662.13
545.66	41214.49
545.83	41104.49
546.00	41626.43
546.16	40811.92
546.33	40313.39
546.50	39686.12
546.67	40594.25
546.83	39896.77
547.00	40294.66
547.17	40353.18
547.34	40397.65
547.50	40486.59
547.67	40699.58
547.84	40332.11
548.00	40690.21
548.17	40266.58
548.34	40378.92
548.51	40774.47
548.67	40545.10
548.84	40802.56
549.01	40395.31
549.18	40608.29
549.34	40708.94
549.51	40982.78
549.68	40730.00
549.84	40744.05
550.01	40636.38
550.18	40360.20
550.34	40957.03
550.51	40779.15
550.68	40957.03
550.84	40737.02
551.01	40926.61
551.18	40521.69
551.34	40868.09
551.51	41144.28
551.68	41268.33
551.84	41261.30
552.01	41120.87
552.18	41078.74
552.34	40641.06
552.51	41258.96
552.68	41448.55
552.84	41057.68
553.01	41254.28
553.18	41493.02
553.34	41265.99
553.51	41261.30
553.67	41151.30
553.84	41839.42
554.01	41848.78
554.17	41720.05
554.34	41317.48
554.51	41240.24
554.67	41764.52
554.84	41507.06
555.00	41563.23
555.17	41825.37
555.33	41876.86
555.50	41766.86
555.67	41649.83
555.83	41755.16
556.00	41745.80
556.16	41900.27
556.33	41670.90
556.50	42024.32
556.66	41858.14
556.83	41998.57
556.99	42012.62
557.16	42220.92
557.32	42281.78
557.49	42033.68
557.65	42029.00
557.82	42124.96
557.98	41698.98
558.15	42080.49
558.32	42347.31
558.48	42263.05
558.65	42698.39
558.81	42267.73
558.98	42548.60
559.14	41762.18
559.31	42113.26
559.47	41937.72
559.64	42401.14
559.80	42298.16
559.97	42841.17
560.13	42204.54
560.30	42270.08
560.46	42698.39
560.63	42660.94
560.79	42059.43
560.96	42969.90
561.12	42518.17
561.29	42693.71
561.45	42525.19
561.61	42363.70
561.78	42483.06
561.94	42529.87
562.11	43021.39
562.27	42815.42
562.44	42700.73
562.60	42534.56
562.77	42684.35
562.93	42457.32
563.10	42773.29
563.26	42506.47
563.42	43042.45
563.59	42628.18
563.75	42684.35
563.92	42232.63
564.08	42646.90
564.24	42417.53
564.41	42976.92
564.57	42852.87
564.74	42923.08
564.90	43213.31
565.07	42806.06
565.23	42789.67
565.39	42728.82
565.56	42883.30
565.72	42653.92
565.88	42976.92
566.05	42927.77
566.21	42934.79
566.38	42653.92
566.54	42944.15
566.70	43089.26
566.87	43196.93
567.03	43143.09
567.19	43203.95
567.36	43213.31
567.52	43143.09
567.68	43016.71
567.85	43122.03
568.01	43187.56
568.17	42829.46
568.34	43402.89
568.50	43196.93
568.66	43086.92
568.83	42932.45
568.99	42756.91
569.15	42487.74
569.32	42951.17
569.48	42298.16
569.64	43201.61
569.81	43234.38
569.97	43438.00
570.13	43360.76
570.30	43051.81
570.46	43292.89
570.62	43358.42
570.78	43033.09
570.95	43065.86
571.11	43421.62
571.27	43171.18
571.43	42955.85
571.60	43210.97
571.76	43143.09
571.92	43335.02
572.09	43578.43
572.25	43381.83
572.41	43061.18
572.57	43522.26
572.74	43213.31
572.90	43086.92
573.06	43292.89
573.22	43384.17
573.38	43552.69
573.55	43107.99
573.71	43629.93
573.87	43896.75
574.03	43248.42
574.20	43597.16
574.36	43576.09
574.52	43304.59
574.68	43438.00
574.84	43267.14
575.01	43512.90
575.17	43026.07
575.33	43693.12
575.49	43213.31
575.65	43849.94
575.82	43948.24
575.98	43683.76
576.14	43753.97
576.30	43297.57
576.46	43524.60
576.62	43611.20
576.79	43496.52
576.95	43604.18
577.11	43648.65
577.27	43421.62
577.43	43709.50
577.59	43201.61
577.75	43122.03
577.92	43117.35
578.08	43030.75
578.24	43189.91
578.40	43267.14
578.56	43828.87
578.72	43746.95
578.88	43952.92
579.04	44004.41
579.21	43611.20
579.37	43863.98
579.53	43835.89
579.69	43159.48
579.85	43489.49
580.01	43763.34
580.17	43594.82
580.33	43559.71
580.49	44257.19
580.65	43873.34
580.82	43800.79
580.98	43608.86
581.14	43255.44
581.30	43721.21
581.46	43543.33
581.62	43667.37
581.78	43309.27
581.94	43627.59
582.10	43470.77
582.26	44039.52
582.42	43831.21
582.58	43618.22
582.74	43728.23
582.90	43763.34
583.06	43679.08
583.22	43208.63
583.38	43531.62
583.54	43667.37
583.70	43632.27
583.86	43704.82
584.02	43309.27
584.18	44102.71
584.34	43779.72
584.50	43894.41
584.66	44002.07
584.82	43608.86
584.98	43672.06
585.14	43505.88
585.30	42937.13
585.46	43597.16
585.62	43725.89
585.78	44114.42
585.94	44039.52
586.10	43697.80
586.26	43648.65
586.42	44020.80
586.58	43697.80
586.74	44142.50
586.90	43608.86
587.06	43826.53
587.22	43793.76
587.38	43704.82
587.54	43833.55
587.70	44158.89
587.86	43973.98
588.02	43988.03
588.18	44053.56
588.34	43693.12
588.49	43679.08
588.65	43515.24
588.81	43627.59
588.97	44264.21
589.13	44093.35
589.29	44151.87
589.45	43988.03
589.61	44292.30
589.77	44151.87
589.93	44013.77
590.08	44399.96
590.24	44037.18
590.40	44226.76
590.56	44367.20
590.72	43693.12
590.88	43908.45
591.04	44041.86
