SpectraSuite Data File
++++++++++++++++++++++++++++++++++++
Date: Fri Oct 04 11:39:39 GMT-05:00 2013
User: price-jones
Dark Spectrum Present: No
Reference Spectrum Present: No
Number of Sampled Component Spectra: 1
Spectrometers: USB2+H05261
Integration Time (usec): 100000 (USB2+H05261)
Spectra Averaged: 1 (USB2+H05261)
Boxcar Smoothing: 0 (USB2+H05261)
Correct for Electrical Dark: No (USB2+H05261)
Strobe/Lamp Enabled: No (USB2+H05261)
Correct for Detector Non-linearity: No (USB2+H05261)
Correct for Stray Light: No (USB2+H05261)
Number of Pixels in Processed Spectrum: 2048
>>>>>Begin Processed Spectral Data<<<<<
365.73	65.54
365.92	65.54
366.12	65.54
366.32	0.00
366.52	0.00
366.72	0.00
366.91	0.00
367.11	0.00
367.31	0.00
367.51	0.00
367.70	0.00
367.90	0.00
368.10	0.00
368.30	0.00
368.49	0.00
368.69	0.00
368.89	11.70
369.09	0.00
369.28	0.00
369.48	0.00
369.68	0.00
369.87	0.00
370.07	16.38
370.27	67.88
370.47	100.64
370.66	220.01
370.86	330.02
371.06	308.95
371.25	477.47
371.45	339.38
371.65	409.59
371.84	402.57
372.04	367.46
372.24	367.46
372.44	390.87
372.63	458.74
372.83	472.79
373.03	353.42
373.22	463.43
373.42	491.51
373.62	330.02
373.81	510.24
374.01	440.02
374.21	507.90
374.40	507.90
374.60	486.83
374.79	461.09
374.99	498.53
375.19	514.92
375.38	475.13
375.58	461.09
375.78	500.87
375.97	561.73
376.17	557.05
376.37	566.41
376.56	519.60
376.76	505.56
376.95	521.94
377.15	503.22
377.35	538.32
377.54	538.32
377.74	571.09
377.93	524.28
378.13	592.16
378.33	545.34
378.52	526.62
378.72	531.30
378.91	561.73
379.11	622.58
379.31	561.73
379.50	540.66
379.70	573.43
379.89	676.41
380.09	603.86
380.28	533.64
380.48	641.31
380.68	622.58
380.87	575.77
381.07	603.86
381.26	620.24
381.46	634.29
381.65	709.18
381.85	688.12
382.04	613.22
382.24	660.03
382.43	547.69
382.63	617.90
382.83	669.39
383.02	636.63
383.22	641.31
383.41	657.69
383.61	734.93
383.80	739.61
384.00	624.92
384.19	718.54
384.39	615.56
384.58	720.88
384.78	713.86
384.97	725.57
385.17	723.23
385.36	690.46
385.56	690.46
385.75	685.78
385.95	713.86
386.14	716.20
386.34	734.93
386.53	760.67
386.72	772.38
386.92	802.80
387.11	791.10
387.31	730.25
387.50	800.46
387.70	763.01
387.89	837.91
388.09	765.36
388.28	788.76
388.48	770.04
388.67	924.51
388.86	791.10
389.06	870.68
389.25	873.02
389.45	798.12
389.64	873.02
389.84	994.73
390.03	950.26
390.22	875.36
390.42	889.40
390.61	910.47
390.81	922.17
391.00	884.72
391.19	947.92
391.39	924.51
391.58	990.05
391.78	924.51
391.97	964.30
392.16	1048.56
392.36	938.55
392.55	968.98
392.75	990.05
392.94	880.04
393.13	1001.75
393.33	1025.15
393.52	945.58
393.71	1022.81
393.91	936.21
394.10	1041.54
394.29	959.62
394.49	954.94
394.68	1041.54
394.88	1076.65
395.07	990.05
395.26	1149.20
395.46	1142.18
395.65	1034.52
395.84	1104.73
396.04	1242.82
396.23	1086.01
396.42	1146.86
396.62	1123.46
396.81	1240.48
397.00	1174.95
397.19	1130.48
397.39	1097.71
397.58	1268.57
397.77	1177.29
397.97	1249.85
398.16	1261.55
398.35	1369.21
398.55	1217.08
398.74	1238.14
398.93	1401.98
399.12	1247.51
399.32	1266.23
399.51	1284.95
399.70	1352.83
399.90	1366.87
400.09	1336.45
400.28	1490.92
400.47	1357.51
400.67	1345.81
400.86	1331.76
401.05	1500.28
401.24	1451.13
401.44	1423.05
401.63	1455.81
401.82	1495.60
402.01	1444.11
402.21	1439.43
402.40	1427.73
402.59	1378.58
402.78	1439.43
402.97	1448.79
403.17	1565.82
403.36	1568.16
403.55	1593.90
403.74	1636.03
403.93	1692.21
404.13	1598.59
404.32	1685.19
404.51	1736.68
404.70	1694.55
404.89	1713.27
405.09	1727.32
405.28	1675.82
405.47	1717.95
405.66	1701.57
405.85	1795.19
406.05	1755.40
406.24	1886.47
406.43	1736.68
406.62	1856.04
406.81	1870.09
407.00	1792.85
407.20	1802.21
407.39	1895.83
407.58	1980.09
407.77	1872.43
407.96	2029.24
408.15	1942.64
408.34	2019.88
408.54	1921.58
408.73	2017.54
408.92	2015.20
409.11	2057.33
409.30	2125.21
409.49	2186.06
409.68	2052.65
409.87	2106.48
410.07	2104.14
410.26	2129.89
410.45	2085.42
410.64	2179.04
410.83	2104.14
411.02	2211.81
411.21	2324.15
411.40	2377.98
411.59	2333.51
411.78	2333.51
411.98	2275.00
412.17	2382.67
412.36	2354.58
412.55	2363.94
412.74	2473.95
412.93	2506.71
413.12	2342.88
413.31	2754.81
413.50	2499.69
413.69	2670.55
413.88	2726.72
414.07	2539.48
414.26	2726.72
414.45	2656.51
414.64	2806.30
414.83	2780.56
415.02	2848.43
415.22	2810.98
415.41	2869.50
415.60	2869.50
415.79	2949.08
415.98	2890.56
416.17	3042.70
416.36	2911.63
416.55	3124.62
416.74	3103.55
416.93	3183.13
417.12	3180.79
417.31	3103.55
417.50	3159.72
417.69	3162.06
417.88	3267.39
418.07	3377.39
418.26	3246.32
418.45	3351.65
418.64	3440.59
418.83	3363.35
419.02	3438.25
419.21	3382.07
419.39	3391.44
419.58	3428.88
419.77	3389.10
419.96	3520.17
420.15	3566.98
420.34	3499.10
420.53	3562.30
420.72	3513.14
420.91	3508.46
421.10	3623.15
421.29	3693.37
421.48	3625.49
421.67	3627.83
421.86	3688.68
422.05	3688.68
422.24	3588.04
422.43	3660.60
422.61	3796.35
422.80	3653.58
422.99	3625.49
423.18	3761.24
423.37	3826.78
423.56	3695.71
423.75	3672.30
423.94	3623.15
424.13	3522.51
424.32	3414.84
424.50	3878.27
424.69	4070.19
424.88	3913.38
425.07	3805.71
425.26	3606.77
425.45	3726.13
425.64	3786.99
425.83	3798.69
426.01	3946.14
426.20	3843.16
426.39	3791.67
426.58	3871.25
426.77	3831.46
426.96	3892.31
427.15	3843.16
427.33	4021.04
427.52	3960.19
427.71	4046.79
427.90	3971.89
428.09	4039.76
428.28	3960.19
428.46	4273.82
428.65	4135.73
428.84	4297.22
429.03	4337.01
429.22	4081.89
429.40	4028.06
429.59	4301.90
429.78	4124.02
429.97	4028.06
430.16	4093.60
430.34	4234.03
430.53	4217.65
430.72	4320.63
430.91	4402.55
431.10	4344.03
431.28	4341.69
431.47	4418.93
431.66	4652.98
431.85	4351.06
432.03	4578.09
432.22	4692.77
432.41	4470.42
432.60	4505.53
432.79	4613.20
432.97	4695.11
433.16	4580.43
433.35	4664.69
433.54	4606.17
433.72	4507.87
433.91	4634.26
434.10	4648.30
434.28	4840.23
434.47	4784.06
434.66	4704.48
434.85	4873.00
435.03	4865.97
435.22	5004.07
435.41	5324.72
435.59	5350.46
435.78	5074.28
435.97	5055.56
436.16	5055.56
436.34	4966.62
436.53	4898.74
436.72	5303.65
436.90	4947.89
437.09	5109.39
437.28	4915.12
437.46	5015.77
437.65	5270.89
437.84	5249.82
438.02	5137.48
438.21	5373.87
438.40	5160.88
438.58	5416.00
438.77	5397.28
438.96	5390.25
439.14	5385.57
439.33	5542.39
439.52	5533.03
439.70	5500.26
439.89	5472.17
440.08	5521.32
440.26	5586.86
440.45	5598.56
440.63	5804.53
440.82	5870.06
441.01	5659.42
441.19	5856.02
441.38	5966.03
441.57	5933.26
441.75	6106.46
441.94	5994.11
442.12	6160.29
442.31	6296.04
442.50	6031.56
442.68	6122.84
442.87	6202.42
443.05	6024.54
443.24	6174.33
443.43	6408.39
443.61	6143.91
443.80	6204.76
443.98	6265.61
444.17	6143.91
444.35	6190.72
444.54	6427.11
444.73	6370.94
444.91	6483.28
445.10	6445.84
445.28	6335.83
445.47	6399.02
445.65	6265.61
445.84	6319.45
446.02	6679.89
446.21	6438.81
446.39	6342.85
446.58	6511.37
446.77	6530.09
446.95	6373.28
447.14	6525.41
447.32	6548.82
447.51	6429.45
447.69	6356.90
447.88	6642.44
448.06	6553.50
448.25	6546.48
448.43	6597.97
448.62	6448.18
448.80	6539.46
448.99	6604.99
449.17	6745.42
449.36	6581.59
449.54	6705.63
449.73	6890.54
449.91	6705.63
450.10	6787.55
450.28	7082.46
450.46	6960.75
450.65	6932.67
450.83	6869.47
451.02	6949.05
451.20	6825.00
451.39	7152.68
451.57	6892.88
451.76	6801.60
451.94	6895.22
452.13	7129.27
452.31	7169.06
452.49	7066.08
452.68	7145.66
452.86	7155.02
453.05	7082.46
453.23	7370.35
453.42	7152.68
453.60	7304.81
453.78	7269.70
453.97	7110.55
454.15	7070.76
454.34	7129.27
454.52	7391.41
454.70	7260.34
454.89	7396.09
455.07	7456.95
455.26	7215.87
455.44	7573.97
455.62	7403.11
455.81	7590.36
455.99	7705.04
456.17	7777.60
456.36	7552.91
456.54	7639.51
456.73	7742.49
456.91	7875.90
457.09	8030.38
457.28	7967.18
457.46	7742.49
457.64	8013.99
457.83	7946.12
458.01	7978.89
458.19	8051.44
458.38	7983.57
458.56	8194.22
458.74	7995.27
458.93	8081.87
459.11	8229.32
459.29	8002.29
459.48	8313.58
459.66	8116.98
459.84	8383.80
460.03	8477.42
460.21	8217.62
460.39	8224.64
460.57	8231.66
460.76	8411.89
460.94	8606.15
461.12	8308.90
461.31	8367.42
461.49	8449.33
461.67	8400.18
461.85	8629.56
462.04	8685.73
462.22	8765.31
462.40	8418.91
462.59	8580.40
462.77	8676.37
462.95	8667.00
463.13	8828.50
463.32	8990.00
463.50	8713.81
463.68	8755.94
463.86	8819.14
464.05	8613.17
464.23	8800.41
464.41	8952.55
464.59	8695.09
464.78	8844.88
464.96	8950.21
465.14	8704.45
465.32	9205.33
465.50	9076.60
465.69	8994.68
465.87	9116.39
466.05	9074.26
466.23	9006.38
466.41	9322.35
466.60	9411.29
466.78	9254.48
466.96	9135.11
467.14	9296.61
467.32	9322.35
467.51	9387.89
467.69	8936.17
467.87	9212.35
468.05	9444.06
468.23	9291.93
468.41	9277.88
468.60	9305.97
468.78	9652.37
468.96	9289.59
469.14	9586.83
469.32	9783.44
469.50	9451.08
469.69	9736.63
469.87	9715.56
470.05	9825.57
470.23	9614.92
470.41	9748.33
470.59	9825.57
470.77	9881.74
470.95	9790.46
471.14	9982.38
471.32	9823.23
471.50	10167.29
471.68	10031.54
471.86	10157.92
472.04	10279.63
472.22	10333.47
472.40	10270.27
472.58	10338.15
472.77	10228.14
472.95	10373.25
473.13	10693.91
473.31	10485.60
473.49	10391.98
473.67	10560.50
473.85	10590.92
474.03	10874.13
474.21	10611.99
474.39	11063.71
474.57	11054.35
474.75	10951.37
474.93	11229.89
475.12	10888.17
475.30	11033.29
475.48	11293.08
475.66	11520.12
475.84	11372.66
476.02	11485.01
476.20	11604.38
476.38	11580.97
476.56	11580.97
476.74	12042.06
476.92	11906.31
477.10	11934.39
477.28	11782.26
477.46	11611.40
477.64	12135.68
477.82	12173.13
478.00	12514.84
478.18	12409.52
478.36	12596.76
478.54	12603.78
478.72	12823.80
478.90	12645.91
479.08	13114.02
479.26	12727.83
479.44	13123.38
479.62	13083.59
479.80	13034.44
479.98	13179.56
480.16	13507.23
480.34	13518.93
480.52	13689.79
480.70	13659.37
480.88	13633.62
481.06	13968.32
481.24	13891.08
481.41	14288.97
481.59	14375.57
481.77	14499.62
481.95	14534.73
482.13	14436.42
482.31	14633.03
482.49	14726.65
482.67	14700.90
482.85	15056.67
483.03	15281.36
483.21	15442.85
483.39	15463.92
483.57	15676.91
483.74	15541.16
483.92	15613.71
484.10	15721.38
484.28	16070.12
484.46	16423.54
484.64	16566.31
484.82	16126.29
485.00	16203.53
485.18	16500.78
485.35	16711.42
485.53	16704.40
485.71	17027.40
485.89	17174.85
486.07	17273.15
486.25	17205.28
486.43	17462.74
486.61	17312.94
486.78	17666.36
486.96	17694.45
487.14	18129.79
487.32	17940.21
487.50	18396.61
487.68	18326.39
487.85	18396.61
488.03	18965.36
488.21	18588.53
488.39	18714.92
488.57	19276.65
488.75	19421.77
488.92	19611.35
489.10	19534.11
489.28	19824.34
489.46	20114.56
489.64	19992.86
489.81	19903.92
489.99	20348.62
490.17	20278.40
490.35	20739.49
490.53	20456.28
490.70	20924.39
490.88	20954.82
491.06	21380.79
491.24	20966.52
491.41	21118.65
491.59	21486.12
491.77	21518.89
491.95	21876.99
492.13	22134.45
492.30	21832.52
492.48	21912.10
492.66	21879.33
492.84	22270.20
493.01	22185.94
493.19	22593.19
493.37	22759.37
493.54	22848.31
493.72	22963.00
493.90	22897.46
494.08	23400.68
494.25	23477.91
494.43	23489.62
494.61	23459.19
494.79	23950.70
494.96	23477.91
495.14	23873.46
495.32	24030.28
495.49	23983.47
495.67	24348.59
495.85	24659.88
496.02	24676.27
496.20	24884.58
496.38	24606.05
496.55	24587.33
496.73	25516.52
496.91	25160.76
497.09	25200.55
497.26	25455.67
497.44	25216.93
497.62	25647.59
497.79	25963.56
497.97	25989.31
498.14	26129.74
498.32	26462.10
498.50	26118.04
498.67	26462.10
498.85	26462.10
499.03	26733.60
499.20	26572.10
499.38	26836.58
499.56	27122.13
499.73	27035.53
499.91	26988.72
500.08	27580.87
500.26	26965.31
500.44	27173.62
500.61	27470.87
500.79	27632.36
500.97	27861.74
501.14	28142.60
501.32	28142.60
501.49	28390.70
501.67	27859.40
501.84	28004.51
502.02	28411.76
502.20	28484.32
502.37	28673.90
502.55	28734.76
502.72	28896.25
502.90	28828.38
503.07	28577.94
503.25	28849.44
503.43	28835.40
503.60	29097.54
503.78	29039.03
503.95	29312.87
504.13	29640.54
504.30	29352.66
504.48	29319.89
504.65	29633.52
504.83	29956.52
505.01	30211.64
505.18	29881.62
505.36	30565.06
505.53	30040.78
505.71	30050.14
505.88	30054.82
506.06	29811.40
506.23	30614.21
506.41	30724.21
506.58	30480.80
506.76	31089.34
506.93	30747.62
507.11	30394.20
507.28	30967.63
507.46	30958.27
507.63	31157.21
507.81	31325.73
507.98	31143.17
508.16	31428.71
508.33	31147.85
508.50	31290.62
508.68	32158.96
508.85	32006.83
509.03	31906.18
509.20	31854.69
509.38	32390.67
509.55	32271.31
509.73	32280.67
509.90	32456.21
510.08	32254.92
510.25	32252.58
510.42	32554.51
510.60	32725.37
510.77	32797.93
510.95	32673.88
511.12	33048.36
511.30	33123.26
511.47	33240.29
511.64	33251.99
511.82	33149.01
511.99	33493.07
512.17	33846.49
512.34	33345.61
512.51	33628.82
512.69	33982.24
512.86	33677.97
513.04	33956.49
513.21	34146.08
513.38	34192.89
513.56	34543.97
513.73	33582.01
513.90	34380.13
514.08	34059.48
514.25	34792.06
514.43	34291.19
514.60	35035.48
514.77	34529.92
514.95	35044.84
515.12	34663.33
515.29	34548.65
515.47	35370.18
515.64	35344.43
515.81	35000.37
515.99	35531.67
516.16	35316.34
516.33	35732.96
516.51	35931.90
516.68	35405.28
516.85	35388.90
517.03	35667.42
517.20	35812.54
517.37	36533.42
517.54	36147.23
517.72	36306.39
517.89	36465.55
518.06	35391.24
518.24	36184.68
518.41	36360.22
518.58	36528.74
518.75	36428.10
518.93	36905.57
519.10	36521.72
519.27	36898.55
519.45	36144.89
519.62	36940.68
519.79	36919.61
519.96	37053.02
520.14	37230.90
520.31	36931.31
520.48	37200.47
520.65	37163.03
520.83	37673.26
521.00	37844.12
521.17	37184.09
521.34	37469.64
521.52	37745.82
521.69	37427.51
521.86	37797.31
522.03	37975.19
522.20	38031.36
522.38	38167.12
522.55	38246.69
522.72	38195.20
522.89	38242.01
523.07	38649.27
523.24	38328.61
523.41	38265.42
523.58	38501.81
523.75	38733.53
523.92	38611.82
524.10	38447.98
524.27	38719.48
524.44	38888.00
524.61	39232.06
524.78	39070.56
524.96	39037.80
525.13	39295.25
525.30	39091.63
525.47	39810.17
525.64	39295.25
525.81	39218.02
525.98	39648.68
526.16	39400.58
526.33	39878.05
526.50	39969.33
526.67	39587.82
526.84	39611.23
527.01	39814.85
527.18	39711.87
527.36	40355.52
527.53	40187.00
527.70	40088.70
527.87	40484.25
528.04	40184.66
528.21	40428.07
528.38	40044.23
528.55	40362.54
528.72	40252.53
528.89	40313.39
529.07	40364.88
529.24	40407.01
529.41	40893.84
529.58	40383.60
529.75	40119.12
529.92	40746.39
530.09	40428.07
530.26	41134.92
530.43	40973.42
530.60	41155.98
530.77	40694.89
530.94	41216.83
531.11	41090.44
531.28	41298.75
531.46	41268.33
531.63	41160.66
531.80	41570.25
531.97	41933.04
532.14	41043.63
532.31	41560.89
532.48	41476.63
532.65	41638.13
532.82	41764.52
532.99	41539.83
533.16	41287.05
533.33	42302.84
533.50	42153.05
533.67	41914.31
533.84	41750.48
534.01	41808.99
534.18	41818.35
534.35	42153.05
534.52	41949.42
534.69	42796.70
534.86	42604.77
535.03	42440.93
535.20	42284.12
535.37	42721.80
535.54	42267.73
535.71	41935.38
535.88	42747.54
536.05	42471.36
536.22	43093.94
536.38	42988.62
536.55	43274.16
536.72	43072.88
536.89	42190.50
537.06	42869.25
537.23	43360.76
537.40	42895.00
537.57	42710.10
537.74	43442.68
537.91	43950.58
538.08	43353.74
538.25	43082.24
538.42	43180.54
538.59	43316.29
538.75	42803.72
538.92	43386.51
539.09	43517.58
539.26	43379.49
539.43	43606.52
539.60	44282.94
539.77	43863.98
539.94	43931.86
540.11	43512.90
540.28	43730.57
540.44	44446.77
540.61	44311.02
540.78	43770.36
540.95	44025.48
541.12	44231.44
541.29	44397.62
541.46	44460.82
541.62	44100.37
541.79	44737.00
541.96	44449.11
542.13	44224.42
542.30	44619.97
542.47	44549.76
542.63	45132.55
542.80	45071.70
542.97	45275.32
543.14	45305.75
543.31	44973.39
543.48	44414.01
543.64	45214.47
543.81	45666.19
543.98	45528.10
544.15	45474.27
544.32	45406.39
544.48	45478.95
544.65	45209.79
544.82	45202.77
544.99	45324.47
545.16	45270.64
545.32	44947.65
545.49	45965.78
545.66	46211.54
545.83	46569.64
546.00	46473.68
546.16	46157.70
546.33	45745.77
546.50	45052.97
546.67	45507.04
546.83	45492.99
547.00	45818.33
547.17	46171.75
547.34	45776.20
547.50	46251.33
547.67	46007.91
547.84	45661.51
548.00	46040.68
548.17	45918.97
548.34	45565.55
548.51	46014.93
548.67	45844.07
548.84	46253.67
549.01	45968.12
549.18	46213.88
549.34	46103.87
549.51	46087.49
549.68	46466.66
549.84	46028.98
550.01	46323.88
550.18	46485.38
550.34	46485.38
550.51	46745.18
550.68	46487.72
550.84	45975.14
551.01	46656.24
551.18	45907.27
551.34	46380.06
551.51	46452.61
551.68	46239.62
551.84	46356.65
552.01	46560.28
552.18	46983.91
552.34	46485.38
552.51	46747.52
552.68	46508.79
552.84	46239.62
553.01	46993.28
553.18	47002.64
553.34	46749.86
553.51	46637.51
553.67	46911.36
553.84	47318.61
554.01	47056.47
554.17	47320.95
554.34	47098.60
554.51	46918.38
554.67	47360.74
554.84	47019.02
555.00	46948.81
555.17	46784.97
555.33	47398.19
555.50	47119.66
555.67	47409.89
555.83	47126.69
556.00	46955.83
556.16	47775.02
556.33	47201.58
556.50	47433.30
556.66	47232.01
556.83	47337.33
556.99	47400.53
557.16	47356.06
557.32	47498.83
557.49	47550.32
557.65	47290.52
557.82	47152.43
557.98	47215.63
558.15	47428.62
558.32	47526.92
558.48	47461.38
558.65	48105.03
558.81	47400.53
558.98	47835.87
559.14	47538.62
559.31	47519.90
559.47	47374.78
559.64	47653.31
559.80	47629.90
559.97	48011.41
560.13	47693.10
560.30	47690.76
560.46	47889.70
560.63	47428.62
560.79	47665.01
560.96	47786.72
561.12	47784.38
561.29	47845.23
561.45	48065.24
561.61	48088.65
561.78	48165.88
561.94	47732.89
562.11	47866.30
562.27	47798.42
562.44	47718.84
562.60	47578.41
562.77	48048.86
562.93	47852.25
563.10	48381.21
563.26	47564.37
563.42	48130.78
563.59	48341.42
563.75	47922.47
563.92	48402.28
564.08	47695.44
564.24	48142.48
564.41	47847.57
564.57	47763.31
564.74	48182.27
564.90	48287.59
565.07	48376.53
565.23	48322.70
565.39	47889.70
565.56	48348.45
565.72	47831.19
565.88	48240.78
566.05	47927.15
566.21	47957.58
566.38	48383.55
566.54	48081.63
566.70	48254.82
566.87	48374.19
567.03	48315.68
567.19	48538.03
567.36	48479.52
567.52	48217.38
567.68	48088.65
567.85	47803.10
568.01	47763.31
568.17	48184.61
568.34	48348.45
568.50	48093.33
568.66	48158.86
568.83	48755.70
568.99	48250.14
569.15	48027.79
569.32	48603.56
569.48	48046.52
569.64	48348.45
569.81	48170.57
569.97	47957.58
570.13	48376.53
570.30	48311.00
570.46	48673.78
570.62	48432.71
570.78	48353.13
570.95	47852.25
571.11	48467.81
571.27	47992.68
571.43	48196.31
571.60	48694.85
571.76	48404.62
571.92	48615.27
572.09	48528.67
572.25	48669.10
572.41	48683.14
572.57	48292.27
572.74	48631.65
572.90	48224.40
573.06	48442.07
573.22	48378.87
573.38	48584.84
573.55	48311.00
573.71	48477.18
573.87	48495.90
574.03	48493.56
574.20	48196.31
574.36	48348.45
574.52	48495.90
574.68	48484.20
574.84	48736.98
575.01	48559.09
575.17	48732.29
575.33	48306.32
575.49	48746.34
575.65	48306.32
575.82	48767.40
575.98	48451.43
576.14	49003.80
576.30	48561.44
576.46	48404.62
576.62	48423.34
576.79	48856.34
576.95	48348.45
577.11	48645.69
577.27	48367.17
577.43	48399.94
577.59	48495.90
577.75	48343.77
577.92	48615.27
578.08	48392.92
578.24	48493.56
578.40	48875.07
578.56	48385.89
578.72	48275.89
578.88	49284.66
579.04	48624.63
579.21	48692.50
579.37	48528.67
579.53	48615.27
579.69	48095.67
579.85	48189.29
580.01	48561.44
580.17	48500.58
580.33	48942.94
580.49	48678.46
580.65	48837.62
580.82	48690.16
580.98	48701.87
581.14	48430.36
581.30	48650.38
581.46	48376.53
581.62	48631.65
581.78	48439.73
581.94	48465.47
582.10	48467.81
582.26	48671.44
582.42	48971.03
582.58	48907.83
582.74	48666.76
582.90	48748.68
583.06	48549.73
583.22	48444.41
583.38	48509.94
583.54	48500.58
583.70	48191.63
583.86	48479.52
584.02	48477.18
584.18	48769.74
584.34	48531.01
584.50	48781.45
584.66	48849.32
584.82	48573.14
584.98	48622.29
585.14	48589.52
585.30	48463.13
585.46	48385.89
585.62	48648.03
585.78	48514.62
585.94	48531.01
586.10	48718.25
586.26	48318.02
586.42	49083.37
586.58	48704.21
586.74	48453.77
586.90	48516.96
587.06	48371.85
587.22	48594.20
587.38	48413.98
587.54	48706.55
587.70	49029.54
587.86	48814.21
588.02	48584.84
588.18	48559.09
588.34	48444.41
588.49	48725.27
588.65	48203.33
588.81	48409.30
588.97	48641.01
589.13	48629.31
589.29	48605.91
589.45	48921.88
589.61	48727.61
589.77	49022.52
589.93	48980.39
590.08	48996.77
590.24	48612.93
