SpectraSuite Data File
++++++++++++++++++++++++++++++++++++
Date: Fri Oct 04 11:39:51 GMT-05:00 2013
User: price-jones
Dark Spectrum Present: No
Reference Spectrum Present: No
Number of Sampled Component Spectra: 1
Spectrometers: USB2+H05261
Integration Time (usec): 100000 (USB2+H05261)
Spectra Averaged: 1 (USB2+H05261)
Boxcar Smoothing: 0 (USB2+H05261)
Correct for Electrical Dark: No (USB2+H05261)
Strobe/Lamp Enabled: No (USB2+H05261)
Correct for Detector Non-linearity: No (USB2+H05261)
Correct for Stray Light: No (USB2+H05261)
Number of Pixels in Processed Spectrum: 2048
>>>>>Begin Processed Spectral Data<<<<<
365.73	46.81
365.92	46.81
366.12	46.81
366.32	0.00
366.52	0.00
366.72	0.00
366.91	0.00
367.11	0.00
367.31	0.00
367.51	0.00
367.70	0.00
367.90	0.00
368.10	0.00
368.30	0.00
368.49	0.00
368.69	51.49
368.89	0.00
369.09	0.00
369.28	0.00
369.48	0.00
369.68	0.00
369.87	0.00
370.07	0.00
370.27	0.00
370.47	9.36
370.66	37.45
370.86	98.30
371.06	102.98
371.25	37.45
371.45	81.92
371.65	105.32
371.84	88.94
372.04	100.64
372.24	114.69
372.44	74.90
372.63	191.92
372.83	173.20
373.03	81.92
373.22	124.05
373.42	105.32
373.62	70.22
373.81	175.54
374.01	128.73
374.21	128.73
374.40	182.56
374.60	180.22
374.79	142.77
374.99	84.26
375.19	208.31
375.38	121.71
375.58	121.71
375.78	215.33
375.97	215.33
376.17	212.99
376.37	51.49
376.56	131.07
376.76	56.17
376.95	91.28
377.15	180.22
377.35	107.66
377.54	126.39
377.74	187.24
377.93	110.01
378.13	84.26
378.33	145.11
378.52	37.45
378.72	184.90
378.91	140.43
379.11	124.05
379.31	131.07
379.50	177.88
379.70	163.84
379.89	37.45
380.09	93.62
380.28	105.32
380.48	119.37
380.68	25.75
380.87	177.88
381.07	149.79
381.26	112.35
381.46	114.69
381.65	79.58
381.85	35.11
382.04	98.30
382.24	156.82
382.43	112.35
382.63	23.41
382.83	84.26
383.02	194.26
383.22	107.66
383.41	0.00
383.61	154.48
383.80	74.90
384.00	159.16
384.19	124.05
384.39	72.56
384.58	95.96
384.78	88.94
384.97	135.75
385.17	203.63
385.36	79.58
385.56	142.77
385.75	44.47
385.95	46.81
386.14	119.37
386.34	88.94
386.53	184.90
386.72	121.71
386.92	133.41
387.11	201.29
387.31	102.98
387.50	86.60
387.70	170.86
387.89	18.72
388.09	67.88
388.28	147.45
388.48	154.48
388.67	152.13
388.86	138.09
389.06	131.07
389.25	110.01
389.45	124.05
389.64	140.43
389.84	145.11
390.03	166.18
390.22	170.86
390.42	163.84
390.61	72.56
390.81	53.83
391.00	138.09
391.19	147.45
391.39	145.11
391.58	149.79
391.78	119.37
391.97	79.58
392.16	60.85
392.36	163.84
392.55	133.41
392.75	95.96
392.94	163.84
393.13	149.79
393.33	91.28
393.52	98.30
393.71	175.54
393.91	72.56
394.10	119.37
394.29	98.30
394.49	131.07
394.68	161.50
394.88	105.32
395.07	168.52
395.26	110.01
395.46	117.03
395.65	135.75
395.84	124.05
396.04	142.77
396.23	112.35
396.42	128.73
396.62	84.26
396.81	105.32
397.00	112.35
397.19	60.85
397.39	81.92
397.58	154.48
397.77	77.24
397.97	189.58
398.16	173.20
398.35	145.11
398.55	93.62
398.74	126.39
398.93	117.03
399.12	58.51
399.32	128.73
399.51	198.95
399.70	159.16
399.90	142.77
400.09	147.45
400.28	170.86
400.47	154.48
400.67	189.58
400.86	170.86
401.05	145.11
401.24	117.03
401.44	107.66
401.63	147.45
401.82	161.50
402.01	107.66
402.21	138.09
402.40	187.24
402.59	74.90
402.78	131.07
402.97	149.79
403.17	196.60
403.36	205.97
403.55	98.30
403.74	156.82
403.93	184.90
404.13	315.97
404.32	276.18
404.51	276.18
404.70	184.90
404.89	168.52
405.09	159.16
405.28	170.86
405.47	142.77
405.66	156.82
405.85	168.52
406.05	196.60
406.24	234.05
406.43	102.98
406.62	124.05
406.81	161.50
407.00	184.90
407.20	133.41
407.39	88.94
407.58	161.50
407.77	145.11
407.96	184.90
408.15	163.84
408.34	175.54
408.54	110.01
408.73	131.07
408.92	72.56
409.11	121.71
409.30	126.39
409.49	105.32
409.68	168.52
409.87	112.35
410.07	110.01
410.26	110.01
410.45	191.92
410.64	95.96
410.83	149.79
411.02	91.28
411.21	196.60
411.40	133.41
411.59	170.86
411.78	110.01
411.98	173.20
412.17	154.48
412.36	156.82
412.55	229.37
412.74	138.09
412.93	184.90
413.12	159.16
413.31	205.97
413.50	145.11
413.69	128.73
413.88	152.13
414.07	154.48
414.26	88.94
414.45	149.79
414.64	168.52
414.83	152.13
415.02	91.28
415.22	198.95
415.41	220.01
415.60	161.50
415.79	98.30
415.98	196.60
416.17	102.98
416.36	135.75
416.55	152.13
416.74	117.03
416.93	191.92
417.12	149.79
417.31	140.43
417.50	187.24
417.69	222.35
417.88	184.90
418.07	119.37
418.26	220.01
418.45	67.88
418.64	224.69
418.83	201.29
419.02	110.01
419.21	205.97
419.39	170.86
419.58	138.09
419.77	205.97
419.96	215.33
420.15	154.48
420.34	149.79
420.53	124.05
420.72	198.95
420.91	161.50
421.10	131.07
421.29	159.16
421.48	170.86
421.67	124.05
421.86	198.95
422.05	138.09
422.24	245.76
422.43	117.03
422.61	135.75
422.80	161.50
422.99	215.33
423.18	191.92
423.37	187.24
423.56	121.71
423.75	107.66
423.94	126.39
424.13	191.92
424.32	128.73
424.50	189.58
424.69	163.84
424.88	203.63
425.07	112.35
425.26	173.20
425.45	175.54
425.64	168.52
425.83	194.26
426.01	194.26
426.20	168.52
426.39	131.07
426.58	126.39
426.77	201.29
426.96	215.33
427.15	198.95
427.33	110.01
427.52	184.90
427.71	149.79
427.90	163.84
428.09	95.96
428.28	159.16
428.46	114.69
428.65	119.37
428.84	166.18
429.03	170.86
429.22	138.09
429.40	182.56
429.59	147.45
429.78	194.26
429.97	93.62
430.16	173.20
430.34	110.01
430.53	53.83
430.72	154.48
430.91	257.46
431.10	128.73
431.28	194.26
431.47	147.45
431.66	182.56
431.85	133.41
432.03	163.84
432.22	140.43
432.41	140.43
432.60	208.31
432.79	191.92
432.97	177.88
433.16	91.28
433.35	175.54
433.54	121.71
433.72	147.45
433.91	170.86
434.10	140.43
434.28	173.20
434.47	138.09
434.66	140.43
434.85	159.16
435.03	360.44
435.22	617.90
435.41	1074.31
435.59	1125.80
435.78	894.08
435.97	554.71
436.16	259.80
436.34	236.39
436.53	234.05
436.72	271.50
436.90	196.60
437.09	180.22
437.28	203.63
437.46	133.41
437.65	182.56
437.84	152.13
438.02	166.18
438.21	212.99
438.40	210.65
438.58	124.05
438.77	196.60
438.96	217.67
439.14	142.77
439.33	187.24
439.52	147.45
439.70	119.37
439.89	154.48
440.08	194.26
440.26	170.86
440.45	173.20
440.63	210.65
440.82	177.88
441.01	163.84
441.19	166.18
441.38	229.37
441.57	250.44
441.75	264.48
441.94	177.88
442.12	168.52
442.31	145.11
442.50	166.18
442.68	180.22
442.87	243.42
443.05	191.92
443.24	269.16
443.43	222.35
443.61	210.65
443.80	163.84
443.98	184.90
444.17	196.60
444.35	168.52
444.54	173.20
444.73	187.24
444.91	229.37
445.10	166.18
445.28	154.48
445.47	177.88
445.65	184.90
445.84	182.56
446.02	177.88
446.21	126.39
446.39	166.18
446.58	187.24
446.77	194.26
446.95	182.56
447.14	147.45
447.32	236.39
447.51	119.37
447.69	154.48
447.88	124.05
448.06	159.16
448.25	182.56
448.43	126.39
448.62	126.39
448.80	205.97
448.99	180.22
449.17	196.60
449.36	133.41
449.54	177.88
449.73	238.73
449.91	159.16
450.10	135.75
450.28	266.82
450.46	227.03
450.65	196.60
450.83	152.13
451.02	194.26
451.20	149.79
451.39	196.60
451.57	110.01
451.76	119.37
451.94	248.10
452.13	184.90
452.31	166.18
452.49	182.56
452.68	114.69
452.86	210.65
453.05	245.76
453.23	210.65
453.42	161.50
453.60	142.77
453.78	170.86
453.97	217.67
454.15	133.41
454.34	229.37
454.52	168.52
454.70	212.99
454.89	135.75
455.07	187.24
455.26	224.69
455.44	210.65
455.62	154.48
455.81	201.29
455.99	238.73
456.17	152.13
456.36	133.41
456.54	149.79
456.73	138.09
456.91	191.92
457.09	196.60
457.28	173.20
457.46	177.88
457.64	215.33
457.83	250.44
458.01	124.05
458.19	234.05
458.38	198.95
458.56	187.24
458.74	154.48
458.93	182.56
459.11	161.50
459.29	121.71
459.48	187.24
459.66	175.54
459.84	276.18
460.03	294.91
460.21	189.58
460.39	241.08
460.57	227.03
460.76	180.22
460.94	177.88
461.12	198.95
461.31	208.31
461.49	65.54
461.67	147.45
461.85	227.03
462.04	147.45
462.22	676.41
462.40	234.05
462.59	203.63
462.77	147.45
462.95	210.65
463.13	198.95
463.32	229.37
463.50	175.54
463.68	180.22
463.86	205.97
464.05	161.50
464.23	187.24
464.41	210.65
464.59	234.05
464.78	210.65
464.96	154.48
465.14	140.43
465.32	149.79
465.50	191.92
465.69	191.92
465.87	168.52
466.05	187.24
466.23	189.58
466.41	196.60
466.60	215.33
466.78	180.22
466.96	187.24
467.14	198.95
467.32	124.05
467.51	166.18
467.69	259.80
467.87	259.80
468.05	191.92
468.23	297.25
468.41	234.05
468.60	231.71
468.78	227.03
468.96	147.45
469.14	210.65
469.32	217.67
469.50	156.82
469.69	203.63
469.87	203.63
470.05	184.90
470.23	198.95
470.41	168.52
470.59	128.73
470.77	180.22
470.95	180.22
471.14	189.58
471.32	180.22
471.50	273.84
471.68	257.46
471.86	266.82
472.04	156.82
472.22	203.63
472.40	147.45
472.58	182.56
472.77	149.79
472.95	133.41
473.13	278.52
473.31	201.29
473.49	145.11
473.67	205.97
473.85	191.92
474.03	222.35
474.21	187.24
474.39	266.82
474.57	290.23
474.75	243.42
474.93	128.73
475.12	191.92
475.30	203.63
475.48	196.60
475.66	210.65
475.84	145.11
476.02	187.24
476.20	229.37
476.38	208.31
476.56	269.16
476.74	140.43
476.92	201.29
477.10	65.54
477.28	205.97
477.46	198.95
477.64	205.97
477.82	241.08
478.00	177.88
478.18	248.10
478.36	175.54
478.54	241.08
478.72	180.22
478.90	224.69
479.08	201.29
479.26	203.63
479.44	203.63
479.62	262.14
479.80	243.42
479.98	166.18
480.16	121.71
480.34	266.82
480.52	231.71
480.70	264.48
480.88	210.65
481.06	271.50
481.24	210.65
481.41	273.84
481.59	236.39
481.77	248.10
481.95	273.84
482.13	187.24
482.31	227.03
482.49	161.50
482.67	259.80
482.85	259.80
483.03	222.35
483.21	266.82
483.39	205.97
483.57	215.33
483.74	271.50
483.92	250.44
484.10	271.50
484.28	344.06
484.46	425.98
484.64	292.57
484.82	341.72
485.00	320.65
485.18	257.46
485.35	285.55
485.53	332.36
485.71	308.95
485.89	353.42
486.07	299.59
486.25	339.38
486.43	355.76
486.61	381.51
486.78	337.04
486.96	327.68
487.14	304.27
487.32	327.68
487.50	353.42
487.68	369.80
487.85	257.46
488.03	411.93
488.21	365.12
488.39	264.48
488.57	315.97
488.75	339.38
488.92	557.05
489.10	339.38
489.28	318.31
489.46	367.46
489.64	402.57
489.81	278.52
489.99	334.70
490.17	367.46
490.35	327.68
490.53	287.89
490.70	294.91
490.88	325.33
491.06	348.74
491.24	341.72
491.41	348.74
491.59	315.97
491.77	290.23
491.95	353.42
492.13	304.27
492.30	325.33
492.48	287.89
492.66	330.02
492.84	344.06
493.01	301.93
493.19	273.84
493.37	337.04
493.54	264.48
493.72	297.25
493.90	292.57
494.08	353.42
494.25	404.91
494.43	388.53
494.61	322.99
494.79	257.46
494.96	266.82
495.14	353.42
495.32	365.12
495.49	294.91
495.67	294.91
495.85	250.44
496.02	315.97
496.20	327.68
496.38	360.44
496.55	407.25
496.73	332.36
496.91	259.80
497.09	334.70
497.26	325.33
497.44	346.40
497.62	327.68
497.79	292.57
497.97	327.68
498.14	248.10
498.32	299.59
498.50	334.70
498.67	269.16
498.85	266.82
499.03	266.82
499.20	257.46
499.38	241.08
499.56	234.05
499.73	308.95
499.91	339.38
500.08	287.89
500.26	241.08
500.44	276.18
500.61	341.72
500.79	304.27
500.97	280.86
501.14	325.33
501.32	285.55
501.49	292.57
501.67	227.03
501.84	332.36
502.02	203.63
502.20	273.84
502.37	308.95
502.55	306.61
502.72	273.84
502.90	301.93
503.07	301.93
503.25	301.93
503.43	283.20
503.60	292.57
503.78	273.84
503.95	285.55
504.13	330.02
504.30	259.80
504.48	313.63
504.65	376.83
504.83	308.95
505.01	250.44
505.18	283.20
505.36	313.63
505.53	290.23
505.71	287.89
505.88	327.68
506.06	238.73
506.23	222.35
506.41	322.99
506.58	250.44
506.76	236.39
506.93	297.25
507.11	301.93
507.28	269.16
507.46	315.97
507.63	322.99
507.81	294.91
507.98	308.95
508.16	369.80
508.33	301.93
508.50	353.42
508.68	311.29
508.85	252.78
509.03	241.08
509.20	273.84
509.38	285.55
509.55	304.27
509.73	287.89
509.90	414.27
510.08	278.52
510.25	283.20
510.42	248.10
510.60	351.08
510.77	304.27
510.95	353.42
511.12	271.50
511.30	269.16
511.47	327.68
511.64	341.72
511.82	278.52
511.99	339.38
512.17	278.52
512.34	339.38
512.51	308.95
512.69	292.57
512.86	306.61
513.04	276.18
513.21	348.74
513.38	276.18
513.56	278.52
513.73	250.44
513.90	322.99
514.08	266.82
514.25	292.57
514.43	266.82
514.60	236.39
514.77	236.39
514.95	285.55
515.12	355.76
515.29	311.29
515.47	280.86
515.64	250.44
515.81	220.01
515.99	283.20
516.16	330.02
516.33	341.72
516.51	290.23
516.68	273.84
516.85	304.27
517.03	220.01
517.20	353.42
517.37	322.99
517.54	299.59
517.72	276.18
517.89	241.08
518.06	285.55
518.24	294.91
518.41	287.89
518.58	236.39
518.75	285.55
518.93	315.97
519.10	280.86
519.27	376.83
519.45	304.27
519.62	259.80
519.79	290.23
519.96	280.86
520.14	304.27
520.31	318.31
520.48	229.37
520.65	320.65
520.83	334.70
521.00	330.02
521.17	287.89
521.34	278.52
521.52	262.14
521.69	287.89
521.86	290.23
522.03	259.80
522.20	330.02
522.38	259.80
522.55	287.89
522.72	365.12
522.89	311.29
523.07	301.93
523.24	255.12
523.41	229.37
523.58	250.44
523.75	238.73
523.92	278.52
524.10	292.57
524.27	318.31
524.44	348.74
524.61	327.68
524.78	358.10
524.96	297.25
525.13	222.35
525.30	374.49
525.47	353.42
525.64	280.86
525.81	255.12
525.98	318.31
526.16	287.89
526.33	224.69
526.50	297.25
526.67	271.50
526.84	236.39
527.01	273.84
527.18	280.86
527.36	318.31
527.53	346.40
527.70	344.06
527.87	304.27
528.04	294.91
528.21	236.39
528.38	311.29
528.55	278.52
528.72	346.40
528.89	451.72
529.07	348.74
529.24	320.65
529.41	337.04
529.58	320.65
529.75	330.02
529.92	374.49
530.09	369.80
530.26	346.40
530.43	241.08
530.60	327.68
530.77	393.21
530.94	393.21
531.11	248.10
531.28	304.27
531.46	287.89
531.63	304.27
531.80	315.97
531.97	348.74
532.14	337.04
532.31	365.12
532.48	367.46
532.65	351.08
532.82	358.10
532.99	395.55
533.16	313.63
533.33	421.30
533.50	416.62
533.67	322.99
533.84	322.99
534.01	421.30
534.18	330.02
534.35	376.83
534.52	278.52
534.69	339.38
534.86	344.06
535.03	348.74
535.20	351.08
535.37	386.19
535.54	346.40
535.71	341.72
535.88	486.83
536.05	346.40
536.22	407.25
536.38	395.55
536.55	393.21
536.72	444.70
536.89	358.10
537.06	374.49
537.23	425.98
537.40	449.38
537.57	468.11
537.74	437.68
537.91	498.53
538.08	493.85
538.25	528.96
538.42	512.58
538.59	547.69
538.75	458.74
538.92	482.15
539.09	503.22
539.26	498.53
539.43	561.73
539.60	564.07
539.77	695.14
539.94	692.80
540.11	774.72
540.28	793.44
540.44	858.98
540.61	795.78
540.78	779.40
540.95	973.66
541.12	1210.06
541.29	1284.95
541.46	1338.79
541.62	1315.38
541.79	1394.96
541.96	1373.89
542.13	1357.51
542.30	1170.27
542.47	1198.35
542.63	1231.12
542.80	1104.73
542.97	1179.63
543.14	1270.91
543.31	1200.69
543.48	1118.78
543.64	1299.00
543.81	1144.52
543.98	1287.29
544.15	1109.41
544.32	1104.73
544.48	1170.27
544.65	1123.46
544.82	1078.99
544.99	1160.91
545.16	1123.46
545.32	1167.93
545.49	1708.59
545.66	2551.18
545.83	3251.00
546.00	2822.69
546.16	2033.93
546.33	1603.27
546.50	1245.16
546.67	1041.54
546.83	866.00
547.00	870.68
547.17	798.12
547.34	880.04
547.50	896.43
547.67	713.86
547.84	702.16
548.00	802.80
548.17	763.01
548.34	746.63
548.51	763.01
548.67	781.74
548.84	704.50
549.01	774.72
549.18	683.44
549.34	643.65
549.51	631.94
549.68	709.18
549.84	641.31
550.01	521.94
550.18	643.65
550.34	657.69
550.51	575.77
550.68	561.73
550.84	554.71
551.01	554.71
551.18	566.41
551.34	528.96
551.51	465.77
551.68	500.87
551.84	547.69
552.01	538.32
552.18	425.98
552.34	498.53
552.51	489.17
552.68	510.24
552.84	566.41
553.01	458.74
553.18	498.53
553.34	430.66
553.51	402.57
553.67	433.00
553.84	510.24
554.01	421.30
554.17	376.83
554.34	463.43
554.51	440.02
554.67	430.66
554.84	505.56
555.00	393.21
555.17	318.31
555.33	433.00
555.50	379.17
555.67	372.15
555.83	341.72
556.00	358.10
556.16	512.58
556.33	287.89
556.50	369.80
556.66	337.04
556.83	334.70
556.99	337.04
557.16	351.08
557.32	322.99
557.49	360.44
557.65	299.59
557.82	346.40
557.98	374.49
558.15	358.10
558.32	315.97
558.48	332.36
558.65	346.40
558.81	346.40
558.98	255.12
559.14	313.63
559.31	330.02
559.47	327.68
559.64	395.55
559.80	313.63
559.97	358.10
560.13	344.06
560.30	264.48
560.46	369.80
560.63	280.86
560.79	318.31
560.96	320.65
561.12	344.06
561.29	355.76
561.45	315.97
561.61	276.18
561.78	372.15
561.94	374.49
562.11	266.82
562.27	292.57
562.44	306.61
562.60	337.04
562.77	374.49
562.93	325.33
563.10	339.38
563.26	358.10
563.42	301.93
563.59	313.63
563.75	376.83
563.92	442.36
564.08	358.10
564.24	360.44
564.41	381.51
564.57	353.42
564.74	320.65
564.90	311.29
565.07	334.70
565.23	273.84
565.39	337.04
565.56	327.68
565.72	301.93
565.88	278.52
566.05	308.95
566.21	271.50
566.38	334.70
566.54	287.89
566.70	250.44
566.87	311.29
567.03	245.76
567.19	327.68
567.36	229.37
567.52	341.72
567.68	341.72
567.85	351.08
568.01	348.74
568.17	182.56
568.34	290.23
568.50	278.52
568.66	292.57
568.83	327.68
568.99	332.36
569.15	386.19
569.32	262.14
569.48	325.33
569.64	257.46
569.81	327.68
569.97	248.10
570.13	334.70
570.30	372.15
570.46	306.61
570.62	210.65
570.78	259.80
570.95	250.44
571.11	318.31
571.27	355.76
571.43	322.99
571.60	362.78
571.76	285.55
571.92	306.61
572.09	304.27
572.25	266.82
572.41	320.65
572.57	297.25
572.74	362.78
572.90	308.95
573.06	318.31
573.22	367.46
573.38	376.83
573.55	360.44
573.71	360.44
573.87	341.72
574.03	344.06
574.20	339.38
574.36	297.25
574.52	287.89
574.68	252.78
574.84	248.10
575.01	287.89
575.17	348.74
575.33	322.99
575.49	292.57
575.65	341.72
575.82	332.36
575.98	386.19
576.14	332.36
576.30	423.64
576.46	538.32
576.62	784.08
576.79	812.17
576.95	720.88
577.11	521.94
577.27	498.53
577.43	433.00
577.59	447.04
577.75	454.06
577.92	320.65
578.08	369.80
578.24	355.76
578.40	395.55
578.56	613.22
578.72	725.57
578.88	772.38
579.04	681.10
579.21	648.33
579.37	477.47
579.53	440.02
579.69	491.51
579.85	461.09
580.01	592.16
580.17	517.26
580.33	465.77
580.49	463.43
580.65	454.06
580.82	386.19
580.98	402.57
581.14	407.25
581.30	514.92
581.46	505.56
581.62	400.23
581.78	496.19
581.94	498.53
582.10	503.22
582.26	610.88
582.42	571.09
582.58	503.22
582.74	411.93
582.90	554.71
583.06	589.82
583.22	468.11
583.38	524.28
583.54	472.79
583.70	521.94
583.86	566.41
584.02	507.90
584.18	610.88
584.34	535.98
584.50	505.56
584.66	571.09
584.82	449.38
584.98	472.79
585.14	524.28
585.30	454.06
585.46	489.17
585.62	514.92
585.78	512.58
585.94	482.15
586.10	547.69
586.26	463.43
586.42	587.47
586.58	552.37
586.74	575.77
586.90	582.79
587.06	725.57
587.22	629.60
587.38	683.44
587.54	589.82
587.70	601.52
587.86	514.92
588.02	472.79
588.18	535.98
588.34	451.72
588.49	425.98
588.65	418.96
588.81	372.15
588.97	327.68
589.13	411.93
589.29	423.64
589.45	500.87
589.61	369.80
589.77	451.72
589.93	435.34
590.08	397.89
590.24	465.77
590.40	442.36
590.56	491.51
590.72	510.24
590.88	458.74
591.04	454.06
591.20	425.98
591.35	437.68
591.51	521.94
591.67	435.34
591.83	449.38
591.99	493.85
592.15	463.43
592.31	510.24
592.46	484.49
592.62	582.79
592.78	620.24
592.94	660.03
593.10	543.00
593.26	608.54
593.41	550.03
593.57	533.64
593.73	454.06
593.89	491.51
594.05	348.74
594.20	369.80
594.36	465.77
594.52	365.12
594.68	437.68
594.84	386.19
594.99	379.17
595.15	388.53
595.31	397.89
595.47	458.74
595.62	421.30
595.78	365.12
595.94	421.30
596.10	430.66
596.25	390.87
596.41	451.72
596.57	264.48
596.73	409.59
596.88	468.11
597.04	442.36
597.20	337.04
597.36	376.83
597.51	400.23
597.67	334.70
597.83	376.83
597.99	353.42
598.14	402.57
598.30	411.93
598.46	463.43
598.61	458.74
598.77	416.62
598.93	407.25
599.09	449.38
599.24	491.51
599.40	435.34
599.56	458.74
599.71	498.53
599.87	482.15
600.03	463.43
600.18	425.98
600.34	416.62
600.50	388.53
600.65	397.89
600.81	397.89
600.97	341.72
601.12	365.12
601.28	365.12
601.44	376.83
601.59	430.66
601.75	393.21
601.91	409.59
602.06	313.63
602.22	430.66
602.37	407.25
602.53	418.96
602.69	339.38
602.84	311.29
603.00	402.57
603.16	397.89
603.31	470.45
603.47	397.89
603.62	339.38
603.78	407.25
603.94	381.51
604.09	330.02
604.25	374.49
604.40	402.57
604.56	294.91
604.71	278.52
604.87	346.40
605.03	402.57
605.18	411.93
605.34	390.87
605.49	414.27
605.65	425.98
605.80	355.76
605.96	334.70
606.12	409.59
606.27	404.91
606.43	388.53
606.58	416.62
606.74	390.87
606.89	374.49
607.05	379.17
607.20	390.87
607.36	400.23
607.51	512.58
607.67	479.81
607.82	447.04
607.98	463.43
608.13	486.83
608.29	468.11
608.44	507.90
608.60	437.68
608.75	636.63
608.91	535.98
609.06	538.32
609.22	566.41
609.37	695.14
609.53	655.35
609.68	786.42
609.84	805.14
609.99	891.74
610.15	1118.78
610.30	1348.15
610.46	1533.05
610.61	1776.47
610.76	2223.51
610.92	2532.46
