SpectraSuite Data File
++++++++++++++++++++++++++++++++++++
Date: Fri Oct 04 11:39:48 GMT-05:00 2013
User: price-jones
Dark Spectrum Present: No
Reference Spectrum Present: No
Number of Sampled Component Spectra: 1
Spectrometers: USB2+H05261
Integration Time (usec): 100000 (USB2+H05261)
Spectra Averaged: 1 (USB2+H05261)
Boxcar Smoothing: 0 (USB2+H05261)
Correct for Electrical Dark: No (USB2+H05261)
Strobe/Lamp Enabled: No (USB2+H05261)
Correct for Detector Non-linearity: No (USB2+H05261)
Correct for Stray Light: No (USB2+H05261)
Number of Pixels in Processed Spectrum: 2048
>>>>>Begin Processed Spectral Data<<<<<
365.73	88.94
365.92	88.94
366.12	88.94
366.32	35.11
366.52	7.02
366.72	0.00
366.91	0.00
367.11	0.00
367.31	0.00
367.51	0.00
367.70	0.00
367.90	0.00
368.10	0.00
368.30	0.00
368.49	16.38
368.69	0.00
368.89	0.00
369.09	58.51
369.28	0.00
369.48	0.00
369.68	0.00
369.87	70.22
370.07	0.00
370.27	42.13
370.47	95.96
370.66	376.83
370.86	472.79
371.06	479.81
371.25	521.94
371.45	554.71
371.65	519.60
371.84	538.32
372.04	477.47
372.24	456.40
372.44	575.77
372.63	519.60
372.83	575.77
373.03	578.11
373.22	517.26
373.42	606.20
373.62	690.46
373.81	629.60
374.01	636.63
374.21	676.41
374.40	690.46
374.60	678.76
374.79	699.82
374.99	638.97
375.19	671.73
375.38	678.76
375.58	643.65
375.78	624.92
375.97	713.86
376.17	697.48
376.37	725.57
376.56	683.44
376.76	739.61
376.95	713.86
377.15	741.95
377.35	690.46
377.54	777.06
377.74	795.78
377.93	763.01
378.13	823.87
378.33	814.51
378.52	763.01
378.72	713.86
378.91	809.83
379.11	786.42
379.31	814.51
379.50	730.25
379.70	777.06
379.89	807.48
380.09	751.31
380.28	849.61
380.48	866.00
380.68	779.40
380.87	788.76
381.07	898.77
381.26	889.40
381.46	896.43
381.65	961.96
381.85	866.00
382.04	912.81
382.24	823.87
382.43	901.11
382.63	945.58
382.83	901.11
383.02	957.28
383.22	894.08
383.41	1020.47
383.61	954.94
383.80	980.68
384.00	882.38
384.19	966.64
384.39	997.07
384.58	903.45
384.78	947.92
384.97	875.36
385.17	1032.18
385.36	968.98
385.56	1053.24
385.75	1034.52
385.95	1128.14
386.14	945.58
386.34	1048.56
386.53	1053.24
386.72	1069.62
386.92	1029.84
387.11	1114.10
387.31	1032.18
387.50	1046.22
387.70	1078.99
387.89	1158.57
388.09	1160.91
388.28	1067.28
388.48	1165.59
388.67	1219.42
388.86	1184.31
389.06	1177.29
389.25	1235.80
389.45	1214.74
389.64	1111.75
389.84	1177.29
390.03	1238.14
390.22	1240.48
390.42	1186.65
390.61	1196.01
390.81	1205.38
391.00	1331.76
391.19	1284.95
391.39	1322.40
391.58	1380.92
391.78	1359.85
391.97	1277.93
392.16	1261.55
392.36	1437.09
392.55	1315.38
392.75	1303.68
392.94	1306.02
393.13	1320.06
393.33	1453.47
393.52	1516.67
393.71	1371.55
393.91	1423.05
394.10	1439.43
394.29	1493.26
394.49	1460.49
394.68	1472.20
394.88	1425.39
395.07	1514.33
395.26	1500.28
395.46	1495.60
395.65	1582.20
395.84	1533.05
396.04	1701.57
396.23	1666.46
396.42	1614.97
396.62	1607.95
396.81	1568.16
397.00	1577.52
397.19	1612.63
397.39	1722.63
397.58	1788.17
397.77	1713.27
397.97	1636.03
398.16	1706.25
398.35	1802.21
398.55	1701.57
398.74	1722.63
398.93	1764.76
399.12	1746.04
399.32	1823.28
399.51	1732.00
399.70	1898.17
399.90	1785.83
400.09	1914.56
400.28	1987.11
400.47	1879.45
400.67	1877.11
400.86	1949.67
401.05	1963.71
401.24	1961.37
401.44	1942.64
401.63	2017.54
401.82	2017.54
402.01	2057.33
402.21	2017.54
402.40	2071.37
402.59	2122.87
402.78	2071.37
402.97	2094.78
403.17	2176.70
403.36	2157.97
403.55	2148.61
403.74	2146.27
403.93	2317.13
404.13	2333.51
404.32	2232.87
404.51	2272.66
404.70	2361.60
404.89	2349.90
405.09	2438.84
405.28	2258.62
405.47	2342.88
405.66	2373.30
405.85	2492.67
406.05	2387.35
406.24	2396.71
406.43	2473.95
406.62	2600.34
406.81	2518.42
407.00	2438.84
407.20	2455.22
407.39	2534.80
407.58	2595.65
407.77	2499.69
407.96	2661.19
408.15	2724.38
408.34	2637.78
408.54	2597.99
408.73	2520.76
408.92	2693.96
409.11	2626.08
409.30	2736.09
409.49	2855.45
409.68	2841.41
409.87	2801.62
410.07	2850.77
410.26	2939.71
410.45	2869.50
410.64	2935.03
410.83	2970.14
411.02	3016.95
411.21	3026.31
411.40	2920.99
411.59	3026.31
411.78	2998.23
411.98	2949.08
412.17	3089.51
412.36	3197.17
412.55	3330.58
412.74	3248.66
412.93	3262.71
413.12	3405.48
413.31	3370.37
413.50	3421.86
413.69	3358.67
413.88	3543.57
414.07	3496.76
414.26	3641.87
414.45	3557.61
414.64	3403.14
414.83	3592.72
415.02	3660.60
415.22	3651.24
415.41	3742.52
415.60	3684.00
415.79	3896.99
415.98	3824.44
416.17	3882.95
416.36	3950.82
416.55	3941.46
416.74	3967.21
416.93	3899.33
417.12	3992.95
417.31	4044.45
417.50	4058.49
417.69	4100.62
417.88	4329.99
418.07	4224.67
418.26	4353.40
418.45	4381.48
418.64	4517.23
418.83	4498.51
419.02	4334.67
419.21	4472.76
419.39	4400.21
419.58	4461.06
419.77	4440.00
419.96	4458.72
420.15	4594.47
420.34	4521.92
420.53	4498.51
420.72	4697.46
420.91	4638.94
421.10	4798.10
421.29	4863.63
421.48	4711.50
421.67	4741.93
421.86	4697.46
422.05	4692.77
422.24	4718.52
422.43	4786.40
422.61	4683.41
422.80	4983.00
422.99	4819.16
423.18	4828.53
423.37	4894.06
423.56	4975.98
423.75	4809.80
423.94	4912.78
424.13	4655.33
424.32	4760.65
424.50	5036.83
424.69	5015.77
424.88	4990.02
425.07	4959.60
425.26	4842.57
425.45	4891.72
425.64	4887.04
425.83	4959.60
426.01	5004.07
426.20	5053.22
426.39	4961.94
426.58	4863.63
426.77	5153.86
426.96	5109.39
427.15	5188.97
427.33	5188.97
427.52	5224.08
427.71	5139.82
427.90	5270.89
428.09	5151.52
428.28	5345.78
428.46	5308.34
428.65	5455.79
428.84	5500.26
429.03	5603.24
429.22	5167.90
429.40	5401.96
429.59	5584.52
429.78	5214.71
429.97	5336.42
430.16	5514.30
430.34	5455.79
430.53	5774.10
430.72	5668.78
430.91	5619.63
431.10	5628.99
431.28	5734.31
431.47	5804.53
431.66	5809.21
431.85	5746.02
432.03	5956.66
432.22	5914.53
432.41	5743.67
432.60	5980.07
432.79	5785.80
432.97	5942.62
433.16	6015.18
433.35	5933.26
433.54	6069.01
433.72	6183.70
433.91	5963.68
434.10	6127.52
434.28	5977.73
434.47	5982.41
434.66	6183.70
434.85	6235.19
435.03	6399.02
435.22	6366.26
435.41	6590.95
435.59	6775.85
435.78	6609.67
435.97	6686.91
436.16	6525.41
436.34	6523.07
436.53	6483.28
436.72	6817.98
436.90	6450.52
437.09	6651.80
437.28	6532.44
437.46	6630.74
437.65	6787.55
437.84	6799.26
438.02	6733.72
438.21	6836.70
438.40	6815.64
438.58	6970.12
438.77	6965.43
438.96	7140.97
439.14	7190.13
439.33	7197.15
439.52	7190.13
439.70	7400.77
439.89	7454.61
440.08	7510.78
440.26	7478.01
440.45	7454.61
440.63	7613.76
440.82	7627.81
441.01	7433.54
441.19	7693.34
441.38	7714.41
441.57	7653.55
441.75	7892.29
441.94	8100.59
442.12	7995.27
442.31	8159.11
442.50	8124.00
442.68	7960.16
442.87	8100.59
443.05	8126.34
443.24	8336.99
443.43	8425.93
443.61	8313.58
443.80	8367.42
443.98	8341.67
444.17	8065.49
444.35	8390.82
444.54	8535.93
444.73	8500.83
444.91	8580.40
445.10	8470.40
445.28	8215.28
445.47	8245.71
445.65	8355.71
445.84	8463.38
446.02	8542.96
446.21	8402.52
446.39	8393.16
446.58	8624.87
446.77	8500.83
446.95	8276.13
447.14	8538.27
447.32	8531.25
447.51	8517.21
447.69	8489.12
447.88	8634.24
448.06	8734.88
448.25	8589.77
448.43	8627.21
448.62	8835.52
448.80	8655.30
448.99	8606.15
449.17	8636.58
449.36	8769.99
449.54	9008.72
449.73	9111.71
449.91	9074.26
450.10	8959.57
450.28	9362.14
450.46	9191.28
450.65	9179.58
450.83	9095.32
451.02	9415.98
451.20	9348.10
451.39	9472.15
451.57	9146.81
451.76	9291.93
451.94	9369.16
452.13	9551.73
452.31	9460.45
452.49	9371.50
452.68	9359.80
452.86	9507.26
453.05	9551.73
453.23	9537.68
453.42	9282.56
453.60	9394.91
453.78	9692.16
453.97	9666.41
454.15	9661.73
454.34	9500.23
454.52	10171.97
454.70	9729.61
454.89	9818.55
455.07	9881.74
455.26	9888.76
455.44	10174.31
455.62	9980.04
455.81	10174.31
455.99	10178.99
456.17	10232.82
456.36	10359.21
456.54	10087.71
456.73	10427.09
456.91	10504.32
457.09	10396.66
457.28	10885.83
457.46	10293.68
457.64	10640.08
457.83	10820.30
458.01	10310.06
458.19	10782.85
458.38	10764.12
458.56	11021.58
458.74	10897.53
458.93	10913.92
459.11	10822.64
459.29	11077.76
459.48	11061.37
459.66	11014.56
459.84	11026.26
460.03	11267.34
460.21	11117.54
460.39	11250.96
460.57	11147.97
460.76	11110.52
460.94	11110.52
461.12	11445.22
461.31	11480.33
461.49	11419.47
461.67	11199.46
461.85	11475.65
462.04	11400.75
462.22	12210.57
462.40	11700.34
462.59	11751.83
462.77	11789.28
462.95	11714.38
463.13	11791.62
463.32	11805.66
463.50	11763.53
463.68	11756.51
463.86	11971.84
464.05	11639.48
464.23	11915.67
464.41	12217.60
464.59	11922.69
464.78	12294.83
464.96	11892.26
465.14	11995.25
465.32	12149.72
465.50	12404.84
465.69	12379.09
465.87	12264.41
466.05	12257.39
466.23	12112.27
466.41	12606.13
466.60	12765.28
466.78	12306.54
466.96	12432.93
467.14	12360.37
467.32	12500.80
467.51	12606.13
467.69	12329.94
467.87	12666.98
468.05	12641.23
468.23	12404.84
468.41	12549.95
468.60	12723.15
468.78	12849.54
468.96	12674.00
469.14	12917.42
469.32	12996.99
469.50	12739.54
469.69	13202.96
469.87	13418.29
470.05	13249.77
470.23	13132.75
470.41	13357.44
470.59	13413.61
470.77	13540.00
470.95	13607.87
471.14	13802.14
471.32	13312.97
471.50	13921.51
471.68	13797.46
471.86	13891.08
472.04	13841.93
472.22	14146.20
472.40	13961.30
472.58	13909.80
472.77	14026.83
472.95	14384.93
473.13	14607.28
473.31	14288.97
473.49	14333.44
473.67	14637.71
473.85	14698.56
474.03	14888.15
474.21	14707.93
474.39	14902.19
474.57	15080.07
474.75	15124.54
474.93	15335.19
475.12	15318.81
475.30	15154.97
475.48	15225.18
475.66	15442.85
475.84	15552.86
476.02	15709.68
476.20	15702.65
476.38	16084.16
476.56	16095.86
476.74	16315.87
476.92	16465.67
477.10	16175.44
477.28	16503.12
477.46	16475.03
477.64	16620.14
477.82	16666.95
478.00	17137.40
478.18	17139.74
478.36	17324.65
478.54	17640.62
478.72	17444.01
478.90	17781.05
479.08	17673.39
479.26	18113.41
479.44	18139.15
479.62	18410.65
479.80	18422.36
479.98	18340.44
480.16	18530.02
480.34	18754.71
480.52	18869.40
480.70	19082.39
480.88	18979.40
481.06	19180.69
481.24	19274.31
481.41	19501.34
481.59	19831.36
481.77	19896.89
481.95	20025.62
482.13	20046.69
482.31	20170.74
482.49	20746.51
482.67	20737.15
482.85	20673.95
483.03	21104.61
483.21	21546.97
483.39	21252.06
483.57	21652.30
483.74	21724.85
483.92	21977.63
484.10	21664.00
484.28	21923.80
484.46	22436.38
484.64	22869.37
484.82	22698.52
485.00	22764.05
485.18	23325.78
485.35	23152.58
485.53	23421.74
485.71	23541.11
485.89	24121.56
486.07	23950.70
486.25	24191.78
486.43	24315.83
486.61	24184.76
486.78	24856.49
486.96	25010.96
487.14	25156.08
487.32	25193.53
487.50	25371.41
487.68	25640.57
487.85	25736.53
488.03	26059.52
488.21	26492.52
488.39	26712.53
488.57	26668.06
488.75	26642.32
488.92	26923.18
489.10	27381.93
489.28	27122.13
489.46	27880.46
489.64	27527.04
489.81	28343.89
489.99	28109.83
490.17	28680.92
490.35	29097.54
490.53	28781.57
490.70	29284.78
490.88	29230.95
491.06	29422.87
491.24	29511.81
491.41	29502.45
491.59	30106.31
491.77	29827.79
491.95	30389.52
492.13	30328.66
492.30	31075.29
492.48	30822.51
492.66	31082.31
492.84	31108.06
493.01	31512.97
493.19	31414.67
493.37	31833.63
493.54	32212.79
493.72	31988.10
493.90	32173.00
494.08	32746.44
494.25	33034.32
494.43	33064.75
494.61	33516.47
494.79	33240.29
494.96	33476.68
495.14	33441.57
495.32	33879.25
495.49	33710.74
495.67	34426.94
495.85	35278.89
496.02	34342.68
496.20	35278.89
496.38	34944.20
496.55	34955.90
496.73	35768.07
496.91	35306.98
497.09	36175.32
497.26	36355.54
497.44	35613.59
497.62	36149.57
497.79	36137.87
497.97	36418.74
498.14	36891.52
498.32	37266.01
498.50	37177.07
498.67	37102.17
498.85	36999.19
499.03	37584.32
499.20	37600.71
499.38	37731.78
499.56	37914.34
499.73	38174.14
499.91	38752.25
500.08	38740.55
500.26	38345.00
500.44	38583.73
500.61	38719.48
500.79	38614.16
500.97	39005.03
501.14	39395.90
501.32	39723.57
501.49	39187.59
501.67	39559.73
501.84	39639.31
502.02	40034.86
502.20	39978.69
502.37	40514.67
502.55	40486.59
502.72	40641.06
502.90	40184.66
503.07	40512.33
503.25	40456.16
503.43	40418.71
503.60	41546.85
503.78	41359.61
503.95	41542.17
504.13	41340.88
504.30	41249.60
504.48	40982.78
504.65	41715.37
504.83	41998.57
505.01	42380.08
505.18	42101.56
505.36	42691.37
505.53	42508.81
505.71	42548.60
505.88	42862.23
506.06	42010.28
506.23	43304.59
506.41	43012.02
506.58	43288.21
506.76	42829.46
506.93	43311.61
507.11	43349.06
507.28	43442.68
507.46	43739.93
507.63	43674.40
507.81	44142.50
507.98	44020.80
508.16	44519.33
508.33	44561.46
508.50	44650.40
508.68	44397.62
508.85	44715.93
509.03	45291.71
509.20	45223.83
509.38	45710.66
509.55	45600.66
509.73	45460.23
509.90	45691.94
510.08	45411.07
510.25	45514.06
510.42	45888.54
510.60	45949.40
510.77	46209.20
510.95	46576.66
511.12	46164.73
511.30	46291.12
511.47	46422.19
511.64	46513.47
511.82	46770.93
511.99	46759.22
512.17	47166.48
512.34	47384.15
512.51	46983.91
512.69	47510.53
512.86	47196.90
513.04	47665.01
513.21	47721.18
513.38	48385.89
513.56	47657.99
513.73	47777.36
513.90	48184.61
514.08	47969.28
514.25	48205.67
514.43	48556.75
514.60	48090.99
514.77	48652.72
514.95	48825.92
515.12	48626.97
515.29	48442.07
515.47	48800.17
515.64	49460.20
515.81	49085.72
515.99	49123.16
516.16	49530.42
516.33	49703.62
516.51	49528.08
516.68	49052.95
516.85	49659.15
517.03	49839.37
517.20	49904.90
517.37	49975.12
517.54	50031.29
517.72	50263.00
517.89	49762.13
518.06	50064.06
518.24	49947.03
518.41	50227.90
518.58	50607.06
518.75	50190.45
518.93	50904.31
519.10	50658.56
519.27	50557.91
519.45	50614.08
519.62	50419.82
519.79	50637.49
519.96	50656.21
520.14	51304.54
520.31	51126.66
520.48	50967.51
520.65	51203.90
520.83	51405.19
521.00	51341.99
521.17	51398.16
521.34	51477.74
521.52	51805.42
521.69	51936.49
521.86	52051.17
522.03	51896.70
522.20	52243.10
522.38	52357.78
522.55	52219.69
522.72	51995.00
522.89	52392.89
523.07	52580.13
523.24	52378.85
523.41	52758.02
523.58	52285.23
523.75	52376.51
523.92	52317.99
524.10	52554.39
524.27	53085.69
524.44	52914.83
524.61	53048.24
524.78	53146.54
524.96	52809.51
525.13	53066.97
525.30	52886.74
525.47	53460.18
525.64	53303.36
525.81	53333.79
525.98	53422.73
526.16	53429.75
526.33	53635.72
526.50	53464.86
526.67	53434.43
526.84	53616.99
527.01	53659.12
527.18	53673.16
527.36	53851.05
527.53	53921.26
527.70	54174.04
527.87	54330.86
528.04	53895.52
528.21	54045.31
528.38	53773.81
528.55	54260.64
528.72	54281.70
528.89	54344.90
529.07	54309.79
529.24	54468.95
529.41	54497.03
529.58	54471.29
529.75	54408.09
529.92	54691.30
530.09	54557.89
530.26	54522.78
530.43	54894.92
530.60	54714.70
530.77	54843.43
530.94	55089.19
531.11	54815.35
531.28	54911.31
531.46	54733.43
531.63	55068.12
531.80	54712.36
531.97	55320.90
532.14	55051.74
532.31	55082.17
532.48	55370.05
532.65	55299.84
532.82	55166.43
532.99	55491.76
533.16	55222.60
533.33	55868.59
533.50	55817.10
533.67	55475.38
533.84	55646.24
534.01	55526.87
534.18	55447.29
534.35	55714.11
534.52	55697.73
534.69	55868.59
534.86	55971.57
535.03	55931.78
535.20	56067.53
535.37	55994.98
535.54	56198.60
535.71	55859.23
535.88	55849.86
536.05	55929.44
536.22	56004.34
536.38	56224.35
536.55	56362.44
536.72	56203.28
536.89	56172.86
537.06	56292.22
537.23	56420.95
537.40	56360.10
537.57	56229.03
537.74	56399.89
537.91	56821.19
538.08	56493.51
538.25	56584.79
538.42	56619.90
538.59	56743.95
538.75	56449.04
538.92	56729.90
539.09	56966.30
539.26	57071.62
539.43	56912.47
539.60	57097.37
539.77	57071.62
539.94	57190.99
540.11	57078.64
540.28	57111.41
540.44	57080.98
540.61	57254.18
540.78	57272.91
540.95	57331.42
541.12	57469.51
541.29	57464.83
541.46	57261.21
541.62	57378.23
541.79	57696.55
541.96	57331.42
542.13	57481.22
542.30	57425.04
542.47	57492.92
542.63	57717.61
542.80	57911.88
542.97	57780.81
543.14	58010.18
543.31	58071.03
543.48	57876.77
543.64	57977.41
543.81	58246.57
543.98	58260.62
544.15	58445.52
544.32	58199.76
544.48	58480.63
544.65	58291.04
544.82	57982.09
544.99	57916.56
545.16	58244.23
545.32	58082.73
545.49	58585.95
545.66	58789.58
545.83	59054.06
546.00	58885.54
546.16	58438.50
546.33	58440.84
546.50	58316.79
546.67	58408.07
546.83	58138.91
547.00	58534.46
547.17	58436.16
547.34	58473.60
547.50	58436.16
547.67	58700.64
547.84	58930.01
548.00	58688.93
548.17	58841.07
548.34	58869.15
548.51	58852.77
548.67	58841.07
548.84	58822.34
549.01	58845.75
549.18	58822.34
549.34	59068.10
549.51	59032.99
549.68	58927.67
549.84	59011.93
550.01	58974.48
550.18	58850.43
550.34	58983.84
550.51	59135.98
550.68	58960.44
550.84	58871.49
551.01	59002.56
551.18	59028.31
551.34	58979.16
551.51	58988.52
551.68	59245.98
551.84	59302.15
552.01	59262.36
552.18	59337.26
552.34	59241.30
552.51	59435.56
552.68	59049.38
552.84	59360.67
553.01	59505.78
553.18	59512.80
553.34	59580.68
553.51	59379.39
553.67	59592.38
553.84	59725.79
554.01	59866.22
554.17	59465.99
554.34	59524.50
554.51	59660.26
554.67	59648.55
554.84	59568.97
555.00	59620.47
555.17	59702.38
555.33	59498.76
555.50	59662.60
555.67	59496.42
555.83	59545.57
556.00	59810.05
556.16	59913.03
556.33	59739.83
556.50	59779.62
556.66	59833.46
556.83	59901.33
556.99	60041.76
557.16	60367.10
557.32	60184.54
557.49	60184.54
557.65	60009.00
557.82	60011.34
557.98	59980.91
558.15	59854.52
558.32	60121.34
558.48	60151.77
558.65	60032.40
558.81	60280.50
558.98	60221.98
559.14	59978.57
559.31	59994.95
559.47	60041.76
559.64	60273.48
559.80	60285.18
559.97	60355.39
560.13	60130.70
560.30	60296.88
560.46	60666.69
560.63	60193.90
560.79	60465.40
560.96	60254.75
561.12	60360.08
561.29	60364.76
561.45	60355.39
561.61	60217.30
561.78	60310.92
561.94	60498.17
562.11	60474.76
562.27	60296.88
562.44	60406.89
562.60	60350.71
562.77	60392.84
562.93	60507.53
563.10	60676.05
563.26	60453.70
563.42	60924.14
563.59	60699.45
563.75	60617.53
563.92	60694.77
564.08	60699.45
564.24	60505.19
564.41	60598.81
564.57	60619.88
564.74	60505.19
564.90	60882.02
565.07	60678.39
565.23	60832.86
565.39	60910.10
565.56	60743.92
565.72	60711.16
565.88	60750.94
566.05	60640.94
566.21	60664.35
566.38	60451.36
566.54	60928.83
566.70	61031.81
566.87	61090.32
567.03	60835.20
567.19	61141.81
567.36	60910.10
567.52	60823.50
567.68	60863.29
567.85	60664.35
568.01	61038.83
568.17	60933.51
568.34	61020.11
568.50	60987.34
568.66	60938.19
568.83	61139.47
568.99	60956.91
569.15	61289.27
569.32	60774.35
569.48	60711.16
569.64	60947.55
569.81	60970.96
569.97	60938.19
570.13	61066.92
570.30	61134.79
570.46	61230.75
570.62	60973.30
570.78	61036.49
570.95	61038.83
571.11	61043.51
571.27	60884.36
571.43	60989.68
571.60	61078.62
571.76	61080.96
571.92	61387.57
572.09	61357.14
572.25	61319.70
572.41	61389.91
572.57	61073.94
572.74	61291.61
572.90	60952.23
573.06	61076.28
573.22	61111.39
573.38	61195.65
573.55	61235.44
573.71	61516.30
573.87	61455.45
574.03	61022.45
574.20	61242.46
574.36	61230.75
574.52	61062.24
574.68	61104.37
574.84	61303.31
575.01	61331.40
575.17	61373.53
575.33	61326.72
575.49	61268.20
575.65	61441.40
575.82	61427.36
575.98	61368.85
576.14	61441.40
576.30	61347.78
576.46	61289.27
576.62	61240.12
576.79	61389.91
576.95	61286.93
577.11	61432.04
577.27	61476.51
577.43	61364.17
577.59	61310.33
577.75	61368.85
577.92	61158.20
578.08	61357.14
578.24	61233.10
578.40	61226.07
578.56	61380.55
578.72	61291.61
578.88	61588.86
579.04	61462.47
579.21	61396.93
579.37	61579.49
579.53	61429.70
579.69	61315.01
579.85	61312.67
580.01	61326.72
580.17	61127.77
580.33	61506.94
580.49	61441.40
580.65	61539.71
580.82	61462.47
580.98	61502.26
581.14	61558.43
581.30	61537.36
581.46	61549.07
581.62	61565.45
581.78	61298.63
581.94	61535.02
582.10	61546.73
582.26	61750.35
582.42	61638.01
582.58	61841.63
582.74	61659.07
582.90	61539.71
583.06	61642.69
583.22	61361.82
583.38	61623.96
583.54	61684.82
583.70	61513.96
583.86	61748.01
584.02	61443.74
584.18	61689.50
584.34	61759.72
584.50	61600.56
584.66	61616.94
584.82	61403.95
584.98	61520.98
585.14	61848.66
585.30	61403.95
585.46	61579.49
585.62	61537.36
585.78	61719.93
585.94	61373.53
586.10	61609.92
586.26	61530.34
586.42	61680.14
586.58	61670.78
586.74	61619.28
586.90	61586.52
587.06	61413.32
587.22	61523.32
587.38	61497.58
587.54	61869.72
587.70	61932.92
587.86	61764.40
588.02	61764.40
588.18	61757.38
588.34	61771.42
588.49	61766.74
588.65	61696.52
588.81	61890.79
588.97	61911.85
