SpectraSuite Data File
++++++++++++++++++++++++++++++++++++
Date: Fri Oct 04 11:39:48 GMT-05:00 2013
User: price-jones
Dark Spectrum Present: No
Reference Spectrum Present: No
Number of Sampled Component Spectra: 1
Spectrometers: USB2+H05261
Integration Time (usec): 100000 (USB2+H05261)
Spectra Averaged: 1 (USB2+H05261)
Boxcar Smoothing: 0 (USB2+H05261)
Correct for Electrical Dark: No (USB2+H05261)
Strobe/Lamp Enabled: No (USB2+H05261)
Correct for Detector Non-linearity: No (USB2+H05261)
Correct for Stray Light: No (USB2+H05261)
Number of Pixels in Processed Spectrum: 2048
>>>>>Begin Processed Spectral Data<<<<<
365.73	88.94
365.92	88.94
366.12	88.94
366.32	0.00
366.52	0.00
366.72	0.00
366.91	0.00
367.11	0.00
367.31	0.00
367.51	0.00
367.70	0.00
367.90	0.00
368.10	0.00
368.30	0.00
368.49	0.00
368.69	18.72
368.89	23.41
369.09	0.00
369.28	0.00
369.48	0.00
369.68	0.00
369.87	7.02
370.07	0.00
370.27	35.11
370.47	100.64
370.66	360.44
370.86	351.08
371.06	386.19
371.25	442.36
371.45	322.99
371.65	367.46
371.84	463.43
372.04	421.30
372.24	458.74
372.44	397.89
372.63	425.98
372.83	435.34
373.03	400.23
373.22	475.13
373.42	442.36
373.62	440.02
373.81	521.94
374.01	545.34
374.21	421.30
374.40	505.56
374.60	458.74
374.79	470.45
374.99	416.62
375.19	580.45
375.38	500.87
375.58	535.98
375.78	582.79
375.97	528.96
376.17	561.73
376.37	531.30
376.56	489.17
376.76	554.71
376.95	592.16
377.15	578.11
377.35	547.69
377.54	524.28
377.74	545.34
377.93	587.47
378.13	573.43
378.33	622.58
378.52	580.45
378.72	631.94
378.91	678.76
379.11	575.77
379.31	603.86
379.50	592.16
379.70	608.54
379.89	653.01
380.09	599.18
380.28	606.20
380.48	674.07
380.68	678.76
380.87	727.91
381.07	617.90
381.26	699.82
381.46	688.12
381.65	695.14
381.85	585.13
382.04	671.73
382.24	748.97
382.43	741.95
382.63	667.05
382.83	716.20
383.02	716.20
383.22	755.99
383.41	645.99
383.61	655.35
383.80	753.65
384.00	699.82
384.19	751.31
384.39	786.42
384.58	702.16
384.78	751.31
384.97	748.97
385.17	744.29
385.36	732.59
385.56	795.78
385.75	711.52
385.95	772.38
386.14	770.04
386.34	791.10
386.53	770.04
386.72	767.70
386.92	877.70
387.11	781.74
387.31	849.61
387.50	828.55
387.70	861.32
387.89	912.81
388.09	896.43
388.28	788.76
388.48	809.83
388.67	849.61
388.86	959.62
389.06	809.83
389.25	971.32
389.45	957.28
389.64	882.38
389.84	992.39
390.03	922.17
390.22	1043.88
390.42	924.51
390.61	938.55
390.81	987.71
391.00	1018.13
391.19	1025.15
391.39	978.34
391.58	1095.37
391.78	926.85
391.97	954.94
392.16	1022.81
392.36	1036.86
392.55	1057.92
392.75	947.92
392.94	940.90
393.13	1053.24
393.33	1064.94
393.52	1057.92
393.71	1121.12
393.91	1064.94
394.10	1036.86
394.29	1109.41
394.49	1104.73
394.68	1174.95
394.88	1078.99
395.07	1200.69
395.26	1156.22
395.46	1186.65
395.65	1259.21
395.84	1228.78
396.04	1261.55
396.23	1268.57
396.42	1104.73
396.62	1242.82
396.81	1238.14
397.00	1343.47
397.19	1299.00
397.39	1132.82
397.58	1289.64
397.77	1226.44
397.97	1310.70
398.16	1291.98
398.35	1376.24
398.55	1301.34
398.74	1315.38
398.93	1352.83
399.12	1280.27
399.32	1401.98
399.51	1380.92
399.70	1460.49
399.90	1376.24
400.09	1547.09
400.28	1380.92
400.47	1437.09
400.67	1500.28
400.86	1535.39
401.05	1350.49
401.24	1401.98
401.44	1589.22
401.63	1591.56
401.82	1479.22
402.01	1537.73
402.21	1629.01
402.40	1605.61
402.59	1586.88
402.78	1497.94
402.97	1675.82
403.17	1572.84
403.36	1673.48
403.55	1673.48
403.74	1561.14
403.93	1647.74
404.13	1741.36
404.32	1816.26
404.51	1753.06
404.70	1783.49
404.89	1811.57
405.09	1834.98
405.28	1788.17
405.47	1724.97
405.66	1820.94
405.85	1872.43
406.05	1842.00
406.24	1842.00
406.43	1877.11
406.62	1919.24
406.81	1874.77
407.00	1860.73
407.20	1914.56
407.39	1893.49
407.58	2015.20
407.77	2069.03
407.96	2087.76
408.15	2087.76
408.34	2122.87
408.54	2090.10
408.73	2059.67
408.92	2090.10
409.11	2120.53
409.30	2181.38
409.49	2139.25
409.68	2139.25
409.87	2216.49
410.07	2253.94
410.26	2282.02
410.45	2260.96
410.64	2235.21
410.83	2275.00
411.02	2284.36
411.21	2307.77
411.40	2277.34
411.59	2385.01
411.78	2338.20
411.98	2328.83
412.17	2527.78
412.36	2438.84
412.55	2537.14
412.74	2567.57
412.93	2574.59
413.12	2509.05
413.31	2827.37
413.50	2619.06
413.69	2750.13
413.88	2733.75
414.07	2715.02
414.26	2757.15
414.45	2761.83
414.64	2684.59
414.83	2871.84
415.02	2834.39
415.22	2853.11
415.41	2979.50
415.60	2988.86
415.79	2892.90
415.98	3115.25
416.17	3030.99
416.36	3073.12
416.55	3040.36
416.74	3206.53
416.93	3236.96
417.12	3129.30
417.31	3187.81
417.50	3351.65
417.69	3391.44
417.88	3311.86
418.07	3197.17
418.26	3286.11
418.45	3391.44
418.64	3548.25
418.83	3384.41
419.02	3391.44
419.21	3412.50
419.39	3574.00
419.58	3433.57
419.77	3485.06
419.96	3468.67
420.15	3543.57
420.34	3552.93
420.53	3634.85
420.72	3658.26
420.91	3597.40
421.10	3616.13
421.29	3822.09
421.48	3513.14
421.67	3721.45
421.86	3660.60
422.05	3815.07
422.24	3765.92
422.43	3784.65
422.61	3812.73
422.80	3777.62
422.99	3969.55
423.18	3833.80
423.37	3927.42
423.56	3960.19
423.75	3737.84
423.94	3824.44
424.13	3634.85
424.32	3772.94
424.50	3960.19
424.69	3934.44
424.88	3992.95
425.07	3964.87
425.26	3878.27
425.45	3861.88
425.64	3840.82
425.83	3887.63
426.01	3892.31
426.20	3796.35
426.39	3831.46
426.58	3829.12
426.77	4032.74
426.96	4065.51
427.15	3971.89
427.33	4065.51
427.52	4074.87
427.71	4081.89
427.90	4077.21
428.09	4152.11
428.28	4360.42
428.46	4119.34
428.65	4320.63
428.84	4381.48
429.03	4372.12
429.22	4205.94
429.40	4238.71
429.59	4365.10
429.78	4102.96
429.97	4086.58
430.16	4290.20
430.34	4407.23
430.53	4531.28
430.72	4486.81
430.91	4425.95
431.10	4437.66
431.28	4528.94
431.47	4599.15
431.66	4564.04
431.85	4699.80
432.03	4514.89
432.22	4681.07
432.41	4596.81
432.60	4741.93
432.79	4578.09
432.97	4683.41
433.16	4718.52
433.35	4723.20
433.54	4695.11
433.72	4868.31
433.91	4880.02
434.10	4917.47
434.28	4908.10
434.47	4945.55
434.66	4961.94
434.85	5069.60
435.03	5235.78
435.22	5231.10
435.41	5439.40
435.59	5488.56
435.78	5212.37
435.97	5109.39
436.16	5132.79
436.34	5139.82
436.53	5060.24
436.72	5289.61
436.90	5123.43
437.09	5233.44
437.28	5146.84
437.46	5132.79
437.65	5219.39
437.84	5327.06
438.02	5322.38
438.21	5327.06
438.40	5329.40
438.58	5568.13
438.77	5668.78
438.96	5547.07
439.14	5591.54
439.33	5598.56
439.52	5729.63
439.70	5757.72
439.89	5731.97
440.08	5954.32
440.26	5694.52
440.45	5729.63
440.63	5935.60
440.82	5912.19
441.01	5942.62
441.19	6026.88
441.38	6193.06
441.57	6146.25
441.75	6195.40
441.94	6427.11
442.12	6387.32
442.31	6494.99
442.50	6380.30
442.68	6167.31
442.87	6054.97
443.05	6377.96
443.24	6480.94
443.43	6567.54
443.61	6579.25
443.80	6565.20
443.98	6401.37
444.17	6349.87
444.35	6448.18
444.54	6684.57
444.73	6707.98
444.91	6649.46
445.10	6616.69
445.28	6782.87
445.47	6663.51
445.65	6595.63
445.84	6586.27
446.02	6623.72
446.21	6661.16
446.39	6558.18
446.58	6782.87
446.77	6705.63
446.95	6604.99
447.14	6796.92
447.32	6684.57
447.51	6588.61
447.69	6642.44
447.88	6752.45
448.06	6642.44
448.25	6726.70
448.43	6885.86
448.62	6691.59
448.80	6871.81
448.99	6782.87
449.17	6853.09
449.36	6801.60
449.54	7047.35
449.73	6984.16
449.91	7005.22
450.10	6965.43
450.28	7112.89
450.46	7302.47
450.65	7187.79
450.83	7126.93
451.02	7042.67
451.20	7229.91
451.39	7391.41
451.57	7293.11
451.76	7183.10
451.94	7286.09
452.13	7353.96
452.31	7410.14
452.49	7307.15
452.68	7405.46
452.86	7295.45
453.05	7456.95
453.23	7606.74
453.42	7405.46
453.60	7435.88
453.78	7541.21
453.97	7543.55
454.15	7510.78
454.34	7534.18
454.52	7714.41
454.70	7719.09
454.89	7700.36
455.07	7648.87
455.26	7662.91
455.44	7709.72
455.62	7728.45
455.81	7854.84
455.99	7967.18
456.17	7985.91
456.36	8046.76
456.54	8039.74
456.73	8133.36
456.91	8308.90
457.09	8311.24
457.28	8297.20
457.46	8198.90
457.64	8397.84
457.83	8322.94
458.01	8154.43
458.19	8449.33
458.38	8114.64
458.56	8659.98
458.74	8477.42
458.93	8491.46
459.11	8341.67
459.29	8355.71
459.48	8671.68
459.66	8559.34
459.84	8641.26
460.03	8727.86
460.21	8695.09
460.39	8727.86
460.57	8730.20
460.76	8954.89
460.94	8781.69
461.12	8968.93
461.31	8819.14
461.49	8929.14
461.67	8901.06
461.85	9137.45
462.04	9034.47
462.22	9425.34
462.40	9114.05
462.59	9132.77
462.77	9226.39
462.95	9242.78
463.13	9172.56
463.32	9121.07
463.50	9245.12
463.68	9373.85
463.86	9448.74
464.05	9111.71
464.23	9453.42
464.41	9500.23
464.59	9174.90
464.78	9544.70
464.96	9263.84
465.14	9057.87
465.32	9593.86
465.50	9399.59
465.69	9596.20
465.87	9446.40
466.05	9373.85
466.23	9678.12
466.41	9654.71
466.60	9837.27
466.78	9572.79
466.96	9528.32
467.14	9710.88
467.32	9685.14
467.51	9994.09
467.69	9650.03
467.87	9825.57
468.05	9771.74
468.23	9825.57
468.41	9820.89
468.60	10057.28
468.78	10097.07
468.96	9961.32
469.14	10338.15
469.32	10188.35
469.50	9961.32
469.69	10375.59
469.87	10452.83
470.05	10441.13
470.23	10331.12
470.41	10373.25
470.59	10413.04
470.77	10300.70
470.95	10391.98
471.14	10780.51
471.32	10342.83
471.50	10752.42
471.68	10679.86
471.86	10803.91
472.04	10984.13
472.22	11082.44
472.40	10654.12
472.58	10934.98
472.77	11026.26
472.95	10937.32
473.13	11421.81
473.31	11040.31
473.49	11117.54
473.67	11159.67
473.85	11489.69
474.03	11288.40
474.21	11260.32
474.39	11573.95
474.57	11473.31
474.75	11962.48
474.93	11566.93
475.12	11885.24
475.30	11721.40
475.48	11953.12
475.66	11971.84
475.84	11786.94
476.02	12196.53
476.20	12128.66
476.38	12423.56
476.56	12674.00
476.74	12388.46
476.92	12512.50
477.10	12571.02
477.28	12681.02
477.46	12798.05
477.64	12713.79
477.82	12856.56
478.00	13280.20
478.18	13205.30
478.36	13392.55
478.54	13624.26
478.72	13472.12
478.90	13626.60
479.08	13710.86
479.26	13832.57
479.44	13745.97
479.62	14160.24
479.80	14235.14
479.98	14314.72
480.16	14202.37
480.34	14422.38
480.52	14717.29
480.70	14691.54
480.88	14391.95
481.06	14684.52
481.24	14757.08
481.41	15089.43
481.59	15311.78
481.77	15391.36
481.95	15594.99
482.13	15412.43
482.31	15468.60
482.49	15917.98
482.67	15632.44
482.85	16133.31
483.03	16102.89
483.21	16622.48
483.39	16514.82
483.57	16383.75
483.74	16776.96
483.92	16968.88
484.10	16980.59
484.28	16844.84
484.46	17298.90
484.64	17724.88
484.82	17298.90
485.00	17551.68
485.18	18080.64
485.35	18246.82
485.53	18008.08
485.71	18272.56
485.89	18410.65
486.07	18441.08
486.25	18689.18
486.43	18771.10
486.61	18930.25
486.78	19084.73
486.96	19339.85
487.14	19559.86
487.32	19250.91
487.50	19873.49
487.68	19990.52
487.85	20025.62
488.03	20102.86
488.21	20327.55
488.39	20727.78
488.57	20753.53
488.75	20936.09
488.92	20994.61
489.10	21120.99
489.28	21116.31
489.46	21855.92
489.64	21696.77
489.81	22038.48
489.99	21776.34
490.17	21647.61
490.35	21970.61
490.53	22232.75
490.70	22740.64
490.88	22361.48
491.06	22906.82
491.24	22553.40
491.41	22974.70
491.59	23164.28
491.77	23257.90
491.95	23761.12
492.13	23728.35
492.30	23613.66
492.48	23868.78
492.66	23632.39
492.84	24144.97
493.01	24278.38
493.19	24353.27
493.37	24657.54
493.54	24699.67
493.72	24608.39
493.90	25057.78
494.08	24957.13
494.25	25635.89
494.43	25537.59
494.61	25631.21
494.79	25968.24
494.96	25551.63
495.14	25439.28
495.32	26707.85
495.49	26061.87
495.67	26141.44
495.85	26595.51
496.02	26740.62
496.20	27131.49
496.38	26998.08
496.55	26764.03
496.73	27615.98
496.91	27094.04
497.09	27754.07
497.26	27592.58
497.44	27569.17
497.62	27733.01
497.79	28451.55
497.97	28208.14
498.14	28514.75
498.32	29062.43
498.50	28355.59
498.67	28814.34
498.85	28938.38
499.03	29397.13
499.20	28992.22
499.38	28978.17
499.56	29486.07
499.73	29652.25
499.91	29900.34
500.08	29778.64
500.26	29504.79
500.44	29921.41
500.61	29909.71
500.79	29907.37
500.97	29958.86
501.14	30146.10
501.32	30249.08
501.49	30455.05
501.67	30724.21
501.84	30604.84
502.02	30663.36
502.20	30974.65
502.37	31267.22
502.55	31646.38
502.72	31035.50
502.90	31220.41
503.07	31529.36
503.25	31967.04
503.43	31515.31
503.60	31709.58
503.78	31835.97
503.95	32292.37
504.13	31943.63
504.30	32074.70
504.48	31894.48
504.65	32137.90
504.83	32463.23
505.01	32680.90
505.18	32421.10
505.36	33057.73
505.53	32554.51
505.71	33244.97
505.88	32821.33
506.06	32652.81
506.23	33598.39
506.41	33352.63
506.58	33422.85
506.76	33408.81
506.93	33762.23
507.11	33670.95
507.28	33979.90
507.46	34316.93
507.63	33912.02
507.81	34150.76
507.98	34272.46
508.16	34473.75
508.33	34293.53
508.50	34686.74
508.68	34721.85
508.85	35077.61
509.03	35138.46
509.20	34983.99
509.38	35407.62
509.55	35346.77
509.73	35814.88
509.90	35775.09
510.08	35634.66
510.25	35922.54
510.42	35765.73
510.60	36128.51
510.77	36055.95
510.95	36514.70
511.12	36114.47
511.30	35732.96
511.47	36631.72
511.64	36343.84
511.82	36678.54
511.99	36807.26
512.17	36655.13
512.34	37125.58
512.51	37202.82
512.69	36856.42
512.86	37111.53
513.04	37490.70
513.21	37497.72
513.38	37851.14
513.56	37495.38
513.73	37579.64
513.90	37551.56
514.08	37230.90
514.25	37872.21
514.43	37914.34
514.60	38319.25
514.77	38377.76
514.95	38354.36
515.12	38637.56
515.29	38288.82
515.47	38349.68
515.64	38672.67
515.81	38705.44
515.99	38909.07
516.16	39040.14
516.33	39189.93
516.51	38946.51
516.68	39108.01
516.85	39168.87
517.03	39995.07
517.20	39248.44
517.37	39332.70
517.54	39250.78
517.72	39903.79
517.89	39604.20
518.06	39714.21
518.24	39491.86
518.41	39988.05
518.58	40259.55
518.75	40582.55
518.93	40245.51
519.10	40231.47
519.27	40329.77
519.45	40636.38
519.62	40374.24
519.79	40264.24
519.96	40575.53
520.14	40748.73
520.31	40837.67
520.48	41006.19
520.65	41614.72
520.83	41310.46
521.00	41284.71
521.17	41155.98
521.34	41469.61
521.52	41556.21
521.69	41511.74
521.86	41670.90
522.03	42080.49
522.20	42377.74
522.38	42440.93
522.55	42085.17
522.72	42202.20
522.89	42164.75
523.07	42752.23
523.24	42417.53
523.41	42972.24
523.58	42515.83
523.75	42501.79
523.92	42405.83
524.10	42995.64
524.27	43089.26
524.44	43105.65
524.61	43360.76
524.78	43246.08
524.96	43323.32
525.13	43203.95
525.30	43086.92
525.47	43601.84
525.64	43002.66
525.81	43517.58
525.98	43758.66
526.16	44030.16
526.33	43281.19
526.50	44158.89
526.67	43580.78
526.84	43796.10
527.01	43526.94
527.18	43936.54
527.36	44172.93
527.53	44287.62
527.70	44556.78
527.87	44610.61
528.04	44425.71
528.21	44392.94
528.38	44257.19
528.55	44467.84
528.72	44498.26
528.89	44512.31
529.07	44872.75
529.24	44631.68
529.41	45092.76
529.58	44905.52
529.75	44912.54
529.92	45020.20
530.09	45130.21
530.26	44870.41
530.43	45392.35
530.60	45006.16
530.77	45743.43
530.94	45504.70
531.11	45439.16
531.28	45579.59
531.46	46164.73
531.63	45844.07
531.80	46000.89
531.97	45954.08
532.14	46050.04
532.31	45528.10
532.48	45958.76
532.65	46244.30
532.82	45928.33
532.99	46897.31
533.16	46384.74
533.33	46541.55
533.50	46873.91
533.67	46808.37
533.84	46401.12
534.01	46658.58
534.18	46366.01
534.35	46796.67
534.52	46202.18
534.69	46967.53
534.86	47000.30
535.03	46862.21
535.20	47377.12
535.37	47150.09
535.54	47292.86
535.71	47138.39
535.88	46850.50
536.05	47416.91
536.22	47791.40
536.38	47901.40
536.55	47271.80
536.72	47665.01
536.89	47374.78
537.06	47477.77
537.23	47618.20
537.40	47302.23
537.57	48058.22
537.74	47510.53
537.91	48102.69
538.08	48140.14
538.25	47899.06
538.42	48151.84
538.59	48336.74
538.75	48156.52
538.92	47849.91
539.09	48404.62
539.26	48079.28
539.43	48751.02
539.60	48360.15
539.77	48250.14
539.94	48779.10
540.11	48397.60
540.28	48465.47
540.44	48683.14
540.61	48788.47
540.78	48959.33
540.95	48816.55
541.12	48807.19
541.29	49022.52
541.46	48760.38
541.62	48905.49
541.79	49345.51
541.96	49109.12
542.13	49181.68
542.30	49301.04
542.47	49820.64
542.63	49441.48
542.80	49343.17
542.97	49811.28
543.14	50026.61
543.31	49668.51
543.48	49703.62
543.64	50178.75
543.81	49855.75
543.98	50129.59
544.15	50560.25
544.32	50244.28
544.48	50499.40
544.65	50356.63
544.82	49867.45
544.99	49886.18
545.16	50401.10
545.32	50461.95
545.49	50843.46
545.66	51288.16
545.83	51208.58
546.00	51140.71
546.16	50775.58
546.33	50251.30
546.50	50031.29
546.67	50590.68
546.83	50028.95
547.00	50365.99
547.17	50611.74
547.34	50464.29
547.50	50997.93
547.67	50581.32
547.84	50742.81
548.00	50665.58
548.17	50586.00
548.34	50803.67
548.51	51023.68
548.67	50923.04
548.84	51098.58
549.01	51035.38
549.18	50705.37
549.34	50625.79
549.51	51030.70
549.68	51054.11
549.84	51009.64
550.01	50923.04
550.18	50686.64
550.34	51325.61
550.51	51208.58
550.68	51653.28
550.84	51007.29
551.01	51365.40
551.18	51208.58
551.34	51124.32
551.51	51327.95
551.68	51264.75
551.84	51573.70
552.01	51526.89
552.18	51311.56
552.34	51444.98
552.51	51842.87
552.68	51381.78
552.84	51847.55
553.01	51737.54
553.18	51737.54
553.34	51892.02
553.51	51716.48
553.67	51760.95
553.84	51910.74
554.01	51578.39
554.17	51753.93
554.34	51840.53
554.51	51985.64
554.67	51948.19
554.84	52065.22
555.00	52058.20
555.17	51870.95
555.33	52009.04
555.50	52140.11
555.67	52053.51
555.83	51870.95
556.00	51948.19
556.16	52151.82
556.33	52233.74
556.50	52004.36
556.66	51957.55
556.83	52116.71
556.99	52449.06
557.16	52416.30
557.32	52659.71
557.49	52540.35
557.65	52479.49
557.82	52413.96
557.98	52423.32
558.15	52161.18
558.32	52350.76
558.48	52533.32
558.65	52355.44
558.81	52416.30
558.98	52617.58
559.14	52868.02
559.31	52348.42
559.47	52491.19
559.64	52486.51
559.80	52678.44
559.97	52580.13
560.13	52554.39
560.30	53017.82
560.46	52917.17
560.63	52809.51
560.79	52903.13
560.96	53226.12
561.12	52753.33
561.29	52577.79
561.45	52769.72
561.61	52891.43
561.78	52921.85
561.94	53020.16
562.11	52877.38
562.27	52811.85
562.44	53130.16
562.60	52612.90
562.77	52835.25
562.93	52830.57
563.10	53415.71
563.26	53240.17
563.42	53310.38
563.59	53127.82
563.75	53289.32
563.92	53123.14
564.08	52907.81
564.24	53113.78
564.41	52856.32
564.57	53247.19
564.74	52940.58
564.90	53279.96
565.07	53352.51
565.23	53294.00
565.39	53408.68
565.56	53181.65
565.72	53092.71
565.88	53212.08
566.05	53317.40
566.21	52872.70
566.38	52968.66
566.54	53247.19
566.70	53532.73
566.87	53174.63
567.03	53729.34
567.19	53745.72
567.36	53483.58
567.52	53235.48
567.68	53783.17
567.85	53600.61
568.01	53521.03
568.17	53322.08
568.34	53324.43
568.50	53453.15
568.66	53579.54
568.83	53659.12
568.99	53563.16
569.15	53556.14
569.32	53670.82
569.48	53127.82
569.64	53240.17
569.81	53553.80
569.97	53521.03
570.13	53738.70
570.30	53319.74
570.46	53649.76
570.62	53708.27
570.78	53602.95
570.95	53544.44
571.11	53628.69
571.27	53462.52
571.43	53471.88
571.60	53549.12
571.76	53759.76
571.92	53862.75
572.09	53965.73
572.25	53975.09
572.41	53937.65
572.57	53811.26
572.74	54120.21
572.90	53972.75
573.06	53858.07
573.22	53715.29
573.38	53881.47
573.55	53661.46
573.71	54188.08
573.87	54103.82
574.03	53848.71
574.20	53984.46
574.36	54040.63
574.52	53839.34
574.68	53881.47
574.84	54049.99
575.01	54047.65
575.17	53848.71
575.33	53862.75
575.49	53916.58
575.65	54241.92
575.82	54157.66
575.98	54103.82
576.14	53811.26
576.30	53656.78
576.46	53867.43
576.62	54078.08
576.79	54059.35
576.95	54068.72
577.11	53947.01
577.27	54129.57
577.43	54120.21
577.59	54047.65
577.75	53890.83
577.92	54087.44
578.08	53687.21
578.24	53750.40
578.40	54234.89
578.56	53956.37
578.72	54028.93
578.88	54335.54
579.04	54244.26
579.21	53989.14
579.37	54143.61
579.53	54445.54
579.69	53975.09
579.85	53837.00
580.01	54349.58
580.17	54049.99
580.33	53902.54
580.49	54155.32
580.65	54260.64
580.82	54115.53
580.98	54057.01
581.14	54204.47
581.30	54138.93
581.46	53961.05
581.62	54113.19
581.78	53968.07
581.94	54003.18
582.10	54192.76
582.26	54213.83
582.42	54284.04
582.58	54096.80
582.74	53902.54
582.90	54136.59
583.06	54302.77
583.22	53914.24
583.38	54408.09
583.54	54106.16
583.70	54131.91
583.86	54185.74
584.02	54066.38
584.18	54328.52
584.34	54377.67
584.50	54340.22
584.66	54206.81
584.82	53939.99
584.98	54145.95
585.14	54380.01
585.30	54033.61
585.46	54127.23
585.62	54391.71
585.78	54429.16
585.94	54080.42
586.10	54293.41
586.26	54347.24
586.42	54368.30
586.58	54356.60
586.74	54042.97
586.90	53961.05
587.06	54131.91
587.22	54560.23
587.38	54145.95
587.54	54571.93
587.70	54567.25
587.86	54370.64
588.02	54295.75
588.18	54539.16
588.34	54445.54
588.49	54494.69
588.65	54136.59
588.81	54553.21
588.97	54382.35
589.13	54354.26
589.29	54300.43
589.45	54546.18
589.61	54555.55
589.77	54738.11
589.93	54761.51
590.08	54714.70
