SpectraSuite Data File
++++++++++++++++++++++++++++++++++++
Date: Fri Oct 04 11:39:23 GMT-05:00 2013
User: price-jones
Dark Spectrum Present: No
Reference Spectrum Present: No
Number of Sampled Component Spectra: 1
Spectrometers: USB2+H05261
Integration Time (usec): 100000 (USB2+H05261)
Spectra Averaged: 1 (USB2+H05261)
Boxcar Smoothing: 0 (USB2+H05261)
Correct for Electrical Dark: No (USB2+H05261)
Strobe/Lamp Enabled: No (USB2+H05261)
Correct for Detector Non-linearity: No (USB2+H05261)
Correct for Stray Light: No (USB2+H05261)
Number of Pixels in Processed Spectrum: 2048
>>>>>Begin Processed Spectral Data<<<<<
365.73	39.79
365.92	39.79
366.12	39.79
366.32	0.00
366.52	0.00
366.72	0.00
366.91	11.70
367.11	0.00
367.31	0.00
367.51	0.00
367.70	4.68
367.90	0.00
368.10	0.00
368.30	0.00
368.49	0.00
368.69	0.00
368.89	0.00
369.09	0.00
369.28	0.00
369.48	0.00
369.68	0.00
369.87	46.81
370.07	0.00
370.27	46.81
370.47	72.56
370.66	194.26
370.86	224.69
371.06	255.12
371.25	325.33
371.45	332.36
371.65	315.97
371.84	245.76
372.04	245.76
372.24	325.33
372.44	276.18
372.63	334.70
372.83	411.93
373.03	388.53
373.22	346.40
373.42	273.84
373.62	367.46
373.81	433.00
374.01	297.25
374.21	386.19
374.40	397.89
374.60	397.89
374.79	348.74
374.99	416.62
375.19	423.64
375.38	411.93
375.58	362.78
375.78	430.66
375.97	390.87
376.17	458.74
376.37	400.23
376.56	402.57
376.76	346.40
376.95	346.40
377.15	395.55
377.35	351.08
377.54	348.74
377.74	374.49
377.93	468.11
378.13	397.89
378.33	449.38
378.52	449.38
378.72	461.09
378.91	334.70
379.11	393.21
379.31	423.64
379.50	402.57
379.70	442.36
379.89	489.17
380.09	468.11
380.28	393.21
380.48	379.17
380.68	447.04
380.87	444.70
381.07	395.55
381.26	451.72
381.46	493.85
381.65	472.79
381.85	442.36
382.04	456.40
382.24	484.49
382.43	449.38
382.63	475.13
382.83	463.43
383.02	589.82
383.22	552.37
383.41	524.28
383.61	526.62
383.80	444.70
384.00	425.98
384.19	491.51
384.39	454.06
384.58	533.64
384.78	575.77
384.97	482.15
385.17	510.24
385.36	463.43
385.56	496.19
385.75	552.37
385.95	484.49
386.14	503.22
386.34	491.51
386.53	559.39
386.72	550.03
386.92	617.90
387.11	564.07
387.31	521.94
387.50	540.66
387.70	596.84
387.89	507.90
388.09	585.13
388.28	507.90
388.48	540.66
388.67	610.88
388.86	587.47
389.06	582.79
389.25	596.84
389.45	624.92
389.64	573.43
389.84	662.37
390.03	688.12
390.22	571.09
390.42	667.05
390.61	594.50
390.81	575.77
391.00	631.94
391.19	664.71
391.39	624.92
391.58	643.65
391.78	636.63
391.97	692.80
392.16	660.03
392.36	645.99
392.55	695.14
392.75	683.44
392.94	620.24
393.13	706.84
393.33	751.31
393.52	685.78
393.71	744.29
393.91	704.50
394.10	699.82
394.29	704.50
394.49	641.31
394.68	678.76
394.88	828.55
395.07	805.14
395.26	791.10
395.46	791.10
395.65	877.70
395.84	788.76
396.04	816.85
396.23	835.57
396.42	765.36
396.62	772.38
396.81	828.55
397.00	858.98
397.19	947.92
397.39	819.19
397.58	971.32
397.77	880.04
397.97	861.32
398.16	926.85
398.35	866.00
398.55	940.90
398.74	950.26
398.93	997.07
399.12	959.62
399.32	999.41
399.51	905.79
399.70	976.00
399.90	976.00
400.09	1062.60
400.28	1179.63
400.47	978.34
400.67	957.28
400.86	1062.60
401.05	1095.37
401.24	1064.94
401.44	1083.67
401.63	1006.43
401.82	1067.28
402.01	1179.63
402.21	1057.92
402.40	1088.35
402.59	1177.29
402.78	1249.85
402.97	1121.12
403.17	1130.48
403.36	1163.25
403.55	1191.33
403.74	1221.76
403.93	1226.44
404.13	1238.14
404.32	1284.95
404.51	1327.08
404.70	1273.25
404.89	1252.19
405.09	1329.42
405.28	1203.04
405.47	1289.64
405.66	1409.00
405.85	1378.58
406.05	1427.73
406.24	1322.40
406.43	1399.64
406.62	1479.22
406.81	1469.86
407.00	1369.21
407.20	1453.47
407.39	1453.47
407.58	1441.77
407.77	1596.25
407.96	1640.72
408.15	1591.56
408.34	1556.46
408.54	1575.18
408.73	1558.80
408.92	1549.43
409.11	1579.86
409.30	1614.97
409.49	1617.31
409.68	1577.52
409.87	1687.53
410.07	1668.80
410.26	1732.00
410.45	1734.34
410.64	1762.42
410.83	1762.42
411.02	1799.87
411.21	1895.83
411.40	1776.47
411.59	1909.88
411.78	1816.26
411.98	1879.45
412.17	1914.56
412.36	2005.84
412.55	1914.56
412.74	2010.52
412.93	2019.88
413.12	2022.22
413.31	2076.06
413.50	2071.37
413.69	2127.55
413.88	2099.46
414.07	2134.57
414.26	2172.02
414.45	2211.81
414.64	2277.34
414.83	2282.02
415.02	2169.68
415.22	2349.90
415.41	2321.81
415.60	2275.00
415.79	2286.70
415.98	2380.32
416.17	2476.29
416.36	2499.69
416.55	2504.37
416.74	2464.58
416.93	2450.54
417.12	2593.31
417.31	2534.80
417.50	2626.08
417.69	2750.13
417.88	2640.12
418.07	2630.76
418.26	2626.08
418.45	2691.62
418.64	2710.34
418.83	2691.62
419.02	2726.72
419.21	2834.39
419.39	2726.72
419.58	2834.39
419.77	2803.96
419.96	2993.55
420.15	2960.78
420.34	2857.79
420.53	3002.91
420.72	2869.50
420.91	3000.57
421.10	3068.44
421.29	3012.27
421.48	3014.61
421.67	3171.43
421.86	2942.05
422.05	2820.35
422.24	3012.27
422.43	3021.63
422.61	3098.87
422.80	3157.38
422.99	3204.19
423.18	3119.93
423.37	3173.77
423.56	3091.85
423.75	3059.08
423.94	3084.83
424.13	2960.78
424.32	3038.02
424.50	3110.57
424.69	3297.81
424.88	3131.64
425.07	3117.59
425.26	3110.57
425.45	3059.08
425.64	3183.13
425.83	3197.17
426.01	3204.19
426.20	3169.09
426.39	3138.66
426.58	3096.53
426.77	3187.81
426.96	3283.77
427.15	3225.26
427.33	3302.50
427.52	3447.61
427.71	3307.18
427.90	3279.09
428.09	3403.14
428.28	3286.11
428.46	3372.71
428.65	3487.40
428.84	3473.36
429.03	3606.77
429.22	3300.16
429.40	3424.20
429.59	3414.84
429.78	3414.84
429.97	3424.20
430.16	3419.52
430.34	3611.45
430.53	3639.53
430.72	3634.85
430.91	3487.40
431.10	3592.72
431.28	3613.79
431.47	3726.13
431.66	3768.26
431.85	3756.56
432.03	3735.50
432.22	3873.59
432.41	3644.21
432.60	3719.11
432.79	3824.44
432.97	3810.39
433.16	3981.25
433.35	3885.29
433.54	3873.59
433.72	3866.56
433.91	4011.68
434.10	3974.23
434.28	3974.23
434.47	4037.42
434.66	4086.58
434.85	4091.26
435.03	4042.11
435.22	4386.16
435.41	4444.68
435.59	4271.48
435.78	4339.35
435.97	4231.69
436.16	4236.37
436.34	4100.62
436.53	4163.81
436.72	4255.09
436.90	4227.01
437.09	4098.28
437.28	4191.90
437.46	4320.63
437.65	4208.28
437.84	4393.19
438.02	4325.31
438.21	4411.91
438.40	4362.76
438.58	4461.06
438.77	4458.72
438.96	4430.63
439.14	4505.53
439.33	4641.28
439.52	4638.94
439.70	4692.77
439.89	4716.18
440.08	4660.01
440.26	4858.95
440.45	4821.50
440.63	4873.00
440.82	4940.87
441.01	4795.76
441.19	4940.87
441.38	4910.44
441.57	4992.36
441.75	5027.47
441.94	5100.03
442.12	5020.45
442.31	5149.18
442.50	5046.20
442.68	5151.52
442.87	5212.37
443.05	5191.31
443.24	5336.42
443.43	5329.40
443.61	5350.46
443.80	5387.91
443.98	5231.10
444.17	5284.93
444.35	5320.04
444.54	5572.82
444.73	5308.34
444.91	5338.76
445.10	5160.88
445.28	5266.21
445.47	5322.38
445.65	5275.57
445.84	5448.77
446.02	5444.09
446.21	5373.87
446.39	5336.42
446.58	5329.40
446.77	5408.98
446.95	5289.61
447.14	5483.88
447.32	5673.46
447.51	5439.40
447.69	5383.23
447.88	5530.69
448.06	5518.98
448.25	5591.54
448.43	5540.05
448.62	5556.43
448.80	5554.09
448.99	5493.24
449.17	5614.95
449.36	5582.18
449.54	5638.35
449.73	5727.29
449.91	5956.66
450.10	5781.12
450.28	5966.03
450.46	5619.63
450.65	5907.51
450.83	5977.73
451.02	5935.60
451.20	5940.28
451.39	5956.66
451.57	5811.55
451.76	5823.25
451.94	6003.47
452.13	6015.18
452.31	5996.45
452.49	6064.33
452.68	5970.71
452.86	6064.33
453.05	6134.54
453.23	6113.48
453.42	5935.60
453.60	6038.58
453.78	5912.19
453.97	6033.90
454.15	6188.38
454.34	6040.92
454.52	6179.01
454.70	6181.35
454.89	6272.64
455.07	6310.08
455.26	6321.79
455.44	6347.53
455.62	6267.95
455.81	6359.24
455.99	6312.42
456.17	6532.44
456.36	6483.28
456.54	6677.55
456.73	6743.08
456.91	6764.15
457.09	6839.05
457.28	6883.52
457.46	6766.49
457.64	6853.09
457.83	6764.15
458.01	6682.23
458.19	6740.74
458.38	6764.15
458.56	6853.09
458.74	6892.88
458.93	6864.79
459.11	6902.24
459.29	6810.96
459.48	6806.28
459.66	7089.48
459.84	7267.36
460.03	7372.69
460.21	7080.12
460.39	7023.95
460.57	7063.74
460.76	7169.06
460.94	7197.15
461.12	7148.00
461.31	7236.94
461.49	7045.01
461.67	7159.70
461.85	7323.54
462.04	7339.92
462.22	7527.16
462.40	7368.01
462.59	7370.35
462.77	7557.59
462.95	7389.07
463.13	7578.65
463.32	7321.20
463.50	7550.57
463.68	7536.52
463.86	7573.97
464.05	7485.03
464.23	7489.71
464.41	7660.57
464.59	7524.82
464.78	7676.96
464.96	7536.52
465.14	7625.47
465.32	7761.22
465.50	7826.75
465.69	7735.47
465.87	7655.89
466.05	7812.71
466.23	7840.79
466.41	7784.62
466.60	8098.25
466.78	7740.15
466.96	7742.49
467.14	7899.31
467.32	7864.20
467.51	7929.74
467.69	7782.28
467.87	8006.97
468.05	7932.08
468.23	7967.18
468.41	8016.33
468.60	8035.06
468.78	8161.45
468.96	8105.28
469.14	8175.49
469.32	8257.41
469.50	8234.00
469.69	8329.97
469.87	8315.92
470.05	8423.59
470.23	8437.63
470.41	8205.92
470.59	8421.25
470.77	8411.89
470.95	8512.53
471.14	8662.32
471.32	8435.29
471.50	8573.38
471.68	8552.32
471.86	8781.69
472.04	8615.51
472.22	8805.10
472.40	8924.46
472.58	8856.59
472.77	8959.57
472.95	8847.22
473.13	9149.15
473.31	9022.77
473.49	8915.10
473.67	9085.96
473.85	9036.81
474.03	9397.25
474.21	9116.39
474.39	9385.55
474.57	9343.42
474.75	9516.62
474.93	9561.09
475.12	9334.06
475.30	9558.75
475.48	9558.75
475.66	9579.81
475.84	9713.22
476.02	9694.50
476.20	9603.22
476.38	9921.53
476.56	10242.18
476.74	10256.23
476.92	10176.65
477.10	10043.24
477.28	10464.54
477.46	10286.65
477.64	10338.15
477.82	10567.52
478.00	10750.08
478.18	10747.74
478.36	10719.65
478.54	10817.96
478.72	10932.64
478.90	11124.57
479.08	11082.44
479.26	11112.86
479.44	11218.19
479.62	11360.96
479.80	11257.98
479.98	11393.73
480.16	11901.62
480.34	11829.07
480.52	11772.89
480.70	11882.90
480.88	11634.80
481.06	11976.52
481.24	11999.93
481.41	12049.08
481.59	12365.05
481.77	12351.01
481.95	12533.57
482.13	12414.20
482.31	12578.04
482.49	12533.57
482.67	12872.95
482.85	12992.31
483.03	13352.76
483.21	13287.22
483.39	13341.05
483.57	13352.76
483.74	13481.49
483.92	13490.85
484.10	13591.49
484.28	13762.35
484.46	13813.84
484.64	14223.44
484.82	13797.46
485.00	14195.35
485.18	14387.27
485.35	14452.81
485.53	14427.06
485.71	14581.54
485.89	14920.92
486.07	14916.23
486.25	15051.99
486.43	15192.42
486.61	15180.71
486.78	15349.23
486.96	15576.27
487.14	15569.24
487.32	15662.86
487.50	15655.84
487.68	15573.92
487.85	16135.65
488.03	16166.08
488.21	16697.38
488.39	16456.31
488.57	16449.28
488.75	16561.63
488.92	17378.48
489.10	17158.47
489.28	16961.86
489.46	17387.84
489.64	17088.25
489.81	17460.40
489.99	17731.90
490.17	17612.53
490.35	18132.13
490.53	17827.86
490.70	17839.56
490.88	18167.24
491.06	18478.53
491.24	18324.05
491.41	18429.38
491.59	18490.23
491.77	18801.52
491.95	18988.77
492.13	18958.34
492.30	18806.20
492.48	19201.76
492.66	19229.84
492.84	19091.75
493.01	19435.81
493.19	19660.50
493.37	20027.96
493.54	19824.34
493.72	19913.28
493.90	19763.48
494.08	20044.35
494.25	20362.66
494.43	20336.91
494.61	20671.61
494.79	20570.97
494.96	20702.04
495.14	20879.92
495.32	20908.01
495.49	21158.44
495.67	21156.10
495.85	21270.79
496.02	21359.73
496.20	21553.99
496.38	21312.92
496.55	21972.95
496.73	22012.74
496.91	22199.98
497.09	22272.54
497.26	22487.87
497.44	21977.63
497.62	22181.26
497.79	22909.16
497.97	22604.89
498.14	23145.56
498.32	22874.06
498.50	22508.93
498.67	22920.87
498.85	22726.60
499.03	23218.11
499.20	23370.25
499.38	23618.35
499.56	23627.71
499.73	23702.61
499.91	23807.93
500.08	23854.74
500.26	23686.22
500.44	23906.23
500.61	23882.83
500.79	24105.18
500.97	24077.09
501.14	24732.44
501.32	24266.67
501.49	24559.24
501.67	24629.46
501.84	24552.22
502.02	24470.30
502.20	24601.37
502.37	25116.29
502.55	24912.66
502.72	24772.23
502.90	25125.65
503.07	24781.59
503.25	25626.53
503.43	25235.66
503.60	25729.51
503.78	25671.00
503.95	25579.71
504.13	25443.96
504.30	25766.96
504.48	25795.04
504.65	25912.07
504.83	26197.62
505.01	26277.19
505.18	26153.15
505.36	26331.03
505.53	26230.38
505.71	26335.71
505.88	25954.20
506.06	26197.62
506.23	26841.26
506.41	26757.00
506.58	27063.61
506.76	26955.95
506.93	26752.32
507.11	26511.25
507.28	26934.88
507.46	27058.93
507.63	26890.41
507.81	27627.68
507.98	27449.80
508.16	27307.03
508.33	27903.87
508.50	27515.34
508.68	28011.53
508.85	28020.89
509.03	27812.59
509.20	28093.45
509.38	28510.07
509.55	28451.55
509.73	28128.56
509.90	28477.30
510.08	28383.68
510.25	28582.62
510.42	28746.46
510.60	28830.72
510.77	29149.03
510.95	29188.82
511.12	28917.32
511.30	28760.50
511.47	29228.61
511.64	29151.37
511.82	29493.09
511.99	29195.84
512.17	29778.64
512.34	29446.28
512.51	29750.55
512.69	29612.46
512.86	29778.64
513.04	29919.07
513.21	30309.94
513.38	30340.36
513.56	30448.03
513.73	29661.61
513.90	30157.80
514.08	29855.87
514.25	29949.50
514.43	30558.03
514.60	30457.39
514.77	31028.48
514.95	30597.82
515.12	30967.63
515.29	30455.05
515.47	31145.51
515.64	31091.68
515.81	31084.65
515.99	31393.61
516.16	31335.09
516.33	31311.69
516.51	30986.35
516.68	31206.36
516.85	31393.61
517.03	31590.21
517.20	31871.07
517.37	32428.12
517.54	32177.68
517.72	32039.59
517.89	31409.99
518.06	31510.63
518.24	31775.11
518.41	31704.90
518.58	32203.43
518.75	32016.19
518.93	32339.18
519.10	32535.79
519.27	32760.48
519.45	32208.11
519.62	32683.24
519.79	32694.94
519.96	32629.41
520.14	33310.50
520.31	32627.07
520.48	32929.00
520.65	32959.42
520.83	32816.65
521.00	33362.00
521.17	33572.64
521.34	33383.06
521.52	33521.15
521.69	33605.41
521.86	33729.46
522.03	34078.20
522.20	34052.45
522.38	33497.75
522.55	33553.92
522.72	33624.14
522.89	34043.09
523.07	33734.14
523.24	33830.10
523.41	34258.42
523.58	34611.84
523.75	34497.16
523.92	34298.21
524.10	34293.53
524.27	34356.72
524.44	34504.18
524.61	34845.90
524.78	34944.20
524.96	34911.43
525.13	34588.44
525.30	34820.15
525.47	34766.32
525.64	35168.89
525.81	35070.59
525.98	35414.65
526.16	35297.62
526.33	35409.96
526.50	35550.40
526.67	35026.12
526.84	35194.64
527.01	35445.07
527.18	35323.36
527.36	35737.64
527.53	35637.00
527.70	35859.35
527.87	35976.37
528.04	35763.39
528.21	35967.01
528.38	35896.80
528.55	36088.72
528.72	36011.48
528.89	36203.41
529.07	35922.54
529.24	35882.75
529.41	36229.15
529.58	35945.95
529.75	36114.47
529.92	36273.62
530.09	36341.50
530.26	36659.81
530.43	36821.31
530.60	36378.95
530.77	36687.90
530.94	36804.92
531.11	36339.16
531.28	36629.38
531.46	36795.56
531.63	37294.10
531.80	37247.29
531.97	37010.89
532.14	37177.07
532.31	37078.77
532.48	37057.70
532.65	37682.62
532.82	36966.42
532.99	37212.18
533.16	37261.33
533.33	37926.04
533.50	37481.34
533.67	37811.35
533.84	37516.45
534.01	37586.66
534.18	37631.13
534.35	37631.13
534.52	37280.05
534.69	37563.26
534.86	38080.52
535.03	37764.54
535.20	38429.26
535.37	38190.52
535.54	38328.61
535.71	37834.76
535.88	38026.68
536.05	38181.16
536.22	38359.04
536.38	39171.21
536.55	38600.12
536.72	38160.09
536.89	38408.19
537.06	38265.42
537.23	38665.65
537.40	38572.03
537.57	38349.68
537.74	38773.31
537.91	39089.29
538.08	38717.14
538.25	39103.33
538.42	39016.73
538.59	39016.73
538.75	38897.36
538.92	38974.60
539.09	39023.75
539.26	39346.75
539.43	39285.89
539.60	39889.75
539.77	39737.62
539.94	39803.15
540.11	39285.89
540.28	39545.69
540.44	39627.61
540.61	39779.74
540.78	39922.52
540.95	39723.57
541.12	39838.26
541.29	40194.02
541.46	40254.87
541.62	40559.14
541.79	40098.06
541.96	39901.45
542.13	40140.19
542.30	40133.17
542.47	40271.26
542.63	40472.54
542.80	40432.75
542.97	40825.96
543.14	41125.55
543.31	40783.83
543.48	40561.48
543.64	40701.92
543.81	41006.19
543.98	41448.55
544.15	41038.95
544.32	41200.45
544.48	41394.71
544.65	41034.27
544.82	41195.77
544.99	40830.65
545.16	41165.34
545.32	40802.56
545.49	41951.76
545.66	42464.34
545.83	42557.96
546.00	42122.62
546.16	42171.77
546.33	41291.73
546.50	40875.12
546.67	41223.86
546.83	41155.98
547.00	41518.76
547.17	41446.21
547.34	41638.13
547.50	41827.71
547.67	41827.71
547.84	41701.32
548.00	41738.77
548.17	41876.86
548.34	41907.29
548.51	41890.91
548.67	42036.02
548.84	41715.37
549.01	41631.11
549.18	42340.29
549.34	42019.64
549.51	42117.94
549.68	42195.18
549.84	41944.74
550.01	41989.21
550.18	41504.72
550.34	42169.43
550.51	42279.44
550.68	42576.69
550.84	42115.60
551.01	42719.46
551.18	42061.77
551.34	42181.13
551.51	41865.16
551.68	42410.51
551.84	42405.83
552.01	42478.38
552.18	42291.14
552.34	42312.20
552.51	42672.65
552.68	42590.73
552.84	42450.30
553.01	42508.81
553.18	42490.09
553.34	42862.23
553.51	42761.59
553.67	42656.26
553.84	43430.98
554.01	42815.42
554.17	42628.18
554.34	43365.45
554.51	42480.72
554.67	42656.26
554.84	42862.23
555.00	43012.02
555.17	42850.53
555.33	42953.51
555.50	43145.44
555.67	42859.89
555.83	42569.66
556.00	42714.78
556.16	43295.23
556.33	42899.68
556.50	42939.47
556.66	43232.04
556.83	43208.63
556.99	43683.76
557.16	43318.64
557.32	43573.75
557.49	43571.41
557.65	43255.44
557.82	43154.80
557.98	43222.67
558.15	43430.98
558.32	43435.66
558.48	43304.59
558.65	43622.90
558.81	43716.53
558.98	43943.56
559.14	43386.51
559.31	43351.40
559.47	43166.50
559.64	43482.47
559.80	43540.99
559.97	43861.64
560.13	43178.20
560.30	43466.09
560.46	43658.01
560.63	43590.14
560.79	43863.98
560.96	43873.34
561.12	43475.45
561.29	43571.41
561.45	43880.36
561.61	43934.20
561.78	44083.99
561.94	44257.19
562.11	44474.86
562.27	43934.20
562.44	43540.99
562.60	44137.82
562.77	44308.68
562.93	43955.26
563.10	44189.31
563.26	44065.27
563.42	44172.93
563.59	43842.92
563.75	44018.46
563.92	43983.35
564.08	44261.87
564.24	43997.39
564.41	44444.43
564.57	43896.75
564.74	43854.62
564.90	44062.93
565.07	43950.58
565.23	44680.83
565.39	44147.18
565.56	44058.24
565.72	43941.22
565.88	43840.57
566.05	44069.95
566.21	44095.69
566.38	44418.69
566.54	43894.41
566.70	44367.20
566.87	44650.40
567.03	44449.11
567.19	45022.54
567.36	44683.17
567.52	44208.04
567.68	44484.22
567.85	44292.30
568.01	44502.95
568.17	44360.17
568.34	44619.97
568.50	44676.15
568.66	44320.38
568.83	44346.13
568.99	44161.23
569.15	44406.98
569.32	44634.02
569.48	44119.10
569.64	44194.00
569.81	44587.21
569.97	44648.06
570.13	44411.67
570.30	44502.95
570.46	44818.92
570.62	44411.67
570.78	44715.93
570.95	44556.78
571.11	44751.04
571.27	44575.50
571.43	44491.24
571.60	44435.07
571.76	44486.56
571.92	44526.35
572.09	44842.32
572.25	44687.85
572.41	44959.35
572.57	44596.57
572.74	44996.80
572.90	44760.40
573.06	44423.37
573.22	44744.02
573.38	44598.91
573.55	44797.85
573.71	45371.28
573.87	45191.06
574.03	44711.25
574.20	45102.12
574.36	44568.48
574.52	44577.84
574.68	44762.75
574.84	44566.14
575.01	44837.64
575.17	44842.32
575.33	44678.49
575.49	44463.16
575.65	44842.32
575.82	44711.25
575.98	44641.04
576.14	44467.84
576.30	44868.07
576.46	44584.86
576.62	44755.72
576.79	45247.24
576.95	44896.16
577.11	45289.37
577.27	44821.26
577.43	45212.13
577.59	44631.68
577.75	44882.11
577.92	44903.18
578.08	44788.49
578.24	44753.38
578.40	44804.88
578.56	45214.47
578.72	45219.15
578.88	45219.15
579.04	45549.17
579.21	45010.84
579.37	45354.90
579.53	44809.56
579.69	44533.37
579.85	45022.54
580.01	45111.49
580.17	44748.70
580.33	44715.93
580.49	45162.98
580.65	45118.51
580.82	45371.28
580.98	44882.11
581.14	44847.00
581.30	45364.26
581.46	45059.99
581.62	45162.98
581.78	44940.63
581.94	45137.23
582.10	44626.99
582.26	45439.16
582.42	44823.60
582.58	45155.96
582.74	45141.91
582.90	45078.72
583.06	44987.44
583.22	44898.50
583.38	45024.89
583.54	44987.44
583.70	45064.67
583.86	44996.80
584.02	44687.85
584.18	45422.78
584.34	45588.95
584.50	45371.28
584.66	45404.05
584.82	44830.62
584.98	45490.65
585.14	45160.64
585.30	44856.37
585.46	45230.85
585.62	45324.47
585.78	45584.27
585.94	45071.70
586.10	45584.27
586.26	45464.91
586.42	45158.30
586.58	45570.23
586.74	45411.07
586.90	45207.45
587.06	45134.89
587.22	45565.55
587.38	44711.25
587.54	45244.90
587.70	45258.94
587.86	45277.66
588.02	45574.91
588.18	45588.95
588.34	45092.76
588.49	45359.58
588.65	45181.70
588.81	45228.51
588.97	45301.07
589.13	45375.97
589.29	45137.23
589.45	45038.93
589.61	45666.19
589.77	45315.11
589.93	45766.84
590.08	45804.28
590.24	45457.88
590.40	45729.39
590.56	45731.73
590.72	45736.41
590.88	44868.07
