SpectraSuite Data File
++++++++++++++++++++++++++++++++++++
Date: Fri Oct 04 11:39:33 GMT-05:00 2013
User: price-jones
Dark Spectrum Present: No
Reference Spectrum Present: No
Number of Sampled Component Spectra: 1
Spectrometers: USB2+H05261
Integration Time (usec): 100000 (USB2+H05261)
Spectra Averaged: 1 (USB2+H05261)
Boxcar Smoothing: 0 (USB2+H05261)
Correct for Electrical Dark: No (USB2+H05261)
Strobe/Lamp Enabled: No (USB2+H05261)
Correct for Detector Non-linearity: No (USB2+H05261)
Correct for Stray Light: No (USB2+H05261)
Number of Pixels in Processed Spectrum: 2048
>>>>>Begin Processed Spectral Data<<<<<
365.73	51.49
365.92	51.49
366.12	51.49
366.32	0.00
366.52	0.00
366.72	0.00
366.91	0.00
367.11	0.00
367.31	0.00
367.51	0.00
367.70	0.00
367.90	0.00
368.10	0.00
368.30	0.00
368.49	0.00
368.69	0.00
368.89	0.00
369.09	0.00
369.28	18.72
369.48	0.00
369.68	0.00
369.87	0.00
370.07	0.00
370.27	4.68
370.47	39.79
370.66	110.01
370.86	156.82
371.06	196.60
371.25	203.63
371.45	142.77
371.65	154.48
371.84	191.92
372.04	198.95
372.24	182.56
372.44	102.98
372.63	163.84
372.83	182.56
373.03	180.22
373.22	217.67
373.42	159.16
373.62	238.73
373.81	241.08
374.01	245.76
374.21	217.67
374.40	227.03
374.60	231.71
374.79	252.78
374.99	241.08
375.19	315.97
375.38	212.99
375.58	238.73
375.78	187.24
375.97	170.86
376.17	255.12
376.37	217.67
376.56	173.20
376.76	252.78
376.95	180.22
377.15	147.45
377.35	234.05
377.54	252.78
377.74	166.18
377.93	173.20
378.13	250.44
378.33	224.69
378.52	259.80
378.72	297.25
378.91	271.50
379.11	182.56
379.31	252.78
379.50	234.05
379.70	245.76
379.89	231.71
380.09	215.33
380.28	208.31
380.48	241.08
380.68	182.56
380.87	252.78
381.07	306.61
381.26	250.44
381.46	252.78
381.65	353.42
381.85	229.37
382.04	248.10
382.24	220.01
382.43	182.56
382.63	163.84
382.83	224.69
383.02	262.14
383.22	266.82
383.41	194.26
383.61	269.16
383.80	234.05
384.00	250.44
384.19	259.80
384.39	198.95
384.58	273.84
384.78	248.10
384.97	255.12
385.17	250.44
385.36	161.50
385.56	227.03
385.75	276.18
385.95	304.27
386.14	299.59
386.34	318.31
386.53	238.73
386.72	318.31
386.92	306.61
387.11	339.38
387.31	301.93
387.50	217.67
387.70	217.67
387.89	365.12
388.09	266.82
388.28	334.70
388.48	292.57
388.67	332.36
388.86	311.29
389.06	276.18
389.25	313.63
389.45	255.12
389.64	301.93
389.84	313.63
390.03	273.84
390.22	299.59
390.42	353.42
390.61	283.20
390.81	351.08
391.00	290.23
391.19	346.40
391.39	294.91
391.58	332.36
391.78	381.51
391.97	348.74
392.16	369.80
392.36	348.74
392.55	388.53
392.75	360.44
392.94	311.29
393.13	330.02
393.33	351.08
393.52	360.44
393.71	372.15
393.91	411.93
394.10	355.76
394.29	379.17
394.49	369.80
394.68	456.40
394.88	425.98
395.07	411.93
395.26	470.45
395.46	397.89
395.65	433.00
395.84	418.96
396.04	482.15
396.23	477.47
396.42	442.36
396.62	465.77
396.81	416.62
397.00	479.81
397.19	407.25
397.39	437.68
397.58	510.24
397.77	465.77
397.97	484.49
398.16	514.92
398.35	507.90
398.55	430.66
398.74	531.30
398.93	482.15
399.12	503.22
399.32	505.56
399.51	540.66
399.70	547.69
399.90	566.41
400.09	564.07
400.28	589.82
400.47	620.24
400.67	538.32
400.86	587.47
401.05	617.90
401.24	545.34
401.44	550.03
401.63	608.54
401.82	674.07
402.01	571.09
402.21	711.52
402.40	629.60
402.59	603.86
402.78	697.48
402.97	629.60
403.17	664.71
403.36	727.91
403.55	720.88
403.74	753.65
403.93	718.54
404.13	786.42
404.32	840.25
404.51	767.70
404.70	770.04
404.89	748.97
405.09	858.98
405.28	826.21
405.47	805.14
405.66	798.12
405.85	835.57
406.05	816.85
406.24	819.19
406.43	945.58
406.62	926.85
406.81	931.53
407.00	973.66
407.20	938.55
407.39	992.39
407.58	957.28
407.77	947.92
407.96	1025.15
408.15	1060.26
408.34	1074.31
408.54	1083.67
408.73	922.17
408.92	1060.26
409.11	1118.78
409.30	1109.41
409.49	1053.24
409.68	1060.26
409.87	1170.27
410.07	1029.84
410.26	1193.67
410.45	1104.73
410.64	1198.35
410.83	1231.12
411.02	1263.89
411.21	1259.21
411.40	1252.19
411.59	1399.64
411.78	1357.51
411.98	1348.15
412.17	1338.79
412.36	1308.36
412.55	1409.00
412.74	1458.15
412.93	1462.83
413.12	1474.54
413.31	1444.11
413.50	1490.92
413.69	1542.41
413.88	1540.07
414.07	1610.29
414.26	1469.86
414.45	1533.05
414.64	1577.52
414.83	1612.63
415.02	1680.50
415.22	1762.42
415.41	1755.40
415.60	1792.85
415.79	1795.19
415.98	1722.63
416.17	1727.32
416.36	1694.55
416.55	1764.76
416.74	1872.43
416.93	1795.19
417.12	1891.15
417.31	1844.34
417.50	1825.62
417.69	1942.64
417.88	1886.47
418.07	1891.15
418.26	2003.50
418.45	1914.56
418.64	2024.56
418.83	2052.65
419.02	2012.86
419.21	2115.84
419.39	2054.99
419.58	2092.44
419.77	2024.56
419.96	2120.53
420.15	2225.85
420.34	2197.76
420.53	2045.63
420.72	2249.25
420.91	2214.15
421.10	2211.81
421.29	2289.04
421.48	2228.19
421.67	2167.34
421.86	2267.98
422.05	2279.68
422.24	2253.94
422.43	2225.85
422.61	2417.77
422.80	2277.34
422.99	2286.70
423.18	2270.32
423.37	2441.18
423.56	2368.62
423.75	2441.18
423.94	2307.77
424.13	2146.27
424.32	2251.60
424.50	2406.07
424.69	2317.13
424.88	2338.20
425.07	2305.43
425.26	2328.83
425.45	2326.49
425.64	2478.63
425.83	2366.28
426.01	2502.03
426.20	2455.22
426.39	2464.58
426.58	2429.48
426.77	2434.16
426.96	2562.89
427.15	2499.69
427.33	2471.61
427.52	2464.58
427.71	2576.93
427.90	2483.31
428.09	2572.25
428.28	2612.04
428.46	2616.72
428.65	2595.65
428.84	2642.46
429.03	2700.98
429.22	2576.93
429.40	2693.96
429.59	2633.10
429.78	2558.21
429.97	2635.44
430.16	2612.04
430.34	2708.00
430.53	2799.28
430.72	2801.62
430.91	2761.83
431.10	2782.90
431.28	2920.99
431.47	2850.77
431.66	2904.60
431.85	2841.41
432.03	2808.64
432.22	2974.82
432.41	2909.29
432.60	3016.95
432.79	2909.29
432.97	2820.35
433.16	2867.16
433.35	2930.35
433.54	3007.59
433.72	3038.02
433.91	2832.05
434.10	3077.80
434.28	2937.37
434.47	3005.25
434.66	3213.56
434.85	3096.53
435.03	3091.85
435.22	3349.31
435.41	3494.42
435.59	3468.67
435.78	3311.86
435.97	3112.91
436.16	3283.77
436.34	3215.90
436.53	3173.77
436.72	3136.32
436.90	3176.11
437.09	3243.98
437.28	3166.74
437.46	3342.28
437.65	3431.23
437.84	3370.37
438.02	3393.78
438.21	3222.92
438.40	3255.69
438.58	3321.22
438.77	3478.04
438.96	3435.91
439.14	3400.80
439.33	3550.59
439.52	3595.06
439.70	3433.57
439.89	3559.95
440.08	3555.27
440.26	3592.72
440.45	3693.37
440.63	3611.45
440.82	3826.78
441.01	3770.60
441.19	3791.67
441.38	3777.62
441.57	3808.05
441.75	3967.21
441.94	3934.44
442.12	3957.85
442.31	3946.14
442.50	4009.34
442.68	4086.58
442.87	3932.10
443.05	3955.51
443.24	4065.51
443.43	4021.04
443.61	4081.89
443.80	4098.28
443.98	4014.02
444.17	3929.76
444.35	4053.81
444.54	4102.96
444.73	4114.66
444.91	3992.95
445.10	4198.92
445.28	4112.32
445.47	3992.95
445.65	4095.94
445.84	4145.09
446.02	4140.41
446.21	4212.96
446.39	4149.77
446.58	4163.81
446.77	4273.82
446.95	4105.30
447.14	4304.25
447.32	4198.92
447.51	4231.69
447.69	4105.30
447.88	4344.03
448.06	4166.15
448.25	4112.32
448.43	4175.52
448.62	4091.26
448.80	4259.78
448.99	4273.82
449.17	4409.57
449.36	4283.18
449.54	4379.14
449.73	4409.57
449.91	4381.48
450.10	4482.13
450.28	4456.38
450.46	4339.35
450.65	4447.02
450.83	4440.00
451.02	4442.34
451.20	4561.70
451.39	4542.98
451.57	4550.00
451.76	4444.68
451.94	4538.30
452.13	4521.92
452.31	4542.98
452.49	4498.51
452.68	4486.81
452.86	4660.01
453.05	4643.62
453.23	4723.20
453.42	4674.05
453.60	4594.47
453.78	4575.75
453.97	4517.23
454.15	4683.41
454.34	4603.83
454.52	4699.80
454.70	4802.78
454.89	4798.10
455.07	4816.82
455.26	4737.24
455.44	4971.30
455.62	4753.63
455.81	4959.60
455.99	4994.70
456.17	4929.17
456.36	4997.04
456.54	5076.62
456.73	4919.81
456.91	5121.09
457.09	5102.37
457.28	5188.97
457.46	5074.28
457.64	5149.18
457.83	5078.96
458.01	5034.49
458.19	5298.97
458.38	5221.74
458.56	5184.29
458.74	5341.10
458.93	5163.22
459.11	5406.64
459.29	5261.52
459.48	5289.61
459.66	5214.71
459.84	5341.10
460.03	5514.30
460.21	5469.83
460.39	5226.42
460.57	5500.26
460.76	5540.05
460.94	5535.37
461.12	5427.70
461.31	5432.38
461.49	5483.88
461.67	5373.87
461.85	5628.99
462.04	5430.04
462.22	5699.20
462.40	5547.07
462.59	5809.21
462.77	5614.95
462.95	5563.45
463.13	5753.04
463.32	5722.61
463.50	5736.65
463.68	5628.99
463.86	5591.54
464.05	5849.00
464.23	5675.80
464.41	6038.58
464.59	5898.15
464.78	6001.13
464.96	5678.14
465.14	5823.25
465.32	5785.80
465.50	5994.11
465.69	5858.36
465.87	5788.14
466.05	5743.67
466.23	5767.08
466.41	5856.02
466.60	5944.96
466.78	5895.81
466.96	5914.53
467.14	6024.54
467.32	6036.24
467.51	6239.87
467.69	6171.99
467.87	6061.99
468.05	6300.72
468.23	6167.31
468.41	5937.94
468.60	6190.72
468.78	6314.77
468.96	6155.61
469.14	6272.64
469.32	6122.84
469.50	6183.70
469.69	6356.90
469.87	6370.94
470.05	6260.93
470.23	6260.93
470.41	6384.98
470.59	6359.24
470.77	6417.75
470.95	6363.92
471.14	6574.56
471.32	6392.00
471.50	6696.27
471.68	6670.53
471.86	6679.89
472.04	6604.99
472.22	6572.22
472.40	6555.84
472.58	6548.82
472.77	6740.74
472.95	6862.45
473.13	7026.29
473.31	6750.10
473.49	6796.92
473.67	6942.03
473.85	6937.35
474.03	7026.29
474.21	6960.75
474.39	7012.24
474.57	7082.46
474.75	7267.36
474.93	7164.38
475.12	7089.48
475.30	7185.44
475.48	7185.44
475.66	7267.36
475.84	7274.38
476.02	7466.31
476.20	7529.50
476.38	7616.10
476.56	7810.37
476.74	7763.56
476.92	7321.20
477.10	7501.42
477.28	7815.05
477.46	7925.05
477.64	7695.68
477.82	7861.86
478.00	8133.36
478.18	8187.19
478.36	8023.36
478.54	8243.37
478.72	8257.41
478.90	8486.78
479.08	8362.73
479.26	8486.78
479.44	8346.35
479.62	8652.96
479.80	8477.42
479.98	8774.67
480.16	8748.92
480.34	8662.32
480.52	8922.12
480.70	8837.86
480.88	8753.60
481.06	8800.41
481.24	9004.04
481.41	9212.35
481.59	9322.35
481.77	9296.61
481.95	9488.53
482.13	9418.32
482.31	9298.95
482.49	9593.86
482.67	9479.17
482.85	9797.48
483.03	10026.86
483.21	10146.22
483.39	9966.00
483.57	9980.04
483.74	10134.52
483.92	9989.41
484.10	10171.97
484.28	10221.12
484.46	10651.78
484.64	10600.29
484.82	10298.36
485.00	10757.10
485.18	10808.59
485.35	10789.87
485.53	10874.13
485.71	10920.94
485.89	11377.34
486.07	11208.83
486.25	11302.45
486.43	11173.72
486.61	11288.40
486.78	11435.86
486.96	11639.48
487.14	11550.54
487.32	11449.90
487.50	11833.75
487.68	12131.00
487.85	11981.20
488.03	12269.09
488.21	12409.52
488.39	12348.67
488.57	12432.93
488.75	12505.48
488.92	12875.29
489.10	12971.25
489.28	12678.68
489.46	12938.48
489.64	12706.77
489.81	13055.51
489.99	12868.27
490.17	13259.13
490.35	13439.36
490.53	13179.56
490.70	13757.67
490.88	13406.59
491.06	13612.56
491.24	13731.92
491.41	13650.00
491.59	13731.92
491.77	14003.43
491.95	14043.21
492.13	13888.74
492.30	14195.35
492.48	14211.73
492.66	14347.48
492.84	14209.39
493.01	14511.32
493.19	14604.94
493.37	14562.81
493.54	14628.35
493.72	14403.66
493.90	14890.49
494.08	14892.83
494.25	15101.14
494.43	15183.06
494.61	15487.32
494.79	15389.02
494.96	15257.95
495.14	15557.54
495.32	15616.05
495.49	15389.02
495.67	15756.49
495.85	15969.48
496.02	15913.30
496.20	15829.04
496.38	15875.85
496.55	16292.47
496.73	16458.65
496.91	16250.34
497.09	16439.92
497.26	16748.87
497.44	16746.53
497.62	16889.31
497.79	16835.47
497.97	16762.92
498.14	16994.63
498.32	17128.04
498.50	16989.95
498.67	17399.54
498.85	17537.63
499.03	17334.01
499.20	17312.94
499.38	17348.05
499.56	17479.12
499.73	17764.67
499.91	17888.71
500.08	17970.63
500.26	17717.86
500.44	17685.09
500.61	17860.63
500.79	17591.47
500.97	18115.75
501.14	18157.88
501.32	18223.41
501.49	18328.74
501.67	17937.87
501.84	18113.41
502.02	18288.95
502.20	18342.78
502.37	18682.16
502.55	18611.94
502.72	18633.00
502.90	18640.03
503.07	18494.91
503.25	18850.67
503.43	18869.40
503.60	18906.85
503.78	18745.35
503.95	18995.79
504.13	19119.84
504.30	18913.87
504.48	19232.18
504.65	19499.00
504.83	19297.72
505.01	19667.52
505.18	19461.55
505.36	19957.75
505.53	19381.98
505.71	19658.16
505.88	19707.31
506.06	19789.23
506.23	19889.87
506.41	19765.82
506.58	20159.03
506.76	20046.69
506.93	20060.73
507.11	19950.73
507.28	20084.14
507.46	20070.09
507.63	20362.66
507.81	20449.26
507.98	20144.99
508.16	20676.29
508.33	20402.45
508.50	20727.78
508.68	20716.08
508.85	21053.12
509.03	20816.72
509.20	21268.45
509.38	20945.45
509.55	21057.80
509.73	21343.35
509.90	21125.68
510.08	21020.35
510.25	21422.92
510.42	21600.80
510.60	21563.36
510.77	21483.78
510.95	21565.70
511.12	21376.11
511.30	21664.00
511.47	21635.91
511.64	21687.40
511.82	22050.19
511.99	21830.18
512.17	21823.16
512.34	21776.34
512.51	22176.58
512.69	22230.41
512.86	22012.74
513.04	22389.56
513.21	22473.82
513.38	22359.14
513.56	22537.02
513.73	22277.22
513.90	22274.88
514.08	22473.82
514.25	22560.42
514.43	22906.82
514.60	22988.74
514.77	22728.94
514.95	22693.83
515.12	22909.16
515.29	22930.23
515.47	23077.68
515.64	23555.15
515.81	22918.53
515.99	23365.57
516.16	23199.39
516.33	23173.64
516.51	23269.61
516.68	23190.03
516.85	23349.18
517.03	23421.74
517.20	23777.50
517.37	23676.86
517.54	23531.75
517.72	23810.27
517.89	23850.06
518.06	23655.79
518.24	23908.57
518.41	23632.39
518.58	24053.69
518.75	24025.60
518.93	24126.24
519.10	24210.50
519.27	24119.22
519.45	23934.32
519.62	24154.33
519.79	24264.33
519.96	24402.43
520.14	24470.30
520.31	24694.99
520.48	24584.99
520.65	24783.93
520.83	24535.84
521.00	24446.90
521.17	24666.91
521.34	24664.57
521.52	24989.90
521.69	25116.29
521.86	24907.98
522.03	25266.08
522.20	24966.49
522.38	25296.51
522.55	25329.28
522.72	25282.47
522.89	25193.53
523.07	25511.84
523.24	25284.81
523.41	25369.07
523.58	25324.60
523.75	25689.72
523.92	25692.06
524.10	25682.70
524.27	25891.01
524.44	25673.34
524.61	26209.32
524.78	26148.46
524.96	25820.79
525.13	25982.29
525.30	26157.83
525.47	25902.71
525.64	25769.30
525.81	26174.21
525.98	26366.13
526.16	26417.63
526.33	26045.48
526.50	26307.62
526.67	25982.29
526.84	26298.26
527.01	26293.58
527.18	26665.72
527.36	26417.63
527.53	26452.73
527.70	26312.30
527.87	26962.97
528.04	26565.08
528.21	26740.62
528.38	26532.31
528.55	27143.19
528.72	27161.92
528.89	26918.50
529.07	26794.45
529.24	26799.13
529.41	27007.44
529.58	26948.93
529.75	26862.33
529.92	27260.22
530.09	26998.08
530.26	26972.33
530.43	26859.99
530.60	27346.82
530.77	27370.22
530.94	27288.31
531.11	27529.38
531.28	27505.98
531.46	27459.16
531.63	27566.83
531.80	27735.35
531.97	27821.95
532.14	28077.07
532.31	27363.20
532.48	27751.73
532.65	27786.84
532.82	27775.14
532.99	28196.43
533.16	27683.86
533.33	28048.98
533.50	28233.88
533.67	28004.51
533.84	27618.32
534.01	27981.10
534.18	27868.76
534.35	28489.00
534.52	28606.03
534.69	27915.57
534.86	28685.61
535.03	28226.86
535.20	28290.06
535.37	28496.02
535.54	28355.59
535.71	28381.34
535.88	28458.57
536.05	28526.45
536.22	29120.95
536.38	28776.89
536.55	29017.96
536.72	28903.28
536.89	28379.00
537.06	28601.35
537.23	28767.52
537.40	28596.67
537.57	28723.05
537.74	28610.71
537.91	29254.36
538.08	29184.14
538.25	29149.03
538.42	29130.31
538.59	29371.38
538.75	28718.37
538.92	28809.65
539.09	29488.41
539.26	29195.84
539.43	29635.86
539.60	29614.80
539.77	29579.69
539.94	29804.38
540.11	29895.66
540.28	29432.24
540.44	29429.90
540.61	29429.90
540.78	29788.00
540.95	29722.46
541.12	29972.90
541.29	30085.25
541.46	30125.04
541.62	30218.66
541.79	30314.62
541.96	29809.06
542.13	29898.00
542.30	30036.09
542.47	30506.54
542.63	30574.42
542.80	30328.66
542.97	30747.62
543.14	30157.80
543.31	30464.41
543.48	30487.82
543.64	30890.39
543.81	30806.13
543.98	30614.21
544.15	30721.87
544.32	30607.19
544.48	30916.14
544.65	30686.76
544.82	30742.94
544.99	30511.22
545.16	30988.69
545.32	30995.71
545.49	31388.92
545.66	32032.57
545.83	31871.07
546.00	32065.34
546.16	31208.70
546.33	30998.06
546.50	30338.02
546.67	31250.83
546.83	30483.14
547.00	30731.23
547.17	30808.47
547.34	31248.49
547.50	31311.69
547.67	31173.60
547.84	31482.55
548.00	31391.26
548.17	31641.70
548.34	30939.54
548.51	31400.63
548.67	31440.42
548.84	31470.84
549.01	31578.51
549.18	31115.08
549.34	31211.04
549.51	31246.15
549.68	31569.15
549.84	31061.25
550.01	31569.15
550.18	31304.67
550.34	31704.90
550.51	31398.29
550.68	31075.29
550.84	31342.11
551.01	31611.28
551.18	31299.98
551.34	31580.85
551.51	31269.56
551.68	31498.93
551.84	31587.87
552.01	31299.98
552.18	31683.83
552.34	31283.60
552.51	31833.63
552.68	31386.58
552.84	31639.36
553.01	31473.18
553.18	31913.20
553.34	31824.26
553.51	31761.07
553.67	31974.06
553.84	31962.36
554.01	32093.43
554.17	31894.48
554.34	31784.48
554.51	31756.39
554.67	31964.70
554.84	32158.96
555.00	31861.71
555.17	32055.98
555.33	32147.26
555.50	32173.00
555.67	31793.84
555.83	31878.10
556.00	31999.80
556.16	32189.39
556.33	31960.02
556.50	32334.50
556.66	31555.10
556.83	32116.83
556.99	32180.03
557.16	32350.88
557.32	32044.27
557.49	32397.70
557.65	32105.13
557.82	31859.37
557.98	31894.48
558.15	32407.06
558.32	32116.83
558.48	31964.70
558.65	32477.27
558.81	32376.63
558.98	32598.98
559.14	32189.39
559.31	32055.98
559.47	32027.89
559.64	32198.75
559.80	32556.85
559.97	32615.37
560.13	32608.34
560.30	32680.90
560.46	32369.61
560.63	32591.96
560.79	32404.72
560.96	32699.62
561.12	32294.71
561.29	32528.77
561.45	32381.31
561.61	32498.34
561.78	32769.84
561.94	32711.33
562.11	32432.80
562.27	32510.04
562.44	32100.45
562.60	32149.60
562.77	32425.78
562.93	32287.69
563.10	32868.14
563.26	32683.24
563.42	33081.13
563.59	32528.77
563.75	32474.93
563.92	32584.94
564.08	32357.91
564.24	32713.67
564.41	32467.91
564.57	32446.85
564.74	32563.87
564.90	32921.98
565.07	32627.07
565.23	33039.00
565.39	32521.74
565.56	33170.07
565.72	32744.09
565.88	32603.66
566.05	33020.28
566.21	32500.68
566.38	32514.72
566.54	32299.39
566.70	32388.33
566.87	32996.87
567.03	32837.72
567.19	32957.08
567.36	33235.61
567.52	32851.76
567.68	32601.32
567.85	32552.17
568.01	33134.96
568.17	32971.13
568.34	32940.70
568.50	32713.67
568.66	32748.78
568.83	33113.90
568.99	32912.61
569.15	32716.01
569.32	32690.26
569.48	32615.37
569.64	32856.44
569.81	32559.19
569.97	32797.93
570.13	33041.34
570.30	32973.47
570.46	32474.93
570.62	32774.52
570.78	32545.15
570.95	33071.77
571.11	33284.76
571.27	32378.97
571.43	32788.56
571.60	32900.91
571.76	33280.08
571.92	32610.68
572.09	33146.67
572.25	33020.28
572.41	32957.08
572.57	33020.28
572.74	33532.86
572.90	33062.41
573.06	32797.93
573.22	32723.03
573.38	32912.61
573.55	32921.98
573.71	33324.55
573.87	33376.04
574.03	32898.57
574.20	33205.18
574.36	32844.74
574.52	32851.76
574.68	33001.55
574.84	33125.60
575.01	33165.39
575.17	33015.60
575.33	32921.98
575.49	33031.98
575.65	33149.01
575.82	33537.54
575.98	33298.80
576.14	32985.17
576.30	33223.90
576.46	33144.33
576.62	32989.85
576.79	33034.32
576.95	32718.35
577.11	32938.36
577.27	33422.85
577.43	33259.01
577.59	32907.93
577.75	32929.00
577.92	32332.16
578.08	32926.66
578.24	33179.43
578.40	33106.88
578.56	33001.55
578.72	32914.95
578.88	33530.51
579.04	33408.81
579.21	32818.99
579.37	33141.99
579.53	33488.38
579.69	32659.84
579.85	33008.58
580.01	33331.57
580.17	33223.90
580.33	32704.31
580.49	33034.32
580.65	33132.62
580.82	33336.25
580.98	32926.66
581.14	33237.95
581.30	33429.87
581.46	33013.26
581.62	32861.12
581.78	33385.40
581.94	33479.02
582.10	33156.03
582.26	33020.28
582.42	33099.86
582.58	33214.54
582.74	33163.05
582.90	33205.18
583.06	33710.74
583.22	33184.12
583.38	33134.96
583.54	33324.55
583.70	33535.20
583.86	33120.92
584.02	33069.43
584.18	33296.46
584.34	33570.30
584.50	33518.81
584.66	33074.11
584.82	33046.02
584.98	33291.78
585.14	33617.11
585.30	32957.08
585.46	33179.43
585.62	33177.09
585.78	32772.18
585.94	33078.79
586.10	33312.84
586.26	33261.35
586.42	33411.15
586.58	33567.96
586.74	33284.76
586.90	33364.34
587.06	32774.52
587.22	33488.38
587.38	33273.06
587.54	33277.74
587.70	33443.91
587.86	33652.22
588.02	33057.73
588.18	33195.82
588.34	32959.42
588.49	33006.23
588.65	33092.83
588.81	33418.17
588.97	33481.36
589.13	33364.34
589.29	33179.43
589.45	33207.52
589.61	33603.07
589.77	33649.88
589.93	33287.10
590.08	33706.05
590.24	33881.60
590.40	33453.28
590.56	33509.45
590.72	33125.60
590.88	33083.47
591.04	33287.10
591.20	33558.60
591.35	33490.73
591.51	33729.46
591.67	33699.03
