SpectraSuite Data File
++++++++++++++++++++++++++++++++++++
Date: Fri Oct 04 11:39:57 GMT-05:00 2013
User: price-jones
Dark Spectrum Present: No
Reference Spectrum Present: No
Number of Sampled Component Spectra: 1
Spectrometers: USB2+H05261
Integration Time (usec): 100000 (USB2+H05261)
Spectra Averaged: 1 (USB2+H05261)
Boxcar Smoothing: 0 (USB2+H05261)
Correct for Electrical Dark: No (USB2+H05261)
Strobe/Lamp Enabled: No (USB2+H05261)
Correct for Detector Non-linearity: No (USB2+H05261)
Correct for Stray Light: No (USB2+H05261)
Number of Pixels in Processed Spectrum: 2048
>>>>>Begin Processed Spectral Data<<<<<
365.73	74.90
365.92	74.90
366.12	74.90
366.32	0.00
366.52	4.68
366.72	0.00
366.91	0.00
367.11	0.00
367.31	0.00
367.51	18.72
367.70	0.00
367.90	0.00
368.10	0.00
368.30	0.00
368.49	0.00
368.69	0.00
368.89	0.00
369.09	0.00
369.28	0.00
369.48	0.00
369.68	0.00
369.87	25.75
370.07	0.00
370.27	70.22
370.47	74.90
370.66	102.98
370.86	81.92
371.06	117.03
371.25	135.75
371.45	49.15
371.65	126.39
371.84	168.52
372.04	114.69
372.24	187.24
372.44	67.88
372.63	110.01
372.83	224.69
373.03	166.18
373.22	138.09
373.42	114.69
373.62	201.29
373.81	184.90
374.01	147.45
374.21	154.48
374.40	163.84
374.60	210.65
374.79	161.50
374.99	189.58
375.19	220.01
375.38	191.92
375.58	175.54
375.78	196.60
375.97	166.18
376.17	217.67
376.37	159.16
376.56	159.16
376.76	147.45
376.95	154.48
377.15	224.69
377.35	220.01
377.54	189.58
377.74	170.86
377.93	215.33
378.13	222.35
378.33	231.71
378.52	187.24
378.72	175.54
378.91	191.92
379.11	217.67
379.31	203.63
379.50	215.33
379.70	208.31
379.89	149.79
380.09	142.77
380.28	163.84
380.48	147.45
380.68	119.37
380.87	112.35
381.07	170.86
381.26	215.33
381.46	184.90
381.65	166.18
381.85	156.82
382.04	135.75
382.24	166.18
382.43	189.58
382.63	149.79
382.83	189.58
383.02	198.95
383.22	255.12
383.41	152.13
383.61	236.39
383.80	184.90
384.00	177.88
384.19	196.60
384.39	128.73
384.58	131.07
384.78	252.78
384.97	196.60
385.17	170.86
385.36	138.09
385.56	194.26
385.75	212.99
385.95	175.54
386.14	159.16
386.34	191.92
386.53	182.56
386.72	187.24
386.92	273.84
387.11	189.58
387.31	236.39
387.50	166.18
387.70	147.45
387.89	191.92
388.09	154.48
388.28	203.63
388.48	299.59
388.67	210.65
388.86	152.13
389.06	177.88
389.25	264.48
389.45	203.63
389.64	210.65
389.84	250.44
390.03	294.91
390.22	280.86
390.42	201.29
390.61	201.29
390.81	145.11
391.00	266.82
391.19	330.02
391.39	278.52
391.58	234.05
391.78	215.33
391.97	248.10
392.16	276.18
392.36	217.67
392.55	252.78
392.75	252.78
392.94	245.76
393.13	273.84
393.33	212.99
393.52	283.20
393.71	285.55
393.91	337.04
394.10	229.37
394.29	243.42
394.49	152.13
394.68	255.12
394.88	308.95
395.07	248.10
395.26	227.03
395.46	297.25
395.65	318.31
395.84	318.31
396.04	362.78
396.23	306.61
396.42	248.10
396.62	318.31
396.81	290.23
397.00	278.52
397.19	330.02
397.39	278.52
397.58	376.83
397.77	315.97
397.97	315.97
398.16	327.68
398.35	365.12
398.55	283.20
398.74	358.10
398.93	334.70
399.12	306.61
399.32	318.31
399.51	353.42
399.70	381.51
399.90	327.68
400.09	365.12
400.28	407.25
400.47	346.40
400.67	433.00
400.86	318.31
401.05	440.02
401.24	379.17
401.44	374.49
401.63	372.15
401.82	374.49
402.01	484.49
402.21	418.96
402.40	442.36
402.59	416.62
402.78	411.93
402.97	423.64
403.17	383.85
403.36	479.81
403.55	435.34
403.74	451.72
403.93	458.74
404.13	533.64
404.32	531.30
404.51	489.17
404.70	521.94
404.89	486.83
405.09	582.79
405.28	512.58
405.47	524.28
405.66	524.28
405.85	594.50
406.05	594.50
406.24	451.72
406.43	505.56
406.62	650.67
406.81	582.79
407.00	674.07
407.20	571.09
407.39	603.86
407.58	589.82
407.77	678.76
407.96	674.07
408.15	662.37
408.34	629.60
408.54	606.20
408.73	706.84
408.92	704.50
409.11	589.82
409.30	667.05
409.49	596.84
409.68	727.91
409.87	653.01
410.07	732.59
410.26	702.16
410.45	720.88
410.64	781.74
410.83	678.76
411.02	795.78
411.21	840.25
411.40	716.20
411.59	791.10
411.78	851.96
411.98	784.08
412.17	753.65
412.36	777.06
412.55	753.65
412.74	849.61
412.93	973.66
413.12	933.87
413.31	868.34
413.50	901.11
413.69	861.32
413.88	950.26
414.07	891.74
414.26	952.60
414.45	903.45
414.64	985.37
414.83	1006.43
415.02	1039.20
415.22	1097.71
415.41	1064.94
415.60	1055.58
415.79	1001.75
415.98	1081.33
416.17	1144.52
416.36	1055.58
416.55	1001.75
416.74	1111.75
416.93	1083.67
417.12	1078.99
417.31	1160.91
417.50	1116.44
417.69	1224.10
417.88	1130.48
418.07	1186.65
418.26	1210.06
418.45	1282.61
418.64	1287.29
418.83	1291.98
419.02	1228.78
419.21	1242.82
419.39	1345.81
419.58	1247.51
419.77	1149.20
419.96	1310.70
420.15	1310.70
420.34	1268.57
420.53	1399.64
420.72	1315.38
420.91	1369.21
421.10	1411.34
421.29	1310.70
421.48	1315.38
421.67	1387.94
421.86	1371.55
422.05	1226.44
422.24	1301.34
422.43	1427.73
422.61	1455.81
422.80	1341.13
422.99	1425.39
423.18	1350.49
423.37	1413.68
423.56	1378.58
423.75	1373.89
423.94	1465.18
424.13	1352.83
424.32	1441.77
424.50	1493.26
424.69	1519.01
424.88	1448.79
425.07	1341.13
425.26	1479.22
425.45	1453.47
425.64	1497.94
425.83	1444.11
426.01	1507.30
426.20	1469.86
426.39	1462.83
426.58	1394.96
426.77	1446.45
426.96	1530.71
427.15	1556.46
427.33	1521.35
427.52	1533.05
427.71	1490.92
427.90	1514.33
428.09	1603.27
428.28	1495.60
428.46	1519.01
428.65	1544.75
428.84	1598.59
429.03	1551.78
429.22	1441.77
429.40	1591.56
429.59	1577.52
429.78	1558.80
429.97	1519.01
430.16	1664.12
430.34	1537.73
430.53	1596.25
430.72	1703.91
430.91	1636.03
431.10	1612.63
431.28	1778.81
431.47	1776.47
431.66	1659.44
431.85	1631.35
432.03	1626.67
432.22	1750.72
432.41	1746.04
432.60	1671.14
432.79	1727.32
432.97	1764.76
433.16	1753.06
433.35	1753.06
433.54	1785.83
433.72	1741.36
433.91	1834.98
434.10	1809.23
434.28	1767.10
434.47	1715.61
434.66	1741.36
434.85	1853.70
435.03	1881.79
435.22	2024.56
435.41	2298.41
435.59	2349.90
435.78	2141.59
435.97	1991.80
436.16	1989.46
436.34	1872.43
436.53	1902.86
436.72	1973.07
436.90	1865.41
437.09	1980.09
437.28	1877.11
437.46	1907.54
437.65	1994.14
437.84	2008.18
438.02	1961.37
438.21	1961.37
438.40	1856.04
438.58	2033.93
438.77	2066.69
438.96	2066.69
439.14	2092.44
439.33	2148.61
439.52	2125.21
439.70	2064.35
439.89	2321.81
440.08	2211.81
440.26	2111.16
440.45	2146.27
440.63	2118.18
440.82	2200.10
441.01	2197.76
441.19	2174.36
441.38	2209.47
441.57	2260.96
441.75	2305.43
441.94	2335.85
442.12	2270.32
442.31	2375.64
442.50	2328.83
442.68	2157.97
442.87	2349.90
443.05	2359.26
443.24	2434.16
443.43	2359.26
443.61	2434.16
443.80	2403.73
443.98	2319.47
444.17	2275.00
444.35	2392.03
444.54	2553.52
444.73	2438.84
444.91	2473.95
445.10	2368.62
445.28	2406.07
445.47	2352.24
445.65	2342.88
445.84	2317.13
446.02	2406.07
446.21	2438.84
446.39	2429.48
446.58	2516.08
446.77	2516.08
446.95	2363.94
447.14	2413.09
447.32	2518.42
447.51	2476.29
447.69	2464.58
447.88	2403.73
448.06	2401.39
448.25	2469.27
448.43	2548.84
448.62	2616.72
448.80	2469.27
448.99	2480.97
449.17	2438.84
449.36	2450.54
449.54	2583.95
449.73	2605.02
449.91	2635.44
450.10	2499.69
450.28	2597.99
450.46	2614.38
450.65	2619.06
450.83	2619.06
451.02	2761.83
451.20	2612.04
451.39	2635.44
451.57	2605.02
451.76	2619.06
451.94	2574.59
452.13	2644.81
452.31	2719.70
452.49	2722.04
452.68	2663.53
452.86	2715.02
453.05	2761.83
453.23	2672.89
453.42	2719.70
453.60	2579.27
453.78	2682.25
453.97	2803.96
454.15	2827.37
454.34	2668.21
454.52	2799.28
454.70	2726.72
454.89	2860.13
455.07	2789.92
455.26	2869.50
455.44	2846.09
455.62	2841.41
455.81	2857.79
455.99	2815.66
456.17	2883.54
456.36	2902.26
456.54	2953.76
456.73	2984.18
456.91	3047.38
457.09	3073.12
457.28	3096.53
457.46	3077.80
457.64	3096.53
457.83	3129.30
458.01	2920.99
458.19	3000.57
458.38	3129.30
458.56	3110.57
458.74	3061.42
458.93	3038.02
459.11	2993.55
459.29	2932.69
459.48	3016.95
459.66	3150.36
459.84	3255.69
460.03	3211.22
460.21	3262.71
460.39	3194.83
460.57	3169.09
460.76	3220.58
460.94	3040.36
461.12	3155.04
461.31	3241.64
461.49	3171.43
461.67	3194.83
461.85	3384.41
462.04	3155.04
462.22	3702.73
462.40	3375.05
462.59	3349.31
462.77	3255.69
462.95	3258.03
463.13	3307.18
463.32	3314.20
463.50	3279.09
463.68	3265.05
463.86	3419.52
464.05	3435.91
464.23	3276.75
464.41	3344.63
464.59	3246.32
464.78	3463.99
464.96	3466.33
465.14	3372.71
465.32	3499.10
465.50	3562.30
465.69	3552.93
465.87	3281.43
466.05	3438.25
466.23	3314.20
466.41	3449.95
466.60	3597.40
466.78	3335.26
466.96	3478.04
467.14	3391.44
467.32	3513.14
467.51	3548.25
467.69	3543.57
467.87	3508.46
468.05	3480.38
468.23	3536.55
468.41	3555.27
468.60	3625.49
468.78	3583.36
468.96	3515.48
469.14	3730.81
469.32	3571.66
469.50	3684.00
469.69	3660.60
469.87	3768.26
470.05	3737.84
470.23	3611.45
470.41	3632.51
470.59	3730.81
470.77	3857.20
470.95	3728.47
471.14	3805.71
471.32	3775.28
471.50	3772.94
471.68	3824.44
471.86	3941.46
472.04	3845.50
472.22	3810.39
472.40	3737.84
472.58	3866.56
472.77	4016.36
472.95	3939.12
473.13	4177.86
473.31	3988.27
473.49	4028.06
473.67	3918.06
473.85	3894.65
474.03	4191.90
474.21	3999.98
474.39	4224.67
474.57	4135.73
474.75	4243.39
474.93	4255.09
475.12	4065.51
475.30	4053.81
475.48	4278.50
475.66	4208.28
475.84	4243.39
476.02	4320.63
476.20	4236.37
476.38	4610.86
476.56	4585.11
476.74	4278.50
476.92	4461.06
477.10	4461.06
477.28	4660.01
477.46	4587.45
477.64	4526.60
477.82	4681.07
478.00	4692.77
478.18	4636.60
478.36	4802.78
478.54	4865.97
478.72	4858.95
478.90	4840.23
479.08	4917.47
479.26	4791.08
479.44	4959.60
479.62	5048.54
479.80	4924.49
479.98	4994.70
480.16	5057.90
480.34	5097.69
480.52	5036.83
480.70	5172.58
480.88	5055.56
481.06	5249.82
481.24	5277.91
481.41	5249.82
481.59	5238.12
481.77	5465.15
481.95	5273.23
482.13	5420.68
482.31	5416.00
482.49	5657.07
482.67	5523.66
482.85	5783.46
483.03	5699.20
483.21	5830.27
483.39	5907.51
483.57	5806.87
483.74	5837.30
483.92	5856.02
484.10	5818.57
484.28	5935.60
484.46	6104.12
484.64	6141.57
484.82	6097.10
485.00	6207.10
485.18	6040.92
485.35	6417.75
485.53	6361.58
485.71	6384.98
485.89	6644.78
486.07	6448.18
486.25	6420.09
486.43	6455.20
486.61	6504.35
486.78	6656.48
486.96	6808.62
487.14	6864.79
487.32	6712.66
487.50	6937.35
487.68	6932.67
487.85	6970.12
488.03	7119.91
488.21	7241.62
488.39	7176.08
488.57	7108.21
488.75	7117.57
488.92	7463.97
489.10	7215.87
489.28	7368.01
489.46	7456.95
489.64	7513.12
489.81	7480.35
489.99	7557.59
490.17	7810.37
490.35	7702.70
490.53	7714.41
490.70	7578.65
490.88	7716.75
491.06	7709.72
491.24	7761.22
491.41	7915.69
491.59	7943.78
491.77	8121.66
491.95	8318.26
492.13	8320.60
492.30	8009.31
492.48	8215.28
492.66	8184.85
492.84	8184.85
493.01	8496.14
493.19	8210.60
493.37	8601.47
493.54	8659.98
493.72	8549.98
493.90	8458.70
494.08	8568.70
494.25	8847.22
494.43	8746.58
494.61	8685.73
494.79	9020.42
494.96	8652.96
495.14	8910.42
495.32	8910.42
495.49	8882.33
495.67	8954.89
495.85	9076.60
496.02	9179.58
496.20	9238.09
496.38	9158.52
496.55	9151.49
496.73	9390.23
496.91	9446.40
497.09	9324.69
497.26	9621.94
497.44	9383.21
497.62	9458.10
497.79	9596.20
497.97	9556.41
498.14	9811.53
498.32	9935.57
498.50	9525.98
498.67	9853.66
498.85	9830.25
499.03	9958.98
499.20	9930.89
499.38	10017.49
499.56	10029.20
499.73	10132.18
499.91	10113.45
500.08	10120.48
500.26	10178.99
500.44	10345.17
500.61	10160.27
500.79	10377.94
500.97	10291.34
501.14	10335.81
501.32	10415.38
501.49	10434.11
501.67	10303.04
501.84	10497.30
502.02	10588.58
502.20	10590.92
502.37	10736.04
502.55	10771.15
502.72	10867.11
502.90	10635.39
503.07	10565.18
503.25	10663.48
503.43	10656.46
503.60	10693.91
503.78	10794.55
503.95	10817.96
504.13	10888.17
504.30	10965.41
504.48	11019.24
504.65	11044.99
504.83	10963.07
505.01	11094.14
505.18	11117.54
505.36	11030.94
505.53	11152.65
505.71	11178.40
505.88	11417.13
506.06	11143.29
506.23	11421.81
506.41	11248.61
506.58	11461.60
506.76	11421.81
506.93	11407.77
507.11	11393.73
507.28	11452.24
507.46	11510.75
507.63	11653.53
507.81	11728.42
507.98	11604.38
508.16	11548.20
508.33	11819.71
508.50	11777.58
508.68	11798.64
508.85	11763.53
509.03	11817.36
509.20	11864.18
509.38	11899.28
509.55	11847.79
509.73	11915.67
509.90	11939.07
510.08	11955.46
510.25	12116.95
510.42	12131.00
510.60	12264.41
510.77	11899.28
510.95	12336.96
511.12	12133.34
511.30	12191.85
511.47	12266.75
511.64	12477.40
511.82	12692.73
511.99	12388.46
512.17	12741.88
512.34	12409.52
512.51	12383.77
512.69	12496.12
512.86	12793.37
513.04	12793.37
513.21	12779.32
513.38	12851.88
513.56	12718.47
513.73	12517.18
513.90	12791.03
514.08	12753.58
514.25	13013.38
514.43	12718.47
514.60	13268.50
514.77	13095.30
514.95	12917.42
515.12	12823.80
515.29	12858.90
515.47	13099.98
515.64	13380.84
515.81	13315.31
515.99	13343.39
516.16	13359.78
516.33	13317.65
516.51	13364.46
516.68	13231.05
516.85	13310.63
517.03	13460.42
517.20	13488.51
517.37	13598.51
517.54	13537.66
517.72	13544.68
517.89	13511.91
518.06	13462.76
518.24	13867.67
518.41	13701.50
518.58	13724.90
518.75	13570.43
518.93	13809.16
519.10	13596.17
519.27	13905.12
519.45	13570.43
519.62	13750.65
519.79	13853.63
519.96	13752.99
520.14	14183.65
520.31	13818.52
520.48	13944.91
520.65	14216.41
520.83	13989.38
521.00	14127.47
521.17	14288.97
521.34	14050.24
521.52	14122.79
521.69	14284.29
521.86	14277.27
522.03	14244.50
522.20	14373.23
522.38	14148.54
522.55	14359.19
522.72	14356.85
522.89	14494.94
523.07	14487.92
523.24	14658.78
523.41	14485.58
523.58	14532.39
523.75	14665.80
523.92	14473.87
524.10	14792.19
524.27	14740.69
524.44	14775.80
524.61	15087.09
524.78	14651.75
524.96	14871.76
525.13	14766.44
525.30	14796.87
525.47	14675.16
525.64	14848.36
525.81	14855.38
525.98	15047.30
526.16	15126.88
526.33	15061.35
526.50	14979.43
526.67	15021.56
526.84	15192.42
527.01	14726.65
527.18	15014.54
527.36	15140.93
527.53	15426.47
527.70	15295.40
527.87	15180.71
528.04	15176.03
528.21	15213.48
528.38	15246.25
528.55	15089.43
528.72	15126.88
528.89	15332.85
529.07	15365.62
529.24	15470.94
529.41	15637.12
529.58	15215.82
529.75	15229.87
529.92	15543.50
530.09	15475.62
530.26	15758.83
530.43	15548.18
530.60	15892.24
530.77	15288.38
530.94	15611.37
531.11	15466.26
531.28	15768.19
531.46	15896.92
531.63	15854.79
531.80	16081.82
531.97	15660.52
532.14	15903.94
532.31	15571.58
532.48	16126.29
532.65	15709.68
532.82	15854.79
532.99	16166.08
533.16	15836.06
533.33	15791.59
533.50	16582.70
533.67	16297.15
533.84	15784.57
534.01	15981.18
534.18	15896.92
534.35	15868.83
534.52	15810.32
534.69	16271.40
534.86	16262.04
535.03	15955.43
535.20	16360.34
535.37	16315.87
535.54	16175.44
535.71	16217.57
535.88	16236.30
536.05	16475.03
536.22	16248.00
536.38	16851.86
536.55	16376.73
536.72	16376.73
536.89	16140.33
537.06	16779.30
537.23	16662.27
537.40	16292.47
537.57	16676.32
537.74	16470.35
537.91	16886.97
538.08	16521.84
538.25	16355.66
538.42	16533.54
538.59	16688.02
538.75	16753.55
538.92	16624.83
539.09	16723.13
539.26	16713.77
539.43	16776.96
539.60	17053.14
539.77	16959.52
539.94	17041.44
540.11	16800.37
540.28	16985.27
540.44	16996.97
540.61	17006.33
540.78	17036.76
540.95	17270.81
541.12	17322.30
541.29	17352.73
541.46	17357.41
541.62	17263.79
541.79	17509.55
541.96	17329.33
542.13	17422.95
542.30	17605.51
542.47	17406.56
542.63	17699.13
542.80	17895.74
542.97	17659.34
543.14	17841.90
543.31	17427.63
543.48	17474.44
543.64	18029.15
543.81	17759.98
543.98	17935.53
544.15	17865.31
544.32	17947.23
544.48	18024.47
544.65	17542.32
544.82	17844.24
544.99	17462.74
545.16	17771.69
545.32	17851.27
545.49	18380.23
545.66	18768.76
545.83	18953.66
546.00	18693.86
546.16	18221.07
546.33	17949.57
546.50	17624.23
546.67	17839.56
546.83	17734.24
547.00	17759.98
547.17	17909.78
547.34	17752.96
547.50	17846.58
547.67	17940.21
547.84	17853.61
548.00	17764.67
548.17	18141.49
548.34	17907.44
548.51	17729.56
548.67	17989.36
548.84	17982.34
549.01	17692.11
549.18	18230.43
549.34	17912.12
549.51	18181.28
549.68	18092.34
549.84	18188.30
550.01	18078.30
550.18	17888.71
550.34	18047.87
550.51	18139.15
550.68	18274.90
550.84	17516.57
551.01	18249.16
551.18	17944.89
551.34	17652.32
551.51	17951.91
551.68	18134.47
551.84	17593.81
552.01	18066.60
552.18	17954.25
552.34	17968.29
552.51	17722.54
552.68	17942.55
552.84	17862.97
553.01	17982.34
553.18	17972.97
553.34	18185.96
553.51	17996.38
553.67	18192.98
553.84	18618.96
554.01	18150.85
554.17	18125.11
554.34	18263.20
554.51	18087.66
554.67	18132.13
554.84	18291.29
555.00	18312.35
555.17	18047.87
555.33	18192.98
555.50	18024.47
555.67	18214.05
555.83	18129.79
556.00	18499.59
556.16	18579.17
556.33	18134.47
556.50	18120.43
556.66	18162.56
556.83	18136.81
556.99	18691.52
557.16	18214.05
557.32	18431.72
557.49	18602.58
557.65	17874.67
557.82	18532.36
557.98	18391.93
558.15	18352.14
558.32	18335.76
558.48	18476.19
558.65	18595.56
558.81	18478.53
558.98	18412.99
559.14	18354.48
559.31	18164.90
559.47	18469.17
559.64	18789.82
559.80	18256.18
559.97	18321.71
560.13	18396.61
560.30	18532.36
560.46	18558.11
560.63	18604.92
560.79	18352.14
560.96	18712.58
561.12	18288.95
561.29	18544.06
561.45	18310.01
561.61	18602.58
561.78	18757.05
561.94	18689.18
562.11	18644.71
562.27	18569.81
562.44	18525.34
562.60	18583.85
562.77	18485.55
562.93	18724.29
563.10	18759.39
563.26	18560.45
563.42	18625.98
563.59	18443.42
563.75	18523.00
563.92	18731.31
564.08	18466.83
564.24	18644.71
564.41	18562.79
564.57	18476.19
564.74	18607.26
564.90	18555.77
565.07	18714.92
565.23	18572.15
565.39	18892.80
565.56	18902.17
565.72	18504.28
565.88	18906.85
566.05	18312.35
566.21	18581.51
566.38	18572.15
566.54	18548.75
566.70	18574.49
566.87	18675.13
567.03	18775.78
567.19	18822.59
567.36	18614.28
567.52	18647.05
567.68	18803.86
567.85	18429.38
568.01	18696.20
568.17	18450.44
568.34	18691.52
568.50	18661.09
568.66	18988.77
568.83	18892.80
568.99	18492.57
569.15	18944.30
569.32	18668.11
569.48	18560.45
569.64	18682.16
569.81	18574.49
569.97	18670.45
570.13	18799.18
570.30	18675.13
570.46	18827.27
570.62	18785.14
570.78	18579.17
570.95	18700.88
571.11	18764.07
571.27	18728.97
571.43	18710.24
571.60	18616.62
571.76	18691.52
571.92	18747.69
572.09	18860.04
572.25	18838.97
572.41	18787.48
572.57	18738.33
572.74	18820.25
572.90	18740.67
573.06	18841.31
573.22	19058.98
573.38	18717.26
573.55	18733.65
573.71	18853.02
573.87	18546.40
574.03	18771.10
574.20	18876.42
574.36	18703.22
574.52	18670.45
574.68	18738.33
574.84	18881.10
575.01	18717.26
575.17	18923.23
575.33	19030.90
575.49	18656.41
575.65	19033.24
575.82	18937.27
575.98	18925.57
576.14	19080.05
576.30	18972.38
576.46	18867.06
576.62	18981.74
576.79	19225.16
576.95	19276.65
577.11	19122.18
577.27	18899.83
577.43	19051.96
577.59	18897.49
577.75	18464.49
577.92	18881.10
578.08	19005.15
578.24	18675.13
578.40	18993.45
578.56	19094.09
578.72	19136.22
578.88	19255.59
579.04	19058.98
579.21	19168.99
579.37	18958.34
579.53	19133.88
579.69	18764.07
579.85	18588.53
580.01	18897.49
580.17	18775.78
580.33	18647.05
580.49	19157.28
580.65	18948.98
580.82	19187.71
580.98	18764.07
581.14	18934.93
581.30	19014.51
581.46	19014.51
581.62	19101.11
581.78	18897.49
581.94	19002.81
582.10	19150.26
582.26	19112.81
582.42	18909.19
582.58	19112.81
582.74	18991.11
582.90	19033.24
583.06	19154.94
583.22	19098.77
583.38	18834.29
583.54	18644.71
583.70	19080.05
583.86	18808.54
584.02	18941.96
584.18	19122.18
584.34	19150.26
584.50	19124.52
584.66	18913.87
584.82	18991.11
584.98	19150.26
585.14	19288.35
585.30	18707.90
585.46	18958.34
585.62	18939.62
585.78	19068.34
585.94	18792.16
586.10	19033.24
586.26	18747.69
586.42	18958.34
586.58	19293.04
586.74	19068.34
586.90	19021.53
587.06	18864.72
587.22	19061.32
587.38	18869.40
587.54	19150.26
587.70	19147.92
587.86	19218.14
588.02	18951.32
588.18	19152.60
588.34	18970.04
588.49	18860.04
588.65	19061.32
588.81	18878.76
588.97	19112.81
589.13	18981.74
589.29	18728.97
589.45	19328.14
589.61	18862.38
589.77	19227.50
589.93	19218.14
590.08	18927.91
590.24	18864.72
590.40	19049.62
590.56	19098.77
590.72	19021.53
590.88	19002.81
591.04	18986.43
591.20	18998.13
591.35	19101.11
591.51	19440.49
591.67	19269.63
591.83	19138.56
591.99	19351.55
592.15	19339.85
592.31	19087.07
592.46	18895.14
592.62	19145.58
592.78	19213.46
592.94	19108.13
