SpectraSuite Data File
++++++++++++++++++++++++++++++++++++
Date: Fri Oct 04 11:40:06 GMT-05:00 2013
User: price-jones
Dark Spectrum Present: No
Reference Spectrum Present: No
Number of Sampled Component Spectra: 1
Spectrometers: USB2+H05261
Integration Time (usec): 100000 (USB2+H05261)
Spectra Averaged: 1 (USB2+H05261)
Boxcar Smoothing: 0 (USB2+H05261)
Correct for Electrical Dark: No (USB2+H05261)
Strobe/Lamp Enabled: No (USB2+H05261)
Correct for Detector Non-linearity: No (USB2+H05261)
Correct for Stray Light: No (USB2+H05261)
Number of Pixels in Processed Spectrum: 2048
>>>>>Begin Processed Spectral Data<<<<<
365.73	46.81
365.92	46.81
366.12	46.81
366.32	0.00
366.52	0.00
366.72	7.02
366.91	0.00
367.11	0.00
367.31	0.00
367.51	0.00
367.70	0.00
367.90	0.00
368.10	0.00
368.30	0.00
368.49	0.00
368.69	0.00
368.89	0.00
369.09	7.02
369.28	0.00
369.48	14.04
369.68	16.38
369.87	7.02
370.07	0.00
370.27	25.75
370.47	95.96
370.66	519.60
370.86	528.96
371.06	589.82
371.25	629.60
371.45	491.51
371.65	517.26
371.84	547.69
372.04	491.51
372.24	505.56
372.44	571.09
372.63	582.79
372.83	580.45
373.03	465.77
373.22	451.72
373.42	496.19
373.62	585.13
373.81	617.90
374.01	596.84
374.21	524.28
374.40	519.60
374.60	596.84
374.79	477.47
374.99	662.37
375.19	674.07
375.38	692.80
375.58	716.20
375.78	620.24
375.97	706.84
376.17	655.35
376.37	683.44
376.56	660.03
376.76	755.99
376.95	741.95
377.15	814.51
377.35	828.55
377.54	877.70
377.74	901.11
377.93	929.19
378.13	875.36
378.33	814.51
378.52	851.96
378.72	786.42
378.91	774.72
379.11	706.84
379.31	674.07
379.50	662.37
379.70	716.20
379.89	875.36
380.09	894.08
380.28	786.42
380.48	805.14
380.68	840.25
380.87	887.06
381.07	774.72
381.26	800.46
381.46	758.33
381.65	737.27
381.85	650.67
382.04	655.35
382.24	629.60
382.43	660.03
382.63	552.37
382.83	624.92
383.02	634.29
383.22	643.65
383.41	629.60
383.61	657.69
383.80	688.12
384.00	753.65
384.19	760.67
384.39	833.23
384.58	826.21
384.78	854.30
384.97	763.01
385.17	765.36
385.36	739.61
385.56	704.50
385.75	751.31
385.95	809.83
386.14	929.19
386.34	858.98
386.53	791.10
386.72	784.08
386.92	823.87
387.11	905.79
387.31	868.34
387.50	823.87
387.70	784.08
387.89	753.65
388.09	819.19
388.28	753.65
388.48	905.79
388.67	931.53
388.86	978.34
389.06	1032.18
389.25	1071.97
389.45	1114.10
389.64	976.00
389.84	1064.94
390.03	1036.86
390.22	1167.93
390.42	1004.09
390.61	1123.46
390.81	1107.07
391.00	1160.91
391.19	1212.40
391.39	1170.27
391.58	1100.05
391.78	1015.79
391.97	1074.31
392.16	947.92
392.36	915.15
392.55	727.91
392.75	678.76
392.94	566.41
393.13	638.97
393.33	573.43
393.52	753.65
393.71	926.85
393.91	964.30
394.10	990.05
394.29	1118.78
394.49	1102.39
394.68	1252.19
394.88	1299.00
395.07	1277.93
395.26	1247.51
395.46	1210.06
395.65	1146.86
395.84	1055.58
396.04	1064.94
396.23	826.21
396.42	744.29
396.62	678.76
396.81	812.17
397.00	929.19
397.19	1135.16
397.39	1359.85
397.58	1423.05
397.77	1416.02
397.97	1528.37
398.16	1476.88
398.35	1593.90
398.55	1603.27
398.74	1760.08
398.93	1785.83
399.12	1715.61
399.32	1724.97
399.51	1664.12
399.70	1860.73
399.90	1832.64
400.09	1802.21
400.28	1757.74
400.47	1762.42
400.67	1820.94
400.86	1858.39
401.05	1874.77
401.24	1870.09
401.44	1919.24
401.63	1949.67
401.82	1998.82
402.01	1935.62
402.21	1980.09
402.40	1973.07
402.59	1930.94
402.78	1856.04
402.97	1785.83
403.17	1818.60
403.36	2024.56
403.55	1975.41
403.74	1928.60
403.93	1912.22
404.13	1834.98
404.32	1830.30
404.51	1853.70
404.70	1961.37
404.89	2085.42
405.09	1905.20
405.28	1879.45
405.47	1832.64
405.66	1975.41
405.85	1914.56
406.05	1846.68
406.24	1935.62
406.43	1909.88
406.62	1909.88
406.81	2022.22
407.00	1851.36
407.20	1853.70
407.39	1893.49
407.58	1935.62
407.77	1996.48
407.96	2087.76
408.15	2193.08
408.34	2111.16
408.54	2183.72
408.73	2106.48
408.92	2127.55
409.11	2162.66
409.30	1984.77
409.49	1916.90
409.68	1905.20
409.87	1750.72
410.07	1865.41
410.26	1870.09
410.45	2031.58
410.64	2078.40
410.83	2237.55
411.02	2265.64
411.21	2326.49
411.40	2314.79
411.59	2303.09
411.78	2260.96
411.98	2275.00
412.17	2289.04
412.36	2303.09
412.55	2342.88
412.74	2328.83
412.93	2108.82
413.12	2232.87
413.31	2408.41
413.50	2277.34
413.69	2389.69
413.88	2363.94
414.07	2270.32
414.26	2366.28
414.45	2293.72
414.64	2462.24
414.83	2448.20
415.02	2497.35
415.22	2382.67
415.41	2509.05
415.60	2443.52
415.79	2586.29
415.98	2651.83
416.17	2471.61
416.36	2551.18
416.55	2476.29
416.74	2483.31
416.93	2473.95
417.12	2445.86
417.31	2349.90
417.50	2361.60
417.69	2558.21
417.88	2579.27
418.07	2555.86
418.26	2539.48
418.45	2387.35
418.64	2583.95
418.83	2569.91
419.02	2691.62
419.21	2567.57
419.39	2534.80
419.58	2413.09
419.77	2394.37
419.96	2487.99
420.15	2679.91
420.34	2588.63
420.53	2649.49
420.72	2766.51
420.91	2787.58
421.10	2661.19
421.29	2623.74
421.48	2658.85
421.67	2731.41
421.86	2579.27
422.05	2492.67
422.24	2300.75
422.43	2275.00
422.61	2502.03
422.80	2616.72
422.99	2689.28
423.18	2492.67
423.37	2513.74
423.56	2553.52
423.75	2495.01
423.94	2708.00
424.13	2497.35
424.32	2424.80
424.50	2518.42
424.69	2410.75
424.88	2506.71
425.07	2476.29
425.26	2513.74
425.45	2434.16
425.64	2375.64
425.83	2588.63
426.01	2609.70
426.20	2495.01
426.39	2534.80
426.58	2443.52
426.77	2324.15
426.96	2239.89
427.15	2307.77
427.33	2366.28
427.52	2485.65
427.71	2445.86
427.90	2389.69
428.09	2541.82
428.28	2459.90
428.46	2392.03
428.65	2342.88
428.84	2347.56
429.03	2403.73
429.22	2284.36
429.40	2209.47
429.59	1947.33
429.78	1839.66
429.97	1790.51
430.16	1771.79
430.34	1839.66
430.53	1795.19
430.72	1739.02
430.91	2092.44
431.10	2230.53
431.28	2586.29
431.47	2825.03
431.66	2923.33
431.85	2733.75
432.03	2633.10
432.22	2457.56
432.41	2588.63
432.60	2719.70
432.79	2771.19
432.97	2904.60
433.16	2820.35
433.35	2558.21
433.54	2373.30
433.72	2223.51
433.91	2293.72
434.10	2415.43
434.28	2642.46
434.47	2656.51
434.66	2752.47
434.85	2839.07
435.03	2787.58
435.22	2993.55
435.41	3117.59
435.59	3267.39
435.78	3052.06
435.97	3045.04
436.16	3094.19
436.34	2956.10
436.53	3005.25
436.72	3035.67
436.90	2832.05
437.09	2862.48
437.28	2771.19
437.46	2916.31
437.65	2820.35
437.84	2605.02
438.02	2455.22
438.21	2532.46
438.40	2588.63
438.58	2752.47
438.77	2825.03
438.96	2825.03
439.14	2930.35
439.33	2967.80
439.52	3049.72
439.70	3002.91
439.89	2974.82
440.08	3014.61
440.26	2883.54
440.45	2972.48
440.63	3141.00
440.82	3187.81
441.01	3176.11
441.19	3267.39
441.38	3323.56
441.57	3379.73
441.75	3311.86
441.94	3421.86
442.12	3410.16
442.31	3557.61
442.50	3578.68
442.68	3428.88
442.87	3391.44
443.05	3337.60
443.24	3478.04
443.43	3386.76
443.61	3541.23
443.80	3555.27
443.98	3351.65
444.17	3220.58
444.35	3386.76
444.54	3597.40
444.73	3466.33
444.91	3389.10
445.10	3243.98
445.28	3187.81
445.47	3279.09
445.65	2946.73
445.84	3262.71
446.02	3143.34
446.21	3370.37
446.39	3454.63
446.58	3452.29
446.77	3440.59
446.95	3520.17
447.14	3590.38
447.32	3604.42
447.51	3557.61
447.69	3417.18
447.88	3506.12
448.06	3424.20
448.25	3473.36
448.43	3515.48
448.62	3541.23
448.80	3534.21
448.99	3510.80
449.17	3574.00
449.36	3487.40
449.54	3529.53
449.73	3623.15
449.91	3735.50
450.10	3761.24
450.28	3838.48
450.46	3808.05
450.65	3904.01
450.83	3918.06
451.02	3716.77
451.20	3794.01
451.39	3702.73
451.57	3581.02
451.76	3726.13
451.94	3674.64
452.13	3524.85
452.31	3538.89
452.49	3311.86
452.68	3499.10
452.86	3400.80
453.05	3386.76
453.23	3431.23
453.42	3513.14
453.60	3651.24
453.78	3695.71
453.97	3543.57
454.15	3648.90
454.34	3548.25
454.52	3557.61
454.70	3485.06
454.89	3478.04
455.07	3585.70
455.26	3592.72
455.44	3829.12
455.62	3978.91
455.81	3782.31
455.99	3833.80
456.17	3707.41
456.36	3686.34
456.54	3920.40
456.73	3836.14
456.91	3812.73
457.09	3913.38
457.28	4014.02
457.46	3901.67
457.64	3864.22
457.83	3747.20
458.01	3782.31
458.19	3669.96
458.38	3740.18
458.56	3957.85
458.74	3676.98
458.93	3838.48
459.11	3789.33
459.29	3681.66
459.48	3737.84
459.66	3808.05
459.84	3833.80
460.03	3871.25
460.21	3744.86
460.39	3908.69
460.57	3953.16
460.76	3957.85
460.94	3850.18
461.12	3889.97
461.31	3836.14
461.49	3871.25
461.67	3850.18
461.85	3969.55
462.04	3882.95
462.22	4344.03
462.40	4035.08
462.59	4042.11
462.77	3969.55
462.95	4119.34
463.13	3981.25
463.32	3906.35
463.50	3934.44
463.68	3885.29
463.86	4004.66
464.05	3796.35
464.23	3812.73
464.41	3866.56
464.59	3686.34
464.78	3964.87
464.96	3894.65
465.14	3899.33
465.32	3899.33
465.50	3967.21
465.69	3999.98
465.87	3889.97
466.05	3922.74
466.23	3644.21
466.41	3691.02
466.60	3747.20
466.78	3651.24
466.96	3803.37
467.14	3913.38
467.32	3894.65
467.51	3925.08
467.69	3714.43
467.87	3805.71
468.05	3978.91
468.23	3911.04
468.41	3798.69
468.60	3871.25
468.78	4065.51
468.96	3927.42
469.14	3880.61
469.32	3885.29
469.50	3845.50
469.69	3765.92
469.87	3758.90
470.05	3655.92
470.23	3786.99
470.41	3765.92
470.59	3737.84
470.77	3754.22
470.95	3887.63
471.14	3997.64
471.32	3936.78
471.50	4077.21
471.68	4212.96
471.86	4196.58
472.04	4173.18
472.22	4301.90
472.40	3974.23
472.58	3964.87
472.77	3943.80
472.95	4163.81
473.13	4224.67
473.31	4021.04
473.49	3978.91
473.67	4105.30
473.85	4086.58
474.03	4166.15
474.21	4329.99
474.39	4215.30
474.57	4393.19
474.75	4388.50
474.93	4271.48
475.12	4217.65
475.30	4149.77
475.48	4198.92
475.66	4257.43
475.84	4245.73
476.02	4187.22
476.20	4224.67
476.38	4072.53
476.56	4376.80
476.74	4337.01
476.92	4344.03
477.10	4442.34
477.28	4723.20
477.46	4571.07
477.64	4573.41
477.82	4599.15
478.00	4648.30
478.18	4582.77
478.36	4472.76
478.54	4517.23
478.72	4648.30
478.90	4704.48
479.08	4875.34
479.26	4823.84
479.44	4844.91
479.62	4755.97
479.80	4858.95
479.98	4943.21
480.16	4929.17
480.34	4908.10
480.52	4985.34
480.70	4868.31
480.88	4945.55
481.06	5029.81
481.24	5022.79
481.41	5153.86
481.59	5188.97
481.77	5334.08
481.95	5242.80
482.13	5093.01
482.31	5359.83
482.49	5329.40
482.67	5123.43
482.85	5277.91
483.03	5425.36
483.21	5420.68
483.39	5451.11
483.57	5380.89
483.74	5231.10
483.92	5315.36
484.10	5165.56
484.28	5542.39
484.46	5743.67
484.64	5523.66
484.82	5526.00
485.00	5603.24
485.18	5259.18
485.35	5078.96
485.53	4741.93
485.71	4538.30
485.89	4259.78
486.07	4428.29
486.25	4802.78
486.43	4994.70
486.61	5378.55
486.78	5322.38
486.96	5259.18
487.14	5556.43
487.32	5451.11
487.50	5720.27
487.68	5792.83
487.85	5879.43
488.03	5970.71
488.21	5881.77
488.39	5806.87
488.57	5701.54
488.75	5401.96
488.92	5909.85
489.10	6122.84
489.28	6408.39
489.46	6373.28
489.64	6487.96
489.81	6492.65
489.99	6438.81
490.17	6303.06
490.35	6562.86
490.53	6499.67
490.70	6450.52
490.88	6373.28
491.06	6539.46
491.24	6438.81
491.41	6431.79
491.59	5956.66
491.77	5881.77
491.95	6040.92
492.13	6258.59
492.30	6469.24
492.48	6700.95
492.66	6916.28
492.84	6796.92
493.01	6930.33
493.19	6630.74
493.37	6759.47
493.54	6586.27
493.72	6487.96
493.90	6715.00
494.08	6953.73
494.25	7155.02
494.43	7152.68
494.61	7197.15
494.79	7234.60
494.96	7014.59
495.14	7229.91
495.32	6705.63
495.49	6813.30
495.67	7087.14
495.85	7290.77
496.02	7272.04
496.20	7300.13
496.38	7194.81
496.55	7258.00
496.73	7314.17
496.91	7335.24
497.09	7424.18
497.26	7630.15
497.44	7379.71
497.62	7356.30
497.79	6942.03
497.97	6860.11
498.14	6750.10
498.32	7162.04
498.50	7183.10
498.67	7337.58
498.85	7274.38
499.03	7447.58
499.20	7524.82
499.38	7555.25
499.56	7510.78
499.73	7323.54
499.91	7309.49
500.08	7157.36
500.26	6862.45
500.44	7070.76
500.61	7173.74
500.79	7255.66
500.97	7035.65
501.14	7068.42
501.32	6970.12
501.49	7124.59
501.67	6953.73
501.84	7080.12
502.02	7124.59
502.20	7227.57
502.37	7283.75
502.55	7307.15
502.72	7414.82
502.90	7510.78
503.07	7442.90
503.25	7225.23
503.43	7077.78
503.60	6853.09
503.78	6768.83
503.95	6747.76
504.13	7265.02
504.30	7456.95
504.48	7262.68
504.65	7428.86
504.83	7522.48
505.01	7515.46
505.18	7669.94
505.36	7770.58
505.53	7796.32
505.71	7772.92
505.88	7913.35
506.06	7674.62
506.23	7613.76
506.41	7609.08
506.58	7417.16
506.76	7529.50
506.93	7372.69
507.11	7733.13
507.28	7578.65
507.46	7368.01
507.63	7222.89
507.81	7091.82
507.98	7169.06
508.16	7456.95
508.33	7623.12
508.50	7559.93
508.68	7878.24
508.85	7957.82
509.03	7889.95
509.20	7915.69
509.38	7702.70
509.55	7712.07
509.73	7431.20
509.90	7770.58
510.08	7847.82
510.25	7822.07
510.42	7812.71
510.60	7712.07
510.77	7744.83
510.95	7995.27
511.12	8032.72
511.30	8004.63
511.47	8147.40
511.64	8065.49
511.82	8093.57
511.99	8006.97
512.17	7655.89
512.34	7765.90
512.51	7665.25
512.69	7672.28
512.86	7751.85
513.04	7976.55
513.21	7976.55
513.38	7737.81
513.56	7721.43
513.73	7559.93
513.90	7585.68
514.08	7433.54
514.25	7700.36
514.43	7686.32
514.60	7761.22
514.77	7686.32
514.95	7646.53
515.12	7838.45
515.29	7854.84
515.47	7889.95
515.64	7969.52
515.81	7885.26
515.99	7730.79
516.16	7421.84
516.33	6963.09
516.51	6607.33
516.68	6445.84
516.85	6403.71
517.03	6197.74
517.20	6857.77
517.37	7360.98
517.54	7845.48
517.72	7726.11
517.89	7148.00
518.06	6607.33
518.24	6703.29
518.41	6913.94
518.58	7475.67
518.75	7344.60
518.93	7442.90
519.10	7503.76
519.27	7489.71
519.45	7714.41
519.62	7796.32
519.79	8056.12
519.96	7819.73
520.14	7822.07
520.31	7428.86
520.48	7705.04
520.65	7639.51
520.83	7793.98
521.00	8053.78
521.17	8006.97
521.34	7850.16
521.52	8013.99
521.69	7992.93
521.86	8163.79
522.03	8044.42
522.20	7803.35
522.38	7602.06
522.55	7478.01
522.72	7405.46
522.89	7726.11
523.07	7735.47
523.24	7796.32
523.41	7943.78
523.58	8065.49
523.75	8362.73
523.92	8198.90
524.10	8278.47
524.27	8264.43
524.44	8152.09
524.61	8021.02
524.78	8006.97
524.96	7981.23
525.13	7901.65
525.30	8044.42
525.47	8030.38
525.64	8297.20
525.81	7999.95
525.98	7686.32
526.16	7190.13
526.33	7042.67
526.50	6949.05
526.67	6918.62
526.84	6960.75
527.01	7206.51
527.18	7494.40
527.36	7634.83
527.53	7908.67
527.70	7976.55
527.87	7885.26
528.04	7955.48
528.21	7913.35
528.38	8119.32
528.55	8280.82
528.72	8372.10
528.89	8351.03
529.07	8386.14
529.24	8198.90
529.41	7899.31
529.58	7976.55
529.75	7983.57
529.92	7866.54
530.09	8065.49
530.26	8196.56
530.43	8430.61
530.60	8397.84
530.77	8451.67
530.94	8505.51
531.11	8219.96
531.28	8189.53
531.46	8196.56
531.63	8194.22
531.80	8194.22
531.97	8025.70
532.14	7798.66
532.31	7637.17
532.48	7410.14
532.65	7463.97
532.82	7393.75
532.99	7749.51
533.16	7901.65
533.33	8175.49
533.50	8133.36
533.67	7808.03
533.84	7779.94
534.01	7749.51
534.18	7873.56
534.35	7946.12
534.52	7875.90
534.69	8163.79
534.86	8107.62
535.03	8063.15
535.20	8336.99
535.37	8421.25
535.54	8379.12
535.71	8152.09
535.88	8037.40
536.05	8058.46
536.22	8037.40
536.38	8023.36
536.55	7749.51
536.72	7531.84
536.89	7403.11
537.06	7772.92
537.23	7955.48
537.40	8241.03
537.57	8023.36
537.74	8088.89
537.91	7978.89
538.08	8081.87
538.25	8065.49
538.42	8107.62
538.59	8145.06
538.75	7824.41
538.92	7857.18
539.09	7812.71
539.26	7819.73
539.43	7693.34
539.60	7695.68
539.77	7744.83
539.94	7597.38
540.11	7435.88
540.28	7302.47
540.44	7494.40
540.61	7552.91
540.78	7686.32
540.95	7548.23
541.12	7798.66
541.29	7796.32
541.46	7990.59
541.62	7939.10
541.79	8072.51
541.96	7903.99
542.13	7742.49
542.30	7953.14
542.47	8112.30
542.63	7793.98
542.80	7817.39
542.97	7981.23
543.14	7737.81
543.31	7742.49
543.48	7868.88
543.64	8124.00
543.81	8257.41
543.98	8222.30
544.15	8124.00
544.32	7789.30
544.48	7899.31
544.65	7932.08
544.82	8058.46
544.99	8006.97
545.16	7906.33
545.32	7868.88
545.49	8313.58
545.66	8636.58
545.83	8746.58
546.00	8308.90
546.16	8152.09
546.33	7969.52
546.50	7878.24
546.67	7885.26
546.83	7801.01
547.00	7808.03
547.17	7805.69
547.34	7463.97
547.50	7398.43
547.67	7719.09
547.84	7576.31
548.00	7714.41
548.17	7791.64
548.34	7791.64
548.51	7885.26
548.67	7749.51
548.84	7829.09
549.01	7801.01
549.18	7796.32
549.34	7728.45
549.51	7838.45
549.68	7777.60
549.84	7569.29
550.01	7637.17
550.18	7637.17
550.34	7742.49
550.51	7531.84
550.68	7683.98
550.84	7637.17
551.01	7571.63
551.18	7658.23
551.34	7543.55
551.51	7562.27
551.68	7824.41
551.84	7768.24
552.01	7691.00
552.18	7723.77
552.34	7791.64
552.51	7346.94
552.68	7447.58
552.84	7541.21
553.01	7555.25
553.18	7545.89
553.34	7548.23
553.51	7662.91
553.67	7581.00
553.84	7786.96
554.01	7756.54
554.17	7676.96
554.34	7536.52
554.51	7765.90
554.67	7644.19
554.84	7658.23
555.00	7728.45
555.17	7695.68
555.33	7658.23
555.50	7503.76
555.67	7616.10
555.83	7449.93
556.00	7370.35
556.16	7639.51
556.33	7447.58
556.50	7314.17
556.66	7176.08
556.83	7192.47
556.99	7255.66
557.16	7208.85
557.32	7321.20
557.49	7344.60
557.65	7375.03
557.82	7435.88
557.98	7386.73
558.15	7098.84
558.32	7037.99
558.48	6937.35
558.65	6965.43
558.81	6925.65
558.98	6897.56
559.14	6963.09
559.31	7110.55
559.47	7073.10
559.64	7023.95
559.80	7049.69
559.97	7166.72
560.13	7068.42
560.30	7236.94
560.46	7332.90
560.63	7342.26
560.79	7428.86
560.96	7316.51
561.12	7213.53
561.29	7030.97
561.45	6951.39
561.61	6855.43
561.78	7227.57
561.94	7101.19
562.11	7000.54
562.27	7014.59
562.44	7122.25
562.60	7304.81
562.77	7208.85
562.93	7239.28
563.10	7389.07
563.26	7227.57
563.42	7187.79
563.59	6974.80
563.75	7063.74
563.92	7054.37
564.08	6885.86
564.24	7077.78
564.41	7000.54
564.57	7077.78
564.74	6939.69
564.90	7019.27
565.07	6935.01
565.23	6846.07
565.39	6759.47
565.56	6860.11
565.72	6644.78
565.88	6778.19
566.05	6619.04
566.21	6857.77
566.38	6939.69
566.54	6782.87
566.70	7026.29
566.87	7080.12
567.03	6848.41
567.19	7012.24
567.36	6815.64
567.52	6864.79
567.68	6757.13
567.85	6710.32
568.01	6502.01
568.17	6403.71
568.34	6490.31
568.50	6171.99
568.66	6401.37
568.83	6476.26
568.99	6588.61
569.15	6555.84
569.32	6607.33
569.48	6513.71
569.64	6422.43
569.81	6193.06
569.97	6387.32
570.13	6473.92
570.30	6469.24
570.46	6312.42
570.62	6155.61
570.78	6263.27
570.95	6270.30
571.11	6368.60
571.27	6384.98
571.43	6413.07
571.60	6359.24
571.76	6441.15
571.92	6518.39
572.09	6450.52
572.25	6532.44
572.41	6331.15
572.57	6499.67
572.74	6490.31
572.90	6422.43
573.06	6415.41
573.22	6366.26
573.38	6457.54
573.55	6319.45
573.71	6361.58
573.87	6368.60
574.03	6457.54
574.20	6441.15
574.36	6249.23
574.52	6317.11
574.68	6326.47
574.84	6272.64
575.01	6146.25
575.17	6029.22
575.33	6263.27
575.49	6345.19
575.65	6289.02
575.82	6333.49
575.98	6221.14
576.14	6256.25
576.30	6267.95
576.46	6403.71
576.62	6408.39
576.79	6525.41
576.95	6274.98
577.11	6277.32
577.27	6298.38
577.43	6258.59
577.59	6230.51
577.75	6153.27
577.92	5888.79
578.08	6050.28
578.24	6005.81
578.40	6218.80
578.56	6300.72
578.72	6403.71
578.88	6382.64
579.04	6277.32
579.21	6211.78
579.37	6239.87
579.53	6207.10
579.69	6331.15
579.85	6230.51
580.01	6382.64
580.17	6153.27
580.33	6113.48
580.49	6111.14
580.65	6300.72
580.82	6202.42
580.98	6242.21
581.14	6246.89
581.30	6230.51
581.46	6253.91
581.62	6202.42
581.78	6338.17
581.94	6389.66
582.10	6279.66
582.26	6352.21
582.42	6214.12
582.58	6427.11
582.74	6354.55
582.90	6394.34
583.06	6274.98
583.22	6167.31
583.38	6293.70
583.54	6312.42
583.70	6244.55
583.86	6389.66
584.02	6043.26
584.18	6246.89
584.34	6312.42
584.50	6202.42
584.66	6221.14
584.82	6043.26
584.98	6073.69
585.14	5980.07
585.30	6015.18
585.46	5724.95
585.62	5778.78
585.78	6036.24
585.94	5851.34
586.10	5900.49
586.26	6047.94
586.42	5959.00
586.58	6085.39
586.74	6033.90
586.90	5998.79
587.06	6148.59
587.22	5956.66
587.38	5884.11
587.54	5769.42
587.70	5692.18
587.86	5439.40
588.02	5362.17
588.18	5380.89
588.34	5125.77
588.49	4723.20
588.65	4571.07
588.81	4400.21
588.97	4337.01
589.13	4369.78
589.29	4418.93
589.45	4568.73
589.61	4432.97
589.77	4716.18
589.93	4875.34
590.08	4975.98
590.24	5102.37
590.40	5294.29
590.56	5247.48
590.72	5071.94
590.88	4929.17
591.04	5121.09
591.20	5252.16
591.35	5254.50
591.51	4990.02
591.67	4887.04
591.83	5036.83
591.99	4915.12
592.15	5165.56
592.31	5090.67
592.46	5376.21
592.62	5277.91
592.78	5287.27
592.94	5357.49
593.10	5219.39
593.26	5533.03
593.41	5369.19
593.57	5366.85
593.73	5111.73
593.89	5032.15
594.05	4807.46
594.20	4772.35
594.36	4702.14
594.52	4718.52
594.68	4877.68
594.84	4910.44
594.99	5013.43
595.15	5174.92
595.31	5163.22
595.47	5163.22
595.62	5139.82
595.78	5219.39
595.94	5153.86
596.10	5441.75
596.25	5268.55
596.41	5041.51
596.57	4973.64
596.73	5104.71
596.88	5170.24
597.04	5076.62
597.20	5036.83
597.36	5022.79
597.51	5062.58
