SpectraSuite Data File
++++++++++++++++++++++++++++++++++++
Date: Fri Oct 04 11:39:51 GMT-05:00 2013
User: price-jones
Dark Spectrum Present: No
Reference Spectrum Present: No
Number of Sampled Component Spectra: 1
Spectrometers: USB2+H05261
Integration Time (usec): 100000 (USB2+H05261)
Spectra Averaged: 1 (USB2+H05261)
Boxcar Smoothing: 0 (USB2+H05261)
Correct for Electrical Dark: No (USB2+H05261)
Strobe/Lamp Enabled: No (USB2+H05261)
Correct for Detector Non-linearity: No (USB2+H05261)
Correct for Stray Light: No (USB2+H05261)
Number of Pixels in Processed Spectrum: 2048
>>>>>Begin Processed Spectral Data<<<<<
365.73	86.60
365.92	86.60
366.12	86.60
366.32	0.00
366.52	0.00
366.72	0.00
366.91	0.00
367.11	0.00
367.31	0.00
367.51	28.09
367.70	0.00
367.90	0.00
368.10	14.04
368.30	0.00
368.49	0.00
368.69	0.00
368.89	0.00
369.09	0.00
369.28	0.00
369.48	0.00
369.68	0.00
369.87	0.00
370.07	0.00
370.27	32.77
370.47	39.79
370.66	65.54
370.86	84.26
371.06	93.62
371.25	39.79
371.45	86.60
371.65	105.32
371.84	88.94
372.04	16.38
372.24	128.73
372.44	39.79
372.63	117.03
372.83	159.16
373.03	100.64
373.22	72.56
373.42	65.54
373.62	131.07
373.81	177.88
374.01	203.63
374.21	175.54
374.40	88.94
374.60	152.13
374.79	72.56
374.99	124.05
375.19	138.09
375.38	147.45
375.58	147.45
375.78	126.39
375.97	224.69
376.17	152.13
376.37	159.16
376.56	217.67
376.76	126.39
376.95	79.58
377.15	138.09
377.35	86.60
377.54	98.30
377.74	39.79
377.93	77.24
378.13	72.56
378.33	189.58
378.52	98.30
378.72	159.16
378.91	107.66
379.11	114.69
379.31	105.32
379.50	114.69
379.70	140.43
379.89	124.05
380.09	93.62
380.28	77.24
380.48	121.71
380.68	119.37
380.87	79.58
381.07	67.88
381.26	63.19
381.46	149.79
381.65	147.45
381.85	95.96
382.04	95.96
382.24	147.45
382.43	100.64
382.63	98.30
382.83	119.37
383.02	112.35
383.22	124.05
383.41	114.69
383.61	184.90
383.80	72.56
384.00	95.96
384.19	166.18
384.39	147.45
384.58	77.24
384.78	117.03
384.97	110.01
385.17	147.45
385.36	201.29
385.56	156.82
385.75	100.64
385.95	100.64
386.14	187.24
386.34	77.24
386.53	128.73
386.72	102.98
386.92	105.32
387.11	138.09
387.31	51.49
387.50	93.62
387.70	124.05
387.89	119.37
388.09	88.94
388.28	152.13
388.48	135.75
388.67	81.92
388.86	93.62
389.06	163.84
389.25	105.32
389.45	142.77
389.64	65.54
389.84	170.86
390.03	107.66
390.22	140.43
390.42	138.09
390.61	105.32
390.81	74.90
391.00	121.71
391.19	152.13
391.39	93.62
391.58	187.24
391.78	81.92
391.97	46.81
392.16	112.35
392.36	184.90
392.55	126.39
392.75	79.58
392.94	86.60
393.13	65.54
393.33	102.98
393.52	102.98
393.71	98.30
393.91	95.96
394.10	180.22
394.29	79.58
394.49	102.98
394.68	161.50
394.88	196.60
395.07	210.65
395.26	196.60
395.46	154.48
395.65	142.77
395.84	168.52
396.04	180.22
396.23	95.96
396.42	51.49
396.62	131.07
396.81	128.73
397.00	161.50
397.19	105.32
397.39	102.98
397.58	91.28
397.77	105.32
397.97	217.67
398.16	72.56
398.35	114.69
398.55	102.98
398.74	42.13
398.93	152.13
399.12	119.37
399.32	145.11
399.51	88.94
399.70	117.03
399.90	156.82
400.09	77.24
400.28	154.48
400.47	84.26
400.67	135.75
400.86	112.35
401.05	102.98
401.24	138.09
401.44	131.07
401.63	152.13
401.82	196.60
402.01	49.15
402.21	74.90
402.40	114.69
402.59	95.96
402.78	147.45
402.97	131.07
403.17	107.66
403.36	112.35
403.55	119.37
403.74	93.62
403.93	203.63
404.13	205.97
404.32	173.20
404.51	234.05
404.70	145.11
404.89	119.37
405.09	156.82
405.28	114.69
405.47	124.05
405.66	138.09
405.85	187.24
406.05	84.26
406.24	191.92
406.43	147.45
406.62	224.69
406.81	224.69
407.00	212.99
407.20	142.77
407.39	168.52
407.58	168.52
407.77	201.29
407.96	114.69
408.15	154.48
408.34	145.11
408.54	110.01
408.73	119.37
408.92	191.92
409.11	184.90
409.30	142.77
409.49	51.49
409.68	208.31
409.87	133.41
410.07	124.05
410.26	154.48
410.45	117.03
410.64	70.22
410.83	184.90
411.02	147.45
411.21	131.07
411.40	170.86
411.59	194.26
411.78	100.64
411.98	140.43
412.17	124.05
412.36	166.18
412.55	86.60
412.74	173.20
412.93	234.05
413.12	72.56
413.31	131.07
413.50	170.86
413.69	210.65
413.88	149.79
414.07	175.54
414.26	149.79
414.45	166.18
414.64	194.26
414.83	168.52
415.02	205.97
415.22	189.58
415.41	166.18
415.60	154.48
415.79	91.28
415.98	205.97
416.17	70.22
416.36	107.66
416.55	170.86
416.74	170.86
416.93	154.48
417.12	173.20
417.31	173.20
417.50	205.97
417.69	152.13
417.88	138.09
418.07	121.71
418.26	86.60
418.45	84.26
418.64	222.35
418.83	187.24
419.02	149.79
419.21	212.99
419.39	86.60
419.58	140.43
419.77	126.39
419.96	142.77
420.15	147.45
420.34	194.26
420.53	121.71
420.72	131.07
420.91	173.20
421.10	142.77
421.29	163.84
421.48	152.13
421.67	114.69
421.86	149.79
422.05	147.45
422.24	98.30
422.43	142.77
422.61	81.92
422.80	124.05
422.99	224.69
423.18	74.90
423.37	201.29
423.56	163.84
423.75	205.97
423.94	159.16
424.13	138.09
424.32	145.11
424.50	131.07
424.69	177.88
424.88	149.79
425.07	152.13
425.26	173.20
425.45	107.66
425.64	142.77
425.83	229.37
426.01	205.97
426.20	166.18
426.39	175.54
426.58	194.26
426.77	182.56
426.96	198.95
427.15	201.29
427.33	175.54
427.52	102.98
427.71	114.69
427.90	173.20
428.09	170.86
428.28	46.81
428.46	112.35
428.65	159.16
428.84	126.39
429.03	201.29
429.22	88.94
429.40	124.05
429.59	161.50
429.78	170.86
429.97	102.98
430.16	149.79
430.34	138.09
430.53	166.18
430.72	248.10
430.91	142.77
431.10	124.05
431.28	203.63
431.47	159.16
431.66	222.35
431.85	138.09
432.03	114.69
432.22	231.71
432.41	205.97
432.60	131.07
432.79	203.63
432.97	140.43
433.16	166.18
433.35	126.39
433.54	102.98
433.72	224.69
433.91	241.08
434.10	154.48
434.28	198.95
434.47	212.99
434.66	163.84
434.85	184.90
435.03	344.06
435.22	547.69
435.41	971.32
435.59	1020.47
435.78	741.95
435.97	498.53
436.16	299.59
436.34	184.90
436.53	241.08
436.72	234.05
436.90	215.33
437.09	217.67
437.28	145.11
437.46	107.66
437.65	184.90
437.84	163.84
438.02	159.16
438.21	170.86
438.40	196.60
438.58	95.96
438.77	252.78
438.96	175.54
439.14	220.01
439.33	173.20
439.52	224.69
439.70	243.42
439.89	224.69
440.08	215.33
440.26	133.41
440.45	163.84
440.63	175.54
440.82	173.20
441.01	166.18
441.19	147.45
441.38	177.88
441.57	215.33
441.75	128.73
441.94	201.29
442.12	184.90
442.31	177.88
442.50	191.92
442.68	170.86
442.87	198.95
443.05	166.18
443.24	212.99
443.43	156.82
443.61	191.92
443.80	187.24
443.98	173.20
444.17	201.29
444.35	173.20
444.54	121.71
444.73	180.22
444.91	227.03
445.10	156.82
445.28	138.09
445.47	224.69
445.65	182.56
445.84	140.43
446.02	205.97
446.21	149.79
446.39	220.01
446.58	234.05
446.77	210.65
446.95	133.41
447.14	198.95
447.32	154.48
447.51	168.52
447.69	154.48
447.88	114.69
448.06	170.86
448.25	212.99
448.43	161.50
448.62	65.54
448.80	198.95
448.99	149.79
449.17	154.48
449.36	177.88
449.54	248.10
449.73	173.20
449.91	102.98
450.10	126.39
450.28	250.44
450.46	227.03
450.65	290.23
450.83	135.75
451.02	147.45
451.20	170.86
451.39	135.75
451.57	128.73
451.76	156.82
451.94	194.26
452.13	196.60
452.31	245.76
452.49	152.13
452.68	93.62
452.86	196.60
453.05	236.39
453.23	271.50
453.42	210.65
453.60	133.41
453.78	229.37
453.97	147.45
454.15	117.03
454.34	166.18
454.52	187.24
454.70	227.03
454.89	227.03
455.07	142.77
455.26	161.50
455.44	276.18
455.62	189.58
455.81	187.24
455.99	220.01
456.17	189.58
456.36	191.92
456.54	168.52
456.73	159.16
456.91	227.03
457.09	175.54
457.28	102.98
457.46	154.48
457.64	191.92
457.83	222.35
458.01	189.58
458.19	191.92
458.38	177.88
458.56	252.78
458.74	222.35
458.93	182.56
459.11	126.39
459.29	135.75
459.48	201.29
459.66	135.75
459.84	196.60
460.03	283.20
460.21	241.08
460.39	182.56
460.57	250.44
460.76	161.50
460.94	229.37
461.12	271.50
461.31	177.88
461.49	203.63
461.67	168.52
461.85	142.77
462.04	180.22
462.22	575.77
462.40	269.16
462.59	266.82
462.77	184.90
462.95	147.45
463.13	201.29
463.32	198.95
463.50	128.73
463.68	156.82
463.86	210.65
464.05	224.69
464.23	163.84
464.41	250.44
464.59	102.98
464.78	154.48
464.96	154.48
465.14	124.05
465.32	147.45
465.50	163.84
465.69	196.60
465.87	203.63
466.05	210.65
466.23	189.58
466.41	189.58
466.60	273.84
466.78	250.44
466.96	175.54
467.14	255.12
467.32	201.29
467.51	229.37
467.69	170.86
467.87	205.97
468.05	170.86
468.23	259.80
468.41	255.12
468.60	212.99
468.78	159.16
468.96	250.44
469.14	173.20
469.32	189.58
469.50	187.24
469.69	175.54
469.87	210.65
470.05	154.48
470.23	142.77
470.41	142.77
470.59	198.95
470.77	152.13
470.95	196.60
471.14	215.33
471.32	184.90
471.50	231.71
471.68	234.05
471.86	170.86
472.04	161.50
472.22	257.46
472.40	149.79
472.58	203.63
472.77	133.41
472.95	201.29
473.13	175.54
473.31	210.65
473.49	117.03
473.67	156.82
473.85	234.05
474.03	236.39
474.21	210.65
474.39	182.56
474.57	278.52
474.75	224.69
474.93	229.37
475.12	205.97
475.30	187.24
475.48	198.95
475.66	177.88
475.84	152.13
476.02	236.39
476.20	156.82
476.38	248.10
476.56	248.10
476.74	173.20
476.92	182.56
477.10	145.11
477.28	154.48
477.46	201.29
477.64	250.44
477.82	196.60
478.00	147.45
478.18	201.29
478.36	241.08
478.54	166.18
478.72	182.56
478.90	191.92
479.08	205.97
479.26	217.67
479.44	208.31
479.62	248.10
479.80	187.24
479.98	184.90
480.16	212.99
480.34	208.31
480.52	227.03
480.70	166.18
480.88	205.97
481.06	252.78
481.24	264.48
481.41	154.48
481.59	276.18
481.77	220.01
481.95	252.78
482.13	308.95
482.31	217.67
482.49	222.35
482.67	271.50
482.85	306.61
483.03	245.76
483.21	264.48
483.39	250.44
483.57	222.35
483.74	224.69
483.92	201.29
484.10	245.76
484.28	346.40
484.46	325.33
484.64	259.80
484.82	311.29
485.00	220.01
485.18	264.48
485.35	273.84
485.53	325.33
485.71	360.44
485.89	322.99
486.07	325.33
486.25	362.78
486.43	351.08
486.61	332.36
486.78	348.74
486.96	278.52
487.14	332.36
487.32	320.65
487.50	301.93
487.68	362.78
487.85	353.42
488.03	308.95
488.21	337.04
488.39	280.86
488.57	344.06
488.75	280.86
488.92	538.32
489.10	393.21
489.28	362.78
489.46	376.83
489.64	383.85
489.81	358.10
489.99	339.38
490.17	180.22
490.35	337.04
490.53	383.85
490.70	262.14
490.88	306.61
491.06	250.44
491.24	344.06
491.41	397.89
491.59	304.27
491.77	285.55
491.95	318.31
492.13	308.95
492.30	280.86
492.48	271.50
492.66	236.39
492.84	299.59
493.01	369.80
493.19	283.20
493.37	365.12
493.54	381.51
493.72	346.40
493.90	287.89
494.08	334.70
494.25	297.25
494.43	358.10
494.61	346.40
494.79	259.80
494.96	292.57
495.14	393.21
495.32	283.20
495.49	304.27
495.67	360.44
495.85	297.25
496.02	351.08
496.20	280.86
496.38	404.91
496.55	280.86
496.73	315.97
496.91	308.95
497.09	287.89
497.26	297.25
497.44	311.29
497.62	229.37
497.79	318.31
497.97	315.97
498.14	311.29
498.32	180.22
498.50	337.04
498.67	283.20
498.85	297.25
499.03	238.73
499.20	283.20
499.38	292.57
499.56	215.33
499.73	231.71
499.91	215.33
500.08	301.93
500.26	337.04
500.44	287.89
500.61	290.23
500.79	266.82
500.97	290.23
501.14	304.27
501.32	227.03
501.49	280.86
501.67	215.33
501.84	238.73
502.02	348.74
502.20	358.10
502.37	308.95
502.55	217.67
502.72	262.14
502.90	360.44
503.07	273.84
503.25	330.02
503.43	299.59
503.60	252.78
503.78	276.18
503.95	276.18
504.13	255.12
504.30	306.61
504.48	278.52
504.65	273.84
504.83	290.23
505.01	262.14
505.18	304.27
505.36	248.10
505.53	250.44
505.71	297.25
505.88	332.36
506.06	255.12
506.23	208.31
506.41	264.48
506.58	308.95
506.76	308.95
506.93	280.86
507.11	334.70
507.28	379.17
507.46	315.97
507.63	215.33
507.81	224.69
507.98	252.78
508.16	287.89
508.33	273.84
508.50	292.57
508.68	344.06
508.85	287.89
509.03	236.39
509.20	306.61
509.38	330.02
509.55	318.31
509.73	304.27
509.90	215.33
510.08	236.39
510.25	325.33
510.42	346.40
510.60	297.25
510.77	330.02
510.95	285.55
511.12	348.74
511.30	322.99
511.47	337.04
511.64	287.89
511.82	189.58
511.99	264.48
512.17	266.82
512.34	238.73
512.51	337.04
512.69	212.99
512.86	372.15
513.04	266.82
513.21	220.01
513.38	227.03
513.56	248.10
513.73	170.86
513.90	273.84
514.08	227.03
514.25	292.57
514.43	308.95
514.60	227.03
514.77	210.65
514.95	269.16
515.12	294.91
515.29	278.52
515.47	269.16
515.64	273.84
515.81	280.86
515.99	334.70
516.16	313.63
516.33	245.76
516.51	156.82
516.68	294.91
516.85	248.10
517.03	250.44
517.20	322.99
517.37	269.16
517.54	283.20
517.72	276.18
517.89	290.23
518.06	266.82
518.24	297.25
518.41	334.70
518.58	292.57
518.75	252.78
518.93	262.14
519.10	259.80
519.27	271.50
519.45	299.59
519.62	322.99
519.79	337.04
519.96	287.89
520.14	358.10
520.31	299.59
520.48	255.12
520.65	367.46
520.83	341.72
521.00	266.82
521.17	299.59
521.34	306.61
521.52	276.18
521.69	304.27
521.86	259.80
522.03	243.42
522.20	273.84
522.38	222.35
522.55	308.95
522.72	283.20
522.89	304.27
523.07	404.91
523.24	322.99
523.41	285.55
523.58	311.29
523.75	306.61
523.92	278.52
524.10	304.27
524.27	372.15
524.44	269.16
524.61	290.23
524.78	344.06
524.96	372.15
525.13	423.64
525.30	358.10
525.47	318.31
525.64	337.04
525.81	255.12
525.98	287.89
526.16	276.18
526.33	280.86
526.50	280.86
526.67	318.31
526.84	252.78
527.01	266.82
527.18	287.89
527.36	337.04
527.53	262.14
527.70	355.76
527.87	348.74
528.04	344.06
528.21	301.93
528.38	337.04
528.55	425.98
528.72	259.80
528.89	402.57
529.07	318.31
529.24	334.70
529.41	400.23
529.58	278.52
529.75	273.84
529.92	348.74
530.09	283.20
530.26	330.02
530.43	337.04
530.60	346.40
530.77	304.27
530.94	351.08
531.11	327.68
531.28	276.18
531.46	315.97
531.63	304.27
531.80	248.10
531.97	320.65
532.14	339.38
532.31	294.91
532.48	369.80
532.65	365.12
532.82	304.27
532.99	433.00
533.16	301.93
533.33	358.10
533.50	325.33
533.67	325.33
533.84	376.83
534.01	369.80
534.18	367.46
534.35	367.46
534.52	308.95
534.69	355.76
534.86	341.72
535.03	322.99
535.20	367.46
535.37	395.55
535.54	355.76
535.71	332.36
535.88	358.10
536.05	376.83
536.22	423.64
536.38	348.74
536.55	353.42
536.72	341.72
536.89	355.76
537.06	388.53
537.23	407.25
537.40	416.62
537.57	425.98
537.74	423.64
537.91	428.32
538.08	482.15
538.25	461.09
538.42	496.19
538.59	444.70
538.75	557.05
538.92	435.34
539.09	489.17
539.26	528.96
539.43	470.45
539.60	571.09
539.77	608.54
539.94	627.26
540.11	690.46
540.28	662.37
540.44	800.46
540.61	894.08
540.78	903.45
540.95	933.87
541.12	1125.80
541.29	1095.37
541.46	1191.33
541.62	1179.63
541.79	1247.51
541.96	1275.59
542.13	1233.46
542.30	1280.27
542.47	1156.22
542.63	1111.75
542.80	1097.71
542.97	1027.50
543.14	1020.47
543.31	1029.84
543.48	1095.37
543.64	1149.20
543.81	1144.52
543.98	1050.90
544.15	1064.94
544.32	1090.69
544.48	1114.10
544.65	1114.10
544.82	1036.86
544.99	983.02
545.16	1036.86
545.32	1048.56
545.49	1643.06
545.66	2497.35
545.83	2986.52
546.00	2513.74
546.16	1877.11
546.33	1427.73
546.50	1177.29
546.67	952.60
546.83	863.66
547.00	781.74
547.17	753.65
547.34	767.70
547.50	765.36
547.67	720.88
547.84	751.31
548.00	788.76
548.17	540.66
548.34	638.97
548.51	727.91
548.67	730.25
548.84	720.88
549.01	664.71
549.18	594.50
549.34	622.58
549.51	575.77
549.68	601.52
549.84	580.45
550.01	484.49
550.18	627.26
550.34	564.07
550.51	552.37
550.68	571.09
550.84	493.85
551.01	463.43
551.18	561.73
551.34	514.92
551.51	472.79
551.68	519.60
551.84	477.47
552.01	472.79
552.18	428.32
552.34	498.53
552.51	433.00
552.68	552.37
552.84	397.89
553.01	468.11
553.18	463.43
553.34	521.94
553.51	514.92
553.67	458.74
553.84	463.43
554.01	418.96
554.17	397.89
554.34	388.53
554.51	458.74
554.67	489.17
554.84	318.31
555.00	425.98
555.17	447.04
555.33	440.02
555.50	395.55
555.67	397.89
555.83	376.83
556.00	374.49
556.16	535.98
556.33	383.85
556.50	414.27
556.66	369.80
556.83	292.57
556.99	325.33
557.16	330.02
557.32	320.65
557.49	355.76
557.65	334.70
557.82	360.44
557.98	337.04
558.15	301.93
558.32	337.04
558.48	379.17
558.65	365.12
558.81	418.96
558.98	369.80
559.14	395.55
559.31	280.86
559.47	299.59
559.64	351.08
559.80	376.83
559.97	348.74
560.13	271.50
560.30	313.63
560.46	374.49
560.63	360.44
560.79	334.70
560.96	332.36
561.12	423.64
561.29	322.99
561.45	276.18
561.61	332.36
561.78	491.51
561.94	409.59
562.11	397.89
562.27	287.89
562.44	322.99
562.60	330.02
562.77	381.51
562.93	414.27
563.10	334.70
563.26	280.86
563.42	388.53
563.59	320.65
563.75	341.72
563.92	334.70
564.08	381.51
564.24	320.65
564.41	327.68
564.57	332.36
564.74	236.39
564.90	318.31
565.07	346.40
565.23	362.78
565.39	252.78
565.56	346.40
565.72	322.99
565.88	308.95
566.05	341.72
566.21	369.80
566.38	325.33
566.54	353.42
566.70	348.74
566.87	308.95
567.03	269.16
567.19	325.33
567.36	344.06
567.52	332.36
567.68	355.76
567.85	327.68
568.01	339.38
568.17	332.36
568.34	348.74
568.50	379.17
568.66	400.23
568.83	465.77
568.99	259.80
569.15	351.08
569.32	351.08
569.48	308.95
569.64	271.50
569.81	313.63
569.97	330.02
570.13	306.61
570.30	313.63
570.46	278.52
570.62	330.02
570.78	294.91
570.95	372.15
571.11	358.10
571.27	327.68
571.43	280.86
571.60	365.12
571.76	318.31
571.92	315.97
572.09	379.17
572.25	276.18
572.41	297.25
572.57	201.29
572.74	416.62
572.90	320.65
573.06	393.21
573.22	313.63
573.38	262.14
573.55	369.80
573.71	374.49
573.87	351.08
574.03	287.89
574.20	393.21
574.36	346.40
574.52	322.99
574.68	241.08
574.84	306.61
575.01	388.53
575.17	322.99
575.33	278.52
575.49	330.02
575.65	266.82
575.82	290.23
575.98	388.53
576.14	299.59
576.30	447.04
576.46	653.01
576.62	765.36
576.79	770.04
576.95	688.12
577.11	531.30
577.27	500.87
577.43	447.04
577.59	369.80
577.75	388.53
577.92	372.15
578.08	346.40
578.24	409.59
578.40	409.59
578.56	610.88
578.72	739.61
578.88	809.83
579.04	620.24
579.21	550.03
579.37	458.74
579.53	430.66
579.69	440.02
579.85	454.06
580.01	582.79
580.17	475.13
580.33	465.77
580.49	400.23
580.65	517.26
580.82	458.74
580.98	353.42
581.14	425.98
581.30	386.19
581.46	421.30
581.62	510.24
581.78	484.49
581.94	416.62
582.10	505.56
582.26	482.15
582.42	503.22
582.58	486.83
582.74	557.05
582.90	423.64
583.06	475.13
583.22	531.30
583.38	503.22
583.54	540.66
583.70	547.69
583.86	493.85
584.02	463.43
584.18	456.40
584.34	514.92
584.50	517.26
584.66	456.40
584.82	416.62
584.98	388.53
585.14	451.72
585.30	496.19
585.46	491.51
585.62	430.66
585.78	440.02
585.94	414.27
586.10	468.11
586.26	484.49
586.42	559.39
586.58	561.73
586.74	503.22
586.90	617.90
587.06	711.52
587.22	699.82
587.38	592.16
587.54	456.40
587.70	547.69
587.86	531.30
588.02	540.66
588.18	449.38
588.34	470.45
588.49	348.74
588.65	388.53
588.81	367.46
588.97	376.83
589.13	472.79
589.29	428.32
589.45	379.17
589.61	353.42
589.77	496.19
589.93	376.83
590.08	374.49
590.24	367.46
590.40	381.51
590.56	367.46
590.72	461.09
590.88	400.23
591.04	477.47
591.20	421.30
591.35	472.79
591.51	365.12
591.67	433.00
591.83	400.23
591.99	557.05
592.15	500.87
592.31	571.09
592.46	507.90
592.62	479.81
592.78	519.60
592.94	507.90
593.10	524.28
593.26	500.87
593.41	458.74
593.57	400.23
593.73	454.06
593.89	496.19
594.05	362.78
594.20	369.80
594.36	484.49
594.52	273.84
594.68	294.91
594.84	397.89
594.99	435.34
595.15	360.44
595.31	449.38
595.47	423.64
595.62	346.40
595.78	402.57
595.94	369.80
596.10	397.89
596.25	381.51
596.41	397.89
596.57	390.87
596.73	337.04
596.88	299.59
597.04	355.76
597.20	454.06
597.36	407.25
597.51	395.55
597.67	421.30
597.83	355.76
597.99	416.62
598.14	315.97
598.30	360.44
598.46	407.25
598.61	379.17
598.77	430.66
598.93	470.45
599.09	479.81
599.24	437.68
599.40	465.77
599.56	402.57
599.71	463.43
599.87	465.77
600.03	421.30
600.18	367.46
600.34	423.64
600.50	444.70
600.65	351.08
600.81	411.93
600.97	353.42
601.12	355.76
601.28	383.85
601.44	379.17
601.59	360.44
601.75	341.72
601.91	369.80
602.06	376.83
602.22	425.98
602.37	318.31
602.53	330.02
602.69	386.19
602.84	372.15
603.00	414.27
603.16	360.44
603.31	243.42
603.47	369.80
603.62	397.89
603.78	362.78
603.94	330.02
604.09	271.50
604.25	355.76
604.40	297.25
604.56	355.76
604.71	379.17
604.87	379.17
605.03	367.46
605.18	416.62
605.34	402.57
605.49	341.72
605.65	362.78
605.80	337.04
605.96	374.49
606.12	461.09
606.27	421.30
606.43	334.70
606.58	386.19
606.74	397.89
606.89	365.12
607.05	435.34
607.20	451.72
607.36	435.34
607.51	416.62
607.67	332.36
607.82	416.62
607.98	472.79
608.13	454.06
608.29	454.06
608.44	512.58
608.60	500.87
608.75	592.16
608.91	559.39
609.06	615.56
609.22	599.18
609.37	662.37
609.53	650.67
609.68	720.88
609.84	837.91
609.99	856.64
610.15	990.05
610.30	1165.59
610.46	1294.32
610.61	1687.53
610.76	2050.31
610.92	2485.65
611.07	2747.79
