SpectraSuite Data File
++++++++++++++++++++++++++++++++++++
Date: Fri Oct 04 11:39:45 GMT-05:00 2013
User: price-jones
Dark Spectrum Present: No
Reference Spectrum Present: No
Number of Sampled Component Spectra: 1
Spectrometers: USB2+H05261
Integration Time (usec): 100000 (USB2+H05261)
Spectra Averaged: 1 (USB2+H05261)
Boxcar Smoothing: 0 (USB2+H05261)
Correct for Electrical Dark: No (USB2+H05261)
Strobe/Lamp Enabled: No (USB2+H05261)
Correct for Detector Non-linearity: No (USB2+H05261)
Correct for Stray Light: No (USB2+H05261)
Number of Pixels in Processed Spectrum: 2048
>>>>>Begin Processed Spectral Data<<<<<
365.73	63.19
365.92	63.19
366.12	63.19
366.32	0.00
366.52	0.00
366.72	14.04
366.91	0.00
367.11	7.02
367.31	0.00
367.51	0.00
367.70	37.45
367.90	0.00
368.10	0.00
368.30	0.00
368.49	0.00
368.69	0.00
368.89	0.00
369.09	0.00
369.28	0.00
369.48	9.36
369.68	0.00
369.87	21.06
370.07	25.75
370.27	63.19
370.47	154.48
370.66	393.21
370.86	470.45
371.06	503.22
371.25	552.37
371.45	489.17
371.65	496.19
371.84	482.15
372.04	545.34
372.24	538.32
372.44	528.96
372.63	489.17
372.83	685.78
373.03	594.50
373.22	720.88
373.42	531.30
373.62	737.27
373.81	589.82
374.01	650.67
374.21	671.73
374.40	601.52
374.60	739.61
374.79	660.03
374.99	624.92
375.19	695.14
375.38	870.68
375.58	767.70
375.78	711.52
375.97	727.91
376.17	826.21
376.37	800.46
376.56	753.65
376.76	737.27
376.95	763.01
377.15	781.74
377.35	695.14
377.54	784.08
377.74	753.65
377.93	774.72
378.13	772.38
378.33	765.36
378.52	833.23
378.72	873.02
378.91	858.98
379.11	837.91
379.31	830.89
379.50	849.61
379.70	898.77
379.89	870.68
380.09	884.72
380.28	826.21
380.48	933.87
380.68	903.45
380.87	966.64
381.07	926.85
381.26	952.60
381.46	868.34
381.65	866.00
381.85	976.00
382.04	936.21
382.24	952.60
382.43	887.06
382.63	947.92
382.83	1093.03
383.02	1088.35
383.22	997.07
383.41	898.77
383.61	1004.09
383.80	1034.52
384.00	1011.11
384.19	1048.56
384.39	1001.75
384.58	976.00
384.78	1083.67
384.97	1050.90
385.17	1102.39
385.36	1057.92
385.56	1046.22
385.75	1071.97
385.95	1069.62
386.14	1048.56
386.34	1160.91
386.53	1004.09
386.72	1043.88
386.92	1121.12
387.11	1149.20
387.31	1179.63
387.50	1128.14
387.70	1130.48
387.89	1149.20
388.09	1146.86
388.28	1242.82
388.48	1149.20
388.67	1205.38
388.86	1284.95
389.06	1188.99
389.25	1254.53
389.45	1409.00
389.64	1247.51
389.84	1364.53
390.03	1313.04
390.22	1371.55
390.42	1282.61
390.61	1291.98
390.81	1322.40
391.00	1301.34
391.19	1430.07
391.39	1343.47
391.58	1378.58
391.78	1387.94
391.97	1519.01
392.16	1511.99
392.36	1526.03
392.55	1540.07
392.75	1490.92
392.94	1441.77
393.13	1519.01
393.33	1511.99
393.52	1551.78
393.71	1598.59
393.91	1575.18
394.10	1563.48
394.29	1540.07
394.49	1528.37
394.68	1589.22
394.88	1483.90
395.07	1624.33
395.26	1661.78
395.46	1654.76
395.65	1703.91
395.84	1699.23
396.04	1732.00
396.23	1750.72
396.42	1736.68
396.62	1778.81
396.81	1827.96
397.00	1792.85
397.19	1797.53
397.39	1891.15
397.58	1874.77
397.77	1865.41
397.97	1762.42
398.16	1825.62
398.35	1895.83
398.55	1930.94
398.74	1881.79
398.93	1947.33
399.12	1834.98
399.32	1881.79
399.51	1849.02
399.70	1944.99
399.90	1914.56
400.09	2078.40
400.28	2132.23
400.47	1947.33
400.67	2179.04
400.86	1998.82
401.05	2083.08
401.24	2106.48
401.44	2115.84
401.63	2040.95
401.82	2200.10
402.01	2174.36
402.21	2071.37
402.40	2228.19
402.59	2179.04
402.78	2239.89
402.97	2286.70
403.17	2319.47
403.36	2352.24
403.55	2298.41
403.74	2417.77
403.93	2326.49
404.13	2422.45
404.32	2427.14
404.51	2544.16
404.70	2485.65
404.89	2317.13
405.09	2466.92
405.28	2434.16
405.47	2546.50
405.66	2654.17
405.85	2485.65
406.05	2628.42
406.24	2663.53
406.43	2658.85
406.62	2773.53
406.81	2630.76
407.00	2649.49
407.20	2616.72
407.39	2712.68
407.58	2740.77
407.77	2785.24
407.96	2998.23
408.15	2942.05
408.34	2759.49
408.54	2848.43
408.73	2974.82
408.92	2942.05
409.11	2956.10
409.30	2986.52
409.49	3178.45
409.68	3023.97
409.87	3005.25
410.07	3030.99
410.26	3112.91
410.45	3103.55
410.64	3206.53
410.83	3157.38
411.02	3178.45
411.21	3225.26
411.40	3309.52
411.59	3400.80
411.78	3449.95
411.98	3356.33
412.17	3379.73
412.36	3295.47
412.55	3489.74
412.74	3468.67
412.93	3515.48
413.12	3548.25
413.31	3866.56
413.50	3557.61
413.69	3728.47
413.88	3794.01
414.07	3669.96
414.26	3796.35
414.45	3875.93
414.64	3847.84
414.83	3976.57
415.02	4063.17
415.22	4084.23
415.41	4109.98
415.60	4021.04
415.79	4236.37
415.98	4147.43
416.17	4236.37
416.36	4348.72
416.55	4208.28
416.74	4400.21
416.93	4311.27
417.12	4397.87
417.31	4603.83
417.50	4404.89
417.69	4692.77
417.88	4636.60
418.07	4552.34
418.26	4568.73
418.45	4617.88
418.64	4716.18
418.83	4847.25
419.02	4678.73
419.21	4802.78
419.39	4842.57
419.58	4798.10
419.77	4807.46
419.96	4882.36
420.15	4858.95
420.34	4992.36
420.53	4896.40
420.72	5121.09
420.91	5071.94
421.10	5107.05
421.29	5261.52
421.48	5011.09
421.67	5252.16
421.86	5174.92
422.05	5266.21
422.24	5170.24
422.43	5160.88
422.61	5270.89
422.80	5193.65
422.99	5366.85
423.18	5226.42
423.37	5394.93
423.56	5362.17
423.75	5310.68
423.94	5308.34
424.13	4887.04
424.32	5128.11
424.50	5390.25
424.69	5544.73
424.88	5582.18
425.07	5275.57
425.26	5256.84
425.45	5362.17
425.64	5432.38
425.83	5352.81
426.01	5289.61
426.20	5418.34
426.39	5338.76
426.58	5308.34
426.77	5425.36
426.96	5533.03
427.15	5575.16
427.33	5687.50
427.52	5558.77
427.71	5689.84
427.90	5617.29
428.09	5633.67
428.28	5638.35
428.46	5830.27
428.65	5844.32
428.84	5872.40
429.03	5926.24
429.22	5926.24
429.40	5996.45
429.59	6033.90
429.78	5586.86
429.97	5746.02
430.16	5767.08
430.34	6064.33
430.53	6296.04
430.72	6209.44
430.91	5996.45
431.10	6029.22
431.28	6251.57
431.47	6221.14
431.66	6272.64
431.85	6155.61
432.03	6331.15
432.22	6520.73
432.41	6476.26
432.60	6588.61
432.79	6445.84
432.97	6520.73
433.16	6544.14
433.35	6583.93
433.54	6576.91
433.72	6569.88
433.91	6436.47
434.10	6684.57
434.28	6509.03
434.47	6707.98
434.66	6808.62
434.85	6726.70
435.03	7045.01
435.22	7040.33
435.41	7435.88
435.59	7290.77
435.78	7178.42
435.97	7136.29
436.16	7218.21
436.34	6970.12
436.53	6991.18
436.72	7309.49
436.90	7105.87
437.09	7344.60
437.28	7066.08
437.46	7094.16
437.65	7293.11
437.84	7431.20
438.02	7449.93
438.21	7489.71
438.40	7246.30
438.58	7740.15
438.77	7712.07
438.96	7576.31
439.14	7838.45
439.33	7887.61
439.52	7948.46
439.70	7868.88
439.89	7903.99
440.08	8023.36
440.26	8084.21
440.45	8072.51
440.63	8079.53
440.82	8329.97
441.01	8112.30
441.19	8339.33
441.38	8587.43
441.57	8507.85
441.75	8524.23
441.94	8638.92
442.12	8662.32
442.31	8861.27
442.50	8849.57
442.68	8795.73
442.87	8929.14
443.05	9053.19
443.24	8915.10
443.43	9060.21
443.61	9048.51
443.80	9102.34
443.98	8800.41
444.17	8702.11
444.35	9118.73
444.54	9207.67
444.73	9060.21
444.91	9317.67
445.10	9341.08
445.28	9207.67
445.47	9015.74
445.65	8990.00
445.84	9041.49
446.02	9282.56
446.21	9373.85
446.39	9226.39
446.58	9362.14
446.77	9273.20
446.95	9067.24
447.14	9170.22
447.32	9467.47
447.51	9188.94
447.69	9177.24
447.88	9399.59
448.06	9249.80
448.25	9233.41
448.43	9523.64
448.62	9542.36
448.80	9474.49
448.99	9483.85
449.17	9607.90
449.36	9551.73
449.54	9694.50
449.73	9914.51
449.91	9977.70
450.10	9816.21
450.28	9851.31
450.46	9823.23
450.65	10113.45
450.83	9956.64
451.02	10001.11
451.20	10193.03
451.39	10019.83
451.57	9963.66
451.76	9804.50
451.94	10153.24
452.13	10363.89
452.31	10328.78
452.49	10239.84
452.68	10373.25
452.86	10520.71
453.05	10595.61
453.23	10483.26
453.42	10207.08
453.60	10181.33
453.78	10436.45
453.97	10413.04
454.15	10387.30
454.34	10509.01
454.52	10569.86
454.70	10626.03
454.89	10860.09
455.07	10637.73
455.26	10824.98
455.44	10934.98
455.62	10817.96
455.81	10827.32
455.99	11115.20
456.17	11087.12
456.36	11136.27
456.54	11286.06
456.73	11131.59
456.91	11510.75
457.09	11583.31
457.28	11527.14
457.46	11534.16
457.64	11597.35
457.83	11719.06
458.01	11421.81
458.19	11761.19
458.38	11599.70
458.56	11957.80
458.74	11838.43
458.93	11875.88
459.11	11709.70
459.29	11866.52
459.48	12170.79
459.66	12360.37
459.84	11981.20
460.03	12184.83
460.21	12112.27
460.39	12250.36
460.57	12285.47
460.76	12332.28
460.94	12491.44
461.12	12430.59
461.31	12322.92
461.49	12301.86
461.67	12259.73
461.85	12610.81
462.04	12739.54
462.22	13071.89
462.40	12847.20
462.59	12828.48
462.77	12744.22
462.95	12774.64
463.13	12819.11
463.32	13132.75
463.50	13111.68
463.68	12938.48
463.86	13046.15
464.05	12924.44
464.23	13186.58
464.41	13165.51
464.59	12952.52
464.78	13275.52
464.96	12905.71
465.14	13275.52
465.32	13509.57
465.50	13341.05
465.69	13603.19
465.87	13357.44
466.05	13245.09
466.23	13387.86
466.41	13448.72
466.60	13811.50
466.78	13586.81
466.96	13327.01
467.14	13434.68
467.32	13809.16
467.51	14214.07
467.69	13301.26
467.87	13774.05
468.05	14017.47
468.23	13788.10
468.41	13771.71
468.60	13872.36
468.78	14319.40
468.96	13778.73
469.14	14125.13
469.32	14324.08
469.50	13781.07
469.69	14319.40
469.87	14663.46
470.05	14523.02
470.23	14719.63
470.41	14525.36
470.59	15030.92
470.77	14345.14
470.95	14534.73
471.14	15033.26
471.32	14574.52
471.50	15169.01
471.68	15016.88
471.86	15023.90
472.04	15412.43
472.22	15480.30
472.40	15152.63
472.58	15623.08
472.77	15447.54
472.95	15812.66
473.13	16109.91
473.31	15585.63
473.49	15571.58
473.67	15744.78
473.85	15976.50
474.03	16020.97
474.21	16166.08
474.39	16166.08
474.57	16512.48
474.75	16791.00
474.93	16791.00
475.12	16603.76
475.30	16912.71
475.48	17057.82
475.66	16943.14
475.84	16957.18
476.02	17191.23
476.20	17032.08
476.38	17516.57
476.56	17589.13
476.74	17867.65
476.92	17514.23
477.10	17792.75
477.28	18415.34
477.46	17923.82
477.64	18263.20
477.82	18270.22
478.00	18838.97
478.18	18845.99
478.36	18923.23
478.54	19190.05
478.72	19122.18
478.90	19660.50
479.08	19660.50
479.26	19496.66
479.44	20027.96
479.62	19669.86
479.80	20126.27
479.98	20322.87
480.16	20531.18
480.34	20283.08
480.52	20638.84
480.70	20678.63
480.88	20343.94
481.06	20936.09
481.24	20725.44
481.41	21242.70
481.59	21617.19
481.77	21940.18
481.95	21757.62
482.13	22258.49
482.31	21820.81
482.49	22377.86
482.67	22656.39
482.85	22698.52
483.03	22967.68
483.21	23229.82
483.39	23630.05
483.57	23318.76
483.74	23627.71
483.92	23744.73
484.10	23786.86
484.28	24198.80
484.46	24559.24
484.64	25198.21
484.82	24538.18
485.00	24690.31
485.18	25553.97
485.35	25680.36
485.53	25502.48
485.71	25869.94
485.89	26295.92
486.07	25898.03
486.25	26321.66
486.43	26375.50
486.61	27016.80
486.78	26778.07
486.96	27098.72
487.14	27545.76
487.32	27204.05
487.50	27515.34
487.68	27747.05
487.85	28360.27
488.03	28613.05
488.21	28879.87
488.39	29268.40
488.57	29441.60
488.75	29544.58
488.92	29921.41
489.10	29855.87
489.28	30202.27
489.46	30529.95
489.64	30665.70
489.81	30843.58
489.99	30881.03
490.17	30923.16
490.35	31821.92
490.53	31030.82
490.70	31805.54
490.88	32112.15
491.06	32680.90
491.24	32194.07
491.41	32641.11
491.59	32610.68
491.77	32931.34
491.95	33172.41
492.13	33694.35
492.30	33713.08
492.48	33603.07
492.66	33834.78
492.84	33647.54
493.01	34417.58
493.19	34492.47
493.37	34831.85
493.54	34855.26
493.72	35620.61
493.90	35290.60
494.08	35360.81
494.25	36041.91
494.43	35967.01
494.61	36453.84
494.79	36758.11
494.96	36608.32
495.14	36493.63
495.32	36851.73
495.49	37001.53
495.67	37226.22
495.85	37940.08
496.02	37794.97
496.20	37762.20
496.38	38068.81
496.55	38202.22
496.73	39342.06
496.91	38827.15
497.09	38972.26
497.26	39187.59
497.44	38803.74
497.62	39611.23
497.79	39974.01
497.97	39639.31
498.14	40194.02
498.32	41034.27
498.50	40203.38
498.67	40725.32
498.85	40725.32
499.03	41020.23
499.20	41102.15
499.38	41092.79
499.56	41675.58
499.73	41563.23
499.91	42050.06
500.08	41820.69
500.26	41631.11
500.44	42270.08
500.61	41855.80
500.79	41846.44
500.97	42293.48
501.14	43058.84
501.32	43051.81
501.49	43147.78
501.67	43091.60
501.84	43686.10
502.02	43192.25
502.20	43868.66
502.37	44098.03
502.55	44163.57
502.72	44135.48
502.90	43899.09
503.07	44137.82
503.25	44236.12
503.43	44079.31
503.60	44725.30
503.78	44690.19
503.95	44968.71
504.13	44835.30
504.30	44987.44
504.48	44882.11
504.65	45656.83
504.83	45469.59
505.01	45621.72
505.18	45823.01
505.36	45825.35
505.53	45853.44
505.71	46087.49
505.88	45991.53
506.06	46078.13
506.23	46660.92
506.41	46501.76
506.58	47075.19
506.76	46864.55
506.93	46955.83
507.11	46616.45
507.28	47136.05
507.46	47782.04
507.63	47363.08
507.81	47892.04
507.98	47463.72
508.16	47899.06
508.33	47821.83
508.50	47903.74
508.68	48079.28
508.85	48184.61
509.03	48196.31
509.20	48568.46
509.38	48933.58
509.55	48755.70
509.73	48779.10
509.90	49139.55
510.08	48961.67
510.25	48776.76
510.42	49228.49
510.60	49673.19
510.77	49635.74
510.95	49792.56
511.12	49848.73
511.30	49261.26
511.47	49888.52
511.64	50127.25
511.82	50148.32
511.99	50115.55
512.17	50382.37
512.34	50211.51
512.51	50883.25
512.69	50703.03
512.86	50733.45
513.04	51068.15
513.21	51100.92
513.38	51061.13
513.56	51351.35
513.73	51035.38
513.90	51093.89
514.08	51470.72
514.25	51573.70
514.43	51283.48
514.60	51414.55
514.77	51688.39
514.95	52250.12
515.12	51796.06
515.29	51737.54
515.47	51945.85
515.64	52074.58
515.81	52133.09
515.99	52425.66
516.16	52313.31
516.33	52566.09
516.51	52814.19
516.68	52374.17
516.85	52367.15
517.03	52608.22
517.20	52692.48
517.37	52954.62
517.54	53151.23
517.72	52952.28
517.89	52949.94
518.06	52956.96
518.24	53176.97
518.41	53139.52
518.58	53565.50
518.75	53174.63
518.93	53776.15
519.10	53378.26
519.27	53731.68
519.45	53588.91
519.62	53593.59
519.79	53635.72
519.96	53982.12
520.14	54160.00
520.31	54174.04
520.48	53745.72
520.65	54054.67
520.83	54253.62
521.00	54422.14
521.17	54204.47
521.34	54120.21
521.52	54656.19
521.69	54731.09
521.86	54707.68
522.03	54822.37
522.20	54852.80
522.38	54962.80
522.55	54930.03
522.72	54960.46
522.89	54880.88
523.07	55384.10
523.24	55112.59
523.41	55325.58
523.58	55360.69
523.75	55466.02
523.92	55374.73
524.10	55098.55
524.27	55433.25
524.44	55519.85
524.61	55667.30
524.78	55693.05
524.96	55503.46
525.13	55704.75
525.30	55856.88
525.47	55817.10
525.64	55950.51
525.81	56058.17
525.98	55868.59
526.16	55917.74
526.33	55922.42
526.50	56364.78
526.67	55877.95
526.84	56222.01
527.01	56247.75
527.18	56346.06
527.36	56500.53
527.53	56479.47
527.70	56650.33
527.87	56821.19
528.04	56582.45
528.21	56521.60
528.38	56601.18
528.55	56767.35
528.72	56828.21
528.89	56882.04
529.07	56795.44
529.24	56757.99
529.41	56891.40
529.58	56963.96
529.75	56940.55
529.92	56994.39
530.09	57240.14
530.26	57088.01
530.43	57176.95
530.60	57123.11
530.77	57322.06
530.94	57413.34
531.11	57237.80
531.28	57352.49
531.46	57282.27
531.63	57361.85
531.80	57577.18
531.97	57666.12
532.14	57750.38
532.31	57619.31
532.48	57731.65
532.65	57848.68
532.82	57652.08
532.99	57829.96
533.16	57822.93
533.33	58087.42
533.50	58075.71
533.67	57954.00
533.84	58122.52
534.01	58138.91
534.18	58028.90
534.35	58319.13
534.52	58136.57
534.69	58272.32
534.86	58604.67
535.03	58127.20
535.20	58426.79
535.37	58312.11
535.54	58475.94
535.71	58183.38
535.88	58539.14
536.05	58344.87
536.22	58604.67
536.38	58836.39
536.55	59009.59
536.72	58628.08
536.89	58735.74
537.06	58812.98
537.23	59002.56
537.40	58436.16
537.57	58798.94
537.74	58801.28
537.91	59077.46
538.08	59068.10
538.25	58960.44
538.42	58773.19
538.59	59091.51
538.75	58782.55
538.92	58993.20
539.09	59304.49
539.26	59208.53
539.43	59334.92
539.60	59416.84
539.77	59276.41
539.94	59606.42
540.11	59529.19
540.28	59402.80
540.44	59435.56
540.61	59484.72
540.78	59461.31
540.95	59807.71
541.12	59917.71
541.29	59814.73
541.46	59604.08
541.62	59805.37
541.79	59744.51
541.96	59606.42
542.13	59519.82
542.30	59657.91
542.47	60034.74
542.63	60018.36
542.80	60133.04
542.97	60519.23
543.14	60205.60
543.31	60266.45
543.48	59994.95
543.64	60395.18
543.81	60154.11
543.98	60659.66
544.15	60444.33
544.32	60584.77
544.48	60622.22
544.65	60580.09
544.82	60432.63
544.99	60261.77
545.16	60287.52
545.32	60399.86
545.49	60863.29
545.66	61043.51
545.83	60931.17
546.00	61186.28
546.16	60938.19
546.33	60643.28
546.50	60514.55
546.67	60645.62
546.83	60427.95
547.00	60582.43
547.17	60832.86
547.34	60776.69
547.50	60921.80
547.67	60956.91
547.84	61020.11
548.00	60872.65
548.17	61010.74
548.34	60729.88
548.51	61022.45
548.67	61197.99
548.84	61183.94
549.01	61078.62
549.18	61378.21
549.34	61202.67
549.51	61048.19
549.68	60870.31
549.84	61020.11
550.01	61338.42
550.18	61193.31
550.34	61200.33
550.51	61364.17
550.68	61385.23
550.84	61380.55
551.01	61282.25
551.18	61403.95
551.34	61209.69
551.51	61478.85
551.68	61441.40
551.84	61214.37
552.01	61291.61
552.18	61474.17
552.34	61518.64
552.51	61616.94
552.68	61399.27
552.84	61577.15
553.01	61773.76
553.18	61553.75
553.34	61666.09
553.51	61661.41
553.67	61773.76
553.84	61979.73
554.01	61874.40
554.17	61858.02
554.34	61897.81
554.51	61928.23
554.67	61703.54
554.84	61886.10
555.00	61808.87
555.17	61860.36
555.33	61956.32
555.50	61893.13
555.67	61883.76
555.83	61843.98
556.00	61932.92
556.16	62134.20
556.33	61773.76
556.50	61881.42
556.66	62157.61
556.83	62071.01
556.99	62157.61
557.16	62302.72
557.32	62230.16
557.49	62255.91
557.65	62087.39
557.82	62155.27
557.98	62033.56
558.15	62351.87
558.32	62417.41
558.48	62466.56
558.65	62445.49
558.81	62401.02
558.98	62454.86
559.14	62288.68
559.31	62192.72
559.47	62394.00
559.64	62351.87
559.80	62337.83
559.97	62569.54
560.13	62274.63
560.30	62417.41
560.46	62576.56
560.63	62606.99
560.79	62466.56
560.96	62658.48
561.12	62518.05
561.29	62562.52
561.45	62548.48
561.61	62686.57
561.78	62576.56
561.94	62834.02
562.11	62719.34
562.27	62518.05
562.44	62719.34
562.60	62595.29
562.77	62630.40
562.93	62686.57
563.10	62922.96
563.26	62433.79
563.42	62841.04
563.59	62688.91
563.75	62843.38
563.92	62883.17
564.08	62574.22
564.24	62759.12
564.41	62653.80
564.57	62649.12
564.74	62852.75
564.90	62995.52
565.07	62906.58
565.23	62864.45
565.39	62941.69
565.56	62946.37
565.72	62787.21
565.88	62866.79
566.05	62981.48
566.21	62883.17
566.38	62810.62
566.54	62883.17
566.70	63154.68
566.87	63290.43
567.03	62960.41
567.19	63107.86
567.36	63138.29
567.52	63028.29
567.68	63018.92
567.85	62780.19
568.01	62857.43
568.17	63035.31
568.34	62981.48
568.50	63138.29
568.66	63267.02
568.83	63142.97
568.99	62986.16
569.15	63032.97
569.32	63047.01
569.48	63039.99
569.64	63290.43
569.81	63072.76
569.97	63161.70
570.13	63091.48
570.30	63168.72
570.46	63222.55
570.62	63173.40
570.78	63077.44
570.95	63025.95
571.11	63093.82
571.27	63065.73
571.43	63068.08
571.60	63210.85
571.76	63107.86
571.92	63297.45
572.09	63269.36
572.25	63367.66
572.41	63192.12
572.57	63433.20
572.74	63358.30
572.90	63327.87
573.06	63362.98
573.22	63114.89
573.38	63362.98
573.55	63295.11
573.71	63639.17
573.87	63456.60
574.03	63353.62
574.20	63461.29
574.36	63355.96
574.52	63264.68
574.68	63510.44
574.84	63407.45
575.01	63536.18
575.17	63629.80
575.33	63173.40
575.49	63533.84
575.65	63461.29
575.82	63681.30
575.98	63454.26
576.14	63426.18
576.30	63566.61
576.46	63447.24
576.62	63274.04
576.79	63477.67
576.95	63374.69
577.11	63454.26
577.27	63601.72
577.43	63405.11
577.59	63243.62
577.75	63697.68
577.92	63313.83
578.08	63491.71
578.24	63372.34
578.40	63519.80
578.56	63475.33
578.72	63498.73
578.88	63793.64
579.04	63629.80
579.21	63674.27
579.37	63618.10
579.53	63674.27
579.69	63299.79
579.85	63489.37
580.01	63608.74
580.17	63426.18
580.33	63585.33
580.49	63756.19
580.65	63650.87
580.82	63784.28
580.98	63742.15
581.14	63643.85
581.30	63807.68
581.46	63526.82
581.62	63465.97
581.78	63433.20
581.94	63688.32
582.10	63512.78
582.26	63749.17
582.42	63660.23
582.58	63810.03
582.74	63690.66
582.90	63653.21
583.06	63704.70
583.22	63648.53
583.38	63484.69
583.54	63447.24
583.70	63510.44
583.86	63639.17
584.02	63501.07
584.18	63671.93
584.34	63739.81
584.50	63798.32
584.66	63475.33
584.82	63573.63
584.98	63749.17
585.14	63840.45
585.30	63498.73
585.46	63426.18
585.62	63625.12
585.78	63697.68
585.94	63463.63
586.10	63707.04
586.26	63758.53
586.42	63917.69
586.58	63856.84
586.74	63903.65
586.90	63646.19
587.06	63866.20
587.22	63884.92
587.38	63700.02
587.54	63835.77
587.70	64032.38
587.86	63931.73
588.02	63917.69
588.18	63969.18
588.34	64037.06
588.49	64015.99
588.65	63678.96
