SpectraSuite Data File
++++++++++++++++++++++++++++++++++++
Date: Fri Oct 04 11:39:16 GMT-05:00 2013
User: price-jones
Dark Spectrum Present: No
Reference Spectrum Present: No
Number of Sampled Component Spectra: 1
Spectrometers: USB2+H05261
Integration Time (usec): 100000 (USB2+H05261)
Spectra Averaged: 1 (USB2+H05261)
Boxcar Smoothing: 0 (USB2+H05261)
Correct for Electrical Dark: No (USB2+H05261)
Strobe/Lamp Enabled: No (USB2+H05261)
Correct for Detector Non-linearity: No (USB2+H05261)
Correct for Stray Light: No (USB2+H05261)
Number of Pixels in Processed Spectrum: 2048
>>>>>Begin Processed Spectral Data<<<<<
365.73	35.11
365.92	35.11
366.12	35.11
366.32	42.13
366.52	0.00
366.72	0.00
366.91	0.00
367.11	0.00
367.31	0.00
367.51	0.00
367.70	0.00
367.90	0.00
368.10	0.00
368.30	0.00
368.49	0.00
368.69	0.00
368.89	0.00
369.09	0.00
369.28	0.00
369.48	0.00
369.68	4.68
369.87	0.00
370.07	0.00
370.27	0.00
370.47	39.79
370.66	220.01
370.86	315.97
371.06	264.48
371.25	248.10
371.45	222.35
371.65	259.80
371.84	292.57
372.04	217.67
372.24	231.71
372.44	358.10
372.63	311.29
372.83	381.51
373.03	344.06
373.22	351.08
373.42	299.59
373.62	346.40
373.81	367.46
374.01	386.19
374.21	388.53
374.40	322.99
374.60	365.12
374.79	367.46
374.99	322.99
375.19	379.17
375.38	421.30
375.58	327.68
375.78	423.64
375.97	409.59
376.17	468.11
376.37	393.21
376.56	285.55
376.76	447.04
376.95	379.17
377.15	397.89
377.35	376.83
377.54	449.38
377.74	418.96
377.93	353.42
378.13	435.34
378.33	447.04
378.52	388.53
378.72	393.21
378.91	435.34
379.11	451.72
379.31	440.02
379.50	386.19
379.70	463.43
379.89	407.25
380.09	416.62
380.28	393.21
380.48	433.00
380.68	409.59
380.87	468.11
381.07	449.38
381.26	521.94
381.46	468.11
381.65	512.58
381.85	447.04
382.04	468.11
382.24	547.69
382.43	475.13
382.63	433.00
382.83	461.09
383.02	465.77
383.22	458.74
383.41	421.30
383.61	465.77
383.80	500.87
384.00	456.40
384.19	468.11
384.39	491.51
384.58	528.96
384.78	585.13
384.97	526.62
385.17	475.13
385.36	526.62
385.56	594.50
385.75	493.85
385.95	510.24
386.14	526.62
386.34	463.43
386.53	477.47
386.72	550.03
386.92	575.77
387.11	547.69
387.31	547.69
387.50	496.19
387.70	557.05
387.89	568.75
388.09	613.22
388.28	554.71
388.48	550.03
388.67	620.24
388.86	610.88
389.06	582.79
389.25	545.34
389.45	603.86
389.64	601.52
389.84	657.69
390.03	683.44
390.22	645.99
390.42	596.84
390.61	589.82
390.81	594.50
391.00	620.24
391.19	643.65
391.39	678.76
391.58	627.26
391.78	702.16
391.97	692.80
392.16	683.44
392.36	653.01
392.55	730.25
392.75	667.05
392.94	643.65
393.13	676.41
393.33	587.47
393.52	660.03
393.71	713.86
393.91	786.42
394.10	767.70
394.29	655.35
394.49	669.39
394.68	861.32
394.88	856.64
395.07	826.21
395.26	812.17
395.46	692.80
395.65	786.42
395.84	847.27
396.04	802.80
396.23	772.38
396.42	753.65
396.62	851.96
396.81	896.43
397.00	849.61
397.19	812.17
397.39	828.55
397.58	880.04
397.77	959.62
397.97	943.24
398.16	788.76
398.35	877.70
398.55	912.81
398.74	910.47
398.93	1027.50
399.12	929.19
399.32	889.40
399.51	884.72
399.70	973.66
399.90	1001.75
400.09	880.04
400.28	968.98
400.47	966.64
400.67	987.71
400.86	1022.81
401.05	1039.20
401.24	1057.92
401.44	999.41
401.63	1107.07
401.82	1081.33
402.01	1151.54
402.21	992.39
402.40	1081.33
402.59	1088.35
402.78	1123.46
402.97	1076.65
403.17	1088.35
403.36	1107.07
403.55	1139.84
403.74	1203.04
403.93	1217.08
404.13	1263.89
404.32	1100.05
404.51	1313.04
404.70	1270.91
404.89	1207.72
405.09	1203.04
405.28	1200.69
405.47	1205.38
405.66	1322.40
405.85	1270.91
406.05	1198.35
406.24	1299.00
406.43	1275.59
406.62	1303.68
406.81	1530.71
407.00	1254.53
407.20	1254.53
407.39	1425.39
407.58	1390.28
407.77	1427.73
407.96	1476.88
408.15	1535.39
408.34	1479.22
408.54	1535.39
408.73	1493.26
408.92	1516.67
409.11	1514.33
409.30	1493.26
409.49	1558.80
409.68	1509.65
409.87	1579.86
410.07	1607.95
410.26	1497.94
410.45	1589.22
410.64	1631.35
410.83	1596.25
411.02	1671.14
411.21	1715.61
411.40	1727.32
411.59	1849.02
411.78	1783.49
411.98	1724.97
412.17	1795.19
412.36	1680.50
412.55	1788.17
412.74	1898.17
412.93	1902.86
413.12	1959.03
413.31	1914.56
413.50	1891.15
413.69	1980.09
413.88	1930.94
414.07	1881.79
414.26	2097.12
414.45	1994.14
414.64	2050.31
414.83	2019.88
415.02	2139.25
415.22	2108.82
415.41	2160.31
415.60	2099.46
415.79	2195.42
415.98	2239.89
416.17	2218.83
416.36	2141.59
416.55	2228.19
416.74	2300.75
416.93	2272.66
417.12	2272.66
417.31	2326.49
417.50	2377.98
417.69	2469.27
417.88	2544.16
418.07	2326.49
418.26	2422.45
418.45	2555.86
418.64	2541.82
418.83	2487.99
419.02	2455.22
419.21	2560.55
419.39	2534.80
419.58	2483.31
419.77	2502.03
419.96	2630.76
420.15	2782.90
420.34	2609.70
420.53	2686.94
420.72	2705.66
420.91	2705.66
421.10	2722.04
421.29	2810.98
421.48	2764.17
421.67	2757.15
421.86	2871.84
422.05	2862.48
422.24	2871.84
422.43	2740.77
422.61	2871.84
422.80	2904.60
422.99	2860.13
423.18	2841.41
423.37	2925.67
423.56	2827.37
423.75	2782.90
423.94	2822.69
424.13	2754.81
424.32	2703.32
424.50	2883.54
424.69	3009.93
424.88	2902.26
425.07	2825.03
425.26	2841.41
425.45	2853.11
425.64	2911.63
425.83	2888.22
426.01	3049.72
426.20	3000.57
426.39	2920.99
426.58	2942.05
426.77	3094.19
426.96	3096.53
427.15	3009.93
427.33	3016.95
427.52	3040.36
427.71	3091.85
427.90	3180.79
428.09	3087.17
428.28	3155.04
428.46	3185.47
428.65	3126.96
428.84	3227.60
429.03	3234.62
429.22	3166.74
429.40	3220.58
429.59	3197.17
429.78	3047.38
429.97	2995.89
430.16	3201.85
430.34	3260.37
430.53	3309.52
430.72	3236.96
430.91	3393.78
431.10	3211.22
431.28	3431.23
431.47	3410.16
431.66	3433.57
431.85	3365.69
432.03	3356.33
432.22	3463.99
432.41	3499.10
432.60	3552.93
432.79	3452.29
432.97	3590.38
433.16	3651.24
433.35	3496.76
433.54	3590.38
433.72	3623.15
433.91	3606.77
434.10	3583.36
434.28	3499.10
434.47	3672.30
434.66	3658.26
434.85	3794.01
435.03	3838.48
435.22	3948.48
435.41	4032.74
435.59	4051.47
435.78	3967.21
435.97	3854.86
436.16	3861.88
436.34	3815.07
436.53	3805.71
436.72	4042.11
436.90	3826.78
437.09	3817.41
437.28	3845.50
437.46	3992.95
437.65	3997.64
437.84	3985.93
438.02	4011.68
438.21	3847.84
438.40	3981.25
438.58	4070.19
438.77	4105.30
438.96	4074.87
439.14	4259.78
439.33	4306.59
439.52	4297.22
439.70	4227.01
439.89	4325.31
440.08	4245.73
440.26	4425.95
440.45	4241.05
440.63	4425.95
440.82	4482.13
441.01	4294.88
441.19	4388.50
441.38	4503.19
441.57	4573.41
441.75	4517.23
441.94	4589.79
442.12	4580.43
442.31	4802.78
442.50	4688.09
442.68	4622.56
442.87	4777.03
443.05	4720.86
443.24	4851.93
443.43	4697.46
443.61	4905.76
443.80	4917.47
443.98	4669.37
444.17	4594.47
444.35	4858.95
444.54	4898.74
444.73	4971.30
444.91	4947.89
445.10	4882.36
445.28	4992.36
445.47	4807.46
445.65	4938.53
445.84	4971.30
446.02	5160.88
446.21	4856.61
446.39	4954.91
446.58	4999.38
446.77	4985.34
446.95	4887.04
447.14	4919.81
447.32	5018.11
447.51	4973.64
447.69	4957.25
447.88	5053.22
448.06	5069.60
448.25	5130.45
448.43	5172.58
448.62	5001.72
448.80	5085.98
448.99	5083.64
449.17	5121.09
449.36	5165.56
449.54	5385.57
449.73	5170.24
449.91	5228.76
450.10	5355.15
450.28	5284.93
450.46	5329.40
450.65	5430.04
450.83	5423.02
451.02	5301.31
451.20	5369.19
451.39	5476.85
451.57	5369.19
451.76	5345.78
451.94	5355.15
452.13	5483.88
452.31	5547.07
452.49	5406.64
452.68	5621.97
452.86	5565.79
453.05	5610.26
453.23	5605.58
453.42	5427.70
453.60	5490.90
453.78	5495.58
453.97	5586.86
454.15	5582.18
454.34	5504.94
454.52	5806.87
454.70	5741.33
454.89	5778.78
455.07	5582.18
455.26	5856.02
455.44	5743.67
455.62	5905.17
455.81	5998.79
455.99	6040.92
456.17	5949.64
456.36	5907.51
456.54	6106.46
456.73	6059.65
456.91	6022.20
457.09	5849.00
457.28	6155.61
457.46	6026.88
457.64	6141.57
457.83	6260.93
458.01	6085.39
458.19	6249.23
458.38	6200.08
458.56	6403.71
458.74	6494.99
458.93	6272.64
459.11	6370.94
459.29	6333.49
459.48	6361.58
459.66	6277.32
459.84	6492.65
460.03	6562.86
460.21	6303.06
460.39	6502.01
460.57	6434.13
460.76	6384.98
460.94	6609.67
461.12	6604.99
461.31	6602.65
461.49	6588.61
461.67	6527.75
461.85	6799.26
462.04	6616.69
462.22	7232.26
462.40	6726.70
462.59	6775.85
462.77	6757.13
462.95	6855.43
463.13	6759.47
463.32	6815.64
463.50	6820.32
463.68	6911.60
463.86	6920.96
464.05	6764.15
464.23	6825.00
464.41	7103.53
464.59	6806.28
464.78	7066.08
464.96	7129.27
465.14	6981.82
465.32	7239.28
465.50	7150.34
465.69	7080.12
465.87	6979.48
466.05	7014.59
466.23	7082.46
466.41	7353.96
466.60	7225.23
466.78	7108.21
466.96	7279.07
467.14	7173.74
467.32	7290.77
467.51	7117.57
467.69	7335.24
467.87	7524.82
468.05	7426.52
468.23	7351.62
468.41	7185.44
468.60	7424.18
468.78	7492.05
468.96	7199.49
469.14	7515.46
469.32	7665.25
469.50	7389.07
469.69	7576.31
469.87	7691.00
470.05	7730.79
470.23	7698.02
470.41	7812.71
470.59	7702.70
470.77	7810.37
470.95	7723.77
471.14	7934.42
471.32	7782.28
471.50	7899.31
471.68	7915.69
471.86	7901.65
472.04	8198.90
472.22	8109.96
472.40	8025.70
472.58	8018.68
472.77	8035.06
472.95	8226.98
473.13	8439.97
473.31	8304.22
473.49	8142.72
473.67	8262.09
473.85	8334.65
474.03	8592.11
474.21	8407.20
474.39	8512.53
474.57	8552.32
474.75	8769.99
474.93	8784.03
475.12	8692.75
475.30	8821.48
475.48	8664.66
475.66	8786.37
475.84	8779.35
476.02	8905.74
476.20	9050.85
476.38	9142.13
476.56	9088.30
476.74	9298.95
476.92	9305.97
477.10	9287.25
477.28	9680.46
477.46	9287.25
477.64	9451.08
477.82	9753.01
478.00	9921.53
478.18	9970.68
478.36	10012.81
478.54	9867.70
478.72	9872.38
478.90	9987.07
479.08	10279.63
479.26	10235.16
479.44	10214.10
479.62	10279.63
479.80	10363.89
479.98	10649.44
480.16	10548.79
480.34	10597.95
480.52	10939.66
480.70	11094.14
480.88	10721.99
481.06	10953.71
481.24	10972.43
481.41	11014.56
481.59	11302.45
481.77	11253.30
481.95	11276.70
482.13	11482.67
482.31	11449.90
482.49	11791.62
482.67	11723.74
482.85	11721.40
483.03	11838.43
483.21	12163.76
483.39	12318.24
483.57	12081.85
483.74	12304.20
483.92	12175.47
484.10	12283.13
484.28	12671.66
484.46	12744.22
484.64	12966.57
484.82	12940.82
485.00	13001.68
485.18	13116.36
485.35	13444.04
485.53	13303.60
485.71	13462.76
485.89	13558.72
486.07	13570.43
486.25	13673.41
486.43	13973.00
486.61	13776.39
486.78	14059.60
486.96	13954.27
487.14	14380.25
487.32	14487.92
487.50	14595.58
487.68	14544.09
487.85	14897.51
488.03	14967.73
488.21	14883.47
488.39	15000.49
488.57	15164.33
488.75	15417.11
488.92	15791.59
489.10	15531.80
489.28	15346.89
489.46	16049.05
489.64	15786.91
489.81	16126.29
489.99	15913.30
490.17	16163.74
490.35	16432.90
490.53	16552.27
490.70	16556.95
490.88	16428.22
491.06	16582.70
491.24	16805.05
491.41	16910.37
491.59	16992.29
491.77	17111.66
491.95	17139.74
492.13	17324.65
492.30	17390.18
492.48	17556.36
492.66	17617.21
492.84	17493.16
493.01	17715.51
493.19	17844.24
493.37	18024.47
493.54	18080.64
493.72	18113.41
493.90	17996.38
494.08	18511.30
494.25	18597.90
494.43	18555.77
494.61	18920.89
494.79	19044.94
494.96	18853.02
495.14	18750.03
495.32	19157.28
495.49	19365.59
495.67	19445.17
495.85	19763.48
496.02	19735.40
496.20	19779.87
496.38	19461.55
496.55	19950.73
496.73	20374.36
496.91	20093.50
497.09	20510.11
497.26	20257.34
497.44	20297.13
497.62	20467.98
497.79	20908.01
497.97	20695.02
498.14	20985.24
498.32	20912.69
498.50	21067.16
498.67	21549.31
498.85	21223.98
499.03	21275.47
499.20	21336.32
499.38	21385.47
499.56	21783.37
499.73	21790.39
499.91	21869.97
500.08	21813.79
500.26	21766.98
500.44	21965.93
500.61	22125.08
500.79	22066.57
500.97	22267.86
501.14	22698.52
501.32	22569.79
501.49	22651.70
501.67	22546.38
501.84	22487.87
502.02	22405.95
502.20	22546.38
502.37	23211.09
502.55	23192.37
502.72	23197.05
502.90	23145.56
503.07	22888.10
503.25	23129.17
503.43	22979.38
503.60	23267.27
503.78	23447.49
503.95	23695.58
504.13	23625.37
504.30	23665.16
504.48	23700.26
504.65	23821.97
504.83	23882.83
505.01	24002.19
505.18	23798.57
505.36	24589.67
505.53	24332.21
505.71	24098.16
505.88	24435.19
506.06	23946.02
506.23	24774.57
506.41	24552.22
506.58	24645.84
506.76	24474.98
506.93	24683.29
507.11	24702.01
507.28	24727.76
507.46	24868.19
507.63	24919.68
507.81	25106.93
507.98	25219.27
508.16	25008.62
508.33	25495.46
508.50	25261.40
508.68	25507.16
508.85	25841.85
509.03	25696.74
509.20	25876.96
509.38	26136.76
509.55	25972.92
509.73	26422.31
509.90	26359.11
510.08	26019.74
510.25	26171.87
510.42	26728.92
510.60	26647.00
510.77	26759.34
510.95	26738.28
511.12	26405.92
511.30	26562.74
511.47	27030.85
511.64	26955.95
511.82	26759.34
511.99	27070.64
512.17	27075.32
512.34	27356.18
512.51	27316.39
512.69	27157.24
512.86	27218.09
513.04	27693.22
513.21	27461.51
513.38	27641.73
513.56	27424.06
513.73	27672.15
513.90	28044.30
514.08	28060.68
514.25	27992.81
514.43	27772.80
514.60	28219.84
514.77	28393.04
514.95	28123.88
515.12	28229.20
515.29	28217.50
515.47	28437.51
515.64	28348.57
515.81	28339.21
515.99	28741.78
516.16	29043.71
516.33	28732.42
516.51	28952.43
516.68	28573.26
516.85	28790.93
517.03	29003.92
517.20	29284.78
517.37	29074.13
517.54	29537.56
517.72	29305.85
517.89	28973.49
518.06	29319.89
518.24	29324.57
518.41	29434.58
518.58	29422.87
518.75	29729.48
518.93	30005.67
519.10	29759.91
519.27	30160.14
519.45	30036.09
519.62	29972.90
519.79	29944.81
519.96	30246.74
520.14	30338.02
520.31	30190.57
520.48	30225.68
520.65	30558.03
520.83	30733.57
521.00	30768.68
521.17	30646.97
521.34	30724.21
521.52	30654.00
521.69	31096.36
521.86	30927.84
522.03	30899.75
522.20	30852.94
522.38	31171.25
522.55	31349.14
522.72	31152.53
522.89	31398.29
523.07	31482.55
523.24	31365.52
523.41	31367.86
523.58	31281.26
523.75	31449.78
523.92	31613.62
524.10	31716.60
524.27	31496.59
524.44	31648.72
524.61	31967.04
524.78	31901.50
524.96	32055.98
525.13	32004.49
525.30	32264.28
525.47	32320.46
525.64	32285.35
525.81	32346.20
525.98	32596.64
526.16	32285.35
526.33	32718.35
526.50	32716.01
526.67	32655.15
526.84	32615.37
527.01	32409.40
527.18	32751.12
527.36	32896.23
527.53	32800.27
527.70	33223.90
527.87	33347.95
528.04	33132.62
528.21	33156.03
528.38	33158.37
528.55	33219.22
528.72	33244.97
528.89	33450.94
529.07	33556.26
529.24	33369.02
529.41	33502.43
529.58	33394.76
529.75	33638.18
529.92	33472.00
530.09	33432.21
530.26	33652.22
530.43	34115.65
530.60	33509.45
530.77	33905.00
530.94	34022.03
531.11	33996.28
531.28	34059.48
531.46	33809.04
531.63	34153.10
531.80	34256.08
531.97	34426.94
532.14	34249.06
532.31	34457.37
532.48	34323.96
532.65	34476.09
532.82	34651.63
532.99	34574.39
533.16	34403.53
533.33	34869.30
533.50	34646.95
533.67	35021.44
533.84	34485.45
534.01	34696.10
534.18	34562.69
534.35	34981.65
534.52	34918.45
534.69	35122.08
534.86	35215.70
535.03	35159.53
535.20	35035.48
535.37	35332.73
535.54	35449.75
535.71	34972.28
535.88	35676.79
536.05	35466.14
536.22	35367.84
536.38	35730.62
536.55	35468.48
536.72	35189.95
536.89	35461.46
537.06	35562.10
537.23	35655.72
537.40	35693.17
537.57	35470.82
537.74	35672.10
537.91	36477.25
538.08	35857.01
538.25	35885.09
538.42	36034.89
538.59	36650.45
538.75	35770.41
538.92	36287.67
539.09	36708.96
539.26	36594.28
539.43	36290.01
539.60	36755.77
539.77	36430.44
539.94	36966.42
540.11	36655.13
540.28	36627.04
540.44	36664.49
540.61	36673.85
540.78	36327.45
540.95	37134.94
541.12	37022.59
541.29	37266.01
541.46	36954.72
541.62	37132.60
541.79	37102.17
541.96	36584.91
542.13	37280.05
542.30	37104.51
542.47	37748.16
542.63	37429.85
542.80	37834.76
542.97	37738.80
543.14	37741.14
543.31	37771.57
543.48	37354.95
543.64	38319.25
543.81	37996.26
543.98	38455.00
544.15	38227.97
544.32	38644.59
544.48	38726.50
544.65	38183.50
544.82	37832.42
544.99	37801.99
545.16	38216.27
545.32	38581.39
545.49	39030.77
545.66	39147.80
545.83	39363.13
546.00	39325.68
546.16	38834.17
546.33	38670.33
546.50	38059.45
546.67	38632.88
546.83	38117.96
547.00	38291.16
547.17	38295.85
547.34	38616.50
547.50	38595.43
547.67	38895.02
547.84	38822.47
548.00	38923.11
548.17	38766.29
548.34	38728.84
548.51	38721.82
548.67	39292.91
548.84	38958.22
549.01	38944.17
549.18	38895.02
549.34	38827.15
549.51	38677.35
549.68	38944.17
549.84	39140.78
550.01	39318.66
550.18	39079.92
550.34	39501.22
550.51	39328.02
550.68	39232.06
550.84	38651.61
551.01	38944.17
551.18	39154.82
551.34	38986.30
551.51	39381.85
551.68	39531.65
551.84	39416.96
552.01	39321.00
552.18	39482.50
552.34	39054.18
552.51	39618.25
552.68	39346.75
552.84	39529.31
553.01	39908.47
553.18	39749.32
553.34	39625.27
553.51	39725.91
553.67	39529.31
553.84	40498.29
554.01	39737.62
554.17	39929.54
554.34	39854.64
554.51	40271.26
554.67	40147.21
554.84	40205.72
555.00	39805.49
555.17	39746.98
555.33	40402.33
555.50	40093.38
555.67	40053.59
555.83	40163.59
556.00	40353.18
556.16	40383.60
556.33	40460.84
556.50	40196.36
556.66	40222.11
556.83	40282.96
556.99	40348.50
557.16	40418.71
557.32	41062.36
557.49	40481.91
557.65	40315.73
557.82	40465.52
557.98	40414.03
558.15	40505.31
558.32	40552.12
558.48	40594.25
558.65	40620.00
558.81	40486.59
558.98	40643.40
559.14	40751.07
559.31	40348.50
559.47	40533.40
559.64	40533.40
559.80	41111.51
559.97	40549.78
560.13	40507.65
560.30	41060.02
560.46	41024.91
560.63	41301.09
560.79	41144.28
560.96	40992.14
561.12	40849.37
561.29	40545.10
561.45	40966.40
561.61	40643.40
561.78	41071.72
561.94	41453.23
562.11	41015.55
562.27	41464.93
562.44	40671.49
562.60	40847.03
562.77	41006.19
562.93	41233.22
563.10	41282.37
563.26	41095.13
563.42	41600.68
563.59	41350.24
563.75	41469.61
563.92	41415.78
564.08	41102.15
564.24	41336.20
564.41	41352.58
564.57	41464.93
564.74	41095.13
564.90	41188.75
565.07	41280.03
565.23	41188.75
565.39	40896.18
565.56	41361.95
565.72	41832.39
565.88	41354.93
566.05	41450.89
566.21	41198.11
566.38	41041.29
566.54	41698.98
566.70	41792.61
566.87	41741.11
567.03	41567.91
567.19	42036.02
567.36	41228.54
567.52	41464.93
567.68	41471.95
567.85	41539.83
568.01	41949.42
568.17	41490.68
568.34	41881.55
568.50	41703.67
568.66	41635.79
568.83	41619.41
568.99	41801.97
569.15	41696.64
569.32	41621.75
569.48	41287.05
569.64	41418.12
569.81	41759.84
569.97	41752.82
570.13	41710.69
570.30	41666.22
570.46	41565.57
570.62	41682.60
570.78	41792.61
570.95	41371.31
571.11	41598.34
571.27	41329.18
571.43	41581.96
571.60	41745.80
571.76	41947.08
571.92	41675.58
572.09	42263.05
572.25	41708.35
572.41	42087.51
572.57	41773.88
572.74	41794.95
572.90	41743.45
573.06	42134.32
573.22	41986.87
573.38	41710.69
573.55	42160.07
573.71	42759.25
573.87	42410.51
574.03	42347.31
574.20	42153.05
574.36	41944.74
574.52	41975.17
574.68	42040.70
574.84	42101.56
575.01	42162.41
575.17	41727.07
575.33	41895.59
575.49	42096.88
575.65	42569.66
575.82	42398.80
575.98	41771.54
576.14	42628.18
576.30	41984.53
576.46	42059.43
576.62	42068.79
576.79	42007.94
576.95	42099.22
577.11	42403.49
577.27	42398.80
577.43	42075.81
577.59	42052.41
577.75	42155.39
577.92	42164.75
578.08	41846.44
578.24	41984.53
578.40	41958.78
578.56	42272.42
578.72	42438.59
578.88	42611.79
579.04	42380.08
579.21	42171.77
579.37	42206.88
579.53	42974.58
579.69	42181.13
579.85	42417.53
580.01	42054.75
580.17	42192.84
580.33	42337.95
580.49	42485.40
580.65	42363.70
580.82	42426.89
580.98	42583.71
581.14	42457.32
581.30	42511.15
581.46	42141.35
581.62	42618.81
581.78	42192.84
581.94	42202.20
582.10	42160.07
582.26	42581.37
582.42	42497.11
582.58	42602.43
582.74	42703.07
582.90	42426.89
583.06	42728.82
583.22	42443.27
583.38	42614.13
583.54	42848.19
583.70	42504.13
583.86	42302.84
584.02	42335.61
584.18	42873.93
584.34	43328.00
584.50	42370.72
584.66	42206.88
584.82	42281.78
584.98	42796.70
585.14	42422.21
585.30	42124.96
585.46	42581.37
585.62	42153.05
585.78	42454.98
585.94	42202.20
586.10	42178.79
586.26	42653.92
586.42	43044.79
586.58	43217.99
586.74	42494.77
586.90	42260.71
587.06	42740.52
587.22	42590.73
587.38	42403.49
587.54	43115.01
587.70	42810.74
587.86	43100.97
588.02	42953.51
588.18	43058.84
588.34	43164.16
588.49	42515.83
588.65	42515.83
588.81	42564.98
588.97	42555.62
589.13	42501.79
589.29	42696.05
589.45	42792.01
589.61	42646.90
589.77	43061.18
589.93	42859.89
590.08	43119.69
590.24	42995.64
590.40	43353.74
590.56	43217.99
590.72	42693.71
590.88	42845.85
591.04	42981.60
