SpectraSuite Data File
++++++++++++++++++++++++++++++++++++
Date: Fri Oct 04 11:39:34 GMT-05:00 2013
User: price-jones
Dark Spectrum Present: No
Reference Spectrum Present: No
Number of Sampled Component Spectra: 1
Spectrometers: USB2+H05261
Integration Time (usec): 100000 (USB2+H05261)
Spectra Averaged: 1 (USB2+H05261)
Boxcar Smoothing: 0 (USB2+H05261)
Correct for Electrical Dark: No (USB2+H05261)
Strobe/Lamp Enabled: No (USB2+H05261)
Correct for Detector Non-linearity: No (USB2+H05261)
Correct for Stray Light: No (USB2+H05261)
Number of Pixels in Processed Spectrum: 2048
>>>>>Begin Processed Spectral Data<<<<<
365.73	95.96
365.92	95.96
366.12	95.96
366.32	21.06
366.52	37.45
366.72	0.00
366.91	0.00
367.11	0.00
367.31	0.00
367.51	0.00
367.70	0.00
367.90	0.00
368.10	0.00
368.30	0.00
368.49	0.00
368.69	58.51
368.89	9.36
369.09	0.00
369.28	0.00
369.48	0.00
369.68	0.00
369.87	58.51
370.07	0.00
370.27	21.06
370.47	107.66
370.66	79.58
370.86	173.20
371.06	264.48
371.25	159.16
371.45	117.03
371.65	184.90
371.84	210.65
372.04	131.07
372.24	149.79
372.44	198.95
372.63	236.39
372.83	262.14
373.03	191.92
373.22	168.52
373.42	170.86
373.62	245.76
373.81	238.73
374.01	252.78
374.21	238.73
374.40	234.05
374.60	292.57
374.79	241.08
374.99	138.09
375.19	264.48
375.38	215.33
375.58	231.71
375.78	262.14
375.97	229.37
376.17	196.60
376.37	201.29
376.56	262.14
376.76	208.31
376.95	269.16
377.15	262.14
377.35	245.76
377.54	222.35
377.74	229.37
377.93	210.65
378.13	205.97
378.33	325.33
378.52	241.08
378.72	252.78
378.91	292.57
379.11	184.90
379.31	283.20
379.50	212.99
379.70	229.37
379.89	287.89
380.09	276.18
380.28	189.58
380.48	248.10
380.68	252.78
380.87	177.88
381.07	290.23
381.26	266.82
381.46	238.73
381.65	269.16
381.85	222.35
382.04	266.82
382.24	280.86
382.43	229.37
382.63	269.16
382.83	262.14
383.02	248.10
383.22	341.72
383.41	227.03
383.61	283.20
383.80	304.27
384.00	325.33
384.19	266.82
384.39	292.57
384.58	276.18
384.78	299.59
384.97	266.82
385.17	304.27
385.36	271.50
385.56	327.68
385.75	255.12
385.95	362.78
386.14	362.78
386.34	287.89
386.53	287.89
386.72	280.86
386.92	269.16
387.11	273.84
387.31	250.44
387.50	280.86
387.70	234.05
387.89	325.33
388.09	311.29
388.28	259.80
388.48	292.57
388.67	334.70
388.86	269.16
389.06	292.57
389.25	301.93
389.45	325.33
389.64	365.12
389.84	334.70
390.03	325.33
390.22	407.25
390.42	315.97
390.61	330.02
390.81	292.57
391.00	433.00
391.19	390.87
391.39	379.17
391.58	320.65
391.78	339.38
391.97	372.15
392.16	404.91
392.36	334.70
392.55	383.85
392.75	383.85
392.94	442.36
393.13	430.66
393.33	395.55
393.52	379.17
393.71	411.93
393.91	376.83
394.10	379.17
394.29	442.36
394.49	330.02
394.68	418.96
394.88	414.27
395.07	383.85
395.26	442.36
395.46	374.49
395.65	456.40
395.84	479.81
396.04	484.49
396.23	454.06
396.42	402.57
396.62	482.15
396.81	505.56
397.00	500.87
397.19	493.85
397.39	444.70
397.58	475.13
397.77	486.83
397.97	564.07
398.16	496.19
398.35	559.39
398.55	486.83
398.74	521.94
398.93	603.86
399.12	528.96
399.32	521.94
399.51	578.11
399.70	557.05
399.90	566.41
400.09	638.97
400.28	664.71
400.47	657.69
400.67	678.76
400.86	681.10
401.05	688.12
401.24	662.37
401.44	678.76
401.63	643.65
401.82	763.01
402.01	629.60
402.21	657.69
402.40	765.36
402.59	741.95
402.78	777.06
402.97	760.67
403.17	716.20
403.36	786.42
403.55	753.65
403.74	844.93
403.93	777.06
404.13	880.04
404.32	774.72
404.51	840.25
404.70	868.34
404.89	821.53
405.09	856.64
405.28	835.57
405.47	898.77
405.66	908.13
405.85	1006.43
406.05	919.83
406.24	933.87
406.43	933.87
406.62	1081.33
406.81	1027.50
407.00	1015.79
407.20	1050.90
407.39	1074.31
407.58	1062.60
407.77	1181.97
407.96	1008.77
408.15	1142.18
408.34	1167.93
408.54	1062.60
408.73	1118.78
408.92	1100.05
409.11	1188.99
409.30	1165.59
409.49	1184.31
409.68	1179.63
409.87	1284.95
410.07	1179.63
410.26	1233.46
410.45	1348.15
410.64	1233.46
410.83	1317.72
411.02	1362.19
411.21	1308.36
411.40	1364.53
411.59	1409.00
411.78	1322.40
411.98	1434.75
412.17	1451.13
412.36	1511.99
412.55	1486.24
412.74	1549.43
412.93	1500.28
413.12	1579.86
413.31	1547.09
413.50	1565.82
413.69	1689.87
413.88	1743.70
414.07	1736.68
414.26	1795.19
414.45	1727.32
414.64	1713.27
414.83	1732.00
415.02	1902.86
415.22	1809.23
415.41	1959.03
415.60	1870.09
415.79	1989.46
415.98	1919.24
416.17	1942.64
416.36	1933.28
416.55	1919.24
416.74	1963.71
416.93	1975.41
417.12	2069.03
417.31	2050.31
417.50	2047.97
417.69	2024.56
417.88	2104.14
418.07	2127.55
418.26	2136.91
418.45	2230.53
418.64	2190.74
418.83	2253.94
419.02	2188.40
419.21	2246.91
419.39	2298.41
419.58	2272.66
419.77	2218.83
419.96	2413.09
420.15	2338.20
420.34	2368.62
420.53	2466.92
420.72	2509.05
420.91	2417.77
421.10	2462.24
421.29	2534.80
421.48	2361.60
421.67	2668.21
421.86	2450.54
422.05	2396.71
422.24	2483.31
422.43	2382.67
422.61	2560.55
422.80	2605.02
422.99	2574.59
423.18	2635.44
423.37	2609.70
423.56	2532.46
423.75	2642.46
423.94	2530.12
424.13	2509.05
424.32	2546.50
424.50	2651.83
424.69	2766.51
424.88	2789.92
425.07	2649.49
425.26	2567.57
425.45	2614.38
425.64	2672.89
425.83	2689.28
426.01	2663.53
426.20	2745.45
426.39	2698.64
426.58	2663.53
426.77	2654.17
426.96	2745.45
427.15	2787.58
427.33	2700.98
427.52	2747.79
427.71	2825.03
427.90	2841.41
428.09	2864.82
428.28	2848.43
428.46	2850.77
428.65	2871.84
428.84	3030.99
429.03	3038.02
429.22	2806.30
429.40	2972.48
429.59	2871.84
429.78	2785.24
429.97	2909.29
430.16	2930.35
430.34	2913.97
430.53	2986.52
430.72	3091.85
430.91	3035.67
431.10	3035.67
431.28	3122.27
431.47	3190.15
431.66	3178.45
431.85	3063.76
432.03	3248.66
432.22	3335.26
432.41	3225.26
432.60	3215.90
432.79	3243.98
432.97	3173.77
433.16	3251.00
433.35	3187.81
433.54	3335.26
433.72	3260.37
433.91	3211.22
434.10	3370.37
434.28	3384.41
434.47	3309.52
434.66	3300.16
434.85	3431.23
435.03	3468.67
435.22	3536.55
435.41	3815.07
435.59	3782.31
435.78	3747.20
435.97	3632.51
436.16	3562.30
436.34	3426.54
436.53	3428.88
436.72	3576.34
436.90	3672.30
437.09	3702.73
437.28	3449.95
437.46	3534.21
437.65	3611.45
437.84	3693.37
438.02	3702.73
438.21	3620.81
438.40	3581.02
438.58	3779.97
438.77	3761.24
438.96	3779.97
439.14	3843.16
439.33	3911.04
439.52	3929.76
439.70	3985.93
439.89	3985.93
440.08	3922.74
440.26	4007.00
440.45	4009.34
440.63	3918.06
440.82	4175.52
441.01	4219.99
441.19	4159.13
441.38	4198.92
441.57	4222.33
441.75	4128.70
441.94	4428.29
442.12	4358.08
442.31	4280.84
442.50	4168.49
442.68	4294.88
442.87	4411.91
443.05	4306.59
443.24	4505.53
443.43	4538.30
443.61	4461.06
443.80	4535.96
443.98	4491.49
444.17	4255.09
444.35	4440.00
444.54	4517.23
444.73	4538.30
444.91	4507.87
445.10	4526.60
445.28	4557.02
445.47	4559.36
445.65	4645.96
445.84	4505.53
446.02	4575.75
446.21	4440.00
446.39	4587.45
446.58	4491.49
446.77	4770.01
446.95	4578.09
447.14	4601.49
447.32	4650.64
447.51	4638.94
447.69	4510.21
447.88	4526.60
448.06	4690.43
448.25	4634.26
448.43	4538.30
448.62	4662.35
448.80	4667.03
448.99	4765.33
449.17	4835.55
449.36	4568.73
449.54	4851.93
449.73	4887.04
449.91	5020.45
450.10	4837.89
450.28	4931.51
450.46	4868.31
450.65	5036.83
450.83	4957.25
451.02	4819.16
451.20	5032.15
451.39	5036.83
451.57	5142.16
451.76	4830.87
451.94	4809.80
452.13	5067.26
452.31	5015.77
452.49	5013.43
452.68	5034.49
452.86	5041.51
453.05	5137.48
453.23	5200.67
453.42	5163.22
453.60	5118.75
453.78	5151.52
453.97	5011.09
454.15	5095.35
454.34	5170.24
454.52	5254.50
454.70	5144.50
454.89	5338.76
455.07	5263.86
455.26	5420.68
455.44	5352.81
455.62	5315.36
455.81	5420.68
455.99	5406.64
456.17	5521.32
456.36	5544.73
456.54	5397.28
456.73	5540.05
456.91	5682.82
457.09	5540.05
457.28	5533.03
457.46	5633.67
457.64	5823.25
457.83	5703.89
458.01	5605.58
458.19	5610.26
458.38	5673.46
458.56	5778.78
458.74	5841.98
458.93	5790.49
459.11	5877.09
459.29	5806.87
459.48	5811.55
459.66	5912.19
459.84	5909.85
460.03	5984.75
460.21	5771.76
460.39	6026.88
460.57	5872.40
460.76	6040.92
460.94	6057.31
461.12	6010.50
461.31	6033.90
461.49	6115.82
461.67	6001.13
461.85	6097.10
462.04	6204.76
462.22	6282.00
462.40	6160.29
462.59	6113.48
462.77	6244.55
462.95	6260.93
463.13	6384.98
463.32	6244.55
463.50	6359.24
463.68	6331.15
463.86	6319.45
464.05	6291.36
464.23	6312.42
464.41	6483.28
464.59	6483.28
464.78	6450.52
464.96	6413.07
465.14	6305.40
465.32	6516.05
465.50	6480.94
465.69	6516.05
465.87	6394.34
466.05	6569.88
466.23	6670.53
466.41	6525.41
466.60	6916.28
466.78	6640.10
466.96	6686.91
467.14	6654.14
467.32	6525.41
467.51	6864.79
467.69	6448.18
467.87	6782.87
468.05	6717.34
468.23	6813.30
468.41	6626.06
468.60	6853.09
468.78	6942.03
468.96	6558.18
469.14	6850.75
469.32	6895.22
469.50	6684.57
469.69	6988.84
469.87	6988.84
470.05	7103.53
470.23	7014.59
470.41	7042.67
470.59	7220.55
470.77	7075.44
470.95	6951.39
471.14	7307.15
471.32	7075.44
471.50	7445.24
471.68	7133.95
471.86	7281.41
472.04	7342.26
472.22	7529.50
472.40	7304.81
472.58	7545.89
472.77	7400.77
472.95	7499.08
473.13	7709.72
473.31	7499.08
473.49	7754.19
473.67	7588.02
473.85	7632.49
474.03	7829.09
474.21	7826.75
474.39	7875.90
474.57	7955.48
474.75	8084.21
474.93	7992.93
475.12	7969.52
475.30	8006.97
475.48	8131.02
475.66	7974.21
475.84	7955.48
476.02	8383.80
476.20	8180.17
476.38	8472.74
476.56	8287.84
476.74	8397.84
476.92	8428.27
477.10	8638.92
477.28	8713.81
477.46	8561.68
477.64	8706.79
477.82	8788.71
478.00	8971.27
478.18	8896.38
478.36	9111.71
478.54	9060.21
478.72	9057.87
478.90	9186.60
479.08	9210.01
479.26	9217.03
479.44	9430.02
479.62	9626.62
479.80	9362.14
479.98	9533.00
480.16	9617.26
480.34	9699.18
480.52	9778.76
480.70	9879.40
480.88	9799.82
481.06	9940.26
481.24	9881.74
481.41	10176.65
481.59	10207.08
481.77	10237.50
481.95	10183.67
482.13	10413.04
482.31	10462.19
482.49	10750.08
482.67	10719.65
482.85	10750.08
483.03	10897.53
483.21	11042.65
483.39	11136.27
483.57	11044.99
483.74	11002.86
483.92	11206.48
484.10	11227.55
484.28	11580.97
484.46	11400.75
484.64	11571.61
484.82	11623.10
485.00	11688.64
485.18	11990.56
485.35	11908.65
485.53	12056.10
485.71	12304.20
485.89	12393.14
486.07	12187.17
486.25	12599.10
486.43	12351.01
486.61	12465.69
486.78	12547.61
486.96	12720.81
487.14	12910.40
487.32	12903.37
487.50	12879.97
487.68	13046.15
487.85	13163.17
488.03	13369.14
488.21	13853.63
488.39	14022.15
488.57	13694.47
488.75	13701.50
488.92	14157.90
489.10	14097.05
489.28	13996.40
489.46	14356.85
489.64	14185.99
489.81	14471.53
489.99	14295.99
490.17	14565.15
490.35	14920.92
490.53	14785.16
490.70	14939.64
490.88	14899.85
491.06	15208.80
491.24	14684.52
491.41	15417.11
491.59	15562.22
491.77	15253.27
491.95	15447.54
492.13	15789.25
492.30	15606.69
492.48	15815.00
492.66	15772.87
492.84	15934.37
493.01	16079.48
493.19	16233.96
493.37	16229.27
493.54	16493.76
493.72	16449.28
493.90	16477.37
494.08	16638.87
494.25	16802.71
494.43	16989.95
494.61	16989.95
494.79	17397.20
494.96	16879.94
495.14	17106.98
495.32	17303.58
495.49	17514.23
495.67	17467.42
495.85	17607.85
496.02	17736.58
496.20	17741.26
496.38	17888.71
496.55	18024.47
496.73	18209.37
496.91	18162.56
497.09	18267.88
497.26	18562.79
497.44	18237.45
497.62	18286.61
497.79	18518.32
497.97	18504.28
498.14	18944.30
498.32	18864.72
498.50	18813.23
498.67	19297.72
498.85	18918.55
499.03	19445.17
499.20	19129.20
499.38	19489.64
499.56	19379.64
499.73	19609.01
499.91	19381.98
500.08	19695.61
500.26	19667.52
500.44	19814.98
500.61	19831.36
500.79	19730.72
500.97	20011.58
501.14	20393.09
501.32	20180.10
501.49	20163.72
501.67	20271.38
501.84	20365.00
502.02	20194.14
502.20	20423.51
502.37	20573.31
502.55	20568.63
502.72	20575.65
502.90	20627.14
503.07	20711.40
503.25	21198.23
503.43	20741.83
503.60	20964.18
503.78	21128.02
503.95	21223.98
504.13	21158.44
504.30	21273.13
504.48	21048.44
504.65	21387.82
504.83	21298.88
505.01	21612.51
505.18	21525.91
505.36	21745.92
505.53	21813.79
505.71	21628.89
505.88	21811.45
506.06	21998.70
506.23	22059.55
506.41	21902.73
506.58	22167.21
506.76	21951.88
506.93	22251.47
507.11	22417.65
507.28	22214.02
507.46	22642.34
507.63	22541.70
507.81	22771.07
507.98	22483.19
508.16	22923.21
508.33	22876.40
508.50	22773.41
508.68	23009.81
508.85	23335.14
509.03	23349.18
509.20	23096.41
509.38	23091.73
509.55	23714.31
509.73	23461.53
509.90	23295.35
510.08	23311.74
510.25	23672.18
510.42	23819.63
510.60	23826.65
510.77	24070.07
510.95	24109.86
511.12	23555.15
511.30	23737.71
511.47	24056.03
511.64	24439.87
511.82	23967.09
511.99	24051.34
512.17	24556.90
512.34	24261.99
512.51	24704.35
512.69	24734.78
512.86	24641.16
513.04	24561.58
513.21	24540.52
513.38	24882.24
513.56	25165.44
513.73	24643.50
513.90	24912.66
514.08	24903.30
514.25	25193.53
514.43	24945.43
514.60	25303.53
514.77	25074.16
514.95	25413.54
515.12	25362.04
515.29	25411.20
515.47	25781.00
515.64	25741.21
515.81	25525.88
515.99	25525.88
516.16	26436.35
516.33	25912.07
516.51	25993.99
516.68	25748.23
516.85	26115.70
517.03	26001.01
517.20	26345.07
517.37	26534.65
517.54	26293.58
517.72	26459.76
517.89	25914.41
518.06	26471.46
518.24	26279.54
518.41	26228.04
518.58	26515.93
518.75	26742.96
518.93	27330.44
519.10	26794.45
519.27	26841.26
519.45	26958.29
519.62	26892.76
519.79	26719.56
519.96	27122.13
520.14	26986.38
520.31	27007.44
520.48	27473.21
520.65	27208.73
520.83	27475.55
521.00	27290.65
521.17	27171.28
521.34	27068.30
521.52	27510.66
521.69	27852.38
521.86	27927.27
522.03	27995.15
522.20	27857.06
522.38	27948.34
522.55	28041.96
522.72	28023.23
522.89	28449.21
523.07	28477.30
523.24	28088.77
523.41	28683.27
523.58	27840.67
523.75	28531.13
523.92	28313.46
524.10	28219.84
524.27	28467.94
524.44	28428.15
524.61	28884.55
524.78	28776.89
524.96	28439.85
525.13	28889.23
525.30	29029.66
525.47	29003.92
525.64	28945.41
525.81	29069.45
525.98	29347.98
526.16	29137.33
526.33	29134.99
526.50	29074.13
526.67	29214.57
526.84	29624.16
527.01	29259.04
527.18	29809.06
527.36	29315.21
527.53	29495.43
527.70	29851.19
527.87	29539.90
528.04	29551.60
528.21	29603.10
528.38	30024.39
528.55	29982.26
528.72	30316.96
528.89	30038.44
529.07	29764.59
529.24	29855.87
529.41	29839.49
529.58	29949.50
529.75	30033.75
529.92	30431.65
530.09	29984.60
530.26	30099.29
530.43	30232.70
530.60	30029.07
530.77	30225.68
530.94	30078.22
531.11	30167.16
531.28	30033.75
531.46	29900.34
531.63	30672.72
531.80	30778.04
531.97	30625.91
532.14	30883.37
532.31	30504.20
532.48	30661.02
532.65	30834.22
532.82	31084.65
532.99	30752.30
533.16	30806.13
533.33	30962.95
533.50	31307.01
533.67	31257.85
533.84	31133.81
534.01	30749.96
534.18	30998.06
534.35	31194.66
534.52	31370.20
534.69	31854.69
534.86	31314.03
535.03	31290.62
535.20	31480.21
535.37	31496.59
535.54	31159.55
535.71	31580.85
535.88	31700.22
536.05	31821.92
536.22	31637.02
536.38	31704.90
536.55	31969.38
536.72	31838.31
536.89	31388.92
537.06	32114.49
537.23	32072.36
537.40	31805.54
537.57	31894.48
537.74	32109.81
537.91	32474.93
538.08	32128.53
538.25	32378.97
538.42	32496.00
538.59	32470.25
538.75	32020.87
538.92	32231.52
539.09	32271.31
539.26	32229.18
539.43	32847.08
539.60	32907.93
539.77	32559.19
539.94	32865.80
540.11	32989.85
540.28	32676.22
540.44	32875.16
540.61	33031.98
540.78	32889.21
540.95	32973.47
541.12	33411.15
541.29	33008.58
541.46	33195.82
541.62	33116.24
541.79	33577.33
541.96	32989.85
542.13	33160.71
542.30	33420.51
542.47	33357.32
542.63	33551.58
542.80	33628.82
542.97	33670.95
543.14	33766.91
543.31	33574.98
543.48	33628.82
543.64	33715.42
543.81	33771.59
543.98	34171.82
544.15	33614.77
544.32	34096.92
544.48	34129.69
544.65	34314.59
544.82	33949.47
544.99	33839.47
545.16	33886.28
545.32	33993.94
545.49	34672.70
545.66	35063.57
545.83	35089.31
546.00	35157.19
546.16	34316.93
546.33	34630.57
546.50	33893.30
546.67	34206.93
546.83	34045.43
547.00	34066.50
547.17	34433.96
547.34	34127.35
547.50	34686.74
547.67	34951.22
547.84	34223.31
548.00	34810.79
548.17	34534.60
548.34	34464.39
548.51	34480.77
548.67	34855.26
548.84	34719.51
549.01	34801.43
549.18	34270.12
549.34	35019.10
549.51	34646.95
549.68	34581.42
549.84	34576.73
550.01	34595.46
550.18	34607.16
550.34	34904.41
550.51	34995.69
550.68	34876.32
550.84	34368.43
551.01	35147.82
551.18	34696.10
551.34	34981.65
551.51	34689.08
551.68	34934.84
551.84	35182.93
552.01	34712.49
552.18	35079.95
552.34	35061.22
552.51	35285.92
552.68	34998.03
552.84	35136.12
553.01	35416.99
553.18	34895.05
553.34	35096.33
553.51	35220.38
553.67	35150.17
553.84	35622.95
554.01	35243.79
554.17	35536.35
554.34	34965.26
554.51	35391.24
554.67	35529.33
554.84	35295.28
555.00	35306.98
555.17	35072.93
555.33	35152.51
555.50	35122.08
555.67	35232.08
555.83	35349.11
556.00	35260.17
556.16	35510.61
556.33	35161.87
556.50	35653.38
556.66	35559.76
556.83	35173.57
556.99	35821.90
557.16	35571.46
557.32	35358.47
557.49	35852.33
557.65	35379.54
557.82	35424.01
557.98	35498.91
558.15	35548.06
558.32	35885.09
558.48	35709.55
558.65	36006.80
558.81	36034.89
558.98	35751.68
559.14	35885.09
559.31	35896.80
559.47	35892.12
559.64	35934.24
559.80	36091.06
559.97	35524.65
560.13	35849.99
560.30	35964.67
560.46	36243.20
560.63	35601.89
560.79	35714.23
560.96	36212.77
561.12	36151.91
561.29	35959.99
561.45	36172.98
561.61	35835.94
561.78	35913.18
561.94	36102.76
562.11	35784.45
562.27	35484.86
562.44	35917.86
562.60	35955.31
562.77	36081.70
562.93	35632.32
563.10	36198.73
563.26	35959.99
563.42	36275.96
563.59	36407.03
563.75	36458.52
563.92	36285.33
564.08	35789.13
564.24	36062.97
564.41	36013.82
564.57	35782.11
564.74	36334.48
564.90	36212.77
565.07	36268.94
565.23	35931.90
565.39	35929.56
565.56	36346.18
565.72	36311.07
565.88	36170.64
566.05	35971.69
566.21	36250.22
566.38	36107.44
566.54	36210.43
566.70	36404.69
566.87	36636.41
567.03	36123.83
567.19	36879.82
567.36	36327.45
567.52	36212.77
567.68	36264.26
567.85	36123.83
568.01	36287.67
568.17	36147.23
568.34	36184.68
568.50	36343.84
568.66	36500.65
568.83	36273.62
568.99	35873.39
569.15	36287.67
569.32	36154.26
569.48	36133.19
569.64	36224.47
569.81	36339.16
569.97	35929.56
570.13	36322.77
570.30	36807.26
570.46	36367.24
570.62	36280.64
570.78	36208.09
570.95	36411.71
571.11	36542.78
571.27	35871.05
571.43	36147.23
571.60	36669.17
571.76	36229.15
571.92	36652.79
572.09	36290.01
572.25	36669.17
572.41	36184.68
572.57	36620.02
572.74	36477.25
572.90	36435.12
573.06	36484.27
573.22	36030.21
573.38	36601.30
573.55	36084.04
573.71	36676.19
573.87	36781.52
574.03	36591.94
574.20	36793.22
574.36	36711.30
574.52	36767.48
574.68	36610.66
574.84	36477.25
575.01	36503.00
575.17	36657.47
575.33	36271.28
575.49	36231.49
575.65	37010.89
575.82	36472.57
575.98	35847.64
576.14	36905.57
576.30	36170.64
576.46	36484.27
576.62	36392.99
576.79	36652.79
576.95	36856.42
577.11	37006.21
577.27	37085.79
577.43	36692.58
577.59	36278.30
577.75	36641.09
577.92	36327.45
578.08	36236.17
578.24	36287.67
578.40	36306.39
578.56	36643.43
578.72	36795.56
578.88	37071.75
579.04	36624.70
579.21	36924.29
579.37	36456.18
579.53	37060.04
579.69	36638.75
579.85	36540.44
580.01	36769.82
580.17	36245.54
580.33	37141.96
580.49	36994.51
580.65	36685.56
580.82	36528.74
580.98	36456.18
581.14	36467.89
581.30	36868.12
581.46	36692.58
581.62	36463.21
581.78	36552.15
581.94	36676.19
582.10	36481.93
582.26	36774.50
582.42	36935.99
582.58	36830.67
582.74	36982.80
582.90	36994.51
583.06	36730.03
583.22	36650.45
583.38	36507.68
583.54	36285.33
583.70	36692.58
583.86	36591.94
584.02	36648.11
584.18	37195.79
584.34	36753.43
584.50	37179.41
584.66	36268.94
584.82	36570.87
584.98	36568.53
585.14	36652.79
585.30	36238.51
585.46	36451.50
585.62	36503.00
585.78	36435.12
585.94	36725.35
586.10	36561.51
586.26	36755.77
586.42	36938.33
586.58	36954.72
586.74	36849.39
586.90	36613.00
587.06	36343.84
587.22	36753.43
587.38	36582.57
587.54	37202.82
587.70	37490.70
587.86	36673.85
588.02	37029.62
588.18	36959.40
588.34	36816.63
588.49	36835.35
588.65	36818.97
588.81	36725.35
588.97	36404.69
589.13	36308.73
589.29	37076.43
589.45	37010.89
589.61	37160.69
589.77	37036.64
589.93	36966.42
590.08	36842.37
590.24	36943.02
590.40	37001.53
590.56	37397.08
590.72	36657.47
590.88	36315.75
591.04	36788.54
591.20	37193.45
591.35	37376.01
591.51	37282.39
