SpectraSuite Data File
++++++++++++++++++++++++++++++++++++
Date: Fri Oct 04 11:39:28 GMT-05:00 2013
User: price-jones
Dark Spectrum Present: No
Reference Spectrum Present: No
Number of Sampled Component Spectra: 1
Spectrometers: USB2+H05261
Integration Time (usec): 100000 (USB2+H05261)
Spectra Averaged: 1 (USB2+H05261)
Boxcar Smoothing: 0 (USB2+H05261)
Correct for Electrical Dark: No (USB2+H05261)
Strobe/Lamp Enabled: No (USB2+H05261)
Correct for Detector Non-linearity: No (USB2+H05261)
Correct for Stray Light: No (USB2+H05261)
Number of Pixels in Processed Spectrum: 2048
>>>>>Begin Processed Spectral Data<<<<<
365.73	117.03
365.92	117.03
366.12	117.03
366.32	0.00
366.52	0.00
366.72	23.41
366.91	0.00
367.11	0.00
367.31	0.00
367.51	0.00
367.70	0.00
367.90	0.00
368.10	0.00
368.30	0.00
368.49	0.00
368.69	37.45
368.89	0.00
369.09	0.00
369.28	0.00
369.48	0.00
369.68	23.41
369.87	0.00
370.07	18.72
370.27	7.02
370.47	23.41
370.66	77.24
370.86	119.37
371.06	173.20
371.25	184.90
371.45	86.60
371.65	79.58
371.84	163.84
372.04	100.64
372.24	234.05
372.44	194.26
372.63	196.60
372.83	142.77
373.03	224.69
373.22	205.97
373.42	201.29
373.62	224.69
373.81	173.20
374.01	217.67
374.21	217.67
374.40	191.92
374.60	203.63
374.79	243.42
374.99	245.76
375.19	159.16
375.38	241.08
375.58	227.03
375.78	287.89
375.97	215.33
376.17	292.57
376.37	166.18
376.56	187.24
376.76	201.29
376.95	248.10
377.15	234.05
377.35	205.97
377.54	245.76
377.74	236.39
377.93	124.05
378.13	243.42
378.33	212.99
378.52	168.52
378.72	255.12
378.91	245.76
379.11	215.33
379.31	210.65
379.50	264.48
379.70	257.46
379.89	212.99
380.09	147.45
380.28	177.88
380.48	191.92
380.68	280.86
380.87	133.41
381.07	255.12
381.26	297.25
381.46	215.33
381.65	276.18
381.85	220.01
382.04	269.16
382.24	220.01
382.43	217.67
382.63	180.22
382.83	217.67
383.02	248.10
383.22	234.05
383.41	252.78
383.61	301.93
383.80	273.84
384.00	140.43
384.19	276.18
384.39	133.41
384.58	229.37
384.78	257.46
384.97	238.73
385.17	280.86
385.36	318.31
385.56	339.38
385.75	229.37
385.95	262.14
386.14	266.82
386.34	299.59
386.53	262.14
386.72	248.10
386.92	217.67
387.11	245.76
387.31	285.55
387.50	273.84
387.70	236.39
387.89	304.27
388.09	311.29
388.28	262.14
388.48	287.89
388.67	276.18
388.86	360.44
389.06	320.65
389.25	339.38
389.45	330.02
389.64	320.65
389.84	348.74
390.03	318.31
390.22	322.99
390.42	276.18
390.61	297.25
390.81	311.29
391.00	418.96
391.19	327.68
391.39	299.59
391.58	346.40
391.78	348.74
391.97	346.40
392.16	353.42
392.36	397.89
392.55	437.68
392.75	374.49
392.94	351.08
393.13	372.15
393.33	325.33
393.52	315.97
393.71	444.70
393.91	461.09
394.10	355.76
394.29	341.72
394.49	376.83
394.68	437.68
394.88	376.83
395.07	416.62
395.26	362.78
395.46	486.83
395.65	451.72
395.84	456.40
396.04	442.36
396.23	465.77
396.42	507.90
396.62	437.68
396.81	430.66
397.00	449.38
397.19	435.34
397.39	468.11
397.58	475.13
397.77	433.00
397.97	461.09
398.16	440.02
398.35	409.59
398.55	430.66
398.74	458.74
398.93	526.62
399.12	524.28
399.32	535.98
399.51	540.66
399.70	444.70
399.90	507.90
400.09	585.13
400.28	573.43
400.47	535.98
400.67	580.45
400.86	627.26
401.05	655.35
401.24	589.82
401.44	524.28
401.63	538.32
401.82	582.79
402.01	671.73
402.21	631.94
402.40	667.05
402.59	641.31
402.78	660.03
402.97	627.26
403.17	617.90
403.36	702.16
403.55	669.39
403.74	638.97
403.93	725.57
404.13	732.59
404.32	835.57
404.51	723.23
404.70	758.33
404.89	753.65
405.09	800.46
405.28	772.38
405.47	823.87
405.66	805.14
405.85	763.01
406.05	777.06
406.24	734.93
406.43	760.67
406.62	851.96
406.81	840.25
407.00	887.06
407.20	880.04
407.39	875.36
407.58	966.64
407.77	877.70
407.96	823.87
408.15	959.62
408.34	990.05
408.54	950.26
408.73	961.96
408.92	1088.35
409.11	1011.11
409.30	973.66
409.49	999.41
409.68	1022.81
409.87	1041.54
410.07	990.05
410.26	1130.48
410.45	1146.86
410.64	1055.58
410.83	1146.86
411.02	1170.27
411.21	1181.97
411.40	1116.44
411.59	1137.50
411.78	1233.46
411.98	1170.27
412.17	1186.65
412.36	1207.72
412.55	1165.59
412.74	1327.08
412.93	1240.48
413.12	1329.42
413.31	1345.81
413.50	1315.38
413.69	1296.66
413.88	1439.43
414.07	1401.98
414.26	1362.19
414.45	1362.19
414.64	1469.86
414.83	1427.73
415.02	1448.79
415.22	1392.62
415.41	1547.09
415.60	1495.60
415.79	1629.01
415.98	1582.20
416.17	1547.09
416.36	1558.80
416.55	1565.82
416.74	1650.08
416.93	1610.29
417.12	1568.16
417.31	1668.80
417.50	1769.44
417.69	1783.49
417.88	1757.74
418.07	1673.48
418.26	1771.79
418.45	1806.89
418.64	1870.09
418.83	1968.39
419.02	1842.00
419.21	1851.36
419.39	1874.77
419.58	1851.36
419.77	1830.30
419.96	1961.37
420.15	2005.84
420.34	1874.77
420.53	1940.30
420.72	2026.90
420.91	1923.92
421.10	1933.28
421.29	1975.41
421.48	2017.54
421.67	2031.58
421.86	1973.07
422.05	1982.43
422.24	1994.14
422.43	1973.07
422.61	2090.10
422.80	2085.42
422.99	2040.95
423.18	2120.53
423.37	2160.31
423.56	2101.80
423.75	2031.58
423.94	2026.90
424.13	1970.73
424.32	1968.39
424.50	2080.74
424.69	2076.06
424.88	2204.78
425.07	2132.23
425.26	1998.82
425.45	2108.82
425.64	2221.17
425.83	2106.48
426.01	2174.36
426.20	2118.18
426.39	2172.02
426.58	2246.91
426.77	2111.16
426.96	2253.94
427.15	2214.15
427.33	2300.75
427.52	2204.78
427.71	2249.25
427.90	2253.94
428.09	2340.54
428.28	2314.79
428.46	2406.07
428.65	2352.24
428.84	2347.56
429.03	2459.90
429.22	2370.96
429.40	2284.36
429.59	2270.32
429.78	2314.79
429.97	2230.53
430.16	2363.94
430.34	2518.42
430.53	2410.75
430.72	2464.58
430.91	2448.20
431.10	2410.75
431.28	2506.71
431.47	2483.31
431.66	2555.86
431.85	2473.95
432.03	2609.70
432.22	2602.68
432.41	2555.86
432.60	2654.17
432.79	2672.89
432.97	2544.16
433.16	2733.75
433.35	2633.10
433.54	2513.74
433.72	2684.59
433.91	2567.57
434.10	2696.30
434.28	2752.47
434.47	2705.66
434.66	2623.74
434.85	2703.32
435.03	2846.09
435.22	2939.71
435.41	3080.14
435.59	3192.49
435.78	2967.80
435.97	2832.05
436.16	2892.90
436.34	2810.98
436.53	2855.45
436.72	2939.71
436.90	2916.31
437.09	2977.16
437.28	2722.04
437.46	2836.73
437.65	2970.14
437.84	2885.88
438.02	2829.71
438.21	2986.52
438.40	2916.31
438.58	2953.76
438.77	3096.53
438.96	3042.70
439.14	3052.06
439.33	3089.51
439.52	3056.74
439.70	3112.91
439.89	3091.85
440.08	3190.15
440.26	3143.34
440.45	3187.81
440.63	3239.30
440.82	3262.71
441.01	3236.96
441.19	3377.39
441.38	3265.05
441.57	3351.65
441.75	3307.18
441.94	3314.20
442.12	3571.66
442.31	3581.02
442.50	3522.51
442.68	3566.98
442.87	3487.40
443.05	3428.88
443.24	3466.33
443.43	3571.66
443.61	3606.77
443.80	3644.21
443.98	3541.23
444.17	3492.08
444.35	3674.64
444.54	3616.13
444.73	3644.21
444.91	3559.95
445.10	3566.98
445.28	3552.93
445.47	3569.32
445.65	3604.42
445.84	3581.02
446.02	3658.26
446.21	3716.77
446.39	3623.15
446.58	3665.28
446.77	3667.62
446.95	3566.98
447.14	3562.30
447.32	3740.18
447.51	3655.92
447.69	3765.92
447.88	3688.68
448.06	3742.52
448.25	3756.56
448.43	3679.32
448.62	3562.30
448.80	3801.03
448.99	3768.26
449.17	3824.44
449.36	3779.97
449.54	3810.39
449.73	3882.95
449.91	3882.95
450.10	3929.76
450.28	4042.11
450.46	3901.67
450.65	4056.15
450.83	3967.21
451.02	3901.67
451.20	3932.10
451.39	3995.29
451.57	4002.32
451.76	3922.74
451.94	4002.32
452.13	4128.70
452.31	4011.68
452.49	3915.72
452.68	3941.46
452.86	3978.91
453.05	4243.39
453.23	4126.36
453.42	4077.21
453.60	3918.06
453.78	4177.86
453.97	4117.00
454.15	4255.09
454.34	4152.11
454.52	4187.22
454.70	4138.07
454.89	4149.77
455.07	4348.72
455.26	4318.29
455.44	4437.66
455.62	4184.88
455.81	4301.90
455.99	4306.59
456.17	4236.37
456.36	4344.03
456.54	4393.19
456.73	4423.61
456.91	4482.13
457.09	4461.06
457.28	4547.66
457.46	4449.36
457.64	4603.83
457.83	4542.98
458.01	4470.42
458.19	4566.39
458.38	4582.77
458.56	4638.94
458.74	4538.30
458.93	4608.51
459.11	4690.43
459.29	4690.43
459.48	4760.65
459.66	4706.82
459.84	4896.40
460.03	4819.16
460.21	4741.93
460.39	4674.05
460.57	4631.92
460.76	4699.80
460.94	4835.55
461.12	4858.95
461.31	4844.91
461.49	4727.88
461.67	4915.12
461.85	4966.62
462.04	4856.61
462.22	5118.75
462.40	4966.62
462.59	4851.93
462.77	4894.06
462.95	5020.45
463.13	4947.89
463.32	4940.87
463.50	4971.30
463.68	5130.45
463.86	5109.39
464.05	5006.41
464.23	5102.37
464.41	4992.36
464.59	4957.25
464.78	5135.14
464.96	5114.07
465.14	4945.55
465.32	5116.41
465.50	5184.29
465.69	5191.31
465.87	5015.77
466.05	5273.23
466.23	5097.69
466.41	5317.70
466.60	5390.25
466.78	5205.35
466.96	5315.36
467.14	5273.23
467.32	5383.23
467.51	5198.33
467.69	5247.48
467.87	5434.72
468.05	5350.46
468.23	5233.44
468.41	5327.06
468.60	5434.72
468.78	5355.15
468.96	5378.55
469.14	5427.70
469.32	5535.37
469.50	5411.32
469.69	5521.32
469.87	5673.46
470.05	5628.99
470.23	5619.63
470.41	5600.90
470.59	5727.29
470.77	5757.72
470.95	5703.89
471.14	5715.59
471.32	5514.30
471.50	5781.12
471.68	5888.79
471.86	5694.52
472.04	5884.11
472.22	6019.86
472.40	5827.93
472.58	5839.64
472.77	5856.02
472.95	6150.93
473.13	6188.38
473.31	5799.85
473.49	6076.03
473.67	5989.43
473.85	6052.63
474.03	6221.14
474.21	6160.29
474.39	6293.70
474.57	6335.83
474.75	6333.49
474.93	6427.11
475.12	6118.16
475.30	6331.15
475.48	6370.94
475.66	6291.36
475.84	6590.95
476.02	6504.35
476.20	6541.80
476.38	6644.78
476.56	6750.10
476.74	6691.59
476.92	6553.50
477.10	6729.04
477.28	6853.09
477.46	6677.55
477.64	6869.47
477.82	6965.43
478.00	7136.29
478.18	7112.89
478.36	7204.17
478.54	7162.04
478.72	7412.48
478.90	7283.75
479.08	7470.99
479.26	7349.28
479.44	7637.17
479.62	7599.72
479.80	7674.62
479.98	7616.10
480.16	7716.75
480.34	7791.64
480.52	8011.65
480.70	7906.33
480.88	7653.55
481.06	7763.56
481.24	7782.28
481.41	8065.49
481.59	8208.26
481.77	8353.37
481.95	8318.26
482.13	8336.99
482.31	8374.44
482.49	8564.02
482.67	8482.10
482.85	8554.66
483.03	8606.15
483.21	8746.58
483.39	8872.97
483.57	8805.10
483.74	8994.68
483.92	8966.59
484.10	8924.46
484.28	8973.61
484.46	9193.62
484.64	9294.27
484.82	9191.28
485.00	9320.01
485.18	9579.81
485.35	9554.07
485.53	9537.68
485.71	9717.90
485.89	9729.61
486.07	9687.48
486.25	9947.28
486.43	9937.91
486.61	9886.42
486.78	9977.70
486.96	10279.63
487.14	10155.58
487.32	10153.24
487.50	10511.35
487.68	10333.47
487.85	10511.35
488.03	10796.89
488.21	10785.19
488.39	10743.06
488.57	10766.46
488.75	10839.02
488.92	11204.14
489.10	11073.07
489.28	10988.82
489.46	11178.40
489.64	11309.47
489.81	11637.14
489.99	11372.66
490.17	11552.88
490.35	11854.81
490.53	11658.21
490.70	12032.69
490.88	11815.02
491.06	12152.06
491.24	11784.60
491.41	12039.72
491.59	12081.85
491.77	12018.65
491.95	12329.94
492.13	12276.11
492.30	12453.99
492.48	12402.50
492.66	12496.12
492.84	12482.08
493.01	12582.72
493.19	12524.21
493.37	13060.19
493.54	12826.14
493.72	12870.61
493.90	12987.63
494.08	13364.46
494.25	13341.05
494.43	13612.56
494.61	13296.58
494.79	13631.28
494.96	13593.83
495.14	13525.96
495.32	13743.63
495.49	13757.67
495.67	13792.78
495.85	13891.08
496.02	14085.34
496.20	14017.47
496.38	14132.15
496.55	14064.28
496.73	14340.46
496.91	14202.37
497.09	14457.49
497.26	14623.67
497.44	14658.78
497.62	14595.58
497.79	14934.96
497.97	14654.09
498.14	14906.87
498.32	15133.90
498.50	14794.53
498.67	15129.22
498.85	14822.61
499.03	15314.13
499.20	15150.29
499.38	15239.23
499.56	15573.92
499.73	15435.83
499.91	15283.70
500.08	15477.96
500.26	15379.66
500.44	15562.22
500.61	15566.90
500.79	15351.57
500.97	15573.92
501.14	15985.86
501.32	15943.73
501.49	16191.83
501.67	15997.56
501.84	15981.18
502.02	16013.95
502.20	16224.59
502.37	16416.52
502.55	16039.69
502.72	16208.21
502.90	16430.56
503.07	16102.89
503.25	16594.40
503.43	16339.28
503.60	16350.98
503.78	16868.24
503.95	16666.95
504.13	17050.80
504.30	16886.97
504.48	16762.92
504.65	17240.39
504.83	17259.11
505.01	16982.93
505.18	16863.56
505.36	17184.21
505.53	17088.25
505.71	17224.00
505.88	17329.33
506.06	17125.70
506.23	17563.38
506.41	17411.25
506.58	17525.93
506.76	17689.77
506.93	17727.22
507.11	17350.39
507.28	17551.68
507.46	17949.57
507.63	17865.31
507.81	18019.78
507.98	17916.80
508.16	18185.96
508.33	18071.28
508.50	17916.80
508.68	17970.63
508.85	18544.06
509.03	18373.21
509.20	18092.34
509.38	18616.62
509.55	18118.09
509.73	18579.17
509.90	18396.61
510.08	18775.78
510.25	18501.93
510.42	18813.23
510.60	18853.02
510.77	19007.49
510.95	18803.86
511.12	18682.16
511.30	18850.67
511.47	19103.45
511.64	19190.05
511.82	19183.03
511.99	19183.03
512.17	19028.56
512.34	19302.40
512.51	19370.27
512.69	19421.77
512.86	19318.78
513.04	19548.15
513.21	19709.65
513.38	19737.74
513.56	19412.40
513.73	19515.39
513.90	19506.02
514.08	19627.73
514.25	20025.62
514.43	20170.74
514.60	20081.80
514.77	19807.95
514.95	20374.36
515.12	19894.55
515.29	19845.40
515.47	20425.86
515.64	20292.44
515.81	20201.16
515.99	20697.36
516.16	20374.36
516.33	20800.34
516.51	20636.50
516.68	20568.63
516.85	20229.25
517.03	20484.37
517.20	20753.53
517.37	20793.32
517.54	20980.56
517.72	20652.89
517.89	20821.41
518.06	20697.36
518.24	20746.51
518.41	21057.80
518.58	20975.88
518.75	20732.47
518.93	21069.50
519.10	21167.80
519.27	21242.70
519.45	20952.48
519.62	21135.04
519.79	21561.02
519.96	21458.03
520.14	21408.88
520.31	21465.05
520.48	21385.47
520.65	21561.02
520.83	21626.55
521.00	21546.97
521.17	21245.04
521.34	21724.85
521.52	22012.74
521.69	21827.84
521.86	21869.97
522.03	22106.36
522.20	22391.91
522.38	21928.48
522.55	22104.02
522.72	22064.23
522.89	22183.60
523.07	22567.45
523.24	22085.30
523.41	22171.89
523.58	22394.25
523.75	22321.69
523.92	22309.99
524.10	22572.13
524.27	22099.34
524.44	22380.20
524.61	22735.96
524.78	23026.19
524.96	22684.47
525.13	22920.87
525.30	23061.30
525.47	22841.29
525.64	22963.00
525.81	23159.60
525.98	23159.60
526.16	23051.94
526.33	23178.33
526.50	22948.95
526.67	23054.28
526.84	22970.02
527.01	23131.51
527.18	22953.63
527.36	23183.01
527.53	23206.41
527.70	23733.03
527.87	23424.08
528.04	23297.69
528.21	23456.85
528.38	23534.09
528.55	23789.20
528.72	23606.64
528.89	24142.63
529.07	23346.84
529.24	23498.98
529.41	23880.49
529.58	23597.28
529.75	23491.96
529.92	23482.59
530.09	23960.06
530.26	24020.92
530.43	24006.87
530.60	23747.08
530.77	24044.32
530.94	24072.41
531.11	23868.78
531.28	23775.16
531.46	24194.12
531.63	24091.13
531.80	24343.91
531.97	24194.12
532.14	24685.63
532.31	24112.20
532.48	24336.89
532.65	24301.78
532.82	24599.03
532.99	24362.64
533.16	24224.54
533.33	24346.25
533.50	24762.87
533.67	24531.15
533.84	24446.90
534.01	24460.94
534.18	24432.85
534.35	24748.82
534.52	24826.06
534.69	24877.55
534.86	24713.72
535.03	24615.41
535.20	24940.75
535.37	25195.87
535.54	24910.32
535.71	24957.13
535.88	24828.40
536.05	25177.14
536.22	24863.51
536.38	25607.80
536.55	25097.56
536.72	25207.57
536.89	25135.01
537.06	25331.62
537.23	25324.60
537.40	25181.82
537.57	25060.12
537.74	25443.96
537.91	25862.92
538.08	25551.63
538.25	25256.72
538.42	25511.84
538.59	25261.40
538.75	25523.54
538.92	25600.78
539.09	25242.68
539.26	25942.50
539.43	25891.01
539.60	25675.68
539.77	25851.22
539.94	25776.32
540.11	25872.28
540.28	26043.14
540.44	25745.89
540.61	25998.67
540.78	26059.52
540.95	26216.34
541.12	26398.90
541.29	26113.36
541.46	26480.82
541.62	25986.97
541.79	26663.38
541.96	26373.16
542.13	26333.37
542.30	26607.21
542.47	26508.91
542.63	26352.09
542.80	26782.75
542.97	27108.08
543.14	26359.11
543.31	26771.05
543.48	26857.65
543.64	26806.16
543.81	27026.17
543.98	27199.37
544.15	26916.16
544.32	27236.81
544.48	27295.33
544.65	26775.73
544.82	26836.58
544.99	26546.36
545.16	27054.25
545.32	26969.99
545.49	27658.11
545.66	27985.79
545.83	28107.49
546.00	28304.10
546.16	27339.80
546.33	27407.67
546.50	27098.72
546.67	27239.15
546.83	26925.52
547.00	27089.36
547.17	27498.95
547.34	27061.27
547.50	27358.52
547.67	27257.88
547.84	27410.01
548.00	27393.63
548.17	27236.81
548.34	27358.52
548.51	27585.55
548.67	27466.19
548.84	27756.41
549.01	27063.61
549.18	27264.90
549.34	27737.69
549.51	27278.94
549.68	27524.70
549.84	27342.14
550.01	27489.59
550.18	27190.00
550.34	27351.50
550.51	28037.28
550.68	27953.02
550.84	27342.14
551.01	27950.68
551.18	27309.37
551.34	27573.85
551.51	27613.64
551.68	27695.56
551.84	27522.36
552.01	27562.15
552.18	27716.62
552.34	27335.12
552.51	27978.76
552.68	27999.83
552.84	27742.37
553.01	28177.71
553.18	28023.23
553.34	28063.02
553.51	27372.57
553.67	27917.91
553.84	28339.21
554.01	28531.13
554.17	27903.87
554.34	27873.44
554.51	27747.05
554.67	28236.22
554.84	27957.70
555.00	28081.75
555.17	27735.35
555.33	28112.17
555.50	27852.38
555.67	27985.79
555.83	27786.84
556.00	27915.57
556.16	27971.74
556.33	27892.16
556.50	28201.11
556.66	28301.76
556.83	28128.56
556.99	28444.53
557.16	28154.30
557.32	27917.91
557.49	28198.77
557.65	27920.25
557.82	28308.78
557.98	28102.81
558.15	28018.55
558.32	28203.46
558.48	28428.15
558.65	28641.14
558.81	28432.83
558.98	28313.46
559.14	28552.20
559.31	28081.75
559.47	28037.28
559.64	28048.98
559.80	28437.51
559.97	28711.35
560.13	28339.21
560.30	28374.31
560.46	28591.98
560.63	28741.78
560.79	28622.41
560.96	28453.89
561.12	28292.40
561.29	28212.82
561.45	28704.33
561.61	28606.03
561.78	28587.30
561.94	28540.49
562.11	28570.92
562.27	28355.59
562.44	28498.36
562.60	28449.21
562.77	28723.05
562.93	28561.56
563.10	28470.28
563.26	28428.15
563.42	28912.64
563.59	28425.81
563.75	28418.78
563.92	28732.42
564.08	28575.60
564.24	28306.44
564.41	28606.03
564.57	28549.85
564.74	28802.63
564.90	28793.27
565.07	28624.75
565.23	28641.14
565.39	28814.34
565.56	28830.72
565.72	28610.71
565.88	28709.01
566.05	28393.04
566.21	28465.60
566.38	28994.56
566.54	28627.09
566.70	28959.45
566.87	28804.97
567.03	28776.89
567.19	28807.31
567.36	28835.40
567.52	28884.55
567.68	28762.84
567.85	28788.59
568.01	28535.81
568.17	28393.04
568.34	28868.17
568.50	28912.64
568.66	28526.45
568.83	28872.85
568.99	28802.63
569.15	28828.38
569.32	28804.97
569.48	28657.52
569.64	28966.47
569.81	28985.19
569.97	28725.39
570.13	28954.77
570.30	28435.17
570.46	29055.41
570.62	28922.00
570.78	28917.32
570.95	28914.98
571.11	28828.38
571.27	28842.42
571.43	28716.03
571.60	28783.91
571.76	29109.24
571.92	28933.70
572.09	28903.28
572.25	28926.68
572.41	29071.79
572.57	29120.95
572.74	29188.82
572.90	28568.58
573.06	28575.60
573.22	29132.65
573.38	29055.41
573.55	28776.89
573.71	29022.64
573.87	28994.56
574.03	29310.53
574.20	28790.93
574.36	28765.18
574.52	29097.54
574.68	29205.20
574.84	28807.31
575.01	29034.35
575.17	28854.12
575.33	29013.28
575.49	28814.34
575.65	29083.50
575.82	29312.87
575.98	28753.48
576.14	29376.06
576.30	28685.61
576.46	28704.33
576.62	29039.03
576.79	29261.38
576.95	29170.10
577.11	29003.92
577.27	29223.93
577.43	28788.59
577.59	28926.68
577.75	29202.86
577.92	28549.85
578.08	28847.10
578.24	29060.09
578.40	28992.22
578.56	29177.12
578.72	29214.57
578.88	29352.66
579.04	29355.00
579.21	29106.90
579.37	29221.59
579.53	29254.36
579.69	28964.13
579.85	29046.05
580.01	29120.95
580.17	28886.89
580.33	29039.03
580.49	29160.73
580.65	29376.06
580.82	29125.63
580.98	29331.59
581.14	29298.83
581.30	29336.27
581.46	28758.16
581.62	28835.40
581.78	28833.06
581.94	29298.83
582.10	28840.08
582.26	29022.64
582.42	29249.67
582.58	29137.33
582.74	29259.04
582.90	29188.82
583.06	29331.59
583.22	29221.59
583.38	29010.94
583.54	28917.32
583.70	29261.38
583.86	29099.88
584.02	29195.84
584.18	29195.84
584.34	29177.12
584.50	29172.44
584.66	29301.17
584.82	28989.88
584.98	29205.20
585.14	29200.52
585.30	29057.75
585.46	29425.22
585.62	28959.45
585.78	29259.04
585.94	28950.09
586.10	29191.16
586.26	29401.81
586.42	29287.12
586.58	29216.91
586.74	29092.86
586.90	29022.64
587.06	29024.98
587.22	29048.39
587.38	28931.36
587.54	29249.67
587.70	29123.29
587.86	29457.98
588.02	29109.24
588.18	29076.48
588.34	29219.25
588.49	29216.91
588.65	28744.12
588.81	29109.24
588.97	28994.56
589.13	29006.26
589.29	29184.14
589.45	29376.06
589.61	29553.94
589.77	29504.79
589.93	29635.86
590.08	28992.22
590.24	29277.76
590.40	29422.87
590.56	29336.27
590.72	29186.48
590.88	28727.74
591.04	29434.58
591.20	29532.88
591.35	29661.61
591.51	29614.80
591.67	29457.98
591.83	29242.65
591.99	29340.96
