SpectraSuite Data File
++++++++++++++++++++++++++++++++++++
Date: Fri Oct 04 11:40:01 GMT-05:00 2013
User: price-jones
Dark Spectrum Present: No
Reference Spectrum Present: No
Number of Sampled Component Spectra: 1
Spectrometers: USB2+H05261
Integration Time (usec): 100000 (USB2+H05261)
Spectra Averaged: 1 (USB2+H05261)
Boxcar Smoothing: 0 (USB2+H05261)
Correct for Electrical Dark: No (USB2+H05261)
Strobe/Lamp Enabled: No (USB2+H05261)
Correct for Detector Non-linearity: No (USB2+H05261)
Correct for Stray Light: No (USB2+H05261)
Number of Pixels in Processed Spectrum: 2048
>>>>>Begin Processed Spectral Data<<<<<
365.73	102.98
365.92	102.98
366.12	102.98
366.32	0.00
366.52	0.00
366.72	0.00
366.91	0.00
367.11	0.00
367.31	0.00
367.51	0.00
367.70	0.00
367.90	0.00
368.10	0.00
368.30	0.00
368.49	0.00
368.69	0.00
368.89	0.00
369.09	0.00
369.28	0.00
369.48	0.00
369.68	0.00
369.87	32.77
370.07	0.00
370.27	0.00
370.47	0.00
370.66	42.13
370.86	133.41
371.06	210.65
371.25	205.97
371.45	42.13
371.65	100.64
371.84	163.84
372.04	182.56
372.24	234.05
372.44	124.05
372.63	112.35
372.83	245.76
373.03	140.43
373.22	149.79
373.42	210.65
373.62	154.48
373.81	224.69
374.01	224.69
374.21	238.73
374.40	191.92
374.60	215.33
374.79	159.16
374.99	196.60
375.19	184.90
375.38	227.03
375.58	210.65
375.78	236.39
375.97	208.31
376.17	262.14
376.37	182.56
376.56	234.05
376.76	194.26
376.95	220.01
377.15	210.65
377.35	212.99
377.54	140.43
377.74	117.03
377.93	182.56
378.13	250.44
378.33	229.37
378.52	112.35
378.72	208.31
378.91	231.71
379.11	196.60
379.31	117.03
379.50	147.45
379.70	203.63
379.89	236.39
380.09	166.18
380.28	154.48
380.48	222.35
380.68	154.48
380.87	194.26
381.07	231.71
381.26	215.33
381.46	245.76
381.65	175.54
381.85	210.65
382.04	163.84
382.24	173.20
382.43	196.60
382.63	138.09
382.83	222.35
383.02	257.46
383.22	231.71
383.41	198.95
383.61	252.78
383.80	205.97
384.00	112.35
384.19	201.29
384.39	198.95
384.58	250.44
384.78	196.60
384.97	262.14
385.17	243.42
385.36	238.73
385.56	224.69
385.75	250.44
385.95	147.45
386.14	187.24
386.34	241.08
386.53	152.13
386.72	236.39
386.92	248.10
387.11	250.44
387.31	290.23
387.50	210.65
387.70	257.46
387.89	198.95
388.09	198.95
388.28	203.63
388.48	231.71
388.67	257.46
388.86	271.50
389.06	264.48
389.25	290.23
389.45	229.37
389.64	287.89
389.84	351.08
390.03	266.82
390.22	283.20
390.42	308.95
390.61	224.69
390.81	248.10
391.00	245.76
391.19	227.03
391.39	231.71
391.58	238.73
391.78	238.73
391.97	257.46
392.16	297.25
392.36	308.95
392.55	308.95
392.75	222.35
392.94	358.10
393.13	362.78
393.33	311.29
393.52	358.10
393.71	327.68
393.91	301.93
394.10	341.72
394.29	327.68
394.49	330.02
394.68	330.02
394.88	346.40
395.07	318.31
395.26	444.70
395.46	320.65
395.65	362.78
395.84	428.32
396.04	482.15
396.23	337.04
396.42	367.46
396.62	435.34
396.81	383.85
397.00	362.78
397.19	353.42
397.39	404.91
397.58	299.59
397.77	376.83
397.97	344.06
398.16	454.06
398.35	461.09
398.55	376.83
398.74	407.25
398.93	444.70
399.12	451.72
399.32	433.00
399.51	421.30
399.70	465.77
399.90	416.62
400.09	358.10
400.28	414.27
400.47	454.06
400.67	538.32
400.86	465.77
401.05	454.06
401.24	526.62
401.44	561.73
401.63	524.28
401.82	496.19
402.01	512.58
402.21	601.52
402.40	540.66
402.59	550.03
402.78	650.67
402.97	531.30
403.17	599.18
403.36	634.29
403.55	660.03
403.74	603.86
403.93	557.05
404.13	758.33
404.32	676.41
404.51	674.07
404.70	643.65
404.89	531.30
405.09	606.20
405.28	650.67
405.47	664.71
405.66	606.20
405.85	674.07
406.05	603.86
406.24	671.73
406.43	657.69
406.62	765.36
406.81	774.72
407.00	744.29
407.20	746.63
407.39	744.29
407.58	777.06
407.77	770.04
407.96	732.59
408.15	877.70
408.34	840.25
408.54	835.57
408.73	781.74
408.92	851.96
409.11	891.74
409.30	877.70
409.49	884.72
409.68	905.79
409.87	898.77
410.07	968.98
410.26	905.79
410.45	968.98
410.64	910.47
410.83	968.98
411.02	997.07
411.21	1032.18
411.40	1020.47
411.59	931.53
411.78	987.71
411.98	1027.50
412.17	1067.28
412.36	1011.11
412.55	1151.54
412.74	1188.99
412.93	1188.99
413.12	1107.07
413.31	1212.40
413.50	1217.08
413.69	1167.93
413.88	1249.85
414.07	1280.27
414.26	1203.04
414.45	1247.51
414.64	1252.19
414.83	1315.38
415.02	1352.83
415.22	1390.28
415.41	1259.21
415.60	1324.74
415.79	1343.47
415.98	1394.96
416.17	1446.45
416.36	1406.66
416.55	1411.34
416.74	1493.26
416.93	1390.28
417.12	1460.49
417.31	1394.96
417.50	1516.67
417.69	1514.33
417.88	1652.42
418.07	1556.46
418.26	1556.46
418.45	1462.83
418.64	1673.48
418.83	1652.42
419.02	1645.40
419.21	1605.61
419.39	1624.33
419.58	1661.78
419.77	1603.27
419.96	1600.93
420.15	1682.85
420.34	1760.08
420.53	1724.97
420.72	1689.87
420.91	1736.68
421.10	1746.04
421.29	1830.30
421.48	1750.72
421.67	1849.02
421.86	1834.98
422.05	1870.09
422.24	1750.72
422.43	1846.68
422.61	1909.88
422.80	1858.39
422.99	1792.85
423.18	1806.89
423.37	1907.54
423.56	1823.28
423.75	1898.17
423.94	1816.26
424.13	1671.14
424.32	1795.19
424.50	1795.19
424.69	1860.73
424.88	1961.37
425.07	1921.58
425.26	1949.67
425.45	2022.22
425.64	1844.34
425.83	1795.19
426.01	1968.39
426.20	1914.56
426.39	1701.57
426.58	1893.49
426.77	1898.17
426.96	1853.70
427.15	1987.11
427.33	2008.18
427.52	2024.56
427.71	1998.82
427.90	2069.03
428.09	2043.29
428.28	2094.78
428.46	1968.39
428.65	2019.88
428.84	2162.66
429.03	2092.44
429.22	1975.41
429.40	2064.35
429.59	2099.46
429.78	1949.67
429.97	2052.65
430.16	2148.61
430.34	2150.95
430.53	2127.55
430.72	2150.95
430.91	2106.48
431.10	2010.52
431.28	2120.53
431.47	2282.02
431.66	2167.34
431.85	2181.38
432.03	2293.72
432.22	2340.54
432.41	2249.25
432.60	2340.54
432.79	2354.58
432.97	2314.79
433.16	2214.15
433.35	2286.70
433.54	2504.37
433.72	2361.60
433.91	2431.82
434.10	2406.07
434.28	2289.04
434.47	2359.26
434.66	2359.26
434.85	2359.26
435.03	2445.86
435.22	2553.52
435.41	2902.26
435.59	2864.82
435.78	2836.73
435.97	2619.06
436.16	2616.72
436.34	2469.27
436.53	2560.55
436.72	2619.06
436.90	2562.89
437.09	2600.34
437.28	2464.58
437.46	2497.35
437.65	2586.29
437.84	2527.78
438.02	2553.52
438.21	2719.70
438.40	2644.81
438.58	2614.38
438.77	2708.00
438.96	2670.55
439.14	2642.46
439.33	2729.06
439.52	2925.67
439.70	2717.36
439.89	2818.00
440.08	2902.26
440.26	2860.13
440.45	2829.71
440.63	2937.37
440.82	2874.18
441.01	2972.48
441.19	2822.69
441.38	3005.25
441.57	3030.99
441.75	3042.70
441.94	3129.30
442.12	3115.25
442.31	3192.49
442.50	3054.40
442.68	3164.40
442.87	3094.19
443.05	3122.27
443.24	3129.30
443.43	3108.23
443.61	3183.13
443.80	3136.32
443.98	3157.38
444.17	2972.48
444.35	3229.94
444.54	3124.62
444.73	3349.31
444.91	3269.73
445.10	3197.17
445.28	3208.87
445.47	3145.68
445.65	3272.07
445.84	3110.57
446.02	3190.15
446.21	3265.05
446.39	3176.11
446.58	3272.07
446.77	3328.24
446.95	3236.96
447.14	3248.66
447.32	3361.01
447.51	3251.00
447.69	3361.01
447.88	3274.41
448.06	3236.96
448.25	3262.71
448.43	3227.60
448.62	3346.97
448.80	3342.28
448.99	3398.46
449.17	3370.37
449.36	3447.61
449.54	3379.73
449.73	3487.40
449.91	3456.97
450.10	3466.33
450.28	3487.40
450.46	3566.98
450.65	3428.88
450.83	3557.61
451.02	3426.54
451.20	3655.92
451.39	3496.76
451.57	3632.51
451.76	3473.36
451.94	3609.11
452.13	3662.94
452.31	3658.26
452.49	3538.89
452.68	3632.51
452.86	3655.92
453.05	3693.37
453.23	3604.42
453.42	3581.02
453.60	3796.35
453.78	3559.95
453.97	3632.51
454.15	3632.51
454.34	3777.62
454.52	3623.15
454.70	3726.13
454.89	3747.20
455.07	3681.66
455.26	3845.50
455.44	3742.52
455.62	3843.16
455.81	3819.75
455.99	3899.33
456.17	3791.67
456.36	3981.25
456.54	4128.70
456.73	3794.01
456.91	4074.87
457.09	3953.16
457.28	4039.76
457.46	4032.74
457.64	4166.15
457.83	4023.38
458.01	3988.27
458.19	3992.95
458.38	3997.64
458.56	4109.98
458.74	4088.92
458.93	4088.92
459.11	4201.26
459.29	4023.38
459.48	4243.39
459.66	4149.77
459.84	4285.52
460.03	4227.01
460.21	4173.18
460.39	4163.81
460.57	4224.67
460.76	4208.28
460.94	4166.15
461.12	4458.72
461.31	4306.59
461.49	4505.53
461.67	4372.12
461.85	4449.36
462.04	4376.80
462.22	4959.60
462.40	4505.53
462.59	4456.38
462.77	4421.27
462.95	4489.15
463.13	4468.08
463.32	4601.49
463.50	4456.38
463.68	4390.84
463.86	4676.39
464.05	4484.47
464.23	4592.13
464.41	4795.76
464.59	4542.98
464.78	4468.08
464.96	4664.69
465.14	4606.17
465.32	4643.62
465.50	4678.73
465.69	4603.83
465.87	4589.79
466.05	4723.20
466.23	4571.07
466.41	4748.95
466.60	4692.77
466.78	4624.90
466.96	4610.86
467.14	4800.44
467.32	4727.88
467.51	4908.10
467.69	4725.54
467.87	4765.33
468.05	4723.20
468.23	4865.97
468.41	4865.97
468.60	4968.96
468.78	4823.84
468.96	4805.12
469.14	4819.16
469.32	4880.02
469.50	4746.61
469.69	4987.68
469.87	4940.87
470.05	4987.68
470.23	4997.04
470.41	4929.17
470.59	5240.46
470.77	5013.43
470.95	5130.45
471.14	5020.45
471.32	5100.03
471.50	5144.50
471.68	5238.12
471.86	5100.03
472.04	5256.84
472.22	5296.63
472.40	5078.96
472.58	5282.59
472.77	5455.79
472.95	5465.15
473.13	5441.75
473.31	5291.95
473.49	5383.23
473.67	5446.43
473.85	5434.72
474.03	5514.30
474.21	5586.86
474.39	5619.63
474.57	5645.37
474.75	5619.63
474.93	5699.20
475.12	5610.26
475.30	5678.14
475.48	5795.17
475.66	5722.61
475.84	5813.89
476.02	5930.92
476.20	5727.29
476.38	5877.09
476.56	6071.35
476.74	6066.67
476.92	5935.60
477.10	5926.24
477.28	6122.84
477.46	6120.50
477.64	6286.68
477.82	6174.33
478.00	6445.84
478.18	6373.28
478.36	6513.71
478.54	6356.90
478.72	6621.38
478.90	6466.90
479.08	6668.19
479.26	6796.92
479.44	6722.02
479.62	6759.47
479.80	6743.08
479.98	6874.15
480.16	6808.62
480.34	6789.89
480.52	7119.91
480.70	6979.48
480.88	6864.79
481.06	7049.69
481.24	7166.72
481.41	7138.63
481.59	7253.32
481.77	7133.95
481.95	7258.00
482.13	7309.49
482.31	7377.37
482.49	7494.40
482.67	7616.10
482.85	7632.49
483.03	7714.41
483.21	7737.81
483.39	7754.19
483.57	7751.85
483.74	7957.82
483.92	7892.29
484.10	8166.13
484.28	8131.02
484.46	8318.26
484.64	8498.49
484.82	8184.85
485.00	8238.69
485.18	8610.83
485.35	8496.14
485.53	8496.14
485.71	8674.03
485.89	8966.59
486.07	8645.94
486.25	8863.61
486.43	8837.86
486.61	8830.84
486.78	9334.06
486.96	9092.98
487.14	9273.20
487.32	9202.99
487.50	9181.92
487.68	9345.76
487.85	9591.52
488.03	9423.00
488.21	9640.67
488.39	9451.08
488.57	9767.06
488.75	9816.21
488.92	10061.96
489.10	9987.07
489.28	10099.41
489.46	10174.31
489.64	10092.39
489.81	10415.38
489.99	10380.28
490.17	10242.18
490.35	10506.66
490.53	10319.42
490.70	10452.83
490.88	10548.79
491.06	10590.92
491.24	10541.77
491.41	10665.82
491.59	11066.05
491.77	10808.59
491.95	11115.20
492.13	11225.21
492.30	11173.72
492.48	11117.54
492.66	11272.02
492.84	11255.64
493.01	11332.87
493.19	11384.37
493.37	11637.14
493.54	11454.58
493.72	11557.57
493.90	11873.54
494.08	11826.73
494.25	11812.68
494.43	11815.02
494.61	12002.27
494.79	12074.82
494.96	12133.34
495.14	12266.75
495.32	12191.85
495.49	12201.21
495.67	12444.63
495.85	12456.33
496.02	12547.61
496.20	12622.51
496.38	12596.76
496.55	12587.40
496.73	12987.63
496.91	12393.14
497.09	13057.85
497.26	12933.80
497.44	13088.28
497.62	13139.77
497.79	13263.82
497.97	13275.52
498.14	13322.33
498.32	13242.75
498.50	13422.97
498.67	13453.40
498.85	13516.59
499.03	13621.92
499.20	13799.80
499.38	13598.51
499.56	13832.57
499.73	13776.39
499.91	13661.71
500.08	13888.74
500.26	13825.54
500.44	13942.57
500.61	13879.38
500.79	13977.68
500.97	13970.66
501.14	14492.60
501.32	14090.02
501.49	14354.51
501.67	14193.01
501.84	14366.21
502.02	14398.98
502.20	14288.97
502.37	14637.71
502.55	14637.71
502.72	14654.09
502.90	14600.26
503.07	14530.05
503.25	14668.14
503.43	14593.24
503.60	15094.11
503.78	15091.77
503.95	14799.21
504.13	14881.13
504.30	14981.77
504.48	14916.23
504.65	15033.26
504.83	15311.78
505.01	15276.68
505.18	15332.85
505.36	15293.06
505.53	15454.56
505.71	15405.41
505.88	15531.80
506.06	15396.04
506.23	15587.97
506.41	15733.08
506.58	15791.59
506.76	15896.92
506.93	15976.50
507.11	15871.17
507.28	15831.38
507.46	15669.89
507.63	15992.88
507.81	16149.70
507.98	15709.68
508.16	16063.10
508.33	16240.98
508.50	16114.59
508.68	16299.49
508.85	16107.57
509.03	16465.67
509.20	16617.80
509.38	16451.63
509.55	16629.51
509.73	16868.24
509.90	16613.12
510.08	16709.08
510.25	16498.44
510.42	16877.60
510.60	16786.32
510.77	17076.55
510.95	16809.73
511.12	16809.73
511.30	16758.24
511.47	16830.79
511.64	17193.58
511.82	17181.87
511.99	17174.85
512.17	17151.45
512.34	17256.77
512.51	17362.09
512.69	17179.53
512.86	17282.52
513.04	17657.00
513.21	17774.03
513.38	17511.89
513.56	18104.04
513.73	17645.30
513.90	17874.67
514.08	17727.22
514.25	17834.88
514.43	17741.26
514.60	17853.61
514.77	17980.00
514.95	17975.31
515.12	17984.68
515.29	17987.02
515.47	18314.69
515.64	18157.88
515.81	17951.91
515.99	18235.11
516.16	18459.81
516.33	18221.07
516.51	18604.92
516.68	18160.22
516.85	18604.92
517.03	18471.51
517.20	18497.25
517.37	18661.09
517.54	18637.69
517.72	18654.07
517.89	18822.59
518.06	18808.54
518.24	18862.38
518.41	18869.40
518.58	18773.44
518.75	18768.76
518.93	19066.00
519.10	19044.94
519.27	19110.47
519.45	18956.00
519.62	19491.98
519.79	19187.71
519.96	18906.85
520.14	19138.56
520.31	19152.60
520.48	19604.33
520.65	19407.72
520.83	19601.99
521.00	19744.76
521.17	19447.51
521.34	19531.77
521.52	19798.59
521.69	19637.09
521.86	19742.42
522.03	19681.56
522.20	19632.41
522.38	19866.47
522.55	19990.52
522.72	19814.98
522.89	19903.92
523.07	19866.47
523.24	19882.85
523.41	20154.35
523.58	19716.67
523.75	20152.01
523.92	19988.18
524.10	19873.49
524.27	20121.59
524.44	20236.27
524.61	20451.60
524.78	20514.80
524.96	20475.01
525.13	20545.22
525.30	20510.11
525.47	20098.18
525.64	20723.10
525.81	20685.65
525.98	20603.74
526.16	20821.41
526.33	21001.63
526.50	20870.56
526.67	20835.45
526.84	20968.86
527.01	20421.17
527.18	21085.89
527.36	21142.06
527.53	20919.71
527.70	21092.91
527.87	20980.56
528.04	20945.45
528.21	20898.64
528.38	21062.48
528.55	21062.48
528.72	21025.03
528.89	21160.78
529.07	21436.97
529.24	21242.70
529.41	21600.80
529.58	21394.84
529.75	21366.75
529.92	21420.58
530.09	21221.64
530.26	21699.11
530.43	21598.46
530.60	21448.67
530.77	21659.32
530.94	21884.01
531.11	21647.61
531.28	21851.24
531.46	21495.48
531.63	21605.49
531.80	21820.81
531.97	21816.13
532.14	22003.38
532.31	21951.88
532.48	21837.20
532.65	21968.27
532.82	21750.60
532.99	22443.40
533.16	21795.07
533.33	22139.13
533.50	22211.68
533.67	22139.13
533.84	21876.99
534.01	21991.67
534.18	21935.50
534.35	22162.53
534.52	22045.51
534.69	22483.19
534.86	22359.14
535.03	22335.73
535.20	22349.78
535.37	22190.62
535.54	22469.14
535.71	22537.02
535.88	22640.00
536.05	22848.31
536.22	22253.81
536.38	22827.24
536.55	22827.24
536.72	22750.01
536.89	22888.10
537.06	22682.13
537.23	22614.26
537.40	22836.61
537.57	22906.82
537.74	22843.63
537.91	23152.58
538.08	23211.09
538.25	22960.66
538.42	22810.86
538.59	22939.59
538.75	23068.32
538.92	22829.59
539.09	23068.32
539.26	23098.75
539.43	23213.43
539.60	23541.11
539.77	22850.65
539.94	23599.62
540.11	23445.15
540.28	23199.39
540.44	23152.58
540.61	23625.37
540.78	23679.20
540.95	23978.79
541.12	23608.98
541.29	23777.50
541.46	23494.30
541.62	23742.39
541.79	23843.04
541.96	23758.78
542.13	23669.84
542.30	23847.72
542.47	24119.22
542.63	24264.33
542.80	24285.40
542.97	24058.37
543.14	24201.14
543.31	24395.40
543.48	24166.03
543.64	24556.90
543.81	24348.59
543.98	24582.65
544.15	24072.41
544.32	24552.22
544.48	24692.65
544.65	24402.43
544.82	24521.79
544.99	24217.52
545.16	24528.81
545.32	24261.99
545.49	24989.90
545.66	25488.43
545.83	25855.90
546.00	25523.54
546.16	25076.50
546.33	24748.82
546.50	24276.04
546.67	24800.32
546.83	24297.10
547.00	24386.04
547.17	24545.20
547.34	24720.74
547.50	24418.81
547.67	25198.21
547.84	24552.22
548.00	24395.40
548.17	24730.10
548.34	24460.94
548.51	24575.62
548.67	25001.60
548.84	24896.28
549.01	24788.61
549.18	24819.04
549.34	24795.64
549.51	24489.03
549.68	24634.14
549.84	24905.64
550.01	25113.95
550.18	24795.64
550.34	25221.61
550.51	25170.12
550.68	25092.88
550.84	24844.79
551.01	24884.58
551.18	24812.02
551.34	24847.13
551.51	24643.50
551.68	24746.48
551.84	25212.25
552.01	25055.43
552.18	25081.18
552.34	24706.70
552.51	25301.19
552.68	24797.98
552.84	25099.90
553.01	24947.77
553.18	24891.60
553.34	24994.58
553.51	25106.93
553.67	25025.01
553.84	25411.20
554.01	25406.52
554.17	25275.45
554.34	25034.37
554.51	24931.39
554.67	25448.64
554.84	25652.27
555.00	25001.60
555.17	25235.66
555.33	25429.92
555.50	25317.57
555.67	25319.92
555.83	25266.08
556.00	24992.24
556.16	25291.83
556.33	25256.72
556.50	25504.82
556.66	25647.59
556.83	25062.46
556.99	25132.67
557.16	25703.76
557.32	25331.62
557.49	25371.41
557.65	25282.47
557.82	25472.05
557.98	25486.09
558.15	25390.13
558.32	25420.56
558.48	25759.94
558.65	25633.55
558.81	25619.50
558.98	25685.04
559.14	25504.82
559.31	25528.22
559.47	25682.70
559.64	25575.03
559.80	25781.00
559.97	25752.91
560.13	25455.67
560.30	25589.08
560.46	25685.04
560.63	25486.09
560.79	25476.73
560.96	25757.60
561.12	25830.15
561.29	25900.37
561.45	25577.37
561.61	25809.09
561.78	25914.41
561.94	26190.59
562.11	25539.93
562.27	25685.04
562.44	25411.20
562.60	25844.20
562.77	25647.59
562.93	25813.77
563.10	26022.08
563.26	25663.97
563.42	26298.26
563.59	25685.04
563.75	25766.96
563.92	26108.68
564.08	25893.35
564.24	25844.20
564.41	25825.47
564.57	25483.75
564.74	25961.22
564.90	25961.22
565.07	25940.16
565.23	26015.05
565.39	25905.05
565.56	25797.38
565.72	25790.36
565.88	25853.56
566.05	25755.26
566.21	25649.93
566.38	26096.97
566.54	26061.87
566.70	26073.57
566.87	25986.97
567.03	25556.31
567.19	26536.99
567.36	26181.23
567.52	25687.38
567.68	25933.14
567.85	25867.60
568.01	25582.06
568.17	26218.68
568.34	25750.57
568.50	26232.72
568.66	26111.02
568.83	25989.31
568.99	26071.23
569.15	26024.42
569.32	25500.14
569.48	26026.76
569.64	26132.08
569.81	25975.27
569.97	26061.87
570.13	26031.44
570.30	25844.20
570.46	26216.34
570.62	25898.03
570.78	25727.17
570.95	26232.72
571.11	25862.92
571.27	25738.87
571.43	25717.81
571.60	26452.73
571.76	25771.64
571.92	26108.68
572.09	26174.21
572.25	26164.85
572.41	26029.10
572.57	26108.68
572.74	26536.99
572.90	26045.48
573.06	25865.26
573.22	25809.09
573.38	26089.95
573.55	25820.79
573.71	26401.24
573.87	26103.99
574.03	25947.18
574.20	26324.01
574.36	26272.51
574.52	26143.78
574.68	26139.10
574.84	26029.10
575.01	26401.24
575.17	26183.57
575.33	26361.45
575.49	25720.15
575.65	26050.16
575.82	26277.19
575.98	25989.31
576.14	26382.52
576.30	26192.94
576.46	25993.99
576.62	26319.32
576.79	26246.77
576.95	26129.74
577.11	26197.62
577.27	26412.95
577.43	26270.17
577.59	26017.40
577.75	26230.38
577.92	26328.69
578.08	26111.02
578.24	25799.73
578.40	26206.98
578.56	26195.28
578.72	26246.77
578.88	26492.52
579.04	26412.95
579.21	26492.52
579.37	26375.50
579.53	26511.25
579.69	26534.65
579.85	25968.24
580.01	26501.89
580.17	25862.92
580.33	25975.27
580.49	26225.70
580.65	26274.85
580.82	26389.54
580.98	26415.29
581.14	26675.09
581.30	26513.59
581.46	26101.65
581.62	26394.22
581.78	26188.25
581.94	26251.45
582.10	26391.88
582.26	26197.62
582.42	26565.08
582.58	25944.84
582.74	26211.66
582.90	26265.49
583.06	26611.89
583.22	26057.18
583.38	26441.03
583.54	26185.91
583.70	26345.07
583.86	26246.77
584.02	26101.65
584.18	26883.39
584.34	26405.92
584.50	26590.83
584.66	26391.88
584.82	26256.13
584.98	26473.80
585.14	26134.42
585.30	26291.24
585.46	26143.78
585.62	26363.79
585.78	26417.63
585.94	26618.91
586.10	26174.21
586.26	26485.50
586.42	26534.65
586.58	26827.22
586.74	26078.25
586.90	26127.40
587.06	26457.42
587.22	26689.13
587.38	26375.50
587.54	26848.29
587.70	26628.27
587.86	26431.67
588.02	26937.23
588.18	26691.47
588.34	26639.98
588.49	26532.31
588.65	26441.03
588.81	26401.24
588.97	26408.26
589.13	26190.59
589.29	26455.08
589.45	26595.51
589.61	26712.53
589.77	26698.49
589.93	26448.05
590.08	26696.15
590.24	26525.29
590.40	26813.18
590.56	26593.17
590.72	26618.91
590.88	26457.42
591.04	26726.58
591.20	26721.90
591.35	26656.36
591.51	26824.88
591.67	26600.19
591.83	26946.59
591.99	26707.85
592.15	26719.56
