SpectraSuite Data File
++++++++++++++++++++++++++++++++++++
Date: Fri Oct 04 11:39:42 GMT-05:00 2013
User: price-jones
Dark Spectrum Present: No
Reference Spectrum Present: No
Number of Sampled Component Spectra: 1
Spectrometers: USB2+H05261
Integration Time (usec): 100000 (USB2+H05261)
Spectra Averaged: 1 (USB2+H05261)
Boxcar Smoothing: 0 (USB2+H05261)
Correct for Electrical Dark: No (USB2+H05261)
Strobe/Lamp Enabled: No (USB2+H05261)
Correct for Detector Non-linearity: No (USB2+H05261)
Correct for Stray Light: No (USB2+H05261)
Number of Pixels in Processed Spectrum: 2048
>>>>>Begin Processed Spectral Data<<<<<
365.73	14.04
365.92	14.04
366.12	14.04
366.32	0.00
366.52	0.00
366.72	18.72
366.91	0.00
367.11	0.00
367.31	0.00
367.51	0.00
367.70	0.00
367.90	0.00
368.10	0.00
368.30	0.00
368.49	0.00
368.69	0.00
368.89	0.00
369.09	0.00
369.28	0.00
369.48	49.15
369.68	0.00
369.87	0.00
370.07	0.00
370.27	7.02
370.47	77.24
370.66	154.48
370.86	203.63
371.06	201.29
371.25	236.39
371.45	152.13
371.65	154.48
371.84	234.05
372.04	198.95
372.24	234.05
372.44	271.50
372.63	322.99
372.83	257.46
373.03	177.88
373.22	189.58
373.42	250.44
373.62	306.61
373.81	234.05
374.01	337.04
374.21	297.25
374.40	255.12
374.60	360.44
374.79	245.76
374.99	231.71
375.19	290.23
375.38	297.25
375.58	229.37
375.78	341.72
375.97	290.23
376.17	320.65
376.37	332.36
376.56	322.99
376.76	262.14
376.95	203.63
377.15	332.36
377.35	332.36
377.54	266.82
377.74	231.71
377.93	266.82
378.13	400.23
378.33	325.33
378.52	311.29
378.72	365.12
378.91	299.59
379.11	290.23
379.31	304.27
379.50	224.69
379.70	348.74
379.89	262.14
380.09	290.23
380.28	290.23
380.48	346.40
380.68	285.55
380.87	315.97
381.07	397.89
381.26	337.04
381.46	311.29
381.65	301.93
381.85	250.44
382.04	322.99
382.24	292.57
382.43	306.61
382.63	285.55
382.83	360.44
383.02	449.38
383.22	376.83
383.41	376.83
383.61	383.85
383.80	381.51
384.00	369.80
384.19	390.87
384.39	306.61
384.58	444.70
384.78	322.99
384.97	386.19
385.17	367.46
385.36	320.65
385.56	341.72
385.75	299.59
385.95	383.85
386.14	393.21
386.34	315.97
386.53	423.64
386.72	360.44
386.92	416.62
387.11	383.85
387.31	379.17
387.50	344.06
387.70	433.00
387.89	365.12
388.09	374.49
388.28	339.38
388.48	421.30
388.67	395.55
388.86	435.34
389.06	351.08
389.25	435.34
389.45	411.93
389.64	351.08
389.84	442.36
390.03	477.47
390.22	447.04
390.42	430.66
390.61	407.25
390.81	362.78
391.00	411.93
391.19	482.15
391.39	433.00
391.58	444.70
391.78	379.17
391.97	519.60
392.16	425.98
392.36	491.51
392.55	472.79
392.75	514.92
392.94	484.49
393.13	470.45
393.33	430.66
393.52	470.45
393.71	564.07
393.91	517.26
394.10	543.00
394.29	535.98
394.49	514.92
394.68	575.77
394.88	610.88
395.07	472.79
395.26	519.60
395.46	561.73
395.65	573.43
395.84	533.64
396.04	629.60
396.23	587.47
396.42	557.05
396.62	627.26
396.81	645.99
397.00	610.88
397.19	631.94
397.39	620.24
397.58	690.46
397.77	585.13
397.97	610.88
398.16	657.69
398.35	662.37
398.55	641.31
398.74	641.31
398.93	697.48
399.12	720.88
399.32	617.90
399.51	669.39
399.70	711.52
399.90	667.05
400.09	716.20
400.28	678.76
400.47	730.25
400.67	805.14
400.86	781.74
401.05	854.30
401.24	767.70
401.44	779.40
401.63	814.51
401.82	809.83
402.01	828.55
402.21	763.01
402.40	910.47
402.59	830.89
402.78	910.47
402.97	800.46
403.17	905.79
403.36	926.85
403.55	863.66
403.74	908.13
403.93	933.87
404.13	1001.75
404.32	959.62
404.51	1015.79
404.70	980.68
404.89	987.71
405.09	1041.54
405.28	1055.58
405.47	978.34
405.66	1036.86
405.85	1008.77
406.05	1151.54
406.24	1100.05
406.43	992.39
406.62	1086.01
406.81	1177.29
407.00	1088.35
407.20	1109.41
407.39	1088.35
407.58	1149.20
407.77	1121.12
407.96	1151.54
408.15	1118.78
408.34	1179.63
408.54	1341.13
408.73	1317.72
408.92	1174.95
409.11	1275.59
409.30	1214.74
409.49	1284.95
409.68	1287.29
409.87	1291.98
410.07	1343.47
410.26	1390.28
410.45	1416.02
410.64	1383.26
410.83	1495.60
411.02	1404.32
411.21	1420.71
411.40	1441.77
411.59	1420.71
411.78	1537.73
411.98	1486.24
412.17	1460.49
412.36	1577.52
412.55	1523.69
412.74	1629.01
412.93	1673.48
413.12	1664.12
413.31	1661.78
413.50	1713.27
413.69	1687.53
413.88	1834.98
414.07	1825.62
414.26	1816.26
414.45	1827.96
414.64	1764.76
414.83	1874.77
415.02	1940.30
415.22	1764.76
415.41	1916.90
415.60	1959.03
415.79	1919.24
415.98	2036.27
416.17	2052.65
416.36	1987.11
416.55	2085.42
416.74	2050.31
416.93	2115.84
417.12	2125.21
417.31	2125.21
417.50	2146.27
417.69	2258.62
417.88	2218.83
418.07	2190.74
418.26	2223.51
418.45	2249.25
418.64	2347.56
418.83	2335.85
419.02	2272.66
419.21	2289.04
419.39	2366.28
419.58	2366.28
419.77	2375.64
419.96	2422.45
420.15	2387.35
420.34	2478.63
420.53	2476.29
420.72	2394.37
420.91	2539.48
421.10	2452.88
421.29	2525.44
421.48	2450.54
421.67	2499.69
421.86	2471.61
422.05	2523.10
422.24	2658.85
422.43	2597.99
422.61	2537.14
422.80	2665.87
422.99	2698.64
423.18	2628.42
423.37	2710.34
423.56	2583.95
423.75	2661.19
423.94	2558.21
424.13	2455.22
424.32	2452.88
424.50	2658.85
424.69	2729.06
424.88	2773.53
425.07	2527.78
425.26	2621.40
425.45	2628.42
425.64	2635.44
425.83	2780.56
426.01	2764.17
426.20	2780.56
426.39	2567.57
426.58	2703.32
426.77	2771.19
426.96	2726.72
427.15	2654.17
427.33	2747.79
427.52	2832.05
427.71	2768.85
427.90	2869.50
428.09	2890.56
428.28	2803.96
428.46	2958.44
428.65	2916.31
428.84	2857.79
429.03	3087.17
429.22	2925.67
429.40	2984.18
429.59	3094.19
429.78	2974.82
429.97	2855.45
430.16	2949.08
430.34	3061.42
430.53	3070.78
430.72	3070.78
430.91	3002.91
431.10	3052.06
431.28	3122.27
431.47	3178.45
431.66	3091.85
431.85	3169.09
432.03	3194.83
432.22	3192.49
432.41	3269.73
432.60	3232.28
432.79	3241.64
432.97	3290.79
433.16	3232.28
433.35	3204.19
433.54	3241.64
433.72	3190.15
433.91	3325.90
434.10	3316.54
434.28	3321.22
434.47	3400.80
434.66	3290.79
434.85	3461.65
435.03	3559.95
435.22	3686.34
435.41	3819.75
435.59	3882.95
435.78	3620.81
435.97	3707.41
436.16	3529.53
436.34	3459.31
436.53	3503.78
436.72	3632.51
436.90	3585.70
437.09	3641.87
437.28	3611.45
437.46	3602.08
437.65	3604.42
437.84	3639.53
438.02	3609.11
438.21	3611.45
438.40	3630.17
438.58	3838.48
438.77	3737.84
438.96	3674.64
439.14	3819.75
439.33	3885.29
439.52	3922.74
439.70	3936.78
439.89	4007.00
440.08	3932.10
440.26	3927.42
440.45	3864.22
440.63	3992.95
440.82	4088.92
441.01	4063.17
441.19	4241.05
441.38	4093.60
441.57	4170.83
441.75	4287.86
441.94	4287.86
442.12	4271.48
442.31	4498.51
442.50	4262.12
442.68	4187.22
442.87	4180.20
443.05	4243.39
443.24	4554.68
443.43	4407.23
443.61	4404.89
443.80	4486.81
443.98	4397.87
444.17	4297.22
444.35	4575.75
444.54	4451.70
444.73	4622.56
444.91	4477.44
445.10	4416.59
445.28	4461.06
445.47	4631.92
445.65	4606.17
445.84	4566.39
446.02	4423.61
446.21	4620.22
446.39	4552.34
446.58	4451.70
446.77	4465.74
446.95	4458.72
447.14	4631.92
447.32	4624.90
447.51	4582.77
447.69	4571.07
447.88	4456.38
448.06	4662.35
448.25	4594.47
448.43	4528.94
448.62	4711.50
448.80	4751.29
448.99	4667.03
449.17	4805.12
449.36	4793.42
449.54	4755.97
449.73	4901.08
449.91	4826.18
450.10	4985.34
450.28	4990.02
450.46	5057.90
450.65	4816.82
450.83	4933.85
451.02	4748.95
451.20	4830.87
451.39	4924.49
451.57	4870.65
451.76	4919.81
451.94	5069.60
452.13	5036.83
452.31	5027.47
452.49	4950.23
452.68	5032.15
452.86	5195.99
453.05	5210.03
453.23	5186.63
453.42	5060.24
453.60	5076.62
453.78	5142.16
453.97	5076.62
454.15	5088.32
454.34	4971.30
454.52	5249.82
454.70	5406.64
454.89	5378.55
455.07	5256.84
455.26	5256.84
455.44	5238.12
455.62	5240.46
455.81	5263.86
455.99	5399.62
456.17	5301.31
456.36	5397.28
456.54	5488.56
456.73	5369.19
456.91	5533.03
457.09	5600.90
457.28	5757.72
457.46	5596.22
457.64	5708.57
457.83	5797.51
458.01	5591.54
458.19	5591.54
458.38	5610.26
458.56	5713.25
458.74	5713.25
458.93	5689.84
459.11	5856.02
459.29	5797.51
459.48	5849.00
459.66	5755.38
459.84	5774.10
460.03	6090.07
460.21	5769.42
460.39	5914.53
460.57	5907.51
460.76	5994.11
460.94	5966.03
461.12	5811.55
461.31	6059.65
461.49	5921.56
461.67	5893.47
461.85	6347.53
462.04	6146.25
462.22	6644.78
462.40	6129.86
462.59	6211.78
462.77	6174.33
462.95	6129.86
463.13	6296.04
463.32	6345.19
463.50	6211.78
463.68	6195.40
463.86	6190.72
464.05	6097.10
464.23	6232.85
464.41	6384.98
464.59	6122.84
464.78	6253.91
464.96	6195.40
465.14	6352.21
465.32	6464.56
465.50	6462.22
465.69	6483.28
465.87	6230.51
466.05	6476.26
466.23	6384.98
466.41	6668.19
466.60	6607.33
466.78	6429.45
466.96	6392.00
467.14	6520.73
467.32	6520.73
467.51	6670.53
467.69	6443.49
467.87	6715.00
468.05	6532.44
468.23	6604.99
468.41	6658.82
468.60	6672.87
468.78	6569.88
468.96	6925.65
469.14	6745.42
469.32	6888.20
469.50	6539.46
469.69	7019.27
469.87	7077.78
470.05	7056.72
470.23	6935.01
470.41	6878.83
470.59	6991.18
470.77	6935.01
470.95	7084.80
471.14	7101.19
471.32	7056.72
471.50	7192.47
471.68	7201.83
471.86	7199.49
472.04	7276.73
472.22	7363.33
472.40	7337.58
472.58	7164.38
472.77	7295.45
472.95	7456.95
473.13	7737.81
473.31	7632.49
473.49	7424.18
473.67	7595.04
473.85	7648.87
474.03	7609.08
474.21	7637.17
474.39	7815.05
474.57	7803.35
474.75	7962.50
474.93	7836.11
475.12	7882.92
475.30	7960.16
475.48	7709.72
475.66	8109.96
475.84	8065.49
476.02	7941.44
476.20	8063.15
476.38	8234.00
476.56	8512.53
476.74	8400.18
476.92	8400.18
477.10	8369.76
477.28	8671.68
477.46	8355.71
477.64	8589.77
477.82	8830.84
478.00	8849.57
478.18	8865.95
478.36	8842.54
478.54	8856.59
478.72	8765.31
478.90	8936.17
479.08	9207.67
479.26	9329.38
479.44	9322.35
479.62	9446.40
479.80	9338.74
479.98	9556.41
480.16	9675.77
480.34	9713.22
480.52	9811.53
480.70	9900.47
480.88	9809.19
481.06	9940.26
481.24	9881.74
481.41	9933.23
481.59	10202.40
481.77	10181.33
481.95	10207.08
482.13	10314.74
482.31	10167.29
482.49	10665.82
482.67	10721.99
482.85	10600.29
483.03	10810.93
483.21	10998.18
483.39	11044.99
483.57	10780.51
483.74	11073.07
483.92	11293.08
484.10	11131.59
484.28	11344.58
484.46	11587.99
484.64	11688.64
484.82	11482.67
485.00	11552.88
485.18	11999.93
485.35	11784.60
485.53	12030.35
485.71	12133.34
485.89	12318.24
486.07	12116.95
486.25	12257.39
486.43	12479.74
486.61	12568.68
486.78	12734.85
486.96	12800.39
487.14	12755.92
487.32	12835.50
487.50	12762.94
487.68	13123.38
487.85	13268.50
488.03	13128.06
488.21	13378.50
488.39	13490.85
488.57	13734.26
488.75	13825.54
488.92	14071.30
489.10	13994.06
489.28	14111.09
489.46	14169.60
489.64	14150.88
489.81	14235.14
489.99	14768.78
490.17	14459.83
490.35	14586.22
490.53	14640.05
490.70	14654.09
490.88	14731.33
491.06	15129.22
491.24	14939.64
491.41	14934.96
491.59	15129.22
491.77	15360.94
491.95	15335.19
492.13	15379.66
492.30	15297.74
492.48	15274.34
492.66	15779.89
492.84	15988.20
493.01	15932.03
493.19	15723.72
493.37	16166.08
493.54	16173.10
493.72	16116.93
493.90	16458.65
494.08	16269.06
494.25	16283.11
494.43	16575.67
494.61	16861.22
494.79	16603.76
494.96	16996.97
495.14	17076.55
495.32	17015.69
495.49	17378.48
495.67	17090.59
495.85	17465.08
496.02	17411.25
496.20	17804.46
496.38	17586.79
496.55	17731.90
496.73	17881.69
496.91	18118.09
497.09	17851.27
497.26	18094.68
497.44	18099.36
497.62	18457.46
497.79	18347.46
497.97	18277.24
498.14	18623.64
498.32	19021.53
498.50	18977.06
498.67	18675.13
498.85	18602.58
499.03	18857.70
499.20	18841.31
499.38	18944.30
499.56	19112.81
499.73	19271.97
499.91	19309.42
500.08	19335.17
500.26	19234.52
500.44	19723.69
500.61	19620.71
500.79	19707.31
500.97	19838.38
501.14	19988.18
501.32	19997.54
501.49	20095.84
501.67	19711.99
501.84	19922.64
502.02	20070.09
502.20	20273.72
502.37	20559.27
502.55	20453.94
502.72	20283.08
502.90	20570.97
503.07	20489.05
503.25	20559.27
503.43	20540.54
503.60	20765.23
503.78	20540.54
503.95	20711.40
504.13	20886.94
504.30	20964.18
504.48	20966.52
504.65	21383.13
504.83	21069.50
505.01	21544.63
505.18	21151.42
505.36	21408.88
505.53	21425.26
505.71	21338.66
505.88	21610.17
506.06	21486.12
506.23	21511.86
506.41	21818.47
506.58	21942.52
506.76	21605.49
506.93	22019.76
507.11	22120.40
507.28	21909.75
507.46	22127.42
507.63	22169.55
507.81	22244.45
507.98	22230.41
508.16	22359.14
508.33	22520.63
508.50	22527.66
508.68	22450.42
508.85	22675.11
509.03	22841.29
509.20	22897.46
509.38	23316.42
509.55	23037.89
509.73	22937.25
509.90	23014.49
510.08	23049.60
510.25	23264.92
510.42	23686.22
510.60	23644.09
510.77	23749.42
510.95	23756.44
511.12	23335.14
511.30	23470.89
511.47	23871.12
511.64	23915.59
511.82	23995.17
511.99	23793.89
512.17	23948.36
512.34	24140.29
512.51	24276.04
512.69	24058.37
512.86	24154.33
513.04	24584.99
513.21	24257.31
513.38	24891.60
513.56	24093.47
513.73	24098.16
513.90	24496.05
514.08	24617.75
514.25	24727.76
514.43	25034.37
514.60	24996.92
514.77	25174.80
514.95	25242.68
515.12	24907.98
515.29	25008.62
515.47	24732.44
515.64	25546.95
515.81	25366.73
515.99	25376.09
516.16	25570.35
516.33	25568.01
516.51	25727.17
516.68	25659.29
516.85	25420.56
517.03	25926.11
517.20	25785.68
517.37	25792.70
517.54	26185.91
517.72	25944.84
517.89	25923.77
518.06	25656.95
518.24	26005.69
518.41	26059.52
518.58	26082.93
518.75	26232.72
518.93	26345.07
519.10	26312.30
519.27	26382.52
519.45	26125.06
519.62	26609.55
519.79	26529.97
519.96	26712.53
520.14	26635.30
520.31	26391.88
520.48	26803.82
520.65	26799.13
520.83	26850.63
521.00	26892.76
521.17	26969.99
521.34	27068.30
521.52	27262.56
521.69	27005.10
521.86	27243.84
522.03	27459.16
522.20	27421.72
522.38	27407.67
522.55	27601.94
522.72	27501.29
522.89	27477.89
523.07	28177.71
523.24	28006.85
523.41	27953.02
523.58	27838.33
523.75	28051.32
523.92	27929.61
524.10	27805.56
524.27	27737.69
524.44	27885.14
524.61	28137.92
524.78	28622.41
524.96	28435.17
525.13	28470.28
525.30	28219.84
525.47	28376.66
525.64	28411.76
525.81	28610.71
525.98	28521.77
526.16	28566.24
526.33	28329.84
526.50	28858.81
526.67	28601.35
526.84	28734.76
527.01	28727.74
527.18	28704.33
527.36	28802.63
527.53	29071.79
527.70	29127.97
527.87	29376.06
528.04	28903.28
528.21	29200.52
528.38	28971.15
528.55	29177.12
528.72	29228.61
528.89	29502.45
529.07	29165.42
529.24	29221.59
529.41	29366.70
529.58	29003.92
529.75	29331.59
529.92	29413.51
530.09	29532.88
530.26	29497.77
530.43	29926.09
530.60	29766.93
530.77	29788.00
530.94	29823.11
531.11	29968.22
531.28	29968.22
531.46	29890.98
531.63	30225.68
531.80	29902.68
531.97	30328.66
532.14	30838.90
532.31	30288.87
532.48	30270.15
532.65	30235.04
532.82	30382.49
532.99	30764.00
533.16	30244.40
533.33	30572.08
533.50	30888.05
533.67	30373.13
533.84	30328.66
534.01	30225.68
534.18	30291.21
534.35	31049.55
534.52	30665.70
534.69	30888.05
534.86	30958.27
535.03	30789.75
535.20	30518.25
535.37	31075.29
535.54	30874.01
535.71	30749.96
535.88	31131.47
536.05	31047.21
536.22	31145.51
536.38	31452.12
536.55	31608.93
536.72	31225.09
536.89	31178.28
537.06	30930.18
537.23	31393.61
537.40	31307.01
537.57	31215.72
537.74	31445.10
537.91	31662.77
538.08	31859.37
538.25	31082.31
538.42	31622.98
538.59	31424.03
538.75	31498.93
538.92	31447.44
539.09	31824.26
539.26	31686.17
539.43	32144.92
539.60	32025.55
539.77	31952.99
539.94	32332.16
540.11	32292.37
540.28	32212.79
540.44	31852.35
540.61	32205.77
540.78	32348.54
540.95	32163.64
541.12	32884.53
541.29	32807.29
541.46	32467.91
541.62	32676.22
541.79	32765.16
541.96	32685.58
542.13	32353.23
542.30	32641.11
542.47	33029.64
542.63	32971.13
542.80	33027.30
542.97	33347.95
543.14	33034.32
543.31	32870.48
543.48	33301.14
543.64	33205.18
543.81	33406.47
543.98	33188.80
544.15	33532.86
544.32	33949.47
544.48	33776.27
544.65	33186.46
544.82	33509.45
544.99	33443.91
545.16	33862.87
545.32	33048.36
545.49	34251.40
545.66	34548.65
545.83	34632.91
546.00	34539.29
546.16	33792.65
546.33	33780.95
546.50	33631.16
546.67	33560.94
546.83	33158.37
547.00	33617.11
547.17	33448.60
547.34	33741.16
547.50	33563.28
547.67	33530.51
547.84	33614.77
548.00	33713.08
548.17	34050.11
548.34	33837.12
548.51	34040.75
548.67	34120.33
548.84	33675.63
549.01	33907.34
549.18	34054.79
549.34	34174.16
549.51	34319.28
549.68	34141.39
549.84	33958.83
550.01	34171.82
550.18	34157.78
550.34	34029.05
550.51	34277.15
550.68	34492.47
550.84	33745.84
551.01	34307.57
551.18	33921.38
551.34	34043.09
551.51	33919.04
551.68	34054.79
551.84	34466.73
552.01	34438.64
552.18	34658.65
552.34	34380.13
552.51	34326.30
552.68	34558.01
552.84	34490.13
553.01	34597.80
553.18	34340.34
553.34	34682.06
553.51	34370.77
553.67	34380.13
553.84	34897.39
554.01	34953.56
554.17	34426.94
554.34	34328.64
554.51	34256.08
554.67	34635.25
554.84	34560.35
555.00	34789.72
555.17	34590.78
555.33	34546.31
555.50	34670.36
555.67	35033.14
555.83	34852.92
556.00	34607.16
556.16	35103.35
556.33	34742.91
556.50	34789.72
556.66	35229.74
556.83	34948.88
556.99	34969.94
557.16	34986.33
557.32	34829.51
557.49	34906.75
557.65	34614.18
557.82	35103.35
557.98	34937.18
558.15	34677.38
558.32	35548.06
558.48	35302.30
558.65	34827.17
558.81	35091.65
558.98	35182.93
559.14	34981.65
559.31	35115.06
559.47	35035.48
559.64	35030.80
559.80	35541.03
559.97	35283.58
560.13	35426.35
560.30	35306.98
560.46	35402.94
560.63	34906.75
560.79	35606.57
560.96	35512.95
561.12	35267.19
561.29	34941.86
561.45	35283.58
561.61	35374.86
561.78	35744.66
561.94	35646.36
562.11	35386.56
562.27	35084.63
562.44	35454.44
562.60	35360.81
562.77	35531.67
562.93	34902.07
563.10	35779.77
563.26	35676.79
563.42	35704.87
563.59	35686.15
563.75	35400.60
563.92	35349.11
564.08	35543.38
564.24	35138.46
564.41	35435.71
564.57	35407.62
564.74	35538.69
564.90	35400.60
565.07	35578.48
565.23	35592.53
565.39	35529.33
565.56	35295.28
565.72	35501.25
565.88	35674.45
566.05	35473.16
566.21	35374.86
566.38	35449.75
566.54	36072.34
566.70	35899.14
566.87	35761.05
567.03	35548.06
567.19	35583.16
567.36	35480.18
567.52	35335.07
567.68	35690.83
567.85	35243.79
568.01	35615.93
568.17	35676.79
568.34	35501.25
568.50	35941.27
568.66	35990.42
568.83	36091.06
568.99	35332.73
569.15	35625.29
569.32	35730.62
569.48	35594.87
569.64	35669.76
569.81	35501.25
569.97	35672.10
570.13	36088.72
570.30	35786.79
570.46	36032.55
570.62	35681.47
570.78	35445.07
570.95	35534.01
571.11	35704.87
571.27	35475.50
571.43	35817.22
571.60	35791.47
571.76	35566.78
571.92	36201.07
572.09	35534.01
572.25	36044.25
572.41	35903.82
572.57	35847.64
572.74	36165.96
572.90	35840.62
573.06	35658.06
573.22	35817.22
573.38	35927.22
573.55	35676.79
573.71	35821.90
573.87	35983.40
574.03	35370.18
574.20	35641.68
574.36	35587.85
574.52	35672.10
574.68	36027.87
574.84	35934.24
575.01	35845.30
575.17	36086.38
575.33	35690.83
575.49	35786.79
575.65	35810.20
575.82	35791.47
575.98	36020.84
576.14	35775.09
576.30	36168.30
576.46	35789.13
576.62	35737.64
576.79	36004.46
576.95	35889.77
577.11	35857.01
577.27	36170.64
577.43	36102.76
577.59	35749.34
577.75	35885.09
577.92	35784.45
578.08	35508.27
578.24	36100.42
578.40	35585.50
578.56	35945.95
578.72	36114.47
578.88	36189.36
579.04	36194.04
579.21	35945.95
579.37	36189.36
579.53	36226.81
579.69	35723.60
579.85	35552.74
580.01	35704.87
580.17	36196.38
580.33	35957.65
580.49	36039.57
580.65	36093.40
580.82	35969.35
580.98	36002.12
581.14	36039.57
581.30	36357.88
581.46	35405.28
581.62	35835.94
581.78	35367.84
581.94	35990.42
582.10	35482.52
582.26	35768.07
582.42	36130.85
582.58	36217.45
582.74	36701.94
582.90	36194.04
583.06	36137.87
583.22	36442.14
583.38	35962.33
583.54	36088.72
583.70	35971.69
583.86	36070.00
584.02	35641.68
584.18	35927.22
584.34	36362.56
584.50	36268.94
584.66	35878.07
584.82	35512.95
584.98	35959.99
585.14	36297.03
585.30	35597.21
585.46	36030.21
585.62	36079.36
585.78	35892.12
585.94	35580.82
586.10	35749.34
586.26	36282.98
586.42	36439.80
586.58	35857.01
586.74	35997.44
586.90	35826.58
587.06	35859.35
587.22	35784.45
587.38	36285.33
587.54	36538.10
587.70	36552.15
587.86	36231.49
588.02	36348.52
588.18	36467.89
588.34	35934.24
588.49	36385.97
588.65	36374.27
588.81	36165.96
588.97	36444.48
589.13	36098.08
589.29	35889.77
589.45	36467.89
589.61	36062.97
589.77	36360.22
589.93	36383.63
590.08	36418.74
590.24	36154.26
590.40	36495.97
590.56	36437.46
590.72	36109.78
590.88	35604.23
591.04	36168.30
591.20	36701.94
591.35	36247.88
591.51	36952.38
