SpectraSuite Data File
++++++++++++++++++++++++++++++++++++
Date: Fri Oct 04 11:39:55 GMT-05:00 2013
User: price-jones
Dark Spectrum Present: No
Reference Spectrum Present: No
Number of Sampled Component Spectra: 1
Spectrometers: USB2+H05261
Integration Time (usec): 100000 (USB2+H05261)
Spectra Averaged: 1 (USB2+H05261)
Boxcar Smoothing: 0 (USB2+H05261)
Correct for Electrical Dark: No (USB2+H05261)
Strobe/Lamp Enabled: No (USB2+H05261)
Correct for Detector Non-linearity: No (USB2+H05261)
Correct for Stray Light: No (USB2+H05261)
Number of Pixels in Processed Spectrum: 2048
>>>>>Begin Processed Spectral Data<<<<<
365.73	168.52
365.92	168.52
366.12	168.52
366.32	0.00
366.52	0.00
366.72	0.00
366.91	0.00
367.11	0.00
367.31	0.00
367.51	0.00
367.70	0.00
367.90	0.00
368.10	0.00
368.30	0.00
368.49	0.00
368.69	0.00
368.89	0.00
369.09	0.00
369.28	0.00
369.48	0.00
369.68	0.00
369.87	30.43
370.07	2.34
370.27	51.49
370.47	98.30
370.66	135.75
370.86	93.62
371.06	156.82
371.25	236.39
371.45	88.94
371.65	159.16
371.84	128.73
372.04	145.11
372.24	170.86
372.44	168.52
372.63	220.01
372.83	236.39
373.03	212.99
373.22	222.35
373.42	191.92
373.62	224.69
373.81	194.26
374.01	217.67
374.21	208.31
374.40	142.77
374.60	229.37
374.79	255.12
374.99	149.79
375.19	173.20
375.38	278.52
375.58	177.88
375.78	231.71
375.97	276.18
376.17	351.08
376.37	222.35
376.56	215.33
376.76	276.18
376.95	177.88
377.15	227.03
377.35	276.18
377.54	238.73
377.74	245.76
377.93	264.48
378.13	224.69
378.33	203.63
378.52	217.67
378.72	311.29
378.91	262.14
379.11	156.82
379.31	196.60
379.50	98.30
379.70	318.31
379.89	306.61
380.09	175.54
380.28	191.92
380.48	194.26
380.68	224.69
380.87	161.50
381.07	212.99
381.26	292.57
381.46	227.03
381.65	248.10
381.85	234.05
382.04	259.80
382.24	210.65
382.43	266.82
382.63	196.60
382.83	220.01
383.02	250.44
383.22	217.67
383.41	259.80
383.61	313.63
383.80	229.37
384.00	276.18
384.19	273.84
384.39	241.08
384.58	290.23
384.78	250.44
384.97	170.86
385.17	259.80
385.36	308.95
385.56	287.89
385.75	283.20
385.95	271.50
386.14	346.40
386.34	266.82
386.53	299.59
386.72	294.91
386.92	287.89
387.11	292.57
387.31	252.78
387.50	313.63
387.70	271.50
387.89	236.39
388.09	278.52
388.28	273.84
388.48	248.10
388.67	355.76
388.86	311.29
389.06	266.82
389.25	388.53
389.45	339.38
389.64	322.99
389.84	308.95
390.03	351.08
390.22	360.44
390.42	285.55
390.61	262.14
390.81	276.18
391.00	362.78
391.19	313.63
391.39	367.46
391.58	315.97
391.78	390.87
391.97	320.65
392.16	299.59
392.36	416.62
392.55	416.62
392.75	248.10
392.94	311.29
393.13	367.46
393.33	411.93
393.52	320.65
393.71	425.98
393.91	313.63
394.10	266.82
394.29	386.19
394.49	388.53
394.68	409.59
394.88	369.80
395.07	440.02
395.26	369.80
395.46	414.27
395.65	475.13
395.84	393.21
396.04	510.24
396.23	358.10
396.42	454.06
396.62	472.79
396.81	414.27
397.00	369.80
397.19	484.49
397.39	451.72
397.58	505.56
397.77	500.87
397.97	496.19
398.16	482.15
398.35	543.00
398.55	489.17
398.74	435.34
398.93	521.94
399.12	465.77
399.32	477.47
399.51	489.17
399.70	538.32
399.90	526.62
400.09	543.00
400.28	585.13
400.47	596.84
400.67	559.39
400.86	575.77
401.05	594.50
401.24	603.86
401.44	601.52
401.63	606.20
401.82	648.33
402.01	592.16
402.21	582.79
402.40	608.54
402.59	662.37
402.78	641.31
402.97	559.39
403.17	648.33
403.36	653.01
403.55	634.29
403.74	653.01
403.93	819.19
404.13	777.06
404.32	772.38
404.51	744.29
404.70	690.46
404.89	786.42
405.09	828.55
405.28	784.08
405.47	727.91
405.66	915.15
405.85	917.49
406.05	802.80
406.24	868.34
406.43	861.32
406.62	809.83
406.81	861.32
407.00	861.32
407.20	870.68
407.39	915.15
407.58	936.21
407.77	894.08
407.96	905.79
408.15	1013.45
408.34	833.23
408.54	901.11
408.73	978.34
408.92	1022.81
409.11	1078.99
409.30	999.41
409.49	1029.84
409.68	1041.54
409.87	1008.77
410.07	1041.54
410.26	1163.25
410.45	1135.16
410.64	1095.37
410.83	1188.99
411.02	1114.10
411.21	1125.80
411.40	1203.04
411.59	1214.74
411.78	1238.14
411.98	1301.34
412.17	1235.80
412.36	1252.19
412.55	1217.08
412.74	1322.40
412.93	1280.27
413.12	1359.85
413.31	1350.49
413.50	1212.40
413.69	1378.58
413.88	1411.34
414.07	1444.11
414.26	1444.11
414.45	1439.43
414.64	1401.98
414.83	1547.09
415.02	1483.90
415.22	1568.16
415.41	1519.01
415.60	1575.18
415.79	1612.63
415.98	1673.48
416.17	1514.33
416.36	1764.76
416.55	1624.33
416.74	1652.42
416.93	1603.27
417.12	1762.42
417.31	1755.40
417.50	1689.87
417.69	1900.52
417.88	1757.74
418.07	1764.76
418.26	1844.34
418.45	1736.68
418.64	1909.88
418.83	1933.28
419.02	1858.39
419.21	1853.70
419.39	1907.54
419.58	1849.02
419.77	1834.98
419.96	1930.94
420.15	2008.18
420.34	1865.41
420.53	1879.45
420.72	1970.73
420.91	1907.54
421.10	2057.33
421.29	2015.20
421.48	1944.99
421.67	2099.46
421.86	2106.48
422.05	2073.71
422.24	2064.35
422.43	2139.25
422.61	2031.58
422.80	2012.86
422.99	2085.42
423.18	2108.82
423.37	2186.06
423.56	2153.29
423.75	2284.36
423.94	2139.25
424.13	1994.14
424.32	1982.43
424.50	2073.71
424.69	2155.63
424.88	2155.63
425.07	2136.91
425.26	2071.37
425.45	2087.76
425.64	2104.14
425.83	2195.42
426.01	2223.51
426.20	2118.18
426.39	2106.48
426.58	2038.61
426.77	2207.13
426.96	2267.98
427.15	2190.74
427.33	2284.36
427.52	2244.57
427.71	2225.85
427.90	2242.23
428.09	2181.38
428.28	2319.47
428.46	2335.85
428.65	2429.48
428.84	2473.95
429.03	2443.52
429.22	2377.98
429.40	2347.56
429.59	2307.77
429.78	2293.72
429.97	2361.60
430.16	2448.20
430.34	2476.29
430.53	2363.94
430.72	2492.67
430.91	2415.43
431.10	2457.56
431.28	2605.02
431.47	2485.65
431.66	2576.93
431.85	2478.63
432.03	2576.93
432.22	2630.76
432.41	2459.90
432.60	2572.25
432.79	2527.78
432.97	2605.02
433.16	2462.24
433.35	2630.76
433.54	2523.10
433.72	2621.40
433.91	2654.17
434.10	2691.62
434.28	2562.89
434.47	2745.45
434.66	2722.04
434.85	2715.02
435.03	2834.39
435.22	2981.84
435.41	3194.83
435.59	3098.87
435.78	2925.67
435.97	3005.25
436.16	2963.12
436.34	2773.53
436.53	2953.76
436.72	2890.56
436.90	2860.13
437.09	2998.23
437.28	2846.09
437.46	2775.88
437.65	2937.37
437.84	3019.29
438.02	2855.45
438.21	2995.89
438.40	2860.13
438.58	3101.21
438.77	3108.23
438.96	2946.73
439.14	3126.96
439.33	3105.89
439.52	3103.55
439.70	3173.77
439.89	3208.87
440.08	3103.55
440.26	3138.66
440.45	3155.04
440.63	3220.58
440.82	3356.33
441.01	3269.73
441.19	3325.90
441.38	3419.52
441.57	3426.54
441.75	3454.63
441.94	3438.25
442.12	3407.82
442.31	3543.57
442.50	3478.04
442.68	3445.27
442.87	3555.27
443.05	3590.38
443.24	3524.85
443.43	3674.64
443.61	3688.68
443.80	3616.13
443.98	3463.99
444.17	3363.35
444.35	3550.59
444.54	3688.68
444.73	3616.13
444.91	3618.47
445.10	3508.46
445.28	3557.61
445.47	3564.64
445.65	3595.06
445.84	3768.26
446.02	3655.92
446.21	3606.77
446.39	3641.87
446.58	3700.39
446.77	3702.73
446.95	3623.15
447.14	3625.49
447.32	3658.26
447.51	3686.34
447.69	3669.96
447.88	3733.15
448.06	3651.24
448.25	3777.62
448.43	3552.93
448.62	3681.66
448.80	3693.37
448.99	3761.24
449.17	3873.59
449.36	3756.56
449.54	3868.91
449.73	3918.06
449.91	3920.40
450.10	3974.23
450.28	3939.12
450.46	4007.00
450.65	3896.99
450.83	3892.31
451.02	3939.12
451.20	4028.06
451.39	3967.21
451.57	3983.59
451.76	3983.59
451.94	3908.69
452.13	4077.21
452.31	4124.02
452.49	4007.00
452.68	4135.73
452.86	4032.74
453.05	3892.31
453.23	4133.39
453.42	4030.40
453.60	4128.70
453.78	4023.38
453.97	4114.66
454.15	4065.51
454.34	4030.40
454.52	4161.47
454.70	4198.92
454.89	4243.39
455.07	4077.21
455.26	4098.28
455.44	4381.48
455.62	4166.15
455.81	4269.14
455.99	4355.74
456.17	4348.72
456.36	4149.77
456.54	4386.16
456.73	4468.08
456.91	4599.15
457.09	4421.27
457.28	4430.63
457.46	4482.13
457.64	4479.79
457.83	4390.84
458.01	4463.40
458.19	4528.94
458.38	4444.68
458.56	4542.98
458.74	4578.09
458.93	4678.73
459.11	4688.09
459.29	4634.26
459.48	4451.70
459.66	4692.77
459.84	4746.61
460.03	4795.76
460.21	4676.39
460.39	4711.50
460.57	4692.77
460.76	4695.11
460.94	4732.56
461.12	4723.20
461.31	4767.67
461.49	4966.62
461.67	4669.37
461.85	4851.93
462.04	4690.43
462.22	5341.10
462.40	5018.11
462.59	4861.29
462.77	4917.47
462.95	5069.60
463.13	5034.49
463.32	4985.34
463.50	5011.09
463.68	5001.72
463.86	4887.04
464.05	4931.51
464.23	5114.07
464.41	5151.52
464.59	5013.43
464.78	5025.13
464.96	5128.11
465.14	5121.09
465.32	5210.03
465.50	5280.25
465.69	5151.52
465.87	5139.82
466.05	5181.95
466.23	5298.97
466.41	5195.99
466.60	5371.53
466.78	5303.65
466.96	5217.05
467.14	5322.38
467.32	5355.15
467.51	5369.19
467.69	5195.99
467.87	5277.91
468.05	5359.83
468.23	5341.10
468.41	5268.55
468.60	5156.20
468.78	5563.45
468.96	5418.34
469.14	5472.17
469.32	5521.32
469.50	5444.09
469.69	5446.43
469.87	5575.16
470.05	5605.58
470.23	5650.05
470.41	5518.98
470.59	5406.64
470.77	5460.47
470.95	5647.71
471.14	5703.89
471.32	5451.11
471.50	5830.27
471.68	5746.02
471.86	5823.25
472.04	5736.65
472.22	5996.45
472.40	5792.83
472.58	5944.96
472.77	5834.96
472.95	5884.11
473.13	6153.27
473.31	5973.05
473.49	5923.90
473.67	6012.84
473.85	6078.37
474.03	6036.24
474.21	6136.88
474.39	6237.53
474.57	6387.32
474.75	6326.47
474.93	6265.61
475.12	6218.80
475.30	6427.11
475.48	6431.79
475.66	6375.62
475.84	6392.00
476.02	6534.78
476.20	6408.39
476.38	6700.95
476.56	6703.29
476.74	6530.09
476.92	6602.65
477.10	6726.70
477.28	6656.48
477.46	6675.21
477.64	6942.03
477.82	7208.85
478.00	7016.93
478.18	7073.10
478.36	7126.93
478.54	7218.21
478.72	7204.17
478.90	7311.83
479.08	7389.07
479.26	7370.35
479.44	7445.24
479.62	7569.29
479.80	7648.87
479.98	7627.81
480.16	7557.59
480.34	7545.89
480.52	7929.74
480.70	7854.84
480.88	7770.58
481.06	7906.33
481.24	7901.65
481.41	7960.16
481.59	8255.07
481.77	8189.53
481.95	8058.46
482.13	8276.13
482.31	8243.37
482.49	8154.43
482.67	8512.53
482.85	8533.59
483.03	8603.81
483.21	8812.12
483.39	8648.28
483.57	8346.35
483.74	8791.05
483.92	8861.27
484.10	8915.10
484.28	8875.31
484.46	9078.94
484.64	9317.67
484.82	9107.02
485.00	9163.20
485.18	9535.34
485.35	9472.15
485.53	9570.45
485.71	9638.33
485.89	9664.07
486.07	9600.88
486.25	9734.29
486.43	9748.33
486.61	9884.08
486.78	10115.80
486.96	10061.96
487.14	10188.35
487.32	10270.27
487.50	10406.02
487.68	10239.84
487.85	10537.09
488.03	10714.97
488.21	10644.76
488.39	10590.92
488.57	10773.49
488.75	11084.78
488.92	11379.68
489.10	11040.31
489.28	11091.80
489.46	11229.89
489.64	11152.65
489.81	11421.81
489.99	11679.27
490.17	11342.24
490.35	11550.54
490.53	11744.81
490.70	11676.93
490.88	11637.14
491.06	11702.68
491.24	11676.93
491.41	11997.59
491.59	12056.10
491.77	12156.74
491.95	12271.43
492.13	12283.13
492.30	12257.39
492.48	12311.22
492.66	12325.26
492.84	12395.48
493.01	12482.08
493.19	12681.02
493.37	12905.71
493.54	12865.92
493.72	12856.56
493.90	12966.57
494.08	12940.82
494.25	13195.94
494.43	13273.18
494.61	13055.51
494.79	13238.07
494.96	13401.91
495.14	13479.15
495.32	13472.12
495.49	13579.79
495.67	13563.40
495.85	13729.58
496.02	13769.37
496.20	14113.43
496.38	13888.74
496.55	14085.34
496.73	14352.16
496.91	14125.13
497.09	14265.57
497.26	14326.42
497.44	14420.04
497.62	14506.64
497.79	14773.46
497.97	14413.02
498.14	14518.34
498.32	14831.97
498.50	14745.38
498.67	14752.40
498.85	14890.49
499.03	14677.50
499.20	14974.75
499.38	14977.09
499.56	15154.97
499.73	15131.56
499.91	15192.42
500.08	15461.58
500.26	15365.62
500.44	15496.69
500.61	15286.04
500.79	15363.28
500.97	15733.08
501.14	16070.12
501.32	15779.89
501.49	15826.70
501.67	15873.51
501.84	15932.03
502.02	15974.16
502.20	15917.98
502.37	16018.63
502.55	16219.91
502.72	15983.52
502.90	16222.25
503.07	16152.04
503.25	16175.44
503.43	16231.62
503.60	16486.73
503.78	16570.99
503.95	16477.37
504.13	16610.78
504.30	16596.74
504.48	16690.36
504.65	16718.45
504.83	16819.09
505.01	16973.56
505.18	16938.46
505.36	17092.93
505.53	16964.20
505.71	16973.56
505.88	17343.37
506.06	17104.64
506.23	17331.67
506.41	17163.15
506.58	17345.71
506.76	17364.43
506.93	17518.91
507.11	17142.08
507.28	17481.46
507.46	17598.49
507.63	17682.75
507.81	17521.25
507.98	17846.58
508.16	17645.30
508.33	17703.81
508.50	17879.35
508.68	17792.75
508.85	18047.87
509.03	17975.31
509.20	18305.33
509.38	18595.56
509.55	18595.56
509.73	18438.74
509.90	18328.74
510.08	18314.69
510.25	18609.60
510.42	18506.62
510.60	18787.48
510.77	19014.51
510.95	18466.83
511.12	18717.26
511.30	18693.86
511.47	18995.79
511.64	18778.12
511.82	19009.83
511.99	18979.40
512.17	19166.65
512.34	19243.88
512.51	19213.46
512.69	19276.65
512.86	19381.98
513.04	19379.64
513.21	19171.33
513.38	19997.54
513.56	19367.93
513.73	19344.53
513.90	19484.96
514.08	19393.68
514.25	19660.50
514.43	19597.31
514.60	19782.21
514.77	19789.23
514.95	19775.19
515.12	19417.08
515.29	19688.59
515.47	20088.82
515.64	19829.02
515.81	20112.22
515.99	20236.27
516.16	20353.30
516.33	20276.06
516.51	20559.27
516.68	20215.21
516.85	20170.74
517.03	20585.01
517.20	20552.24
517.37	20587.35
517.54	20456.28
517.72	20781.62
517.89	20498.41
518.06	20673.95
518.24	20891.62
518.41	20795.66
518.58	20826.09
518.75	20933.75
518.93	21249.72
519.10	21013.33
519.27	21214.62
519.45	20908.01
519.62	21331.64
519.79	21085.89
519.96	20978.22
520.14	21469.73
520.31	21151.42
520.48	20999.29
520.65	20987.58
520.83	21537.61
521.00	21664.00
521.17	21341.00
521.34	21673.36
521.52	21619.53
521.69	21518.89
521.86	21741.24
522.03	21832.52
522.20	21958.91
522.38	21675.70
522.55	21827.84
522.72	21921.46
522.89	21790.39
523.07	22221.05
523.24	22047.85
523.41	22384.88
523.58	21909.75
523.75	22181.26
523.92	22118.06
524.10	22181.26
524.27	22207.00
524.44	22319.35
524.61	22441.06
524.78	22546.38
524.96	22691.49
525.13	22253.81
525.30	22424.67
525.47	22874.06
525.64	22352.12
525.81	22785.12
525.98	22904.48
526.16	22890.44
526.33	22782.77
526.50	23061.30
526.67	22728.94
526.84	22930.23
527.01	22567.45
527.18	22932.57
527.36	22881.08
527.53	23105.77
527.70	23213.43
527.87	23311.74
528.04	23201.73
528.21	23339.82
528.38	23208.75
528.55	23440.47
528.72	23227.48
528.89	23112.79
529.07	23407.70
529.24	23248.54
529.41	23531.75
529.58	23536.43
529.75	23112.79
529.92	23506.00
530.09	23529.41
530.26	23484.94
530.43	23484.94
530.60	23690.90
530.77	23562.17
530.94	23939.00
531.11	23637.07
531.28	23791.55
531.46	23747.08
531.63	24025.60
531.80	24037.30
531.97	24245.61
532.14	24074.75
532.31	23800.91
532.48	23803.25
532.65	24112.20
532.82	23997.51
532.99	24105.18
533.16	23882.83
533.33	24409.45
533.50	24549.88
533.67	24264.33
533.84	24374.34
534.01	24098.16
534.18	24449.24
534.35	24636.48
534.52	24334.55
534.69	24510.09
534.86	24180.07
535.03	24470.30
535.20	24620.10
535.37	24676.27
535.54	24692.65
535.71	24308.80
535.88	24645.84
536.05	24748.82
536.22	24533.50
536.38	24840.11
536.55	25125.65
536.72	24915.00
536.89	24474.98
537.06	24812.02
537.23	24702.01
537.40	24907.98
537.57	24996.92
537.74	24816.70
537.91	25226.29
538.08	25127.99
538.25	24718.40
538.42	25055.43
538.59	25062.46
538.75	24800.32
538.92	25301.19
539.09	25357.36
539.26	25675.68
539.43	25301.19
539.60	25460.35
539.77	25666.31
539.94	25504.82
540.11	25270.76
540.28	25731.85
540.44	25558.65
540.61	25717.81
540.78	25731.85
540.95	26113.36
541.12	25818.45
541.29	26036.12
541.46	25734.19
541.62	25984.63
541.79	26164.85
541.96	25706.10
542.13	26085.27
542.30	26052.50
542.47	26242.09
542.63	26040.80
542.80	26221.02
542.97	26466.78
543.14	26597.85
543.31	26300.60
543.48	26457.42
543.64	26656.36
543.81	26518.27
543.98	26391.88
544.15	26665.72
544.32	26478.48
544.48	26630.62
544.65	26349.75
544.82	26534.65
544.99	26445.71
545.16	26562.74
545.32	26939.57
545.49	27194.68
545.66	27852.38
545.83	27894.50
546.00	27751.73
546.16	27314.05
546.33	26757.00
546.50	26824.88
546.67	26654.02
546.83	26455.08
547.00	26738.28
547.17	26918.50
547.34	26897.44
547.50	26955.95
547.67	27040.21
547.84	26888.07
548.00	26986.38
548.17	26974.67
548.34	26946.59
548.51	27014.46
548.67	26771.05
548.84	27047.23
549.01	27091.70
549.18	27042.55
549.34	27150.21
549.51	26838.92
549.68	26801.47
549.84	27269.58
550.01	26862.33
550.18	27241.50
550.34	27154.90
550.51	27168.94
550.68	27527.04
550.84	27042.55
551.01	27428.74
551.18	27049.57
551.34	26696.15
551.51	27178.30
551.68	27185.32
551.84	27402.99
552.01	27438.10
552.18	27101.06
552.34	27201.71
552.51	27250.86
552.68	26944.25
552.84	27398.31
553.01	27253.20
553.18	27543.42
553.34	27747.05
553.51	27501.29
553.67	27910.89
553.84	27426.40
554.01	27618.32
554.17	27508.32
554.34	27644.07
554.51	27449.80
554.67	27538.74
554.84	27550.45
555.00	27611.30
555.17	27421.72
555.33	27772.80
555.50	27421.72
555.67	27484.91
555.83	27276.60
556.00	27459.16
556.16	28432.83
556.33	27555.13
556.50	27559.81
556.66	27498.95
556.83	27295.33
556.99	27817.27
557.16	28175.37
557.32	27630.02
557.49	27737.69
557.65	27541.08
557.82	27700.24
557.98	27669.81
558.15	27655.77
558.32	27714.28
558.48	27679.18
558.65	28257.29
558.81	28322.82
558.98	27264.90
559.14	27709.60
559.31	27718.96
559.47	27613.64
559.64	27894.50
559.80	27843.01
559.97	27981.10
560.13	27679.18
560.30	27538.74
560.46	27728.33
560.63	27995.15
560.79	28056.00
560.96	27887.48
561.12	27751.73
561.29	27639.39
561.45	27702.58
561.61	27976.42
561.78	28175.37
561.94	28254.95
562.11	27702.58
562.27	28203.46
562.44	28109.83
562.60	27859.40
562.77	28210.48
562.93	27620.66
563.10	28474.96
563.26	28009.19
563.42	28423.47
563.59	28304.10
563.75	28074.73
563.92	27796.20
564.08	28044.30
564.24	27953.02
564.41	28027.92
564.57	27632.36
564.74	27789.18
564.90	28596.67
565.07	28299.42
565.23	28006.85
565.39	27861.74
565.56	28170.69
565.72	27864.08
565.88	27950.68
566.05	28439.85
566.21	27955.36
566.38	28191.75
566.54	27992.81
566.70	28496.02
566.87	28535.81
567.03	28058.34
567.19	28505.38
567.36	28261.97
567.52	28133.24
567.68	27871.10
567.85	28161.33
568.01	28114.52
568.17	28041.96
568.34	28154.30
568.50	28240.90
568.66	28535.81
568.83	28451.55
568.99	27838.33
569.15	28545.17
569.32	27978.76
569.48	27843.01
569.64	28292.40
569.81	28350.91
569.97	28226.86
570.13	28369.63
570.30	27929.61
570.46	28606.03
570.62	28247.93
570.78	28287.71
570.95	28156.64
571.11	28439.85
571.27	28079.41
571.43	27920.25
571.60	27995.15
571.76	28395.38
571.92	28638.80
572.09	28278.35
572.25	28666.88
572.41	28699.65
572.57	28463.25
572.74	28734.76
572.90	28093.45
573.06	28493.68
573.22	28561.56
573.38	28606.03
573.55	28657.52
573.71	28982.85
573.87	28671.56
574.03	28133.24
574.20	28484.32
574.36	28353.25
574.52	28191.75
574.68	28166.01
574.84	28311.12
575.01	28603.69
575.17	28634.11
575.33	28135.58
575.49	28250.27
575.65	28746.46
575.82	28306.44
575.98	28247.93
576.14	28460.91
576.30	28257.29
576.46	28386.02
576.62	28212.82
576.79	28531.13
576.95	28196.43
577.11	28608.37
577.27	28500.70
577.43	28315.80
577.59	28496.02
577.75	28624.75
577.92	27981.10
578.08	28128.56
578.24	27903.87
578.40	28472.62
578.56	28402.40
578.72	28596.67
578.88	28685.61
579.04	28961.79
579.21	28739.44
579.37	28524.11
579.53	28503.04
579.69	28144.94
579.85	28369.63
580.01	28582.62
580.17	28470.28
580.33	28402.40
580.49	28325.16
580.65	28734.76
580.82	28917.32
580.98	28629.43
581.14	28339.21
581.30	28528.79
581.46	28524.11
581.62	28290.06
581.78	28280.69
581.94	28521.77
582.10	28575.60
582.26	28348.57
582.42	28776.89
582.58	28622.41
582.74	28528.79
582.90	28671.56
583.06	28830.72
583.22	28804.97
583.38	28397.72
583.54	28631.77
583.70	28802.63
583.86	28428.15
584.02	28226.86
584.18	28811.99
584.34	28737.10
584.50	28549.85
584.66	28362.61
584.82	28404.74
584.98	28453.89
585.14	28746.46
585.30	28114.52
585.46	28521.77
585.62	28238.56
585.78	28781.57
585.94	28594.32
586.10	28891.57
586.26	28802.63
586.42	28673.90
586.58	28680.92
586.74	28631.77
586.90	28318.14
587.06	28697.31
587.22	28858.81
587.38	28503.04
587.54	28802.63
587.70	28563.90
587.86	28912.64
588.02	28435.17
588.18	28664.54
588.34	28854.12
588.49	28517.09
588.65	28666.88
588.81	28407.08
588.97	28746.46
589.13	28451.55
589.29	28582.62
589.45	28629.43
589.61	28561.56
589.77	28622.41
589.93	28842.42
590.08	28985.19
590.24	28800.29
590.40	28781.57
590.56	28886.89
590.72	28826.04
590.88	28603.69
591.04	28393.04
591.20	29010.94
591.35	28854.12
591.51	29202.86
591.67	29081.16
591.83	28851.78
591.99	28875.19
