SpectraSuite Data File
++++++++++++++++++++++++++++++++++++
Date: Fri Oct 04 11:39:54 GMT-05:00 2013
User: price-jones
Dark Spectrum Present: No
Reference Spectrum Present: No
Number of Sampled Component Spectra: 1
Spectrometers: USB2+H05261
Integration Time (usec): 100000 (USB2+H05261)
Spectra Averaged: 1 (USB2+H05261)
Boxcar Smoothing: 0 (USB2+H05261)
Correct for Electrical Dark: No (USB2+H05261)
Strobe/Lamp Enabled: No (USB2+H05261)
Correct for Detector Non-linearity: No (USB2+H05261)
Correct for Stray Light: No (USB2+H05261)
Number of Pixels in Processed Spectrum: 2048
>>>>>Begin Processed Spectral Data<<<<<
365.73	0.00
365.92	0.00
366.12	0.00
366.32	0.00
366.52	0.00
366.72	0.00
366.91	0.00
367.11	0.00
367.31	0.00
367.51	0.00
367.70	0.00
367.90	0.00
368.10	0.00
368.30	0.00
368.49	0.00
368.69	0.00
368.89	0.00
369.09	0.00
369.28	0.00
369.48	0.00
369.68	14.04
369.87	42.13
370.07	0.00
370.27	0.00
370.47	58.51
370.66	156.82
370.86	152.13
371.06	131.07
371.25	208.31
371.45	212.99
371.65	187.24
371.84	187.24
372.04	189.58
372.24	196.60
372.44	210.65
372.63	147.45
372.83	161.50
373.03	248.10
373.22	177.88
373.42	159.16
373.62	243.42
373.81	180.22
374.01	241.08
374.21	283.20
374.40	177.88
374.60	308.95
374.79	245.76
374.99	198.95
375.19	313.63
375.38	320.65
375.58	159.16
375.78	339.38
375.97	290.23
376.17	301.93
376.37	238.73
376.56	238.73
376.76	262.14
376.95	269.16
377.15	245.76
377.35	318.31
377.54	252.78
377.74	330.02
377.93	278.52
378.13	238.73
378.33	269.16
378.52	187.24
378.72	248.10
378.91	266.82
379.11	217.67
379.31	271.50
379.50	313.63
379.70	344.06
379.89	376.83
380.09	196.60
380.28	212.99
380.48	231.71
380.68	252.78
380.87	280.86
381.07	283.20
381.26	264.48
381.46	332.36
381.65	337.04
381.85	238.73
382.04	271.50
382.24	280.86
382.43	332.36
382.63	262.14
382.83	285.55
383.02	304.27
383.22	283.20
383.41	372.15
383.61	266.82
383.80	243.42
384.00	292.57
384.19	276.18
384.39	257.46
384.58	276.18
384.78	348.74
384.97	234.05
385.17	294.91
385.36	292.57
385.56	330.02
385.75	231.71
385.95	266.82
386.14	283.20
386.34	243.42
386.53	325.33
386.72	297.25
386.92	325.33
387.11	351.08
387.31	334.70
387.50	248.10
387.70	365.12
387.89	318.31
388.09	292.57
388.28	301.93
388.48	290.23
388.67	404.91
388.86	414.27
389.06	358.10
389.25	330.02
389.45	376.83
389.64	287.89
389.84	355.76
390.03	348.74
390.22	320.65
390.42	386.19
390.61	337.04
390.81	339.38
391.00	341.72
391.19	369.80
391.39	386.19
391.58	388.53
391.78	411.93
391.97	346.40
392.16	348.74
392.36	400.23
392.55	449.38
392.75	407.25
392.94	374.49
393.13	440.02
393.33	388.53
393.52	344.06
393.71	423.64
393.91	465.77
394.10	407.25
394.29	381.51
394.49	461.09
394.68	447.04
394.88	449.38
395.07	535.98
395.26	442.36
395.46	411.93
395.65	547.69
395.84	489.17
396.04	486.83
396.23	397.89
396.42	435.34
396.62	425.98
396.81	543.00
397.00	484.49
397.19	479.81
397.39	554.71
397.58	496.19
397.77	571.09
397.97	519.60
398.16	505.56
398.35	552.37
398.55	589.82
398.74	526.62
398.93	573.43
399.12	545.34
399.32	580.45
399.51	613.22
399.70	594.50
399.90	645.99
400.09	643.65
400.28	603.86
400.47	634.29
400.67	709.18
400.86	601.52
401.05	653.01
401.24	543.00
401.44	638.97
401.63	713.86
401.82	723.23
402.01	660.03
402.21	629.60
402.40	674.07
402.59	725.57
402.78	603.86
402.97	685.78
403.17	725.57
403.36	706.84
403.55	688.12
403.74	840.25
403.93	784.08
404.13	774.72
404.32	795.78
404.51	819.19
404.70	788.76
404.89	837.91
405.09	828.55
405.28	854.30
405.47	891.74
405.66	926.85
405.85	866.00
406.05	966.64
406.24	929.19
406.43	772.38
406.62	807.48
406.81	1015.79
407.00	924.51
407.20	882.38
407.39	912.81
407.58	912.81
407.77	896.43
407.96	1109.41
408.15	1032.18
408.34	1029.84
408.54	1076.65
408.73	1057.92
408.92	1027.50
409.11	1015.79
409.30	1156.22
409.49	1020.47
409.68	1093.03
409.87	1130.48
410.07	1069.62
410.26	1167.93
410.45	1177.29
410.64	1135.16
410.83	1273.25
411.02	1231.12
411.21	1167.93
411.40	1247.51
411.59	1266.23
411.78	1256.87
411.98	1256.87
412.17	1275.59
412.36	1235.80
412.55	1357.51
412.74	1387.94
412.93	1430.07
413.12	1329.42
413.31	1413.68
413.50	1420.71
413.69	1439.43
413.88	1406.66
414.07	1474.54
414.26	1455.81
414.45	1540.07
414.64	1612.63
414.83	1586.88
415.02	1565.82
415.22	1617.31
415.41	1650.08
415.60	1685.19
415.79	1643.06
415.98	1717.95
416.17	1710.93
416.36	1629.01
416.55	1736.68
416.74	1736.68
416.93	1872.43
417.12	1748.38
417.31	1713.27
417.50	1778.81
417.69	1961.37
417.88	1839.66
418.07	1832.64
418.26	1980.09
418.45	2026.90
418.64	1872.43
418.83	1849.02
419.02	1989.46
419.21	1982.43
419.39	2022.22
419.58	1898.17
419.77	1900.52
419.96	2064.35
420.15	2090.10
420.34	2033.93
420.53	2071.37
420.72	2122.87
420.91	2129.89
421.10	2118.18
421.29	2223.51
421.48	2176.70
421.67	2139.25
421.86	2108.82
422.05	2197.76
422.24	2204.78
422.43	2246.91
422.61	2216.49
422.80	2265.64
422.99	2267.98
423.18	2209.47
423.37	2410.75
423.56	2328.83
423.75	2324.15
423.94	2211.81
424.13	2038.61
424.32	2092.44
424.50	2228.19
424.69	2305.43
424.88	2282.02
425.07	2188.40
425.26	2293.72
425.45	2307.77
425.64	2230.53
425.83	2331.17
426.01	2326.49
426.20	2356.92
426.39	2244.57
426.58	2251.60
426.77	2310.11
426.96	2399.05
427.15	2272.66
427.33	2377.98
427.52	2310.11
427.71	2438.84
427.90	2480.97
428.09	2377.98
428.28	2427.14
428.46	2438.84
428.65	2434.16
428.84	2555.86
429.03	2588.63
429.22	2509.05
429.40	2541.82
429.59	2588.63
429.78	2457.56
429.97	2480.97
430.16	2473.95
430.34	2614.38
430.53	2644.81
430.72	2628.42
430.91	2502.03
431.10	2541.82
431.28	2504.37
431.47	2698.64
431.66	2759.49
431.85	2513.74
432.03	2700.98
432.22	2834.39
432.41	2818.00
432.60	2834.39
432.79	2628.42
432.97	2686.94
433.16	2806.30
433.35	2794.60
433.54	2780.56
433.72	2869.50
433.91	2792.26
434.10	2787.58
434.28	2799.28
434.47	2892.90
434.66	2843.75
434.85	2832.05
435.03	2946.73
435.22	3030.99
435.41	3365.69
435.59	3276.75
435.78	3194.83
435.97	3115.25
436.16	2909.29
436.34	3009.93
436.53	2970.14
436.72	3005.25
436.90	3012.27
437.09	3080.14
437.28	3042.70
437.46	2920.99
437.65	3129.30
437.84	3101.21
438.02	3129.30
438.21	3007.59
438.40	3119.93
438.58	3115.25
438.77	3234.62
438.96	3138.66
439.14	3283.77
439.33	3346.97
439.52	3339.94
439.70	3328.24
439.89	3478.04
440.08	3475.70
440.26	3241.64
440.45	3391.44
440.63	3473.36
440.82	3480.38
441.01	3372.71
441.19	3489.74
441.38	3611.45
441.57	3604.42
441.75	3592.72
441.94	3581.02
442.12	3583.36
442.31	3693.37
442.50	3679.32
442.68	3592.72
442.87	3576.34
443.05	3721.45
443.24	3840.82
443.43	3702.73
443.61	3836.14
443.80	3939.12
443.98	3770.60
444.17	3538.89
444.35	3875.93
444.54	3836.14
444.73	3887.63
444.91	3782.31
445.10	3817.41
445.28	3826.78
445.47	3740.18
445.65	3904.01
445.84	3833.80
446.02	3777.62
446.21	3857.20
446.39	3824.44
446.58	3925.08
446.77	3950.82
446.95	3784.65
447.14	3932.10
447.32	4035.08
447.51	3880.61
447.69	3889.97
447.88	3992.95
448.06	4011.68
448.25	3962.53
448.43	3992.95
448.62	4028.06
448.80	4042.11
448.99	4147.43
449.17	3896.99
449.36	3936.78
449.54	4159.13
449.73	4030.40
449.91	4201.26
450.10	4236.37
450.28	4121.68
450.46	4170.83
450.65	4088.92
450.83	4234.03
451.02	4133.39
451.20	4306.59
451.39	4166.15
451.57	4189.56
451.76	4219.99
451.94	4222.33
452.13	4362.76
452.31	4329.99
452.49	4231.69
452.68	4194.24
452.86	4297.22
453.05	4402.55
453.23	4411.91
453.42	4273.82
453.60	4322.97
453.78	4374.46
453.97	4208.28
454.15	4430.63
454.34	4418.93
454.52	4425.95
454.70	4514.89
454.89	4542.98
455.07	4397.87
455.26	4498.51
455.44	4521.92
455.62	4571.07
455.81	4561.70
455.99	4535.96
456.17	4547.66
456.36	4465.74
456.54	4594.47
456.73	4648.30
456.91	4664.69
457.09	4884.70
457.28	4865.97
457.46	4620.22
457.64	4704.48
457.83	4683.41
458.01	4727.88
458.19	4903.42
458.38	4877.68
458.56	4847.25
458.74	4994.70
458.93	4952.57
459.11	4887.04
459.29	4870.65
459.48	4964.28
459.66	4898.74
459.84	5116.41
460.03	5135.14
460.21	5153.86
460.39	5132.79
460.57	4854.27
460.76	5039.17
460.94	4990.02
461.12	5093.01
461.31	5156.20
461.49	5186.63
461.67	5006.41
461.85	5093.01
462.04	5226.42
462.22	5600.90
462.40	5273.23
462.59	5249.82
462.77	5331.74
462.95	5324.72
463.13	5458.13
463.32	5425.36
463.50	5284.93
463.68	5273.23
463.86	5277.91
464.05	5387.91
464.23	5298.97
464.41	5373.87
464.59	5390.25
464.78	5420.68
464.96	5369.19
465.14	5481.53
465.32	5406.64
465.50	5483.88
465.69	5614.95
465.87	5366.85
466.05	5401.96
466.23	5462.81
466.41	5537.71
466.60	5703.89
466.78	5600.90
466.96	5706.23
467.14	5636.01
467.32	5640.69
467.51	5699.20
467.69	5497.92
467.87	5776.44
468.05	5671.12
468.23	5659.42
468.41	5746.02
468.60	5706.23
468.78	5685.16
468.96	5729.63
469.14	5729.63
469.32	5734.31
469.50	5689.84
469.69	5879.43
469.87	5980.07
470.05	5973.05
470.23	5991.77
470.41	5963.68
470.59	5921.56
470.77	6015.18
470.95	5895.81
471.14	6190.72
471.32	5982.41
471.50	6090.07
471.68	6228.17
471.86	6061.99
472.04	6099.44
472.22	6181.35
472.40	6406.05
472.58	6277.32
472.77	6579.25
472.95	6415.41
473.13	6621.38
473.31	6366.26
473.49	6401.37
473.67	6314.77
473.85	6590.95
474.03	6754.79
474.21	6476.26
474.39	6740.74
474.57	6703.29
474.75	6775.85
474.93	7012.24
475.12	6736.06
475.30	6956.07
475.48	6759.47
475.66	6663.51
475.84	6930.33
476.02	7007.56
476.20	6895.22
476.38	7180.76
476.56	7321.20
476.74	7272.04
476.92	7157.36
477.10	7265.02
477.28	7419.50
477.46	7253.32
477.64	7307.15
477.82	7494.40
478.00	7520.14
478.18	7695.68
478.36	7536.52
478.54	7742.49
478.72	7644.19
478.90	7894.63
479.08	7920.37
479.26	7927.39
479.44	7920.37
479.62	8049.10
479.80	8131.02
479.98	8098.25
480.16	8128.68
480.34	8166.13
480.52	8329.97
480.70	8243.37
480.88	8365.07
481.06	8423.59
481.24	8430.61
481.41	8566.36
481.59	8755.94
481.77	8821.48
481.95	8903.40
482.13	8828.50
482.31	8620.19
482.49	8940.85
482.67	9128.09
482.85	9102.34
483.03	9467.47
483.21	9364.48
483.39	9425.34
483.57	9254.48
483.74	9509.60
483.92	9652.37
484.10	9469.81
484.28	9631.30
484.46	9867.70
484.64	9928.55
484.82	9750.67
485.00	10115.80
485.18	10239.84
485.35	10523.05
485.53	10424.75
485.71	10289.00
485.89	10534.75
486.07	10326.44
486.25	10506.66
486.43	10665.82
486.61	10626.03
486.78	10782.85
486.96	10843.70
487.14	11201.80
487.32	10850.72
487.50	11007.54
487.68	11274.36
487.85	11162.01
488.03	11424.15
488.21	11595.01
488.39	11407.77
488.57	11763.53
488.75	11536.50
488.92	11908.65
489.10	11934.39
489.28	11934.39
489.46	12023.33
489.64	11822.05
489.81	12243.34
489.99	12308.88
490.17	12421.22
490.35	12526.55
490.53	12767.62
490.70	12723.15
490.88	12589.74
491.06	12842.52
491.24	12891.67
491.41	12919.76
491.59	13226.37
491.77	13053.17
491.95	13172.54
492.13	13343.39
492.30	13156.15
492.48	13355.10
492.66	13373.82
492.84	13329.35
493.01	13488.51
493.19	13504.89
493.37	13724.90
493.54	13998.74
493.72	13933.21
493.90	13729.58
494.08	13923.85
494.25	14132.15
494.43	14361.53
494.61	14506.64
494.79	14675.16
494.96	14380.25
495.14	14827.29
495.32	14789.85
495.49	14867.08
495.67	14691.54
495.85	15161.99
496.02	14892.83
496.20	14717.29
496.38	15049.64
496.55	15129.22
496.73	15520.09
496.91	15520.09
497.09	15548.18
497.26	15550.52
497.44	15527.11
497.62	15229.87
497.79	15995.22
497.97	15882.88
498.14	16142.67
498.32	15843.09
498.50	16102.89
498.67	15988.20
498.85	16269.06
499.03	16196.51
499.20	16343.96
499.38	16521.84
499.56	16570.99
499.73	16514.82
499.91	16552.27
500.08	16683.34
500.26	16468.01
500.44	16641.21
500.61	16800.37
500.79	16961.86
500.97	17118.68
501.14	17109.32
501.32	17289.54
501.49	17128.04
501.67	17151.45
501.84	17188.89
502.02	17132.72
502.20	17343.37
502.37	17322.30
502.55	17561.04
502.72	17500.19
502.90	17385.50
503.07	17549.34
503.25	17521.25
503.43	17640.62
503.60	17675.73
503.78	17947.23
503.95	18136.81
504.13	18017.44
504.30	18300.65
504.48	18024.47
504.65	18441.08
504.83	18150.85
505.01	18312.35
505.18	18394.27
505.36	18272.56
505.53	18497.25
505.71	18291.29
505.88	18462.15
506.06	18721.95
506.23	18611.94
506.41	18621.30
506.58	18862.38
506.76	18951.32
506.93	18815.57
507.11	18883.44
507.28	19300.06
507.46	19166.65
507.63	19365.59
507.81	19466.24
507.98	19417.08
508.16	19274.31
508.33	19215.80
508.50	19396.02
508.68	19115.16
508.85	19901.58
509.03	19665.18
509.20	19803.27
509.38	19887.53
509.55	20051.37
509.73	20004.56
509.90	19800.93
510.08	19864.13
510.25	19716.67
510.42	20238.61
510.60	20182.44
510.77	20697.36
510.95	20360.32
511.12	20037.33
511.30	20346.28
511.47	20760.55
511.64	20489.05
511.82	20442.24
511.99	20563.95
512.17	20847.15
512.34	20404.79
512.51	20624.80
512.69	20444.58
512.86	20943.11
513.04	21025.03
513.21	21132.70
513.38	21198.23
513.56	21034.39
513.73	21231.00
513.90	21303.56
514.08	21135.04
514.25	21603.14
514.43	21781.03
514.60	21774.00
514.77	21366.75
514.95	21905.07
515.12	21546.97
515.29	21474.42
515.47	21626.55
515.64	21750.60
515.81	21645.27
515.99	21937.84
516.16	21865.28
516.33	22221.05
516.51	22204.66
516.68	21912.10
516.85	22092.32
517.03	22125.08
517.20	22459.78
517.37	22539.36
517.54	22089.98
517.72	22483.19
517.89	22590.85
518.06	22558.08
518.24	22389.56
518.41	22628.30
518.58	22649.36
518.75	22764.05
518.93	22822.56
519.10	22750.01
519.27	22906.82
519.45	22445.74
519.62	22794.48
519.79	22817.88
519.96	22867.03
520.14	23218.11
520.31	22939.59
520.48	23012.15
520.65	23131.51
520.83	23447.49
521.00	23616.01
521.17	23466.21
521.34	23442.81
521.52	23831.33
521.69	23913.25
521.86	23676.86
522.03	23854.74
522.20	23620.69
522.38	24123.90
522.55	23611.32
522.72	23651.11
522.89	24002.19
523.07	23882.83
523.24	23756.44
523.41	24254.97
523.58	24056.03
523.75	24070.07
523.92	24402.43
524.10	24049.00
524.27	24538.18
524.44	24587.33
524.61	24762.87
524.78	24709.04
524.96	24603.71
525.13	24566.26
525.30	24800.32
525.47	24474.98
525.64	24680.95
525.81	24896.28
525.98	24905.64
526.16	24741.80
526.33	24737.12
526.50	24790.95
526.67	24907.98
526.84	25118.63
527.01	24748.82
527.18	24816.70
527.36	25106.93
527.53	25163.10
527.70	25209.91
527.87	25308.21
528.04	25209.91
528.21	25172.46
528.38	25434.60
528.55	25626.53
528.72	25422.90
528.89	25846.54
529.07	25348.00
529.24	25673.34
529.41	25617.16
529.58	25502.48
529.75	25668.66
529.92	25633.55
530.09	25717.81
530.26	25823.13
530.43	26139.10
530.60	25570.35
530.77	25762.28
530.94	26125.06
531.11	25832.49
531.28	25872.28
531.46	25916.75
531.63	26106.34
531.80	26192.94
531.97	26398.90
532.14	26513.59
532.31	26052.50
532.48	26225.70
532.65	26258.47
532.82	26295.92
532.99	26417.63
533.16	26391.88
533.33	26906.80
533.50	26911.48
533.67	26698.49
533.84	26326.35
534.01	26450.39
534.18	26326.35
534.35	27019.14
534.52	26803.82
534.69	26897.44
534.86	26714.87
535.03	26906.80
535.20	27072.98
535.37	26955.95
535.54	26899.78
535.71	26969.99
535.88	26958.29
536.05	27042.55
536.22	27351.50
536.38	26948.93
536.55	27108.08
536.72	27143.19
536.89	27332.78
537.06	26806.16
537.23	27351.50
537.40	27190.00
537.57	27115.11
537.74	27278.94
537.91	27772.80
538.08	27737.69
538.25	27140.85
538.42	27711.94
538.59	27707.26
538.75	27477.89
538.92	27288.31
539.09	27892.16
539.26	28194.09
539.43	27997.49
539.60	27775.14
539.77	27885.14
539.94	28044.30
540.11	28243.24
540.28	28418.78
540.44	28074.73
540.61	27658.11
540.78	28229.20
540.95	28271.33
541.12	28411.76
541.29	28627.09
541.46	28606.03
541.62	28481.98
541.79	28711.35
541.96	28259.63
542.13	28746.46
542.30	28739.44
542.47	28751.14
542.63	29151.37
542.80	28978.17
542.97	28694.97
543.14	28879.87
543.31	28582.62
543.48	28898.59
543.64	29362.02
543.81	29184.14
543.98	29174.78
544.15	29172.44
544.32	29364.36
544.48	29350.32
544.65	29244.99
544.82	28989.88
544.99	29069.45
545.16	28924.34
545.32	28886.89
545.49	29837.15
545.66	30260.79
545.83	30155.46
546.00	30394.20
546.16	29612.46
546.33	29032.00
546.50	29216.91
546.67	29516.50
546.83	29003.92
547.00	29399.47
547.17	29362.02
547.34	29738.85
547.50	29633.52
547.67	29687.36
547.84	29259.04
548.00	29450.96
548.17	29652.25
548.34	29502.45
548.51	30033.75
548.67	29979.92
548.84	29605.44
549.01	29984.60
549.18	29584.37
549.34	29572.67
549.51	29848.85
549.68	29968.22
549.84	30094.61
550.01	29830.13
550.18	29731.83
550.34	29989.28
550.51	29680.33
550.68	29888.64
550.84	29795.02
551.01	29724.80
551.18	29820.77
551.34	29731.83
551.51	30022.05
551.68	29771.61
551.84	30005.67
552.01	29982.26
552.18	30478.46
552.34	29895.66
552.51	29883.96
552.68	29710.76
552.84	30129.72
553.01	30415.26
553.18	30333.34
553.34	30129.72
553.51	30286.53
553.67	30611.87
553.84	30452.71
554.01	30541.65
554.17	30204.61
554.34	30256.11
554.51	30403.56
554.67	30384.83
554.84	30335.68
555.00	30132.06
555.17	30265.47
555.33	30356.75
555.50	30363.77
555.67	30211.64
555.83	30246.74
556.00	30361.43
556.16	30953.58
556.33	30169.51
556.50	30445.69
556.66	30810.81
556.83	30567.40
556.99	30845.92
557.16	30913.80
557.32	30759.32
557.49	30785.07
557.65	30298.23
557.82	30356.75
557.98	30513.56
558.15	30551.01
558.32	30771.02
558.48	30838.90
558.65	30696.13
558.81	30871.67
558.98	30714.85
559.14	30623.57
559.31	30698.47
559.47	30604.84
559.64	30679.74
559.80	30864.64
559.97	30520.59
560.13	30651.66
560.30	30815.49
560.46	30794.43
560.63	30675.06
560.79	30733.57
560.96	30782.73
561.12	30815.49
561.29	30995.71
561.45	30710.17
561.61	30946.56
561.78	30885.71
561.94	31129.12
562.11	31009.76
562.27	30433.99
562.44	31000.40
562.60	31105.72
562.77	31112.74
562.93	30976.99
563.10	31044.87
563.26	30813.15
563.42	31154.87
563.59	30817.83
563.75	31255.51
563.92	31098.70
564.08	30579.10
564.24	30749.96
564.41	31295.30
564.57	30974.65
564.74	31047.21
564.90	31145.51
565.07	31599.57
565.23	31374.88
565.39	30906.77
565.56	31358.50
565.72	31255.51
565.88	31023.80
566.05	31248.49
566.21	30979.33
566.38	30859.96
566.54	31363.18
566.70	30962.95
566.87	31487.23
567.03	31379.56
567.19	31381.90
567.36	31442.76
567.52	30890.39
567.68	31452.12
567.85	30998.06
568.01	31353.82
568.17	31260.20
568.34	31353.82
568.50	31419.35
568.66	31484.89
568.83	31346.79
568.99	31295.30
569.15	31154.87
569.32	31414.67
569.48	31189.98
569.64	31473.18
569.81	31398.29
569.97	31194.66
570.13	31550.42
570.30	31365.52
570.46	31269.56
570.62	31159.55
570.78	31145.51
570.95	31253.17
571.11	31498.93
571.27	31023.80
571.43	31426.37
571.60	31297.64
571.76	31440.42
571.92	31564.46
572.09	31363.18
572.25	31339.77
572.41	31777.45
572.57	31857.03
572.74	31819.58
572.90	31555.10
573.06	31391.26
573.22	31821.92
573.38	31697.88
573.55	31590.21
573.71	32170.66
573.87	31754.05
574.03	31129.12
574.20	31662.77
574.36	31421.69
574.52	31480.21
574.68	31473.18
574.84	31550.42
575.01	31693.19
575.17	31358.50
575.33	31440.42
575.49	31604.25
575.65	31669.79
575.82	31599.57
575.98	31166.57
576.14	31541.06
576.30	31548.08
576.46	31578.51
576.62	31161.89
576.79	32320.46
576.95	31873.42
577.11	31929.59
577.27	31957.67
577.43	31751.71
577.59	31852.35
577.75	31857.03
577.92	31569.15
578.08	31637.02
578.24	31821.92
578.40	31618.30
578.56	31789.16
578.72	32027.89
578.88	32102.79
579.04	32245.56
579.21	32123.85
579.37	31796.18
579.53	31873.42
579.69	31393.61
579.85	31508.29
580.01	31367.86
580.17	31606.59
580.33	31583.19
580.49	31817.24
580.65	31674.47
580.82	31840.65
580.98	31735.32
581.14	31480.21
581.30	32173.00
581.46	31803.20
581.62	31417.01
581.78	31590.21
581.94	31920.23
582.10	31585.53
582.26	32039.59
582.42	31775.11
582.58	32011.51
582.74	31971.72
582.90	32053.64
583.06	31969.38
583.22	31690.85
583.38	31838.31
583.54	31627.66
583.70	31473.18
583.86	31915.54
584.02	31604.25
584.18	31779.79
584.34	32137.90
584.50	31702.56
584.66	31854.69
584.82	31538.72
584.98	31824.26
585.14	31545.74
585.30	31562.12
585.46	31924.91
585.62	31878.10
585.78	31812.56
585.94	31611.28
586.10	31908.52
586.26	31852.35
586.42	32400.04
586.58	32020.87
586.74	31732.98
586.90	31749.37
587.06	31866.39
587.22	32219.81
587.38	32058.32
587.54	31873.42
587.70	32203.43
587.86	32318.12
588.02	32252.58
588.18	32409.40
588.34	32388.33
588.49	31711.92
588.65	31917.89
588.81	31496.59
588.97	31634.68
589.13	31875.76
589.29	31611.28
589.45	32048.96
589.61	32266.63
589.77	32500.68
589.93	31995.12
590.08	31749.37
590.24	32016.19
590.40	32308.76
590.56	32414.08
590.72	32407.06
590.88	31927.25
591.04	32271.31
591.20	32603.66
591.35	32615.37
591.51	32826.01
591.67	32535.79
591.83	32828.35
