SpectraSuite Data File
++++++++++++++++++++++++++++++++++++
Date: Fri Oct 04 11:39:56 GMT-05:00 2013
User: price-jones
Dark Spectrum Present: No
Reference Spectrum Present: No
Number of Sampled Component Spectra: 1
Spectrometers: USB2+H05261
Integration Time (usec): 100000 (USB2+H05261)
Spectra Averaged: 1 (USB2+H05261)
Boxcar Smoothing: 0 (USB2+H05261)
Correct for Electrical Dark: No (USB2+H05261)
Strobe/Lamp Enabled: No (USB2+H05261)
Correct for Detector Non-linearity: No (USB2+H05261)
Correct for Stray Light: No (USB2+H05261)
Number of Pixels in Processed Spectrum: 2048
>>>>>Begin Processed Spectral Data<<<<<
365.73	39.79
365.92	39.79
366.12	39.79
366.32	0.00
366.52	0.00
366.72	0.00
366.91	0.00
367.11	0.00
367.31	2.34
367.51	0.00
367.70	0.00
367.90	0.00
368.10	0.00
368.30	0.00
368.49	0.00
368.69	0.00
368.89	0.00
369.09	0.00
369.28	0.00
369.48	0.00
369.68	0.00
369.87	0.00
370.07	14.04
370.27	44.47
370.47	39.79
370.66	234.05
370.86	264.48
371.06	264.48
371.25	227.03
371.45	177.88
371.65	191.92
371.84	341.72
372.04	236.39
372.24	175.54
372.44	224.69
372.63	264.48
372.83	212.99
373.03	334.70
373.22	334.70
373.42	353.42
373.62	330.02
373.81	330.02
374.01	313.63
374.21	315.97
374.40	360.44
374.60	362.78
374.79	315.97
374.99	327.68
375.19	376.83
375.38	292.57
375.58	341.72
375.78	355.76
375.97	327.68
376.17	353.42
376.37	374.49
376.56	327.68
376.76	227.03
376.95	318.31
377.15	306.61
377.35	341.72
377.54	390.87
377.74	217.67
377.93	346.40
378.13	360.44
378.33	400.23
378.52	322.99
378.72	435.34
378.91	304.27
379.11	369.80
379.31	341.72
379.50	327.68
379.70	374.49
379.89	376.83
380.09	308.95
380.28	346.40
380.48	315.97
380.68	301.93
380.87	376.83
381.07	327.68
381.26	437.68
381.46	400.23
381.65	395.55
381.85	322.99
382.04	344.06
382.24	351.08
382.43	421.30
382.63	358.10
382.83	376.83
383.02	386.19
383.22	458.74
383.41	393.21
383.61	414.27
383.80	397.89
384.00	447.04
384.19	311.29
384.39	381.51
384.58	381.51
384.78	416.62
384.97	430.66
385.17	479.81
385.36	362.78
385.56	486.83
385.75	402.57
385.95	440.02
386.14	503.22
386.34	440.02
386.53	433.00
386.72	444.70
386.92	496.19
387.11	454.06
387.31	472.79
387.50	402.57
387.70	510.24
387.89	397.89
388.09	421.30
388.28	435.34
388.48	435.34
388.67	470.45
388.86	470.45
389.06	470.45
389.25	568.75
389.45	433.00
389.64	479.81
389.84	514.92
390.03	564.07
390.22	510.24
390.42	505.56
390.61	456.40
390.81	592.16
391.00	557.05
391.19	521.94
391.39	510.24
391.58	470.45
391.78	543.00
391.97	575.77
392.16	538.32
392.36	561.73
392.55	589.82
392.75	566.41
392.94	578.11
393.13	538.32
393.33	531.30
393.52	627.26
393.71	599.18
393.91	606.20
394.10	578.11
394.29	615.56
394.49	634.29
394.68	514.92
394.88	664.71
395.07	690.46
395.26	695.14
395.46	634.29
395.65	683.44
395.84	655.35
396.04	755.99
396.23	678.76
396.42	695.14
396.62	676.41
396.81	648.33
397.00	702.16
397.19	758.33
397.39	697.48
397.58	765.36
397.77	629.60
397.97	697.48
398.16	774.72
398.35	751.31
398.55	765.36
398.74	788.76
398.93	800.46
399.12	748.97
399.32	674.07
399.51	690.46
399.70	800.46
399.90	809.83
400.09	908.13
400.28	889.40
400.47	844.93
400.67	849.61
400.86	882.38
401.05	830.89
401.24	896.43
401.44	854.30
401.63	812.17
401.82	835.57
402.01	884.72
402.21	884.72
402.40	905.79
402.59	940.90
402.78	954.94
402.97	980.68
403.17	912.81
403.36	987.71
403.55	933.87
403.74	1027.50
403.93	1013.45
404.13	1053.24
404.32	1025.15
404.51	1076.65
404.70	1100.05
404.89	990.05
405.09	1144.52
405.28	973.66
405.47	980.68
405.66	1083.67
405.85	1107.07
406.05	1036.86
406.24	1163.25
406.43	1118.78
406.62	1114.10
406.81	1207.72
407.00	1090.69
407.20	1125.80
407.39	1205.38
407.58	1144.52
407.77	1268.57
407.96	1205.38
408.15	1228.78
408.34	1249.85
408.54	1280.27
408.73	1261.55
408.92	1320.06
409.11	1401.98
409.30	1380.92
409.49	1320.06
409.68	1380.92
409.87	1430.07
410.07	1411.34
410.26	1345.81
410.45	1385.60
410.64	1364.53
410.83	1530.71
411.02	1497.94
411.21	1544.75
411.40	1444.11
411.59	1460.49
411.78	1551.78
411.98	1589.22
412.17	1561.14
412.36	1614.97
412.55	1617.31
412.74	1673.48
412.93	1654.76
413.12	1603.27
413.31	1673.48
413.50	1664.12
413.69	1640.72
413.88	1776.47
414.07	1739.02
414.26	1776.47
414.45	1741.36
414.64	1846.68
414.83	1902.86
415.02	1867.75
415.22	1806.89
415.41	1959.03
415.60	1909.88
415.79	1895.83
415.98	1982.43
416.17	2057.33
416.36	2069.03
416.55	2017.54
416.74	1977.75
416.93	1923.92
417.12	2057.33
417.31	2059.67
417.50	2092.44
417.69	2218.83
417.88	2211.81
418.07	2108.82
418.26	2059.67
418.45	2244.57
418.64	2246.91
418.83	2284.36
419.02	2331.17
419.21	2275.00
419.39	2305.43
419.58	2235.21
419.77	2368.62
419.96	2345.22
420.15	2340.54
420.34	2359.26
420.53	2377.98
420.72	2462.24
420.91	2462.24
421.10	2436.50
421.29	2525.44
421.48	2373.30
421.67	2436.50
421.86	2401.39
422.05	2424.80
422.24	2417.77
422.43	2469.27
422.61	2567.57
422.80	2600.34
422.99	2558.21
423.18	2544.16
423.37	2595.65
423.56	2590.97
423.75	2607.36
423.94	2387.35
424.13	2366.28
424.32	2427.14
424.50	2544.16
424.69	2696.30
424.88	2745.45
425.07	2462.24
425.26	2485.65
425.45	2572.25
425.64	2497.35
425.83	2696.30
426.01	2590.97
426.20	2562.89
426.39	2637.78
426.58	2619.06
426.77	2595.65
426.96	2619.06
427.15	2693.96
427.33	2661.19
427.52	2722.04
427.71	2759.49
427.90	2782.90
428.09	2825.03
428.28	2719.70
428.46	2778.22
428.65	2724.38
428.84	2855.45
429.03	2801.62
429.22	2600.34
429.40	2902.26
429.59	3040.36
429.78	2839.07
429.97	2789.92
430.16	2846.09
430.34	2822.69
430.53	2932.69
430.72	2918.65
430.91	2946.73
431.10	2834.39
431.28	3000.57
431.47	3089.51
431.66	3117.59
431.85	2984.18
432.03	3075.46
432.22	3178.45
432.41	3103.55
432.60	3122.27
432.79	2977.16
432.97	3096.53
433.16	3229.94
433.35	3148.02
433.54	3136.32
433.72	3318.88
433.91	3150.36
434.10	3248.66
434.28	3073.12
434.47	3171.43
434.66	3325.90
434.85	3274.41
435.03	3262.71
435.22	3478.04
435.41	3723.79
435.59	3857.20
435.78	3576.34
435.97	3529.53
436.16	3529.53
436.34	3372.71
436.53	3482.72
436.72	3440.59
436.90	3449.95
437.09	3375.05
437.28	3379.73
437.46	3496.76
437.65	3442.93
437.84	3531.87
438.02	3566.98
438.21	3527.19
438.40	3545.91
438.58	3527.19
438.77	3564.64
438.96	3618.47
439.14	3730.81
439.33	3698.05
439.52	3719.11
439.70	3833.80
439.89	3786.99
440.08	3857.20
440.26	3847.84
440.45	3904.01
440.63	3864.22
440.82	3967.21
441.01	3878.27
441.19	3925.08
441.38	4189.56
441.57	4051.47
441.75	4145.09
441.94	4095.94
442.12	4175.52
442.31	4205.94
442.50	4198.92
442.68	4245.73
442.87	4077.21
443.05	4250.41
443.24	4278.50
443.43	4329.99
443.61	4222.33
443.80	4248.07
443.98	4065.51
444.17	4081.89
444.35	4203.60
444.54	4461.06
444.73	4304.25
444.91	4355.74
445.10	4374.46
445.28	4365.10
445.47	4128.70
445.65	4360.42
445.84	4365.10
446.02	4402.55
446.21	4421.27
446.39	4341.69
446.58	4437.66
446.77	4379.14
446.95	4386.16
447.14	4358.08
447.32	4418.93
447.51	4372.12
447.69	4294.88
447.88	4615.54
448.06	4470.42
448.25	4514.89
448.43	4430.63
448.62	4404.89
448.80	4561.70
448.99	4524.26
449.17	4465.74
449.36	4486.81
449.54	4587.45
449.73	4606.17
449.91	4762.99
450.10	4746.61
450.28	4929.17
450.46	4744.27
450.65	4652.98
450.83	4697.46
451.02	4702.14
451.20	4601.49
451.39	4755.97
451.57	4814.48
451.76	4678.73
451.94	4739.58
452.13	4861.29
452.31	4814.48
452.49	4784.06
452.68	4784.06
452.86	4681.07
453.05	4816.82
453.23	4882.36
453.42	4816.82
453.60	4926.83
453.78	4926.83
453.97	4875.34
454.15	4816.82
454.34	4880.02
454.52	4954.91
454.70	4999.38
454.89	5027.47
455.07	4943.21
455.26	4945.55
455.44	5191.31
455.62	5158.54
455.81	5090.67
455.99	5324.72
456.17	5165.56
456.36	5064.92
456.54	5245.14
456.73	5270.89
456.91	5308.34
457.09	5212.37
457.28	5458.13
457.46	5233.44
457.64	5441.75
457.83	5427.70
458.01	5294.29
458.19	5406.64
458.38	5256.84
458.56	5476.85
458.74	5504.94
458.93	5408.98
459.11	5554.09
459.29	5561.11
459.48	5507.28
459.66	5420.68
459.84	5687.50
460.03	5788.14
460.21	5549.41
460.39	5628.99
460.57	5710.91
460.76	5610.26
460.94	5605.58
461.12	5727.29
461.31	5764.74
461.49	5659.42
461.67	5647.71
461.85	5881.77
462.04	5823.25
462.22	6202.42
462.40	5841.98
462.59	5755.38
462.77	5909.85
462.95	5856.02
463.13	5947.30
463.32	6125.18
463.50	5909.85
463.68	6186.04
463.86	5970.71
464.05	5977.73
464.23	6010.50
464.41	6017.52
464.59	5907.51
464.78	6033.90
464.96	6045.60
465.14	6101.78
465.32	6092.41
465.50	6209.44
465.69	6207.10
465.87	6153.27
466.05	6190.72
466.23	6181.35
466.41	6160.29
466.60	6406.05
466.78	6303.06
466.96	6160.29
467.14	6270.30
467.32	6415.41
467.51	6450.52
467.69	6282.00
467.87	6321.79
468.05	6356.90
468.23	6171.99
468.41	6256.25
468.60	6424.77
468.78	6277.32
468.96	6317.11
469.14	6513.71
469.32	6642.44
469.50	6326.47
469.69	6583.93
469.87	6366.26
470.05	6649.46
470.23	6754.79
470.41	6579.25
470.59	6602.65
470.77	6569.88
470.95	6679.89
471.14	6944.37
471.32	6707.98
471.50	6841.39
471.68	6754.79
471.86	6993.52
472.04	7171.40
472.22	7126.93
472.40	6937.35
472.58	6946.71
472.77	7056.72
472.95	7080.12
473.13	7452.27
473.31	7157.36
473.49	7054.37
473.67	7325.88
473.85	7176.08
474.03	7309.49
474.21	7222.89
474.39	7365.67
474.57	7372.69
474.75	7501.42
474.93	7494.40
475.12	7515.46
475.30	7529.50
475.48	7454.61
475.66	7618.44
475.84	7700.36
476.02	7796.32
476.20	7845.48
476.38	7847.82
476.56	8142.72
476.74	8016.33
476.92	8084.21
477.10	8086.55
477.28	8147.40
477.46	7990.59
477.64	8278.47
477.82	8198.90
478.00	8362.73
478.18	8318.26
478.36	8367.42
478.54	8395.50
478.72	8634.24
478.90	8596.79
479.08	8594.45
479.26	8929.14
479.44	8940.85
479.62	8917.44
479.80	8933.82
479.98	9071.92
480.16	9121.07
480.34	9242.78
480.52	9252.14
480.70	9341.08
480.88	9238.09
481.06	9259.16
481.24	9331.72
481.41	9675.77
481.59	9640.67
481.77	9610.24
481.95	9853.66
482.13	9820.89
482.31	9804.50
482.49	9790.46
482.67	9963.66
482.85	10204.74
483.03	10317.08
483.21	10370.91
483.39	10459.85
483.57	10377.94
483.74	10623.69
483.92	10513.69
484.10	10487.94
484.28	10754.76
484.46	10927.96
484.64	11063.71
484.82	10998.18
485.00	10977.11
485.18	11265.00
485.35	11449.90
485.53	11386.71
485.71	11489.69
485.89	11707.36
486.07	11550.54
486.25	11714.38
486.43	11873.54
486.61	11896.94
486.78	11988.22
486.96	12098.23
487.14	12095.89
487.32	12334.62
487.50	12189.51
487.68	12283.13
487.85	12594.42
488.03	12540.59
488.21	12744.22
488.39	12528.89
488.57	12795.71
488.75	13151.47
488.92	13497.87
489.10	13242.75
489.28	13415.95
489.46	13397.23
489.64	13422.97
489.81	13771.71
489.99	13685.11
490.17	13743.63
490.35	13830.23
490.53	13729.58
490.70	14375.57
490.88	14127.47
491.06	14045.55
491.24	14157.90
491.41	14242.16
491.59	14422.38
491.77	14480.89
491.95	14565.15
492.13	14581.54
492.30	14602.60
492.48	14679.84
492.66	14766.44
492.84	15014.54
493.01	15218.16
493.19	15159.65
493.37	15431.15
493.54	15433.49
493.72	15751.81
493.90	15321.15
494.08	15473.28
494.25	15859.47
494.43	15934.37
494.61	15999.90
494.79	16114.59
494.96	15606.69
495.14	16135.65
495.32	16119.27
495.49	16149.70
495.67	16442.26
495.85	16613.12
496.02	16737.17
496.20	16751.21
496.38	16615.46
496.55	16823.77
496.73	17106.98
496.91	17025.06
497.09	16950.16
497.26	17432.31
497.44	17240.39
497.62	17233.36
497.79	17493.16
497.97	17242.73
498.14	17530.61
498.32	17750.62
498.50	17657.00
498.67	17804.46
498.85	17762.33
499.03	17687.43
499.20	18302.99
499.38	18394.27
499.56	18118.09
499.73	18190.64
499.91	18331.08
500.08	18483.21
500.26	18218.73
500.44	18352.14
500.61	18848.33
500.79	18518.32
500.97	18759.39
501.14	18785.14
501.32	18977.06
501.49	18995.79
501.67	18930.25
501.84	18958.34
502.02	18881.10
502.20	19332.82
502.37	19295.38
502.55	19243.88
502.72	19173.67
502.90	19630.07
503.07	19208.78
503.25	19613.69
503.43	19702.63
503.60	19641.78
503.78	19466.24
503.95	19822.00
504.13	19761.14
504.30	19892.21
504.48	19857.10
504.65	20077.12
504.83	20023.28
505.01	20486.71
505.18	20109.88
505.36	20484.37
505.53	20063.07
505.71	20285.42
505.88	20458.62
506.06	20255.00
506.23	20439.90
506.41	20638.84
506.58	20835.45
506.76	20505.43
506.93	20805.02
507.11	20872.90
507.28	21067.16
507.46	20938.43
507.63	20903.32
507.81	21013.33
507.98	21233.34
508.16	21046.10
508.33	21305.90
508.50	21195.89
508.68	21383.13
508.85	21891.03
509.03	21455.69
509.20	21628.89
509.38	22038.48
509.55	21853.58
509.73	21762.30
509.90	21916.78
510.08	22178.92
510.25	21764.64
510.42	22464.46
510.60	22132.11
510.77	22001.04
510.95	22120.40
511.12	22141.47
511.30	22394.25
511.47	22174.24
511.64	22324.03
511.82	22597.87
511.99	22733.62
512.17	22642.34
512.34	22469.14
512.51	23103.43
512.69	22726.60
512.86	23063.64
513.04	23255.56
513.21	22946.61
513.38	23419.40
513.56	23157.26
513.73	22991.08
513.90	23243.86
514.08	23255.56
514.25	23498.98
514.43	23360.89
514.60	23608.98
514.77	23653.45
514.95	23976.45
515.12	23536.43
515.29	23335.14
515.47	23922.62
515.64	23765.80
515.81	23805.59
515.99	23866.44
516.16	23995.17
516.33	24247.95
516.51	24348.59
516.68	24112.20
516.85	24184.76
517.03	24318.17
517.20	24280.72
517.37	24060.71
517.54	24259.65
517.72	24243.27
517.89	24533.50
518.06	24299.44
518.24	24617.75
518.41	24613.07
518.58	24968.84
518.75	24725.42
518.93	25039.05
519.10	24730.10
519.27	25249.70
519.45	25043.73
519.62	25219.27
519.79	24903.30
519.96	25238.00
520.14	25245.02
520.31	24835.42
520.48	25336.30
520.65	25628.87
520.83	25240.34
521.00	25743.55
521.17	25474.39
521.34	25291.83
521.52	25355.02
521.69	25479.07
521.86	25378.43
522.03	25881.64
522.20	25635.89
522.38	25984.63
522.55	25834.83
522.72	25895.69
522.89	26115.70
523.07	26157.83
523.24	25916.75
523.41	26380.18
523.58	26096.97
523.75	26569.76
523.92	26363.79
524.10	26211.66
524.27	26398.90
524.44	26672.74
524.61	26747.64
524.78	26869.35
524.96	26321.66
525.13	26370.82
525.30	26630.62
525.47	26647.00
525.64	26415.29
525.81	26799.13
525.98	27042.55
526.16	27021.48
526.33	26771.05
526.50	27084.68
526.67	26871.69
526.84	27206.39
527.01	26897.44
527.18	27307.03
527.36	27276.60
527.53	27147.87
527.70	27983.44
527.87	27686.20
528.04	27089.36
528.21	27150.21
528.38	27690.88
528.55	27573.85
528.72	27903.87
528.89	27520.02
529.07	27688.54
529.24	27702.58
529.41	27880.46
529.58	27477.89
529.75	27812.59
529.92	27590.24
530.09	27850.03
530.26	27971.74
530.43	27672.15
530.60	27637.05
530.77	27922.59
530.94	28161.33
531.11	28128.56
531.28	27936.63
531.46	28173.03
531.63	28098.13
531.80	28203.46
531.97	28519.43
532.14	28589.64
532.31	28271.33
532.48	28432.83
532.65	28442.19
532.82	28456.23
532.99	28283.03
533.16	28481.98
533.33	28311.12
533.50	28678.58
533.67	28701.99
533.84	28606.03
534.01	28767.52
534.18	28376.66
534.35	29404.15
534.52	28854.12
534.69	29099.88
534.86	29399.47
535.03	29216.91
535.20	28821.36
535.37	29392.45
535.54	29032.00
535.71	29315.21
535.88	29074.13
536.05	29383.09
536.22	29298.83
536.38	29504.79
536.55	29556.28
536.72	29137.33
536.89	29268.40
537.06	29488.41
537.23	29902.68
537.40	29436.92
537.57	29401.81
537.74	29235.63
537.91	29750.55
538.08	29743.53
538.25	29720.12
538.42	29951.84
538.59	29362.02
538.75	29156.05
538.92	29752.89
539.09	29914.39
539.26	30190.57
539.43	29846.51
539.60	30113.33
539.77	29766.93
539.94	30401.22
540.11	30101.63
540.28	30391.86
540.44	30087.59
540.61	30436.33
540.78	30340.36
540.95	30536.97
541.12	30429.30
541.29	30513.56
541.46	31005.08
541.62	30820.17
541.79	30735.92
541.96	30651.66
542.13	30433.99
542.30	30485.48
542.47	31108.06
542.63	31187.64
542.80	31098.70
542.97	30984.01
543.14	31000.40
543.31	30958.27
543.48	30644.63
543.64	31194.66
543.81	31309.35
543.98	31213.38
544.15	31498.93
544.32	31330.41
544.48	31618.30
544.65	31707.24
544.82	31454.46
544.99	31108.06
545.16	31597.23
545.32	31398.29
545.49	32067.68
545.66	32470.25
545.83	32655.15
546.00	32577.92
546.16	31983.42
546.33	31438.08
546.50	31309.35
546.67	31463.82
546.83	31325.73
547.00	31391.26
547.17	31140.83
547.34	31576.17
547.50	31807.88
547.67	31744.69
547.84	31550.42
548.00	31821.92
548.17	31999.80
548.34	31714.26
548.51	31835.97
548.67	31852.35
548.84	31927.25
549.01	31908.52
549.18	31852.35
549.34	32088.74
549.51	32098.11
549.68	31864.05
549.84	31578.51
550.01	31812.56
550.18	32058.32
550.34	32051.30
550.51	32304.07
550.68	31981.08
550.84	32051.30
551.01	31606.59
551.18	31697.88
551.34	31730.64
551.51	31864.05
551.68	32077.04
551.84	31967.04
552.01	32116.83
552.18	32488.98
552.34	32058.32
552.51	32264.28
552.68	31775.11
552.84	31901.50
553.01	32425.78
553.18	32187.05
553.34	32388.33
553.51	32388.33
553.67	32311.10
553.84	32573.24
554.01	32081.72
554.17	32224.50
554.34	32606.00
554.51	32261.94
554.67	32479.61
554.84	31892.14
555.00	32128.53
555.17	32552.17
555.33	32708.99
555.50	32304.07
555.67	32535.79
555.83	32584.94
556.00	32652.81
556.16	32931.34
556.33	32425.78
556.50	32444.51
556.66	32467.91
556.83	32402.38
556.99	32840.06
557.16	32849.42
557.32	32463.23
557.49	32648.13
557.65	32598.98
557.82	32650.47
557.98	32620.05
558.15	32837.72
558.32	32900.91
558.48	32568.55
558.65	33219.22
558.81	33034.32
558.98	32671.54
559.14	32636.43
559.31	32554.51
559.47	32837.72
559.64	32811.97
559.80	33514.13
559.97	33212.20
560.13	33064.75
560.30	32924.32
560.46	32861.12
560.63	33240.29
560.79	33160.71
560.96	32940.70
561.12	32802.61
561.29	32851.76
561.45	32891.55
561.61	32966.45
561.78	33062.41
561.94	33057.73
562.11	33273.06
562.27	33219.22
562.44	33118.58
562.60	33024.96
562.77	33326.89
562.93	32844.74
563.10	33324.55
563.26	33287.10
563.42	33673.29
563.59	33242.63
563.75	33291.78
563.92	33165.39
564.08	33020.28
564.24	33235.61
564.41	33273.06
564.57	33511.79
564.74	33263.69
564.90	33331.57
565.07	33404.13
565.23	33610.09
565.39	33188.80
565.56	33420.51
565.72	32954.74
565.88	33151.35
566.05	33656.90
566.21	33156.03
566.38	33186.46
566.54	33429.87
566.70	33476.68
566.87	33684.99
567.03	33450.94
567.19	33472.00
567.36	33284.76
567.52	33085.81
567.68	33722.44
567.85	33163.05
568.01	33528.17
568.17	33139.65
568.34	33661.58
568.50	33516.47
568.66	33134.96
568.83	33525.83
568.99	33446.26
569.15	33525.83
569.32	33090.49
569.48	33464.98
569.64	33326.89
569.81	33373.70
569.97	33233.27
570.13	33331.57
570.30	33479.02
570.46	33661.58
570.62	33270.72
570.78	33230.93
570.95	33305.82
571.11	33509.45
571.27	33418.17
571.43	32744.09
571.60	33521.15
571.76	33273.06
571.92	33284.76
572.09	33558.60
572.25	33483.70
572.41	33872.23
572.57	33429.87
572.74	33769.25
572.90	33369.02
573.06	33684.99
573.22	33556.26
573.38	33474.34
573.55	33509.45
573.71	33757.55
573.87	33642.86
574.03	33500.09
574.20	33333.91
574.36	33127.94
574.52	33439.23
574.68	33415.83
574.84	33916.70
575.01	33907.34
575.17	34033.73
575.33	33244.97
575.49	33490.73
575.65	33928.41
575.82	33701.37
575.98	33549.24
576.14	33380.72
576.30	33909.68
576.46	33741.16
576.62	33624.14
576.79	33619.46
576.95	33656.90
577.11	33654.56
577.27	33441.57
577.43	33668.61
577.59	33830.10
577.75	33546.90
577.92	33486.04
578.08	33146.67
578.24	33455.62
578.40	33811.38
578.56	33748.18
578.72	34066.50
578.88	33900.32
579.04	33989.26
579.21	33799.68
579.37	33560.94
579.53	34010.32
579.69	33539.88
579.85	33619.46
580.01	33570.30
580.17	34012.66
580.33	33546.90
580.49	33895.64
580.65	33820.74
580.82	33574.98
580.98	33673.29
581.14	33708.40
581.30	33745.84
581.46	33741.16
581.62	33125.60
581.78	33359.66
581.94	33677.97
582.10	33724.78
582.26	33846.49
582.42	33516.47
582.58	33949.47
582.74	33940.11
582.90	33968.19
583.06	33340.93
583.22	33771.59
583.38	33944.79
583.54	33392.42
583.70	33244.97
583.86	33560.94
584.02	33722.44
584.18	33844.15
584.34	33310.50
584.50	33638.18
584.66	33326.89
584.82	33769.25
584.98	33818.40
585.14	33560.94
585.30	33404.13
585.46	33469.66
585.62	33242.63
585.78	33666.27
585.94	33490.73
586.10	33523.49
586.26	33755.21
586.42	34024.37
586.58	33766.91
586.74	33553.92
586.90	33457.96
587.06	33745.84
587.22	34059.48
587.38	33406.47
587.54	33984.58
587.70	33481.36
587.86	33656.90
588.02	33905.00
588.18	34068.84
588.34	33818.40
588.49	34017.35
588.65	33429.87
588.81	33399.44
588.97	33764.57
589.13	33387.74
589.29	33855.85
589.45	33659.24
589.61	33748.18
589.77	33785.63
589.93	34265.44
590.08	33958.83
590.24	33928.41
590.40	34094.58
590.56	34260.76
590.72	33734.14
590.88	33757.55
591.04	33743.50
591.20	34195.23
591.35	33998.62
591.51	34316.93
