SpectraSuite Data File
++++++++++++++++++++++++++++++++++++
Date: Fri Oct 04 11:39:11 GMT-05:00 2013
User: price-jones
Dark Spectrum Present: No
Reference Spectrum Present: No
Number of Sampled Component Spectra: 1
Spectrometers: USB2+H05261
Integration Time (usec): 100000 (USB2+H05261)
Spectra Averaged: 1 (USB2+H05261)
Boxcar Smoothing: 0 (USB2+H05261)
Correct for Electrical Dark: No (USB2+H05261)
Strobe/Lamp Enabled: No (USB2+H05261)
Correct for Detector Non-linearity: No (USB2+H05261)
Correct for Stray Light: No (USB2+H05261)
Number of Pixels in Processed Spectrum: 2048
>>>>>Begin Processed Spectral Data<<<<<
365.73	65.54
365.92	65.54
366.12	65.54
366.32	0.00
366.52	0.00
366.72	0.00
366.91	0.00
367.11	0.00
367.31	0.00
367.51	0.00
367.70	0.00
367.90	0.00
368.10	0.00
368.30	0.00
368.49	0.00
368.69	0.00
368.89	9.36
369.09	0.00
369.28	37.45
369.48	0.00
369.68	0.00
369.87	0.00
370.07	0.00
370.27	21.06
370.47	7.02
370.66	56.17
370.86	23.41
371.06	180.22
371.25	110.01
371.45	39.79
371.65	95.96
371.84	107.66
372.04	149.79
372.24	131.07
372.44	84.26
372.63	196.60
372.83	173.20
373.03	140.43
373.22	168.52
373.42	156.82
373.62	184.90
373.81	175.54
374.01	168.52
374.21	93.62
374.40	135.75
374.60	212.99
374.79	121.71
374.99	177.88
375.19	229.37
375.38	159.16
375.58	112.35
375.78	210.65
375.97	198.95
376.17	198.95
376.37	170.86
376.56	217.67
376.76	201.29
376.95	154.48
377.15	126.39
377.35	203.63
377.54	154.48
377.74	182.56
377.93	152.13
378.13	152.13
378.33	212.99
378.52	170.86
378.72	180.22
378.91	196.60
379.11	95.96
379.31	180.22
379.50	177.88
379.70	135.75
379.89	212.99
380.09	152.13
380.28	110.01
380.48	135.75
380.68	70.22
380.87	140.43
381.07	196.60
381.26	203.63
381.46	189.58
381.65	177.88
381.85	180.22
382.04	131.07
382.24	117.03
382.43	217.67
382.63	102.98
382.83	131.07
383.02	189.58
383.22	152.13
383.41	198.95
383.61	170.86
383.80	161.50
384.00	110.01
384.19	154.48
384.39	131.07
384.58	107.66
384.78	140.43
384.97	177.88
385.17	159.16
385.36	159.16
385.56	156.82
385.75	168.52
385.95	173.20
386.14	187.24
386.34	161.50
386.53	177.88
386.72	191.92
386.92	205.97
387.11	222.35
387.31	184.90
387.50	194.26
387.70	163.84
387.89	152.13
388.09	124.05
388.28	145.11
388.48	177.88
388.67	217.67
388.86	173.20
389.06	168.52
389.25	208.31
389.45	189.58
389.64	229.37
389.84	110.01
390.03	182.56
390.22	189.58
390.42	187.24
390.61	145.11
390.81	100.64
391.00	135.75
391.19	266.82
391.39	182.56
391.58	154.48
391.78	184.90
391.97	133.41
392.16	184.90
392.36	163.84
392.55	245.76
392.75	175.54
392.94	231.71
393.13	187.24
393.33	252.78
393.52	126.39
393.71	210.65
393.91	198.95
394.10	189.58
394.29	222.35
394.49	224.69
394.68	271.50
394.88	224.69
395.07	124.05
395.26	234.05
395.46	161.50
395.65	252.78
395.84	124.05
396.04	308.95
396.23	234.05
396.42	201.29
396.62	250.44
396.81	208.31
397.00	212.99
397.19	203.63
397.39	255.12
397.58	220.01
397.77	241.08
397.97	224.69
398.16	203.63
398.35	259.80
398.55	163.84
398.74	210.65
398.93	201.29
399.12	182.56
399.32	215.33
399.51	250.44
399.70	205.97
399.90	245.76
400.09	304.27
400.28	248.10
400.47	285.55
400.67	217.67
400.86	245.76
401.05	304.27
401.24	297.25
401.44	273.84
401.63	252.78
401.82	285.55
402.01	234.05
402.21	229.37
402.40	220.01
402.59	271.50
402.78	245.76
402.97	273.84
403.17	255.12
403.36	301.93
403.55	243.42
403.74	320.65
403.93	250.44
404.13	252.78
404.32	264.48
404.51	320.65
404.70	327.68
404.89	327.68
405.09	365.12
405.28	292.57
405.47	325.33
405.66	313.63
405.85	337.04
406.05	297.25
406.24	257.46
406.43	369.80
406.62	332.36
406.81	376.83
407.00	304.27
407.20	299.59
407.39	278.52
407.58	320.65
407.77	259.80
407.96	299.59
408.15	372.15
408.34	322.99
408.54	353.42
408.73	315.97
408.92	318.31
409.11	325.33
409.30	285.55
409.49	222.35
409.68	301.93
409.87	367.46
410.07	280.86
410.26	358.10
410.45	280.86
410.64	278.52
410.83	404.91
411.02	376.83
411.21	334.70
411.40	372.15
411.59	348.74
411.78	369.80
411.98	339.38
412.17	372.15
412.36	383.85
412.55	358.10
412.74	266.82
412.93	346.40
413.12	304.27
413.31	390.87
413.50	468.11
413.69	383.85
413.88	397.89
414.07	397.89
414.26	463.43
414.45	395.55
414.64	433.00
414.83	360.44
415.02	425.98
415.22	400.23
415.41	409.59
415.60	404.91
415.79	423.64
415.98	468.11
416.17	454.06
416.36	440.02
416.55	437.68
416.74	409.59
416.93	421.30
417.12	526.62
417.31	519.60
417.50	512.58
417.69	477.47
417.88	468.11
418.07	358.10
418.26	458.74
418.45	447.04
418.64	449.38
418.83	465.77
419.02	454.06
419.21	498.53
419.39	411.93
419.58	498.53
419.77	472.79
419.96	514.92
420.15	465.77
420.34	454.06
420.53	496.19
420.72	517.26
420.91	531.30
421.10	547.69
421.29	559.39
421.48	503.22
421.67	601.52
421.86	493.85
422.05	486.83
422.24	489.17
422.43	484.49
422.61	500.87
422.80	550.03
422.99	479.81
423.18	493.85
423.37	526.62
423.56	585.13
423.75	545.34
423.94	440.02
424.13	463.43
424.32	484.49
424.50	601.52
424.69	543.00
424.88	528.96
425.07	447.04
425.26	482.15
425.45	507.90
425.64	564.07
425.83	493.85
426.01	521.94
426.20	582.79
426.39	559.39
426.58	524.28
426.77	564.07
426.96	566.41
427.15	580.45
427.33	526.62
427.52	589.82
427.71	603.86
427.90	627.26
428.09	535.98
428.28	582.79
428.46	557.05
428.65	531.30
428.84	566.41
429.03	585.13
429.22	479.81
429.40	533.64
429.59	578.11
429.78	599.18
429.97	526.62
430.16	500.87
430.34	571.09
430.53	491.51
430.72	681.10
430.91	643.65
431.10	582.79
431.28	653.01
431.47	613.22
431.66	613.22
431.85	517.26
432.03	613.22
432.22	655.35
432.41	578.11
432.60	631.94
432.79	552.37
432.97	657.69
433.16	631.94
433.35	594.50
433.54	601.52
433.72	547.69
433.91	624.92
434.10	685.78
434.28	578.11
434.47	678.76
434.66	629.60
434.85	669.39
435.03	704.50
435.22	870.68
435.41	985.37
435.59	866.00
435.78	840.25
435.97	720.88
436.16	713.86
436.34	575.77
436.53	610.88
436.72	650.67
436.90	711.52
437.09	692.80
437.28	636.63
437.46	650.67
437.65	711.52
437.84	751.31
438.02	585.13
438.21	690.46
438.40	676.41
438.58	636.63
438.77	704.50
438.96	734.93
439.14	650.67
439.33	608.54
439.52	730.25
439.70	732.59
439.89	795.78
440.08	730.25
440.26	634.29
440.45	767.70
440.63	744.29
440.82	837.91
441.01	800.46
441.19	725.57
441.38	760.67
441.57	795.78
441.75	753.65
441.94	770.04
442.12	784.08
442.31	807.48
442.50	758.33
442.68	744.29
442.87	844.93
443.05	753.65
443.24	800.46
443.43	765.36
443.61	884.72
443.80	807.48
443.98	779.40
444.17	746.63
444.35	755.99
444.54	791.10
444.73	725.57
444.91	779.40
445.10	772.38
445.28	755.99
445.47	760.67
445.65	737.27
445.84	755.99
446.02	770.04
446.21	690.46
446.39	765.36
446.58	861.32
446.77	805.14
446.95	798.12
447.14	809.83
447.32	777.06
447.51	851.96
447.69	809.83
447.88	805.14
448.06	844.93
448.25	805.14
448.43	805.14
448.62	786.42
448.80	758.33
448.99	809.83
449.17	922.17
449.36	786.42
449.54	828.55
449.73	814.51
449.91	854.30
450.10	809.83
450.28	875.36
450.46	887.06
450.65	868.34
450.83	854.30
451.02	868.34
451.20	840.25
451.39	823.87
451.57	791.10
451.76	842.59
451.94	847.27
452.13	957.28
452.31	908.13
452.49	837.91
452.68	889.40
452.86	968.98
453.05	863.66
453.23	926.85
453.42	889.40
453.60	816.85
453.78	938.55
453.97	858.98
454.15	873.02
454.34	840.25
454.52	912.81
454.70	945.58
454.89	947.92
455.07	844.93
455.26	954.94
455.44	924.51
455.62	945.58
455.81	896.43
455.99	908.13
456.17	910.47
456.36	947.92
456.54	959.62
456.73	936.21
456.91	873.02
457.09	950.26
457.28	999.41
457.46	966.64
457.64	952.60
457.83	926.85
458.01	1015.79
458.19	917.49
458.38	973.66
458.56	1062.60
458.74	1008.77
458.93	1020.47
459.11	1008.77
459.29	957.28
459.48	961.96
459.66	1008.77
459.84	1027.50
460.03	1074.31
460.21	1069.62
460.39	1032.18
460.57	1090.69
460.76	1020.47
460.94	1046.22
461.12	1013.45
461.31	999.41
461.49	926.85
461.67	973.66
461.85	987.71
462.04	1097.71
462.22	1151.54
462.40	1100.05
462.59	1018.13
462.77	999.41
462.95	1081.33
463.13	1027.50
463.32	1132.82
463.50	1032.18
463.68	1020.47
463.86	1158.57
464.05	997.07
464.23	1043.88
464.41	945.58
464.59	1015.79
464.78	1001.75
464.96	1046.22
465.14	1004.09
465.32	1036.86
465.50	1025.15
465.69	1027.50
465.87	1076.65
466.05	1109.41
466.23	1086.01
466.41	1109.41
466.60	1039.20
466.78	1090.69
466.96	1172.61
467.14	1158.57
467.32	1076.65
467.51	1111.75
467.69	1188.99
467.87	1153.88
468.05	1151.54
468.23	1121.12
468.41	1034.52
468.60	1062.60
468.78	1128.14
468.96	1118.78
469.14	1095.37
469.32	1062.60
469.50	1078.99
469.69	1149.20
469.87	1231.12
470.05	1207.72
470.23	1132.82
470.41	1128.14
470.59	1121.12
470.77	1156.22
470.95	1160.91
471.14	1158.57
471.32	1015.79
471.50	1179.63
471.68	1242.82
471.86	1132.82
472.04	1198.35
472.22	1254.53
472.40	1137.50
472.58	1207.72
472.77	1160.91
472.95	1177.29
473.13	1249.85
473.31	1128.14
473.49	1172.61
473.67	1217.08
473.85	1280.27
474.03	1338.79
474.21	1287.29
474.39	1224.10
474.57	1308.36
474.75	1226.44
474.93	1228.78
475.12	1191.33
475.30	1277.93
475.48	1306.02
475.66	1338.79
475.84	1193.67
476.02	1294.32
476.20	1270.91
476.38	1240.48
476.56	1345.81
476.74	1366.87
476.92	1401.98
477.10	1446.45
477.28	1352.83
477.46	1261.55
477.64	1406.66
477.82	1322.40
478.00	1357.51
478.18	1441.77
478.36	1441.77
478.54	1313.04
478.72	1359.85
478.90	1441.77
479.08	1416.02
479.26	1507.30
479.44	1439.43
479.62	1519.01
479.80	1537.73
479.98	1526.03
480.16	1535.39
480.34	1519.01
480.52	1600.93
480.70	1596.25
480.88	1486.24
481.06	1565.82
481.24	1549.43
481.41	1575.18
481.59	1650.08
481.77	1614.97
481.95	1523.69
482.13	1600.93
482.31	1549.43
482.49	1561.14
482.67	1689.87
482.85	1661.78
483.03	1689.87
483.21	1703.91
483.39	1743.70
483.57	1764.76
483.74	1809.23
483.92	1713.27
484.10	1757.74
484.28	1736.68
484.46	1886.47
484.64	1849.02
484.82	1825.62
485.00	1874.77
485.18	1722.63
485.35	1846.68
485.53	1856.04
485.71	1867.75
485.89	1806.89
486.07	1921.58
486.25	1961.37
486.43	1849.02
486.61	1952.01
486.78	1956.69
486.96	2054.99
487.14	2099.46
487.32	1952.01
487.50	2015.20
487.68	2031.58
487.85	1996.48
488.03	2026.90
488.21	2125.21
488.39	2080.74
488.57	2143.93
488.75	2099.46
488.92	2347.56
489.10	2092.44
489.28	2087.76
489.46	2026.90
489.64	2139.25
489.81	2207.13
489.99	2139.25
490.17	2115.84
490.35	2272.66
490.53	2113.50
490.70	2204.78
490.88	2181.38
491.06	2253.94
491.24	2148.61
491.41	2328.83
491.59	2246.91
491.77	2200.10
491.95	2307.77
492.13	2331.17
492.30	2328.83
492.48	2239.89
492.66	2312.45
492.84	2223.51
493.01	2363.94
493.19	2319.47
493.37	2396.71
493.54	2438.84
493.72	2406.07
493.90	2345.22
494.08	2394.37
494.25	2413.09
494.43	2476.29
494.61	2471.61
494.79	2464.58
494.96	2513.74
495.14	2485.65
495.32	2504.37
495.49	2509.05
495.67	2579.27
495.85	2513.74
496.02	2581.61
496.20	2640.12
496.38	2640.12
496.55	2560.55
496.73	2684.59
496.91	2586.29
497.09	2579.27
497.26	2595.65
497.44	2693.96
497.62	2581.61
497.79	2539.48
497.97	2663.53
498.14	2649.49
498.32	2658.85
498.50	2717.36
498.67	2799.28
498.85	2743.11
499.03	2682.25
499.20	2726.72
499.38	2789.92
499.56	2661.19
499.73	2825.03
499.91	2881.20
500.08	2925.67
500.26	2794.60
500.44	2885.88
500.61	2733.75
500.79	2729.06
500.97	2860.13
501.14	2923.33
501.32	2796.94
501.49	2794.60
501.67	2853.11
501.84	2850.77
502.02	2860.13
502.20	2937.37
502.37	2965.46
502.55	2892.90
502.72	2892.90
502.90	2925.67
503.07	3059.08
503.25	2951.42
503.43	2932.69
503.60	2902.26
503.78	3023.97
503.95	2939.71
504.13	2925.67
504.30	3073.12
504.48	2993.55
504.65	3007.59
504.83	3028.65
505.01	3019.29
505.18	3021.63
505.36	3094.19
505.53	3012.27
505.71	3012.27
505.88	3005.25
506.06	3133.98
506.23	3002.91
506.41	3141.00
506.58	3096.53
506.76	3030.99
506.93	3152.70
507.11	3096.53
507.28	3098.87
507.46	3080.14
507.63	3152.70
507.81	3222.92
507.98	3166.74
508.16	3176.11
508.33	3236.96
508.50	3328.24
508.68	3339.94
508.85	3272.07
509.03	3227.60
509.20	3269.73
509.38	3274.41
509.55	3166.74
509.73	3208.87
509.90	3316.54
510.08	3138.66
510.25	3304.84
510.42	3342.28
510.60	3204.19
510.77	3323.56
510.95	3368.03
511.12	3379.73
511.30	3445.27
511.47	3335.26
511.64	3379.73
511.82	3349.31
511.99	3375.05
512.17	3421.86
512.34	3426.54
512.51	3496.76
512.69	3522.51
512.86	3492.08
513.04	3471.01
513.21	3410.16
513.38	3386.76
513.56	3351.65
513.73	3452.29
513.90	3452.29
514.08	3510.80
514.25	3520.17
514.43	3449.95
514.60	3435.91
514.77	3454.63
514.95	3613.79
515.12	3534.21
515.29	3487.40
515.47	3623.15
515.64	3461.65
515.81	3588.04
515.99	3676.98
516.16	3520.17
516.33	3620.81
516.51	3421.86
516.68	3396.12
516.85	3557.61
517.03	3581.02
517.20	3559.95
517.37	3721.45
517.54	3595.06
517.72	3627.83
517.89	3510.80
518.06	3566.98
518.24	3721.45
518.41	3581.02
518.58	3534.21
518.75	3641.87
518.93	3569.32
519.10	3691.02
519.27	3641.87
519.45	3744.86
519.62	3709.75
519.79	3707.41
519.96	3714.43
520.14	3524.85
520.31	3655.92
520.48	3630.17
520.65	3702.73
520.83	3779.97
521.00	3831.46
521.17	3688.68
521.34	3719.11
521.52	3908.69
521.69	3653.58
521.86	3770.60
522.03	3709.75
522.20	3913.38
522.38	3843.16
522.55	3770.60
522.72	3794.01
522.89	3777.62
523.07	3915.72
523.24	3838.48
523.41	3812.73
523.58	3819.75
523.75	3892.31
523.92	3882.95
524.10	3899.33
524.27	3840.82
524.44	3810.39
524.61	3957.85
524.78	3904.01
524.96	3922.74
525.13	3925.08
525.30	3981.25
525.47	3889.97
525.64	3990.61
525.81	3943.80
525.98	3911.04
526.16	3915.72
526.33	3983.59
526.50	3896.99
526.67	3997.64
526.84	3964.87
527.01	3936.78
527.18	3978.91
527.36	3955.51
527.53	4025.72
527.70	4023.38
527.87	3936.78
528.04	4025.72
528.21	4049.13
528.38	4063.17
528.55	4145.09
528.72	4044.45
528.89	4056.15
529.07	3889.97
529.24	3932.10
529.41	3995.29
529.58	4072.53
529.75	3971.89
529.92	4095.94
530.09	4117.00
530.26	4028.06
530.43	4196.58
530.60	4002.32
530.77	3943.80
530.94	4161.47
531.11	4035.08
531.28	4018.70
531.46	4177.86
531.63	4102.96
531.80	4051.47
531.97	4119.34
532.14	4161.47
532.31	4184.88
532.48	4149.77
532.65	4117.00
532.82	4093.60
532.99	4205.94
533.16	4109.98
533.33	4311.27
533.50	4182.54
533.67	4227.01
533.84	4189.56
534.01	4098.28
534.18	4198.92
534.35	4133.39
534.52	4196.58
534.69	4250.41
534.86	4383.82
535.03	4161.47
535.20	4248.07
535.37	4259.78
535.54	4348.72
535.71	4163.81
535.88	4266.80
536.05	4280.84
536.22	4304.25
536.38	4308.93
536.55	4479.79
536.72	4241.05
536.89	4224.67
537.06	4252.75
537.23	4259.78
537.40	4236.37
537.57	4299.56
537.74	4224.67
537.91	4311.27
538.08	4255.09
538.25	4376.80
538.42	4430.63
538.59	4346.37
538.75	4348.72
538.92	4327.65
539.09	4283.18
539.26	4409.57
539.43	4374.46
539.60	4374.46
539.77	4381.48
539.94	4294.88
540.11	4367.44
540.28	4561.70
540.44	4454.04
540.61	4531.28
540.78	4526.60
540.95	4465.74
541.12	4568.73
541.29	4681.07
541.46	4713.84
541.62	4692.77
541.79	4655.33
541.96	4638.94
542.13	4617.88
542.30	4643.62
542.47	4823.84
542.63	4688.09
542.80	4461.06
542.97	4645.96
543.14	4692.77
543.31	4709.16
543.48	4657.67
543.64	4814.48
543.81	4725.54
543.98	4716.18
544.15	4814.48
544.32	4674.05
544.48	4774.69
544.65	4830.87
544.82	4758.31
544.99	4699.80
545.16	4645.96
545.32	4772.35
545.49	4943.21
545.66	5177.26
545.83	5203.01
546.00	5254.50
546.16	4929.17
546.33	4727.88
546.50	4779.37
546.67	4690.43
546.83	4622.56
547.00	4615.54
547.17	4535.96
547.34	4444.68
547.50	4568.73
547.67	4702.14
547.84	4683.41
548.00	4664.69
548.17	4723.20
548.34	4622.56
548.51	4664.69
548.67	4660.01
548.84	4533.62
549.01	4601.49
549.18	4557.02
549.34	4643.62
549.51	4655.33
549.68	4592.13
549.84	4517.23
550.01	4669.37
550.18	4718.52
550.34	4819.16
550.51	4751.29
550.68	4566.39
550.84	4545.32
551.01	4629.58
551.18	4575.75
551.34	4596.81
551.51	4585.11
551.68	4667.03
551.84	4594.47
552.01	4709.16
552.18	4561.70
552.34	4667.03
552.51	4599.15
552.68	4725.54
552.84	4596.81
553.01	4594.47
553.18	4643.62
553.34	4592.13
553.51	4517.23
553.67	4709.16
553.84	4901.08
554.01	4599.15
554.17	4711.50
554.34	4568.73
554.51	4664.69
554.67	4762.99
554.84	4636.60
555.00	4517.23
555.17	4660.01
555.33	4725.54
555.50	4741.93
555.67	4641.28
555.83	4418.93
556.00	4685.75
556.16	4777.03
556.33	4777.03
556.50	4636.60
556.66	4739.58
556.83	4669.37
556.99	4664.69
557.16	4638.94
557.32	4620.22
557.49	4695.11
557.65	4645.96
557.82	4622.56
557.98	4685.75
558.15	4547.66
558.32	4662.35
558.48	4587.45
558.65	4702.14
558.81	4711.50
558.98	4641.28
559.14	4791.08
559.31	4557.02
559.47	4681.07
559.64	4650.64
559.80	4683.41
559.97	4741.93
560.13	4617.88
560.30	4741.93
560.46	4685.75
560.63	4725.54
560.79	4748.95
560.96	4751.29
561.12	4732.56
561.29	4580.43
561.45	4652.98
561.61	4655.33
561.78	4807.46
561.94	4760.65
562.11	4699.80
562.27	4683.41
562.44	4489.15
562.60	4718.52
562.77	4695.11
562.93	4779.37
563.10	4603.83
563.26	4697.46
563.42	4676.39
563.59	4744.27
563.75	4730.22
563.92	4702.14
564.08	4676.39
564.24	4793.42
564.41	4699.80
564.57	4645.96
564.74	4589.79
564.90	4685.75
565.07	4772.35
565.23	4704.48
565.39	4657.67
565.56	4770.01
565.72	4573.41
565.88	4615.54
566.05	4648.30
566.21	4554.68
566.38	4552.34
566.54	4767.67
566.70	4620.22
566.87	4727.88
567.03	4713.84
567.19	4760.65
567.36	4767.67
567.52	4746.61
567.68	4624.90
567.85	4610.86
568.01	4695.11
568.17	4748.95
568.34	4791.08
568.50	4676.39
568.66	4671.71
568.83	4725.54
568.99	4643.62
569.15	4697.46
569.32	4671.71
569.48	4716.18
569.64	4753.63
569.81	4837.89
569.97	4650.64
570.13	4816.82
570.30	4706.82
570.46	4643.62
570.62	4706.82
570.78	4833.21
570.95	4636.60
571.11	4816.82
571.27	4770.01
571.43	4645.96
571.60	4674.05
571.76	4683.41
571.92	4657.67
572.09	4631.92
572.25	4643.62
572.41	4849.59
572.57	4634.26
572.74	4915.12
572.90	4627.24
573.06	4779.37
573.22	4802.78
573.38	4643.62
573.55	4690.43
573.71	4805.12
573.87	4898.74
574.03	4800.44
574.20	4624.90
574.36	4765.33
574.52	4615.54
574.68	4667.03
574.84	4737.24
575.01	4847.25
575.17	4781.71
575.33	4926.83
575.49	4800.44
575.65	4706.82
575.82	4734.90
575.98	4854.27
576.14	4718.52
576.30	4746.61
576.46	4903.42
576.62	4770.01
576.79	4929.17
576.95	4873.00
577.11	4765.33
577.27	4809.80
577.43	4741.93
577.59	4643.62
577.75	4720.86
577.92	4669.37
578.08	4547.66
578.24	4538.30
578.40	4863.63
578.56	4851.93
578.72	4854.27
578.88	4875.34
579.04	4861.29
579.21	4947.89
579.37	4898.74
579.53	4723.20
579.69	4795.76
579.85	4791.08
580.01	4744.27
580.17	4795.76
580.33	4702.14
580.49	4751.29
580.65	4858.95
580.82	4674.05
580.98	4816.82
581.14	4716.18
581.30	4753.63
581.46	4674.05
581.62	4968.96
581.78	4624.90
581.94	4802.78
582.10	4734.90
582.26	4697.46
582.42	4751.29
582.58	4805.12
582.74	4802.78
582.90	4732.56
583.06	4851.93
583.22	4793.42
583.38	4734.90
583.54	4716.18
583.70	4816.82
583.86	4987.68
584.02	4732.56
584.18	4812.14
584.34	4926.83
584.50	4784.06
584.66	4821.50
584.82	4786.40
584.98	4835.55
585.14	4793.42
585.30	4760.65
585.46	4638.94
585.62	4795.76
585.78	4734.90
585.94	4765.33
586.10	4842.57
586.26	4671.71
586.42	4744.27
586.58	4758.31
586.74	4798.10
586.90	4919.81
587.06	4791.08
587.22	4699.80
587.38	4847.25
587.54	4730.22
587.70	4772.35
587.86	4711.50
588.02	4718.52
588.18	4791.08
588.34	4638.94
588.49	4723.20
588.65	4667.03
588.81	4638.94
588.97	4837.89
589.13	4568.73
589.29	4601.49
589.45	4683.41
589.61	4655.33
589.77	4760.65
589.93	4704.48
590.08	4688.09
590.24	4812.14
590.40	4622.56
590.56	4753.63
590.72	4629.58
590.88	4599.15
591.04	4650.64
591.20	4737.24
591.35	4800.44
591.51	4786.40
591.67	4716.18
591.83	4767.67
591.99	4720.86
592.15	4755.97
592.31	4805.12
592.46	4699.80
592.62	4940.87
592.78	4781.71
592.94	4695.11
593.10	4744.27
593.26	4748.95
593.41	4664.69
593.57	4765.33
593.73	4711.50
593.89	4835.55
594.05	4713.84
594.20	4582.77
594.36	4636.60
594.52	4676.39
594.68	4652.98
594.84	4657.67
594.99	4650.64
595.15	4594.47
595.31	4861.29
595.47	4730.22
595.62	4723.20
595.78	4697.46
595.94	4753.63
596.10	4641.28
596.25	4648.30
596.41	4720.86
596.57	4662.35
596.73	4638.94
596.88	4643.62
597.04	4648.30
597.20	4716.18
597.36	4786.40
597.51	4788.74
597.67	4667.03
597.83	4606.17
597.99	4688.09
598.14	4620.22
598.30	4638.94
598.46	4688.09
598.61	4772.35
598.77	4660.01
598.93	4751.29
599.09	4716.18
599.24	4709.16
599.40	4678.73
599.56	4795.76
599.71	4765.33
599.87	4793.42
600.03	4777.03
600.18	4561.70
600.34	4615.54
600.50	4517.23
600.65	4648.30
600.81	4737.24
600.97	4610.86
601.12	4798.10
601.28	4779.37
601.44	4718.52
