SpectraSuite Data File
++++++++++++++++++++++++++++++++++++
Date: Fri Oct 04 11:39:43 GMT-05:00 2013
User: price-jones
Dark Spectrum Present: No
Reference Spectrum Present: No
Number of Sampled Component Spectra: 1
Spectrometers: USB2+H05261
Integration Time (usec): 100000 (USB2+H05261)
Spectra Averaged: 1 (USB2+H05261)
Boxcar Smoothing: 0 (USB2+H05261)
Correct for Electrical Dark: No (USB2+H05261)
Strobe/Lamp Enabled: No (USB2+H05261)
Correct for Detector Non-linearity: No (USB2+H05261)
Correct for Stray Light: No (USB2+H05261)
Number of Pixels in Processed Spectrum: 2048
>>>>>Begin Processed Spectral Data<<<<<
365.73	11.70
365.92	11.70
366.12	11.70
366.32	0.00
366.52	0.00
366.72	0.00
366.91	0.00
367.11	0.00
367.31	0.00
367.51	0.00
367.70	0.00
367.90	0.00
368.10	0.00
368.30	0.00
368.49	0.00
368.69	0.00
368.89	0.00
369.09	4.68
369.28	0.00
369.48	0.00
369.68	28.09
369.87	0.00
370.07	0.00
370.27	23.41
370.47	105.32
370.66	152.13
370.86	147.45
371.06	220.01
371.25	220.01
371.45	147.45
371.65	166.18
371.84	259.80
372.04	229.37
372.24	177.88
372.44	264.48
372.63	236.39
372.83	369.80
373.03	301.93
373.22	241.08
373.42	229.37
373.62	299.59
373.81	220.01
374.01	330.02
374.21	255.12
374.40	276.18
374.60	290.23
374.79	276.18
374.99	308.95
375.19	250.44
375.38	318.31
375.58	297.25
375.78	348.74
375.97	322.99
376.17	290.23
376.37	304.27
376.56	203.63
376.76	264.48
376.95	337.04
377.15	353.42
377.35	271.50
377.54	271.50
377.74	358.10
377.93	374.49
378.13	334.70
378.33	334.70
378.52	287.89
378.72	301.93
378.91	344.06
379.11	372.15
379.31	229.37
379.50	280.86
379.70	301.93
379.89	386.19
380.09	297.25
380.28	271.50
380.48	301.93
380.68	341.72
380.87	358.10
381.07	365.12
381.26	294.91
381.46	369.80
381.65	313.63
381.85	374.49
382.04	376.83
382.24	358.10
382.43	334.70
382.63	346.40
382.83	421.30
383.02	376.83
383.22	409.59
383.41	325.33
383.61	330.02
383.80	437.68
384.00	372.15
384.19	379.17
384.39	395.55
384.58	360.44
384.78	330.02
384.97	351.08
385.17	425.98
385.36	353.42
385.56	362.78
385.75	388.53
385.95	348.74
386.14	411.93
386.34	374.49
386.53	435.34
386.72	390.87
386.92	465.77
387.11	418.96
387.31	421.30
387.50	397.89
387.70	421.30
387.89	533.64
388.09	411.93
388.28	442.36
388.48	442.36
388.67	456.40
388.86	395.55
389.06	414.27
389.25	458.74
389.45	374.49
389.64	376.83
389.84	468.11
390.03	407.25
390.22	465.77
390.42	491.51
390.61	437.68
390.81	472.79
391.00	454.06
391.19	561.73
391.39	463.43
391.58	470.45
391.78	550.03
391.97	491.51
392.16	472.79
392.36	564.07
392.55	514.92
392.75	547.69
392.94	535.98
393.13	557.05
393.33	552.37
393.52	451.72
393.71	582.79
393.91	552.37
394.10	500.87
394.29	470.45
394.49	564.07
394.68	606.20
394.88	547.69
395.07	578.11
395.26	491.51
395.46	589.82
395.65	648.33
395.84	606.20
396.04	669.39
396.23	655.35
396.42	571.09
396.62	594.50
396.81	638.97
397.00	645.99
397.19	641.31
397.39	603.86
397.58	631.94
397.77	613.22
397.97	620.24
398.16	744.29
398.35	709.18
398.55	624.92
398.74	683.44
398.93	657.69
399.12	657.69
399.32	641.31
399.51	660.03
399.70	781.74
399.90	732.59
400.09	681.10
400.28	690.46
400.47	786.42
400.67	830.89
400.86	786.42
401.05	807.48
401.24	763.01
401.44	903.45
401.63	748.97
401.82	816.85
402.01	734.93
402.21	802.80
402.40	828.55
402.59	851.96
402.78	784.08
402.97	971.32
403.17	961.96
403.36	903.45
403.55	947.92
403.74	992.39
403.93	929.19
404.13	873.02
404.32	926.85
404.51	971.32
404.70	947.92
404.89	882.38
405.09	1008.77
405.28	964.30
405.47	1048.56
405.66	1083.67
405.85	1069.62
406.05	1018.13
406.24	987.71
406.43	1144.52
406.62	1109.41
406.81	1137.50
407.00	1062.60
407.20	1116.44
407.39	1139.84
407.58	1111.75
407.77	1139.84
407.96	1123.46
408.15	1167.93
408.34	1100.05
408.54	1231.12
408.73	1100.05
408.92	1329.42
409.11	1231.12
409.30	1242.82
409.49	1203.04
409.68	1259.21
409.87	1385.60
410.07	1282.61
410.26	1366.87
410.45	1397.30
410.64	1221.76
410.83	1324.74
411.02	1315.38
411.21	1350.49
411.40	1373.89
411.59	1474.54
411.78	1462.83
411.98	1401.98
412.17	1462.83
412.36	1526.03
412.55	1467.52
412.74	1558.80
412.93	1579.86
413.12	1561.14
413.31	1621.99
413.50	1593.90
413.69	1640.72
413.88	1774.13
414.07	1629.01
414.26	1629.01
414.45	1755.40
414.64	1757.74
414.83	1802.21
415.02	1804.55
415.22	1788.17
415.41	1809.23
415.60	1895.83
415.79	1816.26
415.98	1907.54
416.17	1905.20
416.36	1865.41
416.55	2024.56
416.74	1975.41
416.93	1994.14
417.12	2010.52
417.31	2033.93
417.50	1975.41
417.69	2094.78
417.88	2092.44
418.07	1996.48
418.26	2118.18
418.45	2246.91
418.64	2270.32
418.83	2249.25
419.02	2223.51
419.21	2298.41
419.39	2305.43
419.58	2176.70
419.77	2225.85
419.96	2286.70
420.15	2354.58
420.34	2242.23
420.53	2305.43
420.72	2382.67
420.91	2345.22
421.10	2368.62
421.29	2462.24
421.48	2413.09
421.67	2380.32
421.86	2328.83
422.05	2450.54
422.24	2312.45
422.43	2385.01
422.61	2455.22
422.80	2523.10
422.99	2544.16
423.18	2497.35
423.37	2546.50
423.56	2586.29
423.75	2483.31
423.94	2340.54
424.13	2396.71
424.32	2413.09
424.50	2473.95
424.69	2640.12
424.88	2656.51
425.07	2499.69
425.26	2424.80
425.45	2511.39
425.64	2546.50
425.83	2658.85
426.01	2448.20
426.20	2504.37
426.39	2462.24
426.58	2586.29
426.77	2605.02
426.96	2595.65
427.15	2670.55
427.33	2600.34
427.52	2670.55
427.71	2773.53
427.90	2642.46
428.09	2689.28
428.28	2796.94
428.46	2743.11
428.65	2717.36
428.84	2686.94
429.03	2757.15
429.22	2722.04
429.40	2785.24
429.59	2855.45
429.78	2780.56
429.97	2729.06
430.16	2801.62
430.34	2836.73
430.53	2925.67
430.72	2960.78
430.91	2906.95
431.10	2834.39
431.28	2949.08
431.47	2902.26
431.66	2970.14
431.85	2995.89
432.03	3005.25
432.22	3124.62
432.41	3012.27
432.60	3185.47
432.79	2981.84
432.97	2998.23
433.16	2963.12
433.35	3068.44
433.54	3094.19
433.72	3180.79
433.91	3110.57
434.10	3171.43
434.28	3152.70
434.47	3204.19
434.66	3148.02
434.85	3290.79
435.03	3206.53
435.22	3403.14
435.41	3669.96
435.59	3672.30
435.78	3571.66
435.97	3431.23
436.16	3361.01
436.34	3501.44
436.53	3353.99
436.72	3393.78
436.90	3318.88
437.09	3473.36
437.28	3475.70
437.46	3295.47
437.65	3307.18
437.84	3517.83
438.02	3461.65
438.21	3569.32
438.40	3414.84
438.58	3548.25
438.77	3609.11
438.96	3625.49
439.14	3548.25
439.33	3810.39
439.52	3761.24
439.70	3637.19
439.89	3611.45
440.08	3665.28
440.26	3950.82
440.45	3758.90
440.63	3810.39
440.82	3927.42
441.01	3915.72
441.19	4009.34
441.38	3985.93
441.57	3983.59
441.75	3943.80
441.94	4081.89
442.12	4044.45
442.31	4166.15
442.50	4109.98
442.68	4021.04
442.87	4067.85
443.05	4219.99
443.24	4262.12
443.43	4339.35
443.61	4259.78
443.80	4374.46
443.98	4243.39
444.17	4056.15
444.35	4276.16
444.54	4337.01
444.73	4262.12
444.91	4255.09
445.10	4271.48
445.28	4245.73
445.47	4182.54
445.65	4348.72
445.84	4411.91
446.02	4276.16
446.21	4252.75
446.39	4154.45
446.58	4449.36
446.77	4313.61
446.95	4208.28
447.14	4409.57
447.32	4360.42
447.51	4248.07
447.69	4444.68
447.88	4339.35
448.06	4353.40
448.25	4362.76
448.43	4273.82
448.62	4280.84
448.80	4334.67
448.99	4400.21
449.17	4484.47
449.36	4334.67
449.54	4493.83
449.73	4423.61
449.91	4704.48
450.10	4671.71
450.28	4779.37
450.46	4561.70
450.65	4716.18
450.83	4830.87
451.02	4657.67
451.20	4760.65
451.39	4709.16
451.57	4692.77
451.76	4648.30
451.94	4720.86
452.13	4819.16
452.31	4828.53
452.49	4711.50
452.68	4870.65
452.86	4751.29
453.05	4786.40
453.23	4875.34
453.42	4816.82
453.60	4877.68
453.78	4765.33
453.97	4814.48
454.15	5013.43
454.34	4833.21
454.52	4957.25
454.70	5022.79
454.89	4903.42
455.07	4968.96
455.26	5074.28
455.44	5130.45
455.62	5174.92
455.81	4973.64
455.99	5219.39
456.17	5259.18
456.36	5085.98
456.54	5170.24
456.73	5224.08
456.91	5432.38
457.09	5444.09
457.28	5549.41
457.46	5504.94
457.64	5404.30
457.83	5345.78
458.01	5373.87
458.19	5420.68
458.38	5469.83
458.56	5497.92
458.74	5408.98
458.93	5439.40
459.11	5570.48
459.29	5476.85
459.48	5537.71
459.66	5591.54
459.84	5659.42
460.03	5678.14
460.21	5586.86
460.39	5785.80
460.57	5488.56
460.76	5528.35
460.94	5685.16
461.12	5724.95
461.31	5731.97
461.49	5631.33
461.67	5708.57
461.85	5905.17
462.04	5668.78
462.22	6263.27
462.40	5837.30
462.59	5841.98
462.77	5844.32
462.95	5961.34
463.13	5916.87
463.32	5844.32
463.50	5947.30
463.68	6061.99
463.86	5907.51
464.05	5743.67
464.23	5949.64
464.41	5982.41
464.59	5891.13
464.78	6181.35
464.96	6155.61
465.14	5933.26
465.32	6174.33
465.50	6176.67
465.69	6003.47
465.87	6040.92
466.05	6122.84
466.23	6052.63
466.41	6167.31
466.60	6338.17
466.78	6134.54
466.96	6221.14
467.14	6162.63
467.32	6179.01
467.51	6380.30
467.69	6155.61
467.87	6389.66
468.05	6457.54
468.23	6291.36
468.41	6263.27
468.60	6354.55
468.78	6534.78
468.96	6317.11
469.14	6506.69
469.32	6485.62
469.50	6368.60
469.69	6710.32
469.87	6726.70
470.05	6607.33
470.23	6609.67
470.41	6541.80
470.59	6541.80
470.77	6670.53
470.95	6927.99
471.14	6775.85
471.32	6754.79
471.50	7021.61
471.68	6635.42
471.86	6775.85
472.04	6993.52
472.22	6956.07
472.40	6937.35
472.58	7061.40
472.77	7042.67
472.95	7159.70
473.13	7360.98
473.31	6991.18
473.49	7325.88
473.67	7199.49
473.85	7316.51
474.03	7314.17
474.21	7368.01
474.39	7510.78
474.57	7515.46
474.75	7503.76
474.93	7681.64
475.12	7569.29
475.30	7517.80
475.48	7485.03
475.66	7515.46
475.84	7761.22
476.02	7676.96
476.20	7747.17
476.38	7953.14
476.56	8320.60
476.74	8138.04
476.92	7875.90
477.10	8147.40
477.28	8194.22
477.46	7988.25
477.64	8039.74
477.82	8184.85
478.00	8498.49
478.18	8528.91
478.36	8451.67
478.54	8711.47
478.72	8526.57
478.90	8720.84
479.08	8767.65
479.26	8793.39
479.44	8870.63
479.62	8861.27
479.80	9081.28
479.98	9132.77
480.16	9146.81
480.34	8903.40
480.52	9249.80
480.70	9514.28
480.88	9352.78
481.06	9254.48
481.24	9263.84
481.41	9764.72
481.59	9809.19
481.77	9748.33
481.95	9720.24
482.13	9935.57
482.31	9844.29
482.49	9998.77
482.67	10190.69
482.85	9966.00
483.03	10614.33
483.21	10478.58
483.39	10579.22
483.57	10611.99
483.74	10684.55
483.92	10824.98
484.10	10899.87
484.28	10925.62
484.46	10881.15
484.64	11140.95
484.82	10822.64
485.00	10979.45
485.18	11396.07
485.35	11197.12
485.53	11349.26
485.71	11335.21
485.89	11721.40
486.07	11431.18
486.25	11824.39
486.43	11758.85
486.61	11997.59
486.78	12271.43
486.96	12299.52
487.14	12044.40
487.32	12238.66
487.50	12348.67
487.68	12545.27
487.85	12652.94
488.03	12760.60
488.21	13078.91
488.39	12992.31
488.57	13060.19
488.75	13451.06
488.92	13291.90
489.10	13184.24
489.28	13507.23
489.46	13462.76
489.64	13317.65
489.81	13823.20
489.99	13980.02
490.17	13631.28
490.35	14008.11
490.53	14099.39
490.70	14300.67
490.88	14071.30
491.06	14452.81
491.24	14279.61
491.41	14506.64
491.59	14373.23
491.77	14494.94
491.95	14560.47
492.13	14810.91
492.30	14853.04
492.48	14839.00
492.66	14855.38
492.84	14960.70
493.01	15286.04
493.19	15332.85
493.37	15374.98
493.54	15325.83
493.72	15681.59
493.90	15295.40
494.08	15845.43
494.25	15878.19
494.43	15868.83
494.61	15882.88
494.79	16482.05
494.96	15913.30
495.14	16116.93
495.32	16552.27
495.49	16620.14
495.67	16418.86
495.85	16786.32
496.02	16725.47
496.20	16636.53
496.38	16989.95
496.55	16971.22
496.73	17071.87
496.91	16982.93
497.09	17139.74
497.26	17561.04
497.44	17397.20
497.62	17647.64
497.79	17680.41
497.97	17673.39
498.14	17785.73
498.32	17757.64
498.50	17713.17
498.67	18036.17
498.85	18075.96
499.03	17972.97
499.20	17989.36
499.38	18047.87
499.56	18263.20
499.73	18703.22
499.91	18553.43
500.08	18452.78
500.26	18555.77
500.44	18675.13
500.61	19056.64
500.79	18752.37
500.97	18897.49
501.14	19124.52
501.32	19021.53
501.49	19157.28
501.67	18970.04
501.84	19199.41
502.02	19431.13
502.20	19433.47
502.37	19616.03
502.55	19562.20
502.72	19548.15
502.90	19627.73
503.07	19620.71
503.25	19859.45
503.43	19688.59
503.60	19882.85
503.78	20056.05
503.95	19941.36
504.13	20027.96
504.30	20147.33
504.48	20034.99
504.65	19992.86
504.83	20395.43
505.01	20491.39
505.18	20444.58
505.36	20594.37
505.53	20011.58
505.71	20629.48
505.88	20580.33
506.06	20842.47
506.23	20727.78
506.41	20840.13
506.58	20854.17
506.76	20793.32
506.93	20879.92
507.11	21074.18
507.28	21324.62
507.46	21125.68
507.63	21226.32
507.81	21715.49
507.98	21565.70
508.16	21142.06
508.33	21376.11
508.50	21528.25
508.68	21671.02
508.85	21968.27
509.03	21741.24
509.20	21965.93
509.38	21961.25
509.55	22127.42
509.73	22246.79
509.90	21968.27
510.08	22312.33
510.25	22265.52
510.42	22300.62
510.60	22291.26
510.77	22752.35
510.95	22632.98
511.12	22288.92
511.30	22544.04
511.47	22665.75
511.64	22735.96
511.82	23124.49
511.99	22991.08
512.17	23288.33
512.34	23108.11
512.51	23147.90
512.69	23108.11
512.86	23190.03
513.04	23608.98
513.21	23737.71
513.38	23599.62
513.56	23798.57
513.73	23634.73
513.90	23370.25
514.08	23695.58
514.25	23721.33
514.43	24114.54
514.60	23702.61
514.77	23564.51
514.95	23967.09
515.12	23749.42
515.29	23850.06
515.47	24020.92
515.64	24151.99
515.81	23943.68
515.99	24554.56
516.16	24627.12
516.33	24706.70
516.51	24783.93
516.68	24442.21
516.85	24409.45
517.03	24872.87
517.20	24910.32
517.37	24877.55
517.54	24828.40
517.72	24922.02
517.89	24685.63
518.06	24727.76
518.24	24952.45
518.41	25160.76
518.58	25078.84
518.75	25146.72
518.93	25605.46
519.10	25385.45
519.27	25511.84
519.45	25282.47
519.62	25053.09
519.79	25757.60
519.96	25919.09
520.14	25656.95
520.31	25860.58
520.48	26043.14
520.65	25713.13
520.83	26103.99
521.00	25816.11
521.17	26001.01
521.34	25851.22
521.52	25785.68
521.69	26281.88
521.86	26244.43
522.03	26405.92
522.20	26361.45
522.38	26239.75
522.55	25846.54
522.72	26394.22
522.89	26277.19
523.07	26691.47
523.24	26682.11
523.41	26955.95
523.58	26396.56
523.75	26764.03
523.92	26740.62
524.10	26569.76
524.27	27044.89
524.44	26848.29
524.61	27185.32
524.78	26986.38
524.96	26965.31
525.13	27262.56
525.30	27080.00
525.47	27278.94
525.64	27077.66
525.81	27335.12
525.98	27381.93
526.16	27400.65
526.33	27197.02
526.50	27555.13
526.67	27442.78
526.84	27351.50
527.01	27314.05
527.18	27672.15
527.36	27960.04
527.53	27733.01
527.70	28149.62
527.87	28051.32
528.04	27903.87
528.21	27859.40
528.38	27800.88
528.55	28133.24
528.72	28400.06
528.89	28362.61
529.07	28058.34
529.24	28205.80
529.41	28512.41
529.58	28161.33
529.75	28507.72
529.92	28599.01
530.09	28407.08
530.26	28404.74
530.43	28751.14
530.60	28386.02
530.77	28739.44
530.94	28559.22
531.11	28505.38
531.28	28346.23
531.46	28554.54
531.63	28493.68
531.80	28973.49
531.97	29097.54
532.14	29223.93
532.31	29237.97
532.48	28973.49
532.65	29043.71
532.82	28964.13
532.99	28613.05
533.16	29195.84
533.33	29462.66
533.50	29355.00
533.67	29514.16
533.84	29315.21
534.01	29032.00
534.18	29249.67
534.35	29544.58
534.52	29355.00
534.69	29984.60
534.86	29685.01
535.03	29743.53
535.20	29542.24
535.37	29685.01
535.54	29537.56
535.71	29795.02
535.88	29802.04
536.05	29919.07
536.22	29912.05
536.38	30136.74
536.55	30064.18
536.72	30235.04
536.89	30085.25
537.06	30029.07
537.23	30424.62
537.40	30263.13
537.57	29998.65
537.74	30213.98
537.91	30345.05
538.08	30670.38
538.25	30281.85
538.42	30312.28
538.59	30309.94
538.75	30185.89
538.92	30574.42
539.09	30225.68
539.26	30721.87
539.43	30714.85
539.60	30993.37
539.77	30534.63
539.94	31140.83
540.11	30754.64
540.28	30717.19
540.44	31115.08
540.61	30780.39
540.78	31356.16
540.95	31154.87
541.12	31522.34
541.29	31227.43
541.46	31583.19
541.62	31197.00
541.79	31426.37
541.96	31253.17
542.13	31522.34
542.30	31325.73
542.47	31763.41
542.63	31477.86
542.80	31770.43
542.97	31962.36
543.14	31735.32
543.31	31730.64
543.48	31779.79
543.64	31838.31
543.81	32070.02
543.98	32304.07
544.15	31997.46
544.32	31952.99
544.48	32306.41
544.65	32182.37
544.82	31842.99
544.99	31948.31
545.16	32212.79
545.32	31997.46
545.49	32783.88
545.66	33266.03
545.83	33436.89
546.00	33441.57
546.16	32877.51
546.33	32563.87
546.50	32187.05
546.67	32652.81
546.83	32009.17
547.00	32357.91
547.17	32606.00
547.34	32493.66
547.50	32598.98
547.67	32910.27
547.84	32400.04
548.00	32659.84
548.17	32510.04
548.34	31887.46
548.51	32697.28
548.67	32748.78
548.84	32762.82
549.01	32542.81
549.18	32563.87
549.34	32589.62
549.51	32826.01
549.68	33015.60
549.84	32786.22
550.01	32671.54
550.18	32762.82
550.34	32690.26
550.51	32989.85
550.68	33352.63
550.84	32636.43
551.01	33071.77
551.18	32519.40
551.34	32720.69
551.51	32816.65
551.68	33167.73
551.84	33387.74
552.01	32865.80
552.18	32896.23
552.34	33088.15
552.51	33097.52
552.68	32561.53
552.84	33184.12
553.01	33156.03
553.18	33347.95
553.34	33406.47
553.51	33294.12
553.67	33394.76
553.84	33682.65
554.01	33617.11
554.17	33202.84
554.34	33020.28
554.51	33104.54
554.67	33928.41
554.84	33628.82
555.00	33432.21
555.17	33511.79
555.33	33556.26
555.50	33345.61
555.67	33240.29
555.83	33479.02
556.00	33015.60
556.16	33745.84
556.33	33446.26
556.50	33542.22
556.66	33502.43
556.83	33511.79
556.99	33830.10
557.16	33663.93
557.32	33846.49
557.49	33776.27
557.65	33401.79
557.82	33624.14
557.98	34132.03
558.15	33881.60
558.32	33809.04
558.48	33921.38
558.65	33914.36
558.81	34169.48
558.98	33858.19
559.14	33883.94
559.31	33766.91
559.47	33876.91
559.64	33869.89
559.80	34022.03
559.97	34157.78
560.13	34015.01
560.30	34146.08
560.46	33879.25
560.63	34396.51
560.79	33977.56
560.96	33986.92
561.12	33907.34
561.29	33979.90
561.45	34295.87
561.61	34628.23
561.78	34139.05
561.94	33977.56
562.11	34316.93
562.27	34384.81
562.44	34125.01
562.60	34291.19
562.77	34017.35
562.93	34249.06
563.10	34227.99
563.26	34003.30
563.42	34639.93
563.59	34314.59
563.75	34684.40
563.92	34363.75
564.08	34286.51
564.24	34132.03
564.41	33947.13
564.57	34125.01
564.74	34279.49
564.90	34511.20
565.07	34572.05
565.23	34211.61
565.39	34125.01
565.56	34766.32
565.72	34220.97
565.88	34660.99
566.05	34541.63
566.21	34239.70
566.38	34415.24
566.54	34431.62
566.70	34464.39
566.87	34960.58
567.03	34253.74
567.19	34572.05
567.36	34660.99
567.52	34869.30
567.68	34588.44
567.85	34476.09
568.01	34630.57
568.17	34389.49
568.34	34803.77
568.50	34597.80
568.66	34560.35
568.83	34930.16
568.99	34668.02
569.15	34478.43
569.32	34176.50
569.48	34143.74
569.64	34679.72
569.81	34302.89
569.97	34354.38
570.13	34976.97
570.30	34703.12
570.46	34651.63
570.62	34511.20
570.78	34822.49
570.95	34586.10
571.11	34888.03
571.27	34513.54
571.43	34501.84
571.60	34541.63
571.76	34649.29
571.92	34724.19
572.09	34752.27
572.25	34394.17
572.41	34705.46
572.57	34600.14
572.74	34417.58
572.90	34679.72
573.06	34377.79
573.22	34693.76
573.38	34733.55
573.55	34756.96
573.71	35115.06
573.87	35218.04
574.03	34464.39
574.20	34473.75
574.36	34401.19
574.52	34466.73
574.68	34719.51
574.84	34902.07
575.01	35044.84
575.17	34590.78
575.33	34993.35
575.49	34892.71
575.65	35051.86
575.82	34920.79
575.98	34838.87
576.14	34920.79
576.30	35187.61
576.46	34801.43
576.62	35047.18
576.79	34899.73
576.95	34733.55
577.11	34967.60
577.27	34909.09
577.43	35136.12
577.59	34782.70
577.75	34916.11
577.92	34506.52
578.08	34391.83
578.24	34639.93
578.40	34878.66
578.56	35306.98
578.72	35255.49
578.88	35433.37
579.04	35276.55
579.21	34958.24
579.37	35061.22
579.53	34864.62
579.69	34630.57
579.85	35040.16
580.01	34972.28
580.17	34593.12
580.33	35122.08
580.49	34768.66
580.65	35182.93
580.82	35269.53
580.98	35049.52
581.14	34927.81
581.30	34829.51
581.46	34892.71
581.62	34672.70
581.78	34391.83
581.94	34618.86
582.10	34440.98
582.26	35086.97
582.42	35264.85
582.58	34934.84
582.74	35105.70
582.90	35063.57
583.06	35456.78
583.22	35077.61
583.38	34869.30
583.54	34941.86
583.70	34944.20
583.86	35267.19
584.02	34824.83
584.18	35072.93
584.34	35241.45
584.50	35068.25
584.66	34934.84
584.82	34906.75
584.98	34953.56
585.14	34810.79
585.30	34639.93
585.46	35051.86
585.62	34660.99
585.78	34873.98
585.94	34904.41
586.10	35103.35
586.26	34841.21
586.42	35063.57
586.58	35379.54
586.74	35185.27
586.90	35154.85
587.06	34897.39
587.22	35040.16
587.38	35070.59
587.54	35119.74
587.70	35442.73
587.86	35189.95
588.02	34955.90
588.18	35131.44
588.34	35335.07
588.49	34981.65
588.65	35136.12
588.81	34890.37
588.97	35318.68
589.13	35164.21
589.29	34511.20
589.45	35161.87
589.61	35161.87
589.77	35440.39
589.93	35660.40
590.08	35339.75
590.24	35508.27
590.40	35164.21
590.56	35330.39
590.72	35063.57
590.88	34766.32
591.04	35253.15
591.20	35608.91
591.35	35161.87
591.51	35648.70
