SpectraSuite Data File
++++++++++++++++++++++++++++++++++++
Date: Fri Oct 04 11:39:20 GMT-05:00 2013
User: price-jones
Dark Spectrum Present: No
Reference Spectrum Present: No
Number of Sampled Component Spectra: 1
Spectrometers: USB2+H05261
Integration Time (usec): 100000 (USB2+H05261)
Spectra Averaged: 1 (USB2+H05261)
Boxcar Smoothing: 0 (USB2+H05261)
Correct for Electrical Dark: No (USB2+H05261)
Strobe/Lamp Enabled: No (USB2+H05261)
Correct for Detector Non-linearity: No (USB2+H05261)
Correct for Stray Light: No (USB2+H05261)
Number of Pixels in Processed Spectrum: 2048
>>>>>Begin Processed Spectral Data<<<<<
365.73	63.19
365.92	63.19
366.12	63.19
366.32	18.72
366.52	0.00
366.72	32.77
366.91	0.00
367.11	0.00
367.31	0.00
367.51	0.00
367.70	0.00
367.90	0.00
368.10	0.00
368.30	0.00
368.49	0.00
368.69	0.00
368.89	0.00
369.09	0.00
369.28	0.00
369.48	0.00
369.68	0.00
369.87	2.34
370.07	0.00
370.27	84.26
370.47	18.72
370.66	175.54
370.86	287.89
371.06	273.84
371.25	369.80
371.45	243.42
371.65	327.68
371.84	241.08
372.04	278.52
372.24	367.46
372.44	369.80
372.63	358.10
372.83	388.53
373.03	337.04
373.22	390.87
373.42	313.63
373.62	372.15
373.81	416.62
374.01	376.83
374.21	409.59
374.40	379.17
374.60	456.40
374.79	376.83
374.99	425.98
375.19	437.68
375.38	348.74
375.58	407.25
375.78	463.43
375.97	493.85
376.17	433.00
376.37	489.17
376.56	372.15
376.76	407.25
376.95	416.62
377.15	578.11
377.35	456.40
377.54	407.25
377.74	482.15
377.93	454.06
378.13	440.02
378.33	440.02
378.52	400.23
378.72	433.00
378.91	535.98
379.11	376.83
379.31	386.19
379.50	365.12
379.70	533.64
379.89	507.90
380.09	447.04
380.28	543.00
380.48	463.43
380.68	379.17
380.87	433.00
381.07	444.70
381.26	545.34
381.46	503.22
381.65	510.24
381.85	444.70
382.04	482.15
382.24	519.60
382.43	559.39
382.63	557.05
382.83	507.90
383.02	566.41
383.22	496.19
383.41	540.66
383.61	580.45
383.80	517.26
384.00	566.41
384.19	486.83
384.39	524.28
384.58	561.73
384.78	594.50
384.97	596.84
385.17	566.41
385.36	540.66
385.56	526.62
385.75	557.05
385.95	613.22
386.14	578.11
386.34	662.37
386.53	587.47
386.72	547.69
386.92	592.16
387.11	594.50
387.31	514.92
387.50	571.09
387.70	580.45
387.89	631.94
388.09	660.03
388.28	601.52
388.48	655.35
388.67	603.86
388.86	585.13
389.06	564.07
389.25	650.67
389.45	676.41
389.64	685.78
389.84	741.95
390.03	683.44
390.22	748.97
390.42	638.97
390.61	685.78
390.81	709.18
391.00	786.42
391.19	720.88
391.39	669.39
391.58	770.04
391.78	690.46
391.97	788.76
392.16	688.12
392.36	784.08
392.55	828.55
392.75	753.65
392.94	753.65
393.13	816.85
393.33	725.57
393.52	716.20
393.71	873.02
393.91	894.08
394.10	763.01
394.29	866.00
394.49	866.00
394.68	898.77
394.88	833.23
395.07	898.77
395.26	760.67
395.46	877.70
395.65	933.87
395.84	835.57
396.04	861.32
396.23	856.64
396.42	896.43
396.62	966.64
396.81	880.04
397.00	826.21
397.19	894.08
397.39	826.21
397.58	922.17
397.77	943.24
397.97	990.05
398.16	1076.65
398.35	976.00
398.55	1048.56
398.74	1053.24
398.93	1029.84
399.12	968.98
399.32	1032.18
399.51	994.73
399.70	1186.65
399.90	987.71
400.09	1076.65
400.28	1205.38
400.47	1062.60
400.67	1196.01
400.86	1165.59
401.05	1196.01
401.24	1137.50
401.44	1153.88
401.63	1212.40
401.82	1160.91
402.01	1186.65
402.21	1193.67
402.40	1100.05
402.59	1217.08
402.78	1144.52
402.97	1200.69
403.17	1174.95
403.36	1357.51
403.55	1200.69
403.74	1240.48
403.93	1404.32
404.13	1458.15
404.32	1364.53
404.51	1383.26
404.70	1390.28
404.89	1331.76
405.09	1394.96
405.28	1371.55
405.47	1441.77
405.66	1504.96
405.85	1432.41
406.05	1423.05
406.24	1460.49
406.43	1490.92
406.62	1474.54
406.81	1533.05
407.00	1542.41
407.20	1481.56
407.39	1500.28
407.58	1526.03
407.77	1657.10
407.96	1633.69
408.15	1643.06
408.34	1633.69
408.54	1614.97
408.73	1687.53
408.92	1666.46
409.11	1717.95
409.30	1781.15
409.49	1783.49
409.68	1715.61
409.87	1858.39
410.07	1830.30
410.26	1767.10
410.45	1849.02
410.64	1865.41
410.83	1907.54
411.02	1916.90
411.21	1952.01
411.40	1834.98
411.59	1926.26
411.78	1952.01
411.98	2022.22
412.17	2104.14
412.36	1928.60
412.55	2066.69
412.74	2036.27
412.93	2172.02
413.12	2029.24
413.31	2083.08
413.50	2197.76
413.69	2359.26
413.88	2237.55
414.07	2174.36
414.26	2242.23
414.45	2286.70
414.64	2387.35
414.83	2382.67
415.02	2296.07
415.22	2370.96
415.41	2441.18
415.60	2396.71
415.79	2511.39
415.98	2558.21
416.17	2546.50
416.36	2537.14
416.55	2518.42
416.74	2637.78
416.93	2710.34
417.12	2693.96
417.31	2672.89
417.50	2668.21
417.69	2736.09
417.88	2729.06
418.07	2712.68
418.26	2733.75
418.45	2834.39
418.64	2860.13
418.83	2911.63
419.02	2935.03
419.21	2850.77
419.39	2864.82
419.58	2808.64
419.77	2881.20
419.96	2904.60
420.15	3159.72
420.34	2918.65
420.53	3038.02
420.72	3002.91
420.91	2988.86
421.10	3038.02
421.29	3150.36
421.48	3038.02
421.67	3141.00
421.86	3286.11
422.05	3187.81
422.24	3171.43
422.43	3033.33
422.61	3136.32
422.80	3344.63
422.99	3141.00
423.18	3281.43
423.37	3236.96
423.56	3279.09
423.75	3157.38
423.94	3082.49
424.13	2993.55
424.32	3272.07
424.50	3215.90
424.69	3368.03
424.88	3351.65
425.07	3197.17
425.26	3206.53
425.45	3368.03
425.64	3344.63
425.83	3258.03
426.01	3318.88
426.20	3283.77
426.39	3398.46
426.58	3349.31
426.77	3335.26
426.96	3365.69
427.15	3323.56
427.33	3386.76
427.52	3398.46
427.71	3377.39
427.90	3503.78
428.09	3468.67
428.28	3571.66
428.46	3545.91
428.65	3604.42
428.84	3536.55
429.03	3651.24
429.22	3475.70
429.40	3620.81
429.59	3574.00
429.78	3438.25
429.97	3559.95
430.16	3564.64
430.34	3810.39
430.53	3747.20
430.72	3742.52
430.91	3641.87
431.10	3751.88
431.28	3777.62
431.47	3920.40
431.66	4016.36
431.85	3819.75
432.03	3880.61
432.22	4100.62
432.41	4002.32
432.60	4067.85
432.79	3913.38
432.97	3964.87
433.16	3904.01
433.35	3946.14
433.54	4004.66
433.72	4112.32
433.91	4002.32
434.10	4021.04
434.28	4109.98
434.47	4084.23
434.66	4173.18
434.85	4241.05
435.03	4276.16
435.22	4407.23
435.41	4744.27
435.59	4629.58
435.78	4528.94
435.97	4547.66
436.16	4362.76
436.34	4379.14
436.53	4379.14
436.72	4447.02
436.90	4358.08
437.09	4381.48
437.28	4248.07
437.46	4456.38
437.65	4505.53
437.84	4444.68
438.02	4402.55
438.21	4428.29
438.40	4397.87
438.58	4704.48
438.77	4683.41
438.96	4620.22
439.14	4767.67
439.33	4784.06
439.52	4805.12
439.70	4802.78
439.89	4786.40
440.08	4786.40
440.26	4929.17
440.45	4905.76
440.63	4947.89
440.82	4997.04
441.01	5104.71
441.19	5090.67
441.38	5188.97
441.57	5102.37
441.75	5146.84
441.94	5376.21
442.12	5338.76
442.31	5313.02
442.50	5324.72
442.68	5331.74
442.87	5170.24
443.05	5364.51
443.24	5404.30
443.43	5528.35
443.61	5486.22
443.80	5582.18
443.98	5327.06
444.17	5205.35
444.35	5523.66
444.54	5682.82
444.73	5675.80
444.91	5561.11
445.10	5626.65
445.28	5451.11
445.47	5427.70
445.65	5586.86
445.84	5631.33
446.02	5692.18
446.21	5666.44
446.39	5444.09
446.58	5654.73
446.77	5607.92
446.95	5746.02
447.14	5666.44
447.32	5746.02
447.51	5640.69
447.69	5675.80
447.88	5598.56
448.06	5687.50
448.25	5715.59
448.43	5666.44
448.62	5799.85
448.80	5626.65
448.99	5870.06
449.17	5743.67
449.36	5727.29
449.54	5865.38
449.73	5940.28
449.91	5954.32
450.10	6040.92
450.28	6076.03
450.46	6052.63
450.65	6113.48
450.83	6108.80
451.02	6073.69
451.20	6160.29
451.39	6272.64
451.57	6202.42
451.76	6207.10
451.94	6031.56
452.13	6193.06
452.31	6345.19
452.49	6106.46
452.68	6097.10
452.86	6272.64
453.05	6312.42
453.23	6349.87
453.42	6406.05
453.60	6218.80
453.78	6438.81
453.97	6314.77
454.15	6441.15
454.34	6265.61
454.52	6562.86
454.70	6455.20
454.89	6494.99
455.07	6572.22
455.26	6651.80
455.44	6654.14
455.62	6560.52
455.81	6562.86
455.99	6724.36
456.17	6715.00
456.36	6616.69
456.54	6897.56
456.73	6895.22
456.91	6953.73
457.09	6867.13
457.28	7133.95
457.46	6883.52
457.64	7045.01
457.83	6883.52
458.01	6832.02
458.19	7059.06
458.38	7019.27
458.56	7145.66
458.74	7023.95
458.93	7178.42
459.11	7126.93
459.29	7140.97
459.48	7197.15
459.66	7103.53
459.84	7389.07
460.03	7470.99
460.21	7353.96
460.39	7302.47
460.57	7248.64
460.76	7368.01
460.94	7459.29
461.12	7555.25
461.31	7403.11
461.49	7407.80
461.67	7508.44
461.85	7520.14
462.04	7566.95
462.22	8138.04
462.40	7599.72
462.59	7618.44
462.77	7829.09
462.95	7693.34
463.13	7733.13
463.32	7667.60
463.50	7688.66
463.68	7737.81
463.86	7765.90
464.05	7875.90
464.23	7669.94
464.41	8051.44
464.59	7819.73
464.78	7882.92
464.96	7829.09
465.14	7840.79
465.32	8023.36
465.50	7939.10
465.69	7981.23
465.87	7953.14
466.05	8023.36
466.23	8212.94
466.41	8060.80
466.60	8234.00
466.78	8222.30
466.96	8084.21
467.14	8112.30
467.32	8180.17
467.51	8512.53
467.69	8250.39
467.87	8327.63
468.05	8444.65
468.23	8322.94
468.41	8215.28
468.60	8360.39
468.78	8395.50
468.96	8517.21
469.14	8575.72
469.32	8617.85
469.50	8271.45
469.69	8613.17
469.87	8835.52
470.05	8896.38
470.23	8720.84
470.41	8702.11
470.59	8975.95
470.77	8573.38
470.95	8638.92
471.14	8926.80
471.32	8718.50
471.50	9233.41
471.68	9137.45
471.86	9036.81
472.04	8938.51
472.22	9320.01
472.40	9062.55
472.58	9488.53
472.77	9329.38
472.95	9390.23
473.13	9753.01
473.31	9362.14
473.49	9219.37
473.67	9462.79
473.85	9453.42
474.03	9631.30
474.21	9554.07
474.39	9816.21
474.57	9951.96
474.75	9914.51
474.93	9958.98
475.12	10085.37
475.30	10083.03
475.48	9846.63
475.66	10122.82
475.84	10104.09
476.02	10214.10
476.20	10284.31
476.38	10272.61
476.56	10525.39
476.74	10471.56
476.92	10462.19
477.10	10651.78
477.28	10382.62
477.46	10619.01
477.64	10855.40
477.82	10679.86
478.00	11140.95
478.18	11316.49
478.36	11307.13
478.54	11246.27
478.72	11599.70
478.90	11571.61
479.08	11543.52
479.26	11557.57
479.44	11639.48
479.62	11899.28
479.80	11702.68
479.98	11698.00
480.16	11932.05
480.34	12229.30
480.52	12388.46
480.70	12512.50
480.88	12126.32
481.06	12482.08
481.24	12472.71
481.41	12837.84
481.59	12786.35
481.77	12699.75
481.95	12886.99
482.13	12982.95
482.31	12765.28
482.49	13397.23
482.67	13429.99
482.85	13687.45
483.03	13837.25
483.21	13785.76
483.39	13809.16
483.57	13771.71
483.74	14057.26
483.92	13881.72
484.10	14015.13
484.28	14523.02
484.46	14221.10
484.64	14803.89
484.82	14537.07
485.00	14640.05
485.18	14967.73
485.35	15318.81
485.53	15030.92
485.71	15082.41
485.89	15578.61
486.07	15307.10
486.25	15449.88
486.43	15815.00
486.61	15653.50
486.78	16020.97
486.96	15765.85
487.14	16362.69
487.32	16365.03
487.50	16505.46
487.68	16521.84
487.85	16615.46
488.03	16929.09
488.21	17067.19
488.39	17062.51
488.57	17331.67
488.75	17504.87
488.92	17514.23
489.10	17476.78
489.28	17895.74
489.46	18190.64
489.64	17839.56
489.81	18155.54
489.99	18244.48
490.17	18319.37
490.35	18499.59
490.53	18661.09
490.70	18422.36
490.88	18649.39
491.06	19417.08
491.24	19192.39
491.41	19180.69
491.59	19150.26
491.77	19225.16
491.95	19379.64
492.13	19700.29
492.30	19950.73
492.48	19852.42
492.66	20011.58
492.84	19875.83
493.01	20456.28
493.19	20500.75
493.37	20620.12
493.54	21015.67
493.72	20943.11
493.90	20943.11
494.08	20790.98
494.25	20992.26
494.43	21205.25
494.61	21460.37
494.79	21514.20
494.96	21436.97
495.14	21734.21
495.32	22012.74
495.49	21708.47
495.67	22089.98
495.85	22207.00
496.02	22553.40
496.20	22368.50
496.38	22195.30
496.55	22717.24
496.73	23058.96
496.91	22590.85
497.09	23543.45
497.26	23269.61
497.44	23150.24
497.62	23068.32
497.79	23459.19
497.97	23515.36
498.14	23906.23
498.32	24177.73
498.50	23992.83
498.67	24105.18
498.85	23885.17
499.03	24362.64
499.20	24159.01
499.38	24219.86
499.56	24334.55
499.73	24680.95
499.91	24758.19
500.08	25050.75
500.26	24886.92
500.44	24889.26
500.61	25092.88
500.79	25247.36
500.97	25205.23
501.14	25422.90
501.32	25640.57
501.49	25762.28
501.67	25525.88
501.84	25350.34
502.02	25661.63
502.20	26057.18
502.37	25940.16
502.55	26148.46
502.72	26115.70
502.90	26274.85
503.07	25902.71
503.25	26256.13
503.43	26291.24
503.60	27131.49
503.78	26129.74
503.95	26656.36
504.13	26799.13
504.30	26682.11
504.48	27241.50
504.65	26852.97
504.83	27400.65
505.01	27246.18
505.18	27098.72
505.36	27428.74
505.53	27644.07
505.71	27379.59
505.88	28013.87
506.06	27381.93
506.23	27915.57
506.41	28093.45
506.58	27850.03
506.76	27831.31
506.93	28355.59
507.11	28283.03
507.28	28266.65
507.46	28376.66
507.63	28739.44
507.81	28538.15
507.98	28077.07
508.16	28493.68
508.33	28521.77
508.50	28788.59
508.68	28914.98
508.85	28739.44
509.03	29394.79
509.20	29317.55
509.38	29385.43
509.55	29284.78
509.73	29256.70
509.90	29352.66
510.08	29340.96
510.25	29303.51
510.42	29886.30
510.60	29841.83
510.77	29926.09
510.95	30363.77
511.12	30099.29
511.30	30066.52
511.47	30110.99
511.64	30707.83
511.82	30396.54
511.99	30895.07
512.17	31082.31
512.34	30700.81
512.51	30932.52
512.69	30740.60
512.86	31091.68
513.04	31386.58
513.21	31405.31
513.38	31501.27
513.56	31924.91
513.73	31419.35
513.90	31409.99
514.08	31503.61
514.25	31775.11
514.43	31995.12
514.60	31885.12
514.77	32027.89
514.95	32144.92
515.12	32081.72
515.29	32180.03
515.47	32107.47
515.64	32275.99
515.81	32362.59
515.99	32496.00
516.16	32921.98
516.33	32987.51
516.51	32940.70
516.68	32680.90
516.85	32371.95
517.03	32538.13
517.20	33139.65
517.37	33244.97
517.54	33486.04
517.72	33294.12
517.89	33104.54
518.06	33350.29
518.24	33593.71
518.41	33670.95
518.58	33563.28
518.75	33446.26
518.93	33677.97
519.10	33514.13
519.27	34153.10
519.45	33780.95
519.62	33883.94
519.79	34232.68
519.96	33937.77
520.14	34103.95
520.31	34000.96
520.48	34366.09
520.65	34148.42
520.83	34644.61
521.00	34745.25
521.17	34663.33
521.34	34527.58
521.52	34265.44
521.69	35072.93
521.86	34829.51
522.03	35405.28
522.20	35295.28
522.38	35337.41
522.55	35384.22
522.72	35154.85
522.89	35498.91
523.07	35367.84
523.24	35426.35
523.41	35644.02
523.58	35037.82
523.75	35981.06
523.92	36027.87
524.10	35812.54
524.27	36062.97
524.44	35959.99
524.61	36123.83
524.78	36369.58
524.96	36278.30
525.13	36086.38
525.30	36350.86
525.47	36596.62
525.64	36350.86
525.81	37280.05
525.98	37116.22
526.16	36690.24
526.33	37170.05
526.50	36795.56
526.67	36800.24
526.84	36821.31
527.01	37015.57
527.18	37041.32
527.36	37418.14
527.53	37607.73
527.70	37457.93
527.87	37233.24
528.04	37460.27
528.21	37642.84
528.38	37347.93
528.55	37261.33
528.72	37624.11
528.89	37949.45
529.07	37942.42
529.24	37656.88
529.41	38092.22
529.58	38014.98
529.75	37907.32
529.92	37979.87
530.09	37603.05
530.26	38167.12
530.43	38216.27
530.60	37965.83
530.77	38513.52
530.94	38443.30
531.11	38604.80
531.28	38195.20
531.46	38356.70
531.63	38696.08
531.80	38782.68
531.97	38934.81
532.14	38616.50
532.31	38806.08
532.48	38815.44
532.65	38993.32
532.82	38607.14
532.99	38602.46
533.16	38871.62
533.33	39328.02
533.50	39388.88
533.67	39489.52
533.84	38944.17
534.01	38803.74
534.18	39093.97
534.35	39594.84
534.52	39468.45
534.69	39833.58
534.86	39683.78
535.03	39423.98
535.20	40037.20
535.37	39765.70
535.54	39749.32
535.71	39285.89
535.88	39924.86
536.05	39941.24
536.22	40266.58
536.38	39852.30
536.55	40526.38
536.72	40509.99
536.89	39917.84
537.06	40030.18
537.23	40311.05
537.40	40072.31
537.57	40013.80
537.74	40254.87
537.91	40959.38
538.08	40470.20
538.25	40264.24
538.42	40678.51
538.59	40767.45
538.75	40432.75
538.92	40917.25
539.09	41060.02
539.26	40800.22
539.43	41038.95
539.60	40900.86
539.77	41202.79
539.94	41483.66
540.11	41067.04
540.28	41265.99
540.44	41172.36
540.61	41212.15
540.78	41212.15
540.95	41387.69
541.12	41364.29
541.29	41308.11
541.46	41422.80
541.62	41490.68
541.79	41827.71
541.96	41116.19
542.13	41773.88
542.30	42300.50
542.47	42167.09
542.63	41979.85
542.80	42230.29
542.97	42550.94
543.14	42838.83
543.31	42522.85
543.48	42115.60
543.64	42693.71
543.81	42794.36
543.98	43070.54
544.15	43065.86
544.32	42806.06
544.48	43178.20
544.65	43091.60
544.82	42644.56
544.99	42721.80
545.16	42955.85
545.32	43047.13
545.49	43672.06
545.66	44032.50
545.83	44126.12
546.00	44261.87
546.16	43395.87
546.33	43077.56
546.50	42871.59
546.67	43440.34
546.83	42293.48
547.00	43344.38
547.17	43349.06
547.34	43267.14
547.50	43215.65
547.67	43894.41
547.84	43531.62
548.00	43697.80
548.17	43728.23
548.34	43433.32
548.51	43721.21
548.67	43871.00
548.84	43459.07
549.01	43517.58
549.18	43704.82
549.34	43765.68
549.51	43524.60
549.68	43634.61
549.84	43957.60
550.01	44196.34
550.18	43955.26
550.34	43728.23
550.51	44105.06
550.68	44296.98
550.84	43587.80
551.01	43896.75
551.18	44142.50
551.34	43901.43
551.51	44135.48
551.68	44238.47
551.84	43866.32
552.01	44161.23
552.18	44282.94
552.34	44320.38
552.51	44254.85
552.68	43952.92
552.84	44163.57
553.01	44486.56
553.18	44692.53
553.34	44769.77
553.51	44044.20
553.67	44729.98
553.84	44732.32
554.01	45020.20
554.17	44392.94
554.34	44215.06
554.51	44385.92
554.67	44418.69
554.84	44847.00
555.00	44739.34
555.17	44842.32
555.33	44676.15
555.50	45200.43
555.67	44847.00
555.83	44561.46
556.00	44472.52
556.16	45326.81
556.33	44397.62
556.50	44818.92
556.66	45495.33
556.83	44755.72
556.99	45263.62
557.16	45287.03
557.32	44856.37
557.49	45553.85
557.65	45380.65
557.82	45010.84
557.98	45170.00
558.15	45209.79
558.32	45708.32
558.48	45497.67
558.65	44973.39
558.81	45333.84
558.98	45507.04
559.14	45652.15
559.31	45216.81
559.47	45368.94
559.64	45588.95
559.80	45549.17
559.97	45893.22
560.13	45432.14
560.30	45668.53
560.46	45619.38
560.63	45446.18
560.79	45958.76
560.96	45581.93
561.12	45514.06
561.29	45614.70
561.45	45806.62
561.61	45471.93
561.78	45825.35
561.94	45867.48
562.11	46038.34
562.27	45801.94
562.44	45785.56
562.60	45872.16
562.77	45947.06
562.93	46312.18
563.10	46052.38
563.26	45631.08
563.42	45858.12
563.59	46452.61
563.75	46164.73
563.92	46398.78
564.08	45862.80
564.24	46134.30
564.41	45942.38
564.57	45830.03
564.74	46129.62
564.90	45785.56
565.07	45717.68
565.23	46014.93
565.39	46019.61
565.56	46410.48
565.72	46146.00
565.88	45778.54
566.05	45750.45
566.21	45713.00
566.38	46410.48
566.54	46045.36
566.70	46541.55
566.87	46871.57
567.03	46239.62
567.19	46583.68
567.36	45984.51
567.52	46211.54
567.68	46349.63
567.85	46520.49
568.01	46026.63
568.17	46471.34
568.34	46433.89
568.50	46845.82
568.66	46487.72
568.83	46752.20
568.99	46286.43
569.15	46422.19
569.32	46258.35
569.48	46309.84
569.64	46628.15
569.81	46333.24
569.97	46239.62
570.13	46358.99
570.30	46454.95
570.46	46476.02
570.62	46309.84
570.78	46429.21
570.95	46429.21
571.11	46775.61
571.27	46520.49
571.43	46316.86
571.60	46321.54
571.76	46583.68
571.92	46527.51
572.09	46770.93
572.25	46571.98
572.41	46487.72
572.57	46628.15
572.74	46852.84
572.90	46777.95
573.06	46469.00
573.22	46260.69
573.38	46522.83
573.55	47107.96
573.71	47267.12
573.87	46494.74
574.03	46527.51
574.20	46719.43
574.36	46520.49
574.52	46939.44
574.68	46852.84
574.84	46492.40
575.01	47208.61
575.17	47014.34
575.33	46871.57
575.49	46670.28
575.65	47040.09
575.82	47002.64
575.98	46394.10
576.14	46738.16
576.30	46384.74
576.46	46623.47
576.62	46979.23
576.79	46670.28
576.95	46777.95
577.11	47009.66
577.27	47119.66
577.43	46799.01
577.59	46796.67
577.75	46831.78
577.92	46843.48
578.08	46534.53
578.24	46831.78
578.40	46815.40
578.56	47112.64
578.72	47117.32
578.88	47522.24
579.04	47590.11
579.21	46890.29
579.37	47281.16
579.53	47110.30
579.69	46405.80
579.85	47112.64
580.01	47012.00
580.17	46698.37
580.33	46902.00
580.49	46972.21
580.65	47119.66
580.82	47180.52
580.98	46763.90
581.14	46815.40
581.30	47313.93
581.46	46969.87
581.62	46976.89
581.78	46672.62
581.94	47068.17
582.10	46866.89
582.26	47208.61
582.42	47030.72
582.58	46902.00
582.74	47145.41
582.90	46733.48
583.06	47063.49
583.22	47201.58
583.38	46721.77
583.54	47096.26
583.70	46897.31
583.86	47023.70
584.02	46607.09
584.18	47086.90
584.34	47143.07
584.50	47196.90
584.66	47426.28
584.82	46712.41
584.98	47145.41
585.14	47229.67
585.30	46607.09
585.46	46953.49
585.62	47210.95
585.78	47470.75
585.94	46850.50
586.10	47426.28
586.26	47344.36
586.42	47327.97
586.58	47182.86
586.74	47012.00
586.90	47014.34
587.06	47093.92
587.22	47562.03
587.38	47124.35
587.54	47433.30
587.70	47304.57
587.86	47592.45
588.02	47739.91
588.18	47309.25
588.34	47583.09
588.49	47395.85
588.65	46696.03
588.81	47562.03
588.97	47320.95
589.13	47084.56
589.29	47426.28
589.45	47288.18
589.61	47316.27
589.77	47524.58
589.93	47426.28
590.08	47302.23
590.24	47805.44
590.40	47459.04
590.56	47798.42
590.72	47777.36
