SpectraSuite Data File
++++++++++++++++++++++++++++++++++++
Date: Fri Oct 04 11:39:33 GMT-05:00 2013
User: price-jones
Dark Spectrum Present: No
Reference Spectrum Present: No
Number of Sampled Component Spectra: 1
Spectrometers: USB2+H05261
Integration Time (usec): 100000 (USB2+H05261)
Spectra Averaged: 1 (USB2+H05261)
Boxcar Smoothing: 0 (USB2+H05261)
Correct for Electrical Dark: No (USB2+H05261)
Strobe/Lamp Enabled: No (USB2+H05261)
Correct for Detector Non-linearity: No (USB2+H05261)
Correct for Stray Light: No (USB2+H05261)
Number of Pixels in Processed Spectrum: 2048
>>>>>Begin Processed Spectral Data<<<<<
365.73	35.11
365.92	35.11
366.12	35.11
366.32	0.00
366.52	0.00
366.72	0.00
366.91	0.00
367.11	0.00
367.31	0.00
367.51	0.00
367.70	0.00
367.90	9.36
368.10	0.00
368.30	0.00
368.49	0.00
368.69	0.00
368.89	37.45
369.09	0.00
369.28	0.00
369.48	14.04
369.68	0.00
369.87	21.06
370.07	0.00
370.27	51.49
370.47	67.88
370.66	133.41
370.86	140.43
371.06	234.05
371.25	297.25
371.45	276.18
371.65	269.16
371.84	285.55
372.04	229.37
372.24	294.91
372.44	217.67
372.63	297.25
372.83	292.57
373.03	238.73
373.22	259.80
373.42	292.57
373.62	304.27
373.81	325.33
374.01	348.74
374.21	294.91
374.40	283.20
374.60	334.70
374.79	301.93
374.99	290.23
375.19	348.74
375.38	362.78
375.58	322.99
375.78	313.63
375.97	339.38
376.17	430.66
376.37	353.42
376.56	273.84
376.76	381.51
376.95	358.10
377.15	287.89
377.35	400.23
377.54	271.50
377.74	358.10
377.93	362.78
378.13	318.31
378.33	348.74
378.52	379.17
378.72	337.04
378.91	311.29
379.11	327.68
379.31	311.29
379.50	327.68
379.70	358.10
379.89	407.25
380.09	395.55
380.28	393.21
380.48	360.44
380.68	416.62
380.87	397.89
381.07	458.74
381.26	374.49
381.46	346.40
381.65	404.91
381.85	376.83
382.04	428.32
382.24	386.19
382.43	351.08
382.63	470.45
382.83	437.68
383.02	362.78
383.22	404.91
383.41	416.62
383.61	325.33
383.80	393.21
384.00	374.49
384.19	400.23
384.39	341.72
384.58	433.00
384.78	393.21
384.97	418.96
385.17	444.70
385.36	463.43
385.56	500.87
385.75	433.00
385.95	442.36
386.14	409.59
386.34	447.04
386.53	468.11
386.72	456.40
386.92	491.51
387.11	428.32
387.31	475.13
387.50	379.17
387.70	470.45
387.89	472.79
388.09	482.15
388.28	477.47
388.48	404.91
388.67	479.81
388.86	528.96
389.06	451.72
389.25	524.28
389.45	472.79
389.64	442.36
389.84	561.73
390.03	564.07
390.22	594.50
390.42	561.73
390.61	531.30
390.81	489.17
391.00	587.47
391.19	638.97
391.39	519.60
391.58	587.47
391.78	535.98
391.97	545.34
392.16	564.07
392.36	589.82
392.55	624.92
392.75	636.63
392.94	592.16
393.13	610.88
393.33	559.39
393.52	589.82
393.71	566.41
393.91	681.10
394.10	645.99
394.29	575.77
394.49	575.77
394.68	734.93
394.88	678.76
395.07	683.44
395.26	624.92
395.46	613.22
395.65	594.50
395.84	713.86
396.04	716.20
396.23	690.46
396.42	655.35
396.62	702.16
396.81	833.23
397.00	753.65
397.19	741.95
397.39	692.80
397.58	793.44
397.77	739.61
397.97	702.16
398.16	664.71
398.35	821.53
398.55	751.31
398.74	760.67
398.93	849.61
399.12	763.01
399.32	763.01
399.51	765.36
399.70	922.17
399.90	842.59
400.09	837.91
400.28	1001.75
400.47	858.98
400.67	912.81
400.86	910.47
401.05	917.49
401.24	959.62
401.44	985.37
401.63	1015.79
401.82	976.00
402.01	936.21
402.21	938.55
402.40	898.77
402.59	922.17
402.78	947.92
402.97	1025.15
403.17	1027.50
403.36	1053.24
403.55	1090.69
403.74	1067.28
403.93	1149.20
404.13	1114.10
404.32	1139.84
404.51	1109.41
404.70	1163.25
404.89	1266.23
405.09	1240.48
405.28	1170.27
405.47	1200.69
405.66	1254.53
405.85	1359.85
406.05	1221.76
406.24	1205.38
406.43	1320.06
406.62	1411.34
406.81	1390.28
407.00	1256.87
407.20	1341.13
407.39	1301.34
407.58	1418.36
407.77	1460.49
407.96	1460.49
408.15	1483.90
408.34	1448.79
408.54	1476.88
408.73	1500.28
408.92	1467.52
409.11	1523.69
409.30	1483.90
409.49	1446.45
409.68	1488.58
409.87	1549.43
410.07	1535.39
410.26	1605.61
410.45	1600.93
410.64	1687.53
410.83	1589.22
411.02	1694.55
411.21	1636.03
411.40	1783.49
411.59	1818.60
411.78	1741.36
411.98	1701.57
412.17	1877.11
412.36	1823.28
412.55	1872.43
412.74	1846.68
412.93	1870.09
413.12	1872.43
413.31	1959.03
413.50	1909.88
413.69	2019.88
413.88	2043.29
414.07	1952.01
414.26	2022.22
414.45	2029.24
414.64	2174.36
414.83	2132.23
415.02	2246.91
415.22	2317.13
415.41	2373.30
415.60	2139.25
415.79	2223.51
415.98	2431.82
416.17	2438.84
416.36	2377.98
416.55	2342.88
416.74	2452.88
416.93	2380.32
417.12	2476.29
417.31	2473.95
417.50	2359.26
417.69	2546.50
417.88	2574.59
418.07	2506.71
418.26	2644.81
418.45	2644.81
418.64	2747.79
418.83	2523.10
419.02	2579.27
419.21	2724.38
419.39	2668.21
419.58	2731.41
419.77	2729.06
419.96	2708.00
420.15	2773.53
420.34	2843.75
420.53	2902.26
420.72	2902.26
420.91	2803.96
421.10	2925.67
421.29	2963.12
421.48	2773.53
421.67	2874.18
421.86	2818.00
422.05	3040.36
422.24	2946.73
422.43	2928.01
422.61	3045.04
422.80	3066.10
422.99	3178.45
423.18	3190.15
423.37	3124.62
423.56	3005.25
423.75	2998.23
423.94	2988.86
424.13	2881.20
424.32	2986.52
424.50	3009.93
424.69	3213.56
424.88	3272.07
425.07	3073.12
425.26	2991.20
425.45	3108.23
425.64	3178.45
425.83	3101.21
426.01	3187.81
426.20	3222.92
426.39	3101.21
426.58	3141.00
426.77	3129.30
426.96	3243.98
427.15	3218.24
427.33	3248.66
427.52	3232.28
427.71	3339.94
427.90	3386.76
428.09	3332.92
428.28	3286.11
428.46	3400.80
428.65	3330.58
428.84	3669.96
429.03	3459.31
429.22	3227.60
429.40	3361.01
429.59	3419.52
429.78	3258.03
429.97	3272.07
430.16	3339.94
430.34	3396.12
430.53	3602.08
430.72	3503.78
430.91	3585.70
431.10	3515.48
431.28	3620.81
431.47	3623.15
431.66	3698.05
431.85	3538.89
432.03	3847.84
432.22	3857.20
432.41	3726.13
432.60	3789.33
432.79	3705.07
432.97	3768.26
433.16	3700.39
433.35	3833.80
433.54	3861.88
433.72	4007.00
433.91	3871.25
434.10	3824.44
434.28	3840.82
434.47	3730.81
434.66	3957.85
434.85	3857.20
435.03	4037.42
435.22	4107.64
435.41	4643.62
435.59	4482.13
435.78	4245.73
435.97	4119.34
436.16	4184.88
436.34	3915.72
436.53	4072.53
436.72	4217.65
436.90	4147.43
437.09	4432.97
437.28	4030.40
437.46	4203.60
437.65	4196.58
437.84	4264.46
438.02	4283.18
438.21	4297.22
438.40	4379.14
438.58	4337.01
438.77	4451.70
438.96	4449.36
439.14	4554.68
439.33	4681.07
439.52	4664.69
439.70	4657.67
439.89	4641.28
440.08	4575.75
440.26	4685.75
440.45	4550.00
440.63	4629.58
440.82	4800.44
441.01	4779.37
441.19	4854.27
441.38	5048.54
441.57	5011.09
441.75	4842.57
441.94	5027.47
442.12	4975.98
442.31	4952.57
442.50	5109.39
442.68	5135.14
442.87	5055.56
443.05	5130.45
443.24	5135.14
443.43	5259.18
443.61	5200.67
443.80	5425.36
443.98	5090.67
444.17	5034.49
444.35	5235.78
444.54	5235.78
444.73	5245.14
444.91	5198.33
445.10	5252.16
445.28	5287.27
445.47	5207.69
445.65	5275.57
445.84	5369.19
446.02	5320.04
446.21	5329.40
446.39	5479.19
446.58	5451.11
446.77	5376.21
446.95	5305.99
447.14	5334.08
447.32	5411.32
447.51	5186.63
447.69	5320.04
447.88	5411.32
448.06	5331.74
448.25	5439.40
448.43	5373.87
448.62	5411.32
448.80	5352.81
448.99	5488.56
449.17	5413.66
449.36	5657.07
449.54	5411.32
449.73	5617.29
449.91	5591.54
450.10	5589.20
450.28	5647.71
450.46	5654.73
450.65	5769.42
450.83	5554.09
451.02	5661.76
451.20	5790.49
451.39	5790.49
451.57	5785.80
451.76	5715.59
451.94	5769.42
452.13	5877.09
452.31	5956.66
452.49	5781.12
452.68	5806.87
452.86	5813.89
453.05	5935.60
453.23	5991.77
453.42	5788.14
453.60	5713.25
453.78	5907.51
453.97	5870.06
454.15	5987.09
454.34	5874.74
454.52	6125.18
454.70	5877.09
454.89	6136.88
455.07	6029.22
455.26	6129.86
455.44	6317.11
455.62	6080.71
455.81	6221.14
455.99	6167.31
456.17	6338.17
456.36	6303.06
456.54	6401.37
456.73	6406.05
456.91	6487.96
457.09	6502.01
457.28	6600.31
457.46	6530.09
457.64	6656.48
457.83	6448.18
458.01	6509.03
458.19	6593.29
458.38	6712.66
458.56	6785.21
458.74	6684.57
458.93	6740.74
459.11	6569.88
459.29	6717.34
459.48	6817.98
459.66	6792.23
459.84	6815.64
460.03	6869.47
460.21	6658.82
460.39	6902.24
460.57	6923.30
460.76	7014.59
460.94	6979.48
461.12	7119.91
461.31	6998.20
461.49	6946.71
461.67	6951.39
461.85	7183.10
462.04	7087.14
462.22	7194.81
462.40	7281.41
462.59	7162.04
462.77	7276.73
462.95	7136.29
463.13	7213.53
463.32	7157.36
463.50	7129.27
463.68	7358.64
463.86	7375.03
464.05	7197.15
464.23	7295.45
464.41	7550.57
464.59	7360.98
464.78	7391.41
464.96	7379.71
465.14	7328.22
465.32	7456.95
465.50	7588.02
465.69	7620.78
465.87	7478.01
466.05	7456.95
466.23	7576.31
466.41	7562.27
466.60	7749.51
466.78	7648.87
466.96	7524.82
467.14	7740.15
467.32	7602.06
467.51	7779.94
467.69	7588.02
467.87	7852.50
468.05	7826.75
468.23	7707.38
468.41	7810.37
468.60	7779.94
468.78	7761.22
468.96	7819.73
469.14	7985.91
469.32	8035.06
469.50	7747.17
469.69	8166.13
469.87	8245.71
470.05	8212.94
470.23	8252.73
470.41	8180.17
470.59	8269.11
470.77	8072.51
470.95	8334.65
471.14	8535.93
471.32	8109.96
471.50	8533.59
471.68	8311.24
471.86	8554.66
472.04	8411.89
472.22	8711.47
472.40	8528.91
472.58	8547.64
472.77	8765.31
472.95	8767.65
473.13	8821.48
473.31	8758.28
473.49	8807.44
473.67	8739.56
473.85	8798.07
474.03	9109.36
474.21	8915.10
474.39	8947.87
474.57	8945.53
474.75	9001.70
474.93	9226.39
475.12	9404.27
475.30	9228.73
475.48	9242.78
475.66	9472.15
475.84	9383.21
476.02	9523.64
476.20	9572.79
476.38	9856.00
476.56	9830.25
476.74	9654.71
476.92	9675.77
477.10	9678.12
477.28	9764.72
477.46	9881.74
477.64	10064.30
477.82	10335.81
478.00	10457.51
478.18	10195.37
478.36	10422.41
478.54	10609.65
478.72	10490.28
478.90	10602.63
479.08	10619.01
479.26	10677.52
479.44	11073.07
479.62	11026.26
479.80	11009.88
479.98	10864.77
480.16	11211.17
480.34	11098.82
480.52	11349.26
480.70	11330.53
480.88	11489.69
481.06	11550.54
481.24	11269.68
481.41	11580.97
481.59	11786.94
481.77	11854.81
481.95	11896.94
482.13	12116.95
482.31	12086.53
482.49	12248.02
482.67	12414.20
482.85	12245.68
483.03	12568.68
483.21	12573.36
483.39	12702.09
483.57	12638.89
483.74	12830.82
483.92	12830.82
484.10	12741.88
484.28	13270.84
484.46	13570.43
484.64	13790.44
484.82	13554.04
485.00	13577.45
485.18	13830.23
485.35	14204.71
485.53	13893.42
485.71	13914.48
485.89	14326.42
486.07	14249.18
486.25	14375.57
486.43	14406.00
486.61	14850.70
486.78	14761.76
486.96	14869.42
487.14	15096.46
487.32	14841.34
487.50	15239.23
487.68	15293.06
487.85	15403.07
488.03	15648.82
488.21	15807.98
488.39	15763.51
488.57	16107.57
488.75	16114.59
488.92	16308.85
489.10	16318.22
489.28	16191.83
489.46	16381.41
489.64	16652.91
489.81	16681.00
489.99	16762.92
490.17	17116.34
490.35	17034.42
490.53	16994.63
490.70	17280.18
490.88	16968.88
491.06	17341.03
491.24	17626.57
491.41	17727.22
491.59	18003.40
491.77	17872.33
491.95	18001.06
492.13	18099.36
492.30	18005.74
492.48	18361.50
492.66	18457.46
492.84	18153.20
493.01	18558.11
493.19	18970.04
493.37	18867.06
493.54	18965.36
493.72	19082.39
493.90	18923.23
494.08	19264.95
494.25	19213.46
494.43	19286.01
494.61	19473.26
494.79	19583.26
494.96	19442.83
495.14	20049.03
495.32	20123.93
495.49	20161.37
495.67	20137.97
495.85	20332.23
496.02	20393.09
496.20	20496.07
496.38	20596.71
496.55	20870.56
496.73	21076.52
496.91	20748.85
497.09	21205.25
497.26	21104.61
497.44	21050.78
497.62	21467.39
497.79	21432.29
497.97	21481.44
498.14	21682.72
498.32	21811.45
498.50	22024.44
498.67	22328.71
498.85	22052.53
499.03	22012.74
499.20	22129.77
499.38	22033.80
499.56	22361.48
499.73	22597.87
499.91	22429.35
500.08	22710.22
500.26	22530.00
500.44	22890.44
500.61	22864.69
500.79	22981.72
500.97	23098.75
501.14	23075.34
501.32	23225.14
501.49	23431.10
501.67	23419.40
501.84	23452.17
502.02	23686.22
502.20	23852.40
502.37	23871.12
502.55	23491.96
502.72	23922.62
502.90	23960.06
503.07	23964.75
503.25	23833.68
503.43	24060.71
503.60	24203.48
503.78	24538.18
503.95	24439.87
504.13	24332.21
504.30	24456.26
504.48	24266.67
504.65	24776.91
504.83	24954.79
505.01	25074.16
505.18	24769.89
505.36	25111.61
505.53	24882.24
505.71	24987.56
505.88	25247.36
506.06	25305.87
506.23	25385.45
506.41	25277.79
506.58	25694.40
506.76	25575.03
506.93	25745.89
507.11	25626.53
507.28	25628.87
507.46	25626.53
507.63	26111.02
507.81	26218.68
507.98	26150.81
508.16	25958.88
508.33	25951.86
508.50	26178.89
508.68	26396.56
508.85	27002.76
509.03	26452.73
509.20	26796.79
509.38	26757.00
509.55	27028.51
509.73	27201.71
509.90	27068.30
510.08	26871.69
510.25	27435.76
510.42	27241.50
510.60	27440.44
510.77	27702.58
510.95	27669.81
511.12	27419.38
511.30	27704.92
511.47	28018.55
511.64	27772.80
511.82	27878.12
511.99	27555.13
512.17	28173.03
512.34	27899.19
512.51	27976.42
512.69	28187.07
512.86	28285.37
513.04	29057.75
513.21	28734.76
513.38	28737.10
513.56	28624.75
513.73	28732.42
513.90	28535.81
514.08	28959.45
514.25	28917.32
514.43	29057.75
514.60	29120.95
514.77	29242.65
514.95	29537.56
515.12	28929.02
515.29	29071.79
515.47	29488.41
515.64	29626.50
515.81	29214.57
515.99	29886.30
516.16	29862.90
516.33	29703.74
516.51	29645.23
516.68	30038.44
516.85	29858.21
517.03	29834.81
517.20	29916.73
517.37	30433.99
517.54	30426.96
517.72	29991.62
517.89	29867.58
518.06	30569.74
518.24	30593.14
518.41	30593.14
518.58	30576.76
518.75	30543.99
518.93	30801.45
519.10	30740.60
519.27	30937.20
519.45	30862.30
519.62	30855.28
519.79	30756.98
519.96	30988.69
520.14	31339.77
520.31	31138.49
520.48	31426.37
520.65	31395.95
520.83	31704.90
521.00	31461.48
521.17	32027.89
521.34	31711.92
521.52	31751.71
521.69	31903.84
521.86	31702.56
522.03	32137.90
522.20	31978.74
522.38	31985.76
522.55	32123.85
522.72	32112.15
522.89	31770.43
523.07	32760.48
523.24	32673.88
523.41	32751.12
523.58	32161.30
523.75	32821.33
523.92	32439.82
524.10	32336.84
524.27	32849.42
524.44	32886.87
524.61	33083.47
524.78	32879.85
524.96	33237.95
525.13	32861.12
525.30	33357.32
525.47	33013.26
525.64	32776.86
525.81	32945.38
525.98	33317.53
526.16	33373.70
526.33	32858.78
526.50	33387.74
526.67	33132.62
526.84	33703.71
527.01	33570.30
527.18	33837.12
527.36	33848.83
527.53	33855.85
527.70	34352.04
527.87	34110.97
528.04	33556.26
528.21	34445.66
528.38	33813.72
528.55	34122.67
528.72	33996.28
528.89	34286.51
529.07	34242.04
529.24	33965.85
529.41	33984.58
529.58	34117.99
529.75	34249.06
529.92	34305.23
530.09	34286.51
530.26	34529.92
530.43	34504.18
530.60	34616.52
530.77	34630.57
530.94	34693.76
531.11	34543.97
531.28	34326.30
531.46	34789.72
531.63	34843.56
531.80	34946.54
531.97	34789.72
532.14	35456.78
532.31	35126.76
532.48	35187.61
532.65	35665.08
532.82	35325.71
532.99	35428.69
533.16	35234.42
533.33	35419.33
533.50	35606.57
533.67	35445.07
533.84	35365.49
534.01	35592.53
534.18	35456.78
534.35	35782.11
534.52	35557.42
534.69	36320.43
534.86	35941.27
535.03	35969.35
535.20	36060.63
535.37	36203.41
535.54	35941.27
535.71	35644.02
535.88	36023.19
536.05	36297.03
536.22	36018.50
536.38	36409.37
536.55	36184.68
536.72	36072.34
536.89	36240.86
537.06	36322.77
537.23	36430.44
537.40	36465.55
537.57	37043.66
537.74	36390.65
537.91	37144.30
538.08	37139.62
538.25	36545.12
538.42	36259.58
538.59	36957.06
538.75	36329.80
538.92	36828.33
539.09	37497.72
539.26	36999.19
539.43	37053.02
539.60	37010.89
539.77	37191.11
539.94	37174.73
540.11	37127.92
540.28	37226.22
540.44	37481.34
540.61	37221.54
540.78	37425.17
540.95	37963.49
541.12	37958.81
541.29	37720.07
541.46	37481.34
541.62	37406.44
541.79	37738.80
541.96	37406.44
542.13	37647.52
542.30	38000.94
542.47	37771.57
542.63	37780.93
542.80	38490.11
542.97	38445.64
543.14	38756.93
543.31	38232.65
543.48	38054.77
543.64	38665.65
543.81	38274.78
543.98	38859.91
544.15	38712.46
544.32	38787.36
544.48	38789.70
544.65	38368.40
544.82	38623.52
544.99	38539.26
545.16	38733.53
545.32	38785.02
545.49	39255.46
545.66	39672.08
545.83	40025.50
546.00	39959.97
546.16	39108.01
546.33	38838.85
546.50	38543.94
546.67	39337.38
546.83	38295.85
547.00	39089.29
547.17	38766.29
547.34	39239.08
547.50	39192.27
547.67	39255.46
547.84	39243.76
548.00	39138.44
548.17	39054.18
548.34	39548.03
548.51	39337.38
548.67	39489.52
548.84	39398.24
549.01	39257.81
549.18	39328.02
549.34	39632.29
549.51	39143.12
549.68	39501.22
549.84	39194.61
550.01	39370.15
550.18	39220.36
550.34	39611.23
550.51	39592.50
550.68	39510.58
550.84	39742.30
551.01	39615.91
551.18	39651.02
551.34	39409.94
551.51	39702.51
551.68	39468.45
551.84	40194.02
552.01	39894.43
552.18	39929.54
552.34	39665.06
552.51	40210.40
552.68	39690.80
552.84	39920.18
553.01	39854.64
553.18	39882.73
553.34	40247.85
553.51	40051.25
553.67	40037.20
553.84	40584.89
554.01	40116.78
554.17	40282.96
554.34	39983.37
554.51	40098.06
554.67	40336.79
554.84	40144.87
555.00	39917.84
555.17	40105.08
555.33	40397.65
555.50	40222.11
555.67	40126.14
555.83	40266.58
556.00	40175.30
556.16	40378.92
556.33	40617.66
556.50	40481.91
556.66	40753.41
556.83	40364.88
556.99	40692.55
557.16	40823.62
557.32	40549.78
557.49	40666.81
557.65	40584.89
557.82	40680.85
557.98	40509.99
558.15	40603.61
558.32	40549.78
558.48	40444.46
558.65	41003.85
558.81	40388.28
558.98	40641.06
559.14	40669.15
559.31	40442.12
559.47	40687.87
559.64	40350.84
559.80	41034.27
559.97	40954.69
560.13	40357.86
560.30	40851.71
560.46	40863.41
560.63	40959.38
560.79	40882.14
560.96	41165.34
561.12	40669.15
561.29	40950.01
561.45	40704.26
561.61	41137.26
561.78	40940.65
561.94	40727.66
562.11	41301.09
562.27	41223.86
562.44	40985.12
562.60	41301.09
562.77	41144.28
562.93	40816.60
563.10	41130.23
563.26	40940.65
563.42	41439.18
563.59	41387.69
563.75	41071.72
563.92	41237.90
564.08	40966.40
564.24	41090.44
564.41	41078.74
564.57	41226.20
564.74	40694.89
564.90	41303.43
565.07	41074.06
565.23	41411.10
565.39	41329.18
565.56	41471.95
565.72	40996.82
565.88	41167.68
566.05	41221.52
566.21	40650.42
566.38	41085.76
566.54	41181.73
566.70	41612.38
566.87	41228.54
567.03	41677.92
567.19	41247.26
567.36	41368.97
567.52	41263.64
567.68	41284.71
567.85	41258.96
568.01	41216.83
568.17	41305.77
568.34	41584.30
568.50	41289.39
568.66	41490.68
568.83	41507.06
568.99	41368.97
569.15	41368.97
569.32	41148.96
569.48	41317.48
569.64	41474.29
569.81	41125.55
569.97	41551.53
570.13	41577.28
570.30	41378.33
570.46	41649.83
570.62	41411.10
570.78	41310.46
570.95	41003.85
571.11	41427.48
571.27	41390.03
571.43	41401.74
571.60	41235.56
571.76	41401.74
571.92	41532.81
572.09	42021.98
572.25	41668.56
572.41	41928.36
572.57	41591.32
572.74	41926.02
572.90	41467.27
573.06	41137.26
573.22	41579.62
573.38	41191.09
573.55	41577.28
573.71	42073.47
573.87	41785.58
574.03	41516.42
574.20	41502.38
574.36	41251.94
574.52	41713.03
574.68	41219.17
574.84	41844.10
575.01	41647.49
575.17	41425.14
575.33	41706.01
575.49	41490.68
575.65	41647.49
575.82	41626.43
575.98	41464.93
576.14	41956.44
576.30	41247.26
576.46	41193.43
576.62	41762.18
576.79	41652.17
576.95	41823.03
577.11	42204.54
577.27	41804.31
577.43	41832.39
577.59	41621.75
577.75	41675.58
577.92	41408.76
578.08	41455.57
578.24	41432.16
578.40	41579.62
578.56	41752.82
578.72	41645.15
578.88	41979.85
579.04	41680.26
579.21	41773.88
579.37	41584.30
579.53	41558.55
579.69	41146.62
579.85	41394.71
580.01	41731.75
580.17	41436.84
580.33	42096.88
580.49	41411.10
580.65	42014.96
580.82	41928.36
580.98	41837.08
581.14	41558.55
581.30	41785.58
581.46	41427.48
581.62	41743.45
581.78	41603.02
581.94	42103.90
582.10	41909.63
582.26	41703.67
582.42	41486.00
582.58	42190.50
582.74	41916.65
582.90	41855.80
583.06	41841.76
583.22	41420.46
583.38	41944.74
583.54	41661.54
583.70	41364.29
583.86	41902.61
584.02	41457.91
584.18	42162.41
584.34	41961.12
584.50	41895.59
584.66	41696.64
584.82	41390.03
584.98	41593.66
585.14	41324.50
585.30	41406.42
585.46	41811.33
585.62	41605.36
585.78	41535.15
585.94	41743.45
586.10	41640.47
586.26	41560.89
586.42	41764.52
586.58	41958.78
586.74	41528.13
586.90	41865.16
587.06	41486.00
587.22	41748.14
587.38	41392.37
587.54	41916.65
587.70	42333.27
587.86	41750.48
588.02	41874.52
588.18	41855.80
588.34	42029.00
588.49	41759.84
588.65	41626.43
588.81	41677.92
588.97	42548.60
589.13	41947.08
589.29	41935.38
589.45	42174.11
589.61	42174.11
589.77	42316.89
589.93	42197.52
590.08	42359.02
590.24	42295.82
590.40	42213.90
590.56	42190.50
590.72	41851.12
590.88	41823.03
591.04	41675.58
