SpectraSuite Data File
++++++++++++++++++++++++++++++++++++
Date: Fri Oct 04 11:40:06 GMT-05:00 2013
User: price-jones
Dark Spectrum Present: No
Reference Spectrum Present: No
Number of Sampled Component Spectra: 1
Spectrometers: USB2+H05261
Integration Time (usec): 100000 (USB2+H05261)
Spectra Averaged: 1 (USB2+H05261)
Boxcar Smoothing: 0 (USB2+H05261)
Correct for Electrical Dark: No (USB2+H05261)
Strobe/Lamp Enabled: No (USB2+H05261)
Correct for Detector Non-linearity: No (USB2+H05261)
Correct for Stray Light: No (USB2+H05261)
Number of Pixels in Processed Spectrum: 2048
>>>>>Begin Processed Spectral Data<<<<<
365.73	30.43
365.92	30.43
366.12	30.43
366.32	0.00
366.52	0.00
366.72	0.00
366.91	0.00
367.11	0.00
367.31	0.00
367.51	0.00
367.70	9.36
367.90	0.00
368.10	0.00
368.30	0.00
368.49	0.00
368.69	42.13
368.89	0.00
369.09	0.00
369.28	0.00
369.48	9.36
369.68	0.00
369.87	0.00
370.07	0.00
370.27	23.41
370.47	152.13
370.66	376.83
370.86	526.62
371.06	629.60
371.25	601.52
371.45	547.69
371.65	528.96
371.84	519.60
372.04	505.56
372.24	587.47
372.44	589.82
372.63	564.07
372.83	566.41
373.03	545.34
373.22	571.09
373.42	475.13
373.62	573.43
373.81	566.41
374.01	601.52
374.21	610.88
374.40	613.22
374.60	493.85
374.79	512.58
374.99	585.13
375.19	662.37
375.38	704.50
375.58	671.73
375.78	716.20
375.97	688.12
376.17	720.88
376.37	755.99
376.56	711.52
376.76	758.33
376.95	800.46
377.15	887.06
377.35	786.42
377.54	936.21
377.74	875.36
377.93	908.13
378.13	814.51
378.33	910.47
378.52	709.18
378.72	772.38
378.91	741.95
379.11	755.99
379.31	716.20
379.50	718.54
379.70	866.00
379.89	851.96
380.09	814.51
380.28	840.25
380.48	788.76
380.68	821.53
380.87	847.27
381.07	837.91
381.26	711.52
381.46	681.10
381.65	725.57
381.85	610.88
382.04	629.60
382.24	531.30
382.43	634.29
382.63	589.82
382.83	568.75
383.02	580.45
383.22	594.50
383.41	592.16
383.61	582.79
383.80	645.99
384.00	795.78
384.19	858.98
384.39	891.74
384.58	856.64
384.78	800.46
384.97	819.19
385.17	784.08
385.36	748.97
385.56	730.25
385.75	713.86
385.95	840.25
386.14	912.81
386.34	901.11
386.53	840.25
386.72	767.70
386.92	795.78
387.11	847.27
387.31	856.64
387.50	821.53
387.70	732.59
387.89	873.02
388.09	809.83
388.28	851.96
388.48	861.32
388.67	786.42
388.86	1027.50
389.06	1001.75
389.25	1097.71
389.45	1078.99
389.64	1069.62
389.84	1043.88
390.03	1081.33
390.22	990.05
390.42	1057.92
390.61	1074.31
390.81	1240.48
391.00	1163.25
391.19	1296.66
391.39	1078.99
391.58	1181.97
391.78	1069.62
391.97	1057.92
392.16	978.34
392.36	933.87
392.55	671.73
392.75	622.58
392.94	521.94
393.13	596.84
393.33	526.62
393.52	793.44
393.71	905.79
393.91	954.94
394.10	954.94
394.29	1041.54
394.49	1132.82
394.68	1359.85
394.88	1273.25
395.07	1357.51
395.26	1317.72
395.46	1242.82
395.65	1153.88
395.84	1027.50
396.04	1055.58
396.23	812.17
396.42	669.39
396.62	755.99
396.81	777.06
397.00	873.02
397.19	1095.37
397.39	1261.55
397.58	1533.05
397.77	1486.24
397.97	1521.35
398.16	1598.59
398.35	1607.95
398.55	1619.65
398.74	1701.57
398.93	1591.56
399.12	1750.72
399.32	1673.48
399.51	1689.87
399.70	1818.60
399.90	1739.02
400.09	1764.76
400.28	1724.97
400.47	1734.34
400.67	1877.11
400.86	1912.22
401.05	1895.83
401.24	1926.26
401.44	1940.30
401.63	1891.15
401.82	2054.99
402.01	1928.60
402.21	1909.88
402.40	1970.73
402.59	1886.47
402.78	1844.34
402.97	1720.29
403.17	1881.79
403.36	1856.04
403.55	2083.08
403.74	1963.71
403.93	1968.39
404.13	1877.11
404.32	1762.42
404.51	1881.79
404.70	2029.24
404.89	1879.45
405.09	1863.07
405.28	1933.28
405.47	1912.22
405.66	1928.60
405.85	1935.62
406.05	1792.85
406.24	1874.77
406.43	1907.54
406.62	1942.64
406.81	2036.27
407.00	1937.96
407.20	1891.15
407.39	1923.92
407.58	1886.47
407.77	2024.56
407.96	2122.87
408.15	2125.21
408.34	2097.12
408.54	2174.36
408.73	2265.64
408.92	2228.19
409.11	2111.16
409.30	1998.82
409.49	1811.57
409.68	1802.21
409.87	1741.36
410.07	1834.98
410.26	1916.90
410.45	2087.76
410.64	2174.36
410.83	2209.47
411.02	2253.94
411.21	2326.49
411.40	2335.85
411.59	2284.36
411.78	2211.81
411.98	2321.81
412.17	2228.19
412.36	2300.75
412.55	2186.06
412.74	2237.55
412.93	2256.28
413.12	2197.76
413.31	2307.77
413.50	2275.00
413.69	2516.08
413.88	2345.22
414.07	2284.36
414.26	2195.42
414.45	2284.36
414.64	2363.94
414.83	2466.92
415.02	2422.45
415.22	2436.50
415.41	2478.63
415.60	2385.01
415.79	2595.65
415.98	2700.98
416.17	2626.08
416.36	2523.10
416.55	2579.27
416.74	2394.37
416.93	2396.71
417.12	2382.67
417.31	2410.75
417.50	2422.45
417.69	2614.38
417.88	2502.03
418.07	2394.37
418.26	2506.71
418.45	2406.07
418.64	2574.59
418.83	2651.83
419.02	2616.72
419.21	2485.65
419.39	2513.74
419.58	2286.70
419.77	2403.73
419.96	2473.95
420.15	2651.83
420.34	2705.66
420.53	2738.43
420.72	2787.58
420.91	2705.66
421.10	2651.83
421.29	2736.09
421.48	2558.21
421.67	2693.96
421.86	2612.04
422.05	2567.57
422.24	2324.15
422.43	2260.96
422.61	2385.01
422.80	2546.50
422.99	2668.21
423.18	2513.74
423.37	2518.42
423.56	2637.78
423.75	2490.33
423.94	2544.16
424.13	2457.56
424.32	2492.67
424.50	2696.30
424.69	2558.21
424.88	2574.59
425.07	2443.52
425.26	2392.03
425.45	2448.20
425.64	2429.48
425.83	2408.41
426.01	2490.33
426.20	2572.25
426.39	2497.35
426.58	2462.24
426.77	2242.23
426.96	2181.38
427.15	2251.60
427.33	2394.37
427.52	2583.95
427.71	2569.91
427.90	2504.37
428.09	2399.05
428.28	2483.31
428.46	2410.75
428.65	2307.77
428.84	2342.88
429.03	2462.24
429.22	2232.87
429.40	2183.72
429.59	1987.11
429.78	1710.93
429.97	1802.21
430.16	1797.53
430.34	1820.94
430.53	1743.70
430.72	1830.30
430.91	2001.16
431.10	2183.72
431.28	2628.42
431.47	2855.45
431.66	2895.24
431.85	2726.72
432.03	2602.68
432.22	2408.41
432.41	2495.01
432.60	2729.06
432.79	2836.73
432.97	2883.54
433.16	2780.56
433.35	2691.62
433.54	2429.48
433.72	2235.21
433.91	2382.67
434.10	2483.31
434.28	2745.45
434.47	2892.90
434.66	2806.30
434.85	2780.56
435.03	2775.88
435.22	2920.99
435.41	3227.60
435.59	3267.39
435.78	3187.81
435.97	3176.11
436.16	3035.67
436.34	3080.14
436.53	2925.67
436.72	2965.46
436.90	2890.56
437.09	2787.58
437.28	2722.04
437.46	2752.47
437.65	2857.79
437.84	2710.34
438.02	2544.16
438.21	2509.05
438.40	2658.85
438.58	2715.02
438.77	2822.69
438.96	2799.28
439.14	2923.33
439.33	2942.05
439.52	3012.27
439.70	2979.50
439.89	2796.94
440.08	2878.86
440.26	2855.45
440.45	3056.74
440.63	3171.43
440.82	3276.75
441.01	3246.32
441.19	3243.98
441.38	3218.24
441.57	3389.10
441.75	3449.95
441.94	3471.01
442.12	3435.91
442.31	3440.59
442.50	3454.63
442.68	3548.25
442.87	3463.99
443.05	3253.34
443.24	3311.86
443.43	3463.99
443.61	3538.89
443.80	3461.65
443.98	3414.84
444.17	3302.50
444.35	3700.39
444.54	3531.87
444.73	3489.74
444.91	3449.95
445.10	3419.52
445.28	3148.02
445.47	3157.38
445.65	3129.30
445.84	3225.26
446.02	3466.33
446.21	3269.73
446.39	3307.18
446.58	3382.07
446.77	3471.01
446.95	3463.99
447.14	3613.79
447.32	3559.95
447.51	3447.61
447.69	3473.36
447.88	3487.40
448.06	3377.39
448.25	3548.25
448.43	3524.85
448.62	3468.67
448.80	3545.91
448.99	3559.95
449.17	3562.30
449.36	3541.23
449.54	3765.92
449.73	3740.18
449.91	3669.96
450.10	3772.94
450.28	3932.10
450.46	3838.48
450.65	3808.05
450.83	3815.07
451.02	3705.07
451.20	3674.64
451.39	3754.22
451.57	3700.39
451.76	3604.42
451.94	3698.05
452.13	3660.60
452.31	3506.12
452.49	3379.73
452.68	3412.50
452.86	3412.50
453.05	3485.06
453.23	3405.48
453.42	3595.06
453.60	3627.83
453.78	3627.83
453.97	3660.60
454.15	3686.34
454.34	3496.76
454.52	3501.44
454.70	3625.49
454.89	3538.89
455.07	3611.45
455.26	3700.39
455.44	3754.22
455.62	3779.97
455.81	3929.76
455.99	3789.33
456.17	3822.09
456.36	3765.92
456.54	3829.12
456.73	3789.33
456.91	3943.80
457.09	3948.48
457.28	4051.47
457.46	4098.28
457.64	3875.93
457.83	3770.60
458.01	3641.87
458.19	3726.13
458.38	3765.92
458.56	3901.67
458.74	3831.46
458.93	3702.73
459.11	3857.20
459.29	3669.96
459.48	3822.09
459.66	3721.45
459.84	3737.84
460.03	3918.06
460.21	3843.16
460.39	3908.69
460.57	3957.85
460.76	4039.76
460.94	4070.19
461.12	4037.42
461.31	4044.45
461.49	3932.10
461.67	3981.25
461.85	3997.64
462.04	3896.99
462.22	4486.81
462.40	4046.79
462.59	3939.12
462.77	3997.64
462.95	4007.00
463.13	3812.73
463.32	3918.06
463.50	3976.57
463.68	3920.40
463.86	3974.23
464.05	3817.41
464.23	3913.38
464.41	3789.33
464.59	3779.97
464.78	3838.48
464.96	3889.97
465.14	3873.59
465.32	3976.57
465.50	4032.74
465.69	4086.58
465.87	4156.79
466.05	3861.88
466.23	3770.60
466.41	3723.79
466.60	3672.30
466.78	3684.00
466.96	3868.91
467.14	3817.41
467.32	3967.21
467.51	3887.63
467.69	3700.39
467.87	3819.75
468.05	3838.48
468.23	3803.37
468.41	3817.41
468.60	3868.91
468.78	3875.93
468.96	3885.29
469.14	4004.66
469.32	3829.12
469.50	3833.80
469.69	3847.84
469.87	3850.18
470.05	3761.24
470.23	3908.69
470.41	3873.59
470.59	3864.22
470.77	3899.33
470.95	3964.87
471.14	3971.89
471.32	3974.23
471.50	4191.90
471.68	4215.30
471.86	4170.83
472.04	4299.56
472.22	4046.79
472.40	4133.39
472.58	4133.39
472.77	3934.44
472.95	3978.91
473.13	4138.07
473.31	4084.23
473.49	3943.80
473.67	4086.58
473.85	4163.81
474.03	4168.49
474.21	4252.75
474.39	4360.42
474.57	4397.87
474.75	4365.10
474.93	4280.84
475.12	4147.43
475.30	4161.47
475.48	4196.58
475.66	4276.16
475.84	4227.01
476.02	4341.69
476.20	4100.62
476.38	4107.64
476.56	4367.44
476.74	4365.10
476.92	4507.87
477.10	4561.70
477.28	4627.24
477.46	4608.51
477.64	4620.22
477.82	4723.20
478.00	4638.94
478.18	4641.28
478.36	4578.09
478.54	4606.17
478.72	4676.39
478.90	4798.10
479.08	4943.21
479.26	4975.98
479.44	4971.30
479.62	4889.38
479.80	4896.40
479.98	4849.59
480.16	4875.34
480.34	4990.02
480.52	4971.30
480.70	4961.94
480.88	4905.76
481.06	5022.79
481.24	5088.32
481.41	5144.50
481.59	5329.40
481.77	5172.58
481.95	5217.05
482.13	5198.33
482.31	5032.15
482.49	5268.55
482.67	5270.89
482.85	5418.34
483.03	5336.42
483.21	5530.69
483.39	5437.06
483.57	5373.87
483.74	5416.00
483.92	5284.93
484.10	5310.68
484.28	5472.17
484.46	5420.68
484.64	5507.28
484.82	5472.17
485.00	5305.99
485.18	5385.57
485.35	5240.46
485.53	4755.97
485.71	4542.98
485.89	4325.31
486.07	4613.20
486.25	4765.33
486.43	5114.07
486.61	5380.89
486.78	5256.84
486.96	5177.26
487.14	5582.18
487.32	5673.46
487.50	5605.58
487.68	5956.66
487.85	6005.81
488.03	5870.06
488.21	5966.03
488.39	5928.58
488.57	5893.47
488.75	5563.45
488.92	6029.22
489.10	6087.73
489.28	6434.13
489.46	6619.04
489.64	6656.48
489.81	6658.82
489.99	6509.03
490.17	6539.46
490.35	6516.05
490.53	6546.48
490.70	6438.81
490.88	6399.02
491.06	6612.01
491.24	6698.61
491.41	6410.73
491.59	6183.70
491.77	5984.75
491.95	6176.67
492.13	6359.24
492.30	6462.22
492.48	6822.66
492.66	6857.77
492.84	6796.92
493.01	6918.62
493.19	6792.23
493.37	6761.81
493.54	6785.21
493.72	6719.68
493.90	6801.60
494.08	7297.79
494.25	7087.14
494.43	7318.86
494.61	7386.73
494.79	7274.38
494.96	7391.41
495.14	7332.90
495.32	6951.39
495.49	6729.04
495.67	6984.16
495.85	7253.32
496.02	7346.94
496.20	7342.26
496.38	7283.75
496.55	7325.88
496.73	7335.24
496.91	7279.07
497.09	7489.71
497.26	7721.43
497.44	7463.97
497.62	7480.35
497.79	7258.00
497.97	6904.58
498.14	6925.65
498.32	7164.38
498.50	7360.98
498.67	7463.97
498.85	7552.91
499.03	7417.16
499.20	7632.49
499.38	7564.61
499.56	7499.08
499.73	7435.88
499.91	7358.64
500.08	7309.49
500.26	6970.12
500.44	7094.16
500.61	7286.09
500.79	7279.07
500.97	7370.35
501.14	7211.19
501.32	7012.24
501.49	7028.63
501.67	7152.68
501.84	7314.17
502.02	7133.95
502.20	7276.73
502.37	7456.95
502.55	7368.01
502.72	7480.35
502.90	7576.31
503.07	7478.01
503.25	7353.96
503.43	6906.92
503.60	7045.01
503.78	6642.44
503.95	6658.82
504.13	7199.49
504.30	7524.82
504.48	7506.10
504.65	7466.31
504.83	7534.18
505.01	7655.89
505.18	7585.68
505.36	7861.86
505.53	7665.25
505.71	7941.44
505.88	7974.21
506.06	7864.20
506.23	7550.57
506.41	7646.53
506.58	7543.55
506.76	7824.41
506.93	7641.85
507.11	7417.16
507.28	7545.89
507.46	7627.81
507.63	7302.47
507.81	7162.04
507.98	7391.41
508.16	7494.40
508.33	7648.87
508.50	7782.28
508.68	7793.98
508.85	8128.68
509.03	7974.21
509.20	8032.72
509.38	7941.44
509.55	7812.71
509.73	7468.65
509.90	7660.57
510.08	7815.05
510.25	8030.38
510.42	7957.82
510.60	8030.38
510.77	8070.17
510.95	8056.12
511.12	8079.53
511.30	8067.83
511.47	8126.34
511.64	8166.13
511.82	8189.53
511.99	8025.70
512.17	7880.58
512.34	7674.62
512.51	7641.85
512.69	7815.05
512.86	7866.54
513.04	7943.78
513.21	7889.95
513.38	7761.22
513.56	7786.96
513.73	7583.34
513.90	7747.17
514.08	7784.62
514.25	7915.69
514.43	7864.20
514.60	7873.56
514.77	7992.93
514.95	7824.41
515.12	7882.92
515.29	7901.65
515.47	7967.18
515.64	8093.57
515.81	7845.48
515.99	7878.24
516.16	7412.48
516.33	7026.29
516.51	6551.16
516.68	6619.04
516.85	6399.02
517.03	6349.87
517.20	6906.92
517.37	7487.37
517.54	7758.88
517.72	7775.26
517.89	7166.72
518.06	6644.78
518.24	6670.53
518.41	7091.82
518.58	7403.11
518.75	7400.77
518.93	7503.76
519.10	7705.04
519.27	7625.47
519.45	7698.02
519.62	7953.14
519.79	8138.04
519.96	8091.23
520.14	8067.83
520.31	7592.70
520.48	7728.45
520.65	7655.89
520.83	8086.55
521.00	8079.53
521.17	8006.97
521.34	7850.16
521.52	7918.03
521.69	8276.13
521.86	8252.73
522.03	8198.90
522.20	7950.80
522.38	7517.80
522.55	7679.30
522.72	7655.89
522.89	7903.99
523.07	8070.17
523.24	7927.39
523.41	8002.29
523.58	8250.39
523.75	8407.20
523.92	8142.72
524.10	8388.48
524.27	8241.03
524.44	8210.60
524.61	8212.94
524.78	8306.56
524.96	8236.35
525.13	8051.44
525.30	7992.93
525.47	8486.78
525.64	8292.52
525.81	8058.46
525.98	7885.26
526.16	7428.86
526.33	7206.51
526.50	7005.22
526.67	6986.50
526.84	7178.42
527.01	7431.20
527.18	7644.19
527.36	7819.73
527.53	8067.83
527.70	8182.51
527.87	8016.33
528.04	7857.18
528.21	7948.46
528.38	8114.64
528.55	8414.23
528.72	8442.31
528.89	8547.64
529.07	8603.81
529.24	8402.52
529.41	8194.22
529.58	7892.29
529.75	7688.66
529.92	8030.38
530.09	8248.05
530.26	8395.50
530.43	8559.34
530.60	8430.61
530.77	8442.31
530.94	8409.54
531.11	8425.93
531.28	8306.56
531.46	8156.77
531.63	8313.58
531.80	8168.47
531.97	8205.92
532.14	8060.80
532.31	7616.10
532.48	7595.04
532.65	7365.67
532.82	7571.63
532.99	7920.37
533.16	8102.93
533.33	8147.40
533.50	8273.79
533.67	8070.17
533.84	7808.03
534.01	8044.42
534.18	8168.47
534.35	8112.30
534.52	7880.58
534.69	8217.62
534.86	8189.53
535.03	8311.24
535.20	8376.78
535.37	8402.52
535.54	8491.46
535.71	8439.97
535.88	8395.50
536.05	8304.22
536.22	7899.31
536.38	8121.66
536.55	7775.26
536.72	7819.73
536.89	7487.37
537.06	7859.52
537.23	8088.89
537.40	8119.32
537.57	8266.77
537.74	8100.59
537.91	8269.11
538.08	8222.30
538.25	8156.77
538.42	8140.38
538.59	8009.31
538.75	7941.44
538.92	7768.24
539.09	7831.43
539.26	7632.49
539.43	7911.01
539.60	7534.18
539.77	7953.14
539.94	7796.32
540.11	7634.83
540.28	7506.10
540.44	7337.58
540.61	7555.25
540.78	7658.23
540.95	7646.53
541.12	7875.90
541.29	7887.61
541.46	8161.45
541.62	8194.22
541.79	7859.52
541.96	7995.27
542.13	7838.45
542.30	8126.34
542.47	8140.38
542.63	7761.22
542.80	8093.57
542.97	8016.33
543.14	7786.96
543.31	7779.94
543.48	7978.89
543.64	8322.94
543.81	8334.65
543.98	8367.42
544.15	8095.91
544.32	8084.21
544.48	7747.17
544.65	8051.44
544.82	8189.53
544.99	8098.25
545.16	7941.44
545.32	7957.82
545.49	8297.20
545.66	8599.13
545.83	8784.03
546.00	8512.53
546.16	8327.63
546.33	7920.37
546.50	7810.37
546.67	8058.46
546.83	7852.50
547.00	8060.80
547.17	7852.50
547.34	7653.55
547.50	7405.46
547.67	7676.96
547.84	7665.25
548.00	7908.67
548.17	7955.48
548.34	7943.78
548.51	7903.99
548.67	7950.80
548.84	7960.16
549.01	7812.71
549.18	7836.11
549.34	7941.44
549.51	7882.92
549.68	7896.97
549.84	7688.66
550.01	7758.88
550.18	7857.18
550.34	7683.98
550.51	7896.97
550.68	7740.15
550.84	7599.72
551.01	7611.42
551.18	7403.11
551.34	7730.79
551.51	7770.58
551.68	7988.25
551.84	8067.83
552.01	7934.42
552.18	7873.56
552.34	7602.06
552.51	7592.70
552.68	7461.63
552.84	7463.97
553.01	7941.44
553.18	7630.15
553.34	7588.02
553.51	7536.52
553.67	7763.56
553.84	7751.85
554.01	7667.60
554.17	7695.68
554.34	7653.55
554.51	7492.05
554.67	7957.82
554.84	7791.64
555.00	7896.97
555.17	7719.09
555.33	7763.56
555.50	7756.54
555.67	7700.36
555.83	7527.16
556.00	7531.84
556.16	7597.38
556.33	7548.23
556.50	7283.75
556.66	7461.63
556.83	7391.41
556.99	7424.18
557.16	7552.91
557.32	7480.35
557.49	7522.48
557.65	7480.35
557.82	7571.63
557.98	7499.08
558.15	7267.36
558.32	7220.55
558.48	6939.69
558.65	6979.48
558.81	7059.06
558.98	7014.59
559.14	7112.89
559.31	7169.06
559.47	7089.48
559.64	7199.49
559.80	7131.61
559.97	6998.20
560.13	7084.80
560.30	7300.13
560.46	7595.04
560.63	7578.65
560.79	7588.02
560.96	7536.52
561.12	7199.49
561.29	7033.31
561.45	7047.35
561.61	7145.66
561.78	7403.11
561.94	7241.62
562.11	7105.87
562.27	7110.55
562.44	7148.00
562.60	7311.83
562.77	7133.95
562.93	7276.73
563.10	7325.88
563.26	7152.68
563.42	7236.94
563.59	7152.68
563.75	7040.33
563.92	7087.14
564.08	7000.54
564.24	7194.81
564.41	7234.60
564.57	7150.34
564.74	6974.80
564.90	7082.46
565.07	7138.63
565.23	7021.61
565.39	6876.49
565.56	6771.17
565.72	6780.53
565.88	6679.89
566.05	6839.05
566.21	6956.07
566.38	7159.70
566.54	6834.36
566.70	6906.92
566.87	7213.53
567.03	6930.33
567.19	7023.95
567.36	6923.30
567.52	6827.34
567.68	6977.14
567.85	6892.88
568.01	6750.10
568.17	6384.98
568.34	6506.69
568.50	6539.46
568.66	6370.94
568.83	6530.09
568.99	6642.44
569.15	6623.72
569.32	6668.19
569.48	6600.31
569.64	6478.60
569.81	6546.48
569.97	6532.44
570.13	6487.96
570.30	6462.22
570.46	6509.03
570.62	6286.68
570.78	6127.52
570.95	6232.85
571.11	6427.11
571.27	6377.96
571.43	6354.55
571.60	6530.09
571.76	6604.99
571.92	6469.24
572.09	6602.65
572.25	6698.61
572.41	6593.29
572.57	6541.80
572.74	6478.60
572.90	6387.32
573.06	6562.86
573.22	6466.90
573.38	6597.97
573.55	6623.72
573.71	6459.88
573.87	6534.78
574.03	6473.92
574.20	6499.67
574.36	6370.94
574.52	6399.02
574.68	6462.22
574.84	6244.55
575.01	6384.98
575.17	6349.87
575.33	6270.30
575.49	6389.66
575.65	6359.24
575.82	6293.70
575.98	6506.69
576.14	6333.49
576.30	6602.65
576.46	6614.35
576.62	6586.27
576.79	6471.58
576.95	6469.24
577.11	6338.17
577.27	6326.47
577.43	6370.94
577.59	6328.81
577.75	6239.87
577.92	5984.75
578.08	5916.87
578.24	5980.07
578.40	6097.10
578.56	6340.51
578.72	6424.77
578.88	6300.72
579.04	6333.49
579.21	6148.59
579.37	6499.67
579.53	6399.02
579.69	6293.70
579.85	6183.70
580.01	6457.54
580.17	6335.83
580.33	6207.10
580.49	6399.02
580.65	6370.94
580.82	6473.92
580.98	6396.68
581.14	6267.95
581.30	6354.55
581.46	6361.58
581.62	6347.53
581.78	6396.68
581.94	6352.21
582.10	6441.15
582.26	6471.58
582.42	6562.86
582.58	6476.26
582.74	6399.02
582.90	6480.94
583.06	6415.41
583.22	6277.32
583.38	6431.79
583.54	6373.28
583.70	6354.55
583.86	6469.24
584.02	6310.08
584.18	6478.60
584.34	6338.17
584.50	6272.64
584.66	6382.64
584.82	6356.90
584.98	6108.80
585.14	6061.99
585.30	5982.41
585.46	5947.30
585.62	5844.32
585.78	5928.58
585.94	6024.54
586.10	6054.97
586.26	6122.84
586.42	6204.76
586.58	6054.97
586.74	6017.52
586.90	6108.80
587.06	5928.58
587.22	5966.03
587.38	6026.88
587.54	5933.26
587.70	5736.65
587.86	5509.62
588.02	5317.70
588.18	5186.63
588.34	5102.37
588.49	4805.12
588.65	4664.69
588.81	4573.41
588.97	4435.32
589.13	4582.77
589.29	4535.96
589.45	4451.70
589.61	4535.96
589.77	4706.82
589.93	4950.23
590.08	5032.15
590.24	5240.46
590.40	5226.42
590.56	5261.52
590.72	5329.40
590.88	5310.68
591.04	5242.80
591.20	5177.26
591.35	5116.41
591.51	5111.73
591.67	4971.30
591.83	4966.62
591.99	5085.98
592.15	4961.94
592.31	5172.58
592.46	5277.91
592.62	5268.55
592.78	5455.79
592.94	5254.50
593.10	5359.83
593.26	5434.72
593.41	5504.94
593.57	5465.15
593.73	5160.88
593.89	5116.41
594.05	4847.25
594.20	4734.90
594.36	4894.06
594.52	4781.71
594.68	4683.41
594.84	5008.75
594.99	5181.95
595.15	5104.71
595.31	5188.97
595.47	5188.97
595.62	5217.05
595.78	5247.48
595.94	5418.34
596.10	5380.89
596.25	5376.21
596.41	5195.99
596.57	5020.45
596.73	5245.14
596.88	5179.61
597.04	5338.76
597.20	5252.16
597.36	5273.23
597.51	5174.92
