SpectraSuite Data File
++++++++++++++++++++++++++++++++++++
Date: Fri Oct 04 11:39:36 GMT-05:00 2013
User: price-jones
Dark Spectrum Present: No
Reference Spectrum Present: No
Number of Sampled Component Spectra: 1
Spectrometers: USB2+H05261
Integration Time (usec): 100000 (USB2+H05261)
Spectra Averaged: 1 (USB2+H05261)
Boxcar Smoothing: 0 (USB2+H05261)
Correct for Electrical Dark: No (USB2+H05261)
Strobe/Lamp Enabled: No (USB2+H05261)
Correct for Detector Non-linearity: No (USB2+H05261)
Correct for Stray Light: No (USB2+H05261)
Number of Pixels in Processed Spectrum: 2048
>>>>>Begin Processed Spectral Data<<<<<
365.73	65.54
365.92	65.54
366.12	65.54
366.32	0.00
366.52	0.00
366.72	0.00
366.91	0.00
367.11	23.41
367.31	0.00
367.51	0.00
367.70	0.00
367.90	0.00
368.10	0.00
368.30	0.00
368.49	0.00
368.69	49.15
368.89	0.00
369.09	0.00
369.28	0.00
369.48	0.00
369.68	37.45
369.87	0.00
370.07	0.00
370.27	39.79
370.47	126.39
370.66	191.92
370.86	238.73
371.06	348.74
371.25	355.76
371.45	351.08
371.65	404.91
371.84	313.63
372.04	325.33
372.24	397.89
372.44	376.83
372.63	437.68
372.83	411.93
373.03	397.89
373.22	470.45
373.42	428.32
373.62	414.27
373.81	463.43
374.01	430.66
374.21	454.06
374.40	442.36
374.60	477.47
374.79	486.83
374.99	493.85
375.19	454.06
375.38	493.85
375.58	400.23
375.78	538.32
375.97	437.68
376.17	477.47
376.37	489.17
376.56	463.43
376.76	423.64
376.95	374.49
377.15	437.68
377.35	479.81
377.54	470.45
377.74	528.96
377.93	421.30
378.13	543.00
378.33	554.71
378.52	578.11
378.72	543.00
378.91	531.30
379.11	482.15
379.31	550.03
379.50	559.39
379.70	617.90
379.89	526.62
380.09	498.53
380.28	486.83
380.48	514.92
380.68	545.34
380.87	545.34
381.07	489.17
381.26	594.50
381.46	514.92
381.65	528.96
381.85	514.92
382.04	514.92
382.24	606.20
382.43	550.03
382.63	531.30
382.83	592.16
383.02	568.75
383.22	636.63
383.41	587.47
383.61	578.11
383.80	657.69
384.00	566.41
384.19	664.71
384.39	643.65
384.58	620.24
384.78	596.84
384.97	636.63
385.17	690.46
385.36	648.33
385.56	674.07
385.75	702.16
385.95	716.20
386.14	636.63
386.34	678.76
386.53	664.71
386.72	699.82
386.92	643.65
387.11	594.50
387.31	690.46
387.50	720.88
387.70	709.18
387.89	699.82
388.09	709.18
388.28	774.72
388.48	676.41
388.67	711.52
388.86	671.73
389.06	734.93
389.25	760.67
389.45	746.63
389.64	720.88
389.84	758.33
390.03	809.83
390.22	823.87
390.42	720.88
390.61	744.29
390.81	727.91
391.00	823.87
391.19	868.34
391.39	828.55
391.58	987.71
391.78	901.11
391.97	777.06
392.16	805.14
392.36	929.19
392.55	739.61
392.75	905.79
392.94	828.55
393.13	908.13
393.33	851.96
393.52	891.74
393.71	861.32
393.91	936.21
394.10	938.55
394.29	819.19
394.49	910.47
394.68	929.19
394.88	912.81
395.07	912.81
395.26	968.98
395.46	917.49
395.65	947.92
395.84	997.07
396.04	1053.24
396.23	1088.35
396.42	997.07
396.62	957.28
396.81	1060.26
397.00	1076.65
397.19	1046.22
397.39	1004.09
397.58	1081.33
397.77	1111.75
397.97	1055.58
398.16	1027.50
398.35	1165.59
398.55	1109.41
398.74	1221.76
398.93	1160.91
399.12	1097.71
399.32	1100.05
399.51	1095.37
399.70	1191.33
399.90	1221.76
400.09	1277.93
400.28	1238.14
400.47	1224.10
400.67	1217.08
400.86	1240.48
401.05	1254.53
401.24	1259.21
401.44	1296.66
401.63	1343.47
401.82	1313.04
402.01	1296.66
402.21	1369.21
402.40	1472.20
402.59	1404.32
402.78	1369.21
402.97	1385.60
403.17	1488.58
403.36	1425.39
403.55	1448.79
403.74	1460.49
403.93	1528.37
404.13	1540.07
404.32	1537.73
404.51	1516.67
404.70	1617.31
404.89	1575.18
405.09	1547.09
405.28	1598.59
405.47	1586.88
405.66	1589.22
405.85	1671.14
406.05	1593.90
406.24	1558.80
406.43	1685.19
406.62	1626.67
406.81	1750.72
407.00	1661.78
407.20	1647.74
407.39	1650.08
407.58	1715.61
407.77	1788.17
407.96	1832.64
408.15	1771.79
408.34	1813.92
408.54	1949.67
408.73	1867.75
408.92	1806.89
409.11	1874.77
409.30	1977.75
409.49	1853.70
409.68	1907.54
409.87	2097.12
410.07	1902.86
410.26	1898.17
410.45	2099.46
410.64	1947.33
410.83	2010.52
411.02	2127.55
411.21	2104.14
411.40	2200.10
411.59	2160.31
411.78	2172.02
411.98	2197.76
412.17	2293.72
412.36	2202.44
412.55	2303.09
412.74	2363.94
412.93	2244.57
413.12	2289.04
413.31	2424.80
413.50	2331.17
413.69	2307.77
413.88	2497.35
414.07	2424.80
414.26	2583.95
414.45	2590.97
414.64	2567.57
414.83	2630.76
415.02	2518.42
415.22	2628.42
415.41	2724.38
415.60	2703.32
415.79	2597.99
415.98	2740.77
416.17	2768.85
416.36	2724.38
416.55	2857.79
416.74	2911.63
416.93	2860.13
417.12	2876.52
417.31	2988.86
417.50	2881.20
417.69	3040.36
417.88	3105.89
418.07	2979.50
418.26	3087.17
418.45	2988.86
418.64	3236.96
418.83	3091.85
419.02	3138.66
419.21	3138.66
419.39	3169.09
419.58	3096.53
419.77	3171.43
419.96	3241.64
420.15	3346.97
420.34	3339.94
420.53	3295.47
420.72	3363.35
420.91	3349.31
421.10	3276.75
421.29	3389.10
421.48	3199.51
421.67	3330.58
421.86	3438.25
422.05	3536.55
422.24	3543.57
422.43	3419.52
422.61	3372.71
422.80	3522.51
422.99	3442.93
423.18	3632.51
423.37	3566.98
423.56	3602.08
423.75	3557.61
423.94	3527.19
424.13	3346.97
424.32	3417.18
424.50	3651.24
424.69	3630.17
424.88	3684.00
425.07	3679.32
425.26	3655.92
425.45	3700.39
425.64	3686.34
425.83	3604.42
426.01	3707.41
426.20	3616.13
426.39	3763.58
426.58	3592.72
426.77	3632.51
426.96	3581.02
427.15	3728.47
427.33	3672.30
427.52	3798.69
427.71	3779.97
427.90	3728.47
428.09	3815.07
428.28	3768.26
428.46	3796.35
428.65	4030.40
428.84	4004.66
429.03	4149.77
429.22	3873.59
429.40	3873.59
429.59	4077.21
429.78	3859.54
429.97	3838.48
430.16	3948.48
430.34	3929.76
430.53	4032.74
430.72	4217.65
430.91	4084.23
431.10	4138.07
431.28	4145.09
431.47	4208.28
431.66	4159.13
431.85	4205.94
432.03	4346.37
432.22	4386.16
432.41	4285.52
432.60	4355.74
432.79	4313.61
432.97	4299.56
433.16	4351.06
433.35	4248.07
433.54	4367.44
433.72	4449.36
433.91	4477.44
434.10	4367.44
434.28	4337.01
434.47	4423.61
434.66	4664.69
434.85	4655.33
435.03	4610.86
435.22	4819.16
435.41	5111.73
435.59	4954.91
435.78	4809.80
435.97	4629.58
436.16	4692.77
436.34	4760.65
436.53	4816.82
436.72	4746.61
436.90	4727.88
437.09	4732.56
437.28	4657.67
437.46	4791.08
437.65	4884.70
437.84	4908.10
438.02	4968.96
438.21	4943.21
438.40	4830.87
438.58	4973.64
438.77	5022.79
438.96	4990.02
439.14	5174.92
439.33	5107.05
439.52	5275.57
439.70	5266.21
439.89	5296.63
440.08	5301.31
440.26	5303.65
440.45	5343.44
440.63	5533.03
440.82	5441.75
441.01	5469.83
441.19	5575.16
441.38	5472.17
441.57	5577.50
441.75	5771.76
441.94	5891.13
442.12	5685.16
442.31	5870.06
442.50	5799.85
442.68	5851.34
442.87	5722.61
443.05	5832.62
443.24	5977.73
443.43	5830.27
443.61	6127.52
443.80	6282.00
443.98	5998.79
444.17	5729.63
444.35	6139.23
444.54	6054.97
444.73	6076.03
444.91	5968.37
445.10	6097.10
445.28	6134.54
445.47	5994.11
445.65	5827.93
445.84	6083.05
446.02	5907.51
446.21	6054.97
446.39	6097.10
446.58	6195.40
446.77	6183.70
446.95	5998.79
447.14	6148.59
447.32	6272.64
447.51	6183.70
447.69	6059.65
447.88	6319.45
448.06	6270.30
448.25	6230.51
448.43	6260.93
448.62	6282.00
448.80	6209.44
448.99	6312.42
449.17	6342.85
449.36	6305.40
449.54	6541.80
449.73	6436.47
449.91	6504.35
450.10	6483.28
450.28	6469.24
450.46	6546.48
450.65	6504.35
450.83	6455.20
451.02	6635.42
451.20	6583.93
451.39	6586.27
451.57	6707.98
451.76	6586.27
451.94	6579.25
452.13	6698.61
452.31	6775.85
452.49	6623.72
452.68	6817.98
452.86	6736.06
453.05	6787.55
453.23	6834.36
453.42	6656.48
453.60	6825.00
453.78	6855.43
453.97	6883.52
454.15	6867.13
454.34	6913.94
454.52	6932.67
454.70	6909.26
454.89	7073.10
455.07	7115.23
455.26	7037.99
455.44	7267.36
455.62	7091.82
455.81	7213.53
455.99	7276.73
456.17	7052.03
456.36	7061.40
456.54	7398.43
456.73	7485.03
456.91	7674.62
457.09	7620.78
457.28	7592.70
457.46	7410.14
457.64	7637.17
457.83	7517.80
458.01	7417.16
458.19	7470.99
458.38	7548.23
458.56	7705.04
458.74	7627.81
458.93	7810.37
459.11	7597.38
459.29	7585.68
459.48	7714.41
459.66	7644.19
459.84	7819.73
460.03	7901.65
460.21	8004.63
460.39	7974.21
460.57	7939.10
460.76	8011.65
460.94	7992.93
461.12	7831.43
461.31	8051.44
461.49	7985.91
461.67	8004.63
461.85	8170.81
462.04	8138.04
462.22	8318.26
462.40	8294.86
462.59	8252.73
462.77	8152.09
462.95	8339.33
463.13	8329.97
463.32	8505.51
463.50	8379.12
463.68	8318.26
463.86	8423.59
464.05	8149.75
464.23	8217.62
464.41	8587.43
464.59	8257.41
464.78	8484.44
464.96	8465.72
465.14	8542.96
465.32	8657.64
465.50	8615.51
465.69	8624.87
465.87	8477.42
466.05	8486.78
466.23	8507.85
466.41	8587.43
466.60	8800.41
466.78	8688.07
466.96	8727.86
467.14	8674.03
467.32	8706.79
467.51	9015.74
467.69	8828.50
467.87	8826.16
468.05	9022.77
468.23	8725.52
468.41	9092.98
468.60	9048.51
468.78	9235.75
468.96	8961.91
469.14	8994.68
469.32	9111.71
469.50	8901.06
469.69	9170.22
469.87	9158.52
470.05	9235.75
470.23	9184.26
470.41	9376.19
470.59	9317.67
470.77	9408.95
470.95	9465.13
471.14	9692.16
471.32	9231.07
471.50	9685.14
471.68	9486.19
471.86	9434.70
472.04	9724.93
472.22	9933.23
472.40	9654.71
472.58	9895.78
472.77	9888.76
472.95	10106.43
473.13	10176.65
473.31	10050.26
473.49	9928.55
473.67	10244.52
473.85	9989.41
474.03	10263.25
474.21	10064.30
474.39	10471.56
474.57	10289.00
474.75	10611.99
474.93	10757.10
475.12	10778.17
475.30	10588.58
475.48	10396.66
475.66	10864.77
475.84	10626.03
476.02	10932.64
476.20	10827.32
476.38	10967.75
476.56	11337.56
476.74	11307.13
476.92	10904.56
477.10	11063.71
477.28	11281.38
477.46	11386.71
477.64	11508.41
477.82	11667.57
478.00	11878.22
478.18	11913.33
478.36	12159.08
478.54	12201.21
478.72	11796.30
478.90	12374.41
479.08	12269.09
479.26	12496.12
479.44	12652.94
479.62	12428.24
479.80	12641.23
479.98	12648.26
480.16	12889.33
480.34	12685.70
480.52	12987.63
480.70	13025.08
480.88	13043.81
481.06	12989.97
481.24	13170.19
481.41	13516.59
481.59	13469.78
481.77	13722.56
481.95	13652.34
482.13	13811.50
482.31	13701.50
482.49	14132.15
482.67	14061.94
482.85	14122.79
483.03	14445.79
483.21	14628.35
483.39	14773.46
483.57	14846.02
483.74	14890.49
483.92	14949.00
484.10	14881.13
484.28	15304.76
484.46	15351.57
484.64	15812.66
484.82	15199.44
485.00	15566.90
485.18	15571.58
485.35	15908.62
485.53	15896.92
485.71	16128.63
485.89	16339.28
486.07	16456.31
486.25	16503.12
486.43	16362.69
486.61	16936.12
486.78	16666.95
486.96	16978.25
487.14	16978.25
487.32	17467.42
487.50	17268.47
487.68	17198.26
487.85	17624.23
488.03	17987.02
488.21	18113.41
488.39	18075.96
488.57	18122.77
488.75	18239.79
488.92	18913.87
489.10	18499.59
489.28	18562.79
489.46	19023.87
489.64	18948.98
489.81	19372.61
489.99	19082.39
490.17	19211.12
490.35	19564.54
490.53	19559.86
490.70	19653.48
490.88	19747.10
491.06	20255.00
491.24	19662.84
491.41	20095.84
491.59	20259.68
491.77	20809.70
491.95	20575.65
492.13	20753.53
492.30	20908.01
492.48	20676.29
492.66	20898.64
492.84	21223.98
493.01	21390.16
493.19	21390.16
493.37	21781.03
493.54	21579.74
493.72	21825.50
493.90	21837.20
494.08	22221.05
494.25	22059.55
494.43	22705.54
494.61	22576.81
494.79	22492.55
494.96	22530.00
495.14	22850.65
495.32	23084.70
495.49	22991.08
495.67	23108.11
495.85	23335.14
496.02	23461.53
496.20	23859.42
496.38	23229.82
496.55	23381.95
496.73	24070.07
496.91	24049.00
497.09	24549.88
497.26	24084.11
497.44	24470.30
497.62	24470.30
497.79	25039.05
497.97	24393.06
498.14	24858.83
498.32	25275.45
498.50	25055.43
498.67	25528.22
498.85	25174.80
499.03	25682.70
499.20	25689.72
499.38	25383.11
499.56	25436.94
499.73	26202.30
499.91	26237.41
500.08	26118.04
500.26	26087.61
500.44	25813.77
500.61	25937.82
500.79	26211.66
500.97	26192.94
501.14	26815.52
501.32	26490.18
501.49	26574.44
501.67	26817.86
501.84	26796.79
502.02	26785.09
502.20	27222.77
502.37	27105.74
502.55	27077.66
502.72	27784.50
502.90	27360.86
503.07	27248.52
503.25	27377.25
503.43	27288.31
503.60	27534.06
503.78	27594.92
503.95	27463.85
504.13	27910.89
504.30	28229.20
504.48	27906.21
504.65	28166.01
504.83	28486.66
505.01	28467.94
505.18	28203.46
505.36	28507.72
505.53	28437.51
505.71	28655.18
505.88	28833.06
506.06	28479.64
506.23	29240.31
506.41	29085.84
506.58	29099.88
506.76	29326.91
506.93	29254.36
507.11	29514.16
507.28	29282.44
507.46	29610.12
507.63	29596.07
507.81	29851.19
507.98	29584.37
508.16	29766.93
508.33	30003.33
508.50	30096.95
508.68	30347.39
508.85	30281.85
509.03	30511.22
509.20	30497.18
509.38	30576.76
509.55	31049.55
509.73	30806.13
509.90	31098.70
510.08	30955.93
510.25	30799.11
510.42	31356.16
510.60	31309.35
510.77	31660.43
510.95	31840.65
511.12	31199.34
511.30	31409.99
511.47	31990.44
511.64	31800.86
511.82	31566.81
511.99	31688.51
512.17	31997.46
512.34	32009.17
512.51	32058.32
512.69	32395.35
512.86	32484.30
513.04	32437.48
513.21	32957.08
513.38	32514.72
513.56	32350.88
513.73	32428.12
513.90	32872.82
514.08	32755.80
514.25	33006.23
514.43	33003.89
514.60	33298.80
514.77	33092.83
514.95	33383.06
515.12	33090.49
515.29	33158.37
515.47	33039.00
515.64	33654.56
515.81	33359.66
515.99	33614.77
516.16	34153.10
516.33	34117.99
516.51	33965.85
516.68	33668.61
516.85	33809.04
517.03	34045.43
517.20	33907.34
517.37	34558.01
517.54	34117.99
517.72	34192.89
517.89	34417.58
518.06	34382.47
518.24	34747.59
518.41	34529.92
518.58	34515.88
518.75	34862.28
518.93	35290.60
519.10	34831.85
519.27	35157.19
519.45	34813.13
519.62	35079.95
519.79	35068.25
519.96	35323.36
520.14	35632.32
520.31	35164.21
520.48	35585.50
520.65	35311.66
520.83	35889.77
521.00	35749.34
521.17	35889.77
521.34	35360.81
521.52	36100.42
521.69	35889.77
521.86	36311.07
522.03	35880.41
522.20	36657.47
522.38	36378.95
522.55	36493.63
522.72	36266.60
522.89	36334.48
523.07	36952.38
523.24	36620.02
523.41	37120.90
523.58	36699.60
523.75	36950.04
523.92	36751.09
524.10	37099.83
524.27	37209.84
524.44	37490.70
524.61	37291.76
524.78	37764.54
524.96	37174.73
525.13	37364.31
525.30	37291.76
525.47	37792.63
525.64	37649.86
525.81	37827.74
525.98	38405.85
526.16	38508.83
526.33	37914.34
526.50	38298.19
526.67	37361.97
526.84	38059.45
527.01	37804.33
527.18	38419.89
527.36	38314.57
527.53	38007.96
527.70	38869.28
527.87	38604.80
528.04	38305.21
528.21	38293.50
528.38	38553.30
528.55	38955.88
528.72	38349.68
528.89	38483.09
529.07	38972.26
529.24	39070.56
529.41	39381.85
529.58	38565.01
529.75	38663.31
529.92	38951.20
530.09	38813.10
530.26	38841.19
530.43	38990.98
530.60	39117.37
530.77	39143.12
530.94	39409.94
531.11	39374.83
531.28	38902.04
531.46	39335.04
531.63	39608.89
531.80	39749.32
531.97	39896.77
532.14	39681.44
532.31	39541.01
532.48	39641.65
532.65	39770.38
532.82	39545.69
532.99	39889.75
533.16	39845.28
533.33	40147.21
533.50	40678.51
533.67	39828.90
533.84	40046.57
534.01	40306.37
534.18	40222.11
534.35	40467.86
534.52	40229.13
534.69	40362.54
534.86	40856.39
535.03	40573.19
535.20	40488.93
535.37	40847.03
535.54	40821.28
535.71	40369.56
535.88	41001.50
536.05	40629.36
536.22	41324.50
536.38	41067.04
536.55	40788.52
536.72	41268.33
536.89	40781.49
537.06	41448.55
537.23	41710.69
537.40	41085.76
537.57	41155.98
537.74	41163.00
537.91	41776.22
538.08	41415.78
538.25	41493.02
538.42	41694.30
538.59	41535.15
538.75	41181.73
538.92	41373.65
539.09	41631.11
539.26	41797.29
539.43	42188.16
539.60	41750.48
539.77	41991.55
539.94	42087.51
540.11	42057.09
540.28	42412.85
540.44	42202.20
540.61	42195.18
540.78	42183.48
540.95	42174.11
541.12	42389.44
541.29	42527.53
541.46	42293.48
541.62	42281.78
541.79	42618.81
541.96	42525.19
542.13	42312.20
542.30	42794.36
542.47	42895.00
542.63	43122.03
542.80	43309.27
542.97	43548.01
543.14	43658.01
543.31	42862.23
543.48	43248.42
543.64	43739.93
543.81	44140.16
543.98	43222.67
544.15	43908.45
544.32	43803.13
544.48	43662.69
544.65	43473.11
544.82	43669.72
544.99	43323.32
545.16	43735.25
545.32	43576.09
545.49	44203.36
545.66	44369.54
545.83	44598.91
546.00	44516.99
546.16	43948.24
546.33	43768.02
546.50	43538.65
546.67	43761.00
546.83	43569.07
547.00	43899.09
547.17	44095.69
547.34	43433.32
547.50	43903.77
547.67	44289.96
547.84	44350.81
548.00	43861.64
548.17	44538.05
548.34	43772.70
548.51	44409.32
548.67	44531.03
548.84	44353.15
549.01	44409.32
549.18	44011.43
549.34	44378.90
549.51	43976.33
549.68	44442.09
549.84	44168.25
550.01	44334.43
550.18	44444.43
550.34	44652.74
550.51	44353.15
550.68	44346.13
550.84	44231.44
551.01	44701.89
551.18	44416.35
551.34	44500.61
551.51	44210.38
551.68	45125.53
551.84	45029.57
552.01	44507.63
552.18	44910.20
552.34	44598.91
552.51	45158.30
552.68	44378.90
552.84	44825.94
553.01	45015.52
553.18	44802.53
553.34	45315.11
553.51	45230.85
553.67	45038.93
553.84	45422.78
554.01	45179.36
554.17	45223.83
554.34	45406.39
554.51	45134.89
554.67	45242.56
554.84	45097.44
555.00	45104.46
555.17	45265.96
555.33	45490.65
555.50	44816.58
555.67	45359.58
555.83	45275.32
556.00	45418.10
556.16	45752.79
556.33	45434.48
556.50	45565.55
556.66	45404.05
556.83	45429.80
556.99	45734.07
557.16	45375.97
557.32	46068.76
557.49	45979.82
557.65	45380.65
557.82	45481.29
557.98	45226.17
558.15	45724.71
558.32	45734.07
558.48	45371.28
558.65	45841.73
558.81	45301.07
558.98	45830.03
559.14	46005.57
559.31	45366.60
559.47	45720.02
559.64	45617.04
559.80	46045.36
559.97	46131.96
560.13	45675.55
560.30	46223.24
560.46	46202.18
560.63	45984.51
560.79	46490.06
560.96	46127.28
561.12	45607.68
561.29	46513.47
561.45	46087.49
561.61	45638.11
561.78	46237.28
561.94	45867.48
562.11	46307.50
562.27	46064.08
562.44	46401.12
562.60	46461.97
562.77	46326.22
562.93	46007.91
563.10	46302.82
563.26	46181.11
563.42	46424.53
563.59	46099.19
563.75	46279.41
563.92	46691.35
564.08	46176.43
564.24	46447.93
564.41	46487.72
564.57	46188.13
564.74	46176.43
564.90	46295.80
565.07	46286.43
565.23	46553.26
565.39	46293.46
565.56	46513.47
565.72	46146.00
565.88	46384.74
566.05	46431.55
566.21	46305.16
566.38	46433.89
566.54	46160.05
566.70	46990.94
566.87	46518.15
567.03	46672.62
567.19	46581.34
567.36	46742.84
567.52	46440.91
567.68	46719.43
567.85	46387.08
568.01	46803.69
568.17	46155.36
568.34	46471.34
568.50	46361.33
568.66	46780.29
568.83	46883.27
568.99	46483.04
569.15	46487.72
569.32	46511.13
569.48	46277.07
569.64	46586.02
569.81	46408.14
569.97	46644.54
570.13	46902.00
570.30	46457.29
570.46	46679.64
570.62	46667.94
570.78	46485.38
570.95	46803.69
571.11	46347.29
571.27	46483.04
571.43	45961.10
571.60	46265.37
571.76	46223.24
571.92	46461.97
572.09	46199.83
572.25	46724.11
572.41	46586.02
572.57	46759.22
572.74	47295.21
572.90	46366.01
573.06	46913.70
573.22	46569.64
573.38	46674.96
573.55	47058.81
573.71	47098.60
573.87	46653.90
574.03	46770.93
574.20	46761.56
574.36	46293.46
574.52	46815.40
574.68	46361.33
574.84	46728.80
575.01	46581.34
575.17	46869.23
575.33	46504.10
575.49	46831.78
575.65	46913.70
575.82	46927.74
575.98	46576.66
576.14	47058.81
576.30	46560.28
576.46	46394.10
576.62	46745.18
576.79	46714.75
576.95	46314.52
577.11	46483.04
577.27	46995.62
577.43	46866.89
577.59	46925.40
577.75	46787.31
577.92	46461.97
578.08	46508.79
578.24	46564.96
578.40	46916.04
578.56	46916.04
578.72	47269.46
578.88	47086.90
579.04	47576.07
579.21	47281.16
579.37	46869.23
579.53	47164.14
579.69	46759.22
579.85	46681.98
580.01	47030.72
580.17	46543.89
580.33	46700.71
580.49	46501.76
580.65	46941.78
580.82	47107.96
580.98	46864.55
581.14	46623.47
581.30	47498.83
581.46	46649.22
581.62	46721.77
581.78	47054.13
581.94	47449.68
582.10	46789.65
582.26	46499.42
582.42	46761.56
582.58	46763.90
582.74	47203.92
582.90	46703.05
583.06	47037.75
583.22	47126.69
583.38	46712.41
583.54	46883.27
583.70	46829.44
583.86	47068.17
584.02	46789.65
584.18	46948.81
584.34	47470.75
584.50	47096.26
584.66	47042.43
584.82	46487.72
584.98	46693.69
585.14	46651.56
585.30	46841.14
585.46	46871.57
585.62	46871.57
585.78	47016.68
585.94	46581.34
586.10	46972.21
586.26	46457.29
586.42	46799.01
586.58	46960.51
586.74	46742.84
586.90	46724.11
587.06	46742.84
587.22	46976.89
587.38	46478.36
587.54	46918.38
587.70	47320.95
587.86	47000.30
588.02	46913.70
588.18	47374.78
588.34	46946.47
588.49	46590.70
588.65	46820.08
588.81	46665.60
588.97	46848.16
589.13	46689.01
589.29	46726.46
589.45	46712.41
589.61	47175.84
589.77	46939.44
589.93	47386.49
590.08	47082.22
590.24	47407.55
590.40	47208.61
590.56	47054.13
