SpectraSuite Data File
++++++++++++++++++++++++++++++++++++
Date: Fri Oct 04 11:39:49 GMT-05:00 2013
User: price-jones
Dark Spectrum Present: No
Reference Spectrum Present: No
Number of Sampled Component Spectra: 1
Spectrometers: USB2+H05261
Integration Time (usec): 100000 (USB2+H05261)
Spectra Averaged: 1 (USB2+H05261)
Boxcar Smoothing: 0 (USB2+H05261)
Correct for Electrical Dark: No (USB2+H05261)
Strobe/Lamp Enabled: No (USB2+H05261)
Correct for Detector Non-linearity: No (USB2+H05261)
Correct for Stray Light: No (USB2+H05261)
Number of Pixels in Processed Spectrum: 2048
>>>>>Begin Processed Spectral Data<<<<<
365.73	39.79
365.92	39.79
366.12	39.79
366.32	9.36
366.52	32.77
366.72	0.00
366.91	0.00
367.11	0.00
367.31	0.00
367.51	0.00
367.70	11.70
367.90	7.02
368.10	0.00
368.30	0.00
368.49	0.00
368.69	0.00
368.89	0.00
369.09	0.00
369.28	0.00
369.48	7.02
369.68	0.00
369.87	9.36
370.07	0.00
370.27	79.58
370.47	0.00
370.66	88.94
370.86	81.92
371.06	128.73
371.25	191.92
371.45	95.96
371.65	180.22
371.84	156.82
372.04	161.50
372.24	168.52
372.44	159.16
372.63	131.07
372.83	112.35
373.03	212.99
373.22	269.16
373.42	191.92
373.62	187.24
373.81	231.71
374.01	168.52
374.21	135.75
374.40	264.48
374.60	191.92
374.79	194.26
374.99	147.45
375.19	222.35
375.38	234.05
375.58	250.44
375.78	245.76
375.97	212.99
376.17	224.69
376.37	156.82
376.56	196.60
376.76	276.18
376.95	212.99
377.15	191.92
377.35	243.42
377.54	180.22
377.74	191.92
377.93	222.35
378.13	301.93
378.33	255.12
378.52	224.69
378.72	234.05
378.91	271.50
379.11	222.35
379.31	217.67
379.50	208.31
379.70	210.65
379.89	227.03
380.09	182.56
380.28	222.35
380.48	234.05
380.68	189.58
380.87	166.18
381.07	299.59
381.26	280.86
381.46	280.86
381.65	285.55
381.85	222.35
382.04	294.91
382.24	224.69
382.43	311.29
382.63	238.73
382.83	238.73
383.02	278.52
383.22	257.46
383.41	234.05
383.61	224.69
383.80	262.14
384.00	189.58
384.19	231.71
384.39	252.78
384.58	287.89
384.78	292.57
384.97	334.70
385.17	241.08
385.36	250.44
385.56	285.55
385.75	285.55
385.95	222.35
386.14	308.95
386.34	227.03
386.53	266.82
386.72	301.93
386.92	238.73
387.11	252.78
387.31	243.42
387.50	287.89
387.70	278.52
387.89	236.39
388.09	278.52
388.28	271.50
388.48	203.63
388.67	271.50
388.86	262.14
389.06	315.97
389.25	299.59
389.45	257.46
389.64	313.63
389.84	297.25
390.03	248.10
390.22	285.55
390.42	311.29
390.61	351.08
390.81	250.44
391.00	362.78
391.19	311.29
391.39	290.23
391.58	367.46
391.78	287.89
391.97	381.51
392.16	344.06
392.36	414.27
392.55	285.55
392.75	360.44
392.94	383.85
393.13	360.44
393.33	362.78
393.52	290.23
393.71	390.87
393.91	320.65
394.10	355.76
394.29	299.59
394.49	322.99
394.68	404.91
394.88	348.74
395.07	402.57
395.26	297.25
395.46	372.15
395.65	379.17
395.84	374.49
396.04	430.66
396.23	369.80
396.42	388.53
396.62	325.33
396.81	433.00
397.00	416.62
397.19	397.89
397.39	423.64
397.58	447.04
397.77	369.80
397.97	369.80
398.16	458.74
398.35	397.89
398.55	379.17
398.74	461.09
398.93	407.25
399.12	383.85
399.32	503.22
399.51	451.72
399.70	374.49
399.90	369.80
400.09	461.09
400.28	517.26
400.47	510.24
400.67	423.64
400.86	390.87
401.05	447.04
401.24	472.79
401.44	416.62
401.63	365.12
401.82	465.77
402.01	461.09
402.21	454.06
402.40	456.40
402.59	505.56
402.78	503.22
402.97	507.90
403.17	479.81
403.36	550.03
403.55	554.71
403.74	521.94
403.93	545.34
404.13	627.26
404.32	561.73
404.51	592.16
404.70	594.50
404.89	519.60
405.09	589.82
405.28	580.45
405.47	507.90
405.66	491.51
405.85	655.35
406.05	575.77
406.24	622.58
406.43	692.80
406.62	648.33
406.81	627.26
407.00	613.22
407.20	683.44
407.39	606.20
407.58	657.69
407.77	669.39
407.96	645.99
408.15	678.76
408.34	713.86
408.54	594.50
408.73	634.29
408.92	695.14
409.11	669.39
409.30	660.03
409.49	660.03
409.68	667.05
409.87	653.01
410.07	732.59
410.26	695.14
410.45	702.16
410.64	690.46
410.83	748.97
411.02	760.67
411.21	798.12
411.40	760.67
411.59	713.86
411.78	828.55
411.98	767.70
412.17	802.80
412.36	849.61
412.55	798.12
412.74	856.64
412.93	835.57
413.12	821.53
413.31	912.81
413.50	870.68
413.69	851.96
413.88	809.83
414.07	812.17
414.26	985.37
414.45	929.19
414.64	1008.77
414.83	910.47
415.02	926.85
415.22	966.64
415.41	926.85
415.60	959.62
415.79	966.64
415.98	940.90
416.17	1067.28
416.36	1008.77
416.55	1013.45
416.74	1083.67
416.93	1050.90
417.12	1039.20
417.31	1008.77
417.50	1043.88
417.69	1041.54
417.88	1109.41
418.07	1137.50
418.26	1123.46
418.45	1078.99
418.64	1135.16
418.83	1076.65
419.02	1125.80
419.21	1116.44
419.39	1149.20
419.58	1196.01
419.77	1170.27
419.96	1090.69
420.15	1121.12
420.34	1177.29
420.53	1268.57
420.72	1214.74
420.91	1111.75
421.10	1193.67
421.29	1324.74
421.48	1277.93
421.67	1317.72
421.86	1188.99
422.05	1200.69
422.24	1210.06
422.43	1177.29
422.61	1249.85
422.80	1329.42
422.99	1261.55
423.18	1245.16
423.37	1228.78
423.56	1231.12
423.75	1287.29
423.94	1249.85
424.13	1125.80
424.32	1102.39
424.50	1224.10
424.69	1280.27
424.88	1263.89
425.07	1249.85
425.26	1334.11
425.45	1181.97
425.64	1235.80
425.83	1203.04
426.01	1240.48
426.20	1266.23
426.39	1310.70
426.58	1327.08
426.77	1252.19
426.96	1261.55
427.15	1233.46
427.33	1273.25
427.52	1308.36
427.71	1313.04
427.90	1324.74
428.09	1416.02
428.28	1282.61
428.46	1373.89
428.65	1404.32
428.84	1495.60
429.03	1390.28
429.22	1308.36
429.40	1369.21
429.59	1397.30
429.78	1373.89
429.97	1291.98
430.16	1352.83
430.34	1359.85
430.53	1401.98
430.72	1469.86
430.91	1465.18
431.10	1451.13
431.28	1495.60
431.47	1460.49
431.66	1509.65
431.85	1411.34
432.03	1437.09
432.22	1486.24
432.41	1479.22
432.60	1495.60
432.79	1460.49
432.97	1458.15
433.16	1523.69
433.35	1467.52
433.54	1540.07
433.72	1497.94
433.91	1530.71
434.10	1575.18
434.28	1563.48
434.47	1507.30
434.66	1584.54
434.85	1528.37
435.03	1617.31
435.22	1659.44
435.41	1982.43
435.59	1961.37
435.78	1865.41
435.97	1713.27
436.16	1652.42
436.34	1586.88
436.53	1645.40
436.72	1783.49
436.90	1666.46
437.09	1643.06
437.28	1568.16
437.46	1624.33
437.65	1624.33
437.84	1703.91
438.02	1617.31
438.21	1736.68
438.40	1631.35
438.58	1708.59
438.77	1741.36
438.96	1729.66
439.14	1713.27
439.33	1799.87
439.52	1858.39
439.70	1769.44
439.89	1771.79
440.08	1783.49
440.26	1809.23
440.45	1921.58
440.63	1877.11
440.82	1921.58
441.01	1888.81
441.19	1902.86
441.38	1954.35
441.57	1907.54
441.75	1937.96
441.94	1874.77
442.12	1937.96
442.31	2111.16
442.50	1966.05
442.68	1982.43
442.87	1947.33
443.05	2078.40
443.24	2043.29
443.43	2087.76
443.61	1959.03
443.80	2040.95
443.98	1926.26
444.17	1952.01
444.35	1982.43
444.54	2143.93
444.73	2054.99
444.91	1944.99
445.10	1947.33
445.28	2057.33
445.47	2045.63
445.65	2101.80
445.84	2001.16
446.02	2001.16
446.21	2085.42
446.39	2003.50
446.58	2073.71
446.77	2136.91
446.95	1996.48
447.14	2132.23
447.32	2190.74
447.51	2001.16
447.69	2106.48
447.88	2134.57
448.06	2078.40
448.25	2101.80
448.43	2033.93
448.62	2108.82
448.80	2183.72
448.99	2139.25
449.17	2176.70
449.36	2076.06
449.54	2181.38
449.73	2237.55
449.91	2361.60
450.10	2136.91
450.28	2298.41
450.46	2270.32
450.65	2263.30
450.83	2282.02
451.02	2190.74
451.20	2279.68
451.39	2200.10
451.57	2104.14
451.76	2181.38
451.94	2221.17
452.13	2291.38
452.31	2165.00
452.49	2277.34
452.68	2331.17
452.86	2298.41
453.05	2349.90
453.23	2340.54
453.42	2249.25
453.60	2275.00
453.78	2363.94
453.97	2260.96
454.15	2331.17
454.34	2263.30
454.52	2342.88
454.70	2396.71
454.89	2403.73
455.07	2385.01
455.26	2352.24
455.44	2431.82
455.62	2267.98
455.81	2340.54
455.99	2293.72
456.17	2448.20
456.36	2427.14
456.54	2506.71
456.73	2471.61
456.91	2555.86
457.09	2492.67
457.28	2509.05
457.46	2455.22
457.64	2518.42
457.83	2513.74
458.01	2548.84
458.19	2518.42
458.38	2637.78
458.56	2551.18
458.74	2492.67
458.93	2492.67
459.11	2541.82
459.29	2605.02
459.48	2649.49
459.66	2572.25
459.84	2562.89
460.03	2630.76
460.21	2703.32
460.39	2708.00
460.57	2773.53
460.76	2696.30
460.94	2640.12
461.12	2633.10
461.31	2670.55
461.49	2712.68
461.67	2628.42
461.85	2700.98
462.04	2743.11
462.22	3283.77
462.40	2818.00
462.59	2743.11
462.77	2787.58
462.95	2757.15
463.13	2700.98
463.32	2827.37
463.50	2818.00
463.68	2768.85
463.86	2782.90
464.05	2729.06
464.23	2832.05
464.41	2810.98
464.59	2785.24
464.78	2876.52
464.96	2827.37
465.14	2827.37
465.32	2820.35
465.50	2827.37
465.69	2911.63
465.87	2918.65
466.05	2829.71
466.23	2899.92
466.41	2874.18
466.60	2899.92
466.78	2818.00
466.96	2916.31
467.14	2792.26
467.32	2977.16
467.51	2979.50
467.69	2897.58
467.87	2977.16
468.05	2949.08
468.23	3007.59
468.41	2974.82
468.60	2979.50
468.78	3033.33
468.96	3016.95
469.14	2995.89
469.32	2974.82
469.50	2930.35
469.69	3014.61
469.87	3075.46
470.05	3063.76
470.23	3087.17
470.41	3112.91
470.59	3211.22
470.77	3126.96
470.95	3150.36
471.14	3075.46
471.32	3068.44
471.50	3117.59
471.68	3117.59
471.86	3045.04
472.04	3124.62
472.22	3321.22
472.40	3286.11
472.58	3288.45
472.77	3269.73
472.95	3361.01
473.13	3386.76
473.31	3314.20
473.49	3176.11
473.67	3309.52
473.85	3318.88
474.03	3279.09
474.21	3445.27
474.39	3585.70
474.57	3445.27
474.75	3562.30
474.93	3576.34
475.12	3524.85
475.30	3492.08
475.48	3449.95
475.66	3669.96
475.84	3541.23
476.02	3557.61
476.20	3653.58
476.38	3606.77
476.56	3782.31
476.74	3691.02
476.92	3655.92
477.10	3679.32
477.28	3686.34
477.46	3705.07
477.64	3803.37
477.82	3742.52
478.00	3925.08
478.18	3964.87
478.36	3971.89
478.54	3927.42
478.72	3995.29
478.90	3943.80
479.08	3915.72
479.26	4042.11
479.44	4046.79
479.62	4046.79
479.80	4112.32
479.98	4194.24
480.16	4170.83
480.34	4184.88
480.52	4119.34
480.70	4205.94
480.88	4114.66
481.06	4400.21
481.24	4308.93
481.41	4227.01
481.59	4414.25
481.77	4435.32
481.95	4547.66
482.13	4524.26
482.31	4437.66
482.49	4692.77
482.67	4657.67
482.85	4676.39
483.03	4617.88
483.21	4800.44
483.39	4791.08
483.57	4870.65
483.74	4957.25
483.92	4723.20
484.10	4784.06
484.28	4915.12
484.46	5018.11
484.64	5025.13
484.82	5093.01
485.00	4973.64
485.18	5111.73
485.35	5219.39
485.53	5198.33
485.71	5151.52
485.89	5231.10
486.07	5334.08
486.25	5439.40
486.43	5226.42
486.61	5404.30
486.78	5547.07
486.96	5373.87
487.14	5563.45
487.32	5710.91
487.50	5678.14
487.68	5762.40
487.85	5710.91
488.03	5813.89
488.21	5886.45
488.39	5811.55
488.57	5818.57
488.75	5872.40
488.92	6282.00
489.10	5998.79
489.28	6207.10
489.46	6080.71
489.64	6057.31
489.81	6162.63
489.99	6183.70
490.17	6150.93
490.35	6331.15
490.53	6361.58
490.70	6244.55
490.88	6429.45
491.06	6340.51
491.24	6284.34
491.41	6487.96
491.59	6590.95
491.77	6693.93
491.95	6574.56
492.13	6607.33
492.30	6642.44
492.48	6661.16
492.66	6736.06
492.84	6600.31
493.01	6729.04
493.19	6899.90
493.37	6869.47
493.54	6904.58
493.72	6937.35
493.90	6965.43
494.08	7054.37
494.25	7080.12
494.43	7021.61
494.61	7187.79
494.79	7122.25
494.96	7201.83
495.14	7180.76
495.32	7372.69
495.49	7426.52
495.67	7353.96
495.85	7360.98
496.02	7262.68
496.20	7375.03
496.38	7227.57
496.55	7428.86
496.73	7536.52
496.91	7634.83
497.09	7845.48
497.26	7618.44
497.44	7583.34
497.62	7669.94
497.79	7793.98
497.97	7798.66
498.14	7920.37
498.32	7978.89
498.50	7929.74
498.67	7892.29
498.85	7962.50
499.03	8002.29
499.20	8067.83
499.38	8168.47
499.56	8152.09
499.73	8175.49
499.91	8058.46
500.08	8056.12
500.26	8248.05
500.44	8025.70
500.61	8194.22
500.79	8325.29
500.97	8444.65
501.14	8334.65
501.32	8435.29
501.49	8521.89
501.67	8306.56
501.84	8554.66
502.02	8571.04
502.20	8592.11
502.37	8561.68
502.55	8503.17
502.72	8507.85
502.90	8732.54
503.07	8575.72
503.25	8631.90
503.43	8835.52
503.60	8709.13
503.78	8573.38
503.95	8851.91
504.13	8926.80
504.30	8744.24
504.48	8978.30
504.65	8912.76
504.83	8961.91
505.01	9167.88
505.18	9043.83
505.36	9210.01
505.53	8805.10
505.71	8809.78
505.88	9048.51
506.06	9071.92
506.23	9338.74
506.41	9210.01
506.58	9451.08
506.76	9128.09
506.93	9378.53
507.11	9228.73
507.28	9266.18
507.46	9174.90
507.63	9446.40
507.81	9455.76
507.98	9324.69
508.16	9338.74
508.33	9231.07
508.50	9397.25
508.68	9458.10
508.85	9610.24
509.03	9570.45
509.20	9617.26
509.38	9809.19
509.55	9654.71
509.73	9762.37
509.90	9682.80
510.08	9671.09
510.25	9715.56
510.42	9628.96
510.60	9731.95
510.77	9715.56
510.95	10132.18
511.12	9825.57
511.30	9987.07
511.47	10015.15
511.64	9984.73
511.82	10071.33
511.99	10015.15
512.17	10237.50
512.34	9940.26
512.51	10136.86
512.69	10052.60
512.86	10127.50
513.04	10029.20
513.21	10195.37
513.38	10429.43
513.56	10211.76
513.73	10413.04
513.90	10281.97
514.08	10321.76
514.25	10228.14
514.43	10298.36
514.60	10415.38
514.77	10431.77
514.95	10380.28
515.12	10359.21
515.29	10387.30
515.47	10576.88
515.64	10595.61
515.81	10546.45
515.99	10555.82
516.16	10614.33
516.33	10689.23
516.51	10644.76
516.68	10738.38
516.85	10537.09
517.03	10876.47
517.20	10913.92
517.37	10733.70
517.54	10808.59
517.72	10810.93
517.89	10700.93
518.06	10590.92
518.24	10558.16
518.41	10932.64
518.58	10827.32
518.75	10860.09
518.93	10787.53
519.10	10970.09
519.27	11126.91
519.45	10934.98
519.62	11016.90
519.79	10906.90
519.96	11108.18
520.14	11091.80
520.31	11194.78
520.48	11105.84
520.65	11035.63
520.83	11232.23
521.00	11229.89
521.17	11236.91
521.34	11248.61
521.52	11328.19
521.69	11183.08
521.86	11082.44
522.03	11482.67
522.20	11337.56
522.38	11613.74
522.55	11566.93
522.72	11382.03
522.89	11604.38
523.07	11508.41
523.24	11410.11
523.41	11564.59
523.58	11482.67
523.75	11520.12
523.92	11688.64
524.10	11562.25
524.27	11721.40
524.44	11665.23
524.61	11686.29
524.78	11634.80
524.96	11782.26
525.13	11929.71
525.30	11812.68
525.47	11676.93
525.64	11810.34
525.81	11936.73
525.98	11915.67
526.16	11908.65
526.33	11819.71
526.50	12058.44
526.67	11992.90
526.84	11957.80
527.01	11969.50
527.18	11936.73
527.36	11976.52
527.53	11857.15
527.70	12149.72
527.87	12004.61
528.04	12168.45
528.21	12163.76
528.38	12189.51
528.55	12229.30
528.72	12161.42
528.89	12285.47
529.07	12283.13
529.24	12147.38
529.41	12449.31
529.58	12173.13
529.75	12091.21
529.92	12280.79
530.09	12201.21
530.26	12372.07
530.43	12414.20
530.60	12311.22
530.77	12306.54
530.94	12262.07
531.11	12219.94
531.28	12540.59
531.46	12236.32
531.63	12421.22
531.80	12556.97
531.97	12278.45
532.14	12292.49
532.31	12453.99
532.48	12383.77
532.65	12432.93
532.82	12463.35
532.99	12540.59
533.16	12451.65
533.33	12716.13
533.50	12819.11
533.67	12465.69
533.84	12332.28
534.01	12498.46
534.18	12709.11
534.35	12674.00
534.52	12608.47
534.69	12950.18
534.86	12758.26
535.03	12648.26
535.20	12835.50
535.37	12793.37
535.54	12966.57
535.71	12758.26
535.88	12926.78
536.05	12870.61
536.22	12966.57
536.38	13025.08
536.55	12744.22
536.72	12922.10
536.89	12940.82
537.06	12833.16
537.23	12947.84
537.40	13125.72
537.57	12753.58
537.74	13095.30
537.91	13118.70
538.08	13209.98
538.25	13015.72
538.42	13060.19
538.59	13088.28
538.75	13057.85
538.92	13036.78
539.09	13205.30
539.26	13528.30
539.43	13221.69
539.60	13092.96
539.77	13004.02
539.94	13231.05
540.11	13177.22
540.28	13334.03
540.44	13441.70
540.61	13254.45
540.78	13322.33
540.95	13460.42
541.12	13689.79
541.29	13729.58
541.46	13717.88
541.62	13682.77
541.79	13593.83
541.96	13797.46
542.13	13635.96
542.30	13743.63
542.47	13685.11
542.63	13722.56
542.80	13935.55
542.97	13855.97
543.14	13954.27
543.31	13809.16
543.48	14153.22
543.64	13954.27
543.81	13771.71
543.98	13678.09
544.15	13783.41
544.32	13909.80
544.48	13914.48
544.65	13720.22
544.82	13898.10
544.99	13738.94
545.16	14050.24
545.32	13912.14
545.49	14277.27
545.66	14469.19
545.83	14916.23
546.00	14806.23
546.16	14324.08
546.33	14345.14
546.50	13886.40
546.67	13994.06
546.83	13657.03
547.00	13813.84
547.17	13898.10
547.34	14078.32
547.50	14061.94
547.67	14047.90
547.84	13912.14
548.00	13949.59
548.17	13827.88
548.34	13928.53
548.51	14085.34
548.67	14122.79
548.84	14230.46
549.01	13860.65
549.18	13982.36
549.34	13830.23
549.51	13865.33
549.68	14068.96
549.84	13970.66
550.01	14003.43
550.18	14005.77
550.34	13994.06
550.51	14064.28
550.68	14249.18
550.84	13774.05
551.01	14162.58
551.18	14181.31
551.34	14174.28
551.51	14057.26
551.68	14108.75
551.84	14010.45
552.01	14317.06
552.18	13928.53
552.34	14022.15
552.51	14195.35
552.68	14108.75
552.84	14274.93
553.01	14146.20
553.18	14303.01
553.34	14342.80
553.51	14408.34
553.67	14267.91
553.84	14253.86
554.01	13989.38
554.17	14265.57
554.34	14221.10
554.51	14356.85
554.67	14438.76
554.84	14333.44
555.00	14352.16
555.17	14370.89
555.33	14148.54
555.50	14204.71
555.67	14111.09
555.83	14312.38
556.00	14221.10
556.16	14518.34
556.33	14197.69
556.50	14281.95
556.66	14422.38
556.83	14223.44
556.99	14408.34
557.16	14424.72
557.32	14464.51
557.49	14452.81
557.65	14380.25
557.82	14277.27
557.98	14324.08
558.15	14202.37
558.32	14380.25
558.48	14246.84
558.65	14546.43
558.81	14539.41
558.98	14508.98
559.14	14246.84
559.31	14530.05
559.47	14237.48
559.64	14480.89
559.80	14501.96
559.97	14677.50
560.13	14406.00
560.30	14548.77
560.46	14307.69
560.63	14462.17
560.79	14239.82
560.96	14410.68
561.12	14361.53
561.29	14462.17
561.45	14480.89
561.61	14647.07
561.78	14731.33
561.94	14459.83
562.11	14490.26
562.27	14593.24
562.44	14317.06
562.60	14534.73
562.77	14480.89
562.93	14410.68
563.10	14455.15
563.26	14450.47
563.42	14691.54
563.59	14689.20
563.75	14487.92
563.92	14494.94
564.08	14691.54
564.24	14654.09
564.41	14394.29
564.57	14567.49
564.74	14288.97
564.90	14012.79
565.07	14548.77
565.23	14691.54
565.39	14668.14
565.56	14623.67
565.72	14464.51
565.88	14476.21
566.05	14342.80
566.21	14476.21
566.38	14593.24
566.54	14558.13
566.70	14579.20
566.87	14665.80
567.03	14356.85
567.19	14831.97
567.36	14675.16
567.52	14663.46
567.68	14637.71
567.85	14417.70
568.01	14443.45
568.17	14501.96
568.34	14604.94
568.50	14640.05
568.66	14565.15
568.83	14850.70
568.99	14707.93
569.15	14602.60
569.32	14537.07
569.48	14593.24
569.64	14511.32
569.81	14546.43
569.97	14787.50
570.13	14719.63
570.30	14635.37
570.46	14588.56
570.62	14665.80
570.78	14728.99
570.95	14630.69
571.11	14682.18
571.27	14644.73
571.43	14759.42
571.60	14466.85
571.76	14740.69
571.92	14684.52
572.09	14757.08
572.25	14558.13
572.41	14670.48
572.57	14394.29
572.74	14806.23
572.90	14569.83
573.06	14485.58
573.22	14775.80
573.38	14677.50
573.55	14551.11
573.71	14752.40
573.87	14733.67
574.03	14759.42
574.20	14714.95
574.36	14698.56
574.52	14555.79
574.68	14633.03
574.84	14806.23
575.01	14567.49
575.17	14485.58
575.33	14642.39
575.49	14658.78
575.65	15002.83
575.82	14771.12
575.98	14600.26
576.14	14539.41
576.30	14530.05
576.46	14726.65
576.62	14586.22
576.79	14647.07
576.95	14871.76
577.11	14455.15
577.27	14508.98
577.43	14778.14
577.59	14738.35
577.75	14707.93
577.92	14579.20
578.08	14298.33
578.24	14394.29
578.40	14736.01
578.56	14768.78
578.72	14689.20
578.88	15084.75
579.04	14710.27
579.21	14771.12
579.37	14705.59
579.53	14677.50
579.69	14731.33
579.85	14410.68
580.01	14679.84
580.17	14670.48
580.33	14757.08
580.49	14600.26
580.65	14846.02
580.82	15005.17
580.98	14794.53
581.14	14850.70
581.30	14899.85
581.46	14747.72
581.62	14661.12
581.78	14450.47
581.94	14726.65
582.10	14534.73
582.26	14752.40
582.42	14558.13
582.58	14792.19
582.74	14778.14
582.90	14614.30
583.06	14743.03
583.22	14614.30
583.38	14422.38
583.54	14953.68
583.70	14717.29
583.86	14881.13
584.02	14930.28
584.18	14731.33
584.34	14757.08
584.50	14951.34
584.66	14604.94
584.82	14611.96
584.98	14843.68
585.14	14654.09
585.30	14572.18
585.46	14562.81
585.62	14820.27
585.78	14555.79
585.94	14551.11
586.10	14572.18
586.26	14637.71
586.42	14759.42
586.58	14986.45
586.74	14707.93
586.90	14831.97
587.06	14640.05
587.22	14728.99
587.38	14401.32
587.54	14771.12
587.70	14869.42
587.86	14780.48
588.02	14661.12
588.18	14675.16
588.34	14824.95
588.49	14623.67
588.65	14867.08
588.81	14630.69
588.97	14794.53
589.13	14567.49
589.29	14698.56
589.45	14965.39
589.61	14846.02
589.77	15037.94
589.93	15019.22
590.08	14902.19
590.24	14920.92
590.40	14677.50
590.56	15056.67
590.72	14604.94
590.88	14787.50
591.04	14668.14
591.20	14787.50
591.35	15077.73
591.51	15056.67
591.67	14752.40
591.83	14782.82
591.99	14817.93
592.15	14874.10
592.31	15019.22
592.46	14768.78
592.62	14712.61
592.78	14745.38
592.94	14895.17
593.10	14597.92
593.26	14813.25
593.41	14913.89
593.57	14909.21
593.73	15171.35
