SpectraSuite Data File
++++++++++++++++++++++++++++++++++++
Date: Fri Oct 04 11:40:05 GMT-05:00 2013
User: price-jones
Dark Spectrum Present: No
Reference Spectrum Present: No
Number of Sampled Component Spectra: 1
Spectrometers: USB2+H05261
Integration Time (usec): 100000 (USB2+H05261)
Spectra Averaged: 1 (USB2+H05261)
Boxcar Smoothing: 0 (USB2+H05261)
Correct for Electrical Dark: No (USB2+H05261)
Strobe/Lamp Enabled: No (USB2+H05261)
Correct for Detector Non-linearity: No (USB2+H05261)
Correct for Stray Light: No (USB2+H05261)
Number of Pixels in Processed Spectrum: 2048
>>>>>Begin Processed Spectral Data<<<<<
365.73	25.75
365.92	25.75
366.12	25.75
366.32	9.36
366.52	0.00
366.72	30.43
366.91	0.00
367.11	0.00
367.31	0.00
367.51	0.00
367.70	0.00
367.90	0.00
368.10	0.00
368.30	0.00
368.49	0.00
368.69	0.00
368.89	0.00
369.09	0.00
369.28	0.00
369.48	0.00
369.68	58.51
369.87	0.00
370.07	0.00
370.27	0.00
370.47	107.66
370.66	653.01
370.86	777.06
371.06	877.70
371.25	887.06
371.45	800.46
371.65	730.25
371.84	699.82
372.04	706.84
372.24	842.59
372.44	910.47
372.63	837.91
372.83	830.89
373.03	730.25
373.22	695.14
373.42	695.14
373.62	770.04
373.81	875.36
374.01	898.77
374.21	814.51
374.40	709.18
374.60	809.83
374.79	868.34
374.99	1013.45
375.19	1029.84
375.38	999.41
375.58	1050.90
375.78	1032.18
375.97	849.61
376.17	1020.47
376.37	1027.50
376.56	1060.26
376.76	1100.05
376.95	1086.01
377.15	1217.08
377.35	1142.18
377.54	1287.29
377.74	1235.80
377.93	1299.00
378.13	1275.59
378.33	1252.19
378.52	1193.67
378.72	1149.20
378.91	1050.90
379.11	1104.73
379.31	999.41
379.50	1041.54
379.70	1146.86
379.89	1139.84
380.09	1203.04
380.28	1334.11
380.48	1233.46
380.68	1167.93
380.87	1186.65
381.07	1132.82
381.26	1093.03
381.46	1128.14
381.65	1057.92
381.85	884.72
382.04	983.02
382.24	945.58
382.43	819.19
382.63	835.57
382.83	816.85
383.02	854.30
383.22	901.11
383.41	805.14
383.61	849.61
383.80	997.07
384.00	1100.05
384.19	1121.12
384.39	1172.61
384.58	1247.51
384.78	1205.38
384.97	1259.21
385.17	1137.50
385.36	1135.16
385.56	1097.71
385.75	1130.48
385.95	1114.10
386.14	1343.47
386.34	1315.38
386.53	1259.21
386.72	1153.88
386.92	1174.95
387.11	1170.27
387.31	1308.36
387.50	1308.36
387.70	1238.14
387.89	1310.70
388.09	1167.93
388.28	1146.86
388.48	1097.71
388.67	1301.34
388.86	1441.77
389.06	1519.01
389.25	1617.31
389.45	1591.56
389.64	1561.14
389.84	1582.20
390.03	1600.93
390.22	1563.48
390.42	1701.57
390.61	1643.06
390.81	1741.36
391.00	1767.10
391.19	1809.23
391.39	1614.97
391.58	1657.10
391.78	1542.41
391.97	1614.97
392.16	1401.98
392.36	1364.53
392.55	1212.40
392.75	919.83
392.94	835.57
393.13	863.66
393.33	908.13
393.52	1018.13
393.71	1214.74
393.91	1401.98
394.10	1556.46
394.29	1558.80
394.49	1741.36
394.68	1954.35
394.88	1907.54
395.07	1954.35
395.26	1916.90
395.46	1912.22
395.65	1750.72
395.84	1650.08
396.04	1437.09
396.23	1193.67
396.42	959.62
396.62	952.60
396.81	1128.14
397.00	1256.87
397.19	1500.28
397.39	1811.57
397.58	2097.12
397.77	2132.23
397.97	2141.59
398.16	2179.04
398.35	2370.96
398.55	2509.05
398.74	2628.42
398.93	2656.51
399.12	2441.18
399.32	2415.43
399.51	2509.05
399.70	2565.23
399.90	2614.38
400.09	2635.44
400.28	2719.70
400.47	2497.35
400.67	2890.56
400.86	2864.82
401.05	2832.05
401.24	2928.01
401.44	2881.20
401.63	2789.92
401.82	2782.90
402.01	2829.71
402.21	2913.97
402.40	2911.63
402.59	2839.07
402.78	2724.38
402.97	2637.78
403.17	2693.96
403.36	2951.42
403.55	3122.27
403.74	3185.47
403.93	2899.92
404.13	3014.61
404.32	2970.14
404.51	2986.52
404.70	2944.39
404.89	2939.71
405.09	2890.56
405.28	2815.66
405.47	2813.32
405.66	2864.82
405.85	2825.03
406.05	2766.51
406.24	2705.66
406.43	2843.75
406.62	2834.39
406.81	3077.80
407.00	2860.13
407.20	2789.92
407.39	2635.44
407.58	2988.86
407.77	3042.70
407.96	3080.14
408.15	3035.67
408.34	3159.72
408.54	3297.81
408.73	3185.47
408.92	3208.87
409.11	3052.06
409.30	2981.84
409.49	2771.19
409.68	2743.11
409.87	2708.00
410.07	2708.00
410.26	2986.52
410.45	3101.21
410.64	3089.51
410.83	3290.79
411.02	3288.45
411.21	3485.06
411.40	3489.74
411.59	3487.40
411.78	3379.73
411.98	3363.35
412.17	3506.12
412.36	3382.07
412.55	3475.70
412.74	3258.03
412.93	3248.66
413.12	3398.46
413.31	3529.53
413.50	3494.42
413.69	3707.41
413.88	3527.19
414.07	3344.63
414.26	3452.29
414.45	3428.88
414.64	3716.77
414.83	3527.19
415.02	3531.87
415.22	3442.93
415.41	3574.00
415.60	3730.81
415.79	3754.22
415.98	3885.29
416.17	3866.56
416.36	3896.99
416.55	3772.94
416.74	3646.55
416.93	3538.89
417.12	3447.61
417.31	3655.92
417.50	3585.70
417.69	3742.52
417.88	3688.68
418.07	3688.68
418.26	3653.58
418.45	3681.66
418.64	3887.63
418.83	3840.82
419.02	3826.78
419.21	3950.82
419.39	3681.66
419.58	3447.61
419.77	3445.27
419.96	3592.72
420.15	3894.65
420.34	3948.48
420.53	3990.61
420.72	4201.26
420.91	4105.30
421.10	4070.19
421.29	3904.01
421.48	3873.59
421.67	4112.32
421.86	3908.69
422.05	3829.12
422.24	3433.57
422.43	3382.07
422.61	3611.45
422.80	3684.00
422.99	3850.18
423.18	3878.27
423.37	3758.90
423.56	3679.32
423.75	3805.71
423.94	3978.91
424.13	3737.84
424.32	3667.62
424.50	3810.39
424.69	3779.97
424.88	3756.56
425.07	3609.11
425.26	3520.17
425.45	3662.94
425.64	3550.59
425.83	3515.48
426.01	3789.33
426.20	3901.67
426.39	3723.79
426.58	3599.74
426.77	3452.29
426.96	3222.92
427.15	3262.71
427.33	3438.25
427.52	3658.26
427.71	3611.45
427.90	3653.58
428.09	3536.55
428.28	3588.04
428.46	3524.85
428.65	3396.12
428.84	3492.08
429.03	3639.53
429.22	3335.26
429.40	3258.03
429.59	2918.65
429.78	2759.49
429.97	2569.91
430.16	2715.02
430.34	2710.34
430.53	2663.53
430.72	2750.13
430.91	2972.48
431.10	3452.29
431.28	3887.63
431.47	4222.33
431.66	4351.06
431.85	3957.85
432.03	3695.71
432.22	3637.19
432.41	3716.77
432.60	3927.42
432.79	4215.30
432.97	4341.69
433.16	4177.86
433.35	3913.38
433.54	3651.24
433.72	3358.67
433.91	3382.07
434.10	3765.92
434.28	3878.27
434.47	4304.25
434.66	4147.43
434.85	3988.27
435.03	4332.33
435.22	4484.47
435.41	5401.96
435.59	5401.96
435.78	4983.00
435.97	4854.27
436.16	4671.71
436.34	4578.09
436.53	4388.50
436.72	4428.29
436.90	4212.96
437.09	4243.39
437.28	4126.36
437.46	4182.54
437.65	4252.75
437.84	4067.85
438.02	3735.50
438.21	3559.95
438.40	3775.28
438.58	4114.66
438.77	4100.62
438.96	4259.78
439.14	4332.33
439.33	4498.51
439.52	4751.29
439.70	4425.95
439.89	4383.82
440.08	4187.22
440.26	4271.48
440.45	4468.08
440.63	4669.37
440.82	4954.91
441.01	4751.29
441.19	4690.43
441.38	4903.42
441.57	4999.38
441.75	5083.64
441.94	5165.56
442.12	4978.32
442.31	5097.69
442.50	5088.32
442.68	4910.44
442.87	4894.06
443.05	4924.49
443.24	4919.81
443.43	4889.38
443.61	5287.27
443.80	5301.31
443.98	4842.57
444.17	4924.49
444.35	5172.58
444.54	5097.69
444.73	5270.89
444.91	5090.67
445.10	5034.49
445.28	4716.18
445.47	4648.30
445.65	4631.92
445.84	4608.51
446.02	4959.60
446.21	5074.28
446.39	5048.54
446.58	5111.73
446.77	5107.05
446.95	5057.90
447.14	5345.78
447.32	5413.66
447.51	5221.74
447.69	5181.95
447.88	5095.35
448.06	5067.26
448.25	5233.44
448.43	5313.02
448.62	5231.10
448.80	5050.88
448.99	5425.36
449.17	5107.05
449.36	5341.10
449.54	5373.87
449.73	5411.32
449.91	5467.49
450.10	5614.95
450.28	5804.53
450.46	5734.31
450.65	5731.97
450.83	5643.03
451.02	5483.88
451.20	5516.64
451.39	5607.92
451.57	5528.35
451.76	5476.85
451.94	5474.51
452.13	5425.36
452.31	5158.54
452.49	4922.15
452.68	4905.76
452.86	4870.65
453.05	5018.11
453.23	5224.08
453.42	5263.86
453.60	5235.78
453.78	5467.49
453.97	5502.60
454.15	5469.83
454.34	5198.33
454.52	5158.54
454.70	5060.24
454.89	5394.93
455.07	5224.08
455.26	5345.78
455.44	5465.15
455.62	5589.20
455.81	5652.39
455.99	5507.28
456.17	5556.43
456.36	5589.20
456.54	5624.31
456.73	5694.52
456.91	5746.02
457.09	5956.66
457.28	5830.27
457.46	5722.61
457.64	5652.39
457.83	5514.30
458.01	5334.08
458.19	5533.03
458.38	5511.96
458.56	5884.11
458.74	5619.63
458.93	5544.73
459.11	5657.07
459.29	5652.39
459.48	5638.35
459.66	5474.51
459.84	5619.63
460.03	5781.12
460.21	5804.53
460.39	5834.96
460.57	5935.60
460.76	5912.19
460.94	5982.41
461.12	5582.18
461.31	5921.56
461.49	5738.99
461.67	5846.66
461.85	6010.50
462.04	5849.00
462.22	6490.31
462.40	6029.22
462.59	5919.21
462.77	6087.73
462.95	5792.83
463.13	5895.81
463.32	5928.58
463.50	5781.12
463.68	5914.53
463.86	5811.55
464.05	5738.99
464.23	5811.55
464.41	5661.76
464.59	5486.22
464.78	5746.02
464.96	5774.10
465.14	5650.05
465.32	5959.00
465.50	5959.00
465.69	6029.22
465.87	5994.11
466.05	5640.69
466.23	5614.95
466.41	5394.93
466.60	5455.79
466.78	5493.24
466.96	5689.84
467.14	5750.70
467.32	5757.72
467.51	5893.47
467.69	5465.15
467.87	5722.61
468.05	5678.14
468.23	5837.30
468.41	5692.18
468.60	5795.17
468.78	5884.11
468.96	5699.20
469.14	5767.08
469.32	5631.33
469.50	5598.56
469.69	5680.48
469.87	5526.00
470.05	5650.05
470.23	5607.92
470.41	5668.78
470.59	5675.80
470.77	5650.05
470.95	5701.54
471.14	5820.91
471.32	5741.33
471.50	6160.29
471.68	6279.66
471.86	6284.34
472.04	6284.34
472.22	6310.08
472.40	5963.68
472.58	5797.51
472.77	5844.32
472.95	5963.68
473.13	6160.29
473.31	5944.96
473.49	5914.53
473.67	5989.43
473.85	5902.83
474.03	6361.58
474.21	6291.36
474.39	6389.66
474.57	6328.81
474.75	6403.71
474.93	6375.62
475.12	6040.92
475.30	6115.82
475.48	6399.02
475.66	6104.12
475.84	6282.00
476.02	6183.70
476.20	6136.88
476.38	6216.46
476.56	6331.15
476.74	6466.90
476.92	6497.33
477.10	6537.12
477.28	6757.13
477.46	6722.02
477.64	6822.66
477.82	6775.85
478.00	6778.19
478.18	6843.73
478.36	6719.68
478.54	6878.83
478.72	6717.34
478.90	6984.16
479.08	7176.08
479.26	7269.70
479.44	7103.53
479.62	7150.34
479.80	7140.97
479.98	7353.96
480.16	7459.29
480.34	7309.49
480.52	7321.20
480.70	7414.82
480.88	7220.55
481.06	7485.03
481.24	7449.93
481.41	7779.94
481.59	7763.56
481.77	7943.78
481.95	7541.21
482.13	7503.76
482.31	7403.11
482.49	7658.23
482.67	7756.54
482.85	7852.50
483.03	8072.51
483.21	8058.46
483.39	7932.08
483.57	7595.04
483.74	7772.92
483.92	7927.39
484.10	8053.78
484.28	7962.50
484.46	8269.11
484.64	8245.71
484.82	7826.75
485.00	7880.58
485.18	7889.95
485.35	7613.76
485.53	7091.82
485.71	6630.74
485.89	6359.24
486.07	6729.04
486.25	7169.06
486.43	7667.60
486.61	7815.05
486.78	7763.56
486.96	7651.21
487.14	7847.82
487.32	8243.37
487.50	8667.00
487.68	8493.80
487.85	8734.88
488.03	8767.65
488.21	8793.39
488.39	8788.71
488.57	8388.48
488.75	8299.54
488.92	8812.12
489.10	8973.61
489.28	9432.36
489.46	9596.20
489.64	9584.49
489.81	9720.24
489.99	9685.14
490.17	9619.60
490.35	9708.54
490.53	9479.17
490.70	9385.55
490.88	9511.94
491.06	9441.72
491.24	9568.11
491.41	9469.81
491.59	9235.75
491.77	8711.47
491.95	8968.93
492.13	9289.59
492.30	9582.15
492.48	9954.30
492.66	10125.16
492.84	10136.86
493.01	10017.49
493.19	10008.13
493.37	9750.67
493.54	9731.95
493.72	9956.64
493.90	10094.73
494.08	10331.12
494.25	10602.63
494.43	10443.47
494.61	10771.15
494.79	10567.52
494.96	10740.72
495.14	10541.77
495.32	10256.23
495.49	9991.75
495.67	10141.54
495.85	10796.89
496.02	11021.58
496.20	10902.22
496.38	10551.14
496.55	10626.03
496.73	11021.58
496.91	10934.98
497.09	11227.55
497.26	11393.73
497.44	11082.44
497.62	10918.60
497.79	10771.15
497.97	10143.88
498.14	10108.77
498.32	10319.42
498.50	10803.91
498.67	10857.75
498.85	10897.53
499.03	11021.58
499.20	11042.65
499.38	11098.82
499.56	11068.39
499.73	11052.01
499.91	10827.32
500.08	10628.37
500.26	10401.34
500.44	10317.08
500.61	10778.17
500.79	10637.73
500.97	10382.62
501.14	10483.26
501.32	10490.28
501.49	10494.96
501.67	10242.18
501.84	10469.22
502.02	10506.66
502.20	10705.61
502.37	10892.85
502.55	10836.68
502.72	11091.80
502.90	11056.69
503.07	10869.45
503.25	10616.67
503.43	10462.19
503.60	10141.54
503.78	9928.55
503.95	10054.94
504.13	10682.20
504.30	10958.39
504.48	11089.46
504.65	10846.04
504.83	10909.24
505.01	11236.91
505.18	11417.13
505.36	11592.67
505.53	11503.73
505.71	11599.70
505.88	11822.05
506.06	11377.34
506.23	11300.11
506.41	11190.10
506.58	11040.31
506.76	11110.52
506.93	11150.31
507.11	10916.26
507.28	11192.44
507.46	10822.64
507.63	10754.76
507.81	10719.65
507.98	10934.98
508.16	10991.16
508.33	11227.55
508.50	11569.27
508.68	11700.34
508.85	11630.12
509.03	11939.07
509.20	11676.93
509.38	11672.25
509.55	11028.60
509.73	11272.02
509.90	11386.71
510.08	11480.33
510.25	11396.07
510.42	11503.73
510.60	11389.05
510.77	11595.01
510.95	11534.16
511.12	11653.53
511.30	11983.54
511.47	12159.08
511.64	12112.27
511.82	11786.94
511.99	11836.09
512.17	11592.67
512.34	11087.12
512.51	11267.34
512.69	11627.78
512.86	11531.82
513.04	11461.60
513.21	11815.02
513.38	11529.48
513.56	11290.74
513.73	11140.95
513.90	11012.22
514.08	11145.63
514.25	11396.07
514.43	11391.39
514.60	11379.68
514.77	11506.07
514.95	11683.95
515.12	11382.03
515.29	11442.88
515.47	11815.02
515.64	11646.51
515.81	11566.93
515.99	11506.07
516.16	11159.67
516.33	10312.40
516.51	9792.80
516.68	9310.65
516.85	9516.62
517.03	9390.23
517.20	10087.71
517.37	10991.16
517.54	11557.57
517.72	11206.48
517.89	10766.46
518.06	9776.42
518.24	9767.06
518.41	10555.82
518.58	10801.57
518.75	10897.53
518.93	11129.25
519.10	11000.52
519.27	11096.48
519.45	11351.60
519.62	11190.10
519.79	11845.45
519.96	11686.29
520.14	11456.92
520.31	11183.08
520.48	11190.10
520.65	11145.63
520.83	11730.76
521.00	11892.26
521.17	11826.73
521.34	11480.33
521.52	11679.27
521.69	11866.52
521.86	12156.74
522.03	12002.27
522.20	11595.01
522.38	11049.67
522.55	11194.78
522.72	11250.96
522.89	11435.86
523.07	11454.58
523.24	11580.97
523.41	11658.21
523.58	11817.36
523.75	12095.89
523.92	12042.06
524.10	12147.38
524.27	11983.54
524.44	12056.10
524.61	11810.34
524.78	11815.02
524.96	11964.82
525.13	12046.74
525.30	12184.83
525.47	12102.91
525.64	12327.60
525.81	11882.90
525.98	11405.43
526.16	10780.51
526.33	10541.77
526.50	10452.83
526.67	10108.77
526.84	10286.65
527.01	10658.80
527.18	11047.33
527.36	11414.79
527.53	11618.42
527.70	12016.31
527.87	11742.47
528.04	11529.48
528.21	11674.59
528.38	12081.85
528.55	12273.77
528.72	12205.89
528.89	12299.52
529.07	12439.95
529.24	12170.79
529.41	11503.73
529.58	11524.80
529.75	11667.57
529.92	11634.80
530.09	11864.18
530.26	12049.08
530.43	12194.19
530.60	12009.29
530.77	12465.69
530.94	12264.41
531.11	12098.23
531.28	12191.85
531.46	12114.61
531.63	11894.60
531.80	12301.86
531.97	11964.82
532.14	11606.72
532.31	11311.81
532.48	10883.49
532.65	10583.90
532.82	10939.66
532.99	11438.20
533.16	11889.92
533.33	11955.46
533.50	12086.53
533.67	11627.78
533.84	11609.06
534.01	11744.81
534.18	11763.53
534.35	11770.55
534.52	11789.28
534.69	12060.78
534.86	11761.19
535.03	11999.93
535.20	12334.62
535.37	12559.31
535.54	12135.68
535.71	12379.09
535.88	12152.06
536.05	11960.14
536.22	11936.73
536.38	11599.70
536.55	11517.78
536.72	11349.26
536.89	11073.07
537.06	11562.25
537.23	11761.19
537.40	12020.99
537.57	12070.14
537.74	11913.33
537.91	12056.10
538.08	11721.40
538.25	11922.69
538.42	12049.08
538.59	11988.22
538.75	11698.00
538.92	11569.27
539.09	11564.59
539.26	11534.16
539.43	11440.54
539.60	11440.54
539.77	11580.97
539.94	11363.30
540.11	11229.89
540.28	11131.59
540.44	11154.99
540.61	11201.80
540.78	11480.33
540.95	11597.35
541.12	12056.10
541.29	12170.79
541.46	12299.52
541.62	12203.55
541.79	12430.59
541.96	12074.82
542.13	11782.26
542.30	12044.40
542.47	12212.92
542.63	11901.62
542.80	11875.88
542.97	11793.96
543.14	11653.53
543.31	11531.82
543.48	12025.67
543.64	12446.97
543.81	12617.83
543.98	12463.35
544.15	12351.01
544.32	11854.81
544.48	11857.15
544.65	11871.20
544.82	12299.52
544.99	12217.60
545.16	12009.29
545.32	12114.61
545.49	12833.16
545.66	13811.50
545.83	13968.32
546.00	13619.58
546.16	12861.24
546.33	12358.03
546.50	12077.16
546.67	12112.27
546.83	11627.78
547.00	11960.14
547.17	11658.21
547.34	11566.93
547.50	11353.94
547.67	11543.52
547.84	11477.99
548.00	11592.67
548.17	11800.98
548.34	11690.98
548.51	11852.47
548.67	11681.61
548.84	11693.32
549.01	11688.64
549.18	11597.35
549.34	11683.95
549.51	11447.56
549.68	11580.97
549.84	11562.25
550.01	11655.87
550.18	11438.20
550.34	11445.22
550.51	11459.26
550.68	11302.45
550.84	11314.15
551.01	11267.34
551.18	11035.63
551.34	11304.79
551.51	11421.81
551.68	11592.67
551.84	11344.58
552.01	11557.57
552.18	11480.33
552.34	11274.36
552.51	11042.65
552.68	10853.06
552.84	11052.01
553.01	11147.97
553.18	10986.47
553.34	11176.06
553.51	11283.72
553.67	11290.74
553.84	11297.77
554.01	11508.41
554.17	11169.04
554.34	11295.43
554.51	11227.55
554.67	11510.75
554.84	11735.45
555.00	11314.15
555.17	11269.68
555.33	11213.51
555.50	11232.23
555.67	11105.84
555.83	11222.87
556.00	10902.22
556.16	11028.60
556.33	10944.34
556.50	10677.52
556.66	10949.03
556.83	10707.95
556.99	10909.24
557.16	10644.76
557.32	10843.70
557.49	10593.26
557.65	10951.37
557.82	10918.60
557.98	11009.88
558.15	10724.33
558.32	10513.69
558.48	9933.23
558.65	10043.24
558.81	10361.55
558.98	10258.57
559.14	10485.60
559.31	10642.42
559.47	10630.71
559.64	10303.04
559.80	10359.21
559.97	10420.06
560.13	10487.94
560.30	10729.02
560.46	10848.38
560.63	11087.12
560.79	10883.49
560.96	10768.80
561.12	10389.64
561.29	10239.84
561.45	10050.26
561.61	10452.83
561.78	10537.09
561.94	10665.82
562.11	10471.56
562.27	10132.18
562.44	10523.05
562.60	10349.85
562.77	10733.70
562.93	10509.01
563.10	10665.82
563.26	10434.11
563.42	10490.28
563.59	10246.87
563.75	10487.94
563.92	10356.87
564.08	10509.01
564.24	10356.87
564.41	10710.29
564.57	10471.56
564.74	10476.24
564.90	10485.60
565.07	10338.15
565.23	10052.60
565.39	10059.62
565.56	9848.97
565.72	9654.71
565.88	9816.21
566.05	9809.19
566.21	10019.83
566.38	9984.73
566.54	10127.50
566.70	10272.61
566.87	10153.24
567.03	10413.04
567.19	10221.12
567.36	10602.63
567.52	10059.62
567.68	10099.41
567.85	9872.38
568.01	9497.89
568.17	9404.27
568.34	9479.17
568.50	9533.00
568.66	9287.25
568.83	9514.28
568.99	9451.08
569.15	9736.63
569.32	9586.83
569.48	9584.49
569.64	9441.72
569.81	9380.87
569.97	9432.36
570.13	9364.48
570.30	9460.45
570.46	9448.74
570.62	9280.22
570.78	9149.15
570.95	9207.67
571.11	9371.50
571.27	9420.66
571.43	9439.38
571.60	9305.97
571.76	9577.47
571.92	9596.20
572.09	9568.11
572.25	9467.47
572.41	9558.75
572.57	9605.56
572.74	9640.67
572.90	9561.09
573.06	9694.50
573.22	9462.79
573.38	9673.43
573.55	9540.02
573.71	9598.54
573.87	9481.51
574.03	9369.16
574.20	9486.19
574.36	9378.53
574.52	9247.46
574.68	9282.56
574.84	8985.32
575.01	9078.94
575.17	9048.51
575.33	9057.87
575.49	9224.05
575.65	9469.81
575.82	9179.58
575.98	9097.66
576.14	9151.49
576.30	9238.09
576.46	9507.26
576.62	9696.84
576.79	9968.34
576.95	9434.70
577.11	9364.48
577.27	9149.15
577.43	9315.33
577.59	9291.93
577.75	8997.02
577.92	9046.17
578.08	8788.71
578.24	8849.57
578.40	8982.98
578.56	9214.69
578.72	9373.85
578.88	9575.13
579.04	9425.34
579.21	9324.69
579.37	9132.77
579.53	9390.23
579.69	9270.86
579.85	9605.56
580.01	9490.87
580.17	9221.71
580.33	9296.61
580.49	9062.55
580.65	9511.94
580.82	9247.46
580.98	9287.25
581.14	9221.71
581.30	9331.72
581.46	9247.46
581.62	9305.97
581.78	9392.57
581.94	9497.89
582.10	9455.76
582.26	9411.29
582.42	9308.31
582.58	9664.07
582.74	9343.42
582.90	9420.66
583.06	9481.51
583.22	9322.35
583.38	9312.99
583.54	9352.78
583.70	9310.65
583.86	9394.91
584.02	9479.17
584.18	9380.87
584.34	9378.53
584.50	9210.01
584.66	9289.59
584.82	8959.57
584.98	9008.72
585.14	8985.32
585.30	8833.18
585.46	8758.28
585.62	8636.58
585.78	8580.40
585.94	8713.81
586.10	8877.65
586.26	8805.10
586.42	9004.04
586.58	8910.42
586.74	9064.89
586.90	9109.36
587.06	8812.12
587.22	8954.89
587.38	8819.14
587.54	8514.87
587.70	8528.91
587.86	8348.69
588.02	8084.21
588.18	7765.90
588.34	7599.72
588.49	7110.55
588.65	6846.07
588.81	6532.44
588.97	6602.65
589.13	6761.81
589.29	6466.90
589.45	6630.74
589.61	6757.13
589.77	7023.95
589.93	7248.64
590.08	7534.18
590.24	7515.46
590.40	7683.98
590.56	7658.23
590.72	7705.04
590.88	7658.23
591.04	7576.31
591.20	7648.87
591.35	7517.80
591.51	7363.33
591.67	7576.31
591.83	7396.09
591.99	7583.34
592.15	7545.89
592.31	7737.81
592.46	7728.45
