SpectraSuite Data File
++++++++++++++++++++++++++++++++++++
Date: Fri Oct 04 11:39:48 GMT-05:00 2013
User: price-jones
Dark Spectrum Present: No
Reference Spectrum Present: No
Number of Sampled Component Spectra: 1
Spectrometers: USB2+H05261
Integration Time (usec): 100000 (USB2+H05261)
Spectra Averaged: 1 (USB2+H05261)
Boxcar Smoothing: 0 (USB2+H05261)
Correct for Electrical Dark: No (USB2+H05261)
Strobe/Lamp Enabled: No (USB2+H05261)
Correct for Detector Non-linearity: No (USB2+H05261)
Correct for Stray Light: No (USB2+H05261)
Number of Pixels in Processed Spectrum: 2048
>>>>>Begin Processed Spectral Data<<<<<
365.73	53.83
365.92	53.83
366.12	53.83
366.32	9.36
366.52	0.00
366.72	0.00
366.91	0.00
367.11	0.00
367.31	0.00
367.51	0.00
367.70	0.00
367.90	0.00
368.10	0.00
368.30	0.00
368.49	0.00
368.69	0.00
368.89	9.36
369.09	0.00
369.28	0.00
369.48	14.04
369.68	56.17
369.87	70.22
370.07	49.15
370.27	91.28
370.47	166.18
370.66	322.99
370.86	355.76
371.06	421.30
371.25	482.15
371.45	395.55
371.65	388.53
371.84	341.72
372.04	411.93
372.24	440.02
372.44	411.93
372.63	444.70
372.83	428.32
373.03	477.47
373.22	468.11
373.42	489.17
373.62	552.37
373.81	578.11
374.01	512.58
374.21	552.37
374.40	543.00
374.60	531.30
374.79	559.39
374.99	594.50
375.19	585.13
375.38	500.87
375.58	648.33
375.78	751.31
375.97	660.03
376.17	645.99
376.37	559.39
376.56	617.90
376.76	622.58
376.95	638.97
377.15	638.97
377.35	711.52
377.54	578.11
377.74	608.54
377.93	643.65
378.13	667.05
378.33	629.60
378.52	653.01
378.72	592.16
378.91	702.16
379.11	594.50
379.31	695.14
379.50	629.60
379.70	748.97
379.89	641.31
380.09	716.20
380.28	636.63
380.48	690.46
380.68	683.44
380.87	681.10
381.07	704.50
381.26	788.76
381.46	765.36
381.65	753.65
381.85	648.33
382.04	732.59
382.24	709.18
382.43	765.36
382.63	767.70
382.83	744.29
383.02	730.25
383.22	798.12
383.41	772.38
383.61	816.85
383.80	802.80
384.00	875.36
384.19	805.14
384.39	866.00
384.58	720.88
384.78	814.51
384.97	760.67
385.17	828.55
385.36	851.96
385.56	905.79
385.75	814.51
385.95	800.46
386.14	856.64
386.34	835.57
386.53	903.45
386.72	816.85
386.92	936.21
387.11	961.96
387.31	933.87
387.50	861.32
387.70	898.77
387.89	978.34
388.09	908.13
388.28	966.64
388.48	973.66
388.67	997.07
388.86	919.83
389.06	940.90
389.25	933.87
389.45	976.00
389.64	957.28
389.84	1039.20
390.03	1025.15
390.22	1057.92
390.42	1029.84
390.61	983.02
390.81	1100.05
391.00	1046.22
391.19	1001.75
391.39	1097.71
391.58	1116.44
391.78	1149.20
391.97	1128.14
392.16	1074.31
392.36	1097.71
392.55	1137.50
392.75	1093.03
392.94	1097.71
393.13	1214.74
393.33	1151.54
393.52	1200.69
393.71	1203.04
393.91	1125.80
394.10	1170.27
394.29	1205.38
394.49	1179.63
394.68	1296.66
394.88	1184.31
395.07	1299.00
395.26	1310.70
395.46	1233.46
395.65	1324.74
395.84	1219.42
396.04	1416.02
396.23	1366.87
396.42	1338.79
396.62	1329.42
396.81	1348.15
397.00	1327.08
397.19	1362.19
397.39	1399.64
397.58	1392.62
397.77	1458.15
397.97	1348.15
398.16	1341.13
398.35	1397.30
398.55	1329.42
398.74	1540.07
398.93	1511.99
399.12	1460.49
399.32	1451.13
399.51	1416.02
399.70	1540.07
399.90	1514.33
400.09	1549.43
400.28	1619.65
400.47	1488.58
400.67	1530.71
400.86	1643.06
401.05	1626.67
401.24	1570.50
401.44	1654.76
401.63	1605.61
401.82	1715.61
402.01	1762.42
402.21	1696.89
402.40	1748.38
402.59	1650.08
402.78	1673.48
402.97	1650.08
403.17	1837.32
403.36	1804.55
403.55	1715.61
403.74	1788.17
403.93	1928.60
404.13	1987.11
404.32	1968.39
404.51	2024.56
404.70	1842.00
404.89	1839.66
405.09	1905.20
405.28	1888.81
405.47	1952.01
405.66	1975.41
405.85	1956.69
406.05	1984.77
406.24	1961.37
406.43	1893.49
406.62	2209.47
406.81	2078.40
407.00	2054.99
407.20	2097.12
407.39	2066.69
407.58	2125.21
407.77	2111.16
407.96	2129.89
408.15	2176.70
408.34	2223.51
408.54	2050.31
408.73	2207.13
408.92	2293.72
409.11	2221.17
409.30	2293.72
409.49	2387.35
409.68	2445.86
409.87	2197.76
410.07	2368.62
410.26	2431.82
410.45	2473.95
410.64	2424.80
410.83	2422.45
411.02	2459.90
411.21	2527.78
411.40	2553.52
411.59	2513.74
411.78	2558.21
411.98	2520.76
412.17	2595.65
412.36	2672.89
412.55	2677.57
412.74	2682.25
412.93	2637.78
413.12	2752.47
413.31	2818.00
413.50	2928.01
413.69	2785.24
413.88	2911.63
414.07	2878.86
414.26	2874.18
414.45	2965.46
414.64	3000.57
414.83	2979.50
415.02	3126.96
415.22	2995.89
415.41	3300.16
415.60	3222.92
415.79	3185.47
415.98	3141.00
416.17	3169.09
416.36	3183.13
416.55	3487.40
416.74	3314.20
416.93	3424.20
417.12	3375.05
417.31	3428.88
417.50	3377.39
417.69	3637.19
417.88	3494.42
418.07	3574.00
418.26	3482.72
418.45	3676.98
418.64	3691.02
418.83	3709.75
419.02	3691.02
419.21	3733.15
419.39	3859.54
419.58	3716.77
419.77	3655.92
419.96	3620.81
420.15	3744.86
420.34	3936.78
420.53	3871.25
420.72	4046.79
420.91	3911.04
421.10	3967.21
421.29	3892.31
421.48	3868.91
421.67	4032.74
421.86	4088.92
422.05	4042.11
422.24	3882.95
422.43	3983.59
422.61	4044.45
422.80	4049.13
422.99	4124.02
423.18	4025.72
423.37	4264.46
423.56	4102.96
423.75	4102.96
423.94	4060.83
424.13	3953.16
424.32	4065.51
424.50	4042.11
424.69	4100.62
424.88	4311.27
425.07	3936.78
425.26	4093.60
425.45	4187.22
425.64	4283.18
425.83	4189.56
426.01	4198.92
426.20	4205.94
426.39	4311.27
426.58	4238.71
426.77	4187.22
426.96	4142.75
427.15	4250.41
427.33	4287.86
427.52	4418.93
427.71	4273.82
427.90	4266.80
428.09	4327.65
428.28	4231.69
428.46	4425.95
428.65	4418.93
428.84	4554.68
429.03	4613.20
429.22	4444.68
429.40	4533.62
429.59	4503.19
429.78	4362.76
429.97	4353.40
430.16	4627.24
430.34	4648.30
430.53	4739.58
430.72	4734.90
430.91	4629.58
431.10	4676.39
431.28	4933.85
431.47	4809.80
431.66	4896.40
431.85	5004.07
432.03	4809.80
432.22	5011.09
432.41	5006.41
432.60	5095.35
432.79	4910.44
432.97	5032.15
433.16	5015.77
433.35	5004.07
433.54	5083.64
433.72	5186.63
433.91	5083.64
434.10	5109.39
434.28	5053.22
434.47	5268.55
434.66	5235.78
434.85	5247.48
435.03	5350.46
435.22	5437.06
435.41	5673.46
435.59	5610.26
435.78	5547.07
435.97	5540.05
436.16	5614.95
436.34	5432.38
436.53	5338.76
436.72	5678.14
436.90	5500.26
437.09	5472.17
437.28	5603.24
437.46	5680.48
437.65	5715.59
437.84	5631.33
438.02	5724.95
438.21	5713.25
438.40	5556.43
438.58	5893.47
438.77	5724.95
438.96	5628.99
439.14	6054.97
439.33	5919.21
439.52	6106.46
439.70	5998.79
439.89	6282.00
440.08	6122.84
440.26	6200.08
440.45	6122.84
440.63	6312.42
440.82	6403.71
441.01	6389.66
441.19	6410.73
441.38	6546.48
441.57	6516.05
441.75	6553.50
441.94	6633.08
442.12	6633.08
442.31	6752.45
442.50	6703.29
442.68	6670.53
442.87	6895.22
443.05	6771.17
443.24	6937.35
443.43	7030.97
443.61	6841.39
443.80	7096.50
443.98	6825.00
444.17	6771.17
444.35	7087.14
444.54	7124.59
444.73	6939.69
444.91	7014.59
445.10	7091.82
445.28	6963.09
445.47	6930.33
445.65	6956.07
445.84	7091.82
446.02	7096.50
446.21	7033.31
446.39	6946.71
446.58	7215.87
446.77	7122.25
446.95	7023.95
447.14	7087.14
447.32	7229.91
447.51	7049.69
447.69	7073.10
447.88	7276.73
448.06	7250.98
448.25	7300.13
448.43	7232.26
448.62	7101.19
448.80	7295.45
448.99	7183.10
449.17	7332.90
449.36	7213.53
449.54	7494.40
449.73	7569.29
449.91	7747.17
450.10	7503.76
450.28	7672.28
450.46	7768.24
450.65	7613.76
450.83	7597.38
451.02	7630.15
451.20	7641.85
451.39	7646.53
451.57	7838.45
451.76	7712.07
451.94	7592.70
452.13	7939.10
452.31	7779.94
452.49	7662.91
452.68	7840.79
452.86	7971.86
453.05	7885.26
453.23	8163.79
453.42	7953.14
453.60	7922.71
453.78	8018.68
453.97	7894.63
454.15	8182.51
454.34	7892.29
454.52	8124.00
454.70	8194.22
454.89	8217.62
455.07	8301.88
455.26	8201.24
455.44	8191.88
455.62	8255.07
455.81	8292.52
455.99	8418.91
456.17	8535.93
456.36	8444.65
456.54	8446.99
456.73	8601.47
456.91	8772.33
457.09	8720.84
457.28	8971.27
457.46	8830.84
457.64	8919.78
457.83	8786.37
458.01	8779.35
458.19	8912.76
458.38	8788.71
458.56	8997.02
458.74	9046.17
458.93	8856.59
459.11	8987.66
459.29	9135.11
459.48	9135.11
459.66	9310.65
459.84	9156.18
460.03	9252.14
460.21	9317.67
460.39	9420.66
460.57	9027.45
460.76	9401.93
460.94	9565.77
461.12	9202.99
461.31	9366.82
461.49	9444.06
461.67	9296.61
461.85	9654.71
462.04	9483.85
462.22	10188.35
462.40	9856.00
462.59	9877.06
462.77	9839.61
462.95	9741.31
463.13	9792.80
463.32	10078.35
463.50	10008.13
463.68	10113.45
463.86	9902.81
464.05	9757.69
464.23	9977.70
464.41	10015.15
464.59	9907.49
464.78	10160.27
464.96	9954.30
465.14	9926.21
465.32	10277.29
465.50	10291.34
465.69	10338.15
465.87	10136.86
466.05	9926.21
466.23	10031.54
466.41	10429.43
466.60	10714.97
466.78	10237.50
466.96	10450.49
467.14	10349.85
467.32	10382.62
467.51	10600.29
467.69	10326.44
467.87	10607.31
468.05	10640.08
468.23	10642.42
468.41	10209.42
468.60	10490.28
468.78	10895.19
468.96	10824.98
469.14	10729.02
469.32	10843.70
469.50	10661.14
469.69	10885.83
469.87	10888.17
470.05	11091.80
470.23	11082.44
470.41	11269.68
470.59	11325.85
470.77	10979.45
470.95	11169.04
471.14	11239.25
471.32	11192.44
471.50	11480.33
471.68	11442.88
471.86	11508.41
472.04	11545.86
472.22	11784.60
472.40	11585.65
472.58	11536.50
472.77	11950.78
472.95	12053.76
473.13	12311.22
473.31	11969.50
473.49	11772.89
473.67	11992.90
473.85	11934.39
474.03	12271.43
474.21	12140.36
474.39	12306.54
474.57	12411.86
474.75	12545.27
474.93	12603.78
475.12	12510.16
475.30	12912.74
475.48	12655.28
475.66	12758.26
475.84	12540.59
476.02	13069.55
476.20	13130.41
476.38	13341.05
476.56	13666.39
476.74	13380.84
476.92	13406.59
477.10	13224.03
477.28	13699.16
477.46	13657.03
477.64	14015.13
477.82	13947.25
478.00	14244.50
478.18	14265.57
478.36	14295.99
478.54	14501.96
478.72	14586.22
478.90	14445.79
479.08	14689.20
479.26	14829.63
479.44	14963.04
479.62	15037.94
479.80	15176.03
479.98	15201.78
480.16	15599.67
480.34	15321.15
480.52	15917.98
480.70	15562.22
480.88	15613.71
481.06	15847.77
481.24	15754.15
481.41	16093.52
481.59	16451.63
481.77	16369.71
481.95	16751.21
482.13	16545.25
482.31	16793.34
482.49	17025.06
482.67	16938.46
482.85	17350.39
483.03	17432.31
483.21	17886.37
483.39	17919.14
483.57	17813.82
483.74	17851.27
483.92	18246.82
484.10	17926.16
484.28	18251.50
484.46	18647.05
484.64	19037.92
484.82	18663.43
485.00	19035.58
485.18	19433.47
485.35	19262.61
485.53	19187.71
485.71	19564.54
485.89	19721.35
486.07	19559.86
486.25	19807.95
486.43	19999.88
486.61	20343.94
486.78	20531.18
486.96	20463.30
487.14	20814.38
487.32	20496.07
487.50	20912.69
487.68	21216.96
487.85	21156.10
488.03	21771.66
488.21	21919.12
488.39	22150.83
488.57	22129.77
488.75	22249.13
488.92	22761.71
489.10	22541.70
489.28	22441.06
489.46	22916.19
489.64	23098.75
489.81	23297.69
489.99	23403.02
490.17	23583.24
490.35	24037.30
490.53	23852.40
490.70	23878.15
490.88	24105.18
491.06	24570.94
491.24	24376.68
491.41	24493.71
491.59	24641.16
491.77	24702.01
491.95	25261.40
492.13	25619.50
492.30	25219.27
492.48	25661.63
492.66	25717.81
492.84	25626.53
493.01	26277.19
493.19	26164.85
493.37	26436.35
493.54	26583.80
493.72	26583.80
493.90	26501.89
494.08	26977.01
494.25	26843.60
494.43	27101.06
494.61	27435.76
494.79	27285.97
494.96	27386.61
495.14	27768.12
495.32	28030.26
495.49	27791.52
495.67	28229.20
495.85	28591.98
496.02	28397.72
496.20	28718.37
496.38	28779.23
496.55	28690.29
496.73	29443.94
496.91	29659.27
497.09	29743.53
497.26	29895.66
497.44	29694.38
497.62	29797.36
497.79	30164.82
497.97	29827.79
498.14	30429.30
498.32	30632.93
498.50	30600.16
498.67	31021.46
498.85	30583.78
499.03	30885.71
499.20	31365.52
499.38	30920.82
499.56	31805.54
499.73	31845.33
499.91	32187.05
500.08	32002.14
500.26	31651.06
500.44	32020.87
500.61	32325.14
500.79	32275.99
500.97	32266.63
501.14	32563.87
501.32	32725.37
501.49	32634.09
501.67	32671.54
501.84	32828.35
502.02	33081.13
502.20	33488.38
502.37	33514.13
502.55	33420.51
502.72	33582.01
502.90	33507.11
503.07	33549.24
503.25	33809.04
503.43	33694.35
503.60	34349.70
503.78	34808.45
503.95	34506.52
504.13	34403.53
504.30	34073.52
504.48	34466.73
504.65	34122.67
504.83	35084.63
505.01	35054.20
505.18	35285.92
505.36	35508.27
505.53	35119.74
505.71	35428.69
505.88	35613.59
506.06	35543.38
506.23	35821.90
506.41	35447.41
506.58	36086.38
506.76	35796.15
506.93	36144.89
507.11	35955.31
507.28	36060.63
507.46	36488.95
507.63	36713.64
507.81	36886.84
507.98	36453.84
508.16	36985.15
508.33	37219.20
508.50	36931.31
508.68	37368.99
508.85	37413.46
509.03	37500.06
509.20	37750.50
509.38	37675.60
509.55	38050.09
509.73	37858.17
509.90	38136.69
510.08	37916.68
510.25	38038.39
510.42	38291.16
510.60	38302.87
510.77	38878.64
510.95	38597.77
511.12	38464.36
511.30	38749.91
511.47	39166.52
511.64	38352.02
511.82	38897.36
511.99	39253.12
512.17	38983.96
512.34	39452.07
512.51	39674.42
512.69	39784.43
512.86	39615.91
513.04	40189.34
513.21	40149.55
513.38	40498.29
513.56	40254.87
513.73	40229.13
513.90	40353.18
514.08	40435.10
514.25	40196.36
514.43	40467.86
514.60	40680.85
514.77	40926.61
514.95	41368.97
515.12	40928.95
515.29	40837.67
515.47	41303.43
515.64	41635.79
515.81	41778.56
515.99	41537.49
516.16	42356.67
516.33	41558.55
516.51	41792.61
516.68	41825.37
516.85	41958.78
517.03	42295.82
517.20	41890.91
517.37	42408.17
517.54	42459.66
517.72	42497.11
517.89	42344.97
518.06	42445.62
518.24	42607.11
518.41	42665.63
518.58	42822.44
518.75	43100.97
518.93	43255.44
519.10	43042.45
519.27	43344.38
519.45	42469.02
519.62	43271.82
519.79	42981.60
519.96	43564.39
520.14	43856.96
520.31	43379.49
520.48	43501.20
520.65	44105.06
520.83	44346.13
521.00	44264.21
521.17	44105.06
521.34	44739.34
521.52	44236.12
521.69	44245.49
521.86	44261.87
522.03	44399.96
522.20	44650.40
522.38	44949.99
522.55	44975.73
522.72	44669.12
522.89	45322.13
523.07	45998.55
523.24	45008.50
523.41	45563.21
523.58	45116.17
523.75	45177.02
523.92	45502.35
524.10	45673.21
524.27	45631.08
524.44	45937.69
524.61	46110.89
524.78	46007.91
524.96	46059.40
525.13	45647.47
525.30	46270.05
525.47	46143.66
525.64	45823.01
525.81	46768.58
525.98	46485.38
526.16	46539.21
526.33	46829.44
526.50	46660.92
526.67	46209.20
526.84	46564.96
527.01	46527.51
527.18	47002.64
527.36	47246.05
527.53	47269.46
527.70	47391.17
527.87	47054.13
528.04	46873.91
528.21	47498.83
528.38	47423.93
528.55	47269.46
528.72	47140.73
528.89	47777.36
529.07	47367.76
529.24	47482.45
529.41	47908.43
529.58	47608.84
529.75	47938.85
529.92	48285.25
530.09	47959.92
530.26	47910.77
530.43	47964.60
530.60	48058.22
530.77	48311.00
530.94	48577.82
531.11	48460.79
531.28	48315.68
531.46	48744.00
531.63	48502.92
531.80	48538.03
531.97	48858.68
532.14	48687.82
532.31	48521.65
532.48	49062.31
532.65	48849.32
532.82	48772.08
532.99	49008.48
533.16	48961.67
533.33	48980.39
533.50	49399.35
533.67	49214.44
533.84	49038.90
534.01	49382.96
534.18	49181.68
534.35	49691.91
534.52	49158.27
534.69	49862.77
534.86	49918.95
535.03	49446.16
535.20	49935.33
535.37	50145.98
535.54	49663.83
535.71	49867.45
535.88	49961.08
536.05	49968.10
536.22	50035.97
536.38	50255.98
536.55	50614.08
536.72	50115.55
536.89	49947.03
537.06	50178.75
537.23	50447.91
537.40	50340.24
537.57	50316.84
537.74	50588.34
537.91	50803.67
538.08	50497.06
538.25	50600.04
538.42	50698.34
538.59	50962.82
538.75	50433.86
538.92	51054.11
539.09	51037.72
539.26	51199.22
539.43	51100.92
539.60	51096.24
539.77	51028.36
539.94	51320.93
540.11	51124.32
540.28	51182.84
540.44	51428.59
540.61	51444.98
540.78	51449.66
540.95	51164.11
541.12	51320.93
541.29	51459.02
541.46	51379.44
541.62	51875.63
541.79	51915.42
541.96	51463.70
542.13	51358.38
542.30	51683.71
542.47	52231.40
542.63	51882.66
542.80	51929.47
542.97	52343.74
543.14	52369.49
543.31	52530.98
543.48	52512.26
543.64	52409.28
543.81	52664.39
543.98	52608.22
544.15	52683.12
544.32	52502.90
544.48	52868.02
544.65	52416.30
544.82	52664.39
544.99	52224.37
545.16	52856.32
545.32	52603.54
545.49	53106.76
545.66	53310.38
545.83	53535.07
546.00	53322.08
546.16	53109.10
546.33	52858.66
546.50	52652.69
546.67	52966.32
546.83	52605.88
547.00	53090.37
547.17	52912.49
547.34	52980.37
547.50	53104.41
547.67	53155.91
547.84	53237.83
548.00	52928.87
548.17	53193.36
548.34	53052.92
548.51	53013.13
548.67	52963.98
548.84	53165.27
549.01	53305.70
549.18	53361.87
549.34	53247.19
549.51	53420.39
549.68	53425.07
549.84	53160.59
550.01	53329.11
550.18	53631.04
550.34	53654.44
550.51	53523.37
550.68	53766.79
550.84	53638.06
551.01	53586.57
551.18	53450.81
551.34	53574.86
551.51	53399.32
551.68	53499.97
551.84	53764.45
552.01	53645.08
552.18	53673.16
552.34	53727.00
552.51	54101.48
552.68	53427.41
552.84	53858.07
553.01	54260.64
553.18	54157.66
553.34	53963.39
553.51	54038.29
553.67	54010.20
553.84	54471.29
554.01	54330.86
554.17	54134.25
554.34	53968.07
554.51	53743.38
554.67	54340.22
554.84	54167.02
555.00	54155.32
555.17	54351.92
555.33	54298.09
555.50	54230.21
555.67	54398.73
555.83	54230.21
556.00	54270.00
556.16	54307.45
556.33	54281.70
556.50	54679.60
556.66	54740.45
556.83	54298.09
556.99	54593.00
557.16	54602.36
557.32	54656.19
557.49	54754.49
557.65	54574.27
557.82	54506.40
557.98	54534.48
558.15	54609.38
558.32	54965.14
558.48	54766.20
558.65	54756.83
558.81	54885.56
558.98	54974.50
559.14	54667.89
559.31	54796.62
559.47	54808.32
559.64	55131.32
559.80	55152.38
559.97	55004.93
560.13	54944.08
560.30	54967.48
560.46	55110.25
560.63	55238.98
560.79	55271.75
560.96	55231.96
561.12	55007.27
561.29	55007.27
561.45	55295.16
561.61	55133.66
561.78	54981.52
561.94	55014.29
562.11	55138.34
562.27	55128.98
562.44	54887.90
562.60	55154.72
562.77	55243.66
562.93	54850.45
563.10	55484.74
563.26	55398.14
563.42	55370.05
563.59	55377.08
563.75	55440.27
563.92	55077.49
564.08	55178.13
564.24	55391.12
564.41	55269.41
564.57	55587.72
564.74	55313.88
564.90	55414.52
565.07	55484.74
565.23	55491.76
565.39	55950.51
565.56	55648.58
565.72	55529.21
565.88	55288.13
566.05	55463.67
566.21	55171.11
566.38	55508.14
566.54	55512.83
566.70	55648.58
566.87	55732.84
567.03	55402.82
567.19	56069.87
567.36	55318.56
567.52	55379.42
567.68	55842.84
567.85	55730.50
568.01	55576.02
568.17	55599.43
568.34	55671.98
568.50	55702.41
568.66	55662.62
568.83	55807.73
568.99	55648.58
569.15	55826.46
569.32	55629.85
569.48	55463.67
569.64	55749.22
569.81	55608.79
569.97	55683.69
570.13	55936.46
570.30	56032.42
570.46	55994.98
570.62	55800.71
570.78	55746.88
570.95	55667.30
571.11	55917.74
571.27	55781.99
571.43	55554.96
571.60	55803.05
571.76	55583.04
571.92	55969.23
572.09	55882.63
572.25	56055.83
572.41	56079.24
572.57	55966.89
572.74	56240.73
572.90	55789.01
573.06	55880.29
573.22	56198.60
573.38	56198.60
573.55	55978.59
573.71	56128.39
573.87	56039.45
574.03	55817.10
574.20	55992.64
574.36	55824.12
574.52	56165.84
574.68	56006.68
574.84	56334.35
575.01	56060.51
575.17	55913.06
575.33	56147.11
575.49	55894.33
575.65	56535.64
575.82	56170.52
575.98	56051.15
576.14	55992.64
576.30	56062.85
576.46	56151.79
576.62	55983.27
576.79	56030.08
576.95	56191.58
577.11	56184.56
577.27	56156.47
577.43	56161.15
577.59	56280.52
577.75	56301.59
577.92	56156.47
578.08	55964.55
578.24	55756.24
578.40	56238.39
578.56	56257.12
578.72	56196.26
578.88	56610.54
579.04	56289.88
579.21	56112.00
579.37	56598.83
579.53	56207.97
579.69	56224.35
579.85	56116.68
580.01	56219.67
580.17	55985.61
580.33	56285.20
580.49	56037.11
580.65	56205.62
580.82	56399.89
580.98	56278.18
581.14	56116.68
581.30	56439.68
581.46	56261.80
581.62	56147.11
581.78	56217.33
581.94	56144.77
582.10	56282.86
582.26	56348.40
582.42	56610.54
582.58	56374.14
582.74	56514.58
582.90	56444.36
583.06	56381.16
583.22	56198.60
583.38	55997.32
583.54	56477.13
583.70	56058.17
583.86	56631.60
584.02	56310.95
584.18	56596.49
584.34	56552.02
584.50	56683.09
584.66	56104.98
584.82	56362.44
584.98	56238.39
585.14	56470.11
585.30	56324.99
585.46	56516.92
585.62	56074.55
585.78	56718.20
585.94	56278.18
586.10	56282.86
586.26	56362.44
586.42	56570.75
586.58	56467.76
586.74	56629.26
586.90	56264.14
587.06	55955.19
587.22	56647.99
587.38	56250.09
587.54	56530.96
587.70	56961.62
587.86	56853.95
588.02	56853.95
588.18	56765.01
588.34	56477.13
588.49	56439.68
588.65	56498.19
588.81	56317.97
588.97	56446.70
589.13	56332.01
589.29	56697.14
589.45	56652.67
589.61	56750.97
