SpectraSuite Data File
++++++++++++++++++++++++++++++++++++
Date: Fri Oct 04 11:39:48 GMT-05:00 2013
User: price-jones
Dark Spectrum Present: No
Reference Spectrum Present: No
Number of Sampled Component Spectra: 1
Spectrometers: USB2+H05261
Integration Time (usec): 100000 (USB2+H05261)
Spectra Averaged: 1 (USB2+H05261)
Boxcar Smoothing: 0 (USB2+H05261)
Correct for Electrical Dark: No (USB2+H05261)
Strobe/Lamp Enabled: No (USB2+H05261)
Correct for Detector Non-linearity: No (USB2+H05261)
Correct for Stray Light: No (USB2+H05261)
Number of Pixels in Processed Spectrum: 2048
>>>>>Begin Processed Spectral Data<<<<<
365.73	58.51
365.92	58.51
366.12	58.51
366.32	14.04
366.52	0.00
366.72	9.36
366.91	0.00
367.11	0.00
367.31	0.00
367.51	0.00
367.70	0.00
367.90	0.00
368.10	0.00
368.30	0.00
368.49	0.00
368.69	0.00
368.89	0.00
369.09	0.00
369.28	0.00
369.48	0.00
369.68	0.00
369.87	77.24
370.07	0.00
370.27	35.11
370.47	105.32
370.66	339.38
370.86	402.57
371.06	538.32
371.25	535.98
371.45	444.70
371.65	451.72
371.84	400.23
372.04	500.87
372.24	461.09
372.44	531.30
372.63	524.28
372.83	608.54
373.03	517.26
373.22	550.03
373.42	547.69
373.62	564.07
373.81	545.34
374.01	571.09
374.21	615.56
374.40	538.32
374.60	587.47
374.79	545.34
374.99	580.45
375.19	557.05
375.38	601.52
375.58	552.37
375.78	627.26
375.97	706.84
376.17	725.57
376.37	606.20
376.56	690.46
376.76	627.26
376.95	695.14
377.15	634.29
377.35	613.22
377.54	695.14
377.74	685.78
377.93	634.29
378.13	669.39
378.33	697.48
378.52	645.99
378.72	730.25
378.91	657.69
379.11	699.82
379.31	690.46
379.50	608.54
379.70	720.88
379.89	821.53
380.09	755.99
380.28	727.91
380.48	798.12
380.68	748.97
380.87	702.16
381.07	760.67
381.26	795.78
381.46	765.36
381.65	720.88
381.85	798.12
382.04	821.53
382.24	788.76
382.43	763.01
382.63	744.29
382.83	730.25
383.02	774.72
383.22	805.14
383.41	830.89
383.61	851.96
383.80	828.55
384.00	814.51
384.19	861.32
384.39	896.43
384.58	819.19
384.78	910.47
384.97	915.15
385.17	873.02
385.36	861.32
385.56	961.96
385.75	863.66
385.95	947.92
386.14	1011.11
386.34	1013.45
386.53	968.98
386.72	961.96
386.92	959.62
387.11	1001.75
387.31	968.98
387.50	898.77
387.70	966.64
387.89	1013.45
388.09	1008.77
388.28	1041.54
388.48	994.73
388.67	971.32
388.86	1039.20
389.06	992.39
389.25	1158.57
389.45	1102.39
389.64	1116.44
389.84	1121.12
390.03	1181.97
390.22	1050.90
390.42	1104.73
390.61	1137.50
390.81	1081.33
391.00	1029.84
391.19	1116.44
391.39	1188.99
391.58	1235.80
391.78	1184.31
391.97	1109.41
392.16	1214.74
392.36	1299.00
392.55	1174.95
392.75	1249.85
392.94	1270.91
393.13	1165.59
393.33	1270.91
393.52	1247.51
393.71	1252.19
393.91	1247.51
394.10	1270.91
394.29	1324.74
394.49	1273.25
394.68	1296.66
394.88	1275.59
395.07	1348.15
395.26	1390.28
395.46	1364.53
395.65	1397.30
395.84	1331.76
396.04	1486.24
396.23	1373.89
396.42	1423.05
396.62	1469.86
396.81	1556.46
397.00	1458.15
397.19	1390.28
397.39	1444.11
397.58	1502.62
397.77	1409.00
397.97	1556.46
398.16	1502.62
398.35	1593.90
398.55	1526.03
398.74	1554.12
398.93	1607.95
399.12	1549.43
399.32	1668.80
399.51	1621.99
399.70	1577.52
399.90	1603.27
400.09	1685.19
400.28	1654.76
400.47	1739.02
400.67	1696.89
400.86	1753.06
401.05	1863.07
401.24	1783.49
401.44	1724.97
401.63	1879.45
401.82	1872.43
402.01	1834.98
402.21	1816.26
402.40	1741.36
402.59	1834.98
402.78	1909.88
402.97	1973.07
403.17	1952.01
403.36	1921.58
403.55	1827.96
403.74	1956.69
403.93	2005.84
404.13	2101.80
404.32	2064.35
404.51	2029.24
404.70	2136.91
404.89	2054.99
405.09	2167.34
405.28	2090.10
405.47	2157.97
405.66	2017.54
405.85	2160.31
406.05	2153.29
406.24	2218.83
406.43	2181.38
406.62	2272.66
406.81	2289.04
407.00	2251.60
407.20	2162.66
407.39	2211.81
407.58	2487.99
407.77	2267.98
407.96	2310.11
408.15	2436.50
408.34	2293.72
408.54	2387.35
408.73	2429.48
408.92	2511.39
409.11	2476.29
409.30	2523.10
409.49	2504.37
409.68	2431.82
409.87	2497.35
410.07	2658.85
410.26	2555.86
410.45	2567.57
410.64	2630.76
410.83	2696.30
411.02	2691.62
411.21	2722.04
411.40	2719.70
411.59	2717.36
411.78	3005.25
411.98	2750.13
412.17	2850.77
412.36	2904.60
412.55	2930.35
412.74	3028.65
412.93	2911.63
413.12	3009.93
413.31	3133.98
413.50	2951.42
413.69	3045.04
413.88	3122.27
414.07	3082.49
414.26	3141.00
414.45	3304.84
414.64	3157.38
414.83	3269.73
415.02	3243.98
415.22	3403.14
415.41	3449.95
415.60	3447.61
415.79	3382.07
415.98	3499.10
416.17	3529.53
416.36	3456.97
416.55	3459.31
416.74	3552.93
416.93	3702.73
417.12	3707.41
417.31	3779.97
417.50	3756.56
417.69	3815.07
417.88	3749.54
418.07	3946.14
418.26	3824.44
418.45	3747.20
418.64	3918.06
418.83	3906.35
419.02	3803.37
419.21	4025.72
419.39	4046.79
419.58	3950.82
419.77	3920.40
419.96	4145.09
420.15	4042.11
420.34	4077.21
420.53	4077.21
420.72	4149.77
420.91	4208.28
421.10	4203.60
421.29	4393.19
421.48	4208.28
421.67	4269.14
421.86	4395.53
422.05	4325.31
422.24	4224.67
422.43	4484.47
422.61	4322.97
422.80	4442.34
422.99	4339.35
423.18	4329.99
423.37	4404.89
423.56	4505.53
423.75	4407.23
423.94	4402.55
424.13	4142.75
424.32	4276.16
424.50	4475.10
424.69	4327.65
424.88	4489.15
425.07	4538.30
425.26	4458.72
425.45	4533.62
425.64	4507.87
425.83	4421.27
426.01	4491.49
426.20	4388.50
426.39	4638.94
426.58	4512.55
426.77	4648.30
426.96	4610.86
427.15	4648.30
427.33	4622.56
427.52	4528.94
427.71	4667.03
427.90	4713.84
428.09	4854.27
428.28	4730.22
428.46	4851.93
428.65	4929.17
428.84	5125.77
429.03	4978.32
429.22	4596.81
429.40	4861.29
429.59	4952.57
429.78	4835.55
429.97	4671.71
430.16	4880.02
430.34	4891.72
430.53	5107.05
430.72	5123.43
430.91	5118.75
431.10	4999.38
431.28	5132.79
431.47	5308.34
431.66	5411.32
431.85	5224.08
432.03	5233.44
432.22	5341.10
432.41	5298.97
432.60	5423.02
432.79	5453.45
432.97	5380.89
433.16	5444.09
433.35	5467.49
433.54	5355.15
433.72	5504.94
433.91	5521.32
434.10	5603.24
434.28	5628.99
434.47	5603.24
434.66	5636.01
434.85	5708.57
435.03	5678.14
435.22	5795.17
435.41	6211.78
435.59	6125.18
435.78	5996.45
435.97	5879.43
436.16	5907.51
436.34	5912.19
436.53	5921.56
436.72	5898.15
436.90	5966.03
437.09	5982.41
437.28	5905.17
437.46	5973.05
437.65	5980.07
437.84	6120.50
438.02	6036.24
438.21	6146.25
438.40	6031.56
438.58	6342.85
438.77	6258.59
438.96	6286.68
439.14	6384.98
439.33	6338.17
439.52	6595.63
439.70	6434.13
439.89	6380.30
440.08	6703.29
440.26	6722.02
440.45	6640.10
440.63	6874.15
440.82	6902.24
441.01	7002.88
441.19	7068.42
441.38	7000.54
441.57	7016.93
441.75	7150.34
441.94	7213.53
442.12	7309.49
442.31	7466.31
442.50	7279.07
442.68	7337.58
442.87	7414.82
443.05	7365.67
443.24	7398.43
443.43	7475.67
443.61	7382.05
443.80	7775.26
443.98	7241.62
444.17	7220.55
444.35	7454.61
444.54	7644.19
444.73	7550.57
444.91	7407.80
445.10	7566.95
445.28	7779.94
445.47	7438.22
445.65	7569.29
445.84	7595.04
446.02	7606.74
446.21	7655.89
446.39	7609.08
446.58	7644.19
446.77	7611.42
446.95	7592.70
447.14	7765.90
447.32	7812.71
447.51	7763.56
447.69	7662.91
447.88	7859.52
448.06	7793.98
448.25	7681.64
448.43	7620.78
448.62	7634.83
448.80	7639.51
448.99	7927.39
449.17	7948.46
449.36	7695.68
449.54	8025.70
449.73	7967.18
449.91	8318.26
450.10	8056.12
450.28	8276.13
450.46	8353.37
450.65	8194.22
450.83	8374.44
451.02	8100.59
451.20	8313.58
451.39	8465.72
451.57	8540.61
451.76	8243.37
451.94	8479.76
452.13	8610.83
452.31	8500.83
452.49	8425.93
452.68	8608.49
452.86	8519.55
453.05	8706.79
453.23	8690.41
453.42	8524.23
453.60	8503.17
453.78	8720.84
453.97	8758.28
454.15	8603.81
454.34	8772.33
454.52	8840.20
454.70	8856.59
454.89	9048.51
455.07	8891.70
455.26	9085.96
455.44	8966.59
455.62	8985.32
455.81	8891.70
455.99	8861.27
456.17	9312.99
456.36	9146.81
456.54	9205.33
456.73	9420.66
456.91	9439.38
457.09	9303.63
457.28	9675.77
457.46	9397.25
457.64	9394.91
457.83	9645.35
458.01	9448.74
458.19	9926.21
458.38	9638.33
458.56	9874.72
458.74	9963.66
458.93	9621.94
459.11	9874.72
459.29	9692.16
459.48	9909.83
459.66	9811.53
459.84	9970.68
460.03	10178.99
460.21	10160.27
460.39	10047.92
460.57	10047.92
460.76	10090.05
460.94	10310.06
461.12	10017.49
461.31	10349.85
461.49	10272.61
461.67	10073.67
461.85	10567.52
462.04	10427.09
462.22	10930.30
462.40	10555.82
462.59	10523.05
462.77	10532.41
462.95	10562.84
463.13	10581.56
463.32	10670.50
463.50	10658.80
463.68	10677.52
463.86	10558.16
464.05	10717.31
464.23	10324.10
464.41	11005.20
464.59	10707.95
464.78	10953.71
464.96	10813.28
465.14	10614.33
465.32	11026.26
465.50	11007.54
465.69	10902.22
465.87	10970.09
466.05	11066.05
466.23	11070.73
466.41	11279.04
466.60	11396.07
466.78	10953.71
466.96	11096.48
467.14	11098.82
467.32	11360.96
467.51	11274.36
467.69	11105.84
467.87	11396.07
468.05	11253.30
468.23	11475.65
468.41	11307.13
468.60	11721.40
468.78	11440.54
468.96	11325.85
469.14	11562.25
469.32	11754.17
469.50	11555.22
469.69	12002.27
469.87	11990.56
470.05	11756.51
470.23	11775.24
470.41	12006.95
470.59	12079.50
470.77	12056.10
470.95	11974.18
471.14	12315.90
471.32	12098.23
471.50	12554.63
471.68	12388.46
471.86	12243.34
472.04	12512.50
472.22	12781.67
472.40	12439.95
472.58	12837.84
472.77	12894.01
472.95	12741.88
473.13	13266.16
473.31	12807.41
473.49	12950.18
473.67	12807.41
473.85	12821.45
474.03	13158.49
474.21	13207.64
474.39	13563.40
474.57	13371.48
474.75	13755.33
474.93	13823.20
475.12	13554.04
475.30	13799.80
475.48	13987.04
475.66	13961.30
475.84	13874.70
476.02	14115.77
476.20	14260.88
476.38	14321.74
476.56	14410.68
476.74	14537.07
476.92	14492.60
477.10	14520.68
477.28	14516.00
477.46	14761.76
477.64	14689.20
477.82	15180.71
478.00	15637.12
478.18	15543.50
478.36	15477.96
478.54	15510.73
478.72	15981.18
478.90	15957.77
479.08	15873.51
479.26	16051.39
479.44	16140.33
479.62	16580.36
479.80	16585.04
479.98	16369.71
480.16	16608.44
480.34	16835.47
480.52	16945.48
480.70	17043.78
480.88	16837.81
481.06	17116.34
481.24	16957.18
481.41	17261.45
481.59	17778.71
481.77	17757.64
481.95	18216.39
482.13	18155.54
482.31	17989.36
482.49	18338.10
482.67	18363.84
482.85	18897.49
483.03	18927.91
483.21	18918.55
483.39	19302.40
483.57	19178.35
483.74	19452.19
483.92	19625.39
484.10	19606.67
484.28	19697.95
484.46	20070.09
484.64	20135.63
484.82	20020.94
485.00	20357.98
485.18	20367.34
485.35	20964.18
485.53	21069.50
485.71	21149.08
485.89	21738.90
486.07	21422.92
486.25	21680.38
486.43	21729.53
486.61	22061.89
486.78	22155.51
486.96	22258.49
487.14	22373.18
487.32	22621.28
487.50	22806.18
487.68	22806.18
487.85	23168.96
488.03	23309.40
488.21	23613.66
488.39	23707.29
488.57	23772.82
488.75	24023.26
488.92	24271.36
489.10	24421.15
489.28	24306.46
489.46	24837.76
489.64	25165.44
489.81	25366.73
489.99	25841.85
490.17	25273.10
490.35	25748.23
490.53	25703.76
490.70	26366.13
490.88	26040.80
491.06	26087.61
491.24	26525.29
491.41	26431.67
491.59	26733.60
491.77	26522.95
491.95	27063.61
492.13	27145.53
492.30	27337.46
492.48	27290.65
492.66	27639.39
492.84	28004.51
493.01	28271.33
493.19	28194.09
493.37	28608.37
493.54	28666.88
493.72	28781.57
493.90	28814.34
494.08	29280.10
494.25	29254.36
494.43	29783.32
494.61	29795.02
494.79	29830.13
494.96	29947.15
495.14	29956.52
495.32	30597.82
495.49	30672.72
495.67	30429.30
495.85	30876.35
496.02	31356.16
496.20	31129.12
496.38	31108.06
496.55	31377.22
496.73	31920.23
496.91	32081.72
497.09	32107.47
497.26	32421.10
497.44	32158.96
497.62	32327.48
497.79	33024.96
497.97	32987.51
498.14	33055.39
498.32	33343.27
498.50	33862.87
498.67	33120.92
498.85	33551.58
499.03	33553.92
499.20	33783.29
499.38	33895.64
499.56	34532.26
499.73	34134.37
499.91	34562.69
500.08	34679.72
500.26	34183.52
500.44	34766.32
500.61	34756.96
500.79	34380.13
500.97	35077.61
501.14	35800.83
501.32	35297.62
501.49	35192.30
501.67	35424.01
501.84	35611.25
502.02	35852.33
502.20	36278.30
502.37	36474.91
502.55	36245.54
502.72	36236.17
502.90	36582.57
503.07	36311.07
503.25	36418.74
503.43	36112.13
503.60	36877.48
503.78	36926.63
503.95	37174.73
504.13	37048.34
504.30	37078.77
504.48	37034.30
504.65	37317.50
504.83	37696.67
505.01	37940.08
505.18	38272.44
505.36	38281.80
505.53	37549.21
505.71	38120.31
505.88	38103.92
506.06	37947.11
506.23	38583.73
506.41	38637.56
506.58	39187.59
506.76	38656.29
506.93	38899.70
507.11	38803.74
507.28	39056.52
507.46	39395.90
507.63	39728.25
507.81	39899.11
507.98	39690.80
508.16	39913.16
508.33	39859.32
508.50	40093.38
508.68	39742.30
508.85	40680.85
509.03	40739.36
509.20	40671.49
509.38	41022.57
509.55	41006.19
509.73	40945.33
509.90	41282.37
510.08	41399.40
510.25	41593.66
510.42	41570.25
510.60	41771.54
510.77	41944.74
510.95	42286.46
511.12	41167.68
511.30	41947.08
511.47	42293.48
511.64	41876.86
511.82	42373.06
511.99	42131.98
512.17	42597.75
512.34	42600.09
512.51	43061.18
512.69	43016.71
512.86	42841.17
513.04	43213.31
513.21	43215.65
513.38	43838.23
513.56	43407.58
513.73	43040.11
513.90	43658.01
514.08	43611.20
514.25	43533.96
514.43	44039.52
514.60	43817.17
514.77	43999.73
514.95	44205.70
515.12	44119.10
515.29	44348.47
515.47	44294.64
515.64	44692.53
515.81	44753.38
515.99	44645.72
516.16	45310.43
516.33	45067.02
516.51	44975.73
516.68	44839.98
516.85	45242.56
517.03	45588.95
517.20	45696.62
517.37	45167.66
517.54	45738.75
517.72	45961.10
517.89	45766.84
518.06	45881.52
518.24	45975.14
518.41	45968.12
518.58	46333.24
518.75	46412.82
518.93	46876.25
519.10	46204.52
519.27	46358.99
519.45	46501.76
519.62	46263.03
519.79	46190.47
519.96	46230.26
520.14	46752.20
520.31	46689.01
520.48	47358.40
520.65	47571.39
520.83	47157.11
521.00	47009.66
521.17	47416.91
521.34	47234.35
521.52	47976.30
521.69	47208.61
521.86	48107.37
522.03	47929.49
522.20	48292.27
522.38	48044.18
522.55	48385.89
522.72	48046.52
522.89	48205.67
523.07	48376.53
523.24	48311.00
523.41	48786.13
523.58	48156.52
523.75	48924.22
523.92	48477.18
524.10	48699.53
524.27	48678.46
524.44	49148.91
524.61	49521.05
524.78	49336.15
524.96	49078.69
525.13	49277.64
525.30	49331.47
525.47	49600.63
525.64	49535.10
525.81	49645.10
525.98	49691.91
526.16	49663.83
526.33	49628.72
526.50	50057.04
526.67	49897.88
526.84	50279.39
527.01	49628.72
527.18	49893.20
527.36	50019.59
527.53	50185.77
527.70	50567.27
527.87	50581.32
528.04	49888.52
528.21	50124.91
528.38	50230.24
528.55	50639.83
528.72	50576.64
528.89	50691.32
529.07	50494.72
529.24	50571.96
529.41	50958.14
529.58	50862.18
529.75	50913.67
529.92	50815.37
530.09	50939.42
530.26	50946.44
530.43	51187.52
530.60	51093.89
530.77	50843.46
530.94	51587.75
531.11	51178.15
531.28	51414.55
531.46	51306.88
531.63	51599.45
531.80	51702.43
531.97	51657.96
532.14	51772.65
532.31	51716.48
532.48	51877.97
532.65	51899.04
532.82	51721.16
532.99	52226.71
533.16	51976.28
533.33	52301.61
533.50	52250.12
533.67	52151.82
533.84	52116.71
534.01	52313.31
534.18	51957.55
534.35	52210.33
534.52	52289.91
534.69	52959.30
534.86	52615.24
535.03	52626.95
535.20	52676.10
535.37	52729.93
535.54	53167.61
535.71	52519.28
535.88	52711.20
536.05	52535.66
536.22	52666.73
536.38	53041.22
536.55	53048.24
536.72	52692.48
536.89	53279.96
537.06	53336.13
537.23	53354.85
537.40	52835.25
537.57	53050.58
537.74	53436.77
537.91	53591.25
538.08	53408.68
538.25	53378.26
538.42	53331.45
538.59	53539.75
538.75	53069.31
538.92	53485.92
539.09	53460.18
539.26	53766.79
539.43	53811.26
539.60	54028.93
539.77	53441.45
539.94	53909.56
540.11	53818.28
540.28	53736.36
540.44	54047.65
540.61	53961.05
540.78	53904.88
540.95	53998.50
541.12	54134.25
541.29	54164.68
541.46	54452.56
541.62	54183.40
541.79	54410.43
541.96	54157.66
542.13	53998.50
542.30	54557.89
542.47	54700.66
542.63	54679.60
542.80	54447.88
542.97	54560.23
543.14	54913.65
543.31	54941.74
543.48	54831.73
543.64	54892.58
543.81	54915.99
543.98	55161.75
544.15	55107.91
544.32	55224.94
544.48	55201.53
544.65	54803.64
544.82	54974.50
544.99	54810.67
545.16	55159.41
545.32	55009.61
545.49	55784.33
545.66	56044.13
545.83	55774.97
546.00	56154.13
546.16	55697.73
546.33	55454.31
546.50	55037.70
546.67	55421.55
546.83	55091.53
547.00	55519.85
547.17	55501.12
547.34	55466.02
547.50	55393.46
547.67	55601.77
547.84	55585.38
548.00	55531.55
548.17	55810.07
548.34	55824.12
548.51	55711.77
548.67	55753.90
548.84	55934.12
549.01	55613.47
549.18	55725.81
549.34	55655.60
549.51	55669.64
549.68	55959.87
549.84	55936.46
550.01	55957.53
550.18	56011.36
550.34	55969.23
550.51	56090.94
550.68	55990.30
550.84	55693.05
551.01	56032.42
551.18	56104.98
551.34	55847.52
551.51	55915.40
551.68	56107.32
551.84	56184.56
552.01	56210.31
552.18	56245.41
552.34	56067.53
552.51	56669.05
552.68	56086.26
552.84	56523.94
553.01	56486.49
553.18	56640.96
553.34	56315.63
553.51	56376.48
553.67	56603.52
553.84	56750.97
554.01	56725.22
554.17	56554.36
554.34	56704.16
554.51	56622.24
554.67	56559.05
554.84	56584.79
555.00	56727.56
555.17	56736.93
555.33	56582.45
555.50	56631.60
555.67	56821.19
555.83	56860.97
556.00	56664.37
556.16	56814.16
556.33	56753.31
556.50	56956.94
556.66	57003.75
556.83	56823.53
556.99	57169.93
557.16	57099.71
557.32	57088.01
557.49	57179.29
557.65	56928.85
557.82	57020.13
557.98	57003.75
558.15	56961.62
558.32	57312.70
558.48	57165.24
558.65	57041.20
558.81	57275.25
558.98	57125.46
559.14	57258.87
559.31	57188.65
559.47	57261.21
559.64	57336.10
559.80	57619.31
559.97	57329.08
560.13	57326.74
560.30	57499.94
560.46	57359.51
560.63	57401.64
560.79	57469.51
560.96	57293.97
561.12	57336.10
561.29	57577.18
561.45	57406.32
561.61	57598.24
561.78	57373.55
561.94	57549.09
562.11	57586.54
562.27	57361.85
562.44	57481.22
562.60	57371.21
562.77	57607.61
562.93	57347.81
563.10	57504.62
563.26	57497.60
563.42	57705.91
563.59	57771.44
563.75	57502.28
563.92	57858.04
564.08	57724.63
564.24	57703.57
564.41	57551.43
564.57	57865.06
564.74	57633.35
564.90	57616.97
565.07	57743.36
565.23	58089.76
565.39	57771.44
565.56	58080.39
565.72	57848.68
565.88	57584.20
566.05	57710.59
566.21	57881.45
566.38	57836.98
566.54	57921.24
566.70	58014.86
566.87	58216.14
567.03	57932.94
567.19	58279.34
567.36	57923.58
567.52	57965.71
567.68	58099.12
567.85	57991.45
568.01	57968.05
568.17	57895.49
568.34	58038.26
568.50	57970.39
568.66	58047.63
568.83	58089.76
568.99	58075.71
569.15	57918.90
569.32	57818.25
569.48	57963.37
569.64	57881.45
569.81	58038.26
569.97	58127.20
570.13	58157.63
570.30	58169.33
570.46	58358.92
570.62	58251.25
570.78	58021.88
570.95	58017.20
571.11	58337.85
571.27	58012.52
571.43	58000.82
571.60	58232.53
571.76	58248.91
571.92	58295.72
572.09	58152.95
572.25	58202.10
572.41	58335.51
572.57	58489.99
572.74	58316.79
572.90	58124.86
573.06	58239.55
573.22	58487.65
573.38	58412.75
573.55	58152.95
573.71	58464.24
573.87	58499.35
574.03	58291.04
574.20	58436.16
574.36	58181.04
574.52	58232.53
574.68	58262.96
574.84	58358.92
575.01	58567.23
575.17	58305.09
575.33	58323.81
575.49	58342.53
575.65	58618.72
575.82	58705.32
575.98	58382.32
576.14	58398.71
576.30	58485.31
576.46	58195.08
576.62	58511.05
576.79	58616.38
576.95	58532.12
577.11	58548.50
577.27	58714.68
577.43	58578.93
577.59	58466.58
577.75	58361.26
577.92	58394.03
578.08	58489.99
578.24	58466.58
578.40	58504.03
578.56	58426.79
578.72	58454.88
578.88	58829.37
579.04	58901.92
579.21	58590.63
579.37	58642.12
579.53	58464.24
579.69	58555.52
579.85	58578.93
580.01	58494.67
580.17	58499.35
580.33	58773.19
580.49	58691.27
580.65	58724.04
580.82	58674.89
580.98	58630.42
581.14	58518.07
581.30	58890.22
581.46	58333.17
581.62	58609.35
581.78	58522.76
581.94	58527.44
582.10	58384.66
582.26	58803.62
582.42	58602.33
582.58	58738.08
582.74	58763.83
582.90	58644.46
583.06	58571.91
583.22	58443.18
583.38	58557.86
583.54	58403.39
583.70	58576.59
583.86	58798.94
584.02	58487.65
584.18	58656.17
584.34	58848.09
584.50	58862.13
584.66	58436.16
584.82	58630.42
584.98	58614.04
585.14	58595.31
585.30	58845.75
585.46	58635.10
585.62	58492.33
585.78	58775.53
585.94	58646.80
586.10	58848.09
586.26	58677.23
586.42	58880.86
586.58	58787.24
586.74	58672.55
586.90	58688.93
587.06	58614.04
587.22	58801.28
587.38	58726.38
587.54	58749.79
587.70	59077.46
587.86	59070.44
588.02	58892.56
588.18	59011.93
588.34	58728.72
588.49	58773.19
588.65	58937.03
588.81	58820.00
588.97	58848.09
589.13	58766.17
589.29	58796.60
