SpectraSuite Data File
++++++++++++++++++++++++++++++++++++
Date: Fri Oct 04 11:39:35 GMT-05:00 2013
User: price-jones
Dark Spectrum Present: No
Reference Spectrum Present: No
Number of Sampled Component Spectra: 1
Spectrometers: USB2+H05261
Integration Time (usec): 100000 (USB2+H05261)
Spectra Averaged: 1 (USB2+H05261)
Boxcar Smoothing: 0 (USB2+H05261)
Correct for Electrical Dark: No (USB2+H05261)
Strobe/Lamp Enabled: No (USB2+H05261)
Correct for Detector Non-linearity: No (USB2+H05261)
Correct for Stray Light: No (USB2+H05261)
Number of Pixels in Processed Spectrum: 2048
>>>>>Begin Processed Spectral Data<<<<<
365.73	98.30
365.92	98.30
366.12	98.30
366.32	0.00
366.52	0.00
366.72	0.00
366.91	0.00
367.11	0.00
367.31	0.00
367.51	0.00
367.70	0.00
367.90	0.00
368.10	0.00
368.30	0.00
368.49	0.00
368.69	0.00
368.89	0.00
369.09	0.00
369.28	0.00
369.48	0.00
369.68	0.00
369.87	30.43
370.07	2.34
370.27	4.68
370.47	60.85
370.66	114.69
370.86	238.73
371.06	222.35
371.25	203.63
371.45	224.69
371.65	210.65
371.84	248.10
372.04	224.69
372.24	208.31
372.44	180.22
372.63	266.82
372.83	255.12
373.03	182.56
373.22	257.46
373.42	299.59
373.62	229.37
373.81	252.78
374.01	241.08
374.21	287.89
374.40	264.48
374.60	220.01
374.79	292.57
374.99	243.42
375.19	285.55
375.38	346.40
375.58	276.18
375.78	315.97
375.97	322.99
376.17	376.83
376.37	278.52
376.56	344.06
376.76	278.52
376.95	231.71
377.15	290.23
377.35	257.46
377.54	325.33
377.74	264.48
377.93	285.55
378.13	346.40
378.33	308.95
378.52	311.29
378.72	297.25
378.91	222.35
379.11	271.50
379.31	311.29
379.50	308.95
379.70	358.10
379.89	334.70
380.09	269.16
380.28	311.29
380.48	208.31
380.68	299.59
380.87	339.38
381.07	308.95
381.26	320.65
381.46	337.04
381.65	271.50
381.85	325.33
382.04	278.52
382.24	318.31
382.43	360.44
382.63	355.76
382.83	308.95
383.02	234.05
383.22	315.97
383.41	262.14
383.61	383.85
383.80	322.99
384.00	313.63
384.19	367.46
384.39	318.31
384.58	351.08
384.78	346.40
384.97	386.19
385.17	369.80
385.36	299.59
385.56	388.53
385.75	322.99
385.95	383.85
386.14	315.97
386.34	395.55
386.53	292.57
386.72	423.64
386.92	425.98
387.11	365.12
387.31	390.87
387.50	339.38
387.70	308.95
387.89	379.17
388.09	496.19
388.28	381.51
388.48	365.12
388.67	379.17
388.86	369.80
389.06	381.51
389.25	414.27
389.45	404.91
389.64	498.53
389.84	369.80
390.03	416.62
390.22	482.15
390.42	482.15
390.61	414.27
390.81	355.76
391.00	386.19
391.19	484.49
391.39	447.04
391.58	416.62
391.78	510.24
391.97	465.77
392.16	447.04
392.36	512.58
392.55	507.90
392.75	507.90
392.94	437.68
393.13	538.32
393.33	402.57
393.52	547.69
393.71	521.94
393.91	500.87
394.10	503.22
394.29	599.18
394.49	521.94
394.68	587.47
394.88	585.13
395.07	603.86
395.26	582.79
395.46	580.45
395.65	571.09
395.84	524.28
396.04	571.09
396.23	699.82
396.42	641.31
396.62	580.45
396.81	638.97
397.00	624.92
397.19	545.34
397.39	580.45
397.58	681.10
397.77	636.63
397.97	643.65
398.16	681.10
398.35	676.41
398.55	711.52
398.74	793.44
398.93	713.86
399.12	744.29
399.32	610.88
399.51	716.20
399.70	833.23
399.90	767.70
400.09	716.20
400.28	730.25
400.47	805.14
400.67	854.30
400.86	725.57
401.05	770.04
401.24	840.25
401.44	812.17
401.63	908.13
401.82	887.06
402.01	847.27
402.21	816.85
402.40	805.14
402.59	903.45
402.78	847.27
402.97	791.10
403.17	938.55
403.36	954.94
403.55	905.79
403.74	950.26
403.93	971.32
404.13	1036.86
404.32	1008.77
404.51	943.24
404.70	1107.07
404.89	1069.62
405.09	1048.56
405.28	1100.05
405.47	1088.35
405.66	1125.80
405.85	1050.90
406.05	1121.12
406.24	1114.10
406.43	1100.05
406.62	1137.50
406.81	1219.42
407.00	1149.20
407.20	1123.46
407.39	1156.22
407.58	1249.85
407.77	1303.68
407.96	1294.32
408.15	1284.95
408.34	1280.27
408.54	1352.83
408.73	1352.83
408.92	1385.60
409.11	1371.55
409.30	1474.54
409.49	1364.53
409.68	1409.00
409.87	1526.03
410.07	1533.05
410.26	1490.92
410.45	1439.43
410.64	1528.37
410.83	1579.86
411.02	1617.31
411.21	1537.73
411.40	1495.60
411.59	1528.37
411.78	1596.25
411.98	1636.03
412.17	1673.48
412.36	1668.80
412.55	1659.44
412.74	1823.28
412.93	1788.17
413.12	1783.49
413.31	1788.17
413.50	1774.13
413.69	1905.20
413.88	1926.26
414.07	1851.36
414.26	1982.43
414.45	2052.65
414.64	1966.05
414.83	2031.58
415.02	2157.97
415.22	2045.63
415.41	2291.38
415.60	2211.81
415.79	2108.82
415.98	2090.10
416.17	2209.47
416.36	2150.95
416.55	2242.23
416.74	2275.00
416.93	2237.55
417.12	2338.20
417.31	2368.62
417.50	2270.32
417.69	2478.63
417.88	2448.20
418.07	2415.43
418.26	2506.71
418.45	2455.22
418.64	2621.40
418.83	2537.14
419.02	2408.41
419.21	2509.05
419.39	2415.43
419.58	2506.71
419.77	2551.18
419.96	2740.77
420.15	2630.76
420.34	2597.99
420.53	2698.64
420.72	2799.28
420.91	2766.51
421.10	2803.96
421.29	2850.77
421.48	2773.53
421.67	2827.37
421.86	2782.90
422.05	2747.79
422.24	2876.52
422.43	2780.56
422.61	2857.79
422.80	2832.05
422.99	2895.24
423.18	2815.66
423.37	2888.22
423.56	2909.29
423.75	2803.96
423.94	2722.04
424.13	2708.00
424.32	2843.75
424.50	2888.22
424.69	2810.98
424.88	3056.74
425.07	3047.38
425.26	2935.03
425.45	3030.99
425.64	3000.57
425.83	2991.20
426.01	3042.70
426.20	2979.50
426.39	2956.10
426.58	3089.51
426.77	3059.08
426.96	3119.93
427.15	3023.97
427.33	3159.72
427.52	3019.29
427.71	3089.51
427.90	3075.46
428.09	3138.66
428.28	3293.13
428.46	3208.87
428.65	3152.70
428.84	3283.77
429.03	3241.64
429.22	3155.04
429.40	3265.05
429.59	3365.69
429.78	3204.19
429.97	3119.93
430.16	3234.62
430.34	3372.71
430.53	3384.41
430.72	3274.41
430.91	3372.71
431.10	3325.90
431.28	3318.88
431.47	3384.41
431.66	3520.17
431.85	3419.52
432.03	3459.31
432.22	3644.21
432.41	3613.79
432.60	3510.80
432.79	3625.49
432.97	3674.64
433.16	3662.94
433.35	3522.51
433.54	3698.05
433.72	3660.60
433.91	3733.15
434.10	3637.19
434.28	3751.88
434.47	3723.79
434.66	3932.10
434.85	3684.00
435.03	3899.33
435.22	4030.40
435.41	4205.94
435.59	4285.52
435.78	3997.64
435.97	4016.36
436.16	4079.55
436.34	3840.82
436.53	3822.09
436.72	4046.79
436.90	3955.51
437.09	4030.40
437.28	3866.56
437.46	3985.93
437.65	4011.68
437.84	4070.19
438.02	3992.95
438.21	4049.13
438.40	3957.85
438.58	4269.14
438.77	4278.50
438.96	4187.22
439.14	4259.78
439.33	4339.35
439.52	4339.35
439.70	4301.90
439.89	4376.80
440.08	4407.23
440.26	4404.89
440.45	4458.72
440.63	4468.08
440.82	4566.39
441.01	4627.24
441.19	4571.07
441.38	4741.93
441.57	4784.06
441.75	4709.16
441.94	4957.25
442.12	4730.22
442.31	4931.51
442.50	4842.57
442.68	4730.22
442.87	4812.14
443.05	4851.93
443.24	5041.51
443.43	4954.91
443.61	4990.02
443.80	4987.68
443.98	4980.66
444.17	4765.33
444.35	4990.02
444.54	4987.68
444.73	4950.23
444.91	4985.34
445.10	5123.43
445.28	5149.18
445.47	5064.92
445.65	4938.53
445.84	5015.77
446.02	5041.51
446.21	4959.60
446.39	5093.01
446.58	5259.18
446.77	5252.16
446.95	4994.70
447.14	5083.64
447.32	5135.14
447.51	5163.22
447.69	5205.35
447.88	5254.50
448.06	5289.61
448.25	5107.05
448.43	5107.05
448.62	5135.14
448.80	5167.90
448.99	5324.72
449.17	5200.67
449.36	5219.39
449.54	5296.63
449.73	5434.72
449.91	5423.02
450.10	5348.12
450.28	5607.92
450.46	5528.35
450.65	5444.09
450.83	5521.32
451.02	5432.38
451.20	5727.29
451.39	5554.09
451.57	5624.31
451.76	5369.19
451.94	5710.91
452.13	5554.09
452.31	5666.44
452.49	5481.53
452.68	5668.78
452.86	5551.75
453.05	5820.91
453.23	5802.19
453.42	5755.38
453.60	5771.76
453.78	5584.52
453.97	5614.95
454.15	5584.52
454.34	5668.78
454.52	5820.91
454.70	5851.34
454.89	5921.56
455.07	5940.28
455.26	5767.08
455.44	5839.64
455.62	5902.83
455.81	5856.02
455.99	6071.35
456.17	6120.50
456.36	6162.63
456.54	6050.28
456.73	6080.71
456.91	6387.32
457.09	6146.25
457.28	6282.00
457.46	6190.72
457.64	6443.49
457.83	6380.30
458.01	6237.53
458.19	6483.28
458.38	6221.14
458.56	6384.98
458.74	6347.53
458.93	6417.75
459.11	6499.67
459.29	6473.92
459.48	6562.86
459.66	6614.35
459.84	6441.15
460.03	6649.46
460.21	6483.28
460.39	6544.14
460.57	6581.59
460.76	6853.09
460.94	6679.89
461.12	6682.23
461.31	6675.21
461.49	6719.68
461.67	6857.77
461.85	6916.28
462.04	6733.72
462.22	6935.01
462.40	6895.22
462.59	6909.26
462.77	6944.37
462.95	6860.11
463.13	6963.09
463.32	7000.54
463.50	7105.87
463.68	6951.39
463.86	7124.59
464.05	6993.52
464.23	7117.57
464.41	7199.49
464.59	6960.75
464.78	7178.42
464.96	7096.50
465.14	6953.73
465.32	7138.63
465.50	7143.32
465.69	7269.70
465.87	7192.47
466.05	7119.91
466.23	7349.28
466.41	7143.32
466.60	7513.12
466.78	7030.97
466.96	7194.81
467.14	7183.10
467.32	7302.47
467.51	7524.82
467.69	7274.38
467.87	7510.78
468.05	7370.35
468.23	7375.03
468.41	7590.36
468.60	7461.63
468.78	7716.75
468.96	7461.63
469.14	7585.68
469.32	7672.28
469.50	7527.16
469.69	7655.89
469.87	7726.11
470.05	7960.16
470.23	7918.03
470.41	7796.32
470.59	7866.54
470.77	7831.43
470.95	7976.55
471.14	8046.76
471.32	7768.24
471.50	8102.93
471.68	8091.23
471.86	8285.50
472.04	8365.07
472.22	8135.70
472.40	8149.75
472.58	8067.83
472.77	8329.97
472.95	8322.94
473.13	8524.23
473.31	8276.13
473.49	8311.24
473.67	8308.90
473.85	8489.12
474.03	8606.15
474.21	8486.78
474.39	8638.92
474.57	8711.47
474.75	9004.04
474.93	8849.57
475.12	8713.81
475.30	8807.44
475.48	8891.70
475.66	8931.48
475.84	9013.40
476.02	9111.71
476.20	9071.92
476.38	9371.50
476.56	9294.27
476.74	9430.02
476.92	9371.50
477.10	9359.80
477.28	9544.70
477.46	9530.66
477.64	9757.69
477.82	9521.30
478.00	9898.13
478.18	10040.90
478.36	9860.68
478.54	10141.54
478.72	10104.09
478.90	10181.33
479.08	10431.77
479.26	10466.88
479.44	10384.96
479.62	10656.46
479.80	10640.08
479.98	10743.06
480.16	10839.02
480.34	10607.31
480.52	10904.56
480.70	10949.03
480.88	10876.47
481.06	11073.07
481.24	11162.01
481.41	11260.32
481.59	11190.10
481.77	11321.17
481.95	11386.71
482.13	11377.34
482.31	11683.95
482.49	11681.61
482.67	11728.42
482.85	11983.54
483.03	12095.89
483.21	12262.07
483.39	12208.23
483.57	12273.77
483.74	12318.24
483.92	12795.71
484.10	12362.71
484.28	12844.86
484.46	13081.25
484.64	13385.52
484.82	12964.23
485.00	12943.16
485.18	13254.45
485.35	13614.90
485.53	13156.15
485.71	13217.01
485.89	14052.58
486.07	13879.38
486.25	13755.33
486.43	14061.94
486.61	14050.24
486.78	14279.61
486.96	14281.95
487.14	14300.67
487.32	14377.91
487.50	14434.08
487.68	14721.97
487.85	14815.59
488.03	14974.75
488.21	15110.50
488.39	15075.39
488.57	15246.25
488.75	15143.27
488.92	15576.27
489.10	15655.84
489.28	15620.74
489.46	15990.54
489.64	15946.07
489.81	16257.36
489.99	16421.20
490.17	16266.72
490.35	16430.56
490.53	16369.71
490.70	16585.04
490.88	16542.91
491.06	17064.85
491.24	16683.34
491.41	17097.61
491.59	17008.67
491.77	17209.96
491.95	17369.12
492.13	17390.18
492.30	17511.89
492.48	17289.54
492.66	17600.83
492.84	17699.13
493.01	17790.41
493.19	17757.64
493.37	18162.56
493.54	18090.00
493.72	18527.68
493.90	18298.31
494.08	18520.66
494.25	18579.17
494.43	18572.15
494.61	18897.49
494.79	19040.26
494.96	19157.28
495.14	19417.08
495.32	19309.42
495.49	19344.53
495.67	19274.31
495.85	19543.47
496.02	19932.00
496.20	19740.08
496.38	19641.78
496.55	19983.49
496.73	20484.37
496.91	20058.39
497.09	20493.73
497.26	20676.29
497.44	20577.99
497.62	20266.70
497.79	20542.88
497.97	20905.66
498.14	20966.52
498.32	20849.49
498.50	21102.27
498.67	21364.41
498.85	21343.35
499.03	21469.73
499.20	21366.75
499.38	21394.84
499.56	21790.39
499.73	21893.37
499.91	21738.90
500.08	21963.59
500.26	21825.50
500.44	22246.79
500.61	21949.54
500.79	21984.65
500.97	22115.72
501.14	22314.67
501.32	22092.32
501.49	22309.99
501.67	22450.42
501.84	22544.04
502.02	22321.69
502.20	23068.32
502.37	22986.40
502.55	23173.64
502.72	22829.59
502.90	23061.30
503.07	23009.81
503.25	23154.92
503.43	22789.80
503.60	23077.68
503.78	23435.78
503.95	23318.76
504.13	23133.86
504.30	23461.53
504.48	23709.63
504.65	23690.90
504.83	23744.73
505.01	24194.12
505.18	24067.73
505.36	23901.55
505.53	23943.68
505.71	24091.13
505.88	24191.78
506.06	24002.19
506.23	24774.57
506.41	24449.24
506.58	24922.02
506.76	24463.28
506.93	24683.29
507.11	24662.22
507.28	24807.34
507.46	24517.11
507.63	25069.48
507.81	25310.55
507.98	24882.24
508.16	25036.71
508.33	25139.69
508.50	24870.53
508.68	25741.21
508.85	25607.80
509.03	25720.15
509.20	25771.64
509.38	25979.95
509.55	25944.84
509.73	26043.14
509.90	26064.21
510.08	26101.65
510.25	25991.65
510.42	26319.32
510.60	26590.83
510.77	26438.69
510.95	26614.23
511.12	26728.92
511.30	26593.17
511.47	27035.53
511.64	26883.39
511.82	26967.65
511.99	26859.99
512.17	27346.82
512.34	26859.99
512.51	26932.54
512.69	27449.80
512.86	27040.21
513.04	27545.76
513.21	27473.21
513.38	27812.59
513.56	27733.01
513.73	27592.58
513.90	27426.40
514.08	27821.95
514.25	27892.16
514.43	27819.61
514.60	27941.32
514.77	27819.61
514.95	28285.37
515.12	28187.07
515.29	28154.30
515.47	28526.45
515.64	28673.90
515.81	28367.29
515.99	28577.94
516.16	28725.39
516.33	28676.24
516.51	29214.57
516.68	28327.50
516.85	28498.36
517.03	28947.75
517.20	29394.79
517.37	29163.08
517.54	29134.99
517.72	28931.36
517.89	29071.79
518.06	29399.47
518.24	29713.10
518.41	29317.55
518.58	29411.17
518.75	29530.54
518.93	29605.44
519.10	29605.44
519.27	29935.45
519.45	29387.77
519.62	29923.75
519.79	29399.47
519.96	29682.67
520.14	30101.63
520.31	29928.43
520.48	30286.53
520.65	30473.78
520.83	30068.86
521.00	30492.50
521.17	30499.52
521.34	30312.28
521.52	30569.74
521.69	30881.03
521.86	30937.20
522.03	30810.81
522.20	31131.47
522.38	30590.80
522.55	30841.24
522.72	31323.39
522.89	31194.66
523.07	31307.01
523.24	31255.51
523.41	31379.56
523.58	31260.20
523.75	31239.13
523.92	31154.87
524.10	31667.45
524.27	31449.78
524.44	31842.99
524.61	32023.21
524.78	31732.98
524.96	31941.29
525.13	31571.49
525.30	31990.44
525.47	31861.71
525.64	32013.85
525.81	32063.00
525.98	32320.46
526.16	31775.11
526.33	32093.43
526.50	32542.81
526.67	32142.58
526.84	31964.70
527.01	32140.24
527.18	32559.19
527.36	32407.06
527.53	32591.96
527.70	32814.31
527.87	33015.60
528.04	33188.80
528.21	32500.68
528.38	32748.78
528.55	32959.42
528.72	32971.13
528.89	33249.65
529.07	33507.11
529.24	33137.30
529.41	32872.82
529.58	32957.08
529.75	33261.35
529.92	32968.79
530.09	33319.87
530.26	33589.03
530.43	33198.16
530.60	33462.64
530.77	33486.04
530.94	33296.46
531.11	33006.23
531.28	33532.86
531.46	33659.24
531.63	33874.57
531.80	33717.76
531.97	34176.50
532.14	33975.22
532.31	33954.15
532.48	34082.88
532.65	34110.97
532.82	33928.41
532.99	34260.76
533.16	34445.66
533.33	34740.57
533.50	34637.59
533.67	34522.90
533.84	34448.00
534.01	34284.17
534.18	34302.89
534.35	34630.57
534.52	34843.56
534.69	34740.57
534.86	34911.43
535.03	34511.20
535.20	35070.59
535.37	34822.49
535.54	34710.14
535.71	34780.36
535.88	34965.26
536.05	35122.08
536.22	35136.12
536.38	35285.92
536.55	35147.82
536.72	35470.82
536.89	34967.60
537.06	35072.93
537.23	35365.49
537.40	35407.62
537.57	35297.62
537.74	35302.30
537.91	35709.55
538.08	35625.29
538.25	35557.42
538.42	35229.74
538.59	35510.61
538.75	35644.02
538.92	35653.38
539.09	35931.90
539.26	35985.74
539.43	35999.78
539.60	36086.38
539.77	36140.21
539.94	36088.72
540.11	36341.50
540.28	36381.29
540.44	36425.76
540.61	36465.55
540.78	36322.77
540.95	36692.58
541.12	36074.68
541.29	36821.31
541.46	36741.73
541.62	36825.99
541.79	36900.89
541.96	36524.06
542.13	36517.04
542.30	36385.97
542.47	36858.76
542.63	36980.46
542.80	36769.82
542.97	36715.98
543.14	36943.02
543.31	37289.42
543.48	37331.54
543.64	37450.91
543.81	37757.52
543.98	37291.76
544.15	37392.40
544.32	37600.71
544.48	37642.84
544.65	37640.50
544.82	37605.39
544.99	37549.21
545.16	37539.85
545.32	37434.53
545.49	38185.84
545.66	38642.24
545.83	38527.56
546.00	38478.41
546.16	37839.44
546.33	37315.16
546.50	37186.43
546.67	37467.30
546.83	37333.89
547.00	37741.14
547.17	37579.64
547.34	37680.28
547.50	37940.08
547.67	38237.33
547.84	37900.29
548.00	38050.09
548.17	38403.51
548.34	37970.51
548.51	38361.38
548.67	38326.27
548.84	38307.55
549.01	38267.76
549.18	38260.74
549.34	38457.34
549.51	38068.81
549.68	38075.84
549.84	38199.88
550.01	38483.09
550.18	38110.94
550.34	38607.14
550.51	38438.62
550.68	38635.22
550.84	38068.81
551.01	38054.77
551.18	38218.61
551.34	37944.76
551.51	38277.12
551.68	38462.02
551.84	38714.80
552.01	38775.66
552.18	38897.36
552.34	38513.52
552.51	38864.60
552.68	38417.55
552.84	38684.37
553.01	38667.99
553.18	38806.08
553.34	38892.68
553.51	38864.60
553.67	38785.02
553.84	38899.70
554.01	39079.92
554.17	38347.34
554.34	38918.43
554.51	38906.73
554.67	39285.89
554.84	39077.58
555.00	38735.87
555.17	38728.84
555.33	39269.51
555.50	38866.94
555.67	39096.31
555.83	39299.94
556.00	38630.54
556.16	39559.73
556.33	39328.02
556.50	39028.43
556.66	39288.23
556.83	38967.58
556.99	39358.45
557.16	39098.65
557.32	39187.59
557.49	39562.08
557.65	39203.97
557.82	39218.02
557.98	38962.90
558.15	39229.72
558.32	39531.65
558.48	39040.14
558.65	39445.05
558.81	39381.85
558.98	39412.28
559.14	39541.01
559.31	39264.83
559.47	38969.92
559.64	39402.92
559.80	39543.35
559.97	39398.24
560.13	39515.26
560.30	39365.47
560.46	39894.43
560.63	39889.75
560.79	39936.56
560.96	40109.76
561.12	39915.50
561.29	39924.86
561.45	39761.02
561.61	39557.39
561.78	39679.10
561.94	39620.59
562.11	39613.57
562.27	39810.17
562.44	39267.17
562.60	40105.08
562.77	39697.83
562.93	39398.24
563.10	39676.76
563.26	39620.59
563.42	39974.01
563.59	40163.59
563.75	39997.41
563.92	39824.22
564.08	39587.82
564.24	39660.38
564.41	39416.96
564.57	39662.72
564.74	39599.52
564.90	40027.84
565.07	40339.13
565.23	39941.24
565.39	39754.00
565.56	40048.91
565.72	39728.25
565.88	40018.48
566.05	39791.45
566.21	39852.30
566.38	40327.43
566.54	40046.57
566.70	40287.64
566.87	40198.70
567.03	39971.67
567.19	40388.28
567.36	40226.79
567.52	39812.51
567.68	40196.36
567.85	40058.27
568.01	39805.49
568.17	39824.22
568.34	40297.00
568.50	40009.12
568.66	40088.70
568.83	39920.18
568.99	40060.61
569.15	40257.21
569.32	39948.26
569.48	39929.54
569.64	39999.76
569.81	39882.73
569.97	40184.66
570.13	40254.87
570.30	39941.24
570.46	40051.25
570.62	39636.97
570.78	39929.54
570.95	39901.45
571.11	40500.63
571.27	39454.41
571.43	39889.75
571.60	40367.22
571.76	40442.12
571.92	39761.02
572.09	40254.87
572.25	40486.59
572.41	40252.53
572.57	40395.31
572.74	40566.16
572.90	39807.83
573.06	40313.39
573.22	40198.70
573.38	40264.24
573.55	40254.87
573.71	40811.92
573.87	40336.79
574.03	40514.67
574.20	40381.26
574.36	40072.31
574.52	39845.28
574.68	39838.26
574.84	40491.27
575.01	39913.16
575.17	39971.67
575.33	41090.44
575.49	40418.71
575.65	40701.92
575.82	40662.13
575.98	40135.51
576.14	40367.22
576.30	40219.77
576.46	40343.81
576.62	40292.32
576.79	40163.59
576.95	40308.71
577.11	40074.65
577.27	40203.38
577.43	39880.39
577.59	40332.11
577.75	40594.25
577.92	39739.96
578.08	40095.72
578.24	40018.48
578.40	40491.27
578.56	40484.25
578.72	40701.92
578.88	40521.69
579.04	40737.02
579.21	40636.38
579.37	40343.81
579.53	40465.52
579.69	40334.45
579.85	40622.34
580.01	40519.35
580.17	39929.54
580.33	40470.20
580.49	40289.98
580.65	40378.92
580.82	40519.35
580.98	41062.36
581.14	40575.53
581.30	40531.06
581.46	40509.99
581.62	40280.62
581.78	39875.71
581.94	40364.88
582.10	39894.43
582.26	39889.75
582.42	40509.99
582.58	40334.45
582.74	40119.12
582.90	40664.47
583.06	40397.65
583.22	40222.11
583.38	40397.65
583.54	40264.24
583.70	40334.45
583.86	40465.52
584.02	40243.17
584.18	40734.68
584.34	40390.62
584.50	40589.57
584.66	40320.41
584.82	40322.75
584.98	40287.64
585.14	40299.34
585.30	40013.80
585.46	40184.66
585.62	40524.04
585.78	40388.28
585.94	40690.21
586.10	40287.64
586.26	40687.87
586.42	40903.20
586.58	40928.95
586.74	40257.21
586.90	40011.46
587.06	39821.87
587.22	40584.89
587.38	40437.44
587.54	40685.53
587.70	41095.13
587.86	40449.14
588.02	40428.07
588.18	40985.12
588.34	40519.35
588.49	40463.18
588.65	39882.73
588.81	40194.02
588.97	40112.10
589.13	40306.37
589.29	40886.82
589.45	40795.54
589.61	40898.52
589.77	41013.21
589.93	40657.45
590.08	40692.55
590.24	41015.55
590.40	40800.22
590.56	40975.76
590.72	40617.66
590.88	40542.76
591.04	40589.57
591.20	40552.12
