SpectraSuite Data File
++++++++++++++++++++++++++++++++++++
Date: Fri Oct 04 11:39:25 GMT-05:00 2013
User: price-jones
Dark Spectrum Present: No
Reference Spectrum Present: No
Number of Sampled Component Spectra: 1
Spectrometers: USB2+H05261
Integration Time (usec): 100000 (USB2+H05261)
Spectra Averaged: 1 (USB2+H05261)
Boxcar Smoothing: 0 (USB2+H05261)
Correct for Electrical Dark: No (USB2+H05261)
Strobe/Lamp Enabled: No (USB2+H05261)
Correct for Detector Non-linearity: No (USB2+H05261)
Correct for Stray Light: No (USB2+H05261)
Number of Pixels in Processed Spectrum: 2048
>>>>>Begin Processed Spectral Data<<<<<
365.73	32.77
365.92	32.77
366.12	32.77
366.32	0.00
366.52	0.00
366.72	0.00
366.91	11.70
367.11	0.00
367.31	0.00
367.51	0.00
367.70	0.00
367.90	0.00
368.10	0.00
368.30	0.00
368.49	0.00
368.69	0.00
368.89	0.00
369.09	0.00
369.28	18.72
369.48	0.00
369.68	35.11
369.87	21.06
370.07	79.58
370.27	100.64
370.47	42.13
370.66	168.52
370.86	264.48
371.06	231.71
371.25	229.37
371.45	283.20
371.65	238.73
371.84	196.60
372.04	191.92
372.24	287.89
372.44	315.97
372.63	362.78
372.83	372.15
373.03	266.82
373.22	229.37
373.42	280.86
373.62	255.12
373.81	290.23
374.01	355.76
374.21	339.38
374.40	327.68
374.60	374.49
374.79	423.64
374.99	287.89
375.19	341.72
375.38	358.10
375.58	301.93
375.78	327.68
375.97	369.80
376.17	433.00
376.37	369.80
376.56	372.15
376.76	344.06
376.95	322.99
377.15	365.12
377.35	315.97
377.54	388.53
377.74	367.46
377.93	381.51
378.13	360.44
378.33	348.74
378.52	318.31
378.72	351.08
378.91	315.97
379.11	372.15
379.31	322.99
379.50	376.83
379.70	315.97
379.89	402.57
380.09	381.51
380.28	440.02
380.48	402.57
380.68	358.10
380.87	404.91
381.07	470.45
381.26	390.87
381.46	397.89
381.65	468.11
381.85	344.06
382.04	507.90
382.24	449.38
382.43	449.38
382.63	362.78
382.83	454.06
383.02	369.80
383.22	503.22
383.41	374.49
383.61	465.77
383.80	491.51
384.00	505.56
384.19	425.98
384.39	491.51
384.58	423.64
384.78	489.17
384.97	355.76
385.17	447.04
385.36	456.40
385.56	517.26
385.75	517.26
385.95	454.06
386.14	538.32
386.34	407.25
386.53	500.87
386.72	381.51
386.92	465.77
387.11	528.96
387.31	416.62
387.50	557.05
387.70	498.53
387.89	465.77
388.09	533.64
388.28	414.27
388.48	519.60
388.67	594.50
388.86	543.00
389.06	500.87
389.25	547.69
389.45	561.73
389.64	620.24
389.84	557.05
390.03	517.26
390.22	573.43
390.42	503.22
390.61	535.98
390.81	585.13
391.00	535.98
391.19	608.54
391.39	643.65
391.58	596.84
391.78	585.13
391.97	589.82
392.16	543.00
392.36	671.73
392.55	559.39
392.75	599.18
392.94	643.65
393.13	760.67
393.33	608.54
393.52	704.50
393.71	617.90
393.91	592.16
394.10	636.63
394.29	697.48
394.49	695.14
394.68	702.16
394.88	716.20
395.07	748.97
395.26	622.58
395.46	683.44
395.65	676.41
395.84	716.20
396.04	851.96
396.23	805.14
396.42	695.14
396.62	767.70
396.81	706.84
397.00	720.88
397.19	695.14
397.39	816.85
397.58	863.66
397.77	697.48
397.97	770.04
398.16	734.93
398.35	866.00
398.55	802.80
398.74	741.95
398.93	863.66
399.12	858.98
399.32	889.40
399.51	826.21
399.70	924.51
399.90	870.68
400.09	854.30
400.28	861.32
400.47	1004.09
400.67	933.87
400.86	931.53
401.05	947.92
401.24	884.72
401.44	912.81
401.63	936.21
401.82	987.71
402.01	959.62
402.21	1008.77
402.40	957.28
402.59	1029.84
402.78	1107.07
402.97	1022.81
403.17	1076.65
403.36	1078.99
403.55	1055.58
403.74	1114.10
403.93	1146.86
404.13	1107.07
404.32	1200.69
404.51	1165.59
404.70	1135.16
404.89	1064.94
405.09	1188.99
405.28	1118.78
405.47	1217.08
405.66	1299.00
405.85	1263.89
406.05	1270.91
406.24	1193.67
406.43	1334.11
406.62	1273.25
406.81	1355.17
407.00	1341.13
407.20	1263.89
407.39	1378.58
407.58	1416.02
407.77	1371.55
407.96	1369.21
408.15	1369.21
408.34	1465.18
408.54	1409.00
408.73	1502.62
408.92	1383.26
409.11	1418.36
409.30	1418.36
409.49	1535.39
409.68	1533.05
409.87	1537.73
410.07	1600.93
410.26	1600.93
410.45	1495.60
410.64	1647.74
410.83	1617.31
411.02	1624.33
411.21	1710.93
411.40	1610.29
411.59	1771.79
411.78	1715.61
411.98	1671.14
412.17	1769.44
412.36	1827.96
412.55	1849.02
412.74	1839.66
412.93	1879.45
413.12	1898.17
413.31	1984.77
413.50	1832.64
413.69	1980.09
413.88	1921.58
414.07	1944.99
414.26	1977.75
414.45	1935.62
414.64	2150.95
414.83	2120.53
415.02	2167.34
415.22	2179.04
415.41	2127.55
415.60	2057.33
415.79	2197.76
415.98	2209.47
416.17	2218.83
416.36	2291.38
416.55	2326.49
416.74	2354.58
416.93	2354.58
417.12	2354.58
417.31	2361.60
417.50	2413.09
417.69	2499.69
417.88	2471.61
418.07	2380.32
418.26	2443.52
418.45	2443.52
418.64	2630.76
418.83	2586.29
419.02	2555.86
419.21	2597.99
419.39	2696.30
419.58	2640.12
419.77	2497.35
419.96	2654.17
420.15	2743.11
420.34	2789.92
420.53	2684.59
420.72	2696.30
420.91	2785.24
421.10	2792.26
421.29	2813.32
421.48	2733.75
421.67	2796.94
421.86	2911.63
422.05	2810.98
422.24	2785.24
422.43	2794.60
422.61	2930.35
422.80	2874.18
422.99	2899.92
423.18	2874.18
423.37	2951.42
423.56	2939.71
423.75	2818.00
423.94	2750.13
424.13	2731.41
424.32	2724.38
424.50	2972.48
424.69	2939.71
424.88	2993.55
425.07	2796.94
425.26	2799.28
425.45	2855.45
425.64	3038.02
425.83	3023.97
426.01	3033.33
426.20	2942.05
426.39	3108.23
426.58	3012.27
426.77	3005.25
426.96	3026.31
427.15	3016.95
427.33	3021.63
427.52	3068.44
427.71	3059.08
427.90	3213.56
428.09	3176.11
428.28	3197.17
428.46	3208.87
428.65	3222.92
428.84	3353.99
429.03	3421.86
429.22	2958.44
429.40	3258.03
429.59	3384.41
429.78	3192.49
429.97	3101.21
430.16	3204.19
430.34	3349.31
430.53	3363.35
430.72	3311.86
430.91	3419.52
431.10	3368.03
431.28	3433.57
431.47	3407.82
431.66	3590.38
431.85	3538.89
432.03	3576.34
432.22	3637.19
432.41	3616.13
432.60	3588.04
432.79	3405.48
432.97	3503.78
433.16	3555.27
433.35	3576.34
433.54	3538.89
433.72	3583.36
433.91	3625.49
434.10	3707.41
434.28	3674.64
434.47	3712.09
434.66	3609.11
434.85	3770.60
435.03	4002.32
435.22	3896.99
435.41	4264.46
435.59	4262.12
435.78	4177.86
435.97	3983.59
436.16	3892.31
436.34	3922.74
436.53	3826.78
436.72	3983.59
436.90	3915.72
437.09	3974.23
437.28	3918.06
437.46	3927.42
437.65	3908.69
437.84	3983.59
438.02	4044.45
438.21	3911.04
438.40	3990.61
438.58	4133.39
438.77	4264.46
438.96	4212.96
439.14	4236.37
439.33	4156.79
439.52	4341.69
439.70	4280.84
439.89	4358.08
440.08	4428.29
440.26	4376.80
440.45	4355.74
440.63	4545.32
440.82	4524.26
441.01	4566.39
441.19	4559.36
441.38	4645.96
441.57	4535.96
441.75	4697.46
441.94	4772.35
442.12	4880.02
442.31	4842.57
442.50	4704.48
442.68	4807.46
442.87	4798.10
443.05	4755.97
443.24	4896.40
443.43	4805.12
443.61	5181.95
443.80	4919.81
443.98	4805.12
444.17	4851.93
444.35	4922.15
444.54	4905.76
444.73	5011.09
444.91	4954.91
445.10	4903.42
445.28	4987.68
445.47	4929.17
445.65	5025.13
445.84	5090.67
446.02	5074.28
446.21	4966.62
446.39	5095.35
446.58	4983.00
446.77	5001.72
446.95	4891.72
447.14	4901.08
447.32	5249.82
447.51	5067.26
447.69	5020.45
447.88	5191.31
448.06	5413.66
448.25	5018.11
448.43	5046.20
448.62	5345.78
448.80	5125.77
448.99	5181.95
449.17	5144.50
449.36	5069.60
449.54	5397.28
449.73	5291.95
449.91	5205.35
450.10	5376.21
450.28	5483.88
450.46	5406.64
450.65	5261.52
450.83	5373.87
451.02	5413.66
451.20	5589.20
451.39	5460.47
451.57	5432.38
451.76	5425.36
451.94	5612.60
452.13	5710.91
452.31	5472.17
452.49	5446.43
452.68	5570.48
452.86	5526.00
453.05	5701.54
453.23	5526.00
453.42	5703.89
453.60	5582.18
453.78	5682.82
453.97	5715.59
454.15	5753.04
454.34	5589.20
454.52	5797.51
454.70	5708.57
454.89	5781.12
455.07	5823.25
455.26	5839.64
455.44	6033.90
455.62	5909.85
455.81	6094.76
455.99	5947.30
456.17	5961.34
456.36	5987.09
456.54	6078.37
456.73	5954.32
456.91	6183.70
457.09	6162.63
457.28	6230.51
457.46	6190.72
457.64	6230.51
457.83	6120.50
458.01	6143.91
458.19	6209.44
458.38	6223.48
458.56	6403.71
458.74	6326.47
458.93	6239.87
459.11	6340.51
459.29	6235.19
459.48	6504.35
459.66	6595.63
459.84	6499.67
460.03	6895.22
460.21	6558.18
460.39	6607.33
460.57	6539.46
460.76	6612.01
460.94	6593.29
461.12	6724.36
461.31	6775.85
461.49	6637.76
461.67	6658.82
461.85	6780.53
462.04	6782.87
462.22	6944.37
462.40	6932.67
462.59	6794.58
462.77	6813.30
462.95	6902.24
463.13	6897.56
463.32	7016.93
463.50	6930.33
463.68	6867.13
463.86	6960.75
464.05	6799.26
464.23	6956.07
464.41	7068.42
464.59	7014.59
464.78	6953.73
464.96	7054.37
465.14	7054.37
465.32	7096.50
465.50	7091.82
465.69	7358.64
465.87	7269.70
466.05	7089.48
466.23	7164.38
466.41	7307.15
466.60	7190.13
466.78	7110.55
466.96	7199.49
467.14	7194.81
467.32	7485.03
467.51	7478.01
467.69	7286.09
467.87	7372.69
468.05	7220.55
468.23	7353.96
468.41	7569.29
468.60	7342.26
468.78	7660.57
468.96	7363.33
469.14	7576.31
469.32	7616.10
469.50	7438.22
469.69	7763.56
469.87	7789.30
470.05	7784.62
470.23	7667.60
470.41	7592.70
470.59	7981.23
470.77	7641.85
470.95	7803.35
471.14	7995.27
471.32	7850.16
471.50	8142.72
471.68	7985.91
471.86	8084.21
472.04	8067.83
472.22	8299.54
472.40	8320.60
472.58	8124.00
472.77	8021.02
472.95	8355.71
473.13	8573.38
473.31	8252.73
473.49	8365.07
473.67	8341.67
473.85	8418.91
474.03	8589.77
474.21	8458.70
474.39	8681.05
474.57	8535.93
474.75	8688.07
474.93	8706.79
475.12	8805.10
475.30	8746.58
475.48	8718.50
475.66	8894.04
475.84	8975.95
476.02	9046.17
476.20	9088.30
476.38	9291.93
476.56	9280.22
476.74	9303.63
476.92	9287.25
477.10	9249.80
477.28	9423.00
477.46	9476.83
477.64	9488.53
477.82	9565.77
478.00	9781.10
478.18	9715.56
478.36	9914.51
478.54	10265.59
478.72	10064.30
478.90	10090.05
479.08	10108.77
479.26	10340.49
479.44	10326.44
479.62	10342.83
479.80	10700.93
479.98	10352.19
480.16	10661.14
480.34	10841.36
480.52	10937.32
480.70	10970.09
480.88	10750.08
481.06	10967.75
481.24	10855.40
481.41	11068.39
481.59	11419.47
481.77	11384.37
481.95	11248.61
482.13	11265.00
482.31	11323.51
482.49	11625.44
482.67	11829.07
482.85	11793.96
483.03	12379.09
483.21	12269.09
483.39	12264.41
483.57	12161.42
483.74	12393.14
483.92	12482.08
484.10	12538.25
484.28	12849.54
484.46	12842.52
484.64	12872.95
484.82	12861.24
485.00	12917.42
485.18	13254.45
485.35	13397.23
485.53	13406.59
485.71	13715.54
485.89	13652.34
486.07	13729.58
486.25	13851.29
486.43	13664.05
486.61	14054.92
486.78	14291.31
486.96	14019.81
487.14	14314.72
487.32	14408.34
487.50	14422.38
487.68	14317.06
487.85	14555.79
488.03	14984.11
488.21	15112.84
488.39	14984.11
488.57	14743.03
488.75	15239.23
488.92	15522.43
489.10	15536.48
489.28	15487.32
489.46	15616.05
489.64	15824.36
489.81	16203.53
489.99	16301.83
490.17	16072.46
490.35	16348.64
490.53	16376.73
490.70	16610.78
490.88	16755.90
491.06	16788.66
491.24	16629.51
491.41	16795.68
491.59	17118.68
491.77	17062.51
491.95	17242.73
492.13	17226.34
492.30	17355.07
492.48	17371.46
492.66	17703.81
492.84	17352.73
493.01	17575.08
493.19	17579.76
493.37	18043.19
493.54	18267.88
493.72	18387.25
493.90	17982.34
494.08	18216.39
494.25	18485.55
494.43	18686.84
494.61	18829.61
494.79	19211.12
494.96	19014.51
495.14	18948.98
495.32	19190.05
495.49	19168.99
495.67	19374.95
495.85	19363.25
496.02	19831.36
496.20	19648.80
496.38	19763.48
496.55	19711.99
496.73	20322.87
496.91	20137.97
497.09	20203.50
497.26	20231.59
497.44	20119.24
497.62	20329.89
497.79	20800.34
497.97	20652.89
498.14	20938.43
498.32	21273.13
498.50	21181.85
498.67	21413.56
498.85	21008.65
499.03	21362.07
499.20	21432.29
499.38	21542.29
499.56	21610.17
499.73	21759.96
499.91	21528.25
500.08	22057.21
500.26	21579.74
500.44	21975.29
500.61	22087.64
500.79	21841.88
500.97	22302.96
501.14	22429.35
501.32	22728.94
501.49	22469.14
501.67	22375.52
501.84	22810.86
502.02	22625.96
502.20	22745.33
502.37	22979.38
502.55	22860.01
502.72	22820.22
502.90	22567.45
503.07	22869.37
503.25	22988.74
503.43	22904.48
503.60	23243.86
503.78	23000.44
503.95	23391.31
504.13	23302.37
504.30	23503.66
504.48	23140.88
504.65	23665.16
504.83	24016.24
505.01	24318.17
505.18	23606.64
505.36	24418.81
505.53	23761.12
505.71	23821.97
505.88	24292.42
506.06	24379.02
506.23	24650.52
506.41	24208.16
506.58	24561.58
506.76	24301.78
506.93	24797.98
507.11	24851.81
507.28	24875.21
507.46	24652.86
507.63	24929.05
507.81	25125.65
507.98	25062.46
508.16	25352.68
508.33	24959.47
508.50	25369.07
508.68	25366.73
508.85	25713.13
509.03	25741.21
509.20	25429.92
509.38	25919.09
509.55	25846.54
509.73	25773.98
509.90	25940.16
510.08	26059.52
510.25	26295.92
510.42	26228.04
510.60	26555.72
510.77	26464.44
510.95	26441.03
511.12	26780.41
511.30	26426.99
511.47	26558.06
511.64	26625.93
511.82	26913.82
511.99	26923.18
512.17	26899.78
512.34	26852.97
512.51	27087.02
512.69	27351.50
512.86	27171.28
513.04	27005.10
513.21	27545.76
513.38	27452.14
513.56	27679.18
513.73	27606.62
513.90	27538.74
514.08	27405.33
514.25	27552.79
514.43	27847.69
514.60	28107.49
514.77	27690.88
514.95	28137.92
515.12	27896.85
515.29	27688.54
515.47	28077.07
515.64	28229.20
515.81	28671.56
515.99	28650.50
516.16	29078.82
516.33	28580.28
516.51	28835.40
516.68	28826.04
516.85	28594.32
517.03	28788.59
517.20	28800.29
517.37	29032.00
517.54	28929.02
517.72	29146.69
517.89	29333.93
518.06	29289.46
518.24	29149.03
518.41	28947.75
518.58	29486.07
518.75	29673.31
518.93	29422.87
519.10	29289.46
519.27	29544.58
519.45	29434.58
519.62	29497.77
519.79	30015.03
519.96	29708.42
520.14	29830.13
520.31	29921.41
520.48	30141.42
520.65	30139.08
520.83	30478.46
521.00	30572.08
521.17	30110.99
521.34	30113.33
521.52	30384.83
521.69	30462.07
521.86	30820.17
522.03	30944.22
522.20	30787.41
522.38	30658.68
522.55	31077.63
522.72	30799.11
522.89	31108.06
523.07	31218.07
523.24	31056.57
523.41	31124.44
523.58	30848.26
523.75	31503.61
523.92	31358.50
524.10	31365.52
524.27	31381.90
524.44	31819.58
524.61	31725.96
524.78	31952.99
524.96	31372.54
525.13	31768.09
525.30	32088.74
525.47	31810.22
525.64	31924.91
525.81	32114.49
525.98	32243.22
526.16	32201.09
526.33	32388.33
526.50	32266.63
526.67	31821.92
526.84	32357.91
527.01	32222.16
527.18	32446.85
527.36	32835.38
527.53	32451.53
527.70	32465.57
527.87	32868.14
528.04	32313.44
528.21	32786.22
528.38	32737.07
528.55	33102.20
528.72	33050.70
528.89	32936.02
529.07	32823.67
529.24	33020.28
529.41	33146.67
529.58	32987.51
529.75	32833.04
529.92	33446.26
530.09	32957.08
530.26	33436.89
530.43	33191.14
530.60	32978.15
530.77	33179.43
530.94	33663.93
531.11	33284.76
531.28	33235.61
531.46	33734.14
531.63	33254.33
531.80	33869.89
531.97	33497.75
532.14	34192.89
532.31	33947.13
532.48	34110.97
532.65	33975.22
532.82	34015.01
532.99	34031.39
533.16	34171.82
533.33	34150.76
533.50	34433.96
533.67	34302.89
533.84	34204.59
534.01	34029.05
534.18	34213.95
534.35	34717.17
534.52	34225.65
534.69	34632.91
534.86	35068.25
535.03	34740.57
535.20	34775.68
535.37	34756.96
535.54	34820.15
535.71	35016.75
535.88	34792.06
536.05	34820.15
536.22	35175.91
536.38	35295.28
536.55	34911.43
536.72	35562.10
536.89	34918.45
537.06	35321.02
537.23	35267.19
537.40	35517.63
537.57	35489.54
537.74	35239.11
537.91	35438.05
538.08	35622.95
538.25	35449.75
538.42	35594.87
538.59	35983.40
538.75	35412.31
538.92	35356.13
539.09	35608.91
539.26	35716.58
539.43	35739.98
539.60	36219.79
539.77	35819.56
539.94	36137.87
540.11	35974.03
540.28	36180.00
540.44	36180.00
540.61	35826.58
540.78	35885.09
540.95	36512.36
541.12	36748.75
541.29	36636.41
541.46	36699.60
541.62	36290.01
541.79	36477.25
541.96	36603.64
542.13	36671.51
542.30	37273.03
542.47	36666.83
542.63	37212.18
542.80	36521.72
542.97	37429.85
543.14	37092.81
543.31	37078.77
543.48	37340.91
543.64	37326.86
543.81	37170.05
543.98	37598.37
544.15	37511.77
544.32	37357.29
544.48	37479.00
544.65	36790.88
544.82	37649.86
544.99	36882.16
545.16	37565.60
545.32	37441.55
545.49	38579.05
545.66	38873.96
545.83	38911.41
546.00	38476.07
546.16	38440.96
546.33	37670.92
546.50	37425.17
546.67	37694.33
546.83	37333.89
547.00	38068.81
547.17	38103.92
547.34	38143.71
547.50	37818.38
547.67	38206.90
547.84	37912.00
548.00	37869.87
548.17	38007.96
548.34	37895.61
548.51	38094.56
548.67	38487.77
548.84	37977.53
549.01	38057.11
549.18	38061.79
549.34	38258.40
549.51	38342.66
549.68	38520.54
549.84	38632.88
550.01	38309.89
550.18	38265.42
550.34	38433.94
550.51	38438.62
550.68	38639.90
550.84	38724.16
551.01	38738.21
551.18	38337.98
551.34	38431.60
551.51	38490.11
551.68	38464.36
551.84	38415.21
552.01	38597.77
552.18	38738.21
552.34	38438.62
552.51	38656.29
552.68	38703.10
552.84	38609.48
553.01	38667.99
553.18	39023.75
553.34	39157.16
553.51	38515.86
553.67	39033.11
553.84	39260.15
554.01	39138.44
554.17	38581.39
554.34	39035.45
554.51	39119.71
554.67	38660.97
554.84	39381.85
555.00	38976.94
555.17	39232.06
555.33	39061.20
555.50	39152.48
555.67	39480.16
555.83	38946.51
556.00	39110.35
556.16	39124.40
556.33	38951.20
556.50	39311.64
556.66	39613.57
556.83	39187.59
556.99	39744.64
557.16	39557.39
557.32	39431.01
557.49	39814.85
557.65	39440.37
557.82	39386.54
557.98	39599.52
558.15	39571.44
558.32	39578.46
558.48	39386.54
558.65	39840.60
558.81	39749.32
558.98	39409.94
559.14	39871.03
559.31	39002.69
559.47	39688.46
559.64	39772.72
559.80	39463.77
559.97	39629.95
560.13	39641.65
560.30	39782.09
560.46	39887.41
560.63	39852.30
560.79	39849.96
560.96	39861.66
561.12	39243.76
561.29	40032.52
561.45	39856.98
561.61	40671.49
561.78	40051.25
561.94	40191.68
562.11	40350.84
562.27	39920.18
562.44	40081.67
562.60	39974.01
562.77	39803.15
562.93	40009.12
563.10	40617.66
563.26	39709.53
563.42	40657.45
563.59	40343.81
563.75	40250.19
563.92	40505.31
564.08	40025.50
564.24	39908.47
564.41	39629.95
564.57	39746.98
564.74	40006.78
564.90	40142.53
565.07	40121.46
565.23	40488.93
565.39	40203.38
565.56	40119.12
565.72	40095.72
565.88	40020.82
566.05	40055.93
566.21	40128.48
566.38	39842.94
566.54	40158.91
566.70	40896.18
566.87	40538.08
567.03	40076.99
567.19	40786.18
567.36	40252.53
567.52	40172.96
567.68	40500.63
567.85	40182.32
568.01	40566.16
568.17	40304.02
568.34	40105.08
568.50	40299.34
568.66	40491.27
568.83	40662.13
568.99	40156.57
569.15	40542.76
569.32	40219.77
569.48	40341.47
569.64	40371.90
569.81	39983.37
569.97	40378.92
570.13	40535.74
570.30	40563.82
570.46	40711.28
570.62	40392.97
570.78	40697.24
570.95	40020.82
571.11	40559.14
571.27	40430.41
571.43	40217.43
571.60	40624.68
571.76	40268.92
571.92	40280.62
572.09	40811.92
572.25	40727.66
572.41	40671.49
572.57	40643.40
572.74	40985.12
572.90	40058.27
573.06	41195.77
573.22	40411.69
573.38	40423.39
573.55	40989.80
573.71	41085.76
573.87	40865.75
574.03	40741.71
574.20	40559.14
574.36	40725.32
574.52	40259.55
574.68	40615.32
574.84	40627.02
575.01	40905.54
575.17	40844.69
575.33	40603.61
575.49	40374.24
575.65	40332.11
575.82	40865.75
575.98	40697.24
576.14	40898.52
576.30	40629.36
576.46	40081.67
576.62	40563.82
576.79	40921.93
576.95	40725.32
577.11	41006.19
577.27	40720.64
577.43	40568.51
577.59	40734.68
577.75	40484.25
577.92	40893.84
578.08	40538.08
578.24	40830.65
578.40	41022.57
578.56	40715.96
578.72	40935.97
578.88	40992.14
579.04	40905.54
579.21	40875.12
579.37	41036.61
579.53	40931.29
579.69	40889.16
579.85	40690.21
580.01	40582.55
580.17	40151.89
580.33	40872.78
580.49	40755.75
580.65	41085.76
580.82	41312.80
580.98	41106.83
581.14	40905.54
581.30	41127.89
581.46	40645.74
581.62	40662.13
581.78	40395.31
581.94	40587.23
582.10	40907.88
582.26	40772.13
582.42	40966.40
582.58	41303.43
582.74	41120.87
582.90	40760.43
583.06	40921.93
583.22	40809.58
583.38	40552.12
583.54	41092.79
583.70	40858.73
583.86	41076.40
584.02	40456.16
584.18	40989.80
584.34	41471.95
584.50	41067.04
584.66	40975.76
584.82	40662.13
584.98	40945.33
585.14	40568.51
585.30	40732.34
585.46	40844.69
585.62	40762.77
585.78	41024.91
585.94	40706.60
586.10	40835.33
586.26	40772.13
586.42	40914.90
586.58	41141.94
586.74	41139.60
586.90	40212.74
587.06	41022.57
587.22	41148.96
587.38	40680.85
587.54	41228.54
587.70	40959.38
587.86	41642.81
588.02	41120.87
588.18	41331.52
588.34	41017.89
588.49	40933.63
588.65	40666.81
588.81	41057.68
588.97	40587.23
589.13	40741.71
589.29	41280.03
589.45	41343.22
589.61	41146.62
589.77	41387.69
589.93	41614.72
590.08	41366.63
590.24	41375.99
590.40	41375.99
590.56	41783.24
590.72	41102.15
590.88	41230.88
591.04	41207.47
