SpectraSuite Data File
++++++++++++++++++++++++++++++++++++
Date: Fri Oct 04 11:39:28 GMT-05:00 2013
User: price-jones
Dark Spectrum Present: No
Reference Spectrum Present: No
Number of Sampled Component Spectra: 1
Spectrometers: USB2+H05261
Integration Time (usec): 100000 (USB2+H05261)
Spectra Averaged: 1 (USB2+H05261)
Boxcar Smoothing: 0 (USB2+H05261)
Correct for Electrical Dark: No (USB2+H05261)
Strobe/Lamp Enabled: No (USB2+H05261)
Correct for Detector Non-linearity: No (USB2+H05261)
Correct for Stray Light: No (USB2+H05261)
Number of Pixels in Processed Spectrum: 2048
>>>>>Begin Processed Spectral Data<<<<<
365.73	32.77
365.92	32.77
366.12	32.77
366.32	0.00
366.52	0.00
366.72	0.00
366.91	0.00
367.11	0.00
367.31	0.00
367.51	0.00
367.70	0.00
367.90	0.00
368.10	0.00
368.30	0.00
368.49	0.00
368.69	37.45
368.89	0.00
369.09	0.00
369.28	4.68
369.48	0.00
369.68	28.09
369.87	0.00
370.07	9.36
370.27	51.49
370.47	84.26
370.66	98.30
370.86	72.56
371.06	182.56
371.25	170.86
371.45	194.26
371.65	84.26
371.84	203.63
372.04	133.41
372.24	201.29
372.44	154.48
372.63	166.18
372.83	184.90
373.03	201.29
373.22	196.60
373.42	212.99
373.62	220.01
373.81	264.48
374.01	231.71
374.21	259.80
374.40	184.90
374.60	189.58
374.79	203.63
374.99	215.33
375.19	215.33
375.38	297.25
375.58	210.65
375.78	208.31
375.97	257.46
376.17	280.86
376.37	149.79
376.56	229.37
376.76	201.29
376.95	262.14
377.15	168.52
377.35	250.44
377.54	234.05
377.74	147.45
377.93	222.35
378.13	170.86
378.33	252.78
378.52	180.22
378.72	264.48
378.91	315.97
379.11	292.57
379.31	234.05
379.50	191.92
379.70	245.76
379.89	266.82
380.09	241.08
380.28	170.86
380.48	273.84
380.68	170.86
380.87	168.52
381.07	222.35
381.26	262.14
381.46	266.82
381.65	262.14
381.85	262.14
382.04	290.23
382.24	201.29
382.43	187.24
382.63	259.80
382.83	238.73
383.02	276.18
383.22	215.33
383.41	203.63
383.61	191.92
383.80	269.16
384.00	238.73
384.19	264.48
384.39	262.14
384.58	264.48
384.78	315.97
384.97	301.93
385.17	280.86
385.36	222.35
385.56	276.18
385.75	184.90
385.95	180.22
386.14	285.55
386.34	292.57
386.53	203.63
386.72	210.65
386.92	322.99
387.11	311.29
387.31	294.91
387.50	299.59
387.70	320.65
387.89	325.33
388.09	241.08
388.28	294.91
388.48	227.03
388.67	283.20
388.86	248.10
389.06	315.97
389.25	360.44
389.45	348.74
389.64	294.91
389.84	273.84
390.03	369.80
390.22	280.86
390.42	283.20
390.61	238.73
390.81	306.61
391.00	334.70
391.19	285.55
391.39	278.52
391.58	322.99
391.78	409.59
391.97	346.40
392.16	297.25
392.36	308.95
392.55	411.93
392.75	379.17
392.94	353.42
393.13	386.19
393.33	276.18
393.52	299.59
393.71	409.59
393.91	322.99
394.10	301.93
394.29	376.83
394.49	379.17
394.68	381.51
394.88	428.32
395.07	437.68
395.26	395.55
395.46	330.02
395.65	458.74
395.84	360.44
396.04	451.72
396.23	374.49
396.42	402.57
396.62	573.43
396.81	440.02
397.00	456.40
397.19	423.64
397.39	388.53
397.58	465.77
397.77	423.64
397.97	543.00
398.16	493.85
398.35	475.13
398.55	484.49
398.74	477.47
398.93	575.77
399.12	491.51
399.32	486.83
399.51	543.00
399.70	512.58
399.90	550.03
400.09	578.11
400.28	550.03
400.47	568.75
400.67	512.58
400.86	489.17
401.05	498.53
401.24	543.00
401.44	580.45
401.63	571.09
401.82	554.71
402.01	578.11
402.21	620.24
402.40	648.33
402.59	566.41
402.78	603.86
402.97	596.84
403.17	603.86
403.36	608.54
403.55	664.71
403.74	636.63
403.93	674.07
404.13	751.31
404.32	737.27
404.51	704.50
404.70	779.40
404.89	833.23
405.09	765.36
405.28	748.97
405.47	732.59
405.66	765.36
405.85	713.86
406.05	767.70
406.24	748.97
406.43	858.98
406.62	791.10
406.81	910.47
407.00	819.19
407.20	875.36
407.39	887.06
407.58	800.46
407.77	924.51
407.96	973.66
408.15	896.43
408.34	898.77
408.54	1015.79
408.73	933.87
408.92	959.62
409.11	1015.79
409.30	980.68
409.49	1001.75
409.68	1043.88
409.87	980.68
410.07	917.49
410.26	1046.22
410.45	1053.24
410.64	1093.03
410.83	1062.60
411.02	1118.78
411.21	1146.86
411.40	1107.07
411.59	1217.08
411.78	1121.12
411.98	1097.71
412.17	1235.80
412.36	1184.31
412.55	1207.72
412.74	1380.92
412.93	1343.47
413.12	1313.04
413.31	1350.49
413.50	1280.27
413.69	1348.15
413.88	1409.00
414.07	1266.23
414.26	1364.53
414.45	1390.28
414.64	1474.54
414.83	1430.07
415.02	1310.70
415.22	1514.33
415.41	1516.67
415.60	1427.73
415.79	1472.20
415.98	1509.65
416.17	1596.25
416.36	1579.86
416.55	1607.95
416.74	1570.50
416.93	1671.14
417.12	1668.80
417.31	1636.03
417.50	1671.14
417.69	1645.40
417.88	1734.34
418.07	1748.38
418.26	1734.34
418.45	1795.19
418.64	1902.86
418.83	1699.23
419.02	1785.83
419.21	1797.53
419.39	1753.06
419.58	1834.98
419.77	1909.88
419.96	1856.04
420.15	1961.37
420.34	1741.36
420.53	1921.58
420.72	2010.52
420.91	1846.68
421.10	1912.22
421.29	1940.30
421.48	1916.90
421.67	2045.63
421.86	2008.18
422.05	2010.52
422.24	2057.33
422.43	1963.71
422.61	1973.07
422.80	1956.69
422.99	2059.67
423.18	2015.20
423.37	2097.12
423.56	2108.82
423.75	2045.63
423.94	2017.54
424.13	1888.81
424.32	2026.90
424.50	2083.08
424.69	2143.93
424.88	2174.36
425.07	2099.46
425.26	2054.99
425.45	2106.48
425.64	2064.35
425.83	2038.61
426.01	2150.95
426.20	2139.25
426.39	2087.76
426.58	2118.18
426.77	2017.54
426.96	2195.42
427.15	2127.55
427.33	2122.87
427.52	2214.15
427.71	2197.76
427.90	2352.24
428.09	2167.34
428.28	2169.68
428.46	2340.54
428.65	2225.85
428.84	2331.17
429.03	2466.92
429.22	2146.27
429.40	2375.64
429.59	2328.83
429.78	2284.36
429.97	2314.79
430.16	2253.94
430.34	2410.75
430.53	2396.71
430.72	2270.32
430.91	2331.17
431.10	2253.94
431.28	2441.18
431.47	2499.69
431.66	2476.29
431.85	2476.29
432.03	2562.89
432.22	2583.95
432.41	2511.39
432.60	2462.24
432.79	2579.27
432.97	2640.12
433.16	2464.58
433.35	2555.86
433.54	2574.59
433.72	2635.44
433.91	2626.08
434.10	2572.25
434.28	2654.17
434.47	2661.19
434.66	2644.81
434.85	2778.22
435.03	2834.39
435.22	2862.48
435.41	3166.74
435.59	3131.64
435.78	3005.25
435.97	2951.42
436.16	2846.09
436.34	2799.28
436.53	2813.32
436.72	2738.43
436.90	2773.53
437.09	2799.28
437.28	2759.49
437.46	2813.32
437.65	2869.50
437.84	2892.90
438.02	2965.46
438.21	2745.45
438.40	2785.24
438.58	3030.99
438.77	3030.99
438.96	2906.95
439.14	3080.14
439.33	3098.87
439.52	3061.42
439.70	3028.65
439.89	3026.31
440.08	3173.77
440.26	3169.09
440.45	3131.64
440.63	3236.96
440.82	3232.28
441.01	3183.13
441.19	3286.11
441.38	3304.84
441.57	3300.16
441.75	3375.05
441.94	3492.08
442.12	3382.07
442.31	3538.89
442.50	3438.25
442.68	3459.31
442.87	3349.31
443.05	3485.06
443.24	3538.89
443.43	3440.59
443.61	3466.33
443.80	3571.66
443.98	3417.18
444.17	3353.99
444.35	3496.76
444.54	3700.39
444.73	3588.04
444.91	3557.61
445.10	3618.47
445.28	3564.64
445.47	3506.12
445.65	3492.08
445.84	3510.80
446.02	3641.87
446.21	3616.13
446.39	3445.27
446.58	3545.91
446.77	3702.73
446.95	3597.40
447.14	3662.94
447.32	3646.55
447.51	3606.77
447.69	3714.43
447.88	3644.21
448.06	3662.94
448.25	3623.15
448.43	3571.66
448.62	3655.92
448.80	3590.38
448.99	3674.64
449.17	3822.09
449.36	3644.21
449.54	3976.57
449.73	3992.95
449.91	3981.25
450.10	3824.44
450.28	3906.35
450.46	3978.91
450.65	3866.56
450.83	4021.04
451.02	4004.66
451.20	3918.06
451.39	3927.42
451.57	3889.97
451.76	3873.59
451.94	3864.22
452.13	3913.38
452.31	3974.23
452.49	3836.14
452.68	4065.51
452.86	3978.91
453.05	4044.45
453.23	4011.68
453.42	4142.75
453.60	3929.76
453.78	4039.76
453.97	4018.70
454.15	4138.07
454.34	3990.61
454.52	4196.58
454.70	4088.92
454.89	4147.43
455.07	4273.82
455.26	4212.96
455.44	4353.40
455.62	4166.15
455.81	4241.05
455.99	4355.74
456.17	4248.07
456.36	4294.88
456.54	4411.91
456.73	4447.02
456.91	4449.36
457.09	4379.14
457.28	4514.89
457.46	4294.88
457.64	4379.14
457.83	4444.68
458.01	4416.59
458.19	4486.81
458.38	4414.25
458.56	4608.51
458.74	4589.79
458.93	4631.92
459.11	4514.89
459.29	4505.53
459.48	4629.58
459.66	4599.15
459.84	4636.60
460.03	4732.56
460.21	4767.67
460.39	4671.71
460.57	4554.68
460.76	4655.33
460.94	4753.63
461.12	4704.48
461.31	4865.97
461.49	4812.14
461.67	4793.42
461.85	4945.55
462.04	4821.50
462.22	4947.89
462.40	5060.24
462.59	4954.91
462.77	4861.29
462.95	4947.89
463.13	4978.32
463.32	4975.98
463.50	4978.32
463.68	4966.62
463.86	4952.57
464.05	4870.65
464.23	4870.65
464.41	5034.49
464.59	4863.63
464.78	5331.74
464.96	4987.68
465.14	4891.72
465.32	5165.56
465.50	5125.77
465.69	5160.88
465.87	5050.88
466.05	5130.45
466.23	5205.35
466.41	5181.95
466.60	5359.83
466.78	5205.35
466.96	5121.09
467.14	5060.24
467.32	5137.48
467.51	5174.92
467.69	5043.85
467.87	5191.31
468.05	5254.50
468.23	5245.14
468.41	5245.14
468.60	5207.69
468.78	5380.89
468.96	5259.18
469.14	5390.25
469.32	5502.60
469.50	5336.42
469.69	5334.08
469.87	5671.12
470.05	5406.64
470.23	5497.92
470.41	5579.84
470.59	5495.58
470.77	5495.58
470.95	5687.50
471.14	5612.60
471.32	5568.13
471.50	5757.72
471.68	5720.27
471.86	5680.48
472.04	5724.95
472.22	6031.56
472.40	5675.80
472.58	5762.40
472.77	5881.77
472.95	5987.09
473.13	6155.61
473.31	5954.32
473.49	5963.68
473.67	5973.05
473.85	5968.37
474.03	5954.32
474.21	6129.86
474.39	6162.63
474.57	6132.20
474.75	6111.14
474.93	6235.19
475.12	6239.87
475.30	6368.60
475.48	6282.00
475.66	6258.59
475.84	6270.30
476.02	6410.73
476.20	6368.60
476.38	6647.12
476.56	6834.36
476.74	6626.06
476.92	6600.31
477.10	6619.04
477.28	6726.70
477.46	6483.28
477.64	6829.68
477.82	6946.71
478.00	6925.65
478.18	6991.18
478.36	7014.59
478.54	6949.05
478.72	7178.42
478.90	7204.17
479.08	7440.56
479.26	7414.82
479.44	7438.22
479.62	7506.10
479.80	7449.93
479.98	7454.61
480.16	7470.99
480.34	7679.30
480.52	7578.65
480.70	7768.24
480.88	7705.04
481.06	7714.41
481.24	7784.62
481.41	8016.33
481.59	8046.76
481.77	8009.31
481.95	8039.74
482.13	8234.00
482.31	8126.34
482.49	8222.30
482.67	8428.27
482.85	8365.07
483.03	8489.12
483.21	8538.27
483.39	8718.50
483.57	8638.92
483.74	8739.56
483.92	8950.21
484.10	8713.81
484.28	9092.98
484.46	9280.22
484.64	9238.09
484.82	9027.45
485.00	9219.37
485.18	9385.55
485.35	9195.96
485.53	9371.50
485.71	9462.79
485.89	9458.10
486.07	9682.80
486.25	9696.84
486.43	9830.25
486.61	9745.99
486.78	9951.96
486.96	9951.96
487.14	10207.08
487.32	9984.73
487.50	10106.43
487.68	10270.27
487.85	10267.93
488.03	10759.44
488.21	10569.86
488.39	10373.25
488.57	10785.19
488.75	10714.97
488.92	10927.96
489.10	10635.39
489.28	10820.30
489.46	11084.78
489.64	11042.65
489.81	11215.85
489.99	11407.77
490.17	11241.59
490.35	11667.57
490.53	11513.10
490.70	11798.64
490.88	11836.09
491.06	11873.54
491.24	11779.92
491.41	11894.60
491.59	11737.79
491.77	11833.75
491.95	12002.27
492.13	12196.53
492.30	12222.28
492.48	12332.28
492.66	12135.68
492.84	12262.07
493.01	12432.93
493.19	12795.71
493.37	12940.82
493.54	12863.58
493.72	12744.22
493.90	13025.08
494.08	13046.15
494.25	12971.25
494.43	12947.84
494.61	13366.80
494.79	13130.41
494.96	13355.10
495.14	13488.51
495.32	13537.66
495.49	13507.23
495.67	13507.23
495.85	13741.29
496.02	13458.08
496.20	13752.99
496.38	13912.14
496.55	13891.08
496.73	14251.52
496.91	13937.89
497.09	14228.12
497.26	14153.22
497.44	14370.89
497.62	14209.39
497.79	14277.27
497.97	14258.54
498.14	14728.99
498.32	14813.25
498.50	14876.44
498.67	14684.52
498.85	14883.47
499.03	14848.36
499.20	14939.64
499.38	15164.33
499.56	15115.18
499.73	15030.92
499.91	15510.73
500.08	15445.20
500.26	15253.27
500.44	15555.20
500.61	15524.77
500.79	15398.38
500.97	15470.94
501.14	15796.28
501.32	15667.55
501.49	15756.49
501.67	15339.87
501.84	15817.34
502.02	15908.62
502.20	16060.76
502.37	15920.32
502.55	15978.84
502.72	16016.29
502.90	16210.55
503.07	15709.68
503.25	16402.47
503.43	16238.64
503.60	16372.05
503.78	16142.67
503.95	16215.23
504.13	16458.65
504.30	16500.78
504.48	16662.27
504.65	16594.40
504.83	16610.78
505.01	16835.47
505.18	16718.45
505.36	17142.08
505.53	16786.32
505.71	16879.94
505.88	16938.46
506.06	16893.99
506.23	17062.51
506.41	17282.52
506.58	17263.79
506.76	17282.52
506.93	17074.21
507.11	17247.41
507.28	17378.48
507.46	17614.87
507.63	17518.91
507.81	17806.80
507.98	17626.57
508.16	17341.03
508.33	17699.13
508.50	17867.65
508.68	17844.24
508.85	17949.57
509.03	18033.83
509.20	17951.91
509.38	17710.83
509.55	18134.47
509.73	18143.83
509.90	18518.32
510.08	18452.78
510.25	18209.37
510.42	18530.02
510.60	18513.64
510.77	18558.11
510.95	18562.79
511.12	18305.33
511.30	18647.05
511.47	19009.83
511.64	18853.02
511.82	18888.12
511.99	18810.89
512.17	19084.73
512.34	18927.91
512.51	18843.65
512.69	19126.86
512.86	19176.01
513.04	19630.07
513.21	19168.99
513.38	19372.61
513.56	19470.92
513.73	19360.91
513.90	19353.89
514.08	19421.77
514.25	19850.08
514.43	19573.90
514.60	19660.50
514.77	19499.00
514.95	19920.30
515.12	19693.27
515.29	19702.63
515.47	20088.82
515.64	20039.67
515.81	20269.04
515.99	20095.84
516.16	20362.66
516.33	20372.02
516.51	20201.16
516.68	20116.90
516.85	20252.66
517.03	20493.73
517.20	20042.01
517.37	20390.75
517.54	20856.51
517.72	20334.57
517.89	20187.12
518.06	20346.28
518.24	20676.29
518.41	20318.19
518.58	20287.76
518.75	20580.33
518.93	20882.26
519.10	20666.93
519.27	20875.24
519.45	20900.98
519.62	20568.63
519.79	20760.55
519.96	20924.39
520.14	21003.97
520.31	21151.42
520.48	21364.41
520.65	21088.23
520.83	21331.64
521.00	21254.40
521.17	20919.71
521.34	21242.70
521.52	21549.31
521.69	21568.04
521.86	21902.73
522.03	21661.66
522.20	21844.22
522.38	21425.26
522.55	21757.62
522.72	21743.58
522.89	21701.45
523.07	21928.48
523.24	21912.10
523.41	22066.57
523.58	21774.00
523.75	22071.25
523.92	21830.18
524.10	22015.08
524.27	22057.21
524.44	21986.99
524.61	22466.80
524.78	22321.69
524.96	22405.95
525.13	22441.06
525.30	22504.25
525.47	22642.34
525.64	22651.70
525.81	22450.42
525.98	22813.20
526.16	22871.72
526.33	22586.17
526.50	22834.27
526.67	22511.27
526.84	22487.87
527.01	22855.33
527.18	22836.61
527.36	22871.72
527.53	22625.96
527.70	23220.45
527.87	23171.30
528.04	23194.71
528.21	22778.09
528.38	23108.11
528.55	23461.53
528.72	23068.32
528.89	23178.33
529.07	23339.82
529.24	23131.51
529.41	23454.51
529.58	23400.68
529.75	23133.86
529.92	23328.12
530.09	23246.20
530.26	23438.12
530.43	23590.26
530.60	23686.22
530.77	23639.41
530.94	23789.20
531.11	23309.40
531.28	23714.31
531.46	23536.43
531.63	23908.57
531.80	23875.80
531.97	24264.33
532.14	23854.74
532.31	23929.64
532.48	23702.61
532.65	23955.38
532.82	23836.02
532.99	24116.88
533.16	24032.62
533.33	23833.68
533.50	24236.25
533.67	24460.94
533.84	24238.59
534.01	24025.60
534.18	24065.39
534.35	24451.58
534.52	24304.12
534.69	24348.59
534.86	24449.24
535.03	24580.31
535.20	24723.08
535.37	24552.22
535.54	24400.08
535.71	24458.60
535.88	24514.77
536.05	24482.00
536.22	24807.34
536.38	25006.28
536.55	24814.36
536.72	24783.93
536.89	24819.04
537.06	24943.09
537.23	24823.72
537.40	25095.22
537.57	24910.32
537.74	24954.79
537.91	25266.08
538.08	25109.27
538.25	25448.64
538.42	24783.93
538.59	25179.48
538.75	24893.94
538.92	25163.10
539.09	25259.06
539.26	25074.16
539.43	25305.87
539.60	25378.43
539.77	25261.40
539.94	25607.80
540.11	25701.42
540.28	25778.66
540.44	25568.01
540.61	25429.92
540.78	25909.73
540.95	25956.54
541.12	26080.59
541.29	25603.12
541.46	25668.66
541.62	25970.58
541.79	25993.99
541.96	25781.00
542.13	25797.38
542.30	26113.36
542.47	26387.20
542.63	26462.10
542.80	26267.83
542.97	26448.05
543.14	26717.22
543.31	26497.20
543.48	26225.70
543.64	26625.93
543.81	26656.36
543.98	26874.03
544.15	26487.84
544.32	26586.15
544.48	26857.65
544.65	26384.86
544.82	26548.70
544.99	26356.77
545.16	26984.04
545.32	26759.34
545.49	27475.55
545.66	27798.54
545.83	28027.92
546.00	27962.38
546.16	26993.40
546.33	26972.33
546.50	26703.17
546.67	26373.16
546.83	26363.79
547.00	27058.93
547.17	26782.75
547.34	26684.45
547.50	27080.00
547.67	26852.97
547.84	26878.71
548.00	26986.38
548.17	26806.16
548.34	27065.96
548.51	27206.39
548.67	27281.28
548.84	27115.11
549.01	26944.25
549.18	27033.19
549.34	26876.37
549.51	26913.82
549.68	26658.70
549.84	27234.47
550.01	26616.57
550.18	26890.41
550.34	27140.85
550.51	26782.75
550.68	27208.73
550.84	26829.56
551.01	27197.02
551.18	27391.29
551.34	27096.38
551.51	27220.43
551.68	27094.04
551.84	26815.52
552.01	27112.77
552.18	27264.90
552.34	27204.05
552.51	27042.55
552.68	27190.00
552.84	26923.18
553.01	27344.48
553.18	27194.68
553.34	27470.87
553.51	27398.31
553.67	27215.75
553.84	27772.80
554.01	27838.33
554.17	27349.16
554.34	27639.39
554.51	27487.25
554.67	27660.45
554.84	27576.19
555.00	27161.92
555.17	27639.39
555.33	27693.22
555.50	27697.90
555.67	27426.40
555.83	27398.31
556.00	27590.24
556.16	27592.58
556.33	27679.18
556.50	27697.90
556.66	27733.01
556.83	27648.75
556.99	27955.36
557.16	27873.44
557.32	27718.96
557.49	27707.26
557.65	27615.98
557.82	27662.79
557.98	27833.65
558.15	27784.50
558.32	28088.77
558.48	27651.09
558.65	27927.27
558.81	27793.86
558.98	27779.82
559.14	28084.09
559.31	27686.20
559.47	27974.08
559.64	27812.59
559.80	27957.70
559.97	28142.60
560.13	27960.04
560.30	27866.42
560.46	27735.35
560.63	28161.33
560.79	27887.48
560.96	27721.30
561.12	28226.86
561.29	28137.92
561.45	27969.40
561.61	28341.55
561.78	27843.01
561.94	28144.94
562.11	28173.03
562.27	28236.22
562.44	28147.28
562.60	27917.91
562.77	28243.24
562.93	27838.33
563.10	28236.22
563.26	27910.89
563.42	28386.02
563.59	28348.57
563.75	28287.71
563.92	28299.42
564.08	28423.47
564.24	28170.69
564.41	28058.34
564.57	28030.26
564.74	28322.82
564.90	28233.88
565.07	28210.48
565.23	28259.63
565.39	28261.97
565.56	28205.80
565.72	27894.50
565.88	28144.94
566.05	28027.92
566.21	27800.88
566.38	28357.93
566.54	28161.33
566.70	28257.29
566.87	28500.70
567.03	28278.35
567.19	28725.39
567.36	28383.68
567.52	28161.33
567.68	28414.10
567.85	28500.70
568.01	28334.53
568.17	28439.85
568.34	28205.80
568.50	28294.74
568.66	28680.92
568.83	28760.50
568.99	28264.31
569.15	28423.47
569.32	28311.12
569.48	28198.77
569.64	28432.83
569.81	28599.01
569.97	28526.45
570.13	28379.00
570.30	28437.51
570.46	28357.93
570.62	28545.17
570.78	28510.07
570.95	28144.94
571.11	28093.45
571.27	28163.67
571.43	28140.26
571.60	28617.73
571.76	28596.67
571.92	28168.35
572.09	28376.66
572.25	28797.95
572.41	28421.13
572.57	28297.08
572.74	28594.32
572.90	28297.08
573.06	28524.11
573.22	28390.70
573.38	28545.17
573.55	28287.71
573.71	28671.56
573.87	28631.77
574.03	28809.65
574.20	28173.03
574.36	28135.58
574.52	28184.73
574.68	28538.15
574.84	28526.45
575.01	28371.97
575.17	28542.83
575.33	28287.71
575.49	28797.95
575.65	28758.16
575.82	28723.05
575.98	28734.76
576.14	28528.79
576.30	28863.49
576.46	28442.19
576.62	28552.20
576.79	28615.39
576.95	28290.06
577.11	28491.34
577.27	28882.21
577.43	28634.11
577.59	28680.92
577.75	28849.44
577.92	28528.79
578.08	28596.67
578.24	28411.76
578.40	28407.08
578.56	28788.59
578.72	28781.57
578.88	29076.48
579.04	29099.88
579.21	29090.52
579.37	28589.64
579.53	28755.82
579.69	28648.16
579.85	28613.05
580.01	28521.77
580.17	28533.47
580.33	28926.68
580.49	28549.85
580.65	28905.62
580.82	28320.48
580.98	28547.51
581.14	28631.77
581.30	28489.00
581.46	28137.92
581.62	28535.81
581.78	28360.27
581.94	28297.08
582.10	28507.72
582.26	28631.77
582.42	28622.41
582.58	28931.36
582.74	28795.61
582.90	28624.75
583.06	28767.52
583.22	28453.89
583.38	28769.86
583.54	28711.35
583.70	28933.70
583.86	28772.21
584.02	28374.31
584.18	28842.42
584.34	28957.11
584.50	28819.02
584.66	28524.11
584.82	28421.13
584.98	28802.63
585.14	28414.10
585.30	28397.72
585.46	28697.31
585.62	28685.61
585.78	28465.60
585.94	28519.43
586.10	28535.81
586.26	28479.64
586.42	28793.27
586.58	28996.90
586.74	28669.22
586.90	28369.63
587.06	28802.63
587.22	28779.23
587.38	28610.71
587.54	29027.32
587.70	28886.89
587.86	28797.95
588.02	28673.90
588.18	28966.47
588.34	28823.70
588.49	28582.62
588.65	28428.15
588.81	28938.38
588.97	28732.42
589.13	28800.29
589.29	28889.23
589.45	28762.84
589.61	29008.60
589.77	28985.19
589.93	28769.86
590.08	28842.42
590.24	28900.94
590.40	29249.67
590.56	28877.53
590.72	28987.53
590.88	28694.97
591.04	28692.63
591.20	28973.49
591.35	29069.45
591.51	29340.96
591.67	28989.88
591.83	29106.90
591.99	28741.78
