SpectraSuite Data File
++++++++++++++++++++++++++++++++++++
Date: Fri Oct 04 11:39:16 GMT-05:00 2013
User: price-jones
Dark Spectrum Present: No
Reference Spectrum Present: No
Number of Sampled Component Spectra: 1
Spectrometers: USB2+H05261
Integration Time (usec): 100000 (USB2+H05261)
Spectra Averaged: 1 (USB2+H05261)
Boxcar Smoothing: 0 (USB2+H05261)
Correct for Electrical Dark: No (USB2+H05261)
Strobe/Lamp Enabled: No (USB2+H05261)
Correct for Detector Non-linearity: No (USB2+H05261)
Correct for Stray Light: No (USB2+H05261)
Number of Pixels in Processed Spectrum: 2048
>>>>>Begin Processed Spectral Data<<<<<
365.73	28.09
365.92	28.09
366.12	28.09
366.32	0.00
366.52	0.00
366.72	0.00
366.91	0.00
367.11	0.00
367.31	0.00
367.51	0.00
367.70	0.00
367.90	0.00
368.10	0.00
368.30	23.41
368.49	0.00
368.69	0.00
368.89	0.00
369.09	0.00
369.28	0.00
369.48	0.00
369.68	0.00
369.87	25.75
370.07	32.77
370.27	32.77
370.47	60.85
370.66	205.97
370.86	208.31
371.06	280.86
371.25	294.91
371.45	231.71
371.65	313.63
371.84	238.73
372.04	280.86
372.24	266.82
372.44	276.18
372.63	388.53
372.83	346.40
373.03	341.72
373.22	304.27
373.42	304.27
373.62	339.38
373.81	360.44
374.01	444.70
374.21	367.46
374.40	269.16
374.60	308.95
374.79	334.70
374.99	294.91
375.19	409.59
375.38	444.70
375.58	369.80
375.78	374.49
375.97	465.77
376.17	440.02
376.37	395.55
376.56	358.10
376.76	365.12
376.95	306.61
377.15	404.91
377.35	381.51
377.54	409.59
377.74	397.89
377.93	411.93
378.13	353.42
378.33	400.23
378.52	428.32
378.72	461.09
378.91	395.55
379.11	418.96
379.31	437.68
379.50	407.25
379.70	388.53
379.89	381.51
380.09	416.62
380.28	367.46
380.48	444.70
380.68	512.58
380.87	482.15
381.07	498.53
381.26	463.43
381.46	456.40
381.65	433.00
381.85	430.66
382.04	430.66
382.24	500.87
382.43	411.93
382.63	484.49
382.83	395.55
383.02	430.66
383.22	470.45
383.41	461.09
383.61	533.64
383.80	568.75
384.00	498.53
384.19	503.22
384.39	547.69
384.58	498.53
384.78	435.34
384.97	498.53
385.17	404.91
385.36	451.72
385.56	540.66
385.75	507.90
385.95	470.45
386.14	543.00
386.34	550.03
386.53	482.15
386.72	592.16
386.92	540.66
387.11	582.79
387.31	496.19
387.50	582.79
387.70	592.16
387.89	587.47
388.09	538.32
388.28	613.22
388.48	615.56
388.67	599.18
388.86	650.67
389.06	603.86
389.25	650.67
389.45	573.43
389.64	550.03
389.84	589.82
390.03	620.24
390.22	641.31
390.42	685.78
390.61	585.13
390.81	610.88
391.00	667.05
391.19	641.31
391.39	664.71
391.58	634.29
391.78	671.73
391.97	692.80
392.16	709.18
392.36	699.82
392.55	720.88
392.75	688.12
392.94	685.78
393.13	671.73
393.33	641.31
393.52	767.70
393.71	723.23
393.91	730.25
394.10	784.08
394.29	667.05
394.49	763.01
394.68	753.65
394.88	760.67
395.07	851.96
395.26	779.40
395.46	844.93
395.65	795.78
395.84	770.04
396.04	835.57
396.23	793.44
396.42	851.96
396.62	755.99
396.81	805.14
397.00	814.51
397.19	819.19
397.39	842.59
397.58	978.34
397.77	760.67
397.97	800.46
398.16	889.40
398.35	964.30
398.55	800.46
398.74	858.98
398.93	1004.09
399.12	990.05
399.32	954.94
399.51	884.72
399.70	968.98
399.90	1027.50
400.09	943.24
400.28	1020.47
400.47	964.30
400.67	1100.05
400.86	983.02
401.05	978.34
401.24	1064.94
401.44	1088.35
401.63	1025.15
401.82	1069.62
402.01	1074.31
402.21	1053.24
402.40	1121.12
402.59	1013.45
402.78	1184.31
402.97	1123.46
403.17	1170.27
403.36	1212.40
403.55	1060.26
403.74	1228.78
403.93	1252.19
404.13	1184.31
404.32	1317.72
404.51	1217.08
404.70	1287.29
404.89	1233.46
405.09	1235.80
405.28	1217.08
405.47	1261.55
405.66	1261.55
405.85	1245.16
406.05	1329.42
406.24	1352.83
406.43	1390.28
406.62	1291.98
406.81	1441.77
407.00	1441.77
407.20	1394.96
407.39	1528.37
407.58	1460.49
407.77	1385.60
407.96	1516.67
408.15	1430.07
408.34	1460.49
408.54	1504.96
408.73	1514.33
408.92	1495.60
409.11	1558.80
409.30	1514.33
409.49	1511.99
409.68	1511.99
409.87	1446.45
410.07	1511.99
410.26	1570.50
410.45	1643.06
410.64	1612.63
410.83	1643.06
411.02	1685.19
411.21	1802.21
411.40	1713.27
411.59	1762.42
411.78	1774.13
411.98	1703.91
412.17	1778.81
412.36	1827.96
412.55	1842.00
412.74	1881.79
412.93	1912.22
413.12	1760.08
413.31	1923.92
413.50	1916.90
413.69	1994.14
413.88	2054.99
414.07	1975.41
414.26	1980.09
414.45	2118.18
414.64	2115.84
414.83	2197.76
415.02	2104.14
415.22	2239.89
415.41	2218.83
415.60	2057.33
415.79	2221.17
415.98	2230.53
416.17	2312.45
416.36	2239.89
416.55	2333.51
416.74	2328.83
416.93	2406.07
417.12	2230.53
417.31	2434.16
417.50	2394.37
417.69	2459.90
417.88	2380.32
418.07	2427.14
418.26	2394.37
418.45	2410.75
418.64	2464.58
418.83	2560.55
419.02	2560.55
419.21	2675.23
419.39	2691.62
419.58	2649.49
419.77	2560.55
419.96	2677.57
420.15	2799.28
420.34	2705.66
420.53	2616.72
420.72	2703.32
420.91	2703.32
421.10	2623.74
421.29	2775.88
421.48	2677.57
421.67	2822.69
421.86	2836.73
422.05	2785.24
422.24	2750.13
422.43	2806.30
422.61	2750.13
422.80	2892.90
422.99	2841.41
423.18	2906.95
423.37	2850.77
423.56	2895.24
423.75	2862.48
423.94	2869.50
424.13	2693.96
424.32	2789.92
424.50	2867.16
424.69	2953.76
424.88	2965.46
425.07	2911.63
425.26	2883.54
425.45	2930.35
425.64	3030.99
425.83	3009.93
426.01	2972.48
426.20	2841.41
426.39	3094.19
426.58	2923.33
426.77	3075.46
426.96	3028.65
427.15	2939.71
427.33	3000.57
427.52	3014.61
427.71	3019.29
427.90	3119.93
428.09	3070.78
428.28	3239.30
428.46	3171.43
428.65	3269.73
428.84	3325.90
429.03	3206.53
429.22	3105.89
429.40	3236.96
429.59	3375.05
429.78	3136.32
429.97	3115.25
430.16	3145.68
430.34	3255.69
430.53	3314.20
430.72	3370.37
430.91	3321.22
431.10	3222.92
431.28	3368.03
431.47	3456.97
431.66	3419.52
431.85	3410.16
432.03	3452.29
432.22	3508.46
432.41	3398.46
432.60	3501.44
432.79	3440.59
432.97	3480.38
433.16	3576.34
433.35	3566.98
433.54	3466.33
433.72	3562.30
433.91	3637.19
434.10	3590.38
434.28	3726.13
434.47	3634.85
434.66	3700.39
434.85	3712.09
435.03	3784.65
435.22	3880.61
435.41	4149.77
435.59	4124.02
435.78	3974.23
435.97	3868.91
436.16	3878.27
436.34	3943.80
436.53	3929.76
436.72	4081.89
436.90	3742.52
437.09	3990.61
437.28	3836.14
437.46	3875.93
437.65	3901.67
437.84	3985.93
438.02	4032.74
438.21	4093.60
438.40	4002.32
438.58	4219.99
438.77	4203.60
438.96	4035.08
439.14	4248.07
439.33	4173.18
439.52	4271.48
439.70	4203.60
439.89	4365.10
440.08	4262.12
440.26	4379.14
440.45	4327.65
440.63	4416.59
440.82	4407.23
441.01	4479.79
441.19	4631.92
441.38	4615.54
441.57	4456.38
441.75	4601.49
441.94	4690.43
442.12	4767.67
442.31	4807.46
442.50	4819.16
442.68	4711.50
442.87	4683.41
443.05	4908.10
443.24	5046.20
443.43	4779.37
443.61	4894.06
443.80	5074.28
443.98	4777.03
444.17	4730.22
444.35	4971.30
444.54	4950.23
444.73	4844.91
444.91	4917.47
445.10	5015.77
445.28	4922.15
445.47	4938.53
445.65	4936.19
445.84	4966.62
446.02	4997.04
446.21	4851.93
446.39	4891.72
446.58	5015.77
446.77	4973.64
446.95	4980.66
447.14	4896.40
447.32	5146.84
447.51	5022.79
447.69	5170.24
447.88	5186.63
448.06	5114.07
448.25	5093.01
448.43	5034.49
448.62	5013.43
448.80	5069.60
448.99	5191.31
449.17	5207.69
449.36	5139.82
449.54	5198.33
449.73	5282.59
449.91	5338.76
450.10	5228.76
450.28	5303.65
450.46	5261.52
450.65	5397.28
450.83	5504.94
451.02	5430.04
451.20	5486.22
451.39	5593.88
451.57	5397.28
451.76	5301.31
451.94	5511.96
452.13	5554.09
452.31	5518.98
452.49	5411.32
452.68	5600.90
452.86	5617.29
453.05	5654.73
453.23	5600.90
453.42	5640.69
453.60	5521.32
453.78	5621.97
453.97	5544.73
454.15	5727.29
454.34	5741.33
454.52	5738.99
454.70	5607.92
454.89	5902.83
455.07	5708.57
455.26	5858.36
455.44	5839.64
455.62	5818.57
455.81	5909.85
455.99	5940.28
456.17	5858.36
456.36	5944.96
456.54	5846.66
456.73	5865.38
456.91	6146.25
457.09	6129.86
457.28	6157.95
457.46	6038.58
457.64	6146.25
457.83	6307.74
458.01	6157.95
458.19	6340.51
458.38	6265.61
458.56	6476.26
458.74	6441.15
458.93	6363.92
459.11	6457.54
459.29	6209.44
459.48	6298.38
459.66	6497.33
459.84	6565.20
460.03	6619.04
460.21	6408.39
460.39	6387.32
460.57	6270.30
460.76	6628.40
460.94	6703.29
461.12	6555.84
461.31	6516.05
461.49	6574.56
461.67	6729.04
461.85	6792.23
462.04	6850.75
462.22	7255.66
462.40	6834.36
462.59	6780.53
462.77	6897.56
462.95	6733.72
463.13	6754.79
463.32	6939.69
463.50	6843.73
463.68	6930.33
463.86	6965.43
464.05	6935.01
464.23	6853.09
464.41	7063.74
464.59	7059.06
464.78	7159.70
464.96	6944.37
465.14	6963.09
465.32	7021.61
465.50	7225.23
465.69	6991.18
465.87	7037.99
466.05	7007.56
466.23	7265.02
466.41	7276.73
466.60	7492.05
466.78	7311.83
466.96	7258.00
467.14	7194.81
467.32	7410.14
467.51	7506.10
467.69	7253.32
467.87	7290.77
468.05	7461.63
468.23	7265.02
468.41	7398.43
468.60	7475.67
468.78	7571.63
468.96	7365.67
469.14	7466.31
469.32	7515.46
469.50	7386.73
469.69	7545.89
469.87	7667.60
470.05	7812.71
470.23	7693.34
470.41	7555.25
470.59	7953.14
470.77	7695.68
470.95	7716.75
471.14	7805.69
471.32	7864.20
471.50	8121.66
471.68	7957.82
471.86	7934.42
472.04	8203.58
472.22	8088.89
472.40	7929.74
472.58	8133.36
472.77	8205.92
472.95	8390.82
473.13	8479.76
473.31	8306.56
473.49	8234.00
473.67	8379.12
473.85	8482.10
474.03	8477.42
474.21	8367.42
474.39	8664.66
474.57	8690.41
474.75	8753.60
474.93	8765.31
475.12	8762.97
475.30	8842.54
475.48	8858.93
475.66	8879.99
475.84	8837.86
476.02	8957.23
476.20	9109.36
476.38	9224.05
476.56	9142.13
476.74	9252.14
476.92	9245.12
477.10	9397.25
477.28	9504.92
477.46	9401.93
477.64	9731.95
477.82	9818.55
478.00	9666.41
478.18	9832.59
478.36	9921.53
478.54	10197.71
478.72	10338.15
478.90	10071.33
479.08	10420.06
479.26	10272.61
479.44	10356.87
479.62	10541.77
479.80	10305.38
479.98	10480.92
480.16	10487.94
480.34	10654.12
480.52	10846.04
480.70	10902.22
480.88	10736.04
481.06	10937.32
481.24	10778.17
481.41	11304.79
481.59	11428.84
481.77	11644.17
481.95	11520.12
482.13	11665.23
482.31	11545.86
482.49	11747.15
482.67	11833.75
482.85	11962.48
483.03	12013.97
483.21	12322.92
483.39	12325.26
483.57	12201.21
483.74	12299.52
483.92	12390.80
484.10	12821.45
484.28	12365.05
484.46	12929.12
484.64	13254.45
484.82	12915.08
485.00	13163.17
485.18	13132.75
485.35	13158.49
485.53	13369.14
485.71	13406.59
485.89	13610.22
486.07	13472.12
486.25	13771.71
486.43	13448.72
486.61	14127.47
486.78	14001.08
486.96	14146.20
487.14	14408.34
487.32	14284.29
487.50	14197.69
487.68	14473.87
487.85	14668.14
488.03	15124.54
488.21	15253.27
488.39	15227.53
488.57	15335.19
488.75	15192.42
488.92	15702.65
489.10	15800.96
489.28	15599.67
489.46	15761.17
489.64	15758.83
489.81	16133.31
489.99	15976.50
490.17	16198.85
490.35	16388.43
490.53	16615.46
490.70	16755.90
490.88	16641.21
491.06	16978.25
491.24	16606.10
491.41	17390.18
491.59	17041.44
491.77	16980.59
491.95	17231.02
492.13	17549.34
492.30	17561.04
492.48	17387.84
492.66	17919.14
492.84	17582.10
493.01	17895.74
493.19	17879.35
493.37	18239.79
493.54	18223.41
493.72	18230.43
493.90	18366.18
494.08	18412.99
494.25	18911.53
494.43	18927.91
494.61	18862.38
494.79	19023.87
494.96	19084.73
495.14	19131.54
495.32	19318.78
495.49	19183.03
495.67	19271.97
495.85	19714.33
496.02	19953.07
496.20	19838.38
496.38	19782.21
496.55	19761.14
496.73	20376.70
496.91	20243.29
497.09	20489.05
497.26	20606.08
497.44	20563.95
497.62	20247.97
497.79	20828.43
497.97	20943.11
498.14	20840.13
498.32	21139.72
498.50	21202.91
498.67	21350.37
498.85	21614.85
499.03	21074.18
499.20	21366.75
499.38	21645.27
499.56	21771.66
499.73	22113.38
499.91	22176.58
500.08	22045.51
500.26	21834.86
500.44	21947.20
500.61	22038.48
500.79	22012.74
500.97	22707.88
501.14	22925.55
501.32	23063.64
501.49	22843.63
501.67	22661.07
501.84	22834.27
502.02	22586.17
502.20	23129.17
502.37	23302.37
502.55	23087.04
502.72	23154.92
502.90	23236.84
503.07	23131.51
503.25	23145.56
503.43	23260.24
503.60	23555.15
503.78	23723.67
503.95	23756.44
504.13	24027.94
504.30	23866.44
504.48	23768.14
504.65	23953.04
504.83	24269.01
505.01	24116.88
505.18	24491.37
505.36	24245.61
505.53	24638.82
505.71	24566.26
505.88	24945.43
506.06	24367.32
506.23	24409.45
506.41	24486.68
506.58	25104.59
506.76	24954.79
506.93	24917.34
507.11	24767.55
507.28	24933.73
507.46	25291.83
507.63	25207.57
507.81	25671.00
507.98	25242.68
508.16	25507.16
508.33	25441.62
508.50	25771.64
508.68	25415.88
508.85	26043.14
509.03	25570.35
509.20	25841.85
509.38	26293.58
509.55	26209.32
509.73	26284.22
509.90	26359.11
510.08	25942.50
510.25	26558.06
510.42	26398.90
510.60	26883.39
510.77	26689.13
510.95	27065.96
511.12	26906.80
511.30	26906.80
511.47	26960.63
511.64	26897.44
511.82	27063.61
511.99	27091.70
512.17	27220.43
512.34	27185.32
512.51	27494.27
512.69	27641.73
512.86	27194.68
513.04	27971.74
513.21	28006.85
513.38	27941.32
513.56	27931.95
513.73	27686.20
513.90	28409.42
514.08	27850.03
514.25	27845.35
514.43	28313.46
514.60	28329.84
514.77	28238.56
514.95	28641.14
515.12	28201.11
515.29	28147.28
515.47	28608.37
515.64	28676.24
515.81	28430.49
515.99	28790.93
516.16	29340.96
516.33	29165.42
516.51	29537.56
516.68	29060.09
516.85	29172.44
517.03	29277.76
517.20	29605.44
517.37	29600.76
517.54	29516.50
517.72	29928.43
517.89	29406.49
518.06	29757.57
518.24	29415.85
518.41	29670.97
518.58	30047.80
518.75	29991.62
518.93	29996.31
519.10	30075.88
519.27	29979.92
519.45	30230.36
519.62	29989.28
519.79	30160.14
519.96	30022.05
520.14	30419.94
520.31	30190.57
520.48	30345.05
520.65	30672.72
520.83	30785.07
521.00	30918.48
521.17	30841.24
521.34	30881.03
521.52	31187.64
521.69	30899.75
521.86	31374.88
522.03	31281.26
522.20	31735.32
522.38	31262.54
522.55	31519.99
522.72	31119.76
522.89	31627.66
523.07	31782.13
523.24	31936.61
523.41	32217.47
523.58	31618.30
523.75	31491.91
523.92	31662.77
524.10	31646.38
524.27	31974.06
524.44	32453.87
524.61	32063.00
524.78	32130.87
524.96	32416.42
525.13	32165.98
525.30	32217.47
525.47	32521.74
525.64	32549.83
525.81	32753.46
525.98	32847.08
526.16	32793.25
526.33	32774.52
526.50	32833.04
526.67	32690.26
526.84	32491.32
527.01	32727.71
527.18	33027.30
527.36	33127.94
527.53	33600.73
527.70	33343.27
527.87	33514.13
528.04	33235.61
528.21	33544.56
528.38	33308.16
528.55	33287.10
528.72	33387.74
528.89	33539.88
529.07	33743.50
529.24	33729.46
529.41	33752.87
529.58	33710.74
529.75	33556.26
529.92	33535.20
530.09	33476.68
530.26	33586.69
530.43	34462.05
530.60	34045.43
530.77	33986.92
530.94	34565.03
531.11	33886.28
531.28	34288.85
531.46	34167.14
531.63	34209.27
531.80	34529.92
531.97	34539.29
532.14	34974.63
532.31	34382.47
532.48	34085.22
532.65	35096.33
532.82	34539.29
532.99	34693.76
533.16	34352.04
533.33	34878.66
533.50	35112.72
533.67	35405.28
533.84	34761.64
534.01	34897.39
534.18	34761.64
534.35	35248.47
534.52	35028.46
534.69	35571.46
534.86	35335.07
535.03	35690.83
535.20	35379.54
535.37	35732.96
535.54	36030.21
535.71	35344.43
535.88	35552.74
536.05	35744.66
536.22	35756.36
536.38	35789.13
536.55	35784.45
536.72	35864.03
536.89	35857.01
537.06	36018.50
537.23	36067.66
537.40	35880.41
537.57	36299.37
537.74	36030.21
537.91	36627.04
538.08	36765.14
538.25	36446.82
538.42	36116.81
538.59	36570.87
538.75	36381.29
538.92	36348.52
539.09	36816.63
539.26	37010.89
539.43	36470.23
539.60	36907.91
539.77	36877.48
539.94	36856.42
540.11	36793.22
540.28	37081.11
540.44	37048.34
540.61	36617.68
540.78	36680.88
540.95	37584.32
541.12	37188.77
541.29	37457.93
541.46	37165.37
541.62	37081.11
541.79	37371.33
541.96	36987.49
542.13	37429.85
542.30	37848.80
542.47	37624.11
542.63	38087.54
542.80	38141.37
542.97	37879.23
543.14	38092.22
543.31	37851.14
543.48	37844.12
543.64	38440.96
543.81	38426.92
543.98	38223.29
544.15	38469.04
544.32	38590.75
544.48	38536.92
544.65	38164.78
544.82	38071.15
544.99	37879.23
545.16	38202.22
545.32	38113.28
545.49	38639.90
545.66	39480.16
545.83	39742.30
546.00	39089.29
546.16	39105.67
546.33	37989.24
546.50	38541.60
546.67	38939.49
546.83	37883.91
547.00	38433.94
547.17	38731.18
547.34	38735.87
547.50	38607.14
547.67	39129.08
547.84	38850.55
548.00	38990.98
548.17	39402.92
548.34	38815.44
548.51	39433.35
548.67	39594.84
548.84	39573.78
549.01	39157.16
549.18	39012.05
549.34	39098.65
549.51	38981.62
549.68	39428.66
549.84	39313.98
550.01	39475.48
550.18	39461.43
550.34	39470.79
550.51	39845.28
550.68	39213.34
550.84	39082.27
551.01	39669.74
551.18	39625.27
551.34	39070.56
551.51	39206.31
551.68	39395.90
551.84	39693.15
552.01	39693.15
552.18	40184.66
552.34	39339.72
552.51	39847.62
552.68	39180.57
552.84	39999.76
553.01	39945.92
553.18	39765.70
553.34	39927.20
553.51	39882.73
553.67	40212.74
553.84	40437.44
554.01	40376.58
554.17	39798.47
554.34	40011.46
554.51	39775.06
554.67	39936.56
554.84	40187.00
555.00	40116.78
555.17	39899.11
555.33	40381.26
555.50	40786.18
555.67	40701.92
555.83	40264.24
556.00	40545.10
556.16	40568.51
556.33	40524.04
556.50	40165.93
556.66	40847.03
556.83	40397.65
556.99	40926.61
557.16	41158.32
557.32	40973.42
557.49	40456.16
557.65	40734.68
557.82	40893.84
557.98	40100.40
558.15	40610.64
558.32	40858.73
558.48	40498.29
558.65	41017.89
558.81	41254.28
558.98	40844.69
559.14	40989.80
559.31	40830.65
559.47	40343.81
559.64	40950.01
559.80	41205.13
559.97	41319.82
560.13	40959.38
560.30	41345.56
560.46	41198.11
560.63	41263.64
560.79	41497.70
560.96	41420.46
561.12	40912.56
561.29	40706.60
561.45	40980.44
561.61	41284.71
561.78	41263.64
561.94	41008.53
562.11	41333.86
562.27	41053.00
562.44	40989.80
562.60	41305.77
562.77	41385.35
562.93	41277.69
563.10	41411.10
563.26	41083.42
563.42	41429.82
563.59	41556.21
563.75	41153.64
563.92	41411.10
564.08	41684.94
564.24	41188.75
564.41	41329.18
564.57	41525.78
564.74	41429.82
564.90	41923.68
565.07	41731.75
565.23	41696.64
565.39	41968.15
565.56	41694.30
565.72	41893.25
565.88	41961.12
566.05	41378.33
566.21	41769.20
566.38	41303.43
566.54	41741.11
566.70	42190.50
566.87	42218.58
567.03	42019.64
567.19	42237.31
567.36	41546.85
567.52	41558.55
567.68	42000.91
567.85	41642.81
568.01	41895.59
568.17	41551.53
568.34	42017.30
568.50	42089.85
568.66	42103.90
568.83	41668.56
568.99	42335.61
569.15	42014.96
569.32	41743.45
569.48	41715.37
569.64	41525.78
569.81	41701.32
569.97	41696.64
570.13	41958.78
570.30	41853.46
570.46	41895.59
570.62	41823.03
570.78	42040.70
570.95	41928.36
571.11	41982.19
571.27	41940.06
571.43	41778.56
571.60	41818.35
571.76	42082.83
571.92	42810.74
572.09	42955.85
572.25	42380.08
572.41	41621.75
572.57	41921.34
572.74	41977.51
572.90	41996.23
573.06	42033.68
573.22	42281.78
573.38	42485.40
573.55	42075.81
573.71	42756.91
573.87	42546.26
574.03	42143.69
574.20	42700.73
574.36	42099.22
574.52	42124.96
574.68	42026.66
574.84	42347.31
575.01	41930.70
575.17	42302.84
575.33	42351.99
575.49	41794.95
575.65	42534.56
575.82	42375.40
575.98	42225.60
576.14	42770.95
576.30	42887.98
576.46	42127.30
576.62	42073.47
576.79	42426.89
576.95	42567.32
577.11	42384.76
577.27	42501.79
577.43	42307.52
577.59	42422.21
577.75	42176.45
577.92	42071.13
578.08	42288.80
578.24	42031.34
578.40	42272.42
578.56	42064.11
578.72	42742.86
578.88	43210.97
579.04	42841.17
579.21	42583.71
579.37	42916.06
579.53	42916.06
579.69	42525.19
579.85	42349.65
580.01	42829.46
580.17	41855.80
580.33	42541.58
580.49	42218.58
580.65	42841.17
580.82	42579.03
580.98	42204.54
581.14	42705.41
581.30	42576.69
581.46	42490.09
581.62	42801.38
581.78	42078.15
581.94	42777.97
582.10	42232.63
582.26	42733.50
582.42	42660.94
582.58	43061.18
582.74	42499.45
582.90	42555.62
583.06	42752.23
583.22	42738.18
583.38	43164.16
583.54	42728.82
583.70	42225.60
583.86	43246.08
584.02	42501.79
584.18	43000.32
584.34	42939.47
584.50	42883.30
584.66	42887.98
584.82	42653.92
584.98	42829.46
585.14	42721.80
585.30	42572.00
585.46	42536.90
585.62	42792.01
585.78	42740.52
585.94	42536.90
586.10	42532.22
586.26	42780.31
586.42	43075.22
586.58	43014.37
586.74	42895.00
586.90	42520.51
587.06	42649.24
587.22	42604.77
587.38	42609.45
587.54	42995.64
587.70	43611.20
587.86	43049.47
588.02	43143.09
588.18	43400.55
588.34	42792.01
588.49	43161.82
588.65	42974.58
588.81	43274.16
588.97	42841.17
589.13	43056.50
589.29	42925.42
589.45	42635.20
589.61	43049.47
589.77	43253.10
589.93	43292.89
590.08	43115.01
590.24	43283.53
590.40	43632.27
590.56	43318.64
590.72	42983.94
590.88	42745.20
591.04	43131.39
