SpectraSuite Data File
++++++++++++++++++++++++++++++++++++
Date: Fri Oct 04 11:39:14 GMT-05:00 2013
User: price-jones
Dark Spectrum Present: No
Reference Spectrum Present: No
Number of Sampled Component Spectra: 1
Spectrometers: USB2+H05261
Integration Time (usec): 100000 (USB2+H05261)
Spectra Averaged: 1 (USB2+H05261)
Boxcar Smoothing: 0 (USB2+H05261)
Correct for Electrical Dark: No (USB2+H05261)
Strobe/Lamp Enabled: No (USB2+H05261)
Correct for Detector Non-linearity: No (USB2+H05261)
Correct for Stray Light: No (USB2+H05261)
Number of Pixels in Processed Spectrum: 2048
>>>>>Begin Processed Spectral Data<<<<<
365.73	42.13
365.92	42.13
366.12	42.13
366.32	0.00
366.52	0.00
366.72	0.00
366.91	0.00
367.11	0.00
367.31	9.36
367.51	0.00
367.70	0.00
367.90	0.00
368.10	0.00
368.30	0.00
368.49	0.00
368.69	0.00
368.89	0.00
369.09	0.00
369.28	0.00
369.48	0.00
369.68	0.00
369.87	2.34
370.07	16.38
370.27	84.26
370.47	117.03
370.66	201.29
370.86	110.01
371.06	250.44
371.25	182.56
371.45	198.95
371.65	250.44
371.84	124.05
372.04	154.48
372.24	170.86
372.44	234.05
372.63	220.01
372.83	222.35
373.03	250.44
373.22	241.08
373.42	224.69
373.62	252.78
373.81	297.25
374.01	273.84
374.21	311.29
374.40	299.59
374.60	276.18
374.79	243.42
374.99	187.24
375.19	332.36
375.38	210.65
375.58	220.01
375.78	262.14
375.97	257.46
376.17	334.70
376.37	308.95
376.56	313.63
376.76	227.03
376.95	210.65
377.15	229.37
377.35	224.69
377.54	292.57
377.74	236.39
377.93	220.01
378.13	320.65
378.33	276.18
378.52	346.40
378.72	299.59
378.91	273.84
379.11	276.18
379.31	238.73
379.50	320.65
379.70	325.33
379.89	301.93
380.09	287.89
380.28	341.72
380.48	271.50
380.68	231.71
380.87	238.73
381.07	362.78
381.26	299.59
381.46	367.46
381.65	318.31
381.85	283.20
382.04	294.91
382.24	311.29
382.43	358.10
382.63	259.80
382.83	280.86
383.02	273.84
383.22	416.62
383.41	217.67
383.61	374.49
383.80	383.85
384.00	355.76
384.19	318.31
384.39	334.70
384.58	388.53
384.78	395.55
384.97	311.29
385.17	222.35
385.36	339.38
385.56	358.10
385.75	332.36
385.95	348.74
386.14	334.70
386.34	381.51
386.53	358.10
386.72	287.89
386.92	330.02
387.11	362.78
387.31	397.89
387.50	381.51
387.70	348.74
387.89	330.02
388.09	271.50
388.28	344.06
388.48	386.19
388.67	360.44
388.86	325.33
389.06	444.70
389.25	409.59
389.45	430.66
389.64	390.87
389.84	425.98
390.03	383.85
390.22	362.78
390.42	341.72
390.61	437.68
390.81	440.02
391.00	327.68
391.19	407.25
391.39	416.62
391.58	479.81
391.78	423.64
391.97	435.34
392.16	369.80
392.36	402.57
392.55	451.72
392.75	461.09
392.94	433.00
393.13	407.25
393.33	395.55
393.52	475.13
393.71	425.98
393.91	526.62
394.10	435.34
394.29	491.51
394.49	425.98
394.68	491.51
394.88	475.13
395.07	463.43
395.26	433.00
395.46	533.64
395.65	510.24
395.84	472.79
396.04	533.64
396.23	589.82
396.42	505.56
396.62	524.28
396.81	550.03
397.00	517.26
397.19	454.06
397.39	456.40
397.58	547.69
397.77	470.45
397.97	535.98
398.16	550.03
398.35	512.58
398.55	543.00
398.74	610.88
398.93	601.52
399.12	543.00
399.32	594.50
399.51	540.66
399.70	596.84
399.90	657.69
400.09	594.50
400.28	599.18
400.47	629.60
400.67	594.50
400.86	538.32
401.05	610.88
401.24	648.33
401.44	592.16
401.63	568.75
401.82	615.56
402.01	596.84
402.21	622.58
402.40	557.05
402.59	592.16
402.78	610.88
402.97	678.76
403.17	683.44
403.36	641.31
403.55	615.56
403.74	683.44
403.93	685.78
404.13	851.96
404.32	730.25
404.51	779.40
404.70	727.91
404.89	636.63
405.09	809.83
405.28	667.05
405.47	746.63
405.66	739.61
405.85	732.59
406.05	739.61
406.24	753.65
406.43	702.16
406.62	823.87
406.81	870.68
407.00	791.10
407.20	821.53
407.39	840.25
407.58	851.96
407.77	849.61
407.96	870.68
408.15	807.48
408.34	924.51
408.54	947.92
408.73	905.79
408.92	826.21
409.11	905.79
409.30	992.39
409.49	880.04
409.68	894.08
409.87	915.15
410.07	905.79
410.26	957.28
410.45	891.74
410.64	917.49
410.83	945.58
411.02	933.87
411.21	912.81
411.40	980.68
411.59	1011.11
411.78	952.60
411.98	1039.20
412.17	1008.77
412.36	957.28
412.55	1018.13
412.74	1001.75
412.93	1064.94
413.12	1050.90
413.31	1135.16
413.50	1109.41
413.69	1135.16
413.88	1139.84
414.07	1116.44
414.26	1212.40
414.45	1153.88
414.64	1170.27
414.83	1104.73
415.02	1196.01
415.22	1186.65
415.41	1170.27
415.60	1224.10
415.79	1219.42
415.98	1210.06
416.17	1214.74
416.36	1383.26
416.55	1259.21
416.74	1296.66
416.93	1291.98
417.12	1317.72
417.31	1430.07
417.50	1306.02
417.69	1371.55
417.88	1373.89
418.07	1341.13
418.26	1383.26
418.45	1275.59
418.64	1343.47
418.83	1313.04
419.02	1460.49
419.21	1479.22
419.39	1504.96
419.58	1362.19
419.77	1425.39
419.96	1493.26
420.15	1462.83
420.34	1444.11
420.53	1462.83
420.72	1497.94
420.91	1528.37
421.10	1526.03
421.29	1483.90
421.48	1507.30
421.67	1516.67
421.86	1528.37
422.05	1460.49
422.24	1547.09
422.43	1589.22
422.61	1654.76
422.80	1488.58
422.99	1540.07
423.18	1605.61
423.37	1586.88
423.56	1652.42
423.75	1575.18
423.94	1575.18
424.13	1446.45
424.32	1558.80
424.50	1547.09
424.69	1465.18
424.88	1629.01
425.07	1521.35
425.26	1444.11
425.45	1519.01
425.64	1582.20
425.83	1575.18
426.01	1621.99
426.20	1530.71
426.39	1614.97
426.58	1591.56
426.77	1643.06
426.96	1629.01
427.15	1586.88
427.33	1638.38
427.52	1568.16
427.71	1610.29
427.90	1614.97
428.09	1612.63
428.28	1701.57
428.46	1713.27
428.65	1792.85
428.84	1675.82
429.03	1724.97
429.22	1593.90
429.40	1713.27
429.59	1799.87
429.78	1732.00
429.97	1650.08
430.16	1771.79
430.34	1724.97
430.53	1703.91
430.72	1739.02
430.91	1701.57
431.10	1687.53
431.28	1867.75
431.47	1849.02
431.66	1867.75
431.85	1774.13
432.03	1834.98
432.22	1959.03
432.41	1874.77
432.60	1849.02
432.79	1832.64
432.97	1825.62
433.16	1846.68
433.35	1884.13
433.54	1863.07
433.72	1785.83
433.91	1916.90
434.10	1944.99
434.28	1884.13
434.47	1867.75
434.66	1926.26
434.85	2052.65
435.03	1998.82
435.22	2174.36
435.41	2427.14
435.59	2356.92
435.78	2207.13
435.97	2277.34
436.16	2033.93
436.34	2050.31
436.53	2043.29
436.72	2195.42
436.90	2001.16
437.09	2132.23
437.28	2019.88
437.46	2106.48
437.65	2069.03
437.84	2125.21
438.02	2073.71
438.21	2106.48
438.40	2040.95
438.58	2162.66
438.77	2174.36
438.96	2132.23
439.14	2267.98
439.33	2221.17
439.52	2150.95
439.70	2265.64
439.89	2338.20
440.08	2260.96
440.26	2342.88
440.45	2319.47
440.63	2387.35
440.82	2326.49
441.01	2275.00
441.19	2445.86
441.38	2541.82
441.57	2385.01
441.75	2548.84
441.94	2366.28
442.12	2476.29
442.31	2567.57
442.50	2450.54
442.68	2394.37
442.87	2520.76
443.05	2490.33
443.24	2562.89
443.43	2532.46
443.61	2530.12
443.80	2705.66
443.98	2649.49
444.17	2375.64
444.35	2567.57
444.54	2686.94
444.73	2612.04
444.91	2658.85
445.10	2555.86
445.28	2502.03
445.47	2607.36
445.65	2600.34
445.84	2621.40
446.02	2588.63
446.21	2579.27
446.39	2506.71
446.58	2583.95
446.77	2747.79
446.95	2576.93
447.14	2619.06
447.32	2593.31
447.51	2609.70
447.69	2623.74
447.88	2602.68
448.06	2642.46
448.25	2658.85
448.43	2689.28
448.62	2658.85
448.80	2724.38
448.99	2796.94
449.17	2640.12
449.36	2649.49
449.54	2813.32
449.73	2754.81
449.91	2719.70
450.10	2696.30
450.28	2857.79
450.46	2738.43
450.65	2703.32
450.83	2778.22
451.02	2780.56
451.20	2731.41
451.39	2799.28
451.57	2843.75
451.76	2782.90
451.94	2848.43
452.13	3066.10
452.31	2829.71
452.49	2897.58
452.68	2932.69
452.86	2808.64
453.05	2878.86
453.23	3028.65
453.42	2899.92
453.60	2909.29
453.78	3000.57
453.97	2806.30
454.15	2984.18
454.34	2984.18
454.52	3005.25
454.70	2986.52
454.89	2946.73
455.07	2970.14
455.26	3131.64
455.44	3201.85
455.62	2960.78
455.81	2991.20
455.99	3073.12
456.17	3133.98
456.36	3077.80
456.54	3157.38
456.73	3124.62
456.91	3295.47
457.09	3215.90
457.28	3152.70
457.46	3164.40
457.64	3220.58
457.83	3169.09
458.01	3096.53
458.19	3297.81
458.38	3150.36
458.56	3344.63
458.74	3192.49
458.93	3197.17
459.11	3246.32
459.29	3304.84
459.48	3304.84
459.66	3410.16
459.84	3358.67
460.03	3314.20
460.21	3445.27
460.39	3201.85
460.57	3304.84
460.76	3454.63
460.94	3501.44
461.12	3466.33
461.31	3442.93
461.49	3489.74
461.67	3353.99
461.85	3499.10
462.04	3447.61
462.22	3634.85
462.40	3545.91
462.59	3482.72
462.77	3550.59
462.95	3566.98
463.13	3494.42
463.32	3707.41
463.50	3604.42
463.68	3555.27
463.86	3508.46
464.05	3410.16
464.23	3691.02
464.41	3667.62
464.59	3527.19
464.78	3583.36
464.96	3735.50
465.14	3489.74
465.32	3648.90
465.50	3651.24
465.69	3686.34
465.87	3566.98
466.05	3611.45
466.23	3712.09
466.41	3733.15
466.60	3803.37
466.78	3712.09
466.96	3740.18
467.14	3705.07
467.32	3578.68
467.51	3728.47
467.69	3829.12
467.87	3810.39
468.05	3744.86
468.23	3691.02
468.41	3829.12
468.60	3801.03
468.78	3901.67
468.96	3805.71
469.14	3744.86
469.32	3983.59
469.50	3908.69
469.69	3885.29
469.87	4032.74
470.05	3988.27
470.23	3985.93
470.41	3875.93
470.59	3934.44
470.77	3840.82
470.95	3969.55
471.14	4114.66
471.32	3978.91
471.50	4042.11
471.68	4138.07
471.86	4014.02
472.04	4046.79
472.22	4217.65
472.40	4231.69
472.58	4173.18
472.77	4159.13
472.95	4339.35
473.13	4292.54
473.31	4236.37
473.49	4250.41
473.67	4269.14
473.85	4271.48
474.03	4376.80
474.21	4442.34
474.39	4409.57
474.57	4521.92
474.75	4491.49
474.93	4519.57
475.12	4397.87
475.30	4550.00
475.48	4657.67
475.66	4660.01
475.84	4554.68
476.02	4447.02
476.20	4542.98
476.38	4582.77
476.56	4699.80
476.74	4746.61
476.92	4880.02
477.10	4802.78
477.28	4812.14
477.46	4814.48
477.64	4882.36
477.82	5022.79
478.00	5121.09
478.18	5151.52
478.36	5085.98
478.54	5057.90
478.72	5130.45
478.90	5191.31
479.08	5107.05
479.26	5406.64
479.44	5359.83
479.62	5462.81
479.80	5313.02
479.98	5235.78
480.16	5673.46
480.34	5514.30
480.52	5533.03
480.70	5671.12
480.88	5528.35
481.06	5731.97
481.24	5500.26
481.41	5720.27
481.59	5738.99
481.77	5671.12
481.95	5858.36
482.13	5877.09
482.31	5860.70
482.49	5893.47
482.67	5926.24
482.85	5951.98
483.03	6200.08
483.21	6207.10
483.39	6061.99
483.57	6176.67
483.74	6356.90
483.92	6352.21
484.10	6321.79
484.28	6420.09
484.46	6576.91
484.64	6537.12
484.82	6668.19
485.00	6576.91
485.18	6583.93
485.35	6520.73
485.53	6782.87
485.71	6705.63
485.89	6942.03
486.07	6942.03
486.25	6927.99
486.43	6916.28
486.61	6974.80
486.78	7133.95
486.96	7026.29
487.14	7363.33
487.32	7164.38
487.50	7342.26
487.68	7265.02
487.85	7349.28
488.03	7478.01
488.21	7808.03
488.39	7693.34
488.57	7625.47
488.75	7756.54
488.92	7901.65
489.10	7896.97
489.28	7843.14
489.46	8072.51
489.64	8060.80
489.81	8116.98
489.99	8079.53
490.17	8102.93
490.35	8297.20
490.53	8423.59
490.70	8365.07
490.88	8365.07
491.06	8439.97
491.24	8393.16
491.41	8402.52
491.59	8662.32
491.77	8566.36
491.95	8624.87
492.13	8655.30
492.30	8669.34
492.48	8791.05
492.66	8901.06
492.84	8720.84
493.01	8896.38
493.19	9022.77
493.37	9146.81
493.54	8957.23
493.72	9153.84
493.90	9151.49
494.08	9298.95
494.25	9511.94
494.43	9408.95
494.61	9493.21
494.79	9565.77
494.96	9579.81
495.14	9619.60
495.32	9795.14
495.49	9476.83
495.67	9657.05
495.85	9830.25
496.02	9635.99
496.20	9860.68
496.38	9940.26
496.55	9895.78
496.73	10003.45
496.91	9937.91
497.09	10003.45
497.26	10251.55
497.44	10174.31
497.62	10193.03
497.79	10401.34
497.97	10305.38
498.14	10286.65
498.32	10635.39
498.50	10450.49
498.67	10391.98
498.85	10492.62
499.03	10523.05
499.20	10808.59
499.38	10586.24
499.56	10892.85
499.73	10721.99
499.91	10906.90
500.08	10839.02
500.26	10808.59
500.44	11030.94
500.61	10843.70
500.79	10892.85
500.97	11194.78
501.14	11211.17
501.32	11253.30
501.49	11061.37
501.67	10984.13
501.84	11337.56
502.02	11152.65
502.20	11405.43
502.37	11438.20
502.55	11344.58
502.72	11597.35
502.90	11543.52
503.07	11229.89
503.25	11644.17
503.43	11487.35
503.60	11597.35
503.78	11613.74
503.95	11662.89
504.13	11723.74
504.30	11775.24
504.48	11728.42
504.65	12035.03
504.83	12018.65
505.01	11913.33
505.18	12011.63
505.36	12070.14
505.53	12009.29
505.71	12149.72
505.88	12133.34
506.06	11978.86
506.23	12233.98
506.41	12149.72
506.58	12119.29
506.76	12311.22
506.93	12262.07
507.11	12091.21
507.28	12313.56
507.46	12545.27
507.63	12346.33
507.81	12594.42
507.98	12521.87
508.16	12758.26
508.33	12697.41
508.50	12758.26
508.68	12662.30
508.85	12617.83
509.03	12737.20
509.20	12779.32
509.38	12870.61
509.55	12877.63
509.73	12950.18
509.90	12987.63
510.08	13034.44
510.25	12936.14
510.42	13242.75
510.60	12940.82
510.77	13231.05
510.95	13390.20
511.12	13427.65
511.30	13242.75
511.47	13298.92
511.64	13369.14
511.82	13298.92
511.99	13369.14
512.17	13467.44
512.34	13673.41
512.51	13341.05
512.69	13209.98
512.86	13621.92
513.04	13640.64
513.21	13668.73
513.38	13738.94
513.56	13958.96
513.73	13823.20
513.90	13738.94
514.08	13685.11
514.25	13830.23
514.43	13844.27
514.60	13886.40
514.77	14068.96
514.95	13937.89
515.12	13855.97
515.29	14059.60
515.47	14043.21
515.64	14237.48
515.81	14249.18
515.99	14181.31
516.16	14061.94
516.33	14333.44
516.51	14312.38
516.68	14394.29
516.85	14333.44
517.03	14457.49
517.20	14342.80
517.37	14527.71
517.54	14537.07
517.72	14420.04
517.89	14396.64
518.06	14586.22
518.24	14464.51
518.41	14684.52
518.58	14736.01
518.75	14565.15
518.93	14670.48
519.10	14656.43
519.27	14651.75
519.45	14871.76
519.62	14728.99
519.79	14892.83
519.96	14754.74
520.14	14874.10
520.31	15037.94
520.48	15009.86
520.65	15342.21
520.83	15054.33
521.00	15173.69
521.17	14960.70
521.34	15068.37
521.52	15192.42
521.69	15353.91
521.86	15396.04
522.03	15335.19
522.20	15166.67
522.38	15330.51
522.55	15426.47
522.72	15206.46
522.89	15330.51
523.07	15527.11
523.24	15435.83
523.41	15861.81
523.58	15803.30
523.75	15686.27
523.92	15433.49
524.10	15405.41
524.27	15660.52
524.44	15562.22
524.61	15871.17
524.78	15761.17
524.96	15969.48
525.13	15501.37
525.30	16112.25
525.47	15906.28
525.64	15819.68
525.81	15857.13
525.98	15906.28
526.16	16016.29
526.33	15894.58
526.50	16226.93
526.67	15976.50
526.84	15967.13
527.01	16121.61
527.18	16145.02
527.36	16133.31
527.53	16063.10
527.70	16678.66
527.87	16339.28
528.04	16578.01
528.21	16030.33
528.38	16482.05
528.55	16404.81
528.72	16353.32
528.89	16779.30
529.07	16634.19
529.24	16404.81
529.41	16699.72
529.58	16542.91
529.75	16641.21
529.92	16730.15
530.09	16589.72
530.26	16746.53
530.43	16903.35
530.60	16545.25
530.77	16886.97
530.94	16819.09
531.11	16739.51
531.28	16662.27
531.46	17069.53
531.63	16868.24
531.80	17135.06
531.97	17064.85
532.14	16978.25
532.31	17034.42
532.48	16924.41
532.65	16744.19
532.82	16781.64
532.99	17284.86
533.16	17139.74
533.33	17081.23
533.50	17193.58
533.67	17429.97
533.84	16947.82
534.01	17254.43
534.18	17193.58
534.35	17214.64
534.52	17605.51
534.69	17539.97
534.86	17413.59
535.03	17123.36
535.20	17593.81
535.37	17575.08
535.54	17446.35
535.71	17444.01
535.88	17865.31
536.05	17453.37
536.22	17664.02
536.38	17547.00
536.55	17713.17
536.72	17809.14
536.89	17444.01
537.06	17738.92
537.23	17755.30
537.40	17516.57
537.57	17799.77
537.74	17783.39
537.91	17806.80
538.08	17809.14
538.25	17994.04
538.42	17888.71
538.59	17933.18
538.75	17750.62
538.92	17923.82
539.09	18136.81
539.26	17813.82
539.43	17970.63
539.60	18188.30
539.77	17991.70
539.94	18118.09
540.11	18246.82
540.28	18200.01
540.44	18139.15
540.61	18010.42
540.78	18427.04
540.95	18625.98
541.12	18523.00
541.29	18267.88
541.46	18349.80
541.62	18256.18
541.79	18679.82
541.96	18398.95
542.13	18597.90
542.30	18527.68
542.47	18611.94
542.63	18630.66
542.80	18836.63
542.97	18609.60
543.14	18693.86
543.31	18796.84
543.48	18750.03
543.64	19033.24
543.81	18853.02
543.98	19145.58
544.15	19028.56
544.32	19084.73
544.48	19222.82
544.65	18937.27
544.82	18883.44
544.99	18878.76
545.16	19005.15
545.32	19084.73
545.49	19206.44
545.66	19702.63
545.83	19950.73
546.00	19747.10
546.16	19810.29
546.33	18834.29
546.50	18904.51
546.67	19089.41
546.83	18911.53
547.00	19342.19
547.17	18972.38
547.34	18958.34
547.50	18923.23
547.67	19257.93
547.84	19042.60
548.00	19246.23
548.17	19424.11
548.34	19328.14
548.51	19234.52
548.67	19286.01
548.84	19431.13
549.01	19293.04
549.18	19204.10
549.34	19267.29
549.51	19131.54
549.68	19307.08
549.84	19288.35
550.01	19391.34
550.18	19211.12
550.34	19613.69
550.51	19597.31
550.68	19365.59
550.84	19080.05
551.01	19339.85
551.18	19346.87
551.34	19178.35
551.51	19405.38
551.68	19494.32
551.84	19693.27
552.01	19484.96
552.18	19616.03
552.34	19267.29
552.51	19630.07
552.68	19562.20
552.84	19709.65
553.01	19646.46
553.18	19721.35
553.34	19616.03
553.51	19510.71
553.67	19751.78
553.84	20016.26
554.01	19878.17
554.17	19683.91
554.34	19845.40
554.51	19482.62
554.67	19693.27
554.84	19775.19
555.00	19695.61
555.17	19489.64
555.33	19786.89
555.50	19826.68
555.67	19634.75
555.83	19461.55
556.00	19941.36
556.16	20159.03
556.33	19845.40
556.50	19941.36
556.66	19885.19
556.83	19618.37
556.99	20070.09
557.16	20121.59
557.32	20039.67
557.49	19946.05
557.65	19747.10
557.82	19569.22
557.98	19786.89
558.15	19648.80
558.32	19726.04
558.48	19981.15
558.65	19901.58
558.81	20306.49
558.98	20252.66
559.14	19840.72
559.31	20025.62
559.47	20159.03
559.64	19960.09
559.80	20266.70
559.97	20191.80
560.13	20088.82
560.30	20133.29
560.46	20278.40
560.63	20135.63
560.79	20063.07
560.96	20027.96
561.12	20013.92
561.29	20161.37
561.45	20177.76
561.61	20299.47
561.78	20507.77
561.94	20357.98
562.11	20346.28
562.27	20184.78
562.44	20346.28
562.60	20247.97
562.77	20098.18
562.93	20292.44
563.10	20456.28
563.26	20030.30
563.42	20603.74
563.59	20137.97
563.75	20236.27
563.92	20549.90
564.08	20285.42
564.24	20322.87
564.41	20283.08
564.57	20491.39
564.74	20126.27
564.90	20262.02
565.07	20453.94
565.23	20418.83
565.39	20442.24
565.56	20414.15
565.72	20318.19
565.88	20280.74
566.05	20416.49
566.21	20334.57
566.38	20027.96
566.54	20386.07
566.70	20276.06
566.87	20737.15
567.03	20250.32
567.19	20671.61
567.36	20629.48
567.52	20552.24
567.68	20425.86
567.85	20128.61
568.01	20463.30
568.17	20346.28
568.34	20489.05
568.50	20350.96
568.66	20669.27
568.83	20547.56
568.99	20500.75
569.15	20751.19
569.32	20318.19
569.48	20528.84
569.64	20594.37
569.81	20638.84
569.97	20475.01
570.13	20542.88
570.30	20512.46
570.46	20662.25
570.62	20599.05
570.78	20411.81
570.95	20482.03
571.11	20926.73
571.27	20563.95
571.43	20446.92
571.60	20847.15
571.76	20631.82
571.92	20690.34
572.09	20482.03
572.25	20496.07
572.41	20594.37
572.57	20713.74
572.74	20971.20
572.90	20276.06
573.06	20388.41
573.22	20875.24
573.38	20713.74
573.55	20790.98
573.71	20896.30
573.87	20996.95
574.03	20500.75
574.20	20479.69
574.36	20812.04
574.52	20861.19
574.68	20751.19
574.84	20826.09
575.01	20936.09
575.17	20641.18
575.33	20627.14
575.49	20669.27
575.65	20671.61
575.82	20758.21
575.98	20779.28
576.14	20821.41
576.30	20547.56
576.46	20798.00
576.62	20727.78
576.79	20924.39
576.95	20805.02
577.11	21078.86
577.27	20709.06
577.43	20879.92
577.59	20657.57
577.75	20713.74
577.92	20311.17
578.08	20758.21
578.24	21109.29
578.40	20847.15
578.56	21003.97
578.72	20821.41
578.88	20903.32
579.04	20908.01
579.21	21003.97
579.37	20746.51
579.53	20971.20
579.69	20503.09
579.85	20758.21
580.01	20805.02
580.17	20760.55
580.33	20704.38
580.49	20683.31
580.65	20889.28
580.82	21090.57
580.98	20971.20
581.14	20814.38
581.30	21032.05
581.46	20926.73
581.62	20982.90
581.78	20898.64
581.94	20961.84
582.10	20837.79
582.26	20889.28
582.42	21060.14
582.58	21151.42
582.74	21071.84
582.90	21170.15
583.06	21156.10
583.22	20760.55
583.38	20898.64
583.54	21050.78
583.70	21144.40
583.86	20805.02
584.02	20840.13
584.18	21352.71
584.34	21326.96
584.50	21202.91
584.66	21053.12
584.82	21184.19
584.98	21200.57
585.14	21081.21
585.30	20900.98
585.46	21039.08
585.62	21055.46
585.78	20978.22
585.94	20549.90
586.10	20959.50
586.26	20999.29
586.42	20905.66
586.58	21231.00
586.74	20992.26
586.90	20800.34
587.06	21095.25
587.22	21001.63
587.38	20673.95
587.54	21287.17
587.70	21231.00
587.86	21097.59
588.02	21092.91
588.18	21212.28
588.34	21125.68
588.49	20856.51
588.65	20753.53
588.81	20692.68
588.97	21008.65
589.13	21167.80
589.29	21041.42
589.45	21179.51
589.61	20989.92
589.77	20812.04
589.93	21408.88
590.08	20959.50
590.24	21097.59
590.40	21142.06
590.56	21247.38
590.72	21266.11
590.88	20994.61
591.04	21273.13
591.20	21120.99
591.35	21312.92
591.51	21104.61
591.67	21029.71
591.83	21462.71
591.99	21280.15
592.15	21338.66
592.31	21359.73
592.46	21032.05
592.62	20950.14
