SpectraSuite Data File
++++++++++++++++++++++++++++++++++++
Date: Fri Oct 04 11:40:04 GMT-05:00 2013
User: price-jones
Dark Spectrum Present: No
Reference Spectrum Present: No
Number of Sampled Component Spectra: 1
Spectrometers: USB2+H05261
Integration Time (usec): 100000 (USB2+H05261)
Spectra Averaged: 1 (USB2+H05261)
Boxcar Smoothing: 0 (USB2+H05261)
Correct for Electrical Dark: No (USB2+H05261)
Strobe/Lamp Enabled: No (USB2+H05261)
Correct for Detector Non-linearity: No (USB2+H05261)
Correct for Stray Light: No (USB2+H05261)
Number of Pixels in Processed Spectrum: 2048
>>>>>Begin Processed Spectral Data<<<<<
365.73	18.72
365.92	18.72
366.12	18.72
366.32	16.38
366.52	0.00
366.72	32.77
366.91	0.00
367.11	0.00
367.31	0.00
367.51	0.00
367.70	0.00
367.90	0.00
368.10	0.00
368.30	0.00
368.49	0.00
368.69	16.38
368.89	0.00
369.09	0.00
369.28	0.00
369.48	84.26
369.68	0.00
369.87	16.38
370.07	0.00
370.27	0.00
370.47	39.79
370.66	53.83
370.86	63.19
371.06	93.62
371.25	131.07
371.45	117.03
371.65	70.22
371.84	79.58
372.04	65.54
372.24	95.96
372.44	135.75
372.63	98.30
372.83	88.94
373.03	133.41
373.22	74.90
373.42	110.01
373.62	91.28
373.81	191.92
374.01	152.13
374.21	138.09
374.40	93.62
374.60	133.41
374.79	98.30
374.99	128.73
375.19	145.11
375.38	110.01
375.58	147.45
375.78	93.62
375.97	117.03
376.17	198.95
376.37	105.32
376.56	112.35
376.76	124.05
376.95	159.16
377.15	180.22
377.35	119.37
377.54	198.95
377.74	140.43
377.93	114.69
378.13	149.79
378.33	201.29
378.52	184.90
378.72	152.13
378.91	105.32
379.11	114.69
379.31	119.37
379.50	161.50
379.70	126.39
379.89	107.66
380.09	166.18
380.28	102.98
380.48	121.71
380.68	79.58
380.87	86.60
381.07	147.45
381.26	175.54
381.46	166.18
381.65	170.86
381.85	49.15
382.04	124.05
382.24	107.66
382.43	72.56
382.63	119.37
382.83	98.30
383.02	114.69
383.22	177.88
383.41	84.26
383.61	95.96
383.80	152.13
384.00	175.54
384.19	187.24
384.39	152.13
384.58	91.28
384.78	93.62
384.97	84.26
385.17	112.35
385.36	119.37
385.56	140.43
385.75	189.58
385.95	107.66
386.14	114.69
386.34	184.90
386.53	161.50
386.72	128.73
386.92	203.63
387.11	128.73
387.31	140.43
387.50	72.56
387.70	128.73
387.89	154.48
388.09	110.01
388.28	32.77
388.48	102.98
388.67	147.45
388.86	65.54
389.06	100.64
389.25	72.56
389.45	187.24
389.64	135.75
389.84	212.99
390.03	124.05
390.22	180.22
390.42	142.77
390.61	142.77
390.81	95.96
391.00	184.90
391.19	107.66
391.39	170.86
391.58	166.18
391.78	161.50
391.97	58.51
392.16	74.90
392.36	168.52
392.55	182.56
392.75	117.03
392.94	133.41
393.13	159.16
393.33	138.09
393.52	88.94
393.71	138.09
393.91	86.60
394.10	60.85
394.29	114.69
394.49	131.07
394.68	110.01
394.88	133.41
395.07	149.79
395.26	152.13
395.46	124.05
395.65	114.69
395.84	112.35
396.04	290.23
396.23	56.17
396.42	140.43
396.62	86.60
396.81	161.50
397.00	184.90
397.19	77.24
397.39	124.05
397.58	86.60
397.77	149.79
397.97	163.84
398.16	154.48
398.35	163.84
398.55	135.75
398.74	170.86
398.93	161.50
399.12	114.69
399.32	196.60
399.51	138.09
399.70	142.77
399.90	135.75
400.09	142.77
400.28	121.71
400.47	173.20
400.67	135.75
400.86	131.07
401.05	173.20
401.24	154.48
401.44	124.05
401.63	210.65
401.82	175.54
402.01	98.30
402.21	98.30
402.40	173.20
402.59	133.41
402.78	159.16
402.97	145.11
403.17	145.11
403.36	110.01
403.55	196.60
403.74	220.01
403.93	196.60
404.13	187.24
404.32	292.57
404.51	299.59
404.70	271.50
404.89	149.79
405.09	173.20
405.28	208.31
405.47	198.95
405.66	191.92
405.85	243.42
406.05	250.44
406.24	170.86
406.43	180.22
406.62	184.90
406.81	250.44
407.00	180.22
407.20	224.69
407.39	217.67
407.58	175.54
407.77	210.65
407.96	184.90
408.15	278.52
408.34	220.01
408.54	98.30
408.73	255.12
408.92	149.79
409.11	140.43
409.30	238.73
409.49	189.58
409.68	175.54
409.87	184.90
410.07	224.69
410.26	177.88
410.45	177.88
410.64	147.45
410.83	163.84
411.02	175.54
411.21	227.03
411.40	187.24
411.59	170.86
411.78	131.07
411.98	227.03
412.17	159.16
412.36	187.24
412.55	194.26
412.74	290.23
412.93	304.27
413.12	241.08
413.31	231.71
413.50	257.46
413.69	231.71
413.88	294.91
414.07	276.18
414.26	234.05
414.45	248.10
414.64	276.18
414.83	241.08
415.02	234.05
415.22	259.80
415.41	264.48
415.60	187.24
415.79	238.73
415.98	332.36
416.17	220.01
416.36	250.44
416.55	196.60
416.74	170.86
416.93	315.97
417.12	297.25
417.31	252.78
417.50	297.25
417.69	318.31
417.88	278.52
418.07	184.90
418.26	283.20
418.45	287.89
418.64	280.86
418.83	278.52
419.02	292.57
419.21	301.93
419.39	348.74
419.58	259.80
419.77	299.59
419.96	278.52
420.15	341.72
420.34	313.63
420.53	320.65
420.72	273.84
420.91	276.18
421.10	227.03
421.29	266.82
421.48	320.65
421.67	369.80
421.86	280.86
422.05	222.35
422.24	285.55
422.43	229.37
422.61	217.67
422.80	325.33
422.99	341.72
423.18	308.95
423.37	353.42
423.56	325.33
423.75	248.10
423.94	304.27
424.13	243.42
424.32	285.55
424.50	301.93
424.69	278.52
424.88	334.70
425.07	313.63
425.26	395.55
425.45	184.90
425.64	299.59
425.83	236.39
426.01	276.18
426.20	255.12
426.39	332.36
426.58	318.31
426.77	322.99
426.96	395.55
427.15	234.05
427.33	313.63
427.52	306.61
427.71	327.68
427.90	238.73
428.09	311.29
428.28	313.63
428.46	339.38
428.65	332.36
428.84	306.61
429.03	376.83
429.22	299.59
429.40	290.23
429.59	339.38
429.78	383.85
429.97	257.46
430.16	360.44
430.34	344.06
430.53	341.72
430.72	315.97
430.91	365.12
431.10	332.36
431.28	346.40
431.47	292.57
431.66	376.83
431.85	339.38
432.03	355.76
432.22	411.93
432.41	369.80
432.60	330.02
432.79	383.85
432.97	468.11
433.16	369.80
433.35	372.15
433.54	360.44
433.72	365.12
433.91	372.15
434.10	355.76
434.28	393.21
434.47	376.83
434.66	463.43
434.85	479.81
435.03	526.62
435.22	870.68
435.41	1188.99
435.59	1275.59
435.78	1029.84
435.97	753.65
436.16	514.92
436.34	386.19
436.53	379.17
436.72	411.93
436.90	311.29
437.09	369.80
437.28	416.62
437.46	390.87
437.65	322.99
437.84	386.19
438.02	365.12
438.21	423.64
438.40	341.72
438.58	402.57
438.77	388.53
438.96	425.98
439.14	308.95
439.33	414.27
439.52	418.96
439.70	381.51
439.89	372.15
440.08	341.72
440.26	400.23
440.45	425.98
440.63	400.23
440.82	414.27
441.01	374.49
441.19	393.21
441.38	397.89
441.57	337.04
441.75	433.00
441.94	451.72
442.12	470.45
442.31	475.13
442.50	395.55
442.68	388.53
442.87	346.40
443.05	456.40
443.24	447.04
443.43	442.36
443.61	496.19
443.80	383.85
443.98	376.83
444.17	435.34
444.35	500.87
444.54	414.27
444.73	437.68
444.91	437.68
445.10	442.36
445.28	484.49
445.47	500.87
445.65	463.43
445.84	454.06
446.02	362.78
446.21	388.53
446.39	409.59
446.58	482.15
446.77	440.02
446.95	533.64
447.14	428.32
447.32	440.02
447.51	400.23
447.69	372.15
447.88	404.91
448.06	470.45
448.25	475.13
448.43	479.81
448.62	454.06
448.80	414.27
448.99	519.60
449.17	433.00
449.36	461.09
449.54	554.71
449.73	484.49
449.91	484.49
450.10	451.72
450.28	491.51
450.46	475.13
450.65	498.53
450.83	482.15
451.02	472.79
451.20	493.85
451.39	517.26
451.57	418.96
451.76	521.94
451.94	404.91
452.13	447.04
452.31	498.53
452.49	550.03
452.68	496.19
452.86	479.81
453.05	526.62
453.23	437.68
453.42	491.51
453.60	496.19
453.78	440.02
453.97	404.91
454.15	472.79
454.34	475.13
454.52	388.53
454.70	505.56
454.89	535.98
455.07	519.60
455.26	440.02
455.44	500.87
455.62	472.79
455.81	512.58
455.99	500.87
456.17	507.90
456.36	477.47
456.54	493.85
456.73	454.06
456.91	500.87
457.09	507.90
457.28	507.90
457.46	550.03
457.64	491.51
457.83	479.81
458.01	484.49
458.19	463.43
458.38	479.81
458.56	589.82
458.74	578.11
458.93	559.39
459.11	533.64
459.29	479.81
459.48	531.30
459.66	645.99
459.84	535.98
460.03	543.00
460.21	514.92
460.39	475.13
460.57	575.77
460.76	554.71
460.94	550.03
461.12	491.51
461.31	613.22
461.49	550.03
461.67	505.56
461.85	512.58
462.04	575.77
462.22	1027.50
462.40	603.86
462.59	585.13
462.77	491.51
462.95	486.83
463.13	519.60
463.32	587.47
463.50	514.92
463.68	627.26
463.86	531.30
464.05	617.90
464.23	554.71
464.41	660.03
464.59	507.90
464.78	603.86
464.96	517.26
465.14	599.18
465.32	528.96
465.50	627.26
465.69	578.11
465.87	552.37
466.05	613.22
466.23	547.69
466.41	528.96
466.60	613.22
466.78	538.32
466.96	564.07
467.14	620.24
467.32	636.63
467.51	603.86
467.69	519.60
467.87	608.54
468.05	587.47
468.23	587.47
468.41	589.82
468.60	582.79
468.78	594.50
468.96	624.92
469.14	564.07
469.32	592.16
469.50	540.66
469.69	613.22
469.87	578.11
470.05	641.31
470.23	547.69
470.41	594.50
470.59	653.01
470.77	552.37
470.95	587.47
471.14	653.01
471.32	566.41
471.50	688.12
471.68	594.50
471.86	561.73
472.04	608.54
472.22	678.76
472.40	741.95
472.58	599.18
472.77	655.35
472.95	582.79
473.13	702.16
473.31	622.58
473.49	627.26
473.67	622.58
473.85	617.90
474.03	667.05
474.21	695.14
474.39	713.86
474.57	657.69
474.75	627.26
474.93	582.79
475.12	610.88
475.30	683.44
475.48	653.01
475.66	748.97
475.84	561.73
476.02	690.46
476.20	678.76
476.38	697.48
476.56	772.38
476.74	683.44
476.92	608.54
477.10	711.52
477.28	746.63
477.46	704.50
477.64	706.84
477.82	709.18
478.00	795.78
478.18	774.72
478.36	739.61
478.54	730.25
478.72	739.61
478.90	758.33
479.08	755.99
479.26	755.99
479.44	732.59
479.62	781.74
479.80	770.04
479.98	760.67
480.16	868.34
480.34	800.46
480.52	866.00
480.70	784.08
480.88	732.59
481.06	793.44
481.24	795.78
481.41	795.78
481.59	847.27
481.77	891.74
481.95	760.67
482.13	847.27
482.31	851.96
482.49	826.21
482.67	828.55
482.85	821.53
483.03	915.15
483.21	830.89
483.39	842.59
483.57	877.70
483.74	936.21
483.92	851.96
484.10	917.49
484.28	1088.35
484.46	976.00
484.64	917.49
484.82	957.28
485.00	910.47
485.18	894.08
485.35	959.62
485.53	1020.47
485.71	971.32
485.89	973.66
486.07	1011.11
486.25	1011.11
486.43	945.58
486.61	1053.24
486.78	1100.05
486.96	1086.01
487.14	1116.44
487.32	1048.56
487.50	1093.03
487.68	1118.78
487.85	1128.14
488.03	1137.50
488.21	1034.52
488.39	1100.05
488.57	1050.90
488.75	1116.44
488.92	1401.98
489.10	1118.78
489.28	1130.48
489.46	1132.82
489.64	1102.39
489.81	1142.18
489.99	1139.84
490.17	1144.52
490.35	1212.40
490.53	1116.44
490.70	1170.27
490.88	1137.50
491.06	1198.35
491.24	1048.56
491.41	1191.33
491.59	1181.97
491.77	1137.50
491.95	1191.33
492.13	1132.82
492.30	1315.38
492.48	1245.16
492.66	1153.88
492.84	1249.85
493.01	1261.55
493.19	1203.04
493.37	1254.53
493.54	1181.97
493.72	1287.29
493.90	1200.69
494.08	1198.35
494.25	1324.74
494.43	1441.77
494.61	1217.08
494.79	1291.98
494.96	1198.35
495.14	1317.72
495.32	1406.66
495.49	1308.36
495.67	1270.91
495.85	1284.95
496.02	1327.08
496.20	1324.74
496.38	1275.59
496.55	1256.87
496.73	1294.32
496.91	1306.02
497.09	1399.64
497.26	1387.94
497.44	1383.26
497.62	1394.96
497.79	1437.09
497.97	1383.26
498.14	1439.43
498.32	1394.96
498.50	1425.39
498.67	1418.36
498.85	1329.42
499.03	1348.15
499.20	1387.94
499.38	1380.92
499.56	1406.66
499.73	1373.89
499.91	1413.68
500.08	1409.00
500.26	1366.87
500.44	1376.24
500.61	1460.49
500.79	1500.28
500.97	1341.13
501.14	1387.94
501.32	1387.94
501.49	1418.36
501.67	1458.15
501.84	1458.15
502.02	1439.43
502.20	1481.56
502.37	1486.24
502.55	1500.28
502.72	1509.65
502.90	1465.18
503.07	1540.07
503.25	1425.39
503.43	1413.68
503.60	1441.77
503.78	1462.83
503.95	1465.18
504.13	1542.41
504.30	1462.83
504.48	1502.62
504.65	1479.22
504.83	1535.39
505.01	1556.46
505.18	1535.39
505.36	1565.82
505.53	1486.24
505.71	1542.41
505.88	1640.72
506.06	1490.92
506.23	1551.78
506.41	1586.88
506.58	1596.25
506.76	1479.22
506.93	1533.05
507.11	1584.54
507.28	1544.75
507.46	1584.54
507.63	1549.43
507.81	1535.39
507.98	1554.12
508.16	1565.82
508.33	1533.05
508.50	1479.22
508.68	1418.36
508.85	1666.46
509.03	1572.84
509.20	1570.50
509.38	1551.78
509.55	1603.27
509.73	1692.21
509.90	1577.52
510.08	1547.09
510.25	1687.53
510.42	1490.92
510.60	1741.36
510.77	1729.66
510.95	1619.65
511.12	1668.80
511.30	1558.80
511.47	1610.29
511.64	1638.38
511.82	1610.29
511.99	1673.48
512.17	1617.31
512.34	1673.48
512.51	1586.88
512.69	1650.08
512.86	1675.82
513.04	1727.32
513.21	1689.87
513.38	1734.34
513.56	1717.95
513.73	1682.85
513.90	1727.32
514.08	1720.29
514.25	1629.01
514.43	1762.42
514.60	1652.42
514.77	1668.80
514.95	1769.44
515.12	1783.49
515.29	1849.02
515.47	1682.85
515.64	1792.85
515.81	1652.42
515.99	1811.57
516.16	1888.81
516.33	1757.74
516.51	1703.91
516.68	1661.78
516.85	1696.89
517.03	1703.91
517.20	1818.60
517.37	1778.81
517.54	1788.17
517.72	1788.17
517.89	1774.13
518.06	1724.97
518.24	1769.44
518.41	1799.87
518.58	1867.75
518.75	1802.21
518.93	1750.72
519.10	1849.02
519.27	1799.87
519.45	1785.83
519.62	1788.17
519.79	1790.51
519.96	1867.75
520.14	1877.11
520.31	1881.79
520.48	1788.17
520.65	1832.64
520.83	1809.23
521.00	1844.34
521.17	1849.02
521.34	1863.07
521.52	1795.19
521.69	1846.68
521.86	1860.73
522.03	1842.00
522.20	1907.54
522.38	1888.81
522.55	1851.36
522.72	1818.60
522.89	1963.71
523.07	2019.88
523.24	1827.96
523.41	1842.00
523.58	1825.62
523.75	1905.20
523.92	1921.58
524.10	1949.67
524.27	2040.95
524.44	1996.48
524.61	2012.86
524.78	1881.79
524.96	1935.62
525.13	1930.94
525.30	1937.96
525.47	1970.73
525.64	1994.14
525.81	2024.56
525.98	2026.90
526.16	1856.04
526.33	1867.75
526.50	1980.09
526.67	1884.13
526.84	1905.20
527.01	1996.48
527.18	1912.22
527.36	1905.20
527.53	1860.73
527.70	2019.88
527.87	2031.58
528.04	1984.77
528.21	2017.54
528.38	2017.54
528.55	1947.33
528.72	1926.26
528.89	2062.01
529.07	2026.90
529.24	1928.60
529.41	1947.33
529.58	2019.88
529.75	1991.80
529.92	2026.90
530.09	1949.67
530.26	2031.58
530.43	1877.11
530.60	1947.33
530.77	2038.61
530.94	1998.82
531.11	1961.37
531.28	2019.88
531.46	2106.48
531.63	2040.95
531.80	2146.27
531.97	1989.46
532.14	1970.73
532.31	2099.46
532.48	2047.97
532.65	2090.10
532.82	2066.69
532.99	2015.20
533.16	2078.40
533.33	2099.46
533.50	2146.27
533.67	1956.69
533.84	2071.37
534.01	2036.27
534.18	1973.07
534.35	2024.56
534.52	2111.16
534.69	2113.50
534.86	1996.48
535.03	1966.05
535.20	1991.80
535.37	2026.90
535.54	2143.93
535.71	2104.14
535.88	2298.41
536.05	2127.55
536.22	2064.35
536.38	2150.95
536.55	2118.18
536.72	2155.63
536.89	2111.16
537.06	2216.49
537.23	2200.10
537.40	2181.38
537.57	2204.78
537.74	2143.93
537.91	2193.08
538.08	2300.75
538.25	2216.49
538.42	2216.49
538.59	2251.60
538.75	2174.36
538.92	2218.83
539.09	2331.17
539.26	2321.81
539.43	2392.03
539.60	2333.51
539.77	2342.88
539.94	2546.50
540.11	2492.67
540.28	2516.08
540.44	2523.10
540.61	2696.30
540.78	2740.77
540.95	2738.43
541.12	2904.60
541.29	2953.76
541.46	3096.53
541.62	3068.44
541.79	3000.57
541.96	3073.12
542.13	3040.36
542.30	3047.38
542.47	3042.70
542.63	2846.09
542.80	2923.33
542.97	3023.97
543.14	2958.44
543.31	3009.93
543.48	3002.91
543.64	2972.48
543.81	2953.76
543.98	2862.48
544.15	2937.37
544.32	2822.69
544.48	2918.65
544.65	2928.01
544.82	2855.45
544.99	2829.71
545.16	2956.10
545.32	2876.52
545.49	3370.37
545.66	4414.25
545.83	4821.50
546.00	4526.60
546.16	3854.86
546.33	3246.32
546.50	2836.73
546.67	2843.75
546.83	2832.05
547.00	2789.92
547.17	2649.49
547.34	2562.89
547.50	2572.25
547.67	2644.81
547.84	2609.70
548.00	2733.75
548.17	2642.46
548.34	2679.91
548.51	2581.61
548.67	2647.15
548.84	2663.53
549.01	2612.04
549.18	2523.10
549.34	2492.67
549.51	2443.52
549.68	2595.65
549.84	2506.71
550.01	2394.37
550.18	2572.25
550.34	2480.97
550.51	2459.90
550.68	2539.48
550.84	2490.33
551.01	2457.56
551.18	2354.58
551.34	2382.67
551.51	2459.90
551.68	2502.03
551.84	2438.84
552.01	2333.51
552.18	2473.95
552.34	2363.94
552.51	2483.31
552.68	2342.88
552.84	2359.26
553.01	2354.58
553.18	2286.70
553.34	2354.58
553.51	2401.39
553.67	2406.07
553.84	2452.88
554.01	2347.56
554.17	2373.30
554.34	2230.53
554.51	2298.41
554.67	2492.67
554.84	2385.01
555.00	2338.20
555.17	2340.54
555.33	2389.69
555.50	2272.66
555.67	2342.88
555.83	2305.43
556.00	2331.17
556.16	2408.41
556.33	2263.30
556.50	2441.18
556.66	2321.81
556.83	2223.51
556.99	2279.68
557.16	2333.51
557.32	2289.04
557.49	2239.89
557.65	2359.26
557.82	2237.55
557.98	2363.94
558.15	2349.90
558.32	2359.26
558.48	2195.42
558.65	2310.11
558.81	2228.19
558.98	2401.39
559.14	2305.43
559.31	2249.25
559.47	2296.07
559.64	2303.09
559.80	2352.24
559.97	2319.47
560.13	2298.41
560.30	2356.92
560.46	2319.47
560.63	2277.34
560.79	2314.79
560.96	2293.72
561.12	2139.25
561.29	2366.28
561.45	2230.53
561.61	2270.32
561.78	2490.33
561.94	2338.20
562.11	2246.91
562.27	2188.40
562.44	2207.13
562.60	2263.30
562.77	2340.54
562.93	2193.08
563.10	2352.24
563.26	2239.89
563.42	2326.49
563.59	2221.17
563.75	2317.13
563.92	2448.20
564.08	2279.68
564.24	2298.41
564.41	2296.07
564.57	2270.32
564.74	2401.39
564.90	2263.30
565.07	2232.87
565.23	2359.26
565.39	2415.43
565.56	2352.24
565.72	2359.26
565.88	2434.16
566.05	2246.91
566.21	2270.32
566.38	2157.97
566.54	2258.62
566.70	2359.26
566.87	2305.43
567.03	2298.41
567.19	2333.51
567.36	2307.77
567.52	2298.41
567.68	2188.40
567.85	2319.47
568.01	2207.13
568.17	2317.13
568.34	2244.57
568.50	2349.90
568.66	2188.40
568.83	2466.92
568.99	2279.68
569.15	2314.79
569.32	2352.24
569.48	2296.07
569.64	2190.74
569.81	2258.62
569.97	2200.10
570.13	2256.28
570.30	2305.43
570.46	2223.51
570.62	2242.23
570.78	2242.23
570.95	2202.44
571.11	2289.04
571.27	2415.43
571.43	2286.70
571.60	2272.66
571.76	2230.53
571.92	2244.57
572.09	2312.45
572.25	2263.30
572.41	2286.70
572.57	2228.19
572.74	2251.60
572.90	2326.49
573.06	2251.60
573.22	2249.25
573.38	2197.76
573.55	2253.94
573.71	2387.35
573.87	2331.17
574.03	2359.26
574.20	2218.83
574.36	2317.13
574.52	2232.87
574.68	2307.77
574.84	2289.04
575.01	2242.23
575.17	2385.01
575.33	2289.04
575.49	2431.82
575.65	2321.81
575.82	2291.38
575.98	2312.45
576.14	2354.58
576.30	2352.24
576.46	2434.16
576.62	2565.23
576.79	2647.15
576.95	2586.29
577.11	2553.52
577.27	2406.07
577.43	2413.09
577.59	2361.60
577.75	2331.17
577.92	2282.02
578.08	2275.00
578.24	2293.72
578.40	2366.28
578.56	2614.38
578.72	2810.98
578.88	2731.41
579.04	2616.72
579.21	2586.29
579.37	2539.48
579.53	2452.88
579.69	2375.64
579.85	2356.92
580.01	2534.80
580.17	2473.95
580.33	2422.45
580.49	2375.64
580.65	2382.67
580.82	2366.28
580.98	2406.07
581.14	2401.39
581.30	2375.64
581.46	2354.58
581.62	2408.41
581.78	2406.07
581.94	2448.20
582.10	2420.11
582.26	2483.31
582.42	2443.52
582.58	2457.56
582.74	2410.75
582.90	2616.72
583.06	2490.33
583.22	2373.30
583.38	2476.29
583.54	2438.84
583.70	2518.42
583.86	2485.65
584.02	2359.26
584.18	2431.82
584.34	2333.51
584.50	2333.51
584.66	2586.29
584.82	2511.39
584.98	2581.61
585.14	2363.94
585.30	2356.92
585.46	2345.22
585.62	2366.28
585.78	2375.64
585.94	2422.45
586.10	2502.03
586.26	2377.98
586.42	2661.19
586.58	2633.10
586.74	2558.21
586.90	2679.91
587.06	2546.50
587.22	2607.36
587.38	2579.27
587.54	2663.53
587.70	2595.65
587.86	2523.10
588.02	2471.61
588.18	2335.85
588.34	2401.39
588.49	2424.80
588.65	2434.16
588.81	2382.67
588.97	2366.28
589.13	2277.34
589.29	2499.69
589.45	2406.07
589.61	2303.09
589.77	2478.63
589.93	2349.90
590.08	2445.86
590.24	2335.85
590.40	2406.07
590.56	2441.18
590.72	2331.17
590.88	2382.67
591.04	2275.00
591.20	2420.11
591.35	2443.52
591.51	2394.37
591.67	2448.20
591.83	2410.75
591.99	2387.35
592.15	2335.85
592.31	2565.23
592.46	2513.74
592.62	2558.21
592.78	2476.29
592.94	2459.90
593.10	2527.78
593.26	2513.74
593.41	2551.18
593.57	2394.37
593.73	2448.20
593.89	2513.74
594.05	2363.94
594.20	2401.39
594.36	2324.15
594.52	2321.81
594.68	2396.71
594.84	2319.47
594.99	2420.11
595.15	2354.58
595.31	2382.67
595.47	2448.20
595.62	2413.09
595.78	2389.69
595.94	2335.85
596.10	2408.41
596.25	2370.96
596.41	2417.77
596.57	2200.10
596.73	2413.09
596.88	2312.45
597.04	2354.58
597.20	2504.37
597.36	2305.43
597.51	2319.47
597.67	2319.47
597.83	2312.45
597.99	2331.17
598.14	2385.01
598.30	2431.82
598.46	2345.22
598.61	2401.39
598.77	2396.71
598.93	2326.49
599.09	2370.96
599.24	2415.43
599.40	2490.33
599.56	2492.67
599.71	2431.82
599.87	2427.14
600.03	2335.85
600.18	2382.67
600.34	2382.67
600.50	2361.60
600.65	2237.55
600.81	2415.43
600.97	2462.24
601.12	2340.54
601.28	2408.41
601.44	2312.45
601.59	2356.92
601.75	2298.41
601.91	2380.32
602.06	2265.64
602.22	2352.24
602.37	2434.16
602.53	2230.53
602.69	2415.43
602.84	2356.92
603.00	2443.52
603.16	2314.79
