SpectraSuite Data File
++++++++++++++++++++++++++++++++++++
Date: Fri Oct 04 11:40:02 GMT-05:00 2013
User: price-jones
Dark Spectrum Present: No
Reference Spectrum Present: No
Number of Sampled Component Spectra: 1
Spectrometers: USB2+H05261
Integration Time (usec): 100000 (USB2+H05261)
Spectra Averaged: 1 (USB2+H05261)
Boxcar Smoothing: 0 (USB2+H05261)
Correct for Electrical Dark: No (USB2+H05261)
Strobe/Lamp Enabled: No (USB2+H05261)
Correct for Detector Non-linearity: No (USB2+H05261)
Correct for Stray Light: No (USB2+H05261)
Number of Pixels in Processed Spectrum: 2048
>>>>>Begin Processed Spectral Data<<<<<
365.73	0.00
365.92	0.00
366.12	0.00
366.32	0.00
366.52	0.00
366.72	0.00
366.91	0.00
367.11	0.00
367.31	0.00
367.51	49.15
367.70	0.00
367.90	0.00
368.10	0.00
368.30	0.00
368.49	0.00
368.69	7.02
368.89	0.00
369.09	0.00
369.28	0.00
369.48	0.00
369.68	0.00
369.87	0.00
370.07	37.45
370.27	23.41
370.47	0.00
370.66	72.56
370.86	70.22
371.06	133.41
371.25	191.92
371.45	163.84
371.65	227.03
371.84	105.32
372.04	173.20
372.24	114.69
372.44	166.18
372.63	140.43
372.83	290.23
373.03	184.90
373.22	159.16
373.42	198.95
373.62	262.14
373.81	259.80
374.01	224.69
374.21	212.99
374.40	201.29
374.60	262.14
374.79	238.73
374.99	259.80
375.19	184.90
375.38	252.78
375.58	220.01
375.78	222.35
375.97	224.69
376.17	292.57
376.37	154.48
376.56	191.92
376.76	210.65
376.95	220.01
377.15	220.01
377.35	170.86
377.54	147.45
377.74	163.84
377.93	203.63
378.13	208.31
378.33	222.35
378.52	205.97
378.72	203.63
378.91	196.60
379.11	280.86
379.31	215.33
379.50	180.22
379.70	243.42
379.89	168.52
380.09	187.24
380.28	168.52
380.48	196.60
380.68	227.03
380.87	170.86
381.07	203.63
381.26	187.24
381.46	210.65
381.65	227.03
381.85	189.58
382.04	243.42
382.24	198.95
382.43	238.73
382.63	166.18
382.83	259.80
383.02	222.35
383.22	238.73
383.41	217.67
383.61	266.82
383.80	210.65
384.00	222.35
384.19	224.69
384.39	217.67
384.58	248.10
384.78	299.59
384.97	283.20
385.17	234.05
385.36	215.33
385.56	318.31
385.75	168.52
385.95	266.82
386.14	241.08
386.34	210.65
386.53	266.82
386.72	334.70
386.92	271.50
387.11	287.89
387.31	252.78
387.50	341.72
387.70	269.16
387.89	283.20
388.09	299.59
388.28	166.18
388.48	250.44
388.67	273.84
388.86	271.50
389.06	252.78
389.25	304.27
389.45	292.57
389.64	231.71
389.84	266.82
390.03	273.84
390.22	278.52
390.42	322.99
390.61	187.24
390.81	278.52
391.00	287.89
391.19	290.23
391.39	346.40
391.58	301.93
391.78	337.04
391.97	241.08
392.16	271.50
392.36	315.97
392.55	327.68
392.75	353.42
392.94	327.68
393.13	395.55
393.33	273.84
393.52	397.89
393.71	390.87
393.91	374.49
394.10	241.08
394.29	337.04
394.49	325.33
394.68	327.68
394.88	376.83
395.07	400.23
395.26	395.55
395.46	423.64
395.65	430.66
395.84	397.89
396.04	463.43
396.23	346.40
396.42	435.34
396.62	433.00
396.81	390.87
397.00	404.91
397.19	404.91
397.39	388.53
397.58	489.17
397.77	437.68
397.97	444.70
398.16	451.72
398.35	430.66
398.55	386.19
398.74	416.62
398.93	545.34
399.12	493.85
399.32	512.58
399.51	479.81
399.70	524.28
399.90	461.09
400.09	493.85
400.28	592.16
400.47	543.00
400.67	538.32
400.86	592.16
401.05	575.77
401.24	575.77
401.44	636.63
401.63	571.09
401.82	573.43
402.01	601.52
402.21	580.45
402.40	582.79
402.59	608.54
402.78	535.98
402.97	571.09
403.17	636.63
403.36	624.92
403.55	704.50
403.74	641.31
403.93	734.93
404.13	688.12
404.32	725.57
404.51	765.36
404.70	746.63
404.89	697.48
405.09	739.61
405.28	676.41
405.47	779.40
405.66	791.10
405.85	809.83
406.05	730.25
406.24	760.67
406.43	791.10
406.62	837.91
406.81	861.32
407.00	924.51
407.20	786.42
407.39	854.30
407.58	866.00
407.77	940.90
407.96	947.92
408.15	924.51
408.34	994.73
408.54	968.98
408.73	964.30
408.92	976.00
409.11	980.68
409.30	1006.43
409.49	929.19
409.68	1128.14
409.87	1018.13
410.07	1032.18
410.26	1011.11
410.45	1053.24
410.64	1090.69
410.83	1116.44
411.02	1149.20
411.21	1149.20
411.40	1144.52
411.59	1200.69
411.78	1142.18
411.98	1132.82
412.17	1123.46
412.36	1261.55
412.55	1364.53
412.74	1196.01
412.93	1315.38
413.12	1331.76
413.31	1301.34
413.50	1413.68
413.69	1343.47
413.88	1495.60
414.07	1483.90
414.26	1425.39
414.45	1444.11
414.64	1495.60
414.83	1589.22
415.02	1380.92
415.22	1547.09
415.41	1685.19
415.60	1582.20
415.79	1586.88
415.98	1645.40
416.17	1722.63
416.36	1675.82
416.55	1717.95
416.74	1647.74
416.93	1689.87
417.12	1629.01
417.31	1734.34
417.50	1640.72
417.69	1795.19
417.88	1762.42
418.07	1842.00
418.26	1750.72
418.45	1867.75
418.64	1933.28
418.83	1935.62
419.02	1837.32
419.21	1905.20
419.39	1923.92
419.58	1806.89
419.77	1902.86
419.96	2031.58
420.15	2080.74
420.34	1956.69
420.53	2010.52
420.72	2036.27
420.91	1963.71
421.10	1980.09
421.29	2008.18
421.48	1998.82
421.67	2054.99
421.86	1991.80
422.05	2150.95
422.24	2078.40
422.43	2015.20
422.61	2033.93
422.80	2207.13
422.99	2195.42
423.18	2101.80
423.37	2225.85
423.56	2113.50
423.75	2101.80
423.94	1987.11
424.13	2104.14
424.32	2094.78
424.50	2125.21
424.69	2197.76
424.88	2139.25
425.07	2157.97
425.26	2129.89
425.45	2146.27
425.64	2251.60
425.83	2148.61
426.01	2342.88
426.20	2289.04
426.39	2214.15
426.58	2183.72
426.77	2312.45
426.96	2291.38
427.15	2181.38
427.33	2272.66
427.52	2228.19
427.71	2300.75
427.90	2361.60
428.09	2347.56
428.28	2401.39
428.46	2361.60
428.65	2363.94
428.84	2380.32
429.03	2462.24
429.22	2342.88
429.40	2413.09
429.59	2424.80
429.78	2286.70
429.97	2310.11
430.16	2370.96
430.34	2415.43
430.53	2434.16
430.72	2539.48
430.91	2478.63
431.10	2457.56
431.28	2651.83
431.47	2588.63
431.66	2602.68
431.85	2537.14
432.03	2696.30
432.22	2778.22
432.41	2647.15
432.60	2670.55
432.79	2630.76
432.97	2597.99
433.16	2621.40
433.35	2602.68
433.54	2726.72
433.72	2696.30
433.91	2574.59
434.10	2759.49
434.28	2602.68
434.47	2740.77
434.66	2708.00
434.85	2761.83
435.03	2850.77
435.22	3087.17
435.41	3220.58
435.59	3225.26
435.78	3155.04
435.97	2998.23
436.16	2960.78
436.34	2944.39
436.53	2963.12
436.72	2946.73
436.90	2876.52
437.09	2937.37
437.28	2906.95
437.46	3075.46
437.65	2920.99
437.84	2974.82
438.02	3030.99
438.21	3009.93
438.40	2956.10
438.58	2974.82
438.77	3066.10
438.96	3059.08
439.14	3164.40
439.33	3208.87
439.52	3040.36
439.70	3265.05
439.89	3276.75
440.08	3171.43
440.26	3297.81
440.45	3236.96
440.63	3248.66
440.82	3243.98
441.01	3372.71
441.19	3353.99
441.38	3440.59
441.57	3506.12
441.75	3496.76
441.94	3475.70
442.12	3403.14
442.31	3534.21
442.50	3515.48
442.68	3641.87
442.87	3515.48
443.05	3655.92
443.24	3702.73
443.43	3707.41
443.61	3630.17
443.80	3737.84
443.98	3494.42
444.17	3583.36
444.35	3768.26
444.54	3758.90
444.73	3705.07
444.91	3618.47
445.10	3627.83
445.28	3616.13
445.47	3805.71
445.65	3716.77
445.84	3751.88
446.02	3829.12
446.21	3705.07
446.39	3754.22
446.58	3772.94
446.77	3730.81
446.95	3585.70
447.14	3754.22
447.32	3779.97
447.51	3772.94
447.69	3742.52
447.88	3779.97
448.06	3791.67
448.25	3611.45
448.43	3541.23
448.62	3866.56
448.80	3681.66
448.99	3796.35
449.17	3922.74
449.36	3702.73
449.54	3953.16
449.73	3857.20
449.91	4011.68
450.10	4018.70
450.28	4070.19
450.46	4077.21
450.65	4046.79
450.83	3932.10
451.02	4016.36
451.20	4014.02
451.39	3955.51
451.57	3992.95
451.76	3978.91
451.94	4154.45
452.13	3999.98
452.31	4065.51
452.49	4114.66
452.68	4081.89
452.86	4086.58
453.05	4212.96
453.23	4156.79
453.42	3971.89
453.60	4021.04
453.78	4173.18
453.97	4149.77
454.15	4238.71
454.34	4241.05
454.52	4170.83
454.70	4379.14
454.89	4344.03
455.07	4121.68
455.26	4273.82
455.44	4400.21
455.62	4306.59
455.81	4212.96
455.99	4493.83
456.17	4301.90
456.36	4383.82
456.54	4390.84
456.73	4498.51
456.91	4407.23
457.09	4447.02
457.28	4582.77
457.46	4465.74
457.64	4636.60
457.83	4559.36
458.01	4674.05
458.19	4648.30
458.38	4535.96
458.56	4648.30
458.74	4641.28
458.93	4737.24
459.11	4533.62
459.29	4695.11
459.48	4716.18
459.66	4788.74
459.84	4706.82
460.03	4695.11
460.21	4772.35
460.39	4910.44
460.57	4765.33
460.76	4898.74
460.94	4865.97
461.12	4933.85
461.31	4774.69
461.49	4865.97
461.67	4922.15
461.85	5004.07
462.04	4943.21
462.22	5565.79
462.40	5102.37
462.59	4983.00
462.77	4873.00
462.95	5076.62
463.13	4997.04
463.32	5156.20
463.50	5085.98
463.68	5055.56
463.86	5163.22
464.05	5102.37
464.23	5167.90
464.41	5163.22
464.59	5039.17
464.78	5254.50
464.96	5125.77
465.14	5217.05
465.32	5235.78
465.50	5284.93
465.69	5350.46
465.87	5132.79
466.05	5207.69
466.23	5179.61
466.41	5235.78
466.60	5472.17
466.78	5296.63
466.96	5282.59
467.14	5291.95
467.32	5413.66
467.51	5343.44
467.69	5217.05
467.87	5411.32
468.05	5472.17
468.23	5289.61
468.41	5460.47
468.60	5394.93
468.78	5671.12
468.96	5472.17
469.14	5434.72
469.32	5596.22
469.50	5507.28
469.69	5533.03
469.87	5523.66
470.05	5645.37
470.23	5647.71
470.41	5729.63
470.59	5568.13
470.77	5776.44
470.95	6010.50
471.14	5617.29
471.32	5757.72
471.50	5994.11
471.68	5851.34
471.86	5975.39
472.04	5729.63
472.22	5959.00
472.40	5961.34
472.58	6101.78
472.77	5956.66
472.95	6033.90
473.13	6104.12
473.31	6076.03
473.49	6078.37
473.67	6061.99
473.85	6300.72
474.03	6410.73
474.21	6153.27
474.39	6274.98
474.57	6380.30
474.75	6443.49
474.93	6382.64
475.12	6431.79
475.30	6651.80
475.48	6420.09
475.66	6544.14
475.84	6597.97
476.02	6677.55
476.20	6597.97
476.38	6778.19
476.56	6654.14
476.74	6932.67
476.92	6789.89
477.10	6635.42
477.28	6815.64
477.46	6759.47
477.64	6850.75
477.82	7021.61
478.00	7155.02
478.18	7241.62
478.36	7206.51
478.54	7543.55
478.72	7304.81
478.90	7524.82
479.08	7475.67
479.26	7482.69
479.44	7494.40
479.62	7573.97
479.80	7688.66
479.98	7705.04
480.16	7885.26
480.34	7653.55
480.52	7871.22
480.70	7941.44
480.88	7859.52
481.06	8065.49
481.24	7971.86
481.41	8093.57
481.59	8264.43
481.77	8365.07
481.95	8095.91
482.13	8526.57
482.31	8549.98
482.49	8655.30
482.67	8470.40
482.85	8608.49
483.03	8875.31
483.21	8685.73
483.39	8844.88
483.57	8915.10
483.74	9022.77
483.92	9067.24
484.10	8987.66
484.28	9139.79
484.46	9324.69
484.64	9502.58
484.82	9254.48
485.00	9441.72
485.18	9638.33
485.35	9713.22
485.53	9645.35
485.71	9645.35
485.89	9771.74
486.07	9757.69
486.25	9916.85
486.43	9944.94
486.61	10090.05
486.78	10160.27
486.96	10349.85
487.14	10396.66
487.32	10347.51
487.50	10623.69
487.68	10415.38
487.85	10682.20
488.03	10857.75
488.21	10785.19
488.39	11089.46
488.57	11000.52
488.75	11042.65
488.92	11309.47
489.10	11171.38
489.28	11396.07
489.46	11400.75
489.64	11410.11
489.81	11686.29
489.99	11595.01
490.17	11730.76
490.35	11772.89
490.53	12072.48
490.70	11775.24
490.88	11868.86
491.06	12131.00
491.24	11953.12
491.41	12219.94
491.59	12184.83
491.77	12521.87
491.95	12465.69
492.13	12400.16
492.30	12645.91
492.48	12421.22
492.66	12634.21
492.84	12608.47
493.01	13118.70
493.19	12564.00
493.37	12926.78
493.54	12973.59
493.72	13308.29
493.90	13172.54
494.08	13266.16
494.25	13591.49
494.43	13549.36
494.61	13406.59
494.79	13518.93
494.96	13610.22
495.14	13809.16
495.32	13928.53
495.49	13764.69
495.67	13949.59
495.85	13973.00
496.02	14293.65
496.20	14237.48
496.38	14260.88
496.55	14373.23
496.73	14303.01
496.91	14401.32
497.09	14473.87
497.26	14679.84
497.44	14721.97
497.62	14726.65
497.79	14906.87
497.97	14511.32
498.14	15028.58
498.32	15342.21
498.50	15026.24
498.67	15316.47
498.85	15152.63
499.03	15632.44
499.20	15431.15
499.38	15248.59
499.56	15592.65
499.73	15810.32
499.91	15211.14
500.08	15709.68
500.26	15772.87
500.44	15676.91
500.61	15728.40
500.79	15679.25
500.97	16137.99
501.14	16102.89
501.32	16257.36
501.49	16079.48
501.67	16004.58
501.84	16479.71
502.02	16203.53
502.20	16580.36
502.37	16774.62
502.55	16294.81
502.72	16580.36
502.90	16465.67
503.07	16606.10
503.25	16556.95
503.43	16514.82
503.60	16760.58
503.78	16650.57
503.95	16835.47
504.13	16957.18
504.30	16957.18
504.48	16978.25
504.65	17179.53
504.83	16872.92
505.01	17228.68
505.18	17067.19
505.36	17298.90
505.53	17146.76
505.71	17322.30
505.88	17481.46
506.06	17310.60
506.23	17596.15
506.41	17820.84
506.58	17731.90
506.76	17748.28
506.93	17783.39
507.11	17769.35
507.28	17926.16
507.46	18040.85
507.63	17898.08
507.81	18045.53
507.98	18038.51
508.16	18106.38
508.33	18412.99
508.50	18298.31
508.68	18136.81
508.85	18246.82
509.03	18588.53
509.20	18637.69
509.38	18721.95
509.55	19044.94
509.73	18649.39
509.90	18675.13
510.08	18492.57
510.25	18616.62
510.42	19019.19
510.60	19147.92
510.77	19080.05
510.95	19103.45
511.12	19110.47
511.30	18710.24
511.47	18892.80
511.64	19676.88
511.82	19440.49
511.99	19632.41
512.17	19480.28
512.34	19351.55
512.51	19590.28
512.69	19894.55
512.86	19665.18
513.04	20011.58
513.21	19765.82
513.38	20123.93
513.56	20159.03
513.73	19887.53
513.90	19861.79
514.08	19873.49
514.25	20189.46
514.43	19946.05
514.60	20051.37
514.77	20154.35
514.95	20517.14
515.12	20189.46
515.29	20388.41
515.47	20322.87
515.64	20556.93
515.81	20657.57
515.99	20472.67
516.16	20968.86
516.33	20776.94
516.51	20959.50
516.68	20648.21
516.85	20673.95
517.03	20788.64
517.20	21057.80
517.37	21003.97
517.54	21149.08
517.72	21106.95
517.89	21092.91
518.06	21198.23
518.24	20753.53
518.41	21270.79
518.58	21385.47
518.75	21434.63
518.93	21406.54
519.10	21446.33
519.27	21451.01
519.45	21282.49
519.62	21605.49
519.79	21521.23
519.96	21188.87
520.14	21762.30
520.31	21642.93
520.48	21905.07
520.65	21839.54
520.83	21818.47
521.00	21926.14
521.17	22022.10
521.34	21858.26
521.52	22232.75
521.69	22099.34
521.86	22167.21
522.03	22157.85
522.20	22260.84
522.38	22136.79
522.55	22274.88
522.72	22288.92
522.89	22703.20
523.07	22427.01
523.24	22249.13
523.41	22525.32
523.58	22307.65
523.75	22682.13
523.92	22731.28
524.10	22775.75
524.27	22916.19
524.44	22377.86
524.61	22991.08
524.78	22829.59
524.96	22649.36
525.13	22902.14
525.30	22895.12
525.47	23178.33
525.64	22845.97
525.81	23328.12
525.98	23220.45
526.16	23487.28
526.33	23264.92
526.50	23718.99
526.67	23634.73
526.84	23351.52
527.01	23491.96
527.18	22850.65
527.36	23599.62
527.53	23927.30
527.70	23969.43
527.87	23697.92
528.04	23372.59
528.21	23828.99
528.38	23946.02
528.55	23803.25
528.72	24034.96
528.89	23498.98
529.07	23613.66
529.24	23564.51
529.41	23672.18
529.58	23831.33
529.75	24142.63
529.92	24100.50
530.09	24219.86
530.26	23803.25
530.43	24676.27
530.60	23777.50
530.77	24126.24
530.94	24369.66
531.11	24306.46
531.28	23941.34
531.46	24247.95
531.63	24538.18
531.80	24517.11
531.97	24587.33
532.14	24444.56
532.31	24538.18
532.48	24425.83
532.65	24655.20
532.82	24285.40
532.99	24446.90
533.16	24325.19
533.33	24800.32
533.50	24938.41
533.67	24945.43
533.84	24711.38
534.01	24470.30
534.18	24816.70
534.35	24961.81
534.52	24669.25
534.69	24922.02
534.86	25029.69
535.03	25256.72
535.20	25170.12
535.37	24748.82
535.54	24999.26
535.71	24797.98
535.88	25362.04
536.05	25324.60
536.22	25331.62
536.38	25390.13
536.55	25511.84
536.72	25130.33
536.89	25450.99
537.06	25270.76
537.23	25369.07
537.40	25270.76
537.57	25607.80
537.74	25537.59
537.91	25963.56
538.08	25958.88
538.25	25727.17
538.42	25799.73
538.59	25975.27
538.75	25504.82
538.92	25565.67
539.09	25706.10
539.26	26174.21
539.43	25902.71
539.60	26260.81
539.77	25919.09
539.94	25965.90
540.11	25605.46
540.28	25919.09
540.44	25940.16
540.61	26057.18
540.78	26003.35
540.95	26581.46
541.12	26529.97
541.29	26485.50
541.46	26590.83
541.62	26670.40
541.79	26794.45
541.96	26478.48
542.13	26471.46
542.30	26487.84
542.47	26581.46
542.63	26852.97
542.80	26700.83
542.97	26937.23
543.14	27318.73
543.31	27000.42
543.48	26366.13
543.64	26768.71
543.81	26972.33
543.98	27208.73
544.15	27068.30
544.32	27412.35
544.48	27091.70
544.65	27271.92
544.82	27180.64
544.99	26794.45
545.16	26876.37
545.32	26773.39
545.49	27786.84
545.66	28252.61
545.83	28524.11
546.00	28252.61
546.16	27630.02
546.33	27541.08
546.50	27075.32
546.67	27632.36
546.83	27007.44
547.00	27484.91
547.17	27618.32
547.34	27281.28
547.50	27477.89
547.67	27742.37
547.84	27623.00
548.00	27571.51
548.17	27372.57
548.34	27328.10
548.51	27653.43
548.67	27578.53
548.84	27463.85
549.01	27438.10
549.18	27796.20
549.34	27709.60
549.51	27496.61
549.68	27550.45
549.84	27344.48
550.01	27798.54
550.18	27608.96
550.34	27995.15
550.51	27697.90
550.68	27658.11
550.84	27346.82
551.01	27543.42
551.18	27559.81
551.34	27728.33
551.51	28032.60
551.68	27953.02
551.84	28250.27
552.01	27740.03
552.18	27735.35
552.34	27583.21
552.51	27880.46
552.68	27557.47
552.84	28013.87
553.01	27850.03
553.18	27960.04
553.34	28240.90
553.51	27941.32
553.67	28208.14
553.84	27974.08
554.01	28287.71
554.17	28093.45
554.34	27843.01
554.51	27885.14
554.67	28421.13
554.84	28505.38
555.00	28102.81
555.17	28308.78
555.33	27854.72
555.50	28196.43
555.67	27941.32
555.83	28166.01
556.00	27953.02
556.16	27992.81
556.33	28444.53
556.50	27889.82
556.66	28559.22
556.83	28395.38
556.99	28629.43
557.16	28416.44
557.32	28421.13
557.49	28088.77
557.65	28149.62
557.82	27824.29
557.98	27978.76
558.15	28245.58
558.32	28233.88
558.48	28290.06
558.65	28194.09
558.81	28205.80
558.98	28320.48
559.14	28205.80
559.31	28247.93
559.47	28304.10
559.64	28563.90
559.80	28659.86
559.97	28521.77
560.13	28566.24
560.30	28769.86
560.46	28914.98
560.63	28765.18
560.79	28535.81
560.96	28577.94
561.12	28470.28
561.29	28250.27
561.45	28624.75
561.61	28711.35
561.78	28587.30
561.94	28479.64
562.11	28891.57
562.27	28606.03
562.44	28498.36
562.60	28329.84
562.77	28491.34
562.93	28510.07
563.10	28456.23
563.26	28613.05
563.42	28460.91
563.59	28519.43
563.75	28723.05
563.92	28250.27
564.08	28503.04
564.24	28451.55
564.41	28783.91
564.57	28521.77
564.74	28624.75
564.90	28786.25
565.07	28720.71
565.23	28903.28
565.39	28631.77
565.56	28701.99
565.72	28636.45
565.88	28795.61
566.05	28549.85
566.21	28479.64
566.38	28662.20
566.54	28627.09
566.70	29074.13
566.87	29355.00
567.03	29001.58
567.19	28943.06
567.36	29062.43
567.52	28608.37
567.68	28999.24
567.85	28343.89
568.01	28643.48
568.17	28638.80
568.34	28992.22
568.50	28769.86
568.66	28907.96
568.83	28790.93
568.99	28790.93
569.15	28776.89
569.32	28964.13
569.48	28748.80
569.64	28802.63
569.81	28622.41
569.97	28863.49
570.13	28924.34
570.30	28638.80
570.46	28755.82
570.62	28528.79
570.78	28807.31
570.95	28879.87
571.11	28526.45
571.27	28666.88
571.43	28510.07
571.60	29034.35
571.76	28489.00
571.92	29092.86
572.09	28823.70
572.25	28662.20
572.41	29027.32
572.57	28753.48
572.74	28608.37
572.90	28573.26
573.06	28704.33
573.22	28957.11
573.38	28893.91
573.55	28961.79
573.71	29151.37
573.87	28996.90
574.03	29125.63
574.20	29177.12
574.36	28961.79
574.52	28863.49
574.68	28723.05
574.84	28835.40
575.01	28968.81
575.17	28634.11
575.33	28835.40
575.49	28926.68
575.65	28732.42
575.82	29050.73
575.98	28830.72
576.14	28823.70
576.30	29322.23
576.46	29013.28
576.62	29036.69
576.79	29198.18
576.95	29153.71
577.11	29048.39
577.27	29207.55
577.43	29142.01
577.59	29228.61
577.75	29095.20
577.92	28774.55
578.08	28821.36
578.24	28940.72
578.40	28989.88
578.56	29097.54
578.72	29127.97
578.88	29450.96
579.04	29336.27
579.21	29104.56
579.37	29032.00
579.53	29273.08
579.69	29027.32
579.85	28870.51
580.01	29060.09
580.17	29060.09
580.33	28896.25
580.49	29191.16
580.65	29113.92
580.82	29113.92
580.98	29109.24
581.14	28922.00
581.30	29186.48
581.46	28924.34
581.62	28727.74
581.78	28889.23
581.94	28793.27
582.10	29024.98
582.26	29055.41
582.42	28957.11
582.58	29205.20
582.74	29165.42
582.90	29273.08
583.06	29186.48
583.22	28973.49
583.38	29177.12
583.54	29118.60
583.70	29158.39
583.86	29088.18
584.02	28559.22
584.18	29242.65
584.34	28982.85
584.50	29816.08
584.66	28985.19
584.82	28985.19
584.98	28933.70
585.14	29422.87
585.30	29076.48
585.46	29165.42
585.62	28973.49
585.78	29132.65
585.94	28900.94
586.10	29500.11
586.26	28971.15
586.42	29383.09
586.58	29593.73
586.74	29170.10
586.90	29036.69
587.06	29465.00
587.22	29411.17
587.38	29706.08
587.54	29268.40
587.70	29450.96
587.86	29102.22
588.02	29209.89
588.18	29322.23
588.34	29027.32
588.49	29200.52
588.65	28870.51
588.81	28622.41
588.97	28940.72
589.13	29275.42
589.29	29289.46
589.45	29277.76
589.61	29146.69
589.77	29790.34
589.93	29289.46
590.08	29514.16
590.24	29032.00
590.40	29076.48
590.56	29266.06
590.72	29198.18
590.88	29092.86
591.04	29235.63
591.20	29745.87
591.35	29741.19
591.51	29802.04
591.67	29406.49
591.83	29443.94
591.99	29539.90
