SpectraSuite Data File
++++++++++++++++++++++++++++++++++++
Date: Fri Oct 04 11:40:04 GMT-05:00 2013
User: price-jones
Dark Spectrum Present: No
Reference Spectrum Present: No
Number of Sampled Component Spectra: 1
Spectrometers: USB2+H05261
Integration Time (usec): 100000 (USB2+H05261)
Spectra Averaged: 1 (USB2+H05261)
Boxcar Smoothing: 0 (USB2+H05261)
Correct for Electrical Dark: No (USB2+H05261)
Strobe/Lamp Enabled: No (USB2+H05261)
Correct for Detector Non-linearity: No (USB2+H05261)
Correct for Stray Light: No (USB2+H05261)
Number of Pixels in Processed Spectrum: 2048
>>>>>Begin Processed Spectral Data<<<<<
365.73	112.35
365.92	112.35
366.12	112.35
366.32	14.04
366.52	0.00
366.72	0.00
366.91	0.00
367.11	0.00
367.31	0.00
367.51	0.00
367.70	0.00
367.90	18.72
368.10	14.04
368.30	0.00
368.49	0.00
368.69	16.38
368.89	0.00
369.09	0.00
369.28	11.70
369.48	0.00
369.68	0.00
369.87	0.00
370.07	0.00
370.27	4.68
370.47	58.51
370.66	0.00
370.86	35.11
371.06	79.58
371.25	147.45
371.45	16.38
371.65	121.71
371.84	58.51
372.04	70.22
372.24	124.05
372.44	121.71
372.63	25.75
372.83	112.35
373.03	152.13
373.22	133.41
373.42	23.41
373.62	154.48
373.81	128.73
374.01	110.01
374.21	140.43
374.40	114.69
374.60	152.13
374.79	175.54
374.99	152.13
375.19	138.09
375.38	128.73
375.58	145.11
375.78	205.97
375.97	194.26
376.17	201.29
376.37	191.92
376.56	198.95
376.76	168.52
376.95	196.60
377.15	166.18
377.35	147.45
377.54	131.07
377.74	91.28
377.93	119.37
378.13	163.84
378.33	110.01
378.52	107.66
378.72	117.03
378.91	203.63
379.11	88.94
379.31	112.35
379.50	95.96
379.70	102.98
379.89	168.52
380.09	93.62
380.28	131.07
380.48	145.11
380.68	114.69
380.87	65.54
381.07	210.65
381.26	173.20
381.46	131.07
381.65	159.16
381.85	117.03
382.04	180.22
382.24	163.84
382.43	159.16
382.63	70.22
382.83	107.66
383.02	184.90
383.22	196.60
383.41	88.94
383.61	191.92
383.80	187.24
384.00	117.03
384.19	161.50
384.39	88.94
384.58	133.41
384.78	159.16
384.97	222.35
385.17	128.73
385.36	107.66
385.56	95.96
385.75	98.30
385.95	110.01
386.14	156.82
386.34	131.07
386.53	138.09
386.72	126.39
386.92	128.73
387.11	154.48
387.31	234.05
387.50	133.41
387.70	86.60
387.89	184.90
388.09	168.52
388.28	124.05
388.48	138.09
388.67	236.39
388.86	124.05
389.06	154.48
389.25	187.24
389.45	107.66
389.64	121.71
389.84	163.84
390.03	145.11
390.22	194.26
390.42	133.41
390.61	161.50
390.81	177.88
391.00	107.66
391.19	182.56
391.39	168.52
391.58	191.92
391.78	112.35
391.97	191.92
392.16	152.13
392.36	175.54
392.55	189.58
392.75	156.82
392.94	138.09
393.13	262.14
393.33	177.88
393.52	196.60
393.71	250.44
393.91	217.67
394.10	126.39
394.29	170.86
394.49	168.52
394.68	248.10
394.88	229.37
395.07	208.31
395.26	166.18
395.46	126.39
395.65	194.26
395.84	196.60
396.04	252.78
396.23	173.20
396.42	166.18
396.62	182.56
396.81	210.65
397.00	241.08
397.19	182.56
397.39	166.18
397.58	299.59
397.77	184.90
397.97	156.82
398.16	222.35
398.35	201.29
398.55	257.46
398.74	201.29
398.93	128.73
399.12	238.73
399.32	248.10
399.51	208.31
399.70	255.12
399.90	250.44
400.09	257.46
400.28	290.23
400.47	201.29
400.67	299.59
400.86	220.01
401.05	215.33
401.24	287.89
401.44	269.16
401.63	252.78
401.82	266.82
402.01	224.69
402.21	262.14
402.40	285.55
402.59	243.42
402.78	264.48
402.97	287.89
403.17	259.80
403.36	215.33
403.55	257.46
403.74	374.49
403.93	337.04
404.13	355.76
404.32	393.21
404.51	409.59
404.70	365.12
404.89	383.85
405.09	360.44
405.28	313.63
405.47	285.55
405.66	341.72
405.85	283.20
406.05	311.29
406.24	332.36
406.43	271.50
406.62	311.29
406.81	355.76
407.00	320.65
407.20	402.57
407.39	369.80
407.58	327.68
407.77	397.89
407.96	390.87
408.15	351.08
408.34	348.74
408.54	376.83
408.73	308.95
408.92	386.19
409.11	411.93
409.30	390.87
409.49	449.38
409.68	360.44
409.87	435.34
410.07	404.91
410.26	475.13
410.45	489.17
410.64	362.78
410.83	395.55
411.02	428.32
411.21	533.64
411.40	447.04
411.59	430.66
411.78	461.09
411.98	458.74
412.17	451.72
412.36	486.83
412.55	482.15
412.74	524.28
412.93	533.64
413.12	409.59
413.31	510.24
413.50	547.69
413.69	507.90
413.88	585.13
414.07	580.45
414.26	491.51
414.45	521.94
414.64	592.16
414.83	596.84
415.02	662.37
415.22	615.56
415.41	596.84
415.60	540.66
415.79	564.07
415.98	554.71
416.17	571.09
416.36	620.24
416.55	627.26
416.74	606.20
416.93	678.76
417.12	580.45
417.31	741.95
417.50	645.99
417.69	655.35
417.88	601.52
418.07	615.56
418.26	662.37
418.45	608.54
418.64	704.50
418.83	582.79
419.02	603.86
419.21	624.92
419.39	613.22
419.58	674.07
419.77	641.31
419.96	821.53
420.15	662.37
420.34	709.18
420.53	671.73
420.72	765.36
420.91	648.33
421.10	697.48
421.29	802.80
421.48	732.59
421.67	716.20
421.86	732.59
422.05	793.44
422.24	643.65
422.43	695.14
422.61	751.31
422.80	767.70
422.99	828.55
423.18	791.10
423.37	793.44
423.56	758.33
423.75	716.20
423.94	746.63
424.13	774.72
424.32	706.84
424.50	784.08
424.69	777.06
424.88	746.63
425.07	802.80
425.26	739.61
425.45	814.51
425.64	676.41
425.83	725.57
426.01	788.76
426.20	842.59
426.39	741.95
426.58	786.42
426.77	662.37
426.96	737.27
427.15	826.21
427.33	807.48
427.52	779.40
427.71	770.04
427.90	835.57
428.09	688.12
428.28	819.19
428.46	793.44
428.65	821.53
428.84	854.30
429.03	812.17
429.22	851.96
429.40	826.21
429.59	866.00
429.78	849.61
429.97	809.83
430.16	861.32
430.34	929.19
430.53	875.36
430.72	889.40
430.91	788.76
431.10	812.17
431.28	816.85
431.47	788.76
431.66	896.43
431.85	926.85
432.03	905.79
432.22	887.06
432.41	912.81
432.60	924.51
432.79	973.66
432.97	936.21
433.16	915.15
433.35	959.62
433.54	866.00
433.72	931.53
433.91	938.55
434.10	980.68
434.28	978.34
434.47	1013.45
434.66	959.62
434.85	992.39
435.03	1123.46
435.22	1350.49
435.41	1680.50
435.59	1685.19
435.78	1394.96
435.97	1214.74
436.16	1107.07
436.34	1001.75
436.53	1034.52
436.72	1048.56
436.90	966.64
437.09	1062.60
437.28	1036.86
437.46	1027.50
437.65	1139.84
437.84	1107.07
438.02	1018.13
438.21	990.05
438.40	1050.90
438.58	1053.24
438.77	1130.48
438.96	1071.97
439.14	1074.31
439.33	1090.69
439.52	1221.76
439.70	1067.28
439.89	1123.46
440.08	1100.05
440.26	1083.67
440.45	1186.65
440.63	1060.26
440.82	1076.65
441.01	1013.45
441.19	1177.29
441.38	1200.69
441.57	1104.73
441.75	1121.12
441.94	1247.51
442.12	1177.29
442.31	1158.57
442.50	1198.35
442.68	1170.27
442.87	1254.53
443.05	1174.95
443.24	1289.64
443.43	1289.64
443.61	1219.42
443.80	1277.93
443.98	1301.34
444.17	1247.51
444.35	1224.10
444.54	1282.61
444.73	1177.29
444.91	1306.02
445.10	1275.59
445.28	1235.80
445.47	1231.12
445.65	1322.40
445.84	1296.66
446.02	1324.74
446.21	1212.40
446.39	1235.80
446.58	1217.08
446.77	1313.04
446.95	1242.82
447.14	1313.04
447.32	1280.27
447.51	1308.36
447.69	1212.40
447.88	1263.89
448.06	1355.17
448.25	1289.64
448.43	1287.29
448.62	1240.48
448.80	1331.76
448.99	1282.61
449.17	1310.70
449.36	1336.45
449.54	1373.89
449.73	1277.93
449.91	1289.64
450.10	1308.36
450.28	1397.30
450.46	1481.56
450.65	1423.05
450.83	1357.51
451.02	1357.51
451.20	1371.55
451.39	1397.30
451.57	1385.60
451.76	1390.28
451.94	1331.76
452.13	1401.98
452.31	1359.85
452.49	1345.81
452.68	1362.19
452.86	1350.49
453.05	1502.62
453.23	1406.66
453.42	1313.04
453.60	1383.26
453.78	1425.39
453.97	1404.32
454.15	1437.09
454.34	1317.72
454.52	1385.60
454.70	1385.60
454.89	1453.47
455.07	1394.96
455.26	1448.79
455.44	1519.01
455.62	1497.94
455.81	1437.09
455.99	1397.30
456.17	1439.43
456.36	1493.26
456.54	1586.88
456.73	1497.94
456.91	1540.07
457.09	1540.07
457.28	1577.52
457.46	1533.05
457.64	1523.69
457.83	1547.09
458.01	1523.69
458.19	1511.99
458.38	1474.54
458.56	1533.05
458.74	1509.65
458.93	1565.82
459.11	1582.20
459.29	1612.63
459.48	1661.78
459.66	1624.33
459.84	1617.31
460.03	1680.50
460.21	1614.97
460.39	1643.06
460.57	1577.52
460.76	1638.38
460.94	1703.91
461.12	1664.12
461.31	1729.66
461.49	1621.99
461.67	1687.53
461.85	1596.25
462.04	1591.56
462.22	2010.52
462.40	1659.44
462.59	1589.22
462.77	1687.53
462.95	1666.46
463.13	1668.80
463.32	1729.66
463.50	1732.00
463.68	1636.03
463.86	1823.28
464.05	1722.63
464.23	1631.35
464.41	1720.29
464.59	1732.00
464.78	1746.04
464.96	1743.70
465.14	1788.17
465.32	1795.19
465.50	1750.72
465.69	1701.57
465.87	1753.06
466.05	1760.08
466.23	1687.53
466.41	1739.02
466.60	1734.34
466.78	1816.26
466.96	1785.83
467.14	1734.34
467.32	1856.04
467.51	1853.70
467.69	1720.29
467.87	1743.70
468.05	1884.13
468.23	1879.45
468.41	1748.38
468.60	1678.16
468.78	1919.24
468.96	1732.00
469.14	1811.57
469.32	1893.49
469.50	1830.30
469.69	1905.20
469.87	1994.14
470.05	1856.04
470.23	2038.61
470.41	1809.23
470.59	1872.43
470.77	1914.56
470.95	1926.26
471.14	1870.09
471.32	1968.39
471.50	1961.37
471.68	1811.57
471.86	1959.03
472.04	1912.22
472.22	2019.88
472.40	1844.34
472.58	2125.21
472.77	1998.82
472.95	2015.20
473.13	2022.22
473.31	2148.61
473.49	1900.52
473.67	2052.65
473.85	2019.88
474.03	2059.67
474.21	2052.65
474.39	2064.35
474.57	2190.74
474.75	2101.80
474.93	2073.71
475.12	2148.61
475.30	2139.25
475.48	2106.48
475.66	2090.10
475.84	2242.23
476.02	2190.74
476.20	2106.48
476.38	2146.27
476.56	2279.68
476.74	2253.94
476.92	2260.96
477.10	2139.25
477.28	2293.72
477.46	2249.25
477.64	2211.81
477.82	2340.54
478.00	2382.67
478.18	2235.21
478.36	2347.56
478.54	2483.31
478.72	2401.39
478.90	2476.29
479.08	2380.32
479.26	2541.82
479.44	2387.35
479.62	2476.29
479.80	2476.29
479.98	2483.31
480.16	2499.69
480.34	2654.17
480.52	2551.18
480.70	2726.72
480.88	2637.78
481.06	2572.25
481.24	2483.31
481.41	2651.83
481.59	2597.99
481.77	2656.51
481.95	2693.96
482.13	2808.64
482.31	2696.30
482.49	2745.45
482.67	2722.04
482.85	2923.33
483.03	2925.67
483.21	2981.84
483.39	2885.88
483.57	2902.26
483.74	2995.89
483.92	2970.14
484.10	2953.76
484.28	3056.74
484.46	3145.68
484.64	3061.42
484.82	3007.59
485.00	3131.64
485.18	3199.51
485.35	3227.60
485.53	2998.23
485.71	3094.19
485.89	3183.13
486.07	3351.65
486.25	3234.62
486.43	3208.87
486.61	3414.84
486.78	3496.76
486.96	3302.50
487.14	3449.95
487.32	3419.52
487.50	3492.08
487.68	3569.32
487.85	3438.25
488.03	3463.99
488.21	3648.90
488.39	3555.27
488.57	3489.74
488.75	3508.46
488.92	3927.42
489.10	3735.50
489.28	3660.60
489.46	3655.92
489.64	3674.64
489.81	3833.80
489.99	3684.00
490.17	3829.12
490.35	3796.35
490.53	3716.77
490.70	3730.81
490.88	3932.10
491.06	3822.09
491.24	3939.12
491.41	3896.99
491.59	4060.83
491.77	3836.14
491.95	4072.53
492.13	3992.95
492.30	4081.89
492.48	4042.11
492.66	4124.02
492.84	4044.45
493.01	4201.26
493.19	4079.55
493.37	4273.82
493.54	4219.99
493.72	4170.83
493.90	4105.30
494.08	4074.87
494.25	4250.41
494.43	4344.03
494.61	4358.08
494.79	4222.33
494.96	4486.81
495.14	4322.97
495.32	4360.42
495.49	4507.87
495.67	4545.32
495.85	4524.26
496.02	4629.58
496.20	4564.04
496.38	4589.79
496.55	4493.83
496.73	4606.17
496.91	4587.45
497.09	4564.04
497.26	4657.67
497.44	4566.39
497.62	4676.39
497.79	4863.63
497.97	4734.90
498.14	4802.78
498.32	4856.61
498.50	4755.97
498.67	4987.68
498.85	4732.56
499.03	4851.93
499.20	4858.95
499.38	4858.95
499.56	4891.72
499.73	5025.13
499.91	5015.77
500.08	4868.31
500.26	5029.81
500.44	5097.69
500.61	5013.43
500.79	4999.38
500.97	5071.94
501.14	5097.69
501.32	5111.73
501.49	5025.13
501.67	5013.43
501.84	5078.96
502.02	5097.69
502.20	5270.89
502.37	5242.80
502.55	5249.82
502.72	5188.97
502.90	5186.63
503.07	5259.18
503.25	5184.29
503.43	5114.07
503.60	5287.27
503.78	5390.25
503.95	5207.69
504.13	5348.12
504.30	5397.28
504.48	5462.81
504.65	5666.44
504.83	5401.96
505.01	5418.34
505.18	5397.28
505.36	5521.32
505.53	5483.88
505.71	5636.01
505.88	5427.70
506.06	5561.11
506.23	5624.31
506.41	5486.22
506.58	5563.45
506.76	5490.90
506.93	5591.54
507.11	5568.13
507.28	5654.73
507.46	5596.22
507.63	5647.71
507.81	5783.46
507.98	5682.82
508.16	5757.72
508.33	5624.31
508.50	5682.82
508.68	5806.87
508.85	5736.65
509.03	5837.30
509.20	5820.91
509.38	5792.83
509.55	5987.09
509.73	5858.36
509.90	5806.87
510.08	5771.76
510.25	5870.06
510.42	5923.90
510.60	5832.62
510.77	6111.14
510.95	5977.73
511.12	5919.21
511.30	6073.69
511.47	6071.35
511.64	5928.58
511.82	6125.18
511.99	6179.01
512.17	6134.54
512.34	6183.70
512.51	6139.23
512.69	6125.18
512.86	6216.46
513.04	6132.20
513.21	6253.91
513.38	6047.94
513.56	6270.30
513.73	6146.25
513.90	6200.08
514.08	6237.53
514.25	6246.89
514.43	6263.27
514.60	6326.47
514.77	6403.71
514.95	6186.04
515.12	6377.96
515.29	6300.72
515.47	6478.60
515.64	6502.01
515.81	6429.45
515.99	6544.14
516.16	6382.64
516.33	6511.37
516.51	6520.73
516.68	6466.90
516.85	6413.07
517.03	6628.40
517.20	6551.16
517.37	6513.71
517.54	6523.07
517.72	6642.44
517.89	6506.69
518.06	6546.48
518.24	6637.76
518.41	6590.95
518.58	6691.59
518.75	6836.70
518.93	6672.87
519.10	6860.11
519.27	6747.76
519.45	6675.21
519.62	6565.20
519.79	6647.12
519.96	6691.59
520.14	6792.23
520.31	6771.17
520.48	6684.57
520.65	6677.55
520.83	6881.18
521.00	6586.27
521.17	6771.17
521.34	6829.68
521.52	6986.50
521.69	7000.54
521.86	6965.43
522.03	6979.48
522.20	6984.16
522.38	6834.36
522.55	6993.52
522.72	6834.36
522.89	6871.81
523.07	7023.95
523.24	6927.99
523.41	6935.01
523.58	7023.95
523.75	7080.12
523.92	7122.25
524.10	7094.16
524.27	6970.12
524.44	7143.32
524.61	7176.08
524.78	7077.78
524.96	7049.69
525.13	7016.93
525.30	7337.58
525.47	7332.90
525.64	7229.91
525.81	7206.51
525.98	7185.44
526.16	7136.29
526.33	7129.27
526.50	7321.20
526.67	7096.50
526.84	7105.87
527.01	7155.02
527.18	7424.18
527.36	7346.94
527.53	7377.37
527.70	7459.29
527.87	7499.08
528.04	7346.94
528.21	7351.62
528.38	7332.90
528.55	7494.40
528.72	7304.81
528.89	7442.90
529.07	7370.35
529.24	7133.95
529.41	7566.95
529.58	7440.56
529.75	7265.02
529.92	7475.67
530.09	7529.50
530.26	7480.35
530.43	7569.29
530.60	7529.50
530.77	7576.31
530.94	7618.44
531.11	7520.14
531.28	7520.14
531.46	7461.63
531.63	7559.93
531.80	7494.40
531.97	7665.25
532.14	7391.41
532.31	7534.18
532.48	7630.15
532.65	7583.34
532.82	7566.95
532.99	7576.31
533.16	7719.09
533.33	7831.43
533.50	7810.37
533.67	7709.72
533.84	7513.12
534.01	7683.98
534.18	7761.22
534.35	7786.96
534.52	7726.11
534.69	8056.12
534.86	7859.52
535.03	7786.96
535.20	7707.38
535.37	7808.03
535.54	7925.05
535.71	7737.81
535.88	7768.24
536.05	7913.35
536.22	7911.01
536.38	7866.54
536.55	7892.29
536.72	8004.63
536.89	7861.86
537.06	7906.33
537.23	7990.59
537.40	7903.99
537.57	7894.63
537.74	7911.01
537.91	7983.57
538.08	8100.59
538.25	7974.21
538.42	7992.93
538.59	8091.23
538.75	8135.70
538.92	8084.21
539.09	7971.86
539.26	8276.13
539.43	8395.50
539.60	8306.56
539.77	8444.65
539.94	8287.84
540.11	8177.83
540.28	8428.27
540.44	8514.87
540.61	8397.84
540.78	8327.63
540.95	8512.53
541.12	8706.79
541.29	8704.45
541.46	8734.88
541.62	9004.04
541.79	8861.27
541.96	8922.12
542.13	8755.94
542.30	9004.04
542.47	8755.94
542.63	8905.74
542.80	8933.82
542.97	8851.91
543.14	8945.53
543.31	8816.80
543.48	8683.39
543.64	8992.34
543.81	9139.79
543.98	8767.65
544.15	8957.23
544.32	8800.41
544.48	8971.27
544.65	8931.48
544.82	8826.16
544.99	9036.81
545.16	8844.88
545.32	8781.69
545.49	9387.89
545.66	10167.29
545.83	10389.64
546.00	10076.01
546.16	9441.72
546.33	9214.69
546.50	8954.89
546.67	9036.81
546.83	8891.70
547.00	8734.88
547.17	8884.67
547.34	8795.73
547.50	8802.75
547.67	8870.63
547.84	8798.07
548.00	8833.18
548.17	8582.74
548.34	8741.90
548.51	8908.08
548.67	8812.12
548.84	8950.21
549.01	8837.86
549.18	8786.37
549.34	8865.95
549.51	8798.07
549.68	8847.22
549.84	8645.94
550.01	8830.84
550.18	8732.54
550.34	8746.58
550.51	8718.50
550.68	8889.35
550.84	8683.39
551.01	8879.99
551.18	8554.66
551.34	8542.96
551.51	8521.89
551.68	8868.29
551.84	8638.92
552.01	8634.24
552.18	8760.63
552.34	8732.54
552.51	8760.63
552.68	8702.11
552.84	8634.24
553.01	8816.80
553.18	8875.31
553.34	8847.22
553.51	8650.62
553.67	8891.70
553.84	8751.26
554.01	8828.50
554.17	8636.58
554.34	8606.15
554.51	8877.65
554.67	8847.22
554.84	8720.84
555.00	8643.60
555.17	8800.41
555.33	8781.69
555.50	8739.56
555.67	8828.50
555.83	8723.18
556.00	8622.53
556.16	8868.29
556.33	8711.47
556.50	8652.96
556.66	8678.71
556.83	8760.63
556.99	8713.81
557.16	8865.95
557.32	8718.50
557.49	8847.22
557.65	8606.15
557.82	8732.54
557.98	8868.29
558.15	8711.47
558.32	8706.79
558.48	8734.88
558.65	8816.80
558.81	8910.42
558.98	8730.20
559.14	8858.93
559.31	8695.09
559.47	8723.18
559.64	8788.71
559.80	8987.66
559.97	8795.73
560.13	8879.99
560.30	8826.16
560.46	8638.92
560.63	8828.50
560.79	9027.45
560.96	8723.18
561.12	8769.99
561.29	8816.80
561.45	8947.87
561.61	8723.18
561.78	8980.64
561.94	8863.61
562.11	8769.99
562.27	8863.61
562.44	8870.63
562.60	8910.42
562.77	8861.27
562.93	8812.12
563.10	8879.99
563.26	8828.50
563.42	9046.17
563.59	8875.31
563.75	8781.69
563.92	8788.71
564.08	8919.78
564.24	8980.64
564.41	8847.22
564.57	8784.03
564.74	9064.89
564.90	8990.00
565.07	8905.74
565.23	8987.66
565.39	8798.07
565.56	8901.06
565.72	8856.59
565.88	8805.10
566.05	8840.20
566.21	8685.73
566.38	8748.92
566.54	8933.82
566.70	8833.18
566.87	8905.74
567.03	8947.87
567.19	9032.13
567.36	8889.35
567.52	8901.06
567.68	8879.99
567.85	8901.06
568.01	8819.14
568.17	8971.27
568.34	8875.31
568.50	8861.27
568.66	9001.70
568.83	8940.85
568.99	8795.73
569.15	8952.55
569.32	8805.10
569.48	8884.67
569.64	8800.41
569.81	8980.64
569.97	8643.60
570.13	8870.63
570.30	8643.60
570.46	8727.86
570.62	8741.90
570.78	8744.24
570.95	8823.82
571.11	9015.74
571.27	8802.75
571.43	8861.27
571.60	8957.23
571.76	8872.97
571.92	8734.88
572.09	8917.44
572.25	9008.72
572.41	9029.79
572.57	8887.01
572.74	8896.38
572.90	9004.04
573.06	8940.85
573.22	8685.73
573.38	8978.30
573.55	8833.18
573.71	8985.32
573.87	9212.35
574.03	8999.36
574.20	8847.22
574.36	8912.76
574.52	8601.47
574.68	8854.25
574.84	8994.68
575.01	8854.25
575.17	8985.32
575.33	8966.59
575.49	9020.42
575.65	9055.53
575.82	9025.11
575.98	9027.45
576.14	8894.04
576.30	9027.45
576.46	8922.12
576.62	9139.79
576.79	9170.22
576.95	9174.90
577.11	9015.74
577.27	8978.30
577.43	9055.53
577.59	9043.83
577.75	9067.24
577.92	8650.62
578.08	8891.70
578.24	8978.30
578.40	8847.22
578.56	9076.60
578.72	9151.49
578.88	9394.91
579.04	9298.95
579.21	9156.18
579.37	9041.49
579.53	9004.04
579.69	9015.74
579.85	8985.32
580.01	9090.64
580.17	8884.67
580.33	9153.84
580.49	9006.38
580.65	8931.48
580.82	8952.55
580.98	9022.77
581.14	9092.98
581.30	8908.08
581.46	8819.14
581.62	8997.02
581.78	8938.51
581.94	9074.26
582.10	9188.94
582.26	9111.71
582.42	9043.83
582.58	9214.69
582.74	8985.32
582.90	9118.73
583.06	9092.98
583.22	9142.13
583.38	9076.60
583.54	9151.49
583.70	8957.23
583.86	9172.56
584.02	8891.70
584.18	9200.65
584.34	9015.74
584.50	9050.85
584.66	9214.69
584.82	8865.95
584.98	9085.96
585.14	9029.79
585.30	8901.06
585.46	9114.05
585.62	8975.95
585.78	9097.66
585.94	8929.14
586.10	9177.24
586.26	8943.19
586.42	9188.94
586.58	9160.86
586.74	9015.74
586.90	9071.92
587.06	9238.09
587.22	9249.80
587.38	9027.45
587.54	9310.65
587.70	9174.90
587.86	8954.89
588.02	9039.15
588.18	9107.02
588.34	9174.90
588.49	9146.81
588.65	8877.65
588.81	9027.45
588.97	9132.77
589.13	9064.89
589.29	9284.91
589.45	8978.30
589.61	9076.60
589.77	9078.94
589.93	8987.66
590.08	9301.29
590.24	9001.70
590.40	8940.85
590.56	9041.49
590.72	9088.30
590.88	8987.66
591.04	9053.19
591.20	9214.69
591.35	9439.38
591.51	9256.82
591.67	9202.99
591.83	9153.84
591.99	9214.69
592.15	9165.54
592.31	9165.54
592.46	9254.48
592.62	9020.42
592.78	9083.62
592.94	9371.50
593.10	9268.52
593.26	9156.18
593.41	9156.18
593.57	9083.62
593.73	9076.60
593.89	8957.23
594.05	9252.14
594.20	9055.53
594.36	8987.66
594.52	9055.53
594.68	9109.36
594.84	9025.11
594.99	9125.75
595.15	9027.45
595.31	9153.84
595.47	9104.68
595.62	9116.39
595.78	9210.01
595.94	9081.28
596.10	8947.87
596.25	9060.21
596.41	8924.46
596.57	9104.68
596.73	9062.55
596.88	9123.41
597.04	9085.96
597.20	9055.53
597.36	9118.73
597.51	9205.33
597.67	8952.55
597.83	9139.79
597.99	9165.54
598.14	8912.76
598.30	9165.54
598.46	9235.75
598.61	9015.74
598.77	8964.25
598.93	9053.19
599.09	9188.94
599.24	9282.56
599.40	9282.56
599.56	9107.02
599.71	8929.14
599.87	8987.66
600.03	9067.24
