SpectraSuite Data File
++++++++++++++++++++++++++++++++++++
Date: Fri Oct 04 11:39:18 GMT-05:00 2013
User: price-jones
Dark Spectrum Present: No
Reference Spectrum Present: No
Number of Sampled Component Spectra: 1
Spectrometers: USB2+H05261
Integration Time (usec): 100000 (USB2+H05261)
Spectra Averaged: 1 (USB2+H05261)
Boxcar Smoothing: 0 (USB2+H05261)
Correct for Electrical Dark: No (USB2+H05261)
Strobe/Lamp Enabled: No (USB2+H05261)
Correct for Detector Non-linearity: No (USB2+H05261)
Correct for Stray Light: No (USB2+H05261)
Number of Pixels in Processed Spectrum: 2048
>>>>>Begin Processed Spectral Data<<<<<
365.73	67.88
365.92	67.88
366.12	67.88
366.32	32.77
366.52	0.00
366.72	0.00
366.91	0.00
367.11	0.00
367.31	0.00
367.51	0.00
367.70	0.00
367.90	14.04
368.10	0.00
368.30	0.00
368.49	11.70
368.69	0.00
368.89	0.00
369.09	0.00
369.28	0.00
369.48	25.75
369.68	16.38
369.87	65.54
370.07	39.79
370.27	46.81
370.47	86.60
370.66	189.58
370.86	189.58
371.06	231.71
371.25	355.76
371.45	320.65
371.65	301.93
371.84	318.31
372.04	297.25
372.24	304.27
372.44	255.12
372.63	334.70
372.83	386.19
373.03	395.55
373.22	325.33
373.42	393.21
373.62	262.14
373.81	287.89
374.01	400.23
374.21	423.64
374.40	308.95
374.60	365.12
374.79	435.34
374.99	297.25
375.19	341.72
375.38	376.83
375.58	353.42
375.78	402.57
375.97	416.62
376.17	388.53
376.37	353.42
376.56	435.34
376.76	372.15
376.95	362.78
377.15	395.55
377.35	449.38
377.54	404.91
377.74	376.83
377.93	416.62
378.13	351.08
378.33	433.00
378.52	351.08
378.72	383.85
378.91	458.74
379.11	463.43
379.31	404.91
379.50	437.68
379.70	407.25
379.89	369.80
380.09	486.83
380.28	437.68
380.48	465.77
380.68	416.62
380.87	390.87
381.07	498.53
381.26	430.66
381.46	404.91
381.65	496.19
381.85	433.00
382.04	456.40
382.24	540.66
382.43	430.66
382.63	442.36
382.83	510.24
383.02	547.69
383.22	514.92
383.41	447.04
383.61	505.56
383.80	475.13
384.00	505.56
384.19	470.45
384.39	578.11
384.58	510.24
384.78	517.26
384.97	580.45
385.17	472.79
385.36	533.64
385.56	578.11
385.75	519.60
385.95	512.58
386.14	580.45
386.34	564.07
386.53	517.26
386.72	575.77
386.92	634.29
387.11	568.75
387.31	524.28
387.50	617.90
387.70	517.26
387.89	631.94
388.09	594.50
388.28	587.47
388.48	589.82
388.67	653.01
388.86	538.32
389.06	545.34
389.25	559.39
389.45	624.92
389.64	669.39
389.84	638.97
390.03	688.12
390.22	678.76
390.42	695.14
390.61	603.86
390.81	631.94
391.00	734.93
391.19	624.92
391.39	725.57
391.58	713.86
391.78	690.46
391.97	704.50
392.16	692.80
392.36	695.14
392.55	777.06
392.75	767.70
392.94	746.63
393.13	725.57
393.33	657.69
393.52	748.97
393.71	767.70
393.91	851.96
394.10	713.86
394.29	772.38
394.49	809.83
394.68	842.59
394.88	744.29
395.07	798.12
395.26	854.30
395.46	814.51
395.65	807.48
395.84	851.96
396.04	842.59
396.23	931.53
396.42	887.06
396.62	961.96
396.81	894.08
397.00	896.43
397.19	903.45
397.39	873.02
397.58	882.38
397.77	912.81
397.97	933.87
398.16	873.02
398.35	994.73
398.55	919.83
398.74	983.02
398.93	1036.86
399.12	1041.54
399.32	919.83
399.51	1062.60
399.70	1015.79
399.90	1015.79
400.09	1078.99
400.28	1086.01
400.47	1081.33
400.67	1165.59
400.86	1015.79
401.05	1121.12
401.24	1036.86
401.44	1086.01
401.63	1074.31
401.82	1111.75
402.01	1144.52
402.21	1095.37
402.40	1109.41
402.59	1179.63
402.78	1100.05
402.97	1130.48
403.17	1193.67
403.36	1203.04
403.55	1188.99
403.74	1249.85
403.93	1343.47
404.13	1221.76
404.32	1203.04
404.51	1327.08
404.70	1341.13
404.89	1313.04
405.09	1380.92
405.28	1287.29
405.47	1380.92
405.66	1392.62
405.85	1413.68
406.05	1413.68
406.24	1313.04
406.43	1460.49
406.62	1467.52
406.81	1593.90
407.00	1514.33
407.20	1493.26
407.39	1348.15
407.58	1486.24
407.77	1500.28
407.96	1643.06
408.15	1547.09
408.34	1507.30
408.54	1565.82
408.73	1533.05
408.92	1647.74
409.11	1664.12
409.30	1614.97
409.49	1645.40
409.68	1764.76
409.87	1675.82
410.07	1673.48
410.26	1659.44
410.45	1724.97
410.64	1715.61
410.83	1724.97
411.02	1720.29
411.21	1842.00
411.40	1851.36
411.59	1860.73
411.78	1879.45
411.98	1867.75
412.17	1844.34
412.36	1944.99
412.55	1914.56
412.74	1998.82
412.93	2099.46
413.12	1870.09
413.31	2197.76
413.50	2052.65
413.69	2033.93
413.88	2108.82
414.07	2157.97
414.26	2106.48
414.45	2183.72
414.64	2244.57
414.83	2139.25
415.02	2312.45
415.22	2317.13
415.41	2410.75
415.60	2256.28
415.79	2385.01
415.98	2359.26
416.17	2326.49
416.36	2408.41
416.55	2392.03
416.74	2424.80
416.93	2380.32
417.12	2619.06
417.31	2558.21
417.50	2548.84
417.69	2644.81
417.88	2691.62
418.07	2525.44
418.26	2553.52
418.45	2567.57
418.64	2768.85
418.83	2827.37
419.02	2684.59
419.21	2764.17
419.39	2743.11
419.58	2689.28
419.77	2633.10
419.96	2745.45
420.15	2860.13
420.34	2764.17
420.53	3012.27
420.72	2878.86
420.91	2930.35
421.10	3049.72
421.29	2853.11
421.48	2825.03
421.67	3096.53
421.86	2937.37
422.05	2977.16
422.24	2981.84
422.43	3026.31
422.61	3089.51
422.80	3087.17
422.99	3098.87
423.18	3007.59
423.37	3035.67
423.56	3110.57
423.75	3082.49
423.94	3117.59
424.13	2935.03
424.32	3014.61
424.50	3187.81
424.69	3119.93
424.88	3220.58
425.07	3033.33
425.26	3164.40
425.45	3087.17
425.64	3089.51
425.83	3101.21
426.01	3173.77
426.20	3204.19
426.39	3185.47
426.58	3162.06
426.77	3204.19
426.96	3246.32
427.15	3293.13
427.33	3265.05
427.52	3349.31
427.71	3316.54
427.90	3258.03
428.09	3332.92
428.28	3431.23
428.46	3307.18
428.65	3438.25
428.84	3449.95
429.03	3435.91
429.22	3424.20
429.40	3419.52
429.59	3393.78
429.78	3309.52
429.97	3328.24
430.16	3234.62
430.34	3543.57
430.53	3686.34
430.72	3602.08
430.91	3494.42
431.10	3501.44
431.28	3662.94
431.47	3667.62
431.66	3637.19
431.85	3620.81
432.03	3726.13
432.22	3662.94
432.41	3735.50
432.60	3845.50
432.79	3768.26
432.97	3805.71
433.16	3751.88
433.35	3735.50
433.54	3885.29
433.72	3974.23
433.91	3871.25
434.10	3901.67
434.28	3950.82
434.47	4063.17
434.66	4063.17
434.85	3946.14
435.03	4105.30
435.22	4156.79
435.41	4484.47
435.59	4447.02
435.78	4418.93
435.97	4184.88
436.16	4238.71
436.34	4081.89
436.53	4259.78
436.72	4290.20
436.90	4135.73
437.09	4208.28
437.28	4175.52
437.46	4161.47
437.65	4205.94
437.84	4290.20
438.02	4297.22
438.21	4287.86
438.40	4250.41
438.58	4390.84
438.77	4486.81
438.96	4355.74
439.14	4428.29
439.33	4587.45
439.52	4592.13
439.70	4585.11
439.89	4725.54
440.08	4702.14
440.26	4774.69
440.45	4875.34
440.63	4685.75
440.82	4889.38
441.01	4798.10
441.19	4709.16
441.38	4830.87
441.57	4894.06
441.75	5015.77
441.94	5188.97
442.12	4985.34
442.31	5064.92
442.50	5195.99
442.68	5130.45
442.87	5123.43
443.05	5146.84
443.24	5221.74
443.43	5270.89
443.61	5298.97
443.80	5383.23
443.98	5029.81
444.17	5025.13
444.35	5256.84
444.54	5210.03
444.73	5282.59
444.91	5259.18
445.10	5324.72
445.28	5235.78
445.47	5387.91
445.65	5221.74
445.84	5416.00
446.02	5437.06
446.21	5362.17
446.39	5308.34
446.58	5308.34
446.77	5378.55
446.95	5378.55
447.14	5434.72
447.32	5542.39
447.51	5516.64
447.69	5430.04
447.88	5413.66
448.06	5516.64
448.25	5313.02
448.43	5493.24
448.62	5355.15
448.80	5425.36
448.99	5518.98
449.17	5518.98
449.36	5540.05
449.54	5624.31
449.73	5666.44
449.91	5448.77
450.10	5820.91
450.28	5818.57
450.46	5795.17
450.65	5731.97
450.83	5715.59
451.02	5703.89
451.20	5865.38
451.39	5820.91
451.57	5809.21
451.76	5785.80
451.94	5734.31
452.13	6024.54
452.31	5820.91
452.49	5944.96
452.68	5851.34
452.86	5853.68
453.05	6122.84
453.23	5937.94
453.42	5724.95
453.60	6022.20
453.78	6069.01
453.97	5891.13
454.15	6010.50
454.34	6015.18
454.52	6239.87
454.70	6179.01
454.89	6249.23
455.07	6052.63
455.26	6307.74
455.44	6319.45
455.62	6277.32
455.81	6169.65
455.99	6375.62
456.17	6441.15
456.36	6497.33
456.54	6410.73
456.73	6410.73
456.91	6509.03
457.09	6691.59
457.28	6789.89
457.46	6628.40
457.64	6768.83
457.83	6712.66
458.01	6544.14
458.19	6759.47
458.38	6637.76
458.56	6913.94
458.74	6801.60
458.93	6871.81
459.11	6806.28
459.29	6801.60
459.48	6759.47
459.66	6815.64
459.84	7180.76
460.03	6998.20
460.21	6867.13
460.39	6998.20
460.57	7082.46
460.76	6963.09
460.94	7045.01
461.12	7054.37
461.31	7265.02
461.49	7042.67
461.67	7054.37
461.85	7185.44
462.04	7272.04
462.22	7613.76
462.40	7377.37
462.59	7300.13
462.77	7405.46
462.95	7421.84
463.13	7428.86
463.32	7475.67
463.50	7368.01
463.68	7445.24
463.86	7370.35
464.05	7290.77
464.23	7400.77
464.41	7604.40
464.59	7386.73
464.78	7590.36
464.96	7550.57
465.14	7363.33
465.32	7808.03
465.50	7590.36
465.69	7824.41
465.87	7611.42
466.05	7613.76
466.23	7562.27
466.41	7751.85
466.60	8070.17
466.78	7911.01
466.96	7808.03
467.14	7595.04
467.32	7934.42
467.51	8060.80
467.69	7793.98
467.87	7824.41
468.05	7953.14
468.23	7747.17
468.41	7918.03
468.60	7918.03
468.78	7981.23
468.96	8006.97
469.14	8077.19
469.32	8191.88
469.50	8079.53
469.69	8175.49
469.87	8119.32
470.05	8355.71
470.23	8477.42
470.41	8030.38
470.59	8369.76
470.77	8524.23
470.95	8446.99
471.14	8470.40
471.32	8210.60
471.50	8683.39
471.68	8624.87
471.86	8793.39
472.04	8835.52
472.22	8681.05
472.40	8758.28
472.58	8896.38
472.77	8830.84
472.95	8840.20
473.13	9128.09
473.31	8622.53
473.49	9006.38
473.67	8957.23
473.85	8854.25
474.03	9217.03
474.21	9055.53
474.39	9338.74
474.57	9369.16
474.75	9507.26
474.93	9582.15
475.12	9495.55
475.30	9540.02
475.48	9413.63
475.66	9404.27
475.84	9685.14
476.02	9600.88
476.20	9612.58
476.38	9870.04
476.56	10087.71
476.74	9944.94
476.92	10045.58
477.10	10146.22
477.28	10155.58
477.46	10108.77
477.64	10097.07
477.82	10583.90
478.00	10499.64
478.18	10623.69
478.36	10881.15
478.54	10817.96
478.72	10745.40
478.90	11007.54
479.08	10733.70
479.26	10920.94
479.44	11318.83
479.62	11213.51
479.80	11452.24
479.98	11286.06
480.16	11337.56
480.34	11571.61
480.52	11669.91
480.70	11875.88
480.88	11665.23
481.06	11772.89
481.24	11599.70
481.41	11705.02
481.59	12121.63
481.77	12264.41
481.95	12339.30
482.13	12224.62
482.31	12353.35
482.49	12472.71
482.67	12475.06
482.85	12978.27
483.03	12842.52
483.21	13013.38
483.39	13195.94
483.57	13369.14
483.74	13277.86
483.92	13336.37
484.10	13369.14
484.28	13591.49
484.46	13795.12
484.64	14047.90
484.82	14047.90
485.00	14001.08
485.18	14691.54
485.35	14202.37
485.53	14431.74
485.71	14164.92
485.89	14696.22
486.07	14618.99
486.25	14761.76
486.43	14927.94
486.61	14986.45
486.78	15082.41
486.96	15213.48
487.14	15377.32
487.32	15398.38
487.50	15389.02
487.68	15688.61
487.85	15880.53
488.03	16381.41
488.21	16355.66
488.39	16121.61
488.57	16418.86
488.75	16215.23
488.92	17043.78
489.10	16896.33
489.28	16882.28
489.46	16973.56
489.64	17116.34
489.81	17413.59
489.99	17303.58
490.17	17476.78
490.35	17404.22
490.53	17689.77
490.70	17937.87
490.88	17827.86
491.06	18092.34
491.24	17806.80
491.41	18099.36
491.59	18452.78
491.77	18260.86
491.95	18616.62
492.13	18663.43
492.30	18876.42
492.48	18958.34
492.66	19089.41
492.84	18787.48
493.01	19044.94
493.19	19426.45
493.37	19597.31
493.54	19672.20
493.72	19878.17
493.90	19840.72
494.08	20175.42
494.25	20280.74
494.43	20166.06
494.61	20451.60
494.79	20191.80
494.96	20348.62
495.14	20748.85
495.32	20933.75
495.49	20592.03
495.67	21050.78
495.85	20744.17
496.02	21521.23
496.20	21458.03
496.38	21282.49
496.55	21390.16
496.73	21778.68
496.91	21713.15
497.09	21982.31
497.26	22040.82
497.44	21996.35
497.62	22331.05
497.79	22129.77
497.97	22396.59
498.14	22443.40
498.32	22789.80
498.50	22860.01
498.67	23133.86
498.85	23117.47
499.03	23026.19
499.20	23026.19
499.38	23309.40
499.56	23545.79
499.73	23658.14
499.91	23653.45
500.08	23665.16
500.26	23143.22
500.44	23634.73
500.61	24053.69
500.79	23793.89
500.97	24149.65
501.14	24400.08
501.32	24318.17
501.49	23999.85
501.67	24137.94
501.84	24620.10
502.02	24416.47
502.20	24819.04
502.37	24634.14
502.55	24924.36
502.72	24875.21
502.90	24915.00
503.07	24730.10
503.25	24807.34
503.43	24992.24
503.60	25177.14
503.78	25645.25
503.95	25209.91
504.13	25544.61
504.30	25593.76
504.48	25659.29
504.65	25909.73
504.83	25876.96
505.01	26419.97
505.18	26199.96
505.36	26106.34
505.53	26256.13
505.71	26092.29
505.88	26522.95
506.06	26195.28
506.23	26714.87
506.41	26473.80
506.58	26679.77
506.76	26782.75
506.93	26616.57
507.11	26831.90
507.28	26958.29
507.46	26960.63
507.63	26974.67
507.81	27056.59
507.98	27072.98
508.16	27377.25
508.33	27473.21
508.50	27721.30
508.68	27615.98
508.85	27747.05
509.03	27960.04
509.20	27934.29
509.38	27878.12
509.55	28240.90
509.73	28123.88
509.90	28336.87
510.08	28189.41
510.25	28283.03
510.42	28376.66
510.60	28573.26
510.77	28676.24
510.95	28966.47
511.12	28795.61
511.30	29043.71
511.47	29340.96
511.64	29085.84
511.82	29151.37
511.99	29769.27
512.17	29338.62
512.34	29104.56
512.51	29509.47
512.69	29610.12
512.86	29614.80
513.04	29855.87
513.21	29689.70
513.38	30146.10
513.56	29895.66
513.73	29652.25
513.90	29944.81
514.08	29848.85
514.25	30043.12
514.43	30106.31
514.60	30209.29
514.77	30749.96
514.95	30719.53
515.12	30352.07
515.29	30373.13
515.47	31049.55
515.64	31070.61
515.81	31136.15
515.99	30962.95
516.16	30522.93
516.33	31192.32
516.51	31452.12
516.68	30707.83
516.85	31007.42
517.03	31716.60
517.20	31674.47
517.37	31297.64
517.54	31747.03
517.72	31957.67
517.89	31697.88
518.06	32016.19
518.24	31810.22
518.41	31381.90
518.58	31950.65
518.75	32067.68
518.93	32402.38
519.10	32121.51
519.27	32374.29
519.45	32039.59
519.62	32481.95
519.79	32229.18
519.96	32109.81
520.14	32751.12
520.31	32610.68
520.48	32442.17
520.65	33050.70
520.83	32943.04
521.00	32940.70
521.17	32486.64
521.34	32594.30
521.52	33120.92
521.69	33446.26
521.86	33354.97
522.03	33551.58
522.20	33993.94
522.38	33322.21
522.55	33261.35
522.72	33495.41
522.89	33589.03
523.07	34059.48
523.24	33888.62
523.41	34204.59
523.58	33993.94
523.75	34066.50
523.92	34288.85
524.10	34033.73
524.27	34515.88
524.44	34092.24
524.61	34717.17
524.78	34616.52
524.96	34377.79
525.13	34309.91
525.30	34740.57
525.47	34628.23
525.64	34717.17
525.81	35145.48
525.98	35028.46
526.16	35101.01
526.33	34974.63
526.50	35892.12
526.67	34878.66
526.84	35365.49
527.01	35419.33
527.18	35524.65
527.36	35143.14
527.53	35700.19
527.70	36367.24
527.87	35927.22
528.04	35557.42
528.21	35620.61
528.38	35627.63
528.55	35536.35
528.72	35807.86
528.89	35978.72
529.07	35974.03
529.24	35842.96
529.41	36072.34
529.58	35971.69
529.75	36074.68
529.92	36402.35
530.09	36222.13
530.26	36437.46
530.43	36456.18
530.60	36025.53
530.77	36297.03
530.94	36875.14
531.11	36381.29
531.28	36451.50
531.46	36177.66
531.63	36685.56
531.80	36907.91
531.97	36968.76
532.14	36975.78
532.31	36926.63
532.48	37013.23
532.65	37076.43
532.82	37158.34
532.99	36793.22
533.16	37113.87
533.33	37202.82
533.50	37717.73
533.67	37727.10
533.84	37151.32
534.01	37528.15
534.18	37275.37
534.35	37736.46
534.52	37961.15
534.69	37156.00
534.86	38068.81
535.03	37610.07
535.20	38239.67
535.37	37745.82
535.54	38134.35
535.71	37689.65
535.88	38265.42
536.05	38043.07
536.22	38239.67
536.38	38714.80
536.55	38595.43
536.72	38277.12
536.89	38026.68
537.06	38328.61
537.23	38490.11
537.40	38396.49
537.57	38536.92
537.74	38511.17
537.91	39086.95
538.08	38625.86
538.25	39077.58
538.42	38579.05
538.59	38976.94
538.75	38983.96
538.92	39100.99
539.09	39110.35
539.26	39234.40
539.43	39405.26
539.60	39700.17
539.77	39353.77
539.94	39700.17
540.11	39297.59
540.28	39351.43
540.44	39770.38
540.61	39384.19
540.78	40058.27
540.95	39548.03
541.12	40016.14
541.29	40179.98
541.46	39866.34
541.62	39887.41
541.79	40341.47
541.96	40076.99
542.13	39590.16
542.30	40509.99
542.47	40500.63
542.63	40341.47
542.80	40245.51
542.97	40687.87
543.14	40973.42
543.31	40982.78
543.48	40727.66
543.64	40966.40
543.81	41237.90
543.98	41216.83
544.15	41546.85
544.32	41282.37
544.48	41504.72
544.65	41043.63
544.82	41092.79
544.99	40273.60
545.16	41216.83
545.32	41574.94
545.49	41792.61
545.66	42122.62
545.83	42052.41
546.00	42419.87
546.16	41427.48
546.33	41132.57
546.50	40898.52
546.67	41064.70
546.83	40879.80
547.00	40999.16
547.17	41354.93
547.34	41617.07
547.50	40994.48
547.67	41893.25
547.84	41961.12
548.00	41670.90
548.17	42014.96
548.34	41223.86
548.51	42157.73
548.67	41968.15
548.84	41862.82
549.01	41780.90
549.18	42143.69
549.34	41727.07
549.51	41879.21
549.68	41989.21
549.84	42068.79
550.01	42115.60
550.18	41745.80
550.34	42298.16
550.51	42368.38
550.68	41914.31
550.84	41635.79
551.01	42366.04
551.18	41617.07
551.34	42157.73
551.51	42277.10
551.68	41970.49
551.84	42045.38
552.01	41996.23
552.18	42469.02
552.34	42162.41
552.51	42691.37
552.68	42197.52
552.84	42384.76
553.01	42579.03
553.18	41928.36
553.34	42710.10
553.51	42621.16
553.67	42969.90
553.84	42660.94
554.01	43082.24
554.17	42766.27
554.34	42768.61
554.51	42705.41
554.67	42726.48
554.84	42965.21
555.00	43014.37
555.17	43040.11
555.33	43110.33
555.50	43047.13
555.67	43072.88
555.83	42529.87
556.00	43185.22
556.16	43285.87
556.33	42600.09
556.50	43606.52
556.66	43257.78
556.83	42855.21
556.99	43810.15
557.16	43358.42
557.32	43772.70
557.49	43442.68
557.65	43356.08
557.82	43498.86
557.98	43201.61
558.15	43580.78
558.32	43746.95
558.48	43646.31
558.65	43758.66
558.81	43784.40
558.98	43812.49
559.14	43196.93
559.31	43491.83
559.47	43384.17
559.64	43709.50
559.80	43297.57
559.97	43559.71
560.13	43866.32
560.30	43732.91
560.46	43931.86
560.63	43981.01
560.79	44177.61
560.96	43761.00
561.12	43739.93
561.29	43784.40
561.45	43885.04
561.61	43896.75
561.78	44069.95
561.94	44006.75
562.11	44116.76
562.27	44147.18
562.44	44212.72
562.60	43590.14
562.77	43768.02
562.93	44053.56
563.10	44547.42
563.26	43913.13
563.42	44165.91
563.59	44144.84
563.75	44423.37
563.92	44259.53
564.08	44215.06
564.24	44219.74
564.41	43997.39
564.57	44215.06
564.74	44376.56
564.90	44612.95
565.07	44336.77
565.23	44570.82
565.39	44554.44
565.56	44250.17
565.72	44416.35
565.88	44065.27
566.05	44201.02
566.21	44376.56
566.38	44179.95
566.54	44460.82
566.70	44978.07
566.87	44940.63
567.03	44416.35
567.19	44514.65
567.36	44079.31
567.52	44065.27
567.68	44645.72
567.85	44456.14
568.01	44147.18
568.17	44694.87
568.34	44626.99
568.50	44650.40
568.66	44402.30
568.83	44800.19
568.99	44774.45
569.15	44856.37
569.32	44559.12
569.48	44020.80
569.64	44933.60
569.81	44835.30
569.97	44718.28
570.13	44779.13
570.30	44339.11
570.46	44971.05
570.62	44378.90
570.78	44341.45
570.95	44690.19
571.11	44896.16
571.27	44781.47
571.43	44339.11
571.60	44568.48
571.76	45001.48
571.92	44725.30
572.09	44795.51
572.25	44856.37
572.41	44907.86
572.57	44783.81
572.74	44959.35
572.90	45015.52
573.06	44479.54
573.22	44617.63
573.38	44786.15
573.55	45120.85
573.71	45343.20
573.87	45322.13
574.03	45251.92
574.20	45418.10
574.36	45015.52
574.52	44587.21
574.68	44786.15
574.84	44818.92
575.01	44863.39
575.17	45036.59
575.33	44863.39
575.49	44842.32
575.65	45317.45
575.82	45167.66
575.98	45282.34
576.14	45516.40
576.30	45146.59
576.46	44786.15
576.62	44961.69
576.79	45043.61
576.95	44587.21
577.11	45443.84
577.27	45359.58
577.43	45118.51
577.59	44847.00
577.75	44751.04
577.92	44931.26
578.08	44863.39
578.24	45195.74
578.40	44928.92
578.56	45298.73
578.72	45317.45
578.88	46244.30
579.04	45467.25
579.21	45263.62
579.37	45717.68
579.53	45532.78
579.69	45130.21
579.85	45118.51
580.01	45385.33
580.17	44898.50
580.33	44982.76
580.49	45504.70
580.65	45373.63
580.82	45532.78
580.98	45235.53
581.14	45251.92
581.30	45294.05
581.46	45001.48
581.62	45134.89
581.78	45081.06
581.94	45694.28
582.10	44949.99
582.26	45457.88
582.42	45425.12
582.58	45619.38
582.74	45462.57
582.90	45521.08
583.06	45687.26
583.22	45141.91
583.38	45607.68
583.54	45359.58
583.70	45205.11
583.86	45237.87
584.02	45446.18
584.18	45280.00
584.34	45930.67
584.50	45722.37
584.66	45352.56
584.82	45406.39
584.98	45663.85
585.14	45359.58
585.30	44975.73
585.46	45170.00
585.62	45050.63
585.78	44957.01
585.94	45287.03
586.10	45422.78
586.26	45336.18
586.42	45752.79
586.58	45897.91
586.74	45752.79
586.90	45251.92
587.06	45214.47
587.22	45673.21
587.38	45649.81
587.54	45628.74
587.70	45394.69
587.86	45886.20
588.02	45839.39
588.18	45778.54
588.34	45177.02
588.49	45572.57
588.65	45504.70
588.81	45244.90
588.97	45652.15
589.13	45364.26
589.29	45572.57
589.45	45958.76
589.61	45619.38
589.77	46043.02
589.93	45525.76
590.08	46286.43
590.24	45539.80
590.40	46162.39
590.56	45598.32
590.72	45787.90
590.88	45118.51
