SpectraSuite Data File
++++++++++++++++++++++++++++++++++++
Date: Fri Oct 04 11:39:23 GMT-05:00 2013
User: price-jones
Dark Spectrum Present: No
Reference Spectrum Present: No
Number of Sampled Component Spectra: 1
Spectrometers: USB2+H05261
Integration Time (usec): 100000 (USB2+H05261)
Spectra Averaged: 1 (USB2+H05261)
Boxcar Smoothing: 0 (USB2+H05261)
Correct for Electrical Dark: No (USB2+H05261)
Strobe/Lamp Enabled: No (USB2+H05261)
Correct for Detector Non-linearity: No (USB2+H05261)
Correct for Stray Light: No (USB2+H05261)
Number of Pixels in Processed Spectrum: 2048
>>>>>Begin Processed Spectral Data<<<<<
365.73	102.98
365.92	102.98
366.12	102.98
366.32	2.34
366.52	0.00
366.72	0.00
366.91	0.00
367.11	0.00
367.31	0.00
367.51	0.00
367.70	0.00
367.90	0.00
368.10	0.00
368.30	0.00
368.49	0.00
368.69	0.00
368.89	0.00
369.09	0.00
369.28	0.00
369.48	11.70
369.68	7.02
369.87	0.00
370.07	4.68
370.27	53.83
370.47	95.96
370.66	243.42
370.86	294.91
371.06	297.25
371.25	280.86
371.45	273.84
371.65	386.19
371.84	287.89
372.04	276.18
372.24	308.95
372.44	313.63
372.63	308.95
372.83	381.51
373.03	320.65
373.22	299.59
373.42	355.76
373.62	376.83
373.81	318.31
374.01	397.89
374.21	386.19
374.40	348.74
374.60	400.23
374.79	400.23
374.99	414.27
375.19	344.06
375.38	397.89
375.58	423.64
375.78	369.80
375.97	367.46
376.17	491.51
376.37	404.91
376.56	468.11
376.76	437.68
376.95	393.21
377.15	395.55
377.35	418.96
377.54	346.40
377.74	365.12
377.93	437.68
378.13	379.17
378.33	386.19
378.52	400.23
378.72	402.57
378.91	472.79
379.11	440.02
379.31	468.11
379.50	454.06
379.70	505.56
379.89	489.17
380.09	393.21
380.28	435.34
380.48	550.03
380.68	461.09
380.87	409.59
381.07	526.62
381.26	440.02
381.46	465.77
381.65	458.74
381.85	547.69
382.04	458.74
382.24	486.83
382.43	433.00
382.63	503.22
382.83	447.04
383.02	533.64
383.22	559.39
383.41	486.83
383.61	517.26
383.80	456.40
384.00	538.32
384.19	526.62
384.39	608.54
384.58	510.24
384.78	587.47
384.97	531.30
385.17	521.94
385.36	573.43
385.56	531.30
385.75	594.50
385.95	526.62
386.14	575.77
386.34	507.90
386.53	503.22
386.72	596.84
386.92	627.26
387.11	622.58
387.31	643.65
387.50	601.52
387.70	547.69
387.89	521.94
388.09	564.07
388.28	528.96
388.48	620.24
388.67	631.94
388.86	599.18
389.06	512.58
389.25	599.18
389.45	638.97
389.64	603.86
389.84	638.97
390.03	641.31
390.22	624.92
390.42	671.73
390.61	641.31
390.81	706.84
391.00	704.50
391.19	692.80
391.39	690.46
391.58	760.67
391.78	648.33
391.97	695.14
392.16	746.63
392.36	763.01
392.55	765.36
392.75	767.70
392.94	716.20
393.13	758.33
393.33	765.36
393.52	716.20
393.71	758.33
393.91	844.93
394.10	755.99
394.29	734.93
394.49	816.85
394.68	751.31
394.88	805.14
395.07	854.30
395.26	713.86
395.46	816.85
395.65	863.66
395.84	898.77
396.04	856.64
396.23	847.27
396.42	887.06
396.62	868.34
396.81	901.11
397.00	877.70
397.19	983.02
397.39	954.94
397.58	983.02
397.77	936.21
397.97	933.87
398.16	894.08
398.35	945.58
398.55	863.66
398.74	1029.84
398.93	1053.24
399.12	1011.11
399.32	1050.90
399.51	877.70
399.70	1071.97
399.90	1093.03
400.09	1144.52
400.28	1043.88
400.47	1015.79
400.67	1144.52
400.86	1097.71
401.05	1088.35
401.24	1109.41
401.44	1135.16
401.63	1114.10
401.82	1167.93
402.01	1128.14
402.21	1100.05
402.40	1252.19
402.59	1203.04
402.78	1193.67
402.97	1196.01
403.17	1282.61
403.36	1238.14
403.55	1287.29
403.74	1233.46
403.93	1338.79
404.13	1385.60
404.32	1310.70
404.51	1380.92
404.70	1413.68
404.89	1413.68
405.09	1397.30
405.28	1411.34
405.47	1411.34
405.66	1430.07
405.85	1437.09
406.05	1385.60
406.24	1547.09
406.43	1570.50
406.62	1526.03
406.81	1577.52
407.00	1554.12
407.20	1453.47
407.39	1589.22
407.58	1561.14
407.77	1579.86
407.96	1589.22
408.15	1579.86
408.34	1603.27
408.54	1582.20
408.73	1699.23
408.92	1643.06
409.11	1699.23
409.30	1722.63
409.49	1790.51
409.68	1713.27
409.87	1694.55
410.07	1729.66
410.26	1811.57
410.45	1741.36
410.64	1860.73
410.83	1898.17
411.02	1888.81
411.21	2008.18
411.40	1914.56
411.59	1977.75
411.78	2050.31
411.98	1977.75
412.17	1977.75
412.36	1963.71
412.55	2026.90
412.74	2188.40
412.93	2202.44
413.12	2167.34
413.31	2228.19
413.50	2186.06
413.69	2345.22
413.88	2282.02
414.07	2314.79
414.26	2284.36
414.45	2270.32
414.64	2312.45
414.83	2424.80
415.02	2359.26
415.22	2473.95
415.41	2483.31
415.60	2473.95
415.79	2530.12
415.98	2544.16
416.17	2597.99
416.36	2651.83
416.55	2534.80
416.74	2492.67
416.93	2523.10
417.12	2609.70
417.31	2551.18
417.50	2628.42
417.69	2862.48
417.88	2782.90
418.07	2740.77
418.26	2822.69
418.45	2825.03
418.64	2890.56
418.83	2799.28
419.02	2860.13
419.21	3002.91
419.39	3052.06
419.58	2986.52
419.77	2906.95
419.96	2960.78
420.15	3110.57
420.34	2998.23
420.53	2986.52
420.72	3061.42
420.91	3103.55
421.10	3145.68
421.29	3173.77
421.48	3077.80
421.67	3323.56
421.86	3279.09
422.05	3185.47
422.24	3218.24
422.43	3222.92
422.61	3122.27
422.80	3363.35
422.99	3246.32
423.18	3194.83
423.37	3274.41
423.56	3403.14
423.75	3267.39
423.94	3204.19
424.13	3054.40
424.32	3150.36
424.50	3325.90
424.69	3330.58
424.88	3449.95
425.07	3353.99
425.26	3344.63
425.45	3379.73
425.64	3229.94
425.83	3342.28
426.01	3375.05
426.20	3234.62
426.39	3403.14
426.58	3325.90
426.77	3344.63
426.96	3471.01
427.15	3419.52
427.33	3445.27
427.52	3463.99
427.71	3473.36
427.90	3459.31
428.09	3543.57
428.28	3442.93
428.46	3527.19
428.65	3639.53
428.84	3695.71
429.03	3669.96
429.22	3585.70
429.40	3815.07
429.59	3644.21
429.78	3674.64
429.97	3623.15
430.16	3531.87
430.34	3744.86
430.53	3740.18
430.72	3838.48
430.91	3744.86
431.10	3803.37
431.28	3927.42
431.47	3847.84
431.66	3992.95
431.85	3941.46
432.03	4119.34
432.22	4032.74
432.41	4007.00
432.60	4159.13
432.79	4077.21
432.97	4060.83
433.16	4196.58
433.35	4170.83
433.54	4177.86
433.72	4273.82
433.91	4086.58
434.10	4084.23
434.28	3978.91
434.47	4348.72
434.66	4304.25
434.85	4229.35
435.03	4344.03
435.22	4444.68
435.41	4760.65
435.59	4777.03
435.78	4507.87
435.97	4552.34
436.16	4493.83
436.34	4559.36
436.53	4318.29
436.72	4571.07
436.90	4236.37
437.09	4521.92
437.28	4329.99
437.46	4341.69
437.65	4557.02
437.84	4610.86
438.02	4451.70
438.21	4685.75
438.40	4435.32
438.58	4695.11
438.77	4709.16
438.96	4800.44
439.14	4865.97
439.33	4851.93
439.52	4802.78
439.70	4875.34
439.89	4849.59
440.08	4905.76
440.26	4990.02
440.45	5156.20
440.63	5015.77
440.82	5114.07
441.01	5207.69
441.19	5156.20
441.38	5352.81
441.57	5205.35
441.75	5245.14
441.94	5334.08
442.12	5558.77
442.31	5495.58
442.50	5352.81
442.68	5469.83
442.87	5469.83
443.05	5448.77
443.24	5577.50
443.43	5514.30
443.61	5692.18
443.80	5729.63
443.98	5544.73
444.17	5448.77
444.35	5699.20
444.54	5762.40
444.73	5570.48
444.91	5734.31
445.10	5750.70
445.28	5708.57
445.47	5666.44
445.65	5624.31
445.84	5778.78
446.02	5731.97
446.21	5729.63
446.39	5722.61
446.58	5703.89
446.77	5804.53
446.95	5650.05
447.14	5722.61
447.32	5671.12
447.51	5806.87
447.69	5682.82
447.88	5724.95
448.06	5841.98
448.25	5750.70
448.43	5760.06
448.62	5844.32
448.80	5888.79
448.99	5900.49
449.17	5970.71
449.36	5874.74
449.54	6047.94
449.73	6054.97
449.91	6080.71
450.10	6366.26
450.28	6242.21
450.46	6354.55
450.65	6202.42
450.83	6171.99
451.02	6249.23
451.20	6085.39
451.39	6085.39
451.57	6181.35
451.76	6335.83
451.94	6265.61
452.13	6551.16
452.31	6256.25
452.49	6141.57
452.68	6228.17
452.86	6340.51
453.05	6537.12
453.23	6553.50
453.42	6342.85
453.60	6328.81
453.78	6265.61
453.97	6431.79
454.15	6558.18
454.34	6408.39
454.52	6548.82
454.70	6581.59
454.89	6686.91
455.07	6602.65
455.26	6689.25
455.44	6733.72
455.62	6731.38
455.81	6637.76
455.99	6707.98
456.17	6803.94
456.36	6817.98
456.54	6885.86
456.73	6970.12
456.91	7110.55
457.09	7194.81
457.28	7215.87
457.46	7133.95
457.64	7169.06
457.83	7117.57
458.01	6984.16
458.19	7190.13
458.38	7094.16
458.56	7330.56
458.74	7297.79
458.93	7316.51
459.11	7045.01
459.29	7274.38
459.48	7461.63
459.66	7286.09
459.84	7566.95
460.03	7494.40
460.21	7461.63
460.39	7463.97
460.57	7470.99
460.76	7548.23
460.94	7723.77
461.12	7611.42
461.31	7590.36
461.49	7393.75
461.67	7536.52
461.85	7793.98
462.04	7758.88
462.22	7817.39
462.40	7763.56
462.59	7672.28
462.77	7779.94
462.95	7936.76
463.13	7784.62
463.32	7735.47
463.50	7716.75
463.68	7971.86
463.86	7901.65
464.05	7754.19
464.23	8025.70
464.41	7974.21
464.59	7836.11
464.78	8219.96
464.96	8072.51
465.14	7918.03
465.32	7995.27
465.50	8332.31
465.69	8131.02
465.87	8336.99
466.05	8205.92
466.23	8100.59
466.41	8180.17
466.60	8482.10
466.78	8187.19
466.96	8521.89
467.14	8287.84
467.32	8407.20
467.51	8470.40
467.69	8100.59
467.87	8381.46
468.05	8514.87
468.23	8276.13
468.41	8390.82
468.60	8393.16
468.78	8805.10
468.96	8430.61
469.14	8690.41
469.32	8575.72
469.50	8496.14
469.69	8809.78
469.87	8863.61
470.05	8793.39
470.23	8774.67
470.41	8765.31
470.59	9062.55
470.77	8702.11
470.95	9069.58
471.14	9011.06
471.32	8945.53
471.50	9352.78
471.68	9303.63
471.86	9378.53
472.04	9205.33
472.22	9287.25
472.40	9200.65
472.58	9345.76
472.77	9458.10
472.95	9371.50
473.13	9760.03
473.31	9364.48
473.49	9366.82
473.67	9589.17
473.85	9619.60
474.03	9671.09
474.21	9682.80
474.39	9769.40
474.57	10003.45
474.75	10125.16
474.93	10157.92
475.12	9921.53
475.30	10104.09
475.48	10080.69
475.66	10270.27
475.84	10279.63
476.02	10253.89
476.20	10354.53
476.38	10469.22
476.56	10679.86
476.74	10848.38
476.92	10750.08
477.10	10932.64
477.28	10881.15
477.46	10724.33
477.64	10946.69
477.82	11054.35
478.00	11300.11
478.18	11328.19
478.36	11255.64
478.54	11578.63
478.72	11424.15
478.90	11604.38
479.08	11751.83
479.26	11655.87
479.44	11950.78
479.62	12147.38
479.80	12119.29
479.98	12121.63
480.16	12369.73
480.34	12400.16
480.52	12348.67
480.70	12564.00
480.88	12465.69
481.06	12634.21
481.24	12702.09
481.41	12580.38
481.59	13053.17
481.77	12999.34
481.95	13165.51
482.13	13383.18
482.31	13214.66
482.49	13549.36
482.67	13535.32
482.85	13694.47
483.03	13902.78
483.21	14101.73
483.39	14221.10
483.57	13881.72
483.74	14108.75
483.92	14459.83
484.10	14080.66
484.28	14628.35
484.46	14862.40
484.64	15133.90
484.82	14843.68
485.00	14974.75
485.18	15274.34
485.35	15337.53
485.53	15506.05
485.71	15534.14
485.89	15716.70
486.07	15866.49
486.25	15782.23
486.43	15992.88
486.61	16135.65
486.78	16154.38
486.96	16360.34
487.14	16547.59
487.32	16578.01
487.50	16648.23
487.68	16905.69
487.85	16812.07
488.03	17151.45
488.21	17167.83
488.39	17275.49
488.57	17544.66
488.75	17474.44
488.92	17774.03
489.10	17923.82
489.28	18115.75
489.46	18134.47
489.64	18129.79
489.81	18356.82
489.99	18698.54
490.17	18511.30
490.35	18897.49
490.53	18995.79
490.70	18904.51
490.88	18883.44
491.06	19335.17
491.24	19459.21
491.41	19531.77
491.59	19468.58
491.77	19932.00
491.95	20088.82
492.13	19936.68
492.30	20290.10
492.48	20180.10
492.66	20304.15
492.84	20414.15
493.01	20718.42
493.19	20645.87
493.37	20975.88
493.54	20875.24
493.72	21338.66
493.90	21006.31
494.08	21542.29
494.25	21645.27
494.43	21645.27
494.61	22164.87
494.79	21930.82
494.96	21851.24
495.14	21820.81
495.32	22125.08
495.49	22380.20
495.67	22412.97
495.85	22466.80
496.02	22745.33
496.20	22625.96
496.38	22913.84
496.55	22714.90
496.73	23229.82
496.91	23119.81
497.09	23438.12
497.26	23388.97
497.44	23166.62
497.62	23744.73
497.79	24002.19
497.97	23880.49
498.14	24098.16
498.32	24254.97
498.50	24130.92
498.67	24577.97
498.85	24236.25
499.03	24421.15
499.20	24699.67
499.38	24802.66
499.56	25055.43
499.73	24931.39
499.91	25142.03
500.08	25172.46
500.26	24978.20
500.44	25589.08
500.61	25453.33
500.79	25418.22
500.97	25708.44
501.14	25975.27
501.32	26036.12
501.49	26143.78
501.67	25612.48
501.84	26155.49
502.02	26120.38
502.20	26176.55
502.37	26246.77
502.55	26483.16
502.72	26555.72
502.90	26558.06
503.07	26642.32
503.25	26628.27
503.43	26724.24
503.60	26958.29
503.78	27089.36
503.95	26855.31
504.13	27262.56
504.30	27068.30
504.48	27225.11
504.65	27358.52
504.83	27828.97
505.01	28002.17
505.18	28121.54
505.36	28189.41
505.53	27704.92
505.71	27845.35
505.88	28266.65
506.06	27999.83
506.23	28334.53
506.41	28589.64
506.58	28390.70
506.76	28247.93
506.93	28676.24
507.11	28776.89
507.28	28793.27
507.46	28704.33
507.63	28952.43
507.81	29425.22
507.98	28662.20
508.16	29156.05
508.33	29067.11
508.50	29266.06
508.68	29355.00
508.85	29638.20
509.03	29673.31
509.20	30033.75
509.38	30328.66
509.55	29893.32
509.73	30181.21
509.90	29809.06
510.08	30230.36
510.25	30443.35
510.42	31021.46
510.60	30616.55
510.77	30866.98
510.95	30731.23
511.12	30553.35
511.30	30836.56
511.47	30794.43
511.64	31007.42
511.82	31171.25
511.99	31220.41
512.17	31309.35
512.34	31466.16
512.51	31674.47
512.69	31644.04
512.86	31634.68
513.04	31700.22
513.21	31901.50
513.38	32046.62
513.56	32299.39
513.73	31847.67
513.90	31896.82
514.08	32119.17
514.25	32098.11
514.43	32280.67
514.60	32575.58
514.77	32858.78
514.95	32716.01
515.12	32549.83
515.29	32547.49
515.47	32547.49
515.64	32833.04
515.81	32800.27
515.99	33090.49
516.16	33233.27
516.33	33312.84
516.51	33310.50
516.68	33284.76
516.85	33259.01
517.03	33897.98
517.20	33546.90
517.37	33933.09
517.54	33493.07
517.72	34061.82
517.89	33638.18
518.06	33762.23
518.24	33813.72
518.41	33769.25
518.58	33579.67
518.75	33876.91
518.93	34637.59
519.10	34284.17
519.27	34646.95
519.45	34272.46
519.62	34576.73
519.79	34555.67
519.96	34508.86
520.14	34771.00
520.31	35033.14
520.48	34906.75
520.65	34913.77
520.83	35084.63
521.00	35047.18
521.17	35042.50
521.34	35108.04
521.52	35007.39
521.69	35440.39
521.86	35754.02
522.03	35442.73
522.20	35711.89
522.38	35615.93
522.55	35772.75
522.72	35835.94
522.89	36135.53
523.07	36180.00
523.24	36013.82
523.41	36081.70
523.58	36004.46
523.75	36236.17
523.92	36041.91
524.10	36304.05
524.27	36921.95
524.44	37139.62
524.61	37179.41
524.78	36959.40
524.96	36896.20
525.13	36725.35
525.30	36753.43
525.47	36744.07
525.64	37104.51
525.81	37324.52
525.98	37514.11
526.16	37209.84
526.33	36924.29
526.50	37387.72
526.67	37097.49
526.84	37359.63
527.01	37394.74
527.18	37577.30
527.36	37640.50
527.53	38019.66
527.70	38234.99
527.87	38277.12
528.04	37823.06
528.21	37883.91
528.38	37954.13
528.55	38281.80
528.72	38209.25
528.89	38667.99
529.07	38260.74
529.24	38010.30
529.41	38672.67
529.58	38469.04
529.75	38167.12
529.92	38525.22
530.09	38857.57
530.26	38452.66
530.43	39030.77
530.60	38515.86
530.77	38976.94
530.94	38981.62
531.11	38389.47
531.28	38888.00
531.46	39091.63
531.63	39274.19
531.80	39414.62
531.97	39023.75
532.14	39428.66
532.31	39409.94
532.48	39426.32
532.65	39653.36
532.82	39384.19
532.99	39580.80
533.16	39428.66
533.33	40156.57
533.50	39927.20
533.67	40055.93
533.84	39751.66
534.01	39419.30
534.18	39599.52
534.35	39966.99
534.52	40018.48
534.69	40114.44
534.86	40519.35
535.03	40257.21
535.20	40371.90
535.37	40772.13
535.54	40383.60
535.71	39992.73
535.88	40545.10
536.05	40357.86
536.22	40376.58
536.38	40903.20
536.55	40912.56
536.72	41102.15
536.89	40746.39
537.06	40477.22
537.23	40767.45
537.40	40453.82
537.57	40765.11
537.74	40884.48
537.91	41663.88
538.08	41296.41
538.25	40921.93
538.42	40832.99
538.59	41275.35
538.75	40933.63
538.92	40954.69
539.09	42007.94
539.26	41720.05
539.43	41698.98
539.60	41862.82
539.77	41806.65
539.94	42244.33
540.11	41743.45
540.28	42164.75
540.44	41858.14
540.61	41986.87
540.78	41914.31
540.95	42270.08
541.12	42258.37
541.29	42878.61
541.46	42574.34
541.62	42672.65
541.79	42794.36
541.96	42305.18
542.13	42422.21
542.30	42808.40
542.47	42686.69
542.63	42951.17
542.80	43234.38
542.97	42979.26
543.14	43512.90
543.31	43271.82
543.48	43234.38
543.64	43913.13
543.81	43842.92
543.98	43613.54
544.15	43503.54
544.32	43686.10
544.48	43739.93
544.65	43131.39
544.82	43388.85
544.99	42792.01
545.16	43182.88
545.32	43863.98
545.49	44112.08
545.66	44914.88
545.83	44928.92
546.00	45219.15
546.16	44414.01
546.33	43533.96
546.50	43344.38
546.67	43817.17
546.83	43608.86
547.00	43756.32
547.17	44079.31
547.34	44112.08
547.50	44755.72
547.67	44364.85
547.84	43917.81
548.00	43978.67
548.17	44528.69
548.34	43854.62
548.51	44589.55
548.67	44526.35
548.84	44509.97
549.01	44048.88
549.18	44224.42
549.34	44126.12
549.51	44210.38
549.68	44502.95
549.84	44062.93
550.01	44353.15
550.18	44432.73
550.34	44746.36
550.51	44348.47
550.68	44722.96
550.84	44287.62
551.01	44821.26
551.18	44582.52
551.34	44467.84
551.51	44842.32
551.68	44666.78
551.84	44776.79
552.01	44587.21
552.18	44940.63
552.34	44631.68
552.51	44556.78
552.68	44847.00
552.84	44601.25
553.01	45165.32
553.18	44671.46
553.34	44980.42
553.51	45226.17
553.67	45441.50
553.84	45808.96
554.01	45539.80
554.17	45439.16
554.34	45577.25
554.51	45212.13
554.67	45345.54
554.84	45502.35
555.00	45563.21
555.17	45502.35
555.33	45729.39
555.50	45500.01
555.67	45478.95
555.83	45350.22
556.00	45113.83
556.16	45729.39
556.33	45574.91
556.50	45282.34
556.66	45787.90
556.83	45841.73
556.99	46136.64
557.16	45970.46
557.32	45923.65
557.49	45736.41
557.65	45998.55
557.82	45713.00
557.98	45961.10
558.15	45811.31
558.32	46202.18
558.48	45855.78
558.65	46232.60
558.81	45975.14
558.98	45998.55
559.14	45881.52
559.31	45909.61
559.47	45881.52
559.64	46134.30
559.80	46227.92
559.97	46361.33
560.13	45965.78
560.30	46445.59
560.46	46602.41
560.63	46384.74
560.79	46115.58
560.96	46518.15
561.12	46192.81
561.29	45972.80
561.45	46153.02
561.61	46415.16
561.78	46143.66
561.94	46553.26
562.11	46567.30
562.27	46096.85
562.44	46478.36
562.60	45972.80
562.77	46639.86
562.93	46384.74
563.10	47004.98
563.26	46466.66
563.42	47082.22
563.59	46686.67
563.75	46707.73
563.92	46583.68
564.08	46337.93
564.24	46703.05
564.41	46593.04
564.57	46768.58
564.74	46829.44
564.90	47028.38
565.07	46623.47
565.23	46958.17
565.39	46789.65
565.56	46902.00
565.72	46679.64
565.88	46426.87
566.05	46667.94
566.21	46967.53
566.38	46555.60
566.54	46651.56
566.70	47173.50
566.87	47239.03
567.03	47079.88
567.19	47220.31
567.36	46939.44
567.52	46878.59
567.68	46829.44
567.85	46883.27
568.01	47091.58
568.17	46637.51
568.34	46974.55
568.50	46829.44
568.66	47035.41
568.83	47033.07
568.99	46623.47
569.15	47054.13
569.32	47143.07
569.48	46852.84
569.64	46810.71
569.81	47096.26
569.97	46972.21
570.13	47377.12
570.30	47367.76
570.46	47243.71
570.62	47089.24
570.78	47030.72
570.95	46883.27
571.11	47239.03
571.27	46843.48
571.43	47234.35
571.60	47065.83
571.76	47257.76
571.92	47480.11
572.09	47210.95
572.25	47445.00
572.41	47196.90
572.57	47199.24
572.74	47533.94
572.90	47201.58
573.06	47028.38
573.22	47344.36
573.38	47566.71
573.55	47264.78
573.71	47643.94
573.87	47690.76
574.03	47257.76
574.20	47295.21
574.36	47044.77
574.52	47147.75
574.68	47147.75
574.84	47260.10
575.01	47594.79
575.17	47196.90
575.33	46855.18
575.49	47327.97
575.65	47538.62
575.82	47723.52
575.98	47304.57
576.14	47583.09
576.30	47576.07
576.46	47180.52
576.62	47491.81
576.79	47524.58
576.95	47885.02
577.11	47885.02
577.27	47515.22
577.43	47597.13
577.59	47089.24
577.75	47430.96
577.92	47337.33
578.08	46988.60
578.24	47524.58
578.40	47477.77
578.56	47763.31
578.72	47896.72
578.88	47995.03
579.04	47852.25
579.21	47194.56
579.37	47304.57
579.53	47641.60
579.69	47285.84
579.85	47440.32
580.01	47210.95
580.17	47356.06
580.33	47999.71
580.49	47875.66
580.65	47875.66
580.82	48088.65
580.98	47721.18
581.14	47526.92
581.30	47901.40
581.46	47236.69
581.62	47632.24
581.78	47676.71
581.94	47634.58
582.10	47597.13
582.26	47955.24
582.42	47702.46
582.58	48055.88
582.74	47639.26
582.90	47913.11
583.06	47526.92
583.22	47229.67
583.38	47416.91
583.54	47721.18
583.70	47899.06
583.86	47957.58
584.02	47538.62
584.18	48385.89
584.34	47587.77
584.50	48107.37
584.66	47580.75
584.82	47660.33
584.98	47838.21
585.14	47679.05
585.30	47625.22
585.46	47908.43
585.62	47629.90
585.78	47650.97
585.94	47512.88
586.10	48311.00
586.26	47681.39
586.42	48121.41
586.58	48032.47
586.74	47620.54
586.90	47473.09
587.06	47922.47
587.22	47943.53
587.38	47667.35
587.54	47868.64
587.70	47908.43
587.86	48360.15
588.02	47480.11
588.18	47854.59
588.34	48168.22
588.49	47711.82
588.65	47835.87
588.81	47555.00
588.97	47704.80
589.13	47842.89
589.29	47665.01
589.45	47873.32
589.61	48058.22
589.77	48301.64
589.93	48287.59
590.08	48055.88
590.24	48254.82
590.40	47866.30
590.56	48006.73
590.72	48023.11
