SpectraSuite Data File
++++++++++++++++++++++++++++++++++++
Date: Fri Oct 04 11:39:23 GMT-05:00 2013
User: price-jones
Dark Spectrum Present: No
Reference Spectrum Present: No
Number of Sampled Component Spectra: 1
Spectrometers: USB2+H05261
Integration Time (usec): 100000 (USB2+H05261)
Spectra Averaged: 1 (USB2+H05261)
Boxcar Smoothing: 0 (USB2+H05261)
Correct for Electrical Dark: No (USB2+H05261)
Strobe/Lamp Enabled: No (USB2+H05261)
Correct for Detector Non-linearity: No (USB2+H05261)
Correct for Stray Light: No (USB2+H05261)
Number of Pixels in Processed Spectrum: 2048
>>>>>Begin Processed Spectral Data<<<<<
365.73	107.66
365.92	107.66
366.12	107.66
366.32	0.00
366.52	11.70
366.72	0.00
366.91	0.00
367.11	49.15
367.31	0.00
367.51	0.00
367.70	0.00
367.90	7.02
368.10	0.00
368.30	0.00
368.49	0.00
368.69	0.00
368.89	0.00
369.09	0.00
369.28	0.00
369.48	0.00
369.68	0.00
369.87	0.00
370.07	0.00
370.27	44.47
370.47	67.88
370.66	156.82
370.86	203.63
371.06	238.73
371.25	292.57
371.45	241.08
371.65	313.63
371.84	248.10
372.04	234.05
372.24	332.36
372.44	353.42
372.63	325.33
372.83	348.74
373.03	301.93
373.22	234.05
373.42	315.97
373.62	421.30
373.81	376.83
374.01	409.59
374.21	404.91
374.40	313.63
374.60	425.98
374.79	365.12
374.99	376.83
375.19	337.04
375.38	327.68
375.58	362.78
375.78	400.23
375.97	395.55
376.17	477.47
376.37	440.02
376.56	400.23
376.76	440.02
376.95	367.46
377.15	397.89
377.35	362.78
377.54	416.62
377.74	465.77
377.93	447.04
378.13	344.06
378.33	365.12
378.52	409.59
378.72	449.38
378.91	369.80
379.11	437.68
379.31	433.00
379.50	449.38
379.70	423.64
379.89	500.87
380.09	440.02
380.28	468.11
380.48	489.17
380.68	407.25
380.87	416.62
381.07	449.38
381.26	535.98
381.46	440.02
381.65	470.45
381.85	496.19
382.04	418.96
382.24	425.98
382.43	463.43
382.63	526.62
382.83	557.05
383.02	449.38
383.22	491.51
383.41	442.36
383.61	493.85
383.80	533.64
384.00	493.85
384.19	458.74
384.39	479.81
384.58	524.28
384.78	587.47
384.97	498.53
385.17	514.92
385.36	430.66
385.56	514.92
385.75	447.04
385.95	528.96
386.14	524.28
386.34	447.04
386.53	578.11
386.72	561.73
386.92	484.49
387.11	528.96
387.31	528.96
387.50	503.22
387.70	498.53
387.89	535.98
388.09	535.98
388.28	526.62
388.48	571.09
388.67	601.52
388.86	617.90
389.06	512.58
389.25	669.39
389.45	557.05
389.64	575.77
389.84	669.39
390.03	678.76
390.22	594.50
390.42	664.71
390.61	533.64
390.81	585.13
391.00	617.90
391.19	755.99
391.39	615.56
391.58	692.80
391.78	723.23
391.97	711.52
392.16	624.92
392.36	660.03
392.55	727.91
392.75	748.97
392.94	741.95
393.13	692.80
393.33	662.37
393.52	683.44
393.71	671.73
393.91	697.48
394.10	765.36
394.29	697.48
394.49	636.63
394.68	800.46
394.88	805.14
395.07	741.95
395.26	741.95
395.46	791.10
395.65	835.57
395.84	875.36
396.04	887.06
396.23	844.93
396.42	847.27
396.62	849.61
396.81	908.13
397.00	884.72
397.19	800.46
397.39	788.76
397.58	938.55
397.77	828.55
397.97	851.96
398.16	922.17
398.35	968.98
398.55	908.13
398.74	894.08
398.93	985.37
399.12	816.85
399.32	926.85
399.51	847.27
399.70	933.87
399.90	917.49
400.09	968.98
400.28	1011.11
400.47	1004.09
400.67	1022.81
400.86	999.41
401.05	1034.52
401.24	922.17
401.44	1020.47
401.63	1060.26
401.82	1121.12
402.01	1071.97
402.21	1137.50
402.40	1095.37
402.59	1057.92
402.78	1100.05
402.97	1083.67
403.17	1149.20
403.36	1144.52
403.55	1130.48
403.74	1196.01
403.93	1207.72
404.13	1277.93
404.32	1219.42
404.51	1284.95
404.70	1238.14
404.89	1299.00
405.09	1317.72
405.28	1369.21
405.47	1238.14
405.66	1359.85
405.85	1390.28
406.05	1301.34
406.24	1378.58
406.43	1369.21
406.62	1406.66
406.81	1327.08
407.00	1418.36
407.20	1446.45
407.39	1385.60
407.58	1483.90
407.77	1472.20
407.96	1530.71
408.15	1551.78
408.34	1409.00
408.54	1490.92
408.73	1596.25
408.92	1570.50
409.11	1701.57
409.30	1530.71
409.49	1586.88
409.68	1636.03
409.87	1579.86
410.07	1671.14
410.26	1755.40
410.45	1741.36
410.64	1769.44
410.83	1750.72
411.02	1732.00
411.21	1790.51
411.40	1781.15
411.59	1867.75
411.78	1877.11
411.98	1820.94
412.17	1884.13
412.36	1902.86
412.55	1865.41
412.74	1963.71
412.93	2066.69
413.12	1930.94
413.31	1970.73
413.50	2017.54
413.69	2176.70
413.88	2083.08
414.07	2115.84
414.26	2054.99
414.45	2160.31
414.64	2333.51
414.83	2291.38
415.02	2188.40
415.22	2232.87
415.41	2392.03
415.60	2340.54
415.79	2256.28
415.98	2443.52
416.17	2466.92
416.36	2368.62
416.55	2480.97
416.74	2443.52
416.93	2497.35
417.12	2368.62
417.31	2504.37
417.50	2516.08
417.69	2703.32
417.88	2597.99
418.07	2553.52
418.26	2581.61
418.45	2616.72
418.64	2729.06
418.83	2731.41
419.02	2761.83
419.21	2724.38
419.39	2825.03
419.58	2640.12
419.77	2738.43
419.96	2630.76
420.15	2810.98
420.34	2822.69
420.53	2895.24
420.72	2892.90
420.91	2923.33
421.10	2930.35
421.29	2979.50
421.48	2942.05
421.67	2937.37
421.86	2897.58
422.05	2956.10
422.24	2986.52
422.43	2981.84
422.61	2963.12
422.80	3012.27
422.99	2944.39
423.18	3208.87
423.37	3206.53
423.56	3117.59
423.75	3124.62
423.94	2988.86
424.13	2949.08
424.32	2993.55
424.50	3169.09
424.69	3286.11
424.88	3145.68
425.07	3126.96
425.26	3052.06
425.45	3056.74
425.64	3197.17
425.83	3075.46
426.01	3145.68
426.20	3183.13
426.39	3227.60
426.58	3253.34
426.77	3232.28
426.96	3349.31
427.15	3269.73
427.33	3251.00
427.52	3162.06
427.71	3456.97
427.90	3234.62
428.09	3220.58
428.28	3300.16
428.46	3370.37
428.65	3382.07
428.84	3449.95
429.03	3566.98
429.22	3403.14
429.40	3370.37
429.59	3389.10
429.78	3358.67
429.97	3325.90
430.16	3293.13
430.34	3538.89
430.53	3597.40
430.72	3555.27
430.91	3517.83
431.10	3463.99
431.28	3705.07
431.47	3754.22
431.66	3744.86
431.85	3691.02
432.03	3662.94
432.22	3784.65
432.41	3833.80
432.60	3786.99
432.79	3716.77
432.97	3854.86
433.16	3843.16
433.35	3691.02
433.54	3861.88
433.72	3920.40
433.91	3712.09
434.10	3805.71
434.28	3927.42
434.47	3948.48
434.66	4044.45
434.85	3955.51
435.03	4107.64
435.22	4311.27
435.41	4334.67
435.59	4435.32
435.78	4266.80
435.97	4208.28
436.16	4245.73
436.34	4170.83
436.53	4311.27
436.72	4283.18
436.90	4219.99
437.09	4177.86
437.28	4173.18
437.46	4208.28
437.65	4119.34
437.84	4381.48
438.02	4241.05
438.21	4262.12
438.40	4184.88
438.58	4409.57
438.77	4374.46
438.96	4259.78
439.14	4475.10
439.33	4451.70
439.52	4571.07
439.70	4643.62
439.89	4652.98
440.08	4631.92
440.26	4601.49
440.45	4695.11
440.63	4727.88
440.82	4737.24
441.01	4711.50
441.19	4718.52
441.38	4823.84
441.57	4959.60
441.75	5069.60
441.94	5111.73
442.12	4971.30
442.31	5104.71
442.50	5053.22
442.68	5022.79
442.87	5102.37
443.05	5179.61
443.24	5177.26
443.43	5076.62
443.61	5207.69
443.80	5394.93
443.98	5198.33
444.17	5069.60
444.35	5249.82
444.54	5273.23
444.73	5345.78
444.91	5221.74
445.10	5186.63
445.28	5334.08
445.47	5219.39
445.65	5296.63
445.84	5350.46
446.02	5404.30
446.21	5242.80
446.39	5303.65
446.58	5404.30
446.77	5348.12
446.95	5324.72
447.14	5341.10
447.32	5540.05
447.51	5481.53
447.69	5542.39
447.88	5348.12
448.06	5364.51
448.25	5451.11
448.43	5481.53
448.62	5387.91
448.80	5404.30
448.99	5495.58
449.17	5434.72
449.36	5598.56
449.54	5774.10
449.73	5603.24
449.91	5643.03
450.10	5589.20
450.28	5806.87
450.46	5841.98
450.65	5636.01
450.83	5856.02
451.02	5785.80
451.20	5706.23
451.39	5799.85
451.57	5895.81
451.76	5858.36
451.94	5888.79
452.13	5902.83
452.31	6104.12
452.49	5996.45
452.68	5865.38
452.86	5984.75
453.05	6047.94
453.23	5888.79
453.42	5923.90
453.60	5748.36
453.78	5928.58
453.97	5884.11
454.15	6090.07
454.34	5980.07
454.52	6298.38
454.70	6127.52
454.89	6108.80
455.07	6183.70
455.26	6246.89
455.44	6359.24
455.62	6235.19
455.81	6445.84
455.99	6298.38
456.17	6558.18
456.36	6368.60
456.54	6303.06
456.73	6600.31
456.91	6654.14
457.09	6569.88
457.28	6871.81
457.46	6764.15
457.64	6635.42
457.83	6705.63
458.01	6455.20
458.19	6691.59
458.38	6560.52
458.56	6771.17
458.74	6801.60
458.93	6604.99
459.11	6747.76
459.29	6775.85
459.48	6853.09
459.66	7019.27
459.84	7059.06
460.03	7239.28
460.21	6888.20
460.39	6984.16
460.57	7005.22
460.76	6995.86
460.94	7016.93
461.12	6949.05
461.31	7201.83
461.49	7171.40
461.67	7094.16
461.85	7435.88
462.04	7096.50
462.22	7246.30
462.40	7398.43
462.59	7194.81
462.77	7456.95
462.95	7403.11
463.13	7384.39
463.32	7403.11
463.50	7466.31
463.68	7461.63
463.86	7480.35
464.05	7255.66
464.23	7466.31
464.41	7489.71
464.59	7337.58
464.78	7756.54
464.96	7424.18
465.14	7461.63
465.32	7569.29
465.50	7653.55
465.69	7686.32
465.87	7637.17
466.05	7667.60
466.23	7770.58
466.41	7735.47
466.60	7852.50
466.78	7644.19
466.96	7763.56
467.14	7658.23
467.32	7644.19
467.51	7981.23
467.69	7681.64
467.87	7819.73
468.05	7730.79
468.23	7880.58
468.41	7927.39
468.60	7847.82
468.78	8098.25
468.96	7939.10
469.14	8086.55
469.32	8255.07
469.50	8002.29
469.69	8250.39
469.87	8308.90
470.05	8306.56
470.23	8107.62
470.41	8231.66
470.59	8329.97
470.77	8318.26
470.95	8425.93
471.14	8393.16
471.32	8116.98
471.50	8669.34
471.68	8468.06
471.86	8519.55
472.04	8498.49
472.22	8835.52
472.40	8620.19
472.58	8580.40
472.77	8765.31
472.95	9020.42
473.13	9261.50
473.31	8788.71
473.49	8732.54
473.67	8959.57
473.85	9006.38
474.03	9249.80
474.21	9362.14
474.39	9352.78
474.57	9415.98
474.75	9380.87
474.93	9511.94
475.12	9493.21
475.30	9423.00
475.48	9392.57
475.66	9359.80
475.84	9490.87
476.02	9685.14
476.20	9727.27
476.38	9760.03
476.56	10134.52
476.74	9909.83
476.92	9954.30
477.10	9944.94
477.28	10139.20
477.46	10267.93
477.64	10370.91
477.82	10450.49
478.00	10707.95
478.18	10698.59
478.36	10707.95
478.54	10583.90
478.72	10832.00
478.90	10745.40
479.08	10778.17
479.26	10923.28
479.44	11389.05
479.62	11227.55
479.80	11192.44
479.98	11393.73
480.16	11349.26
480.34	11412.45
480.52	11782.26
480.70	11854.81
480.88	11620.76
481.06	11826.73
481.24	11583.31
481.41	11964.82
481.59	12287.81
481.77	12112.27
481.95	12184.83
482.13	12446.97
482.31	12212.92
482.49	12556.97
482.67	12760.60
482.85	12648.26
483.03	12828.48
483.21	13095.30
483.39	13046.15
483.57	13055.51
483.74	13247.43
483.92	13149.13
484.10	13387.86
484.28	13666.39
484.46	13642.98
484.64	14106.41
484.82	13867.67
485.00	13769.37
485.18	14478.55
485.35	14471.53
485.53	14363.87
485.71	14331.10
485.89	14684.52
486.07	14516.00
486.25	14462.17
486.43	14675.16
486.61	14941.98
486.78	14902.19
486.96	15138.58
487.14	15384.34
487.32	15419.45
487.50	15442.85
487.68	15651.16
487.85	15988.20
488.03	15936.71
488.21	16255.02
488.39	16496.10
488.57	16395.45
488.75	16645.89
488.92	16599.08
489.10	16999.31
489.28	16919.73
489.46	16947.82
489.64	17071.87
489.81	17575.08
489.99	17284.86
490.17	17561.04
490.35	17764.67
490.53	17586.79
490.70	17844.24
490.88	17642.96
491.06	18050.21
491.24	18118.09
491.41	18115.75
491.59	18377.89
491.77	18398.95
491.95	18537.04
492.13	18874.08
492.30	18752.37
492.48	18757.05
492.66	18743.01
492.84	18984.09
493.01	19171.33
493.19	19234.52
493.37	19452.19
493.54	19353.89
493.72	19709.65
493.90	19644.12
494.08	19864.13
494.25	20233.93
494.43	19969.45
494.61	20301.81
494.79	20121.59
494.96	20304.15
495.14	20746.51
495.32	20678.63
495.49	20678.63
495.67	20765.23
495.85	20945.45
496.02	21081.21
496.20	21284.83
496.38	21102.27
496.55	21060.14
496.73	21694.43
496.91	21586.76
497.09	21977.63
497.26	21888.69
497.44	21879.33
497.62	21898.05
497.79	22214.02
497.97	22403.61
498.14	22604.89
498.32	22602.55
498.50	22415.31
498.67	22630.64
498.85	22665.75
499.03	22597.87
499.20	22773.41
499.38	23009.81
499.56	23447.49
499.73	23178.33
499.91	23648.77
500.08	23342.16
500.26	23487.28
500.44	23618.35
500.61	23761.12
500.79	23608.98
500.97	23995.17
501.14	24224.54
501.32	24032.62
501.49	23917.93
501.67	23939.00
501.84	24201.14
502.02	24622.44
502.20	24428.17
502.37	24570.94
502.55	24723.08
502.72	24767.55
502.90	24727.76
503.07	24702.01
503.25	24783.93
503.43	24910.32
503.60	25282.47
503.78	25104.59
503.95	25338.64
504.13	25483.75
504.30	25013.31
504.48	25411.20
504.65	25521.20
504.83	25806.75
505.01	26115.70
505.18	25745.89
505.36	25972.92
505.53	25972.92
505.71	26017.40
505.88	26045.48
506.06	25853.56
506.23	26377.84
506.41	26272.51
506.58	26401.24
506.76	26637.64
506.93	26389.54
507.11	26445.71
507.28	26864.67
507.46	26438.69
507.63	27215.75
507.81	26951.27
507.98	26902.12
508.16	26960.63
508.33	26948.93
508.50	27129.15
508.68	27070.64
508.85	27735.35
509.03	27372.57
509.20	27826.63
509.38	27634.71
509.55	28037.28
509.73	28105.15
509.90	28025.57
510.08	27985.79
510.25	28315.80
510.42	28229.20
510.60	28189.41
510.77	28603.69
510.95	28575.60
511.12	28346.23
511.30	28400.06
511.47	28905.62
511.64	28659.86
511.82	29184.14
511.99	28823.70
512.17	29116.26
512.34	29132.65
512.51	29355.00
512.69	29420.53
512.86	29504.79
513.04	29809.06
513.21	29603.10
513.38	29638.20
513.56	29322.23
513.73	29635.86
513.90	30356.75
514.08	29951.84
514.25	29893.32
514.43	30029.07
514.60	29865.24
514.77	30171.85
514.95	30483.14
515.12	30485.48
515.29	30251.42
515.47	30850.60
515.64	30588.46
515.81	30403.56
515.99	30707.83
516.16	31016.78
516.33	31063.59
516.51	30939.54
516.68	30885.71
516.85	30419.94
517.03	31061.25
517.20	31026.14
517.37	31454.46
517.54	31381.90
517.72	31641.70
517.89	31339.77
518.06	31424.03
518.24	31845.33
518.41	31770.43
518.58	31519.99
518.75	31304.67
518.93	31805.54
519.10	31613.62
519.27	32100.45
519.45	31981.08
519.62	32109.81
519.79	32189.39
519.96	32091.09
520.14	32453.87
520.31	32215.13
520.48	32645.79
520.65	32411.74
520.83	33041.34
521.00	33067.09
521.17	32758.14
521.34	32762.82
521.52	33181.77
521.69	33156.03
521.86	32858.78
522.03	33111.56
522.20	33266.03
522.38	33364.34
522.55	33127.94
522.72	33453.28
522.89	33261.35
523.07	33677.97
523.24	33387.74
523.41	33600.73
523.58	33790.31
523.75	34164.80
523.92	34031.39
524.10	33909.68
524.27	33874.57
524.44	34312.25
524.61	34518.22
524.78	34494.82
524.96	34862.28
525.13	34199.91
525.30	34426.94
525.47	34249.06
525.64	34267.78
525.81	34892.71
525.98	34501.84
526.16	34771.00
526.33	34878.66
526.50	34803.77
526.67	34522.90
526.84	35042.50
527.01	34515.88
527.18	35131.44
527.36	35718.92
527.53	35175.91
527.70	35330.39
527.87	35194.64
528.04	35194.64
528.21	35508.27
528.38	35365.49
528.55	35903.82
528.72	35484.86
528.89	35873.39
529.07	35562.10
529.24	35442.73
529.41	35847.64
529.58	36027.87
529.75	35716.58
529.92	35840.62
530.09	35791.47
530.26	36044.25
530.43	36151.91
530.60	36041.91
530.77	36027.87
530.94	36048.93
531.11	36187.02
531.28	36627.04
531.46	36285.33
531.63	36613.00
531.80	36273.62
531.97	36907.91
532.14	36783.86
532.31	37060.04
532.48	36737.05
532.65	36786.20
532.82	36584.91
532.99	36676.19
533.16	36957.06
533.33	37256.65
533.50	37539.85
533.67	37333.89
533.84	37078.77
534.01	37132.60
534.18	36868.12
534.35	37352.61
534.52	37226.22
534.69	37598.37
534.86	37762.20
535.03	37853.48
535.20	37652.20
535.37	37991.58
535.54	37675.60
535.71	37530.49
535.88	37701.35
536.05	37659.22
536.22	37928.38
536.38	38380.10
536.55	38415.21
536.72	38267.76
536.89	37556.24
537.06	37944.76
537.23	37968.17
537.40	38281.80
537.57	38115.62
537.74	38019.66
537.91	38473.73
538.08	38508.83
538.25	38363.72
538.42	38382.45
538.59	38541.60
538.75	38337.98
538.92	38504.15
539.09	38658.63
539.26	39044.82
539.43	38717.14
539.60	38967.58
539.77	38834.17
539.94	39133.76
540.11	39253.12
540.28	38775.66
540.44	38672.67
540.61	38927.79
540.78	39138.44
540.95	39688.46
541.12	39234.40
541.29	39035.45
541.46	39629.95
541.62	39543.35
541.79	39847.62
541.96	39789.11
542.13	39175.89
542.30	39775.06
542.47	40086.36
542.63	40086.36
542.80	39852.30
542.97	40493.61
543.14	40273.60
543.31	39985.71
543.48	40224.45
543.64	40671.49
543.81	40484.25
543.98	40666.81
544.15	40362.54
544.32	40900.86
544.48	40573.19
544.65	40236.15
544.82	40500.63
544.99	40100.40
545.16	41233.22
545.32	40982.78
545.49	41497.70
545.66	42068.79
545.83	41904.95
546.00	42066.45
546.16	41284.71
546.33	41106.83
546.50	40423.39
546.67	40612.98
546.83	40259.55
547.00	40954.69
547.17	40954.69
547.34	40935.97
547.50	40891.50
547.67	41546.85
547.84	41020.23
548.00	41137.26
548.17	41186.41
548.34	41291.73
548.51	41074.06
548.67	41507.06
548.84	41460.25
549.01	41027.25
549.18	41207.47
549.34	41448.55
549.51	41354.93
549.68	41535.15
549.84	41549.19
550.01	41390.03
550.18	41481.31
550.34	41460.25
550.51	41893.25
550.68	41921.34
550.84	41640.47
551.01	41668.56
551.18	41343.22
551.34	41385.35
551.51	41722.39
551.68	41876.86
551.84	41935.38
552.01	41972.83
552.18	41762.18
552.34	41397.06
552.51	41825.37
552.68	42054.75
552.84	41846.44
553.01	41816.01
553.18	41918.99
553.34	42429.23
553.51	42454.98
553.67	42323.91
553.84	42740.52
554.01	42480.72
554.17	42429.23
554.34	42419.87
554.51	41862.82
554.67	42443.27
554.84	42115.60
555.00	42246.67
555.17	42520.51
555.33	43026.07
555.50	42447.96
555.67	42359.02
555.83	42426.89
556.00	42190.50
556.16	42660.94
556.33	42660.94
556.50	42490.09
556.66	42597.75
556.83	42527.53
556.99	43452.05
557.16	42850.53
557.32	42902.02
557.49	42934.79
557.65	42820.10
557.82	42639.88
557.98	42452.64
558.15	42646.90
558.32	43084.58
558.48	42958.19
558.65	43154.80
558.81	43311.61
558.98	42651.58
559.14	42527.53
559.31	42686.69
559.47	43342.04
559.64	42574.34
559.80	42925.42
559.97	43295.23
560.13	43117.35
560.30	42829.46
560.46	43203.95
560.63	43168.84
560.79	43208.63
560.96	43395.87
561.12	43625.25
561.29	43152.46
561.45	43613.54
561.61	43669.72
561.78	43388.85
561.94	43358.42
562.11	43569.07
562.27	43091.60
562.44	43416.94
562.60	43519.92
562.77	43243.74
562.93	43040.11
563.10	43643.97
563.26	43246.08
563.42	43594.82
563.59	43131.39
563.75	43374.81
563.92	43732.91
564.08	42937.13
564.24	43297.57
564.41	43592.48
564.57	43646.31
564.74	43548.01
564.90	43695.46
565.07	44023.14
565.23	43356.08
565.39	44112.08
565.56	44144.84
565.72	43945.90
565.88	43973.98
566.05	43592.48
566.21	43569.07
566.38	43407.58
566.54	43676.74
566.70	44135.48
566.87	44098.03
567.03	44177.61
567.19	44184.63
567.36	43643.97
567.52	43971.64
567.68	44116.76
567.85	43274.16
568.01	43945.90
568.17	43639.29
568.34	44039.52
568.50	43922.49
568.66	44023.14
568.83	44030.16
568.99	43683.76
569.15	43985.69
569.32	43735.25
569.48	44098.03
569.64	43828.87
569.81	43819.51
569.97	44065.27
570.13	43936.54
570.30	43487.15
570.46	43920.15
570.62	43838.23
570.78	43917.81
570.95	43955.26
571.11	44149.53
571.27	44011.43
571.43	43407.58
571.60	43810.15
571.76	44142.50
571.92	44217.40
572.09	44151.87
572.25	44100.37
572.41	44098.03
572.57	44158.89
572.74	44442.09
572.90	44184.63
573.06	44086.33
573.22	44273.57
573.38	44425.71
573.55	43889.73
573.71	44477.20
573.87	45008.50
574.03	43959.94
574.20	44212.72
574.36	43796.10
574.52	44362.51
574.68	44334.43
574.84	44313.36
575.01	43903.77
575.17	44350.81
575.33	44313.36
575.49	44217.40
575.65	44425.71
575.82	43758.66
575.98	44196.34
576.14	44247.83
576.30	44334.43
576.46	43941.22
576.62	44460.82
576.79	44432.73
576.95	44332.09
577.11	44694.87
577.27	44336.77
577.43	44463.16
577.59	44383.58
577.75	44264.21
577.92	44130.80
578.08	44041.86
578.24	44156.55
578.40	44116.76
578.56	44744.02
578.72	44933.60
578.88	44737.00
579.04	44992.12
579.21	44561.46
579.37	44507.63
579.53	44168.25
579.69	44245.49
579.85	44472.52
580.01	44708.91
580.17	44348.47
580.33	44601.25
580.49	44467.84
580.65	45048.29
580.82	44603.59
580.98	44664.44
581.14	44334.43
581.30	44982.76
581.46	44018.46
581.62	44655.08
581.78	44170.59
581.94	44924.24
582.10	44601.25
582.26	44634.02
582.42	44959.35
582.58	44762.75
582.74	44495.92
582.90	44680.83
583.06	44701.89
583.22	44715.93
583.38	44566.14
583.54	44542.74
583.70	44346.13
583.86	44327.41
584.02	44481.88
584.18	44748.70
584.34	44769.77
584.50	44907.86
584.66	44559.12
584.82	44280.60
584.98	44847.00
585.14	44758.06
585.30	44240.81
585.46	44493.58
585.62	44453.79
585.78	44498.26
585.94	44509.97
586.10	44889.13
586.26	44416.35
586.42	45038.93
586.58	44914.88
586.74	44734.66
586.90	44451.45
587.06	44701.89
587.22	44699.55
587.38	44486.56
587.54	44832.96
587.70	44617.63
587.86	44570.82
588.02	45223.83
588.18	45099.78
588.34	45017.86
588.49	44669.12
588.65	44685.51
588.81	44437.41
588.97	45102.12
589.13	44540.39
589.29	44807.22
589.45	45326.81
589.61	45034.25
589.77	44912.54
589.93	44650.40
590.08	45256.60
590.24	45202.77
590.40	45001.48
590.56	45280.00
590.72	44942.97
590.88	44987.44
