SpectraSuite Data File
++++++++++++++++++++++++++++++++++++
Date: Fri Oct 04 11:39:54 GMT-05:00 2013
User: price-jones
Dark Spectrum Present: No
Reference Spectrum Present: No
Number of Sampled Component Spectra: 1
Spectrometers: USB2+H05261
Integration Time (usec): 100000 (USB2+H05261)
Spectra Averaged: 1 (USB2+H05261)
Boxcar Smoothing: 0 (USB2+H05261)
Correct for Electrical Dark: No (USB2+H05261)
Strobe/Lamp Enabled: No (USB2+H05261)
Correct for Detector Non-linearity: No (USB2+H05261)
Correct for Stray Light: No (USB2+H05261)
Number of Pixels in Processed Spectrum: 2048
>>>>>Begin Processed Spectral Data<<<<<
365.73	72.56
365.92	72.56
366.12	72.56
366.32	0.00
366.52	0.00
366.72	0.00
366.91	0.00
367.11	0.00
367.31	0.00
367.51	0.00
367.70	0.00
367.90	0.00
368.10	0.00
368.30	0.00
368.49	0.00
368.69	0.00
368.89	0.00
369.09	0.00
369.28	30.43
369.48	4.68
369.68	0.00
369.87	0.00
370.07	2.34
370.27	30.43
370.47	58.51
370.66	86.60
370.86	126.39
371.06	187.24
371.25	140.43
371.45	152.13
371.65	177.88
371.84	138.09
372.04	135.75
372.24	168.52
372.44	152.13
372.63	140.43
372.83	166.18
373.03	166.18
373.22	215.33
373.42	154.48
373.62	180.22
373.81	170.86
374.01	212.99
374.21	229.37
374.40	191.92
374.60	180.22
374.79	252.78
374.99	159.16
375.19	180.22
375.38	205.97
375.58	154.48
375.78	231.71
375.97	138.09
376.17	278.52
376.37	201.29
376.56	203.63
376.76	182.56
376.95	255.12
377.15	212.99
377.35	259.80
377.54	229.37
377.74	236.39
377.93	189.58
378.13	152.13
378.33	217.67
378.52	238.73
378.72	208.31
378.91	236.39
379.11	187.24
379.31	163.84
379.50	95.96
379.70	220.01
379.89	203.63
380.09	187.24
380.28	156.82
380.48	208.31
380.68	212.99
380.87	175.54
381.07	283.20
381.26	266.82
381.46	203.63
381.65	248.10
381.85	187.24
382.04	220.01
382.24	222.35
382.43	163.84
382.63	250.44
382.83	212.99
383.02	205.97
383.22	320.65
383.41	224.69
383.61	220.01
383.80	245.76
384.00	292.57
384.19	196.60
384.39	264.48
384.58	252.78
384.78	299.59
384.97	227.03
385.17	236.39
385.36	182.56
385.56	245.76
385.75	210.65
385.95	229.37
386.14	311.29
386.34	248.10
386.53	98.30
386.72	220.01
386.92	320.65
387.11	248.10
387.31	346.40
387.50	154.48
387.70	175.54
387.89	229.37
388.09	201.29
388.28	224.69
388.48	220.01
388.67	273.84
388.86	252.78
389.06	255.12
389.25	283.20
389.45	339.38
389.64	203.63
389.84	346.40
390.03	222.35
390.22	222.35
390.42	255.12
390.61	222.35
390.81	217.67
391.00	294.91
391.19	236.39
391.39	257.46
391.58	243.42
391.78	287.89
391.97	301.93
392.16	290.23
392.36	313.63
392.55	259.80
392.75	379.17
392.94	252.78
393.13	346.40
393.33	367.46
393.52	297.25
393.71	407.25
393.91	351.08
394.10	264.48
394.29	290.23
394.49	362.78
394.68	292.57
394.88	280.86
395.07	358.10
395.26	344.06
395.46	287.89
395.65	383.85
395.84	322.99
396.04	423.64
396.23	360.44
396.42	409.59
396.62	365.12
396.81	423.64
397.00	407.25
397.19	388.53
397.39	435.34
397.58	409.59
397.77	447.04
397.97	451.72
398.16	437.68
398.35	411.93
398.55	372.15
398.74	390.87
398.93	461.09
399.12	388.53
399.32	454.06
399.51	360.44
399.70	388.53
399.90	437.68
400.09	461.09
400.28	547.69
400.47	454.06
400.67	407.25
400.86	503.22
401.05	507.90
401.24	414.27
401.44	402.57
401.63	554.71
401.82	512.58
402.01	437.68
402.21	505.56
402.40	559.39
402.59	578.11
402.78	491.51
402.97	561.73
403.17	510.24
403.36	526.62
403.55	613.22
403.74	629.60
403.93	653.01
404.13	655.35
404.32	655.35
404.51	606.20
404.70	643.65
404.89	634.29
405.09	683.44
405.28	622.58
405.47	690.46
405.66	727.91
405.85	683.44
406.05	674.07
406.24	664.71
406.43	795.78
406.62	725.57
406.81	849.61
407.00	725.57
407.20	671.73
407.39	732.59
407.58	791.10
407.77	716.20
407.96	784.08
408.15	823.87
408.34	788.76
408.54	903.45
408.73	800.46
408.92	816.85
409.11	917.49
409.30	952.60
409.49	823.87
409.68	889.40
409.87	915.15
410.07	1015.79
410.26	938.55
410.45	943.24
410.64	931.53
410.83	903.45
411.02	954.94
411.21	1048.56
411.40	976.00
411.59	1074.31
411.78	997.07
411.98	1071.97
412.17	1069.62
412.36	1067.28
412.55	1041.54
412.74	1167.93
412.93	1088.35
413.12	1130.48
413.31	1177.29
413.50	1114.10
413.69	1186.65
413.88	1254.53
414.07	1210.06
414.26	1114.10
414.45	1217.08
414.64	1184.31
414.83	1153.88
415.02	1240.48
415.22	1261.55
415.41	1383.26
415.60	1366.87
415.79	1284.95
415.98	1507.30
416.17	1392.62
416.36	1425.39
416.55	1390.28
416.74	1495.60
416.93	1327.08
417.12	1411.34
417.31	1397.30
417.50	1387.94
417.69	1446.45
417.88	1556.46
418.07	1521.35
418.26	1558.80
418.45	1591.56
418.64	1631.35
418.83	1685.19
419.02	1659.44
419.21	1579.86
419.39	1750.72
419.58	1647.74
419.77	1654.76
419.96	1582.20
420.15	1645.40
420.34	1692.21
420.53	1710.93
420.72	1792.85
420.91	1720.29
421.10	1689.87
421.29	1734.34
421.48	1767.10
421.67	1823.28
421.86	1729.66
422.05	1746.04
422.24	1771.79
422.43	1769.44
422.61	1722.63
422.80	1832.64
422.99	1792.85
423.18	1820.94
423.37	1856.04
423.56	1830.30
423.75	1792.85
423.94	1827.96
424.13	1750.72
424.32	1757.74
424.50	1837.32
424.69	1827.96
424.88	1926.26
425.07	1813.92
425.26	1867.75
425.45	1830.30
425.64	1879.45
425.83	1858.39
426.01	1954.35
426.20	1966.05
426.39	1820.94
426.58	1865.41
426.77	1879.45
426.96	1966.05
427.15	1870.09
427.33	1926.26
427.52	1895.83
427.71	1914.56
427.90	1959.03
428.09	1966.05
428.28	2017.54
428.46	1973.07
428.65	1954.35
428.84	2080.74
429.03	2118.18
429.22	1975.41
429.40	2113.50
429.59	2125.21
429.78	1994.14
429.97	1963.71
430.16	1989.46
430.34	2118.18
430.53	2125.21
430.72	2029.24
430.91	2127.55
431.10	2045.63
431.28	2155.63
431.47	2162.66
431.66	2214.15
431.85	2120.53
432.03	2193.08
432.22	2150.95
432.41	2251.60
432.60	2307.77
432.79	2183.72
432.97	2216.49
433.16	2293.72
433.35	2267.98
433.54	2251.60
433.72	2347.56
433.91	2392.03
434.10	2340.54
434.28	2321.81
434.47	2225.85
434.66	2349.90
434.85	2349.90
435.03	2523.10
435.22	2560.55
435.41	2773.53
435.59	2850.77
435.78	2705.66
435.97	2551.18
436.16	2413.09
436.34	2450.54
436.53	2462.24
436.72	2527.78
436.90	2483.31
437.09	2518.42
437.28	2509.05
437.46	2551.18
437.65	2544.16
437.84	2534.80
438.02	2642.46
438.21	2487.99
438.40	2506.71
438.58	2614.38
438.77	2612.04
438.96	2621.40
439.14	2775.88
439.33	2630.76
439.52	2750.13
439.70	2684.59
439.89	2668.21
440.08	2780.56
440.26	2691.62
440.45	2864.82
440.63	2902.26
440.82	2869.50
441.01	2960.78
441.19	2843.75
441.38	2794.60
441.57	2871.84
441.75	3009.93
441.94	2998.23
442.12	2965.46
442.31	2977.16
442.50	3000.57
442.68	3080.14
442.87	3159.72
443.05	3110.57
443.24	3035.67
443.43	3187.81
443.61	2944.39
443.80	3201.85
443.98	3005.25
444.17	3045.04
444.35	3159.72
444.54	3059.08
444.73	3176.11
444.91	3258.03
445.10	3152.70
445.28	3150.36
445.47	3164.40
445.65	3070.78
445.84	3105.89
446.02	3232.28
446.21	3141.00
446.39	3103.55
446.58	3115.25
446.77	3197.17
446.95	3190.15
447.14	3293.13
447.32	3335.26
447.51	3283.77
447.69	3180.79
447.88	3337.60
448.06	3197.17
448.25	3246.32
448.43	3283.77
448.62	3262.71
448.80	3136.32
448.99	3351.65
449.17	3260.37
449.36	3192.49
449.54	3349.31
449.73	3363.35
449.91	3506.12
450.10	3375.05
450.28	3489.74
450.46	3424.20
450.65	3386.76
450.83	3368.03
451.02	3300.16
451.20	3398.46
451.39	3433.57
451.57	3398.46
451.76	3466.33
451.94	3515.48
452.13	3632.51
452.31	3588.04
452.49	3559.95
452.68	3524.85
452.86	3445.27
453.05	3646.55
453.23	3576.34
453.42	3487.40
453.60	3485.06
453.78	3599.74
453.97	3618.47
454.15	3494.42
454.34	3609.11
454.52	3681.66
454.70	3604.42
454.89	3564.64
455.07	3728.47
455.26	3719.11
455.44	3777.62
455.62	3611.45
455.81	3705.07
455.99	3754.22
456.17	3742.52
456.36	3779.97
456.54	3775.28
456.73	3854.86
456.91	3815.07
457.09	3758.90
457.28	3932.10
457.46	3915.72
457.64	3978.91
457.83	3901.67
458.01	3953.16
458.19	4105.30
458.38	3864.22
458.56	4032.74
458.74	4156.79
458.93	3889.97
459.11	3967.21
459.29	4046.79
459.48	4145.09
459.66	4056.15
459.84	4161.47
460.03	4142.75
460.21	4131.05
460.39	4037.42
460.57	4117.00
460.76	4138.07
460.94	4198.92
461.12	4086.58
461.31	4290.20
461.49	4194.24
461.67	4159.13
461.85	4355.74
462.04	4259.78
462.22	4734.90
462.40	4327.65
462.59	4526.60
462.77	4322.97
462.95	4313.61
463.13	4329.99
463.32	4397.87
463.50	4379.14
463.68	4547.66
463.86	4491.49
464.05	4301.90
464.23	4294.88
464.41	4393.19
464.59	4320.63
464.78	4421.27
464.96	4472.76
465.14	4440.00
465.32	4379.14
465.50	4447.02
465.69	4554.68
465.87	4428.29
466.05	4358.08
466.23	4489.15
466.41	4592.13
466.60	4657.67
466.78	4695.11
466.96	4676.39
467.14	4746.61
467.32	4657.67
467.51	4704.48
467.69	4723.20
467.87	4533.62
468.05	4648.30
468.23	4781.71
468.41	4557.02
468.60	4592.13
468.78	4767.67
468.96	4737.24
469.14	4858.95
469.32	4772.35
469.50	4760.65
469.69	4952.57
469.87	4891.72
470.05	4777.03
470.23	4830.87
470.41	4812.14
470.59	5076.62
470.77	5039.17
470.95	4945.55
471.14	4887.04
471.32	4971.30
471.50	4947.89
471.68	5125.77
471.86	5076.62
472.04	5055.56
472.22	5121.09
472.40	5015.77
472.58	5240.46
472.77	5146.84
472.95	5291.95
473.13	5364.51
473.31	5252.16
473.49	5179.61
473.67	5343.44
473.85	5521.32
474.03	5397.28
474.21	5495.58
474.39	5511.96
474.57	5502.60
474.75	5488.56
474.93	5577.50
475.12	5582.18
475.30	5682.82
475.48	5556.43
475.66	5533.03
475.84	5774.10
476.02	5661.76
476.20	5755.38
476.38	5748.36
476.56	5966.03
476.74	5797.51
476.92	5907.51
477.10	5867.72
477.28	6043.26
477.46	6083.05
477.64	6104.12
477.82	6143.91
478.00	6384.98
478.18	6235.19
478.36	6413.07
478.54	6164.97
478.72	6380.30
478.90	6429.45
479.08	6560.52
479.26	6588.61
479.44	6417.75
479.62	6604.99
479.80	6637.76
479.98	6789.89
480.16	6628.40
480.34	6684.57
480.52	6686.91
480.70	6808.62
480.88	6911.60
481.06	6817.98
481.24	6860.11
481.41	7007.56
481.59	7054.37
481.77	7075.44
481.95	7037.99
482.13	7297.79
482.31	7178.42
482.49	7452.27
482.67	7250.98
482.85	7592.70
483.03	7583.34
483.21	7667.60
483.39	7758.88
483.57	7730.79
483.74	7808.03
483.92	7744.83
484.10	7735.47
484.28	7892.29
484.46	8116.98
484.64	8149.75
484.82	8077.19
485.00	8013.99
485.18	8304.22
485.35	8283.16
485.53	8372.10
485.71	8730.20
485.89	8732.54
486.07	8528.91
486.25	8601.47
486.43	8690.41
486.61	8912.76
486.78	8608.49
486.96	8779.35
487.14	9071.92
487.32	9226.39
487.50	9184.26
487.68	9247.46
487.85	9446.40
488.03	9387.89
488.21	9607.90
488.39	9530.66
488.57	9607.90
488.75	9607.90
488.92	9893.44
489.10	9605.56
489.28	9661.73
489.46	9884.08
489.64	10136.86
489.81	9900.47
489.99	9858.34
490.17	10211.76
490.35	10162.61
490.53	10331.12
490.70	10389.64
490.88	10310.06
491.06	10401.34
491.24	10586.24
491.41	10623.69
491.59	10752.42
491.77	10703.27
491.95	11000.52
492.13	10780.51
492.30	10705.61
492.48	10759.44
492.66	11019.24
492.84	10986.47
493.01	11119.89
493.19	11204.14
493.37	11552.88
493.54	11197.12
493.72	11440.54
493.90	11229.89
494.08	11602.04
494.25	11779.92
494.43	11726.08
494.61	11936.73
494.79	11894.60
494.96	11630.12
495.14	11974.18
495.32	11871.20
495.49	11999.93
495.67	12201.21
495.85	12105.25
496.02	12301.86
496.20	12269.09
496.38	12453.99
496.55	12421.22
496.73	12655.28
496.91	12533.57
497.09	12442.29
497.26	13050.83
497.44	12961.89
497.62	12514.84
497.79	12919.76
497.97	12943.16
498.14	13195.94
498.32	13312.97
498.50	13109.34
498.67	13060.19
498.85	13088.28
499.03	13102.32
499.20	13263.82
499.38	13392.55
499.56	13415.95
499.73	13551.70
499.91	13408.93
500.08	13867.67
500.26	13465.10
500.44	13689.79
500.61	13816.18
500.79	13680.43
500.97	13788.10
501.14	14047.90
501.32	14143.86
501.49	14195.35
501.67	14061.94
501.84	13996.40
502.02	13898.10
502.20	14300.67
502.37	14094.71
502.55	14176.62
502.72	14237.48
502.90	14368.55
503.07	14476.21
503.25	14424.72
503.43	14714.95
503.60	14607.28
503.78	14782.82
503.95	14565.15
504.13	14633.03
504.30	14808.57
504.48	14637.71
504.65	15084.75
504.83	14874.10
505.01	14752.40
505.18	15035.60
505.36	15133.90
505.53	14934.96
505.71	14740.69
505.88	15073.05
506.06	14918.57
506.23	15494.35
506.41	15379.66
506.58	15651.16
506.76	15295.40
506.93	15349.23
507.11	15236.89
507.28	15367.96
507.46	15314.13
507.63	15620.74
507.81	15648.82
507.98	15314.13
508.16	15899.26
508.33	16116.93
508.50	15765.85
508.68	15901.60
508.85	16105.23
509.03	15892.24
509.20	16046.71
509.38	16290.13
509.55	16666.95
509.73	16421.20
509.90	16170.76
510.08	16257.36
510.25	16568.65
510.42	16362.69
510.60	16629.51
510.77	16634.19
510.95	16816.75
511.12	16545.25
511.30	16657.59
511.47	16514.82
511.64	16613.12
511.82	16870.58
511.99	16826.11
512.17	17036.76
512.34	16931.44
512.51	17181.87
512.69	16886.97
512.86	17207.62
513.04	17153.79
513.21	17357.41
513.38	17163.15
513.56	17221.66
513.73	17420.61
513.90	17427.63
514.08	17467.42
514.25	17654.66
514.43	17687.43
514.60	17834.88
514.77	17823.18
514.95	17626.57
515.12	17628.92
515.29	17696.79
515.47	17846.58
515.64	17944.89
515.81	17825.52
515.99	18211.71
516.16	18300.65
516.33	18284.26
516.51	18429.38
516.68	18164.90
516.85	18099.36
517.03	18157.88
517.20	18157.88
517.37	18560.45
517.54	18501.93
517.72	18228.09
517.89	18246.82
518.06	18450.44
518.24	18525.34
518.41	18382.57
518.58	18548.75
518.75	18300.65
518.93	18801.52
519.10	18597.90
519.27	19012.17
519.45	18787.48
519.62	18909.19
519.79	18951.32
519.96	18785.14
520.14	19077.71
520.31	18810.89
520.48	18948.98
520.65	19115.16
520.83	19297.72
521.00	19222.82
521.17	19393.68
521.34	19091.75
521.52	19260.27
521.69	19339.85
521.86	19709.65
522.03	19695.61
522.20	19520.07
522.38	19248.57
522.55	19590.28
522.72	19751.78
522.89	19754.12
523.07	19845.40
523.24	19789.23
523.41	19826.68
523.58	19714.33
523.75	19768.16
523.92	19709.65
524.10	19920.30
524.27	20152.01
524.44	20098.18
524.61	20243.29
524.78	20205.84
524.96	20109.88
525.13	20072.43
525.30	19964.77
525.47	19969.45
525.64	20088.82
525.81	20409.47
525.98	20093.50
526.16	20217.55
526.33	20425.86
526.50	20395.43
526.67	20435.22
526.84	20315.85
527.01	20671.61
527.18	20657.57
527.36	20645.87
527.53	20765.23
527.70	20903.32
527.87	20702.04
528.04	20622.46
528.21	20858.85
528.38	21062.48
528.55	20992.26
528.72	20751.19
528.89	21003.97
529.07	21259.09
529.24	20816.72
529.41	21062.48
529.58	20779.28
529.75	21146.74
529.92	21106.95
530.09	21025.03
530.26	21317.60
530.43	21408.88
530.60	21018.01
530.77	21291.85
530.94	21359.73
531.11	21139.72
531.28	21256.75
531.46	21167.80
531.63	21404.20
531.80	21511.86
531.97	21706.13
532.14	21755.28
532.31	21324.62
532.48	21518.89
532.65	21792.73
532.82	21500.16
532.99	21668.68
533.16	21757.62
533.33	22005.72
533.50	21916.78
533.67	21642.93
533.84	21579.74
534.01	21867.63
534.18	21738.90
534.35	21846.56
534.52	22073.59
534.69	22324.03
534.86	22506.59
535.03	22146.15
535.20	22244.45
535.37	22141.47
535.54	22317.01
535.71	21991.67
535.88	22188.28
536.05	22078.27
536.22	22508.93
536.38	22251.47
536.55	22469.14
536.72	22368.50
536.89	22190.62
537.06	22396.59
537.23	22120.40
537.40	22588.51
537.57	22384.88
537.74	22806.18
537.91	22862.35
538.08	22948.95
538.25	22717.24
538.42	22115.72
538.59	22412.97
538.75	22721.92
538.92	22745.33
539.09	22897.46
539.26	22930.23
539.43	22963.00
539.60	23281.31
539.77	23112.79
539.94	22864.69
540.11	23417.06
540.28	23070.66
540.44	23044.91
540.61	23171.30
540.78	22986.40
540.95	23463.87
541.12	23412.38
541.29	23833.68
541.46	23484.94
541.62	23667.50
541.79	23599.62
541.96	23360.89
542.13	23573.88
542.30	23742.39
542.47	23917.93
542.63	23688.56
542.80	23655.79
542.97	23969.43
543.14	24020.92
543.31	23927.30
543.48	23578.56
543.64	23999.85
543.81	23910.91
543.98	24140.29
544.15	24201.14
544.32	24009.22
544.48	24156.67
544.65	23969.43
544.82	24039.64
544.99	23901.55
545.16	24432.85
545.32	24025.60
545.49	24861.17
545.66	25277.79
545.83	25483.75
546.00	25127.99
546.16	24549.88
546.33	24180.07
546.50	23836.02
546.67	24276.04
546.83	24144.97
547.00	24397.74
547.17	24437.53
547.34	24524.13
547.50	24584.99
547.67	24610.73
547.84	24233.91
548.00	24212.84
548.17	24645.84
548.34	24493.71
548.51	24594.35
548.67	24727.76
548.84	24641.16
549.01	24666.91
549.18	24423.49
549.34	24456.26
549.51	24353.27
549.68	24936.07
549.84	24519.45
550.01	24519.45
550.18	24496.05
550.34	25027.35
550.51	24638.82
550.68	24781.59
550.84	24606.05
551.01	24524.13
551.18	24318.17
551.34	24458.60
551.51	24397.74
551.68	24959.47
551.84	24645.84
552.01	24542.86
552.18	24919.68
552.34	24372.00
552.51	24819.04
552.68	24879.89
552.84	24879.89
553.01	24842.45
553.18	24374.34
553.34	24812.02
553.51	24645.84
553.67	24826.06
553.84	25095.22
554.01	25127.99
554.17	24753.51
554.34	24926.71
554.51	24711.38
554.67	25303.53
554.84	25153.74
555.00	25074.16
555.17	24926.71
555.33	24975.86
555.50	24812.02
555.67	25113.95
555.83	24854.15
556.00	25069.48
556.16	25453.33
556.33	25221.61
556.50	24840.11
556.66	25308.21
556.83	24964.15
556.99	25495.46
557.16	25184.16
557.32	25060.12
557.49	25441.62
557.65	24971.18
557.82	25195.87
557.98	24830.74
558.15	24971.18
558.32	25399.49
558.48	25371.41
558.65	25238.00
558.81	25572.69
558.98	25200.55
559.14	25399.49
559.31	25287.15
559.47	25296.51
559.64	25631.21
559.80	25514.18
559.97	25450.99
560.13	25219.27
560.30	25277.79
560.46	25390.13
560.63	25432.26
560.79	25621.84
560.96	25837.17
561.12	25333.96
561.29	25432.26
561.45	25521.20
561.61	25722.49
561.78	25680.36
561.94	25652.27
562.11	25472.05
562.27	25479.07
562.44	25392.47
562.60	25596.10
562.77	25628.87
562.93	25270.76
563.10	25776.32
563.26	25530.56
563.42	25722.49
563.59	25539.93
563.75	25582.06
563.92	25900.37
564.08	25575.03
564.24	25427.58
564.41	25617.16
564.57	25645.25
564.74	25764.62
564.90	25640.57
565.07	25415.88
565.23	25752.91
565.39	25785.68
565.56	25605.46
565.72	25434.60
565.88	25525.88
566.05	25406.52
566.21	25495.46
566.38	25778.66
566.54	25771.64
566.70	25979.95
566.87	26153.15
567.03	25563.33
567.19	26202.30
567.36	25741.21
567.52	25378.43
567.68	26216.34
567.85	25855.90
568.01	25886.32
568.17	25699.08
568.34	25610.14
568.50	25881.64
568.66	25710.78
568.83	26230.38
568.99	26022.08
569.15	25656.95
569.32	25448.64
569.48	25743.55
569.64	25565.67
569.81	25654.61
569.97	26017.40
570.13	25600.78
570.30	25912.07
570.46	25872.28
570.62	25776.32
570.78	25816.11
570.95	25736.53
571.11	25542.27
571.27	25663.97
571.43	25699.08
571.60	25970.58
571.76	25785.68
571.92	25647.59
572.09	25912.07
572.25	26118.04
572.41	25977.61
572.57	25975.27
572.74	26008.03
572.90	25577.37
573.06	25731.85
573.22	26127.40
573.38	25914.41
573.55	26164.85
573.71	26328.69
573.87	26094.63
574.03	25628.87
574.20	25853.56
574.36	25926.11
574.52	26125.06
574.68	25837.17
574.84	26181.23
575.01	25860.58
575.17	25862.92
575.33	26312.30
575.49	25839.51
575.65	26024.42
575.82	25898.03
575.98	25867.60
576.14	26197.62
576.30	25935.48
576.46	25956.54
576.62	26122.72
576.79	26071.23
576.95	26017.40
577.11	26099.31
577.27	26246.77
577.43	26139.10
577.59	26281.88
577.75	25937.82
577.92	25860.58
578.08	26085.27
578.24	25820.79
578.40	26040.80
578.56	26321.66
578.72	26115.70
578.88	26363.79
579.04	26204.64
579.21	26249.11
579.37	25886.32
579.53	26324.01
579.69	25804.41
579.85	25933.14
580.01	26073.57
580.17	26080.59
580.33	26125.06
580.49	25954.20
580.65	26036.12
580.82	26387.20
580.98	26071.23
581.14	26160.17
581.30	26164.85
581.46	25797.38
581.62	26242.09
581.78	25991.65
581.94	26429.33
582.10	25853.56
582.26	26309.96
582.42	26712.53
582.58	26277.19
582.74	26457.42
582.90	26597.85
583.06	26438.69
583.22	26101.65
583.38	25937.82
583.54	26347.41
583.70	26010.37
583.86	26195.28
584.02	25989.31
584.18	26480.82
584.34	26087.61
584.50	26302.94
584.66	26558.06
584.82	26012.71
584.98	26183.57
585.14	26328.69
585.30	26008.03
585.46	26490.18
585.62	26335.71
585.78	26602.53
585.94	26279.54
586.10	26040.80
586.26	25998.67
586.42	26499.55
586.58	26359.11
586.74	26462.10
586.90	26422.31
587.06	26211.66
587.22	26183.57
587.38	26361.45
587.54	26644.66
587.70	26483.16
587.86	26394.22
588.02	26506.57
588.18	26698.49
588.34	26555.72
588.49	26534.65
588.65	26284.22
588.81	26380.18
588.97	26307.62
589.13	26382.52
589.29	26019.74
589.45	26132.08
589.61	26506.57
589.77	26572.10
589.93	26616.57
590.08	26188.25
590.24	26455.08
590.40	26455.08
590.56	26504.23
590.72	26494.86
590.88	26450.39
591.04	26370.82
591.20	26567.42
591.35	26625.93
591.51	26700.83
591.67	27133.83
591.83	26789.77
591.99	26831.90
592.15	26757.00
592.31	26878.71
