SpectraSuite Data File
++++++++++++++++++++++++++++++++++++
Date: Fri Oct 04 11:39:47 GMT-05:00 2013
User: price-jones
Dark Spectrum Present: No
Reference Spectrum Present: No
Number of Sampled Component Spectra: 1
Spectrometers: USB2+H05261
Integration Time (usec): 100000 (USB2+H05261)
Spectra Averaged: 1 (USB2+H05261)
Boxcar Smoothing: 0 (USB2+H05261)
Correct for Electrical Dark: No (USB2+H05261)
Strobe/Lamp Enabled: No (USB2+H05261)
Correct for Detector Non-linearity: No (USB2+H05261)
Correct for Stray Light: No (USB2+H05261)
Number of Pixels in Processed Spectrum: 2048
>>>>>Begin Processed Spectral Data<<<<<
365.73	86.60
365.92	86.60
366.12	86.60
366.32	0.00
366.52	0.00
366.72	7.02
366.91	0.00
367.11	0.00
367.31	0.00
367.51	0.00
367.70	0.00
367.90	2.34
368.10	0.00
368.30	0.00
368.49	0.00
368.69	0.00
368.89	0.00
369.09	0.00
369.28	0.00
369.48	0.00
369.68	0.00
369.87	0.00
370.07	21.06
370.27	18.72
370.47	152.13
370.66	440.02
370.86	575.77
371.06	557.05
371.25	603.86
371.45	554.71
371.65	617.90
371.84	575.77
372.04	578.11
372.24	587.47
372.44	547.69
372.63	645.99
372.83	603.86
373.03	655.35
373.22	692.80
373.42	711.52
373.62	667.05
373.81	683.44
374.01	741.95
374.21	706.84
374.40	685.78
374.60	737.27
374.79	669.39
374.99	751.31
375.19	716.20
375.38	821.53
375.58	746.63
375.78	748.97
375.97	772.38
376.17	791.10
376.37	880.04
376.56	760.67
376.76	788.76
376.95	828.55
377.15	840.25
377.35	763.01
377.54	809.83
377.74	866.00
377.93	896.43
378.13	833.23
378.33	863.66
378.52	786.42
378.72	877.70
378.91	929.19
379.11	823.87
379.31	924.51
379.50	882.38
379.70	931.53
379.89	952.60
380.09	931.53
380.28	844.93
380.48	938.55
380.68	994.73
380.87	952.60
381.07	985.37
381.26	1041.54
381.46	898.77
381.65	990.05
381.85	908.13
382.04	1018.13
382.24	1078.99
382.43	976.00
382.63	917.49
382.83	1025.15
383.02	1069.62
383.22	1083.67
383.41	985.37
383.61	1067.28
383.80	1053.24
384.00	1036.86
384.19	1078.99
384.39	1144.52
384.58	1177.29
384.78	1254.53
384.97	1130.48
385.17	1156.22
385.36	1203.04
385.56	1142.18
385.75	1100.05
385.95	1214.74
386.14	1268.57
386.34	1137.50
386.53	1221.76
386.72	1146.86
386.92	1191.33
387.11	1158.57
387.31	1282.61
387.50	1296.66
387.70	1184.31
387.89	1378.58
388.09	1231.12
388.28	1282.61
388.48	1359.85
388.67	1369.21
388.86	1313.04
389.06	1380.92
389.25	1289.64
389.45	1345.81
389.64	1301.34
389.84	1423.05
390.03	1390.28
390.22	1411.34
390.42	1420.71
390.61	1352.83
390.81	1329.42
391.00	1399.64
391.19	1350.49
391.39	1413.68
391.58	1406.66
391.78	1404.32
391.97	1476.88
392.16	1530.71
392.36	1572.84
392.55	1481.56
392.75	1533.05
392.94	1591.56
393.13	1563.48
393.33	1582.20
393.52	1703.91
393.71	1671.14
393.91	1657.10
394.10	1631.35
394.29	1717.95
394.49	1631.35
394.68	1703.91
394.88	1717.95
395.07	1570.50
395.26	1764.76
395.46	1804.55
395.65	1881.79
395.84	1820.94
396.04	1837.32
396.23	1898.17
396.42	1788.17
396.62	1839.66
396.81	1830.30
397.00	1790.51
397.19	1858.39
397.39	1881.79
397.58	1921.58
397.77	1858.39
397.97	1947.33
398.16	1933.28
398.35	1895.83
398.55	1923.92
398.74	1977.75
398.93	2076.06
399.12	2019.88
399.32	2127.55
399.51	1991.80
399.70	2118.18
399.90	2129.89
400.09	2139.25
400.28	2129.89
400.47	2165.00
400.67	2176.70
400.86	2195.42
401.05	2155.63
401.24	2314.79
401.44	2253.94
401.63	2298.41
401.82	2312.45
402.01	2209.47
402.21	2326.49
402.40	2319.47
402.59	2459.90
402.78	2382.67
402.97	2394.37
403.17	2462.24
403.36	2480.97
403.55	2417.77
403.74	2413.09
403.93	2574.59
404.13	2696.30
404.32	2513.74
404.51	2497.35
404.70	2726.72
404.89	2647.15
405.09	2649.49
405.28	2530.12
405.47	2703.32
405.66	2719.70
405.85	2787.58
406.05	2888.22
406.24	2768.85
406.43	2860.13
406.62	2874.18
406.81	2899.92
407.00	2832.05
407.20	2684.59
407.39	2883.54
407.58	3014.61
407.77	3028.65
407.96	3016.95
408.15	3042.70
408.34	3007.59
408.54	3012.27
408.73	3129.30
408.92	3054.40
409.11	3192.49
409.30	3152.70
409.49	3105.89
409.68	3218.24
409.87	3148.02
410.07	3302.50
410.26	3236.96
410.45	3328.24
410.64	3225.26
410.83	3393.78
411.02	3527.19
411.21	3440.59
411.40	3435.91
411.59	3503.78
411.78	3552.93
411.98	3466.33
412.17	3644.21
412.36	3599.74
412.55	3665.28
412.74	3728.47
412.93	3749.54
413.12	3644.21
413.31	3939.12
413.50	3751.88
413.69	3936.78
413.88	3936.78
414.07	3815.07
414.26	4154.45
414.45	4198.92
414.64	4156.79
414.83	4163.81
415.02	4198.92
415.22	4236.37
415.41	4351.06
415.60	4212.96
415.79	4358.08
415.98	4425.95
416.17	4386.16
416.36	4442.34
416.55	4400.21
416.74	4575.75
416.93	4571.07
417.12	4540.64
417.31	4727.88
417.50	4755.97
417.69	4847.25
417.88	4781.71
418.07	4975.98
418.26	4812.14
418.45	4847.25
418.64	5025.13
418.83	4922.15
419.02	4884.70
419.21	5097.69
419.39	5177.26
419.58	4924.49
419.77	5046.20
419.96	5048.54
420.15	5242.80
420.34	5135.14
420.53	5203.01
420.72	5308.34
420.91	5296.63
421.10	5355.15
421.29	5636.01
421.48	5385.57
421.67	5547.07
421.86	5455.79
422.05	5526.00
422.24	5514.30
422.43	5341.10
422.61	5533.03
422.80	5621.97
422.99	5497.92
423.18	5619.63
423.37	5661.76
423.56	5579.84
423.75	5516.64
423.94	5542.39
424.13	5076.62
424.32	5298.97
424.50	5617.29
424.69	5703.89
424.88	5832.62
425.07	5500.26
425.26	5490.90
425.45	5713.25
425.64	5650.05
425.83	5638.35
426.01	5844.32
426.20	5715.59
426.39	5830.27
426.58	5783.46
426.77	5776.44
426.96	5884.11
427.15	5734.31
427.33	5947.30
427.52	5872.40
427.71	6069.01
427.90	5954.32
428.09	6001.13
428.28	6085.39
428.46	6193.06
428.65	5982.41
428.84	6324.13
429.03	6392.00
429.22	6118.16
429.40	6356.90
429.59	6363.92
429.78	6003.47
429.97	6087.73
430.16	6193.06
430.34	6450.52
430.53	6689.25
430.72	6406.05
430.91	6466.90
431.10	6403.71
431.28	6658.82
431.47	6539.46
431.66	6707.98
431.85	6717.34
432.03	6675.21
432.22	7007.56
432.41	6803.94
432.60	6815.64
432.79	6827.34
432.97	6827.34
433.16	6974.80
433.35	6855.43
433.54	7117.57
433.72	6984.16
433.91	7162.04
434.10	7155.02
434.28	7091.82
434.47	7077.78
434.66	7164.38
434.85	7199.49
435.03	7276.73
435.22	7414.82
435.41	7742.49
435.59	7623.12
435.78	7595.04
435.97	7564.61
436.16	7489.71
436.34	7410.14
436.53	7644.19
436.72	7721.43
436.90	7548.23
437.09	7494.40
437.28	7583.34
437.46	7784.62
437.65	7833.77
437.84	7915.69
438.02	7906.33
438.21	7798.66
438.40	7674.62
438.58	7946.12
438.77	8060.80
438.96	8039.74
439.14	8152.09
439.33	8224.64
439.52	8297.20
439.70	8318.26
439.89	8470.40
440.08	8468.06
440.26	8414.23
440.45	8463.38
440.63	8678.71
440.82	8854.25
441.01	8772.33
441.19	8800.41
441.38	8990.00
441.57	8966.59
441.75	8910.42
441.94	9100.00
442.12	9254.48
442.31	9303.63
442.50	9289.59
442.68	9266.18
442.87	9390.23
443.05	9462.79
443.24	9551.73
443.43	9525.98
443.61	9685.14
443.80	9905.15
443.98	9516.62
444.17	9128.09
444.35	9516.62
444.54	9844.29
444.73	9703.86
444.91	9633.64
445.10	9650.03
445.28	9710.88
445.47	9500.23
445.65	9685.14
445.84	9544.70
446.02	9764.72
446.21	9591.52
446.39	9771.74
446.58	9816.21
446.77	9874.72
446.95	9757.69
447.14	9774.08
447.32	9804.50
447.51	9715.56
447.69	9834.93
447.88	10129.84
448.06	9771.74
448.25	9832.59
448.43	9820.89
448.62	10010.47
448.80	9975.36
448.99	10195.37
449.17	10087.71
449.36	10129.84
449.54	10457.51
449.73	10328.78
449.91	10324.10
450.10	10438.79
450.28	10469.22
450.46	10609.65
450.65	10719.65
450.83	10740.72
451.02	10656.46
451.20	10581.56
451.39	10850.72
451.57	10703.27
451.76	10707.95
451.94	10970.09
452.13	10714.97
452.31	10869.45
452.49	10836.68
452.68	10703.27
452.86	10981.79
453.05	11129.25
453.23	11009.88
453.42	11047.33
453.60	10860.09
453.78	11157.33
453.97	10993.50
454.15	11143.29
454.34	11047.33
454.52	11330.53
454.70	11358.62
454.89	11393.73
455.07	11250.96
455.26	11562.25
455.44	11541.18
455.62	11363.30
455.81	11360.96
455.99	11620.76
456.17	11892.26
456.36	11798.64
456.54	12109.93
456.73	11969.50
456.91	12545.27
457.09	12039.72
457.28	12311.22
457.46	12138.02
457.64	12327.60
457.83	12477.40
458.01	12210.57
458.19	12542.93
458.38	12269.09
458.56	12486.76
458.74	12690.38
458.93	12533.57
459.11	12486.76
459.29	12816.77
459.48	12599.10
459.66	12732.51
459.84	12760.60
460.03	13179.56
460.21	12992.31
460.39	13085.94
460.57	13015.72
460.76	13055.51
460.94	12992.31
461.12	13371.48
461.31	13249.77
461.49	13343.39
461.67	13212.32
461.85	13509.57
462.04	13483.83
462.22	13898.10
462.40	13341.05
462.59	13490.85
462.77	13509.57
462.95	13724.90
463.13	13671.07
463.32	13565.74
463.50	13905.12
463.68	13703.84
463.86	13802.14
464.05	13760.01
464.23	13858.31
464.41	14045.55
464.59	13631.28
464.78	14230.46
464.96	13762.35
465.14	13687.45
465.32	14520.68
465.50	14253.86
465.69	14235.14
465.87	14373.23
466.05	14363.87
466.23	14267.91
466.41	14431.74
466.60	14864.74
466.78	14270.25
466.96	14506.64
467.14	14246.84
467.32	14516.00
467.51	14759.42
467.69	14073.64
467.87	14656.43
468.05	14813.25
468.23	14537.07
468.41	14530.05
468.60	14916.23
468.78	15225.18
468.96	14806.23
469.14	15044.96
469.32	15000.49
469.50	14726.65
469.69	15293.06
469.87	15239.23
470.05	15749.46
470.23	15499.03
470.41	15480.30
470.59	15964.79
470.77	15520.09
470.95	15817.34
471.14	15936.71
471.32	15604.35
471.50	16112.25
471.68	16070.12
471.86	16009.26
472.04	16278.43
472.22	16699.72
472.40	16072.46
472.58	16575.67
472.77	16475.03
472.95	16940.80
473.13	17233.36
473.31	16592.06
473.49	16589.72
473.67	17095.27
473.85	16772.28
474.03	17252.09
474.21	17020.38
474.39	17242.73
474.57	17132.72
474.75	17558.70
474.93	17848.93
475.12	17809.14
475.30	17743.60
475.48	17568.06
475.66	17895.74
475.84	17891.06
476.02	18225.75
476.20	18068.94
476.38	18263.20
476.56	18796.84
476.74	19002.81
476.92	18696.20
477.10	18801.52
477.28	19173.67
477.46	19157.28
477.64	19274.31
477.82	19573.90
478.00	19857.10
478.18	20159.03
478.36	20404.79
478.54	20465.64
478.72	20250.32
478.90	20491.39
479.08	20772.25
479.26	20870.56
479.44	21214.62
479.62	21504.84
479.80	21502.50
479.98	21612.51
480.16	21553.99
480.34	21846.56
480.52	22115.72
480.70	22249.13
480.88	21790.39
481.06	22183.60
481.24	22026.78
481.41	22654.05
481.59	22963.00
481.77	23014.49
481.95	23433.44
482.13	23248.54
482.31	23030.87
482.49	23700.26
482.67	23939.00
482.85	24414.13
483.03	24655.20
483.21	24826.06
483.39	24755.85
483.57	25060.12
483.74	25245.02
483.92	25408.86
484.10	25551.63
484.28	25706.10
484.46	25912.07
484.64	26881.05
484.82	26017.40
485.00	26291.24
485.18	26864.67
485.35	27103.40
485.53	27302.35
485.71	27370.22
485.89	27948.34
486.07	27782.16
486.25	27796.20
486.43	27978.76
486.61	28205.80
486.78	28587.30
486.96	28882.21
487.14	29118.60
487.32	29266.06
487.50	29860.55
487.68	29717.78
487.85	30199.93
488.03	30532.29
488.21	30834.22
488.39	30759.32
488.57	30899.75
488.75	31239.13
488.92	31314.03
489.10	31510.63
489.28	31812.56
489.46	31910.86
489.64	32224.50
489.81	32989.85
489.99	32666.86
490.17	33319.87
490.35	33322.21
490.53	33397.10
490.70	33832.44
490.88	33570.30
491.06	34553.33
491.24	34106.29
491.41	33996.28
491.59	34508.86
491.77	34312.25
491.95	35821.90
492.13	35545.72
492.30	35718.92
492.48	35676.79
492.66	36074.68
492.84	35985.74
493.01	36624.70
493.19	36643.43
493.37	36926.63
493.54	36999.19
493.72	37116.22
493.90	37666.24
494.08	37804.33
494.25	37844.12
494.43	38267.76
494.61	38637.56
494.79	38848.21
494.96	38457.34
495.14	39005.03
495.32	39049.50
495.49	39515.26
495.67	39222.70
495.85	39966.99
496.02	40477.22
496.20	40926.61
496.38	40175.30
496.55	40519.35
496.73	41235.56
496.91	40690.21
497.09	41631.11
497.26	41886.23
497.44	41834.74
497.62	41748.14
497.79	41900.27
497.97	41977.51
498.14	42429.23
498.32	42674.99
498.50	42660.94
498.67	43124.37
498.85	43140.75
499.03	43309.27
499.20	43276.51
499.38	44191.65
499.56	43910.79
499.73	44437.41
499.91	44369.54
500.08	44446.77
500.26	43936.54
500.44	44446.77
500.61	44580.18
500.79	44982.76
500.97	45125.53
501.14	45504.70
501.32	45382.99
501.49	45785.56
501.67	45385.33
501.84	45778.54
502.02	46033.66
502.20	46080.47
502.37	46696.03
502.55	45956.42
502.72	46824.76
502.90	46342.61
503.07	46447.93
503.25	46838.80
503.43	46590.70
503.60	47323.29
503.78	47143.07
503.95	47267.12
504.13	47480.11
504.30	47550.32
504.48	47299.89
504.65	47983.32
504.83	48191.63
505.01	48406.96
505.18	48289.93
505.36	48257.17
505.53	48170.57
505.71	48631.65
505.88	48266.53
506.06	48327.38
506.23	48746.34
506.41	48938.26
506.58	49279.98
506.76	49333.81
506.93	49759.79
507.11	49387.64
507.28	49394.67
507.46	49647.44
507.63	49998.52
507.81	50244.28
507.98	49876.82
508.16	49904.90
508.33	50305.13
508.50	50248.96
508.68	50499.40
508.85	50637.49
509.03	50752.18
509.20	50703.03
509.38	51339.65
509.55	51229.65
509.73	50995.59
509.90	50885.59
510.08	51267.09
510.25	51330.29
510.42	51510.51
510.60	51931.81
510.77	51990.32
510.95	52034.79
511.12	51704.77
511.30	51800.74
511.47	51999.68
511.64	52165.86
511.82	52474.81
511.99	52374.17
512.17	52659.71
512.34	52495.88
512.51	52568.43
512.69	52739.29
512.86	52690.14
513.04	53120.80
513.21	53020.16
513.38	53134.84
513.56	53296.34
513.73	52968.66
513.90	53279.96
514.08	53148.88
514.25	53413.37
514.43	53490.60
514.60	53499.97
514.77	53787.85
514.95	53755.08
515.12	53776.15
515.29	53488.26
515.47	53900.20
515.64	54134.25
515.81	53811.26
515.99	54342.56
516.16	54515.76
516.33	54387.03
516.51	54670.23
516.68	54267.66
516.85	54286.39
517.03	54604.70
517.20	54908.97
517.37	54803.64
517.54	55229.62
517.72	54939.39
517.89	54876.20
518.06	54789.60
518.24	54993.23
518.41	54852.80
518.58	55302.18
518.75	55077.49
518.93	55503.46
519.10	55552.62
519.27	55494.10
519.45	55728.16
519.62	55393.46
519.79	55381.76
519.96	55636.87
520.14	55835.82
520.31	55693.05
520.48	55877.95
520.65	56142.43
520.83	56271.16
521.00	55983.27
521.17	56156.47
521.34	56170.52
521.52	56226.69
521.69	56374.14
521.86	56514.58
522.03	56643.30
522.20	56603.52
522.38	56491.17
522.55	56680.75
522.72	56427.98
522.89	56643.30
523.07	56905.44
523.24	57043.54
523.41	56966.30
523.58	56830.55
523.75	57038.86
523.92	57085.67
524.10	56992.04
524.27	57277.59
524.44	57258.87
524.61	57411.00
524.78	57375.89
524.96	57574.84
525.13	57497.60
525.30	57729.31
525.47	57544.41
525.64	57579.52
525.81	57535.05
525.98	57769.10
526.16	57755.06
526.33	57869.75
526.50	57893.15
526.67	57492.92
526.84	57757.40
527.01	57925.92
527.18	57949.32
527.36	58316.79
527.53	58195.08
527.70	58560.20
527.87	58185.72
528.04	58356.58
528.21	58188.06
528.38	58452.54
528.55	58468.92
528.72	58497.01
528.89	58513.39
529.07	58482.97
529.24	58485.31
529.41	58745.11
529.58	58581.27
529.75	58588.29
529.92	58665.53
530.09	58742.77
530.26	58859.79
530.43	58948.73
530.60	58724.04
530.77	58876.18
530.94	58948.73
531.11	58784.90
531.28	59051.72
531.46	58904.26
531.63	59253.00
531.80	59437.90
531.97	59419.18
532.14	59229.60
532.31	59353.65
532.48	59295.13
532.65	59430.88
532.82	59269.39
532.99	59465.99
533.16	59255.34
533.33	59760.90
533.50	59955.16
533.67	59683.66
533.84	59655.57
534.01	59688.34
534.18	59409.82
534.35	59863.88
534.52	59828.77
534.69	60156.45
534.86	60083.89
535.03	60140.07
535.20	60093.25
535.37	60004.31
535.54	60058.15
535.71	59948.14
535.88	60177.51
536.05	60055.81
536.22	60172.83
536.38	60299.22
536.55	60308.58
536.72	60456.04
536.89	60149.43
537.06	60341.35
537.23	60322.63
537.40	60069.85
537.57	60266.45
537.74	60376.46
537.91	60451.36
538.08	60722.86
538.25	60526.25
538.42	60647.96
538.59	60664.35
538.75	60437.31
538.92	60622.22
539.09	60697.11
539.26	60797.76
539.43	60839.89
539.60	60987.34
539.77	60874.99
539.94	61069.26
540.11	60931.17
540.28	61097.34
540.44	61066.92
540.61	61041.17
540.78	61059.90
540.95	61219.05
541.12	61167.56
541.29	61265.86
541.46	61207.35
541.62	61338.42
541.79	61446.08
541.96	61172.24
542.13	61118.41
542.30	61375.87
542.47	61380.55
542.63	61577.15
542.80	61836.95
542.97	61762.06
543.14	61876.74
543.31	61733.97
543.48	61579.49
543.64	61825.25
543.81	61970.36
543.98	61998.45
544.15	62014.83
544.32	62101.43
544.48	62021.86
544.65	61853.34
544.82	61825.25
544.99	61684.82
545.16	62017.17
545.32	61946.96
545.49	62480.60
545.66	62635.08
545.83	62529.75
546.00	62515.71
546.16	62340.17
546.33	62071.01
546.50	61956.32
546.67	62284.00
546.83	61925.89
547.00	62059.30
547.17	62342.51
547.34	62262.93
547.50	62424.43
547.67	62555.50
547.84	62553.16
548.00	62429.11
548.17	62667.84
548.34	62391.66
548.51	62541.45
548.67	62588.27
548.84	62457.20
549.01	62639.76
549.18	62677.21
549.34	62590.61
549.51	62618.69
549.68	62585.92
549.84	62646.78
550.01	62738.06
550.18	62667.84
550.34	62766.15
550.51	62834.02
550.68	62784.87
550.84	62719.34
551.01	62904.24
551.18	62759.12
551.34	62731.04
551.51	62904.24
551.68	63089.14
551.84	63082.12
552.01	63011.90
552.18	63201.49
552.34	62918.28
552.51	63058.71
552.68	62974.45
552.84	63091.48
553.01	63290.43
553.18	63063.39
553.34	63332.56
553.51	63199.15
553.67	63227.23
553.84	63545.54
554.01	63571.29
554.17	63292.77
554.34	63306.81
554.51	63316.17
554.67	63501.07
554.84	63484.69
555.00	63484.69
555.17	63447.24
555.33	63550.23
555.50	63472.99
555.67	63564.27
555.83	63531.50
556.00	63393.41
556.16	63585.33
556.33	63391.07
556.50	63568.95
556.66	63648.53
556.83	63554.91
556.99	63824.07
557.16	63807.68
557.32	63690.66
557.49	63749.17
557.65	63484.69
557.82	63510.44
557.98	63636.83
558.15	63552.57
558.32	63917.69
558.48	63725.77
558.65	64008.97
558.81	63821.73
558.98	63955.14
559.14	63770.24
559.31	63669.59
559.47	63753.85
559.64	63978.54
559.80	63922.37
559.97	64123.66
560.13	63983.22
560.30	63950.46
560.46	63971.52
560.63	64065.14
560.79	63990.25
560.96	63978.54
561.12	63866.20
561.29	63931.73
561.45	64086.21
561.61	64264.09
561.78	64200.89
561.94	64285.15
562.11	64341.33
562.27	64252.39
562.44	64081.53
562.60	63997.27
562.77	64144.72
562.93	64065.14
563.10	64313.24
563.26	64175.15
563.42	64488.78
563.59	64451.33
563.75	64355.37
563.92	64587.08
564.08	64069.82
564.24	64322.60
564.41	64100.25
564.57	64292.18
564.74	64289.84
564.90	64465.38
565.07	64404.52
565.23	64376.43
565.39	64484.10
565.56	64638.57
565.72	64554.32
565.88	64540.27
566.05	64521.55
566.21	64287.49
566.38	64266.43
566.54	64322.60
566.70	64556.66
566.87	64774.33
567.03	64544.95
567.19	64725.17
567.36	64598.79
567.52	64322.60
567.68	64776.67
567.85	64439.63
568.01	64495.80
568.17	64521.55
568.34	64570.70
568.50	64624.53
568.66	64706.45
568.83	64797.73
568.99	64757.94
569.15	64484.10
569.32	64598.79
569.48	64423.25
569.64	64683.04
569.81	64676.02
569.97	64568.36
570.13	64654.96
570.30	64767.30
570.46	64818.80
570.62	64551.98
570.78	64774.33
570.95	64774.33
571.11	64769.64
571.27	64434.95
571.43	64561.34
571.60	64683.04
571.76	64881.99
571.92	64683.04
572.09	64935.82
572.25	64872.63
572.41	64797.73
572.57	64853.90
572.74	64842.20
572.90	64814.12
573.06	64884.33
573.22	64935.82
573.38	64874.97
573.55	64942.84
573.71	65167.54
573.87	64975.61
574.03	64949.87
574.20	65071.57
574.36	64907.74
574.52	64924.12
574.68	64828.16
574.84	64832.84
575.01	65013.06
575.17	64886.67
575.33	64999.02
575.49	64931.14
575.65	65247.11
575.82	65183.92
575.98	64771.99
576.14	65013.06
576.30	65160.51
576.46	65024.76
576.62	64910.08
576.79	65087.96
576.95	65038.81
577.11	65073.91
577.27	64945.18
577.43	65160.51
577.59	65134.77
577.75	65066.89
577.92	65045.83
578.08	64896.03
578.24	64914.76
578.40	64879.65
578.56	65076.26
578.72	65027.10
578.88	65347.76
579.04	65237.75
579.21	65158.17
579.37	65223.71
579.53	65214.35
579.69	64804.75
579.85	65148.81
580.01	65146.47
580.17	65066.89
580.33	65153.49
580.49	65153.49
580.65	65338.40
580.82	65193.28
580.98	65190.94
581.14	65073.91
581.30	65361.80
581.46	65144.13
581.62	64982.63
581.78	65130.09
581.94	65394.57
582.10	65099.66
582.26	65441.38
582.42	65200.30
582.58	65237.75
582.74	65078.60
582.90	65172.22
583.06	65221.37
583.22	65116.04
583.38	65254.14
583.54	65247.11
583.70	65106.68
583.86	65092.64
584.02	65146.47
584.18	65329.03
584.34	65371.16
584.50	65410.95
584.66	65134.77
584.82	65165.20
584.98	65396.91
585.14	65263.50
585.30	65209.67
585.46	65244.77
585.62	65125.41
585.78	65235.41
585.94	65139.45
586.10	65387.55
586.26	65284.56
586.42	65535.00
586.58	65282.22
586.74	65326.69
586.90	65242.43
587.06	65160.51
587.22	65535.00
587.38	65357.12
587.54	65509.25
587.70	65511.59
587.86	65532.66
588.02	65352.44
588.18	65535.00
588.34	65345.42
588.49	65357.12
