SpectraSuite Data File
++++++++++++++++++++++++++++++++++++
Date: Fri Oct 04 11:40:07 GMT-05:00 2013
User: price-jones
Dark Spectrum Present: No
Reference Spectrum Present: No
Number of Sampled Component Spectra: 1
Spectrometers: USB2+H05261
Integration Time (usec): 100000 (USB2+H05261)
Spectra Averaged: 1 (USB2+H05261)
Boxcar Smoothing: 0 (USB2+H05261)
Correct for Electrical Dark: No (USB2+H05261)
Strobe/Lamp Enabled: No (USB2+H05261)
Correct for Detector Non-linearity: No (USB2+H05261)
Correct for Stray Light: No (USB2+H05261)
Number of Pixels in Processed Spectrum: 2048
>>>>>Begin Processed Spectral Data<<<<<
365.73	16.38
365.92	16.38
366.12	16.38
366.32	0.00
366.52	0.00
366.72	0.00
366.91	0.00
367.11	0.00
367.31	0.00
367.51	0.00
367.70	0.00
367.90	2.34
368.10	18.72
368.30	0.00
368.49	0.00
368.69	0.00
368.89	0.00
369.09	0.00
369.28	0.00
369.48	0.00
369.68	0.00
369.87	65.54
370.07	0.00
370.27	105.32
370.47	86.60
370.66	390.87
370.86	468.11
371.06	496.19
371.25	589.82
371.45	500.87
371.65	440.02
371.84	468.11
372.04	521.94
372.24	425.98
372.44	472.79
372.63	566.41
372.83	589.82
373.03	510.24
373.22	463.43
373.42	456.40
373.62	514.92
373.81	538.32
374.01	582.79
374.21	475.13
374.40	493.85
374.60	561.73
374.79	554.71
374.99	674.07
375.19	615.56
375.38	674.07
375.58	594.50
375.78	629.60
375.97	704.50
376.17	678.76
376.37	559.39
376.56	725.57
376.76	601.52
376.95	713.86
377.15	706.84
377.35	809.83
377.54	861.32
377.74	737.27
377.93	791.10
378.13	777.06
378.33	688.12
378.52	657.69
378.72	704.50
378.91	681.10
379.11	671.73
379.31	667.05
379.50	699.82
379.70	690.46
379.89	702.16
380.09	903.45
380.28	774.72
380.48	819.19
380.68	781.74
380.87	870.68
381.07	711.52
381.26	709.18
381.46	603.86
381.65	568.75
381.85	552.37
382.04	573.43
382.24	608.54
382.43	622.58
382.63	496.19
382.83	512.58
383.02	550.03
383.22	510.24
383.41	500.87
383.61	554.71
383.80	603.86
384.00	674.07
384.19	819.19
384.39	814.51
384.58	737.27
384.78	753.65
384.97	767.70
385.17	760.67
385.36	634.29
385.56	671.73
385.75	662.37
385.95	781.74
386.14	791.10
386.34	770.04
386.53	702.16
386.72	709.18
386.92	823.87
387.11	833.23
387.31	840.25
387.50	711.52
387.70	725.57
387.89	830.89
388.09	723.23
388.28	812.17
388.48	800.46
388.67	795.78
388.86	809.83
389.06	910.47
389.25	1069.62
389.45	978.34
389.64	1034.52
389.84	1015.79
390.03	1062.60
390.22	1020.47
390.42	1020.47
390.61	992.39
390.81	1114.10
391.00	1069.62
391.19	1212.40
391.39	1088.35
391.58	1041.54
391.78	973.66
391.97	971.32
392.16	901.11
392.36	849.61
392.55	805.14
392.75	545.34
392.94	561.73
393.13	493.85
393.33	561.73
393.52	734.93
393.71	870.68
393.91	966.64
394.10	952.60
394.29	987.71
394.49	1020.47
394.68	1191.33
394.88	1170.27
395.07	1252.19
395.26	1259.21
395.46	1200.69
395.65	1093.03
395.84	929.19
396.04	987.71
396.23	713.86
396.42	676.41
396.62	608.54
396.81	777.06
397.00	851.96
397.19	1032.18
397.39	1116.44
397.58	1280.27
397.77	1268.57
397.97	1366.87
398.16	1380.92
398.35	1401.98
398.55	1549.43
398.74	1500.28
398.93	1640.72
399.12	1495.60
399.32	1453.47
399.51	1575.18
399.70	1741.36
399.90	1605.61
400.09	1659.44
400.28	1694.55
400.47	1657.10
400.67	1636.03
400.86	1783.49
401.05	1783.49
401.24	1617.31
401.44	1703.91
401.63	1746.04
401.82	1774.13
402.01	1753.06
402.21	1842.00
402.40	1858.39
402.59	1790.51
402.78	1713.27
402.97	1575.18
403.17	1673.48
403.36	1682.85
403.55	1846.68
403.74	1963.71
403.93	1795.19
404.13	1736.68
404.32	1636.03
404.51	1715.61
404.70	1900.52
404.89	1858.39
405.09	1818.60
405.28	1870.09
405.47	1764.76
405.66	1753.06
405.85	1664.12
406.05	1671.14
406.24	1654.76
406.43	1701.57
406.62	1860.73
406.81	1879.45
407.00	1776.47
407.20	1727.32
407.39	1722.63
407.58	1804.55
407.77	1870.09
407.96	1867.75
408.15	1935.62
408.34	1991.80
408.54	2017.54
408.73	2129.89
408.92	1989.46
409.11	1863.07
409.30	1905.20
409.49	1771.79
409.68	1607.95
409.87	1579.86
410.07	1769.44
410.26	1776.47
410.45	1907.54
410.64	1849.02
410.83	2012.86
411.02	1970.73
411.21	2235.21
411.40	2214.15
411.59	2143.93
411.78	2122.87
411.98	2090.10
412.17	2026.90
412.36	2183.72
412.55	2139.25
412.74	2148.61
412.93	2111.16
413.12	2038.61
413.31	2160.31
413.50	2094.78
413.69	2207.13
413.88	2125.21
414.07	2153.29
414.26	2071.37
414.45	2022.22
414.64	2165.00
414.83	2190.74
415.02	2157.97
415.22	2157.97
415.41	2186.06
415.60	2176.70
415.79	2368.62
415.98	2464.58
416.17	2448.20
416.36	2450.54
416.55	2321.81
416.74	2277.34
416.93	2143.93
417.12	2232.87
417.31	2277.34
417.50	2235.21
417.69	2230.53
417.88	2270.32
418.07	2246.91
418.26	2249.25
418.45	2279.68
418.64	2413.09
418.83	2324.15
419.02	2392.03
419.21	2326.49
419.39	2333.51
419.58	2223.51
419.77	2207.13
419.96	2459.90
420.15	2310.11
420.34	2415.43
420.53	2392.03
420.72	2656.51
420.91	2445.86
421.10	2448.20
421.29	2546.50
421.48	2502.03
421.67	2490.33
421.86	2450.54
422.05	2260.96
422.24	2085.42
422.43	2197.76
422.61	2246.91
422.80	2396.71
422.99	2537.14
423.18	2310.11
423.37	2258.62
423.56	2235.21
423.75	2354.58
423.94	2363.94
424.13	2347.56
424.32	2221.17
424.50	2279.68
424.69	2345.22
424.88	2218.83
425.07	2235.21
425.26	2221.17
425.45	2216.49
425.64	2062.01
425.83	2209.47
426.01	2265.64
426.20	2406.07
426.39	2263.30
426.58	2214.15
426.77	2139.25
426.96	2071.37
427.15	1959.03
427.33	2319.47
427.52	2413.09
427.71	2176.70
427.90	2333.51
428.09	2193.08
428.28	2195.42
428.46	2193.08
428.65	2314.79
428.84	2169.68
429.03	2188.40
429.22	2087.76
429.40	1989.46
429.59	1952.01
429.78	1717.95
429.97	1617.31
430.16	1732.00
430.34	1647.74
430.53	1664.12
430.72	1694.55
430.91	1856.04
431.10	2118.18
431.28	2335.85
431.47	2637.78
431.66	2658.85
431.85	2504.37
432.03	2267.98
432.22	2202.44
432.41	2284.36
432.60	2443.52
432.79	2593.31
432.97	2509.05
433.16	2597.99
433.35	2387.35
433.54	2136.91
433.72	2038.61
433.91	2120.53
434.10	2214.15
434.28	2485.65
434.47	2614.38
434.66	2466.92
434.85	2513.74
435.03	2607.36
435.22	2712.68
435.41	2928.01
435.59	2916.31
435.78	2885.88
435.97	2761.83
436.16	2808.64
436.34	2850.77
436.53	2836.73
436.72	2738.43
436.90	2684.59
437.09	2579.27
437.28	2471.61
437.46	2530.12
437.65	2583.95
437.84	2511.39
438.02	2277.34
438.21	2324.15
438.40	2361.60
438.58	2464.58
438.77	2689.28
438.96	2605.02
439.14	2750.13
439.33	2726.72
439.52	2780.56
439.70	2839.07
439.89	2888.22
440.08	2712.68
440.26	2689.28
440.45	2726.72
440.63	2766.51
440.82	3049.72
441.01	2944.39
441.19	2869.50
441.38	3019.29
441.57	3112.91
441.75	3192.49
441.94	3124.62
442.12	3052.06
442.31	3206.53
442.50	3215.90
442.68	3089.51
442.87	3096.53
443.05	3019.29
443.24	2972.48
443.43	3136.32
443.61	3234.62
443.80	3208.87
443.98	3091.85
444.17	3091.85
444.35	3122.27
444.54	3346.97
444.73	3143.34
444.91	3138.66
445.10	3040.36
445.28	2967.80
445.47	2904.60
445.65	2970.14
445.84	2970.14
446.02	3089.51
446.21	3119.93
446.39	3021.63
446.58	3084.83
446.77	3218.24
446.95	3068.44
447.14	3300.16
447.32	3372.71
447.51	3384.41
447.69	3251.00
447.88	3082.49
448.06	3239.30
448.25	3176.11
448.43	3318.88
448.62	3073.12
448.80	3234.62
448.99	3131.64
449.17	3206.53
449.36	3101.21
449.54	3363.35
449.73	3379.73
449.91	3508.46
450.10	3449.95
450.28	3588.04
450.46	3581.02
450.65	3536.55
450.83	3515.48
451.02	3456.97
451.20	3428.88
451.39	3440.59
451.57	3351.65
451.76	3478.04
451.94	3375.05
452.13	3316.54
452.31	3222.92
452.49	2979.50
452.68	3162.06
452.86	3164.40
453.05	3166.74
453.23	3258.03
453.42	3382.07
453.60	3384.41
453.78	3372.71
453.97	3389.10
454.15	3330.58
454.34	3145.68
454.52	3243.98
454.70	3164.40
454.89	3361.01
455.07	3178.45
455.26	3346.97
455.44	3463.99
455.62	3499.10
455.81	3623.15
455.99	3552.93
456.17	3538.89
456.36	3389.10
456.54	3501.44
456.73	3571.66
456.91	3536.55
457.09	3550.59
457.28	3655.92
457.46	3494.42
457.64	3616.13
457.83	3325.90
458.01	3353.99
458.19	3365.69
458.38	3377.39
458.56	3576.34
458.74	3433.57
458.93	3419.52
459.11	3419.52
459.29	3440.59
459.48	3499.10
459.66	3562.30
459.84	3410.16
460.03	3449.95
460.21	3471.01
460.39	3588.04
460.57	3695.71
460.76	3644.21
460.94	3592.72
461.12	3763.58
461.31	3662.94
461.49	3506.12
461.67	3660.60
461.85	3676.98
462.04	3606.77
462.22	4058.49
462.40	3770.60
462.59	3651.24
462.77	3590.38
462.95	3714.43
463.13	3613.79
463.32	3616.13
463.50	3585.70
463.68	3597.40
463.86	3646.55
464.05	3564.64
464.23	3447.61
464.41	3426.54
464.59	3412.50
464.78	3662.94
464.96	3510.80
465.14	3527.19
465.32	3510.80
465.50	3630.17
465.69	3646.55
465.87	3667.62
466.05	3527.19
466.23	3356.33
466.41	3389.10
466.60	3461.65
466.78	3325.90
466.96	3461.65
467.14	3543.57
467.32	3662.94
467.51	3702.73
467.69	3452.29
467.87	3585.70
468.05	3648.90
468.23	3613.79
468.41	3634.85
468.60	3616.13
468.78	3595.06
468.96	3574.00
469.14	3480.38
469.32	3658.26
469.50	3405.48
469.69	3438.25
469.87	3461.65
470.05	3398.46
470.23	3480.38
470.41	3445.27
470.59	3456.97
470.77	3461.65
470.95	3384.41
471.14	3669.96
471.32	3737.84
471.50	3829.12
471.68	3850.18
471.86	3822.09
472.04	3756.56
472.22	3772.94
472.40	3712.09
472.58	3634.85
472.77	3620.81
472.95	3754.22
473.13	3836.14
473.31	3831.46
473.49	3751.88
473.67	3726.13
473.85	3794.01
474.03	3969.55
474.21	3967.21
474.39	3946.14
474.57	4002.32
474.75	3983.59
474.93	3948.48
475.12	3850.18
475.30	3742.52
475.48	3845.50
475.66	3985.93
475.84	3742.52
476.02	3829.12
476.20	3908.69
476.38	3815.07
476.56	4023.38
476.74	3824.44
476.92	4044.45
477.10	4063.17
477.28	4154.45
477.46	4234.03
477.64	4215.30
477.82	4409.57
478.00	4250.41
478.18	4212.96
478.36	4236.37
478.54	4152.11
478.72	4166.15
478.90	4283.18
479.08	4573.41
479.26	4486.81
479.44	4575.75
479.62	4440.00
479.80	4454.04
479.98	4554.68
480.16	4514.89
480.34	4512.55
480.52	4592.13
480.70	4571.07
480.88	4634.26
481.06	4617.88
481.24	4622.56
481.41	4723.20
481.59	4910.44
481.77	4816.82
481.95	4732.56
482.13	4741.93
482.31	4875.34
482.49	4847.25
482.67	4718.52
482.85	4727.88
483.03	4826.18
483.21	4915.12
483.39	5025.13
483.57	4770.01
483.74	4816.82
483.92	4919.81
484.10	4882.36
484.28	4938.53
484.46	5069.60
484.64	5018.11
484.82	5083.64
485.00	5067.26
485.18	4938.53
485.35	4851.93
485.53	4428.29
485.71	4175.52
485.89	4037.42
486.07	4182.54
486.25	4320.63
486.43	4599.15
486.61	4875.34
486.78	4870.65
486.96	4830.87
487.14	5015.77
487.32	5034.49
487.50	5224.08
487.68	5259.18
487.85	5572.82
488.03	5331.74
488.21	5472.17
488.39	5338.76
488.57	5212.37
488.75	5006.41
488.92	5561.11
489.10	5617.29
489.28	5825.59
489.46	5973.05
489.64	5944.96
489.81	6038.58
489.99	6155.61
490.17	6001.13
490.35	6097.10
490.53	5916.87
490.70	5968.37
490.88	5657.07
491.06	6094.76
491.24	5879.43
491.41	5832.62
491.59	5584.52
491.77	5476.85
491.95	5687.50
492.13	5788.14
492.30	5933.26
492.48	5949.64
492.66	6239.87
492.84	6326.47
493.01	6377.96
493.19	6284.34
493.37	6008.16
493.54	5942.62
493.72	6036.24
493.90	6293.70
494.08	6525.41
494.25	6544.14
494.43	6539.46
494.61	6628.40
494.79	6614.35
494.96	6546.48
495.14	6579.25
495.32	6136.88
495.49	6108.80
495.67	6574.56
495.85	6740.74
496.02	6759.47
496.20	6719.68
496.38	6663.51
496.55	6436.47
496.73	6766.49
496.91	6754.79
497.09	6878.83
497.26	7115.23
497.44	6820.32
497.62	6799.26
497.79	6724.36
497.97	6335.83
498.14	6448.18
498.32	6499.67
498.50	6801.60
498.67	6836.70
498.85	6862.45
499.03	6850.75
499.20	6857.77
499.38	6979.48
499.56	7037.99
499.73	6862.45
499.91	6696.27
500.08	6579.25
500.26	6532.44
500.44	6499.67
500.61	6623.72
500.79	6757.13
500.97	6567.54
501.14	6525.41
501.32	6593.29
501.49	6424.77
501.67	6410.73
501.84	6649.46
502.02	6525.41
502.20	6792.23
502.37	6834.36
502.55	6679.89
502.72	6806.28
502.90	6986.50
503.07	6860.11
503.25	6537.12
503.43	6637.76
503.60	6305.40
503.78	6176.67
503.95	6242.21
504.13	6370.94
504.30	6752.45
504.48	7054.37
504.65	6715.00
504.83	6991.18
505.01	7056.72
505.18	7026.29
505.36	6902.24
505.53	7023.95
505.71	7131.61
505.88	7180.76
506.06	7311.83
506.23	7206.51
506.41	6927.99
506.58	6918.62
506.76	6965.43
506.93	6810.96
507.11	7000.54
507.28	6916.28
507.46	6773.51
507.63	6619.04
507.81	6736.06
507.98	6754.79
508.16	6752.45
508.33	6899.90
508.50	7183.10
508.68	7375.03
508.85	7686.32
509.03	7379.71
509.20	7396.09
509.38	7014.59
509.55	6981.82
509.73	6949.05
509.90	7021.61
510.08	7136.29
510.25	7089.48
510.42	7115.23
510.60	7126.93
510.77	7126.93
510.95	7206.51
511.12	7265.02
511.30	7335.24
511.47	7435.88
511.64	7573.97
511.82	7391.41
511.99	7337.58
512.17	6991.18
512.34	7119.91
512.51	7152.68
512.69	7089.48
512.86	7176.08
513.04	7258.00
513.21	7297.79
513.38	7286.09
513.56	7026.29
513.73	6785.21
513.90	6857.77
514.08	6906.92
514.25	7293.11
514.43	7215.87
514.60	7014.59
514.77	7035.65
514.95	7180.76
515.12	7066.08
515.29	7269.70
515.47	7335.24
515.64	7358.64
515.81	7400.77
515.99	7220.55
516.16	6960.75
516.33	6504.35
516.51	6136.88
516.68	5881.77
516.85	5874.74
517.03	5856.02
517.20	6312.42
517.37	6927.99
517.54	7197.15
517.72	7164.38
517.89	6663.51
518.06	6094.76
518.24	5994.11
518.41	6619.04
518.58	6883.52
518.75	6937.35
518.93	6951.39
519.10	6881.18
519.27	6813.30
519.45	6949.05
519.62	7199.49
519.79	7239.28
519.96	7248.64
520.14	7241.62
520.31	7164.38
520.48	6932.67
520.65	7094.16
520.83	7246.30
521.00	7281.41
521.17	7400.77
521.34	7227.57
521.52	7307.15
521.69	7456.95
521.86	7534.18
522.03	7531.84
522.20	7119.91
522.38	6988.84
522.55	6946.71
522.72	7073.10
522.89	7035.65
523.07	7082.46
523.24	7124.59
523.41	7253.32
523.58	7412.48
523.75	7609.08
523.92	7538.87
524.10	7592.70
524.27	7756.54
524.44	7531.84
524.61	7435.88
524.78	7403.11
524.96	7475.67
525.13	7332.90
525.30	7353.96
525.47	7538.87
525.64	7569.29
525.81	7332.90
525.98	7049.69
526.16	6899.90
526.33	6567.54
526.50	6368.60
526.67	6459.88
526.84	6441.15
527.01	6696.27
527.18	6806.28
527.36	7070.76
527.53	7414.82
527.70	7363.33
527.87	7222.89
528.04	7150.34
528.21	7255.66
528.38	7466.31
528.55	7822.07
528.72	7779.94
528.89	7817.39
529.07	7655.89
529.24	7651.21
529.41	7403.11
529.58	7148.00
529.75	7194.81
529.92	7171.40
530.09	7545.89
530.26	7789.30
530.43	7758.88
530.60	7742.49
530.77	7763.56
530.94	7843.14
531.11	7646.53
531.28	7433.54
531.46	7485.03
531.63	7564.61
531.80	7590.36
531.97	7527.16
532.14	7353.96
532.31	7112.89
532.48	6839.05
532.65	6953.73
532.82	7012.24
532.99	7157.36
533.16	7236.94
533.33	7428.86
533.50	7592.70
533.67	7197.15
533.84	7155.02
534.01	7236.94
534.18	7370.35
534.35	7391.41
534.52	7346.94
534.69	7351.62
534.86	7548.23
535.03	7442.90
535.20	7726.11
535.37	7808.03
535.54	7698.02
535.71	7585.68
535.88	7805.69
536.05	7459.29
536.22	7363.33
536.38	7204.17
536.55	7164.38
536.72	7087.14
536.89	7077.78
537.06	7323.54
537.23	7370.35
537.40	7426.52
537.57	7644.19
537.74	7442.90
537.91	7442.90
538.08	7452.27
538.25	7611.42
538.42	7475.67
538.59	7419.50
538.75	7269.70
538.92	7267.36
539.09	7066.08
539.26	6972.46
539.43	7049.69
539.60	7094.16
539.77	7061.40
539.94	7061.40
540.11	6981.82
540.28	6970.12
540.44	6829.68
540.61	6747.76
540.78	6827.34
540.95	7166.72
541.12	7297.79
541.29	7199.49
541.46	7510.78
541.62	7548.23
541.79	7295.45
541.96	7239.28
542.13	7382.05
542.30	7368.01
542.47	7349.28
542.63	7316.51
542.80	7365.67
542.97	7288.43
543.14	7080.12
543.31	7178.42
543.48	7124.59
543.64	7686.32
543.81	7637.17
543.98	7571.63
544.15	7515.46
544.32	7358.64
544.48	7318.86
544.65	7258.00
544.82	7517.80
544.99	7461.63
545.16	7286.09
545.32	7283.75
545.49	7698.02
545.66	8002.29
545.83	8060.80
546.00	7613.76
546.16	7410.14
546.33	7424.18
546.50	7229.91
546.67	7208.85
546.83	7389.07
547.00	7339.92
547.17	7314.17
547.34	7028.63
547.50	7021.61
547.67	7204.17
547.84	7073.10
548.00	7108.21
548.17	7255.66
548.34	7281.41
548.51	7440.56
548.67	7398.43
548.84	7265.02
549.01	7194.81
549.18	7096.50
549.34	7094.16
549.51	7206.51
549.68	7162.04
549.84	7250.98
550.01	7028.63
550.18	7194.81
550.34	7061.40
550.51	6970.12
550.68	7150.34
550.84	7082.46
551.01	6991.18
551.18	6923.30
551.34	6958.41
551.51	7248.64
551.68	7166.72
551.84	7112.89
552.01	7204.17
552.18	7215.87
552.34	6761.81
552.51	6932.67
552.68	6757.13
552.84	7021.61
553.01	7019.27
553.18	6857.77
553.34	7126.93
553.51	7063.74
553.67	7166.72
553.84	7236.94
554.01	6995.86
554.17	6970.12
554.34	6958.41
554.51	7157.36
554.67	7288.43
554.84	7112.89
555.00	7138.63
555.17	7089.48
555.33	7066.08
555.50	6932.67
555.67	6972.46
555.83	6846.07
556.00	6836.70
556.16	6958.41
556.33	6693.93
556.50	6768.83
556.66	6733.72
556.83	6717.34
556.99	6553.50
557.16	6782.87
557.32	6740.74
557.49	6862.45
557.65	6876.49
557.82	6946.71
557.98	6832.02
558.15	6630.74
558.32	6509.03
558.48	6354.55
558.65	6396.68
558.81	6494.99
558.98	6485.62
559.14	6707.98
559.31	6581.59
559.47	6595.63
559.64	6328.81
559.80	6420.09
559.97	6436.47
560.13	6392.00
560.30	6544.14
560.46	6846.07
560.63	7068.42
560.79	7002.88
560.96	6988.84
561.12	6562.86
561.29	6518.39
561.45	6586.27
561.61	6654.14
561.78	6665.85
561.94	6518.39
562.11	6546.48
562.27	6384.98
562.44	6560.52
562.60	6740.74
562.77	6583.93
562.93	6719.68
563.10	6775.85
563.26	6612.01
563.42	6431.79
563.59	6494.99
563.75	6427.11
563.92	6410.73
564.08	6473.92
564.24	6609.67
564.41	6630.74
564.57	6532.44
564.74	6665.85
564.90	6487.96
565.07	6305.40
565.23	6270.30
565.39	6286.68
565.56	6235.19
565.72	6120.50
565.88	6148.59
566.05	6202.42
566.21	6183.70
566.38	6356.90
566.54	6244.55
566.70	6548.82
566.87	6392.00
567.03	6265.61
567.19	6420.09
567.36	6347.53
567.52	6239.87
567.68	6296.04
567.85	6181.35
568.01	6045.60
568.17	5966.03
568.34	5856.02
568.50	5973.05
568.66	5792.83
568.83	6106.46
568.99	6036.24
569.15	6043.26
569.32	6017.52
569.48	5905.17
569.64	5851.34
569.81	5774.10
569.97	5975.39
570.13	5905.17
570.30	5895.81
570.46	5856.02
570.62	5636.01
570.78	5809.21
570.95	5736.65
571.11	5933.26
571.27	5926.24
571.43	5898.15
571.60	6059.65
571.76	5888.79
571.92	5858.36
572.09	6146.25
572.25	6200.08
572.41	5996.45
572.57	6101.78
572.74	6104.12
572.90	6090.07
573.06	6179.01
573.22	6057.31
573.38	5998.79
573.55	5954.32
573.71	5975.39
573.87	5968.37
574.03	5795.17
574.20	5926.24
574.36	5755.38
574.52	5856.02
574.68	5956.66
574.84	5675.80
575.01	5607.92
575.17	5713.25
575.33	5694.52
575.49	5760.06
575.65	5874.74
575.82	5741.33
575.98	5731.97
576.14	5783.46
576.30	6003.47
576.46	5956.66
576.62	6001.13
576.79	5921.56
576.95	5879.43
577.11	5746.02
577.27	6003.47
577.43	5797.51
577.59	5844.32
577.75	5593.88
577.92	5614.95
578.08	5544.73
578.24	5441.75
578.40	5486.22
578.56	5795.17
578.72	5638.35
578.88	5774.10
579.04	5799.85
579.21	5703.89
579.37	5839.64
579.53	5858.36
579.69	5923.90
579.85	5921.56
580.01	5792.83
580.17	5661.76
580.33	5647.71
580.49	5720.27
580.65	5879.43
580.82	5748.36
580.98	5858.36
581.14	5621.97
581.30	5753.04
581.46	5832.62
581.62	5743.67
581.78	5738.99
581.94	5849.00
582.10	5916.87
582.26	5706.23
582.42	5919.21
582.58	5816.23
582.74	5975.39
582.90	5851.34
583.06	5942.62
583.22	5724.95
583.38	5905.17
583.54	5731.97
583.70	5788.14
583.86	5825.59
584.02	5844.32
584.18	5647.71
584.34	5823.25
584.50	5729.63
584.66	5795.17
584.82	5631.33
584.98	5537.71
585.14	5495.58
585.30	5504.94
585.46	5451.11
585.62	5338.76
585.78	5397.28
585.94	5380.89
586.10	5441.75
586.26	5565.79
586.42	5659.42
586.58	5593.88
586.74	5481.53
586.90	5561.11
587.06	5540.05
587.22	5418.34
587.38	5397.28
587.54	5348.12
587.70	5186.63
587.86	5097.69
588.02	5076.62
588.18	4875.34
588.34	4889.38
588.49	4470.42
588.65	4245.73
588.81	3943.80
588.97	4086.58
589.13	4124.02
589.29	4135.73
589.45	4145.09
589.61	4175.52
589.77	4381.48
589.93	4531.28
590.08	4524.26
590.24	4685.75
590.40	4746.61
590.56	4849.59
590.72	4650.64
590.88	4664.69
591.04	4697.46
591.20	4599.15
591.35	4589.79
591.51	4734.90
591.67	4620.22
591.83	4463.40
591.99	4685.75
592.15	4667.03
592.31	4798.10
592.46	4816.82
592.62	4865.97
592.78	4793.42
592.94	4833.21
593.10	4922.15
593.26	4924.49
593.41	4924.49
593.57	4943.21
593.73	4697.46
593.89	4627.24
594.05	4428.29
594.20	4430.63
594.36	4388.50
594.52	4311.27
594.68	4381.48
594.84	4376.80
594.99	4809.80
595.15	4762.99
595.31	4826.18
595.47	4652.98
595.62	4800.44
595.78	4751.29
595.94	4863.63
596.10	5064.92
596.25	4739.58
596.41	4933.85
596.57	4662.35
596.73	4727.88
596.88	4807.46
597.04	4865.97
597.20	4767.67
597.36	4674.05
597.51	4552.34
597.67	4725.54
