SpectraSuite Data File
++++++++++++++++++++++++++++++++++++
Date: Fri Oct 04 11:40:06 GMT-05:00 2013
User: price-jones
Dark Spectrum Present: No
Reference Spectrum Present: No
Number of Sampled Component Spectra: 1
Spectrometers: USB2+H05261
Integration Time (usec): 100000 (USB2+H05261)
Spectra Averaged: 1 (USB2+H05261)
Boxcar Smoothing: 0 (USB2+H05261)
Correct for Electrical Dark: No (USB2+H05261)
Strobe/Lamp Enabled: No (USB2+H05261)
Correct for Detector Non-linearity: No (USB2+H05261)
Correct for Stray Light: No (USB2+H05261)
Number of Pixels in Processed Spectrum: 2048
>>>>>Begin Processed Spectral Data<<<<<
365.73	37.45
365.92	37.45
366.12	37.45
366.32	2.34
366.52	0.00
366.72	0.00
366.91	0.00
367.11	0.00
367.31	0.00
367.51	0.00
367.70	0.00
367.90	0.00
368.10	0.00
368.30	0.00
368.49	0.00
368.69	0.00
368.89	0.00
369.09	0.00
369.28	0.00
369.48	0.00
369.68	0.00
369.87	11.70
370.07	0.00
370.27	18.72
370.47	133.41
370.66	414.27
370.86	559.39
371.06	671.73
371.25	624.92
371.45	547.69
371.65	531.30
371.84	421.30
372.04	535.98
372.24	592.16
372.44	582.79
372.63	589.82
372.83	667.05
373.03	510.24
373.22	510.24
373.42	547.69
373.62	550.03
373.81	610.88
374.01	627.26
374.21	615.56
374.40	573.43
374.60	533.64
374.79	627.26
374.99	739.61
375.19	610.88
375.38	725.57
375.58	692.80
375.78	669.39
375.97	671.73
376.17	737.27
376.37	638.97
376.56	713.86
376.76	786.42
376.95	709.18
377.15	854.30
377.35	959.62
377.54	784.08
377.74	922.17
377.93	901.11
378.13	964.30
378.33	828.55
378.52	767.70
378.72	765.36
378.91	884.72
379.11	638.97
379.31	763.01
379.50	734.93
379.70	760.67
379.89	840.25
380.09	828.55
380.28	882.38
380.48	856.64
380.68	781.74
380.87	814.51
381.07	833.23
381.26	800.46
381.46	704.50
381.65	692.80
381.85	676.41
382.04	643.65
382.24	641.31
382.43	575.77
382.63	657.69
382.83	526.62
383.02	524.28
383.22	662.37
383.41	545.34
383.61	667.05
383.80	702.16
384.00	805.14
384.19	854.30
384.39	830.89
384.58	947.92
384.78	767.70
384.97	884.72
385.17	730.25
385.36	781.74
385.56	837.91
385.75	748.97
385.95	833.23
386.14	950.26
386.34	917.49
386.53	896.43
386.72	730.25
386.92	894.08
387.11	840.25
387.31	908.13
387.50	873.02
387.70	833.23
387.89	819.19
388.09	959.62
388.28	788.76
388.48	833.23
388.67	908.13
388.86	1004.09
389.06	1081.33
389.25	1123.46
389.45	1081.33
389.64	1057.92
389.84	1076.65
390.03	1139.84
390.22	1109.41
390.42	1083.67
390.61	1217.08
390.81	1299.00
391.00	1219.42
391.19	1263.89
391.39	1259.21
391.58	1184.31
391.78	1116.44
391.97	1048.56
392.16	957.28
392.36	877.70
392.55	725.57
392.75	720.88
392.94	575.77
393.13	587.47
393.33	613.22
393.52	727.91
393.71	896.43
393.91	957.28
394.10	1100.05
394.29	1074.31
394.49	1224.10
394.68	1261.55
394.88	1263.89
395.07	1406.66
395.26	1291.98
395.46	1352.83
395.65	1240.48
395.84	1181.97
396.04	952.60
396.23	807.48
396.42	711.52
396.62	692.80
396.81	784.08
397.00	929.19
397.19	1128.14
397.39	1273.25
397.58	1427.73
397.77	1547.09
397.97	1507.30
398.16	1577.52
398.35	1710.93
398.55	1605.61
398.74	1664.12
398.93	1764.76
399.12	1764.76
399.32	1739.02
399.51	1778.81
399.70	1860.73
399.90	1872.43
400.09	1856.04
400.28	1858.39
400.47	1853.70
400.67	1804.55
400.86	1933.28
401.05	1916.90
401.24	1980.09
401.44	1980.09
401.63	1930.94
401.82	1952.01
402.01	1909.88
402.21	1963.71
402.40	2045.63
402.59	1947.33
402.78	1926.26
402.97	1792.85
403.17	1806.89
403.36	1942.64
403.55	2090.10
403.74	2054.99
403.93	2033.93
404.13	1970.73
404.32	1806.89
404.51	1919.24
404.70	1921.58
404.89	2026.90
405.09	1928.60
405.28	1954.35
405.47	1933.28
405.66	1998.82
405.85	1865.41
406.05	1849.02
406.24	1774.13
406.43	1949.67
406.62	2050.31
406.81	1935.62
407.00	1937.96
407.20	1891.15
407.39	1975.41
407.58	2071.37
407.77	2169.68
407.96	2228.19
408.15	2179.04
408.34	2136.91
408.54	2270.32
408.73	2263.30
408.92	2172.02
409.11	2221.17
409.30	2172.02
409.49	1926.26
409.68	1820.94
409.87	1762.42
410.07	1914.56
410.26	2097.12
410.45	2090.10
410.64	2115.84
410.83	2207.13
411.02	2331.17
411.21	2387.35
411.40	2253.94
411.59	2270.32
411.78	2333.51
411.98	2272.66
412.17	2420.11
412.36	2293.72
412.55	2293.72
412.74	2349.90
412.93	2270.32
413.12	2282.02
413.31	2490.33
413.50	2518.42
413.69	2448.20
413.88	2373.30
414.07	2403.73
414.26	2420.11
414.45	2480.97
414.64	2478.63
414.83	2408.41
415.02	2349.90
415.22	2389.69
415.41	2541.82
415.60	2483.31
415.79	2726.72
415.98	2630.76
416.17	2829.71
416.36	2595.65
416.55	2731.41
416.74	2651.83
416.93	2490.33
417.12	2464.58
417.31	2452.88
417.50	2490.33
417.69	2511.39
417.88	2534.80
418.07	2567.57
418.26	2476.29
418.45	2569.91
418.64	2663.53
418.83	2764.17
419.02	2747.79
419.21	2658.85
419.39	2548.84
419.58	2410.75
419.77	2448.20
419.96	2527.78
420.15	2703.32
420.34	2759.49
420.53	2792.26
420.72	2860.13
420.91	2750.13
421.10	2764.17
421.29	2808.64
421.48	2677.57
421.67	2792.26
421.86	2663.53
422.05	2623.74
422.24	2389.69
422.43	2340.54
422.61	2509.05
422.80	2745.45
422.99	2717.36
423.18	2588.63
423.37	2537.14
423.56	2621.40
423.75	2569.91
423.94	2658.85
424.13	2647.15
424.32	2583.95
424.50	2588.63
424.69	2619.06
424.88	2597.99
425.07	2551.18
425.26	2509.05
425.45	2600.34
425.64	2462.24
425.83	2581.61
426.01	2626.08
426.20	2691.62
426.39	2593.31
426.58	2471.61
426.77	2342.88
426.96	2202.44
427.15	2300.75
427.33	2438.84
427.52	2485.65
427.71	2466.92
427.90	2504.37
428.09	2525.44
428.28	2499.69
428.46	2399.05
428.65	2471.61
428.84	2387.35
429.03	2495.01
429.22	2359.26
429.40	2303.09
429.59	1991.80
429.78	1809.23
429.97	1867.75
430.16	1877.11
430.34	1902.86
430.53	1832.64
430.72	1872.43
430.91	1926.26
431.10	2345.22
431.28	2668.21
431.47	2953.76
431.66	3103.55
431.85	2759.49
432.03	2541.82
432.22	2499.69
432.41	2445.86
432.60	2855.45
432.79	2904.60
432.97	2906.95
433.16	2923.33
433.35	2569.91
433.54	2541.82
433.72	2284.36
433.91	2377.98
434.10	2642.46
434.28	2846.09
434.47	2935.03
434.66	3014.61
434.85	2853.11
435.03	2799.28
435.22	2979.50
435.41	3159.72
435.59	3141.00
435.78	3218.24
435.97	3201.85
436.16	3009.93
436.34	3073.12
436.53	3073.12
436.72	3026.31
436.90	2869.50
437.09	2874.18
437.28	2839.07
437.46	2839.07
437.65	2918.65
437.84	2850.77
438.02	2597.99
438.21	2630.76
438.40	2616.72
438.58	2822.69
438.77	2815.66
438.96	2899.92
439.14	3016.95
439.33	3204.19
439.52	3286.11
439.70	3038.02
439.89	3066.10
440.08	2963.12
440.26	2935.03
440.45	3141.00
440.63	3126.96
440.82	3260.37
441.01	3332.92
441.19	3281.43
441.38	3286.11
441.57	3405.48
441.75	3634.85
441.94	3574.00
442.12	3510.80
442.31	3508.46
442.50	3499.10
442.68	3431.23
442.87	3433.57
443.05	3473.36
443.24	3478.04
443.43	3405.48
443.61	3522.51
443.80	3552.93
443.98	3517.83
444.17	3435.91
444.35	3590.38
444.54	3698.05
444.73	3585.70
444.91	3452.29
445.10	3496.76
445.28	3236.96
445.47	3131.64
445.65	3265.05
445.84	3164.40
446.02	3445.27
446.21	3417.18
446.39	3494.42
446.58	3557.61
446.77	3599.74
446.95	3555.27
447.14	3698.05
447.32	3782.31
447.51	3679.32
447.69	3569.32
447.88	3609.11
448.06	3597.40
448.25	3609.11
448.43	3604.42
448.62	3574.00
448.80	3585.70
448.99	3583.36
449.17	3499.10
449.36	3541.23
449.54	3880.61
449.73	3782.31
449.91	3915.72
450.10	3857.20
450.28	4025.72
450.46	3826.78
450.65	4070.19
450.83	3955.51
451.02	3990.61
451.20	3777.62
451.39	3726.13
451.57	3721.45
451.76	3749.54
451.94	3772.94
452.13	3782.31
452.31	3538.89
452.49	3433.57
452.68	3351.65
452.86	3431.23
453.05	3637.19
453.23	3583.36
453.42	3796.35
453.60	3730.81
453.78	3698.05
453.97	3742.52
454.15	3735.50
454.34	3698.05
454.52	3679.32
454.70	3529.53
454.89	3576.34
455.07	3684.00
455.26	3658.26
455.44	3590.38
455.62	3896.99
455.81	3838.48
455.99	3838.48
456.17	3796.35
456.36	3960.19
456.54	3974.23
456.73	4081.89
456.91	4102.96
457.09	3978.91
457.28	4065.51
457.46	3967.21
457.64	3936.78
457.83	3796.35
458.01	3859.54
458.19	3808.05
458.38	3768.26
458.56	3997.64
458.74	4039.76
458.93	3911.04
459.11	3955.51
459.29	3801.03
459.48	3871.25
459.66	3939.12
459.84	3983.59
460.03	4145.09
460.21	3899.33
460.39	4107.64
460.57	4117.00
460.76	3960.19
460.94	4145.09
461.12	3950.82
461.31	4081.89
461.49	4102.96
461.67	3981.25
461.85	4093.60
462.04	4098.28
462.22	4652.98
462.40	4135.73
462.59	4088.92
462.77	4168.49
462.95	4093.60
463.13	4007.00
463.32	3957.85
463.50	4063.17
463.68	3974.23
463.86	3997.64
464.05	4002.32
464.23	3819.75
464.41	3936.78
464.59	3789.33
464.78	4079.55
464.96	4046.79
465.14	3967.21
465.32	3887.63
465.50	4175.52
465.69	4173.18
465.87	4091.26
466.05	4002.32
466.23	3812.73
466.41	3719.11
466.60	3749.54
466.78	3803.37
466.96	3845.50
467.14	3899.33
467.32	3983.59
467.51	4060.83
467.69	3868.91
467.87	3955.51
468.05	3988.27
468.23	3875.93
468.41	4119.34
468.60	4028.06
468.78	3964.87
468.96	3936.78
469.14	4100.62
469.32	4156.79
469.50	3791.67
469.69	3929.76
469.87	3878.27
470.05	3871.25
470.23	3871.25
470.41	3918.06
470.59	3889.97
470.77	3861.88
470.95	4028.06
471.14	3995.29
471.32	4053.81
471.50	4339.35
471.68	4250.41
471.86	4278.50
472.04	4390.84
472.22	4421.27
472.40	4219.99
472.58	4051.47
472.77	4060.83
472.95	4088.92
473.13	4273.82
473.31	4140.41
473.49	4201.26
473.67	4198.92
473.85	4447.02
474.03	4355.74
474.21	4369.78
474.39	4430.63
474.57	4374.46
474.75	4390.84
474.93	4519.57
475.12	4341.69
475.30	4201.26
475.48	4285.52
475.66	4496.17
475.84	4332.33
476.02	4372.12
476.20	4194.24
476.38	4365.10
476.56	4566.39
476.74	4470.42
476.92	4449.36
477.10	4716.18
477.28	4580.43
477.46	4496.17
477.64	4685.75
477.82	4730.22
478.00	4753.63
478.18	4589.79
478.36	4784.06
478.54	4737.24
478.72	4798.10
478.90	4840.23
479.08	4959.60
479.26	5060.24
479.44	5006.41
479.62	4940.87
479.80	4964.28
479.98	4887.04
480.16	4903.42
480.34	5046.20
480.52	5067.26
480.70	5109.39
480.88	4919.81
481.06	5214.71
481.24	5184.29
481.41	5418.34
481.59	5294.29
481.77	5366.85
481.95	5313.02
482.13	5331.74
482.31	5329.40
482.49	5434.72
482.67	5301.31
482.85	5469.83
483.03	5439.40
483.21	5643.03
483.39	5528.35
483.57	5483.88
483.74	5444.09
483.92	5420.68
484.10	5509.62
484.28	5556.43
484.46	5715.59
484.64	5708.57
484.82	5636.01
485.00	5413.66
485.18	5373.87
485.35	5334.08
485.53	4884.70
485.71	4521.92
485.89	4341.69
486.07	4475.10
486.25	4943.21
486.43	5315.36
486.61	5313.02
486.78	5327.06
486.96	5444.09
487.14	5645.37
487.32	5816.23
487.50	5692.18
487.68	6087.73
487.85	6118.16
488.03	6157.95
488.21	6019.86
488.39	6054.97
488.57	5783.46
488.75	5846.66
488.92	6129.86
489.10	6228.17
489.28	6651.80
489.46	6583.93
489.64	6726.70
489.81	6569.88
489.99	6588.61
490.17	6478.60
490.35	6698.61
490.53	6700.95
490.70	6422.43
490.88	6525.41
491.06	6485.62
491.24	6738.40
491.41	6747.76
491.59	6319.45
491.77	5973.05
491.95	6153.27
492.13	6354.55
492.30	6614.35
492.48	6932.67
492.66	6909.26
492.84	6825.00
493.01	6984.16
493.19	6827.34
493.37	6906.92
493.54	6682.23
493.72	6813.30
493.90	7164.38
494.08	7262.68
494.25	7309.49
494.43	7311.83
494.61	7473.33
494.79	7456.95
494.96	7342.26
495.14	7403.11
495.32	7105.87
495.49	6949.05
495.67	6991.18
495.85	7272.04
496.02	7552.91
496.20	7784.62
496.38	7573.97
496.55	7375.03
496.73	7611.42
496.91	7590.36
497.09	7749.51
497.26	7824.41
497.44	7564.61
497.62	7428.86
497.79	7279.07
497.97	7040.33
498.14	7045.01
498.32	7229.91
498.50	7531.84
498.67	7772.92
498.85	7581.00
499.03	7555.25
499.20	7857.18
499.38	7520.14
499.56	7693.34
499.73	7597.38
499.91	7508.44
500.08	7478.01
500.26	7101.19
500.44	7077.78
500.61	7375.03
500.79	7592.70
500.97	7225.23
501.14	7117.57
501.32	7056.72
501.49	7145.66
501.67	7283.75
501.84	7370.35
502.02	7468.65
502.20	7597.38
502.37	7463.97
502.55	7714.41
502.72	7639.51
502.90	7922.71
503.07	7520.14
503.25	7496.74
503.43	7199.49
503.60	7059.06
503.78	6806.28
503.95	6984.16
504.13	7382.05
504.30	7595.04
504.48	7714.41
504.65	7700.36
504.83	7669.94
505.01	7772.92
505.18	7822.07
505.36	8140.38
505.53	7918.03
505.71	8145.06
505.88	8119.32
506.06	8074.85
506.23	7878.24
506.41	7852.50
506.58	7709.72
506.76	7850.16
506.93	7784.62
507.11	7618.44
507.28	7515.46
507.46	7520.14
507.63	7358.64
507.81	7318.86
507.98	7503.76
508.16	7559.93
508.33	7763.56
508.50	7896.97
508.68	8131.02
508.85	8116.98
509.03	8205.92
509.20	8039.74
509.38	7810.37
509.55	7873.56
509.73	7616.10
509.90	7967.18
510.08	8140.38
510.25	8028.04
510.42	8053.78
510.60	7761.22
510.77	7920.37
510.95	8166.13
511.12	8109.96
511.30	8250.39
511.47	8592.11
511.64	8507.85
511.82	8470.40
511.99	8138.04
512.17	7908.67
512.34	7817.39
512.51	7812.71
512.69	7915.69
512.86	7974.21
513.04	8304.22
513.21	8109.96
513.38	7936.76
513.56	7850.16
513.73	7756.54
513.90	7662.91
514.08	7819.73
514.25	7854.84
514.43	7901.65
514.60	7964.84
514.77	7833.77
514.95	8023.36
515.12	7880.58
515.29	8077.19
515.47	8138.04
515.64	8212.94
515.81	8299.54
515.99	7969.52
516.16	7836.11
516.33	7110.55
516.51	6869.47
516.68	6703.29
516.85	6469.24
517.03	6562.86
517.20	6974.80
517.37	7487.37
517.54	8063.15
517.72	8032.72
517.89	7353.96
518.06	6696.27
518.24	6850.75
518.41	7281.41
518.58	7681.64
518.75	7506.10
518.93	7840.79
519.10	7592.70
519.27	7749.51
519.45	7957.82
519.62	8006.97
519.79	8182.51
519.96	8161.45
520.14	8102.93
520.31	7728.45
520.48	7829.09
520.65	7719.09
520.83	8116.98
521.00	8374.44
521.17	8280.82
521.34	8021.02
521.52	8149.75
521.69	8334.65
521.86	8510.19
522.03	8388.48
522.20	8177.83
522.38	7709.72
522.55	7705.04
522.72	7960.16
522.89	7812.71
523.07	7920.37
523.24	8229.32
523.41	8327.63
523.58	8238.69
523.75	8376.78
523.92	8435.29
524.10	8428.27
524.27	8360.39
524.44	8418.91
524.61	8313.58
524.78	8135.70
524.96	8159.11
525.13	8299.54
525.30	8222.30
525.47	8547.64
525.64	8533.59
525.81	8301.88
525.98	7953.14
526.16	7548.23
526.33	7391.41
526.50	7023.95
526.67	7199.49
526.84	7274.38
527.01	7503.76
527.18	7880.58
527.36	7882.92
527.53	8072.51
527.70	8493.80
527.87	8241.03
528.04	7941.44
528.21	8294.86
528.38	8252.73
528.55	8622.53
528.72	8730.20
528.89	8704.45
529.07	8695.09
529.24	8372.10
529.41	8114.64
529.58	8100.59
529.75	8021.02
529.92	8182.51
530.09	8346.35
530.26	8465.72
530.43	8793.39
530.60	8496.14
530.77	8744.24
530.94	8664.66
531.11	8575.72
531.28	8512.53
531.46	8444.65
531.63	8374.44
531.80	8475.08
531.97	8159.11
532.14	7992.93
532.31	7740.15
532.48	7644.19
532.65	7679.30
532.82	7709.72
532.99	8098.25
533.16	8318.26
533.33	8418.91
533.50	8329.97
533.67	8257.41
533.84	8215.28
534.01	8299.54
534.18	7990.59
534.35	8294.86
534.52	8184.85
534.69	8341.67
534.86	8299.54
535.03	8299.54
535.20	8365.07
535.37	8655.30
535.54	8664.66
535.71	8587.43
535.88	8596.79
536.05	8388.48
536.22	8301.88
536.38	8030.38
536.55	7838.45
536.72	7894.63
536.89	7878.24
537.06	8021.02
537.23	8252.73
537.40	8421.25
537.57	8245.71
537.74	8348.69
537.91	8524.23
538.08	8128.68
538.25	8236.35
538.42	8250.39
538.59	8287.84
538.75	7868.88
538.92	7889.95
539.09	8065.49
539.26	7885.26
539.43	8025.70
539.60	7845.48
539.77	8004.63
539.94	7988.25
540.11	7597.38
540.28	7679.30
540.44	7634.83
540.61	7714.41
540.78	7786.96
540.95	7810.37
541.12	8023.36
541.29	8056.12
541.46	8383.80
541.62	8290.18
541.79	8196.56
541.96	7983.57
542.13	8156.77
542.30	8116.98
542.47	8105.28
542.63	8088.89
542.80	7885.26
542.97	8140.38
543.14	7880.58
543.31	8067.83
543.48	8121.66
543.64	8409.54
543.81	8367.42
543.98	8482.10
544.15	8351.03
544.32	8198.90
544.48	7936.76
544.65	8065.49
544.82	8287.84
544.99	8334.65
545.16	8271.45
545.32	7999.95
545.49	8449.33
545.66	8877.65
545.83	8688.07
546.00	8636.58
546.16	8245.71
546.33	7922.71
546.50	7992.93
546.67	8205.92
546.83	8124.00
547.00	8002.29
547.17	7969.52
547.34	7623.12
547.50	7798.66
547.67	7805.69
547.84	7920.37
548.00	7934.42
548.17	7962.50
548.34	7957.82
548.51	8131.02
548.67	8269.11
548.84	8091.23
549.01	8095.91
549.18	8067.83
549.34	7978.89
549.51	8210.60
549.68	7999.95
549.84	8119.32
550.01	7903.99
550.18	7857.18
550.34	7850.16
550.51	8013.99
550.68	8006.97
550.84	7964.84
551.01	7777.60
551.18	7894.63
551.34	7815.05
551.51	7838.45
551.68	7988.25
551.84	8142.72
552.01	7978.89
552.18	8035.06
552.34	7749.51
552.51	7763.56
552.68	7531.84
552.84	7871.22
553.01	7744.83
553.18	7852.50
553.34	7700.36
553.51	7810.37
553.67	7894.63
553.84	7997.61
554.01	7943.78
554.17	8070.17
554.34	7747.17
554.51	7784.62
554.67	7978.89
554.84	7960.16
555.00	7950.80
555.17	7974.21
555.33	7744.83
555.50	7831.43
555.67	7803.35
555.83	7576.31
556.00	7566.95
556.16	7808.03
556.33	7534.18
556.50	7260.34
556.66	7363.33
556.83	7440.56
556.99	7379.71
557.16	7506.10
557.32	7508.44
557.49	7588.02
557.65	7548.23
557.82	7407.80
557.98	7686.32
558.15	7606.74
558.32	7190.13
558.48	7016.93
558.65	7087.14
558.81	7222.89
558.98	7297.79
559.14	7358.64
559.31	7218.21
559.47	7339.92
559.64	7248.64
559.80	7162.04
559.97	7117.57
560.13	7272.04
560.30	7576.31
560.46	7777.60
560.63	7501.42
560.79	7669.94
560.96	7588.02
561.12	7389.07
561.29	7201.83
561.45	7351.62
561.61	7262.68
561.78	7295.45
561.94	7368.01
562.11	7328.22
562.27	7194.81
562.44	7358.64
562.60	7405.46
562.77	7433.54
562.93	7564.61
563.10	7520.14
563.26	7321.20
563.42	7400.77
563.59	7218.21
563.75	7335.24
563.92	7349.28
564.08	7185.44
564.24	7316.51
564.41	7103.53
564.57	7248.64
564.74	7248.64
564.90	7335.24
565.07	7150.34
565.23	7199.49
565.39	6979.48
565.56	7049.69
565.72	6855.43
565.88	6970.12
566.05	7002.88
566.21	6974.80
566.38	7049.69
566.54	7014.59
566.70	7035.65
566.87	7258.00
567.03	7311.83
567.19	7293.11
567.36	7300.13
567.52	7061.40
567.68	7007.56
567.85	6836.70
568.01	6832.02
568.17	6682.23
568.34	6296.04
568.50	6623.72
568.66	6490.31
568.83	6696.27
568.99	6644.78
569.15	6715.00
569.32	6855.43
569.48	6729.04
569.64	6731.38
569.81	6492.65
569.97	6642.44
570.13	6801.60
570.30	6764.15
570.46	6548.82
570.62	6363.92
570.78	6429.45
570.95	6441.15
571.11	6462.22
571.27	6670.53
571.43	6682.23
571.60	6527.75
571.76	6661.16
571.92	6623.72
572.09	6722.02
572.25	6715.00
572.41	6668.19
572.57	6644.78
572.74	6658.82
572.90	6679.89
573.06	6633.08
573.22	6516.05
573.38	6647.12
573.55	6583.93
573.71	6637.76
573.87	6534.78
574.03	6558.18
574.20	6429.45
574.36	6525.41
574.52	6516.05
574.68	6473.92
574.84	6415.41
575.01	6356.90
575.17	6326.47
575.33	6420.09
575.49	6354.55
575.65	6574.56
575.82	6408.39
575.98	6445.84
576.14	6518.39
576.30	6511.37
576.46	6544.14
576.62	6569.88
576.79	6757.13
576.95	6626.06
577.11	6406.05
577.27	6466.90
577.43	6502.01
577.59	6487.96
577.75	6298.38
577.92	6230.51
578.08	6127.52
578.24	6282.00
578.40	6209.44
578.56	6424.77
578.72	6459.88
578.88	6237.53
579.04	6462.22
579.21	6366.26
579.37	6406.05
579.53	6361.58
579.69	6579.25
579.85	6497.33
580.01	6619.04
580.17	6441.15
580.33	6377.96
580.49	6560.52
580.65	6558.18
580.82	6534.78
580.98	6452.86
581.14	6443.49
581.30	6438.81
581.46	6473.92
581.62	6628.40
581.78	6569.88
581.94	6560.52
582.10	6452.86
582.26	6438.81
582.42	6637.76
582.58	6595.63
582.74	6623.72
582.90	6750.10
583.06	6548.82
583.22	6441.15
583.38	6490.31
583.54	6504.35
583.70	6373.28
583.86	6361.58
584.02	6427.11
584.18	6504.35
584.34	6263.27
584.50	6403.71
584.66	6450.52
584.82	6356.90
584.98	6352.21
585.14	6293.70
585.30	6265.61
585.46	6148.59
585.62	6127.52
585.78	6141.57
585.94	6239.87
586.10	6204.76
586.26	6225.82
586.42	6033.90
586.58	6141.57
586.74	6101.78
586.90	6218.80
587.06	6153.27
587.22	5994.11
587.38	6052.63
587.54	6029.22
587.70	5760.06
587.86	5584.52
588.02	5500.26
588.18	5296.63
588.34	5305.99
588.49	5034.49
588.65	4643.62
588.81	4542.98
588.97	4627.24
589.13	4599.15
589.29	4547.66
589.45	4477.44
589.61	4695.11
589.77	4802.78
589.93	5050.88
590.08	5184.29
590.24	5411.32
590.40	5392.59
590.56	5423.02
590.72	5212.37
590.88	5224.08
591.04	5329.40
591.20	5284.93
591.35	5104.71
591.51	5076.62
591.67	5088.32
591.83	5074.28
591.99	5039.17
592.15	5095.35
592.31	5385.57
592.46	5331.74
592.62	5385.57
592.78	5397.28
592.94	5535.37
593.10	5406.64
593.26	5589.20
593.41	5736.65
593.57	5483.88
593.73	5338.76
593.89	5062.58
594.05	4961.94
594.20	4891.72
594.36	4755.97
594.52	4865.97
594.68	4802.78
594.84	5001.72
594.99	5247.48
595.15	5380.89
595.31	5432.38
595.47	5331.74
595.62	5313.02
595.78	5329.40
595.94	5462.81
596.10	5472.17
596.25	5376.21
596.41	5280.25
596.57	5172.58
596.73	5406.64
596.88	5397.28
597.04	5439.40
597.20	5462.81
597.36	5160.88
597.51	5118.75
