SpectraSuite Data File
++++++++++++++++++++++++++++++++++++
Date: Fri Oct 04 11:40:02 GMT-05:00 2013
User: price-jones
Dark Spectrum Present: No
Reference Spectrum Present: No
Number of Sampled Component Spectra: 1
Spectrometers: USB2+H05261
Integration Time (usec): 100000 (USB2+H05261)
Spectra Averaged: 1 (USB2+H05261)
Boxcar Smoothing: 0 (USB2+H05261)
Correct for Electrical Dark: No (USB2+H05261)
Strobe/Lamp Enabled: No (USB2+H05261)
Correct for Detector Non-linearity: No (USB2+H05261)
Correct for Stray Light: No (USB2+H05261)
Number of Pixels in Processed Spectrum: 2048
>>>>>Begin Processed Spectral Data<<<<<
365.73	37.45
365.92	37.45
366.12	37.45
366.32	0.00
366.52	0.00
366.72	0.00
366.91	0.00
367.11	0.00
367.31	7.02
367.51	0.00
367.70	0.00
367.90	0.00
368.10	7.02
368.30	0.00
368.49	0.00
368.69	0.00
368.89	0.00
369.09	0.00
369.28	0.00
369.48	0.00
369.68	37.45
369.87	70.22
370.07	0.00
370.27	35.11
370.47	70.22
370.66	79.58
370.86	112.35
371.06	86.60
371.25	70.22
371.45	152.13
371.65	149.79
371.84	131.07
372.04	102.98
372.24	98.30
372.44	124.05
372.63	182.56
372.83	224.69
373.03	175.54
373.22	147.45
373.42	145.11
373.62	189.58
373.81	238.73
374.01	203.63
374.21	152.13
374.40	142.77
374.60	194.26
374.79	77.24
374.99	187.24
375.19	168.52
375.38	205.97
375.58	191.92
375.78	173.20
375.97	210.65
376.17	287.89
376.37	264.48
376.56	255.12
376.76	182.56
376.95	156.82
377.15	128.73
377.35	173.20
377.54	170.86
377.74	170.86
377.93	149.79
378.13	212.99
378.33	245.76
378.52	131.07
378.72	189.58
378.91	217.67
379.11	105.32
379.31	117.03
379.50	173.20
379.70	121.71
379.89	140.43
380.09	135.75
380.28	154.48
380.48	173.20
380.68	156.82
380.87	145.11
381.07	208.31
381.26	187.24
381.46	138.09
381.65	271.50
381.85	182.56
382.04	191.92
382.24	177.88
382.43	177.88
382.63	220.01
382.83	205.97
383.02	189.58
383.22	231.71
383.41	142.77
383.61	159.16
383.80	173.20
384.00	175.54
384.19	119.37
384.39	191.92
384.58	238.73
384.78	224.69
384.97	187.24
385.17	222.35
385.36	231.71
385.56	212.99
385.75	98.30
385.95	159.16
386.14	154.48
386.34	149.79
386.53	196.60
386.72	189.58
386.92	262.14
387.11	234.05
387.31	264.48
387.50	264.48
387.70	212.99
387.89	210.65
388.09	201.29
388.28	154.48
388.48	173.20
388.67	224.69
388.86	159.16
389.06	191.92
389.25	180.22
389.45	194.26
389.64	229.37
389.84	227.03
390.03	227.03
390.22	234.05
390.42	196.60
390.61	166.18
390.81	212.99
391.00	283.20
391.19	227.03
391.39	290.23
391.58	236.39
391.78	266.82
391.97	259.80
392.16	184.90
392.36	283.20
392.55	241.08
392.75	250.44
392.94	224.69
393.13	273.84
393.33	205.97
393.52	255.12
393.71	243.42
393.91	294.91
394.10	252.78
394.29	245.76
394.49	212.99
394.68	222.35
394.88	266.82
395.07	290.23
395.26	287.89
395.46	294.91
395.65	271.50
395.84	250.44
396.04	358.10
396.23	292.57
396.42	241.08
396.62	271.50
396.81	337.04
397.00	313.63
397.19	344.06
397.39	292.57
397.58	320.65
397.77	325.33
397.97	327.68
398.16	245.76
398.35	388.53
398.55	381.51
398.74	369.80
398.93	421.30
399.12	409.59
399.32	411.93
399.51	440.02
399.70	358.10
399.90	379.17
400.09	425.98
400.28	397.89
400.47	416.62
400.67	416.62
400.86	454.06
401.05	376.83
401.24	355.76
401.44	475.13
401.63	454.06
401.82	482.15
402.01	383.85
402.21	435.34
402.40	444.70
402.59	468.11
402.78	468.11
402.97	425.98
403.17	519.60
403.36	535.98
403.55	475.13
403.74	545.34
403.93	477.47
404.13	592.16
404.32	589.82
404.51	566.41
404.70	608.54
404.89	547.69
405.09	636.63
405.28	638.97
405.47	561.73
405.66	624.92
405.85	655.35
406.05	561.73
406.24	594.50
406.43	657.69
406.62	653.01
406.81	699.82
407.00	613.22
407.20	629.60
407.39	643.65
407.58	702.16
407.77	709.18
407.96	730.25
408.15	823.87
408.34	657.69
408.54	589.82
408.73	702.16
408.92	741.95
409.11	664.71
409.30	779.40
409.49	760.67
409.68	725.57
409.87	767.70
410.07	812.17
410.26	774.72
410.45	746.63
410.64	760.67
410.83	816.85
411.02	795.78
411.21	887.06
411.40	870.68
411.59	812.17
411.78	870.68
411.98	919.83
412.17	947.92
412.36	940.90
412.55	985.37
412.74	929.19
412.93	968.98
413.12	856.64
413.31	1048.56
413.50	915.15
413.69	1041.54
413.88	976.00
414.07	1088.35
414.26	1081.33
414.45	1069.62
414.64	1097.71
414.83	1114.10
415.02	1128.14
415.22	1149.20
415.41	1196.01
415.60	1100.05
415.79	1144.52
415.98	1165.59
416.17	1273.25
416.36	1284.95
416.55	1167.93
416.74	1287.29
416.93	1163.25
417.12	1228.78
417.31	1217.08
417.50	1188.99
417.69	1219.42
417.88	1322.40
418.07	1369.21
418.26	1287.29
418.45	1357.51
418.64	1514.33
418.83	1420.71
419.02	1376.24
419.21	1362.19
419.39	1469.86
419.58	1315.38
419.77	1350.49
419.96	1369.21
420.15	1486.24
420.34	1406.66
420.53	1472.20
420.72	1544.75
420.91	1486.24
421.10	1488.58
421.29	1526.03
421.48	1551.78
421.67	1537.73
421.86	1509.65
422.05	1500.28
422.24	1465.18
422.43	1572.84
422.61	1479.22
422.80	1540.07
422.99	1666.46
423.18	1493.26
423.37	1598.59
423.56	1598.59
423.75	1568.16
423.94	1563.48
424.13	1495.60
424.32	1514.33
424.50	1577.52
424.69	1636.03
424.88	1643.06
425.07	1596.25
425.26	1544.75
425.45	1528.37
425.64	1575.18
425.83	1549.43
426.01	1701.57
426.20	1629.01
426.39	1584.54
426.58	1710.93
426.77	1593.90
426.96	1640.72
427.15	1708.59
427.33	1748.38
427.52	1689.87
427.71	1813.92
427.90	1701.57
428.09	1678.16
428.28	1673.48
428.46	1755.40
428.65	1732.00
428.84	1788.17
429.03	1813.92
429.22	1832.64
429.40	1743.70
429.59	1750.72
429.78	1734.34
429.97	1771.79
430.16	1783.49
430.34	1715.61
430.53	1846.68
430.72	1842.00
430.91	1952.01
431.10	1799.87
431.28	1867.75
431.47	1874.77
431.66	1937.96
431.85	1837.32
432.03	1933.28
432.22	1961.37
432.41	1949.67
432.60	1900.52
432.79	1949.67
432.97	1867.75
433.16	1923.92
433.35	1973.07
433.54	1954.35
433.72	1994.14
433.91	2001.16
434.10	2017.54
434.28	1968.39
434.47	2073.71
434.66	2022.22
434.85	2029.24
435.03	2139.25
435.22	2429.48
435.41	2616.72
435.59	2572.25
435.78	2377.98
435.97	2139.25
436.16	2214.15
436.34	1966.05
436.53	2069.03
436.72	2120.53
436.90	2193.08
437.09	2249.25
437.28	2101.80
437.46	2157.97
437.65	2122.87
437.84	2293.72
438.02	2265.64
438.21	2062.01
438.40	2190.74
438.58	2277.34
438.77	2321.81
438.96	2267.98
439.14	2335.85
439.33	2373.30
439.52	2373.30
439.70	2427.14
439.89	2392.03
440.08	2359.26
440.26	2422.45
440.45	2422.45
440.63	2492.67
440.82	2380.32
441.01	2476.29
441.19	2431.82
441.38	2509.05
441.57	2417.77
441.75	2534.80
441.94	2619.06
442.12	2558.21
442.31	2651.83
442.50	2509.05
442.68	2497.35
442.87	2546.50
443.05	2635.44
443.24	2731.41
443.43	2761.83
443.61	2703.32
443.80	2792.26
443.98	2785.24
444.17	2497.35
444.35	2675.23
444.54	2679.91
444.73	2700.98
444.91	2668.21
445.10	2724.38
445.28	2677.57
445.47	2663.53
445.65	2700.98
445.84	2745.45
446.02	2752.47
446.21	2654.17
446.39	2658.85
446.58	2684.59
446.77	2789.92
446.95	2644.81
447.14	2750.13
447.32	2785.24
447.51	2750.13
447.69	2818.00
447.88	2787.58
448.06	2799.28
448.25	2785.24
448.43	2789.92
448.62	2909.29
448.80	2848.43
448.99	2967.80
449.17	2825.03
449.36	2867.16
449.54	2883.54
449.73	2722.04
449.91	2902.26
450.10	2832.05
450.28	2986.52
450.46	3002.91
450.65	2928.01
450.83	2970.14
451.02	3021.63
451.20	2862.48
451.39	3115.25
451.57	3030.99
451.76	2909.29
451.94	3066.10
452.13	3063.76
452.31	2991.20
452.49	2986.52
452.68	3007.59
452.86	3000.57
453.05	3105.89
453.23	3124.62
453.42	3012.27
453.60	2967.80
453.78	3176.11
453.97	3005.25
454.15	3089.51
454.34	3077.80
454.52	3131.64
454.70	3117.59
454.89	3187.81
455.07	3124.62
455.26	3288.45
455.44	3272.07
455.62	3171.43
455.81	3234.62
455.99	3248.66
456.17	3241.64
456.36	3269.73
456.54	3318.88
456.73	3389.10
456.91	3274.41
457.09	3243.98
457.28	3510.80
457.46	3358.67
457.64	3386.76
457.83	3480.38
458.01	3325.90
458.19	3459.31
458.38	3349.31
458.56	3358.67
458.74	3386.76
458.93	3627.83
459.11	3482.72
459.29	3426.54
459.48	3349.31
459.66	3475.70
459.84	3515.48
460.03	3634.85
460.21	3398.46
460.39	3571.66
460.57	3606.77
460.76	3534.21
460.94	3562.30
461.12	3536.55
461.31	3688.68
461.49	3613.79
461.67	3405.48
461.85	3702.73
462.04	3730.81
462.22	4250.41
462.40	3726.13
462.59	3648.90
462.77	3735.50
462.95	3695.71
463.13	3770.60
463.32	3630.17
463.50	3838.48
463.68	3723.79
463.86	3805.71
464.05	3775.28
464.23	3716.77
464.41	3887.63
464.59	3702.73
464.78	3819.75
464.96	3740.18
465.14	3681.66
465.32	3777.62
465.50	3932.10
465.69	3936.78
465.87	3850.18
466.05	4035.08
466.23	3824.44
466.41	3765.92
466.60	3995.29
466.78	3983.59
466.96	3901.67
467.14	3948.48
467.32	3978.91
467.51	3976.57
467.69	3829.12
467.87	4067.85
468.05	4014.02
468.23	3880.61
468.41	4004.66
468.60	4042.11
468.78	3962.53
468.96	4086.58
469.14	4063.17
469.32	4098.28
469.50	3997.64
469.69	4198.92
469.87	4250.41
470.05	4058.49
470.23	4198.92
470.41	4182.54
470.59	4198.92
470.77	4229.35
470.95	4269.14
471.14	4269.14
471.32	4210.62
471.50	4496.17
471.68	4297.22
471.86	4442.34
472.04	4290.20
472.22	4421.27
472.40	4334.67
472.58	4440.00
472.77	4437.66
472.95	4620.22
473.13	4608.51
473.31	4732.56
473.49	4484.47
473.67	4517.23
473.85	4622.56
474.03	4652.98
474.21	4573.41
474.39	4718.52
474.57	4781.71
474.75	4737.24
474.93	4830.87
475.12	4737.24
475.30	4784.06
475.48	4795.76
475.66	4744.27
475.84	4751.29
476.02	4657.67
476.20	4887.04
476.38	4889.38
476.56	5198.33
476.74	4978.32
476.92	5032.15
477.10	5076.62
477.28	5057.90
477.46	5032.15
477.64	5282.59
477.82	5348.12
478.00	5380.89
478.18	5338.76
478.36	5444.09
478.54	5430.04
478.72	5364.51
478.90	5514.30
479.08	5408.98
479.26	5444.09
479.44	5530.69
479.62	5551.75
479.80	5598.56
479.98	5640.69
480.16	5870.06
480.34	5799.85
480.52	5727.29
480.70	5865.38
480.88	5891.13
481.06	5987.09
481.24	5949.64
481.41	5893.47
481.59	5968.37
481.77	6071.35
481.95	6162.63
482.13	6146.25
482.31	5977.73
482.49	6256.25
482.67	6464.56
482.85	6450.52
483.03	6380.30
483.21	6546.48
483.39	6604.99
483.57	6427.11
483.74	6593.29
483.92	6846.07
484.10	6527.75
484.28	6927.99
484.46	6927.99
484.64	6799.26
484.82	6815.64
485.00	7014.59
485.18	7037.99
485.35	7253.32
485.53	7232.26
485.71	7325.88
485.89	7323.54
486.07	7208.85
486.25	7410.14
486.43	7419.50
486.61	7428.86
486.78	7590.36
486.96	7665.25
487.14	7705.04
487.32	7679.30
487.50	7772.92
487.68	7861.86
487.85	7805.69
488.03	7943.78
488.21	8147.40
488.39	7875.90
488.57	8081.87
488.75	8046.76
488.92	8496.14
489.10	8271.45
489.28	8517.21
489.46	8491.46
489.64	8503.17
489.81	8601.47
489.99	8512.53
490.17	8699.77
490.35	8849.57
490.53	8702.11
490.70	8877.65
490.88	8617.85
491.06	8891.70
491.24	8931.48
491.41	9078.94
491.59	9247.46
491.77	9118.73
491.95	9055.53
492.13	9202.99
492.30	9191.28
492.48	9226.39
492.66	9153.84
492.84	9434.70
493.01	9380.87
493.19	9458.10
493.37	9490.87
493.54	9654.71
493.72	9806.84
493.90	9701.52
494.08	9844.29
494.25	9853.66
494.43	9853.66
494.61	10061.96
494.79	9926.21
494.96	10017.49
495.14	10097.07
495.32	10036.22
495.49	10230.48
495.67	10162.61
495.85	10436.45
496.02	10530.07
496.20	10258.57
496.38	10551.14
496.55	10630.71
496.73	10736.04
496.91	10626.03
497.09	10654.12
497.26	10609.65
497.44	10712.63
497.62	10787.53
497.79	10878.81
497.97	10909.24
498.14	10984.13
498.32	10956.05
498.50	11000.52
498.67	11288.40
498.85	11070.73
499.03	11126.91
499.20	11321.17
499.38	11421.81
499.56	11571.61
499.73	11573.95
499.91	11489.69
500.08	11658.21
500.26	11396.07
500.44	11414.79
500.61	11602.04
500.79	11714.38
500.97	11639.48
501.14	11772.89
501.32	11831.41
501.49	11999.93
501.67	11861.84
501.84	11969.50
502.02	11915.67
502.20	12112.27
502.37	12210.57
502.55	11988.22
502.72	12100.57
502.90	12229.30
503.07	12259.73
503.25	12086.53
503.43	11880.56
503.60	12390.80
503.78	12152.06
503.95	12283.13
504.13	12334.62
504.30	12367.39
504.48	12343.99
504.65	12404.84
504.83	12564.00
505.01	12755.92
505.18	12695.07
505.36	12690.38
505.53	12643.57
505.71	12762.94
505.88	12805.07
506.06	12681.02
506.23	13092.96
506.41	12795.71
506.58	12922.10
506.76	12826.14
506.93	13193.60
507.11	12753.58
507.28	13165.51
507.46	12917.42
507.63	12964.23
507.81	12931.46
507.98	13158.49
508.16	13458.08
508.33	13188.92
508.50	13231.05
508.68	13238.07
508.85	13497.87
509.03	13640.64
509.20	13645.32
509.38	13497.87
509.55	13933.21
509.73	13584.47
509.90	13902.78
510.08	13696.82
510.25	13935.55
510.42	13991.72
510.60	13858.31
510.77	14057.26
510.95	14094.71
511.12	13998.74
511.30	14221.10
511.47	14160.24
511.64	14265.57
511.82	14237.48
511.99	14450.47
512.17	14417.70
512.34	14321.74
512.51	14382.59
512.69	14448.13
512.86	14408.34
513.04	14719.63
513.21	14595.58
513.38	14743.03
513.56	14375.57
513.73	14553.45
513.90	14633.03
514.08	14436.42
514.25	14675.16
514.43	14939.64
514.60	14726.65
514.77	14906.87
514.95	14981.77
515.12	14728.99
515.29	15136.24
515.47	15040.28
515.64	15281.36
515.81	15094.11
515.99	15250.93
516.16	15061.35
516.33	15295.40
516.51	15386.68
516.68	15272.00
516.85	15225.18
517.03	15396.04
517.20	15517.75
517.37	15637.12
517.54	15311.78
517.72	15447.54
517.89	15353.91
518.06	15571.58
518.24	15487.32
518.41	15382.00
518.58	15482.64
518.75	15541.16
518.93	15639.46
519.10	15653.50
519.27	15697.97
519.45	15754.15
519.62	15737.76
519.79	15695.63
519.96	15716.70
520.14	15655.84
520.31	16107.57
520.48	16166.08
520.65	16107.57
520.83	16257.36
521.00	16147.36
521.17	16088.84
521.34	15971.82
521.52	16465.67
521.69	16065.44
521.86	16372.05
522.03	16369.71
522.20	16393.11
522.38	16414.18
522.55	16409.50
522.72	16285.45
522.89	16423.54
523.07	16496.10
523.24	16685.68
523.41	16695.04
523.58	16718.45
523.75	16634.19
523.92	16645.89
524.10	16809.73
524.27	16713.77
524.44	16884.62
524.61	16896.33
524.78	16697.38
524.96	16706.74
525.13	16748.87
525.30	17088.25
525.47	16893.99
525.64	16975.91
525.81	17074.21
525.98	17032.08
526.16	17404.22
526.33	17242.73
526.50	17055.48
526.67	16926.75
526.84	17013.35
527.01	17074.21
527.18	17158.47
527.36	17062.51
527.53	17397.20
527.70	17839.56
527.87	17633.60
528.04	17422.95
528.21	17434.65
528.38	17369.12
528.55	17289.54
528.72	17373.80
528.89	17600.83
529.07	17631.26
529.24	17661.68
529.41	17462.74
529.58	17504.87
529.75	17460.40
529.92	17809.14
530.09	17535.29
530.26	17682.75
530.43	17624.23
530.60	17792.75
530.77	17434.65
530.94	17685.09
531.11	17827.86
531.28	17935.53
531.46	17673.39
531.63	17947.23
531.80	18092.34
531.97	18225.75
532.14	18050.21
532.31	17867.65
532.48	17947.23
532.65	18132.13
532.82	18136.81
532.99	18244.48
533.16	18302.99
533.33	18288.95
533.50	18462.15
533.67	18520.66
533.84	18190.64
534.01	18043.19
534.18	18106.38
534.35	18279.58
534.52	18059.57
534.69	18464.49
534.86	18459.81
535.03	18267.88
535.20	18494.91
535.37	18644.71
535.54	18511.30
535.71	18485.55
535.88	18654.07
536.05	18750.03
536.22	18670.45
536.38	18686.84
536.55	18801.52
536.72	18939.62
536.89	18780.46
537.06	18642.37
537.23	18829.61
537.40	18822.59
537.57	19007.49
537.74	19063.66
537.91	19260.27
538.08	18963.02
538.25	18988.77
538.42	18902.17
538.59	18979.40
538.75	18677.48
538.92	19087.07
539.09	18934.93
539.26	18841.31
539.43	19084.73
539.60	19456.87
539.77	19211.12
539.94	19283.67
540.11	19475.60
540.28	19197.07
540.44	19318.78
540.61	19215.80
540.78	19644.12
540.95	19274.31
541.12	19990.52
541.29	19637.09
541.46	20016.26
541.62	19939.02
541.79	19592.62
541.96	19721.35
542.13	19616.03
542.30	19885.19
542.47	20191.80
542.63	20163.72
542.80	20009.24
542.97	20128.61
543.14	20236.27
543.31	20311.17
543.48	19751.78
543.64	20156.69
543.81	20367.34
543.98	20360.32
544.15	20320.53
544.32	20423.51
544.48	20077.12
544.65	20278.40
544.82	20472.67
544.99	20187.12
545.16	20060.73
545.32	20189.46
545.49	20931.41
545.66	21240.36
545.83	21097.59
546.00	21277.81
546.16	20774.60
546.33	20418.83
546.50	20322.87
546.67	20603.74
546.83	20058.39
547.00	20320.53
547.17	20292.44
547.34	20425.86
547.50	20292.44
547.67	20596.71
547.84	20395.43
548.00	20063.07
548.17	20255.00
548.34	20482.03
548.51	20264.36
548.67	20498.41
548.84	20638.84
549.01	20388.41
549.18	20376.70
549.34	20123.93
549.51	20575.65
549.68	20318.19
549.84	20472.67
550.01	20322.87
550.18	20458.62
550.34	20751.19
550.51	20411.81
550.68	20697.36
550.84	20372.02
551.01	20629.48
551.18	20269.04
551.34	20341.60
551.51	20938.43
551.68	20271.38
551.84	20484.37
552.01	20610.76
552.18	20889.28
552.34	20711.40
552.51	20514.80
552.68	20680.97
552.84	20528.84
553.01	20547.56
553.18	20395.43
553.34	20688.00
553.51	20884.60
553.67	20657.57
553.84	20788.64
554.01	20711.40
554.17	20805.02
554.34	20795.66
554.51	20451.60
554.67	21057.80
554.84	20882.26
555.00	21001.63
555.17	21032.05
555.33	20683.31
555.50	20484.37
555.67	20805.02
555.83	20781.62
556.00	20617.78
556.16	21064.82
556.33	20987.58
556.50	20711.40
556.66	21289.51
556.83	20793.32
556.99	21191.21
557.16	20999.29
557.32	20973.54
557.49	20971.20
557.65	20961.84
557.82	20863.54
557.98	20926.73
558.15	20692.68
558.32	21261.43
558.48	20961.84
558.65	21270.79
558.81	20524.16
558.98	20999.29
559.14	21090.57
559.31	20807.36
559.47	21109.29
559.64	21006.31
559.80	20992.26
559.97	21104.61
560.13	21118.65
560.30	20992.26
560.46	21163.12
560.63	20945.45
560.79	21226.32
560.96	21081.21
561.12	21125.68
561.29	21142.06
561.45	21184.19
561.61	21104.61
561.78	21099.93
561.94	21050.78
562.11	21223.98
562.27	21102.27
562.44	21441.65
562.60	21074.18
562.77	20938.43
562.93	21303.56
563.10	21355.05
563.26	21074.18
563.42	21247.38
563.59	21198.23
563.75	21191.21
563.92	21291.85
564.08	21193.55
564.24	21561.02
564.41	21284.83
564.57	21256.75
564.74	21268.45
564.90	21357.39
565.07	21104.61
565.23	21369.09
565.39	21078.86
565.56	21408.88
565.72	20954.82
565.88	21191.21
566.05	21228.66
566.21	21305.90
566.38	21455.69
566.54	20982.90
566.70	21500.16
566.87	21263.77
567.03	21270.79
567.19	21542.29
567.36	21301.22
567.52	21504.84
567.68	21593.78
567.85	21113.97
568.01	21348.03
568.17	21184.19
568.34	21392.50
568.50	21310.58
568.66	21380.79
568.83	21563.36
568.99	21476.76
569.15	21266.11
569.32	21305.90
569.48	21235.68
569.64	21439.31
569.81	21252.06
569.97	21476.76
570.13	21369.09
570.30	21329.30
570.46	21436.97
570.62	21348.03
570.78	21120.99
570.95	21392.50
571.11	21301.22
571.27	21099.93
571.43	21247.38
571.60	21319.94
571.76	21645.27
571.92	21338.66
572.09	21429.94
572.25	21275.47
572.41	21451.01
572.57	21867.63
572.74	21434.63
572.90	21273.13
573.06	21273.13
573.22	21305.90
573.38	21598.46
573.55	21376.11
573.71	21551.65
573.87	21797.41
574.03	21046.10
574.20	21233.34
574.36	21408.88
574.52	21425.26
574.68	21336.32
574.84	21720.17
575.01	21336.32
575.17	21706.13
575.33	21561.02
575.49	21710.81
575.65	21308.24
575.82	21820.81
575.98	21544.63
576.14	21561.02
576.30	21661.66
576.46	21446.33
576.62	21481.44
576.79	21645.27
576.95	21673.36
577.11	21781.03
577.27	21774.00
577.43	21748.26
577.59	21532.93
577.75	21825.50
577.92	21333.98
578.08	21399.52
578.24	21324.62
578.40	21259.09
578.56	21816.13
578.72	21851.24
578.88	21614.85
579.04	21809.11
579.21	21771.66
579.37	21586.76
579.53	21425.26
579.69	21537.61
579.85	21710.81
580.01	21638.25
580.17	21472.07
580.33	21682.72
580.49	21839.54
580.65	21638.25
580.82	21596.12
580.98	21582.08
581.14	21509.52
581.30	21729.53
581.46	21324.62
581.62	21553.99
581.78	21441.65
581.94	22017.42
582.10	21544.63
582.26	21809.11
582.42	21603.14
582.58	21694.43
582.74	21891.03
582.90	21628.89
583.06	21797.41
583.22	21553.99
583.38	21406.54
583.54	21907.41
583.70	21591.44
583.86	21668.68
584.02	21429.94
584.18	21607.83
584.34	21759.96
584.50	21591.44
584.66	21905.07
584.82	21797.41
584.98	21678.04
585.14	21661.66
585.30	21591.44
585.46	21411.22
585.62	21621.87
585.78	21495.48
585.94	21774.00
586.10	21710.81
586.26	21898.05
586.42	22022.10
586.58	21869.97
586.74	21448.67
586.90	21671.02
587.06	21628.89
587.22	21717.83
587.38	21659.32
587.54	21788.05
587.70	21825.50
587.86	21750.60
588.02	21855.92
588.18	21673.36
588.34	21717.83
588.49	21909.75
588.65	21303.56
588.81	21308.24
588.97	21858.26
589.13	21745.92
589.29	21802.09
589.45	21759.96
589.61	21869.97
589.77	22134.45
589.93	21823.16
590.08	21933.16
590.24	21642.93
590.40	21914.44
590.56	21631.23
590.72	21827.84
590.88	21818.47
591.04	21544.63
591.20	21703.79
591.35	21720.17
591.51	22120.40
591.67	21785.71
591.83	22097.00
591.99	21858.26
592.15	21614.85
592.31	21909.75
592.46	21649.96
592.62	21759.96
