SpectraSuite Data File
++++++++++++++++++++++++++++++++++++
Date: Fri Oct 04 11:39:40 GMT-05:00 2013
User: price-jones
Dark Spectrum Present: No
Reference Spectrum Present: No
Number of Sampled Component Spectra: 1
Spectrometers: USB2+H05261
Integration Time (usec): 100000 (USB2+H05261)
Spectra Averaged: 1 (USB2+H05261)
Boxcar Smoothing: 0 (USB2+H05261)
Correct for Electrical Dark: No (USB2+H05261)
Strobe/Lamp Enabled: No (USB2+H05261)
Correct for Detector Non-linearity: No (USB2+H05261)
Correct for Stray Light: No (USB2+H05261)
Number of Pixels in Processed Spectrum: 2048
>>>>>Begin Processed Spectral Data<<<<<
365.73	49.15
365.92	49.15
366.12	49.15
366.32	0.00
366.52	0.00
366.72	0.00
366.91	0.00
367.11	0.00
367.31	0.00
367.51	0.00
367.70	0.00
367.90	0.00
368.10	0.00
368.30	0.00
368.49	0.00
368.69	9.36
368.89	0.00
369.09	0.00
369.28	18.72
369.48	0.00
369.68	18.72
369.87	7.02
370.07	49.15
370.27	37.45
370.47	147.45
370.66	304.27
370.86	320.65
371.06	390.87
371.25	423.64
371.45	379.17
371.65	322.99
371.84	430.66
372.04	393.21
372.24	397.89
372.44	430.66
372.63	435.34
372.83	451.72
373.03	437.68
373.22	411.93
373.42	416.62
373.62	470.45
373.81	561.73
374.01	447.04
374.21	540.66
374.40	456.40
374.60	500.87
374.79	479.81
374.99	477.47
375.19	493.85
375.38	533.64
375.58	535.98
375.78	540.66
375.97	507.90
376.17	603.86
376.37	547.69
376.56	603.86
376.76	491.51
376.95	505.56
377.15	528.96
377.35	524.28
377.54	564.07
377.74	528.96
377.93	447.04
378.13	594.50
378.33	575.77
378.52	662.37
378.72	636.63
378.91	631.94
379.11	559.39
379.31	617.90
379.50	559.39
379.70	580.45
379.89	521.94
380.09	592.16
380.28	615.56
380.48	650.67
380.68	664.71
380.87	627.26
381.07	554.71
381.26	660.03
381.46	664.71
381.65	664.71
381.85	641.31
382.04	571.09
382.24	690.46
382.43	688.12
382.63	662.37
382.83	711.52
383.02	711.52
383.22	648.33
383.41	603.86
383.61	730.25
383.80	664.71
384.00	765.36
384.19	713.86
384.39	704.50
384.58	763.01
384.78	755.99
384.97	667.05
385.17	690.46
385.36	695.14
385.56	704.50
385.75	676.41
385.95	725.57
386.14	744.29
386.34	793.44
386.53	758.33
386.72	744.29
386.92	812.17
387.11	793.44
387.31	753.65
387.50	905.79
387.70	805.14
387.89	744.29
388.09	807.48
388.28	866.00
388.48	856.64
388.67	868.34
388.86	816.85
389.06	856.64
389.25	905.79
389.45	856.64
389.64	854.30
389.84	950.26
390.03	973.66
390.22	774.72
390.42	851.96
390.61	915.15
390.81	947.92
391.00	894.08
391.19	976.00
391.39	976.00
391.58	1004.09
391.78	917.49
391.97	987.71
392.16	952.60
392.36	957.28
392.55	976.00
392.75	1046.22
392.94	999.41
393.13	954.94
393.33	952.60
393.52	1041.54
393.71	917.49
393.91	973.66
394.10	1100.05
394.29	1095.37
394.49	1083.67
394.68	1088.35
394.88	1029.84
395.07	1008.77
395.26	1125.80
395.46	1111.75
395.65	1205.38
395.84	1151.54
396.04	1242.82
396.23	1254.53
396.42	1160.91
396.62	1186.65
396.81	1196.01
397.00	1088.35
397.19	1266.23
397.39	1238.14
397.58	1240.48
397.77	1214.74
397.97	1177.29
398.16	1240.48
398.35	1191.33
398.55	1249.85
398.74	1277.93
398.93	1287.29
399.12	1259.21
399.32	1320.06
399.51	1198.35
399.70	1313.04
399.90	1228.78
400.09	1448.79
400.28	1362.19
400.47	1469.86
400.67	1423.05
400.86	1441.77
401.05	1409.00
401.24	1430.07
401.44	1600.93
401.63	1554.12
401.82	1465.18
402.01	1425.39
402.21	1540.07
402.40	1469.86
402.59	1523.69
402.78	1619.65
402.97	1373.89
403.17	1617.31
403.36	1540.07
403.55	1509.65
403.74	1556.46
403.93	1640.72
404.13	1563.48
404.32	1645.40
404.51	1732.00
404.70	1682.85
404.89	1633.69
405.09	1687.53
405.28	1535.39
405.47	1685.19
405.66	1790.51
405.85	1724.97
406.05	1692.21
406.24	1825.62
406.43	1811.57
406.62	1792.85
406.81	1858.39
407.00	1809.23
407.20	1891.15
407.39	1886.47
407.58	1907.54
407.77	1912.22
407.96	1944.99
408.15	2024.56
408.34	2015.20
408.54	2017.54
408.73	1886.47
408.92	1944.99
409.11	2092.44
409.30	2076.06
409.49	2106.48
409.68	1989.46
409.87	2106.48
410.07	2050.31
410.26	2174.36
410.45	2216.49
410.64	2207.13
410.83	2251.60
411.02	2251.60
411.21	2352.24
411.40	2406.07
411.59	2377.98
411.78	2253.94
411.98	2293.72
412.17	2408.41
412.36	2349.90
412.55	2464.58
412.74	2431.82
412.93	2448.20
413.12	2443.52
413.31	2614.38
413.50	2541.82
413.69	2548.84
413.88	2558.21
414.07	2621.40
414.26	2637.78
414.45	2637.78
414.64	2759.49
414.83	2853.11
415.02	2778.22
415.22	2951.42
415.41	2902.26
415.60	2738.43
415.79	2944.39
415.98	3049.72
416.17	2984.18
416.36	2998.23
416.55	3040.36
416.74	3054.40
416.93	3166.74
417.12	3126.96
417.31	3112.91
417.50	3131.64
417.69	3211.22
417.88	3162.06
418.07	3208.87
418.26	3229.94
418.45	3145.68
418.64	3368.03
418.83	3337.60
419.02	3260.37
419.21	3295.47
419.39	3440.59
419.58	3417.18
419.77	3426.54
419.96	3456.97
420.15	3557.61
420.34	3508.46
420.53	3590.38
420.72	3583.36
420.91	3543.57
421.10	3555.27
421.29	3641.87
421.48	3506.12
421.67	3719.11
421.86	3569.32
422.05	3735.50
422.24	3716.77
422.43	3669.96
422.61	3728.47
422.80	3632.51
422.99	3740.18
423.18	3836.14
423.37	3777.62
423.56	3728.47
423.75	3747.20
423.94	3740.18
424.13	3426.54
424.32	3630.17
424.50	3845.50
424.69	3824.44
424.88	3932.10
425.07	3857.20
425.26	3744.86
425.45	3803.37
425.64	3742.52
425.83	3880.61
426.01	4077.21
426.20	3705.07
426.39	3859.54
426.58	3754.22
426.77	3859.54
426.96	3819.75
427.15	3794.01
427.33	3831.46
427.52	3925.08
427.71	4058.49
427.90	4023.38
428.09	4025.72
428.28	4049.13
428.46	4021.04
428.65	4079.55
428.84	4126.36
429.03	4063.17
429.22	3997.64
429.40	4100.62
429.59	4053.81
429.78	4023.38
429.97	4037.42
430.16	4077.21
430.34	4203.60
430.53	4381.48
430.72	4117.00
430.91	4276.16
431.10	4180.20
431.28	4278.50
431.47	4432.97
431.66	4409.57
431.85	4322.97
432.03	4524.26
432.22	4697.46
432.41	4568.73
432.60	4337.01
432.79	4493.83
432.97	4699.80
433.16	4519.57
433.35	4512.55
433.54	4617.88
433.72	4758.31
433.91	4638.94
434.10	4713.84
434.28	4608.51
434.47	4671.71
434.66	4718.52
434.85	4861.29
435.03	4767.67
435.22	5050.88
435.41	5247.48
435.59	5212.37
435.78	5097.69
435.97	4929.17
436.16	4800.44
436.34	4933.85
436.53	4812.14
436.72	5050.88
436.90	4917.47
437.09	5083.64
437.28	4868.31
437.46	5071.94
437.65	5046.20
437.84	5062.58
438.02	5170.24
438.21	5085.98
438.40	5186.63
438.58	5221.74
438.77	5345.78
438.96	5177.26
439.14	5383.23
439.33	5373.87
439.52	5408.98
439.70	5460.47
439.89	5572.82
440.08	5640.69
440.26	5511.96
440.45	5673.46
440.63	5671.12
440.82	5696.86
441.01	5675.80
441.19	5746.02
441.38	5839.64
441.57	5954.32
441.75	5923.90
441.94	6099.44
442.12	6155.61
442.31	5973.05
442.50	6085.39
442.68	6129.86
442.87	6153.27
443.05	6045.60
443.24	6148.59
443.43	6045.60
443.61	6150.93
443.80	6382.64
443.98	6052.63
444.17	5954.32
444.35	6164.97
444.54	6359.24
444.73	6022.20
444.91	6223.48
445.10	6272.64
445.28	6340.51
445.47	6216.46
445.65	6239.87
445.84	6335.83
446.02	6321.79
446.21	6118.16
446.39	6221.14
446.58	6548.82
446.77	6265.61
446.95	6314.77
447.14	6342.85
447.32	6422.43
447.51	6384.98
447.69	6441.15
447.88	6377.96
448.06	6380.30
448.25	6530.09
448.43	6518.39
448.62	6321.79
448.80	6338.17
448.99	6558.18
449.17	6588.61
449.36	6595.63
449.54	6670.53
449.73	6841.39
449.91	6492.65
450.10	6707.98
450.28	7016.93
450.46	6778.19
450.65	6724.36
450.83	6979.48
451.02	6817.98
451.20	6885.86
451.39	6719.68
451.57	6899.90
451.76	6698.61
451.94	6801.60
452.13	7061.40
452.31	6930.33
452.49	6946.71
452.68	7061.40
452.86	6883.52
453.05	7169.06
453.23	7016.93
453.42	6883.52
453.60	7030.97
453.78	7080.12
453.97	7215.87
454.15	7108.21
454.34	6974.80
454.52	7248.64
454.70	7286.09
454.89	7356.30
455.07	7229.91
455.26	7384.39
455.44	7428.86
455.62	7447.58
455.81	7353.96
455.99	7470.99
456.17	7407.80
456.36	7667.60
456.54	7712.07
456.73	7702.70
456.91	7756.54
457.09	7754.19
457.28	8037.40
457.46	7681.64
457.64	7836.11
457.83	7791.64
458.01	7648.87
458.19	7896.97
458.38	7789.30
458.56	8028.04
458.74	7997.61
458.93	8194.22
459.11	8011.65
459.29	8098.25
459.48	7988.25
459.66	8023.36
459.84	8028.04
460.03	8095.91
460.21	8049.10
460.39	8145.06
460.57	8011.65
460.76	8126.34
460.94	8278.47
461.12	8168.47
461.31	8226.98
461.49	8304.22
461.67	8280.82
461.85	8376.78
462.04	8383.80
462.22	8891.70
462.40	8507.85
462.59	8671.68
462.77	8564.02
462.95	8641.26
463.13	8442.31
463.32	8657.64
463.50	8823.82
463.68	8849.57
463.86	8517.21
464.05	8592.11
464.23	8734.88
464.41	8800.41
464.59	8503.17
464.78	8929.14
464.96	8905.74
465.14	8816.80
465.32	8931.48
465.50	9041.49
465.69	8940.85
465.87	8896.38
466.05	8877.65
466.23	8940.85
466.41	9029.79
466.60	9460.45
466.78	9114.05
466.96	9083.62
467.14	9207.67
467.32	8734.88
467.51	9027.45
467.69	9320.01
467.87	9085.96
468.05	9275.54
468.23	9352.78
468.41	9327.03
468.60	9408.95
468.78	9490.87
468.96	9301.29
469.14	9406.61
469.32	9406.61
469.50	9308.31
469.69	9486.19
469.87	9745.99
470.05	9788.12
470.23	9516.62
470.41	9778.76
470.59	9605.56
470.77	9671.09
470.95	9844.29
471.14	9989.41
471.32	9790.46
471.50	10080.69
471.68	9877.06
471.86	10068.98
472.04	10068.98
472.22	10010.47
472.40	10076.01
472.58	10178.99
472.77	10237.50
472.95	10305.38
473.13	10647.10
473.31	10209.42
473.49	10384.96
473.67	10471.56
473.85	10396.66
474.03	10736.04
474.21	10745.40
474.39	10738.38
474.57	10738.38
474.75	10916.26
474.93	11040.31
475.12	10719.65
475.30	11035.63
475.48	11225.21
475.66	11213.51
475.84	11154.99
476.02	11171.38
476.20	11208.83
476.38	11538.84
476.56	11576.29
476.74	11796.30
476.92	11473.31
477.10	11669.91
477.28	11747.15
477.46	11625.44
477.64	12020.99
477.82	12088.87
478.00	12196.53
478.18	12367.39
478.36	12542.93
478.54	12666.98
478.72	12697.41
478.90	12465.69
479.08	12774.64
479.26	12819.11
479.44	13015.72
479.62	13090.62
479.80	13188.92
479.98	13095.30
480.16	13343.39
480.34	13343.39
480.52	13465.10
480.70	13776.39
480.88	13235.73
481.06	13633.62
481.24	13418.29
481.41	13853.63
481.59	14209.39
481.77	13980.02
481.95	14508.98
482.13	14333.44
482.31	14183.65
482.49	14401.32
482.67	14827.29
482.85	14993.47
483.03	15066.03
483.21	15105.82
483.39	15248.59
483.57	15161.99
483.74	15098.80
483.92	15817.34
484.10	15367.96
484.28	15957.77
484.46	15850.11
484.64	16182.46
484.82	15955.43
485.00	16411.84
485.18	16404.81
485.35	16570.99
485.53	16823.77
485.71	16844.84
485.89	17106.98
486.07	16812.07
486.25	17102.29
486.43	17298.90
486.61	17329.33
486.78	17392.52
486.96	17514.23
487.14	17813.82
487.32	17795.09
487.50	17844.24
487.68	18263.20
487.85	18422.36
488.03	18600.24
488.21	18888.12
488.39	18703.22
488.57	18792.16
488.75	19176.01
488.92	19342.19
489.10	19115.16
489.28	19337.51
489.46	19894.55
489.64	19541.13
489.81	20093.50
489.99	20163.72
490.17	19770.51
490.35	20416.49
490.53	20575.65
490.70	20397.77
490.88	20699.70
491.06	20924.39
491.24	20737.15
491.41	21135.04
491.59	21195.89
491.77	21338.66
491.95	21406.54
492.13	21413.56
492.30	21673.36
492.48	21706.13
492.66	21699.11
492.84	21942.52
493.01	22068.91
493.19	22022.10
493.37	22944.27
493.54	22307.65
493.72	22838.95
493.90	22644.68
494.08	22714.90
494.25	23073.00
494.43	22906.82
494.61	23204.07
494.79	23206.41
494.96	23468.55
495.14	23426.42
495.32	23833.68
495.49	23810.27
495.67	24205.82
495.85	24126.24
496.02	24271.36
496.20	24414.13
496.38	24797.98
496.55	24779.25
496.73	25254.38
496.91	24290.08
497.09	25071.82
497.26	24931.39
497.44	25046.07
497.62	25076.50
497.79	25706.10
497.97	25905.05
498.14	25741.21
498.32	26008.03
498.50	25958.88
498.67	26466.78
498.85	26132.08
499.03	26206.98
499.20	26410.60
499.38	26506.57
499.56	26581.46
499.73	27133.83
499.91	26899.78
500.08	27374.91
500.26	26803.82
500.44	27143.19
500.61	27199.37
500.79	27225.11
500.97	27740.03
501.14	27587.89
501.32	27924.93
501.49	27674.49
501.67	27798.54
501.84	28156.64
502.02	27938.97
502.20	28058.34
502.37	28046.64
502.55	28364.95
502.72	28437.51
502.90	28074.73
503.07	28222.18
503.25	28339.21
503.43	28313.46
503.60	28723.05
503.78	28863.49
503.95	29076.48
504.13	29032.00
504.30	29301.17
504.48	29432.24
504.65	29549.26
504.83	29773.95
505.01	29788.00
505.18	29872.26
505.36	30017.37
505.53	29717.78
505.71	29851.19
505.88	29710.76
506.06	29972.90
506.23	30321.64
506.41	30307.60
506.58	30443.35
506.76	30082.91
506.93	30611.87
507.11	30302.92
507.28	30085.25
507.46	30698.47
507.63	31082.31
507.81	31152.53
507.98	31054.23
508.16	30916.14
508.33	30700.81
508.50	30976.99
508.68	31077.63
508.85	31728.30
509.03	31318.71
509.20	31805.54
509.38	31831.29
509.55	31990.44
509.73	32030.23
509.90	32004.49
510.08	31709.58
510.25	32257.26
510.42	32290.03
510.60	32322.80
510.77	32694.94
510.95	32507.70
511.12	32552.17
511.30	32589.62
511.47	32706.65
511.64	32823.67
511.82	33216.88
511.99	33156.03
512.17	33191.14
512.34	33228.59
512.51	33216.88
512.69	33692.01
512.86	33631.16
513.04	33565.62
513.21	33785.63
513.38	34038.41
513.56	33872.23
513.73	33567.96
513.90	33930.75
514.08	33715.42
514.25	33965.85
514.43	34103.95
514.60	34616.52
514.77	34157.78
514.95	34569.71
515.12	34389.49
515.29	34384.81
515.47	34490.13
515.64	34969.94
515.81	34892.71
515.99	35304.64
516.16	34731.21
516.33	35241.45
516.51	35618.27
516.68	34892.71
516.85	35257.83
517.03	35306.98
517.20	35505.93
517.37	35398.26
517.54	35959.99
517.72	35758.70
517.89	35442.73
518.06	35739.98
518.24	35522.31
518.41	36044.25
518.58	35892.12
518.75	35833.60
518.93	36168.30
519.10	36287.67
519.27	36051.27
519.45	36442.14
519.62	36304.05
519.79	36161.28
519.96	36641.09
520.14	36818.97
520.31	36818.97
520.48	36570.87
520.65	36933.65
520.83	36886.84
521.00	36924.29
521.17	37076.43
521.34	37308.14
521.52	37214.52
521.69	37345.59
521.86	37273.03
522.03	37502.40
522.20	37237.92
522.38	37809.01
522.55	37577.30
522.72	37729.44
522.89	37848.80
523.07	37984.55
523.24	37961.15
523.41	37975.19
523.58	37968.17
523.75	38169.46
523.92	38305.21
524.10	38431.60
524.27	38312.23
524.44	38675.01
524.61	38960.56
524.78	38583.73
524.96	38677.35
525.13	38600.12
525.30	38616.50
525.47	38543.94
525.64	39117.37
525.81	38960.56
525.98	39143.12
526.16	39159.50
526.33	38925.45
526.50	39578.46
526.67	38656.29
526.84	39248.44
527.01	38562.67
527.18	39304.62
527.36	39562.08
527.53	39929.54
527.70	39864.00
527.87	39864.00
528.04	39751.66
528.21	39770.38
528.38	39775.06
528.55	40046.57
528.72	39786.77
528.89	40079.33
529.07	40062.95
529.24	39868.69
529.41	39990.39
529.58	40156.57
529.75	40519.35
529.92	40126.14
530.09	40421.05
530.26	40676.17
530.43	40685.53
530.60	40627.02
530.77	40605.95
530.94	41146.62
531.11	40463.18
531.28	40629.36
531.46	40896.18
531.63	40809.58
531.80	41291.73
531.97	41195.77
532.14	41207.47
532.31	41106.83
532.48	41375.99
532.65	41155.98
532.82	41198.11
532.99	41193.43
533.16	41212.15
533.33	41586.64
533.50	42038.36
533.67	42019.64
533.84	41041.29
534.01	41123.21
534.18	40907.88
534.35	41909.63
534.52	41680.26
534.69	42267.73
534.86	42230.29
535.03	41661.54
535.20	42249.01
535.37	42082.83
535.54	42087.51
535.71	42003.25
535.88	42340.29
536.05	42213.90
536.22	42211.56
536.38	42588.39
536.55	42579.03
536.72	42806.06
536.89	42216.24
537.06	42492.43
537.23	42417.53
537.40	42136.66
537.57	42539.24
537.74	42068.79
537.91	42871.59
538.08	43056.50
538.25	42817.76
538.42	42962.87
538.59	43096.28
538.75	42639.88
538.92	43014.37
539.09	42997.98
539.26	43267.14
539.43	43449.70
539.60	43814.83
539.77	43377.15
539.94	43753.97
540.11	43524.60
540.28	43569.07
540.44	43276.51
540.61	43250.76
540.78	43264.80
540.95	43232.04
541.12	43969.30
541.29	43945.90
541.46	44091.01
541.62	43885.04
541.79	43896.75
541.96	43503.54
542.13	43555.03
542.30	44051.22
542.47	44456.14
542.63	44231.44
542.80	44376.56
542.97	44481.88
543.14	44708.91
543.31	44847.00
543.48	44114.42
543.64	45301.07
543.81	44886.79
543.98	45055.31
544.15	45024.89
544.32	45118.51
544.48	44964.03
544.65	44617.63
544.82	45324.47
544.99	44629.34
545.16	45113.83
545.32	45242.56
545.49	45614.70
545.66	45968.12
545.83	45989.19
546.00	46103.87
546.16	45532.78
546.33	45303.41
546.50	44729.98
546.67	45427.46
546.83	44931.26
547.00	45448.52
547.17	45347.88
547.34	45258.94
547.50	45305.75
547.67	45930.67
547.84	45507.04
548.00	45324.47
548.17	45757.47
548.34	45546.82
548.51	45673.21
548.67	45474.27
548.84	46188.13
549.01	45635.77
549.18	45186.38
549.34	45858.12
549.51	45722.37
549.68	45483.63
549.84	45872.16
550.01	45434.48
550.18	45944.72
550.34	45832.37
550.51	45911.95
550.68	46059.40
550.84	46028.98
551.01	46206.86
551.18	45806.62
551.34	45549.17
551.51	45731.73
551.68	46141.32
551.84	46241.96
552.01	46174.09
552.18	46199.83
552.34	46171.75
552.51	46562.62
552.68	46162.39
552.84	46174.09
553.01	46604.75
553.18	46555.60
553.34	46646.88
553.51	46621.13
553.67	46883.27
553.84	46724.11
554.01	46848.16
554.17	46274.73
554.34	46693.69
554.51	46316.86
554.67	46850.50
554.84	46883.27
555.00	46698.37
555.17	46532.19
555.33	47154.77
555.50	46607.09
555.67	46644.54
555.83	46761.56
556.00	46789.65
556.16	47168.82
556.33	46756.88
556.50	46897.31
556.66	47306.91
556.83	46918.38
556.99	47253.08
557.16	47395.85
557.32	47049.45
557.49	47026.04
557.65	46775.61
557.82	46574.32
557.98	47119.66
558.15	46946.47
558.32	47416.91
558.48	46923.06
558.65	47452.02
558.81	47124.35
558.98	47040.09
559.14	46782.63
559.31	47007.32
559.47	47107.96
559.64	47393.51
559.80	47262.44
559.97	47416.91
560.13	47496.49
560.30	47353.72
560.46	47346.70
560.63	47416.91
560.79	47611.18
560.96	47091.58
561.12	47690.76
561.29	47075.19
561.45	47487.13
561.61	47377.12
561.78	47688.42
561.94	47407.55
562.11	47704.80
562.27	47564.37
562.44	47370.10
562.60	47835.87
562.77	47356.06
562.93	47564.37
563.10	47763.31
563.26	47356.06
563.42	47894.38
563.59	47955.24
563.75	48140.14
563.92	47854.59
564.08	47522.24
564.24	47714.16
564.41	47299.89
564.57	47412.23
564.74	47693.10
564.90	47543.30
565.07	47929.49
565.23	48058.22
565.39	47529.26
565.56	47952.90
565.72	47777.36
565.88	47824.17
566.05	47803.10
566.21	47620.54
566.38	47686.07
566.54	47557.35
566.70	48034.81
566.87	47709.48
567.03	47990.34
567.19	48254.82
567.36	48060.56
567.52	47494.15
567.68	47863.96
567.85	47845.23
568.01	47611.18
568.17	47618.20
568.34	47686.07
568.50	47934.17
568.66	47812.46
568.83	48275.89
568.99	47995.03
569.15	47657.99
569.32	47934.17
569.48	47337.33
569.64	48062.90
569.81	47892.04
569.97	47758.63
570.13	47625.22
570.30	47983.32
570.46	48154.18
570.62	47711.82
570.78	47601.82
570.95	47611.18
571.11	47934.17
571.27	47487.13
571.43	47873.32
571.60	48020.77
571.76	48009.07
571.92	48196.31
572.09	48334.40
572.25	48280.57
572.41	47948.21
572.57	48034.81
572.74	47929.49
572.90	48130.78
573.06	47936.51
573.22	48308.66
573.38	48182.27
573.55	48135.46
573.71	48212.70
573.87	48231.42
574.03	47896.72
574.20	48016.09
574.36	47849.91
574.52	48027.79
574.68	48027.79
574.84	47959.92
575.01	48006.73
575.17	48346.11
575.33	48072.26
575.49	47854.59
575.65	47959.92
575.82	48360.15
575.98	47980.98
576.14	48442.07
576.30	48102.69
576.46	48191.63
576.62	48025.45
576.79	48385.89
576.95	48090.99
577.11	48299.30
577.27	48245.46
577.43	48165.88
577.59	48076.94
577.75	48280.57
577.92	47461.38
578.08	48055.88
578.24	47791.40
578.40	48217.38
578.56	48236.10
578.72	48285.25
578.88	48334.40
579.04	48545.05
579.21	48058.22
579.37	48744.00
579.53	48259.51
579.69	47999.71
579.85	47885.02
580.01	48081.63
580.17	48224.40
580.33	47962.26
580.49	48442.07
580.65	48233.76
580.82	48163.54
580.98	48266.53
581.14	48088.65
581.30	48772.08
581.46	47957.58
581.62	47765.65
581.78	48200.99
581.94	47976.30
582.10	47927.15
582.26	48074.60
582.42	48114.39
582.58	48105.03
582.74	48278.23
582.90	48610.59
583.06	48245.46
583.22	48257.17
583.38	48245.46
583.54	48259.51
583.70	48053.54
583.86	48203.33
584.02	48135.46
584.18	48357.81
584.34	48570.80
584.50	48491.22
584.66	48645.69
584.82	48098.01
584.98	48514.62
585.14	48074.60
585.30	47992.68
585.46	48074.60
585.62	47906.08
585.78	48559.09
585.94	48514.62
586.10	48591.86
586.26	48107.37
586.42	48711.23
586.58	48465.47
586.74	48156.52
586.90	48353.13
587.06	48088.65
587.22	47992.68
587.38	47770.33
587.54	48669.10
587.70	48744.00
587.86	48432.71
588.02	48718.25
588.18	48432.71
588.34	48528.67
588.49	48479.52
588.65	47854.59
588.81	48205.67
588.97	48353.13
589.13	48327.38
589.29	48327.38
589.45	48442.07
589.61	48502.92
589.77	48790.81
589.93	48545.05
590.08	48137.80
590.24	48385.89
