SpectraSuite Data File
++++++++++++++++++++++++++++++++++++
Date: Fri Oct 04 11:40:05 GMT-05:00 2013
User: price-jones
Dark Spectrum Present: No
Reference Spectrum Present: No
Number of Sampled Component Spectra: 1
Spectrometers: USB2+H05261
Integration Time (usec): 100000 (USB2+H05261)
Spectra Averaged: 1 (USB2+H05261)
Boxcar Smoothing: 0 (USB2+H05261)
Correct for Electrical Dark: No (USB2+H05261)
Strobe/Lamp Enabled: No (USB2+H05261)
Correct for Detector Non-linearity: No (USB2+H05261)
Correct for Stray Light: No (USB2+H05261)
Number of Pixels in Processed Spectrum: 2048
>>>>>Begin Processed Spectral Data<<<<<
365.73	72.56
365.92	72.56
366.12	72.56
366.32	0.00
366.52	0.00
366.72	0.00
366.91	0.00
367.11	0.00
367.31	0.00
367.51	0.00
367.70	0.00
367.90	0.00
368.10	0.00
368.30	0.00
368.49	0.00
368.69	0.00
368.89	7.02
369.09	0.00
369.28	0.00
369.48	0.00
369.68	0.00
369.87	0.00
370.07	49.15
370.27	39.79
370.47	70.22
370.66	77.24
370.86	63.19
371.06	117.03
371.25	140.43
371.45	56.17
371.65	154.48
371.84	95.96
372.04	49.15
372.24	93.62
372.44	72.56
372.63	128.73
372.83	168.52
373.03	145.11
373.22	119.37
373.42	173.20
373.62	93.62
373.81	161.50
374.01	133.41
374.21	189.58
374.40	110.01
374.60	126.39
374.79	119.37
374.99	131.07
375.19	138.09
375.38	70.22
375.58	74.90
375.78	81.92
375.97	152.13
376.17	163.84
376.37	177.88
376.56	163.84
376.76	140.43
376.95	126.39
377.15	187.24
377.35	91.28
377.54	124.05
377.74	91.28
377.93	149.79
378.13	152.13
378.33	145.11
378.52	138.09
378.72	124.05
378.91	161.50
379.11	98.30
379.31	98.30
379.50	95.96
379.70	60.85
379.89	79.58
380.09	138.09
380.28	128.73
380.48	140.43
380.68	65.54
380.87	173.20
381.07	88.94
381.26	131.07
381.46	86.60
381.65	81.92
381.85	53.83
382.04	159.16
382.24	88.94
382.43	145.11
382.63	131.07
382.83	60.85
383.02	222.35
383.22	93.62
383.41	77.24
383.61	95.96
383.80	86.60
384.00	119.37
384.19	51.49
384.39	63.19
384.58	11.70
384.78	105.32
384.97	163.84
385.17	117.03
385.36	149.79
385.56	105.32
385.75	88.94
385.95	110.01
386.14	88.94
386.34	138.09
386.53	131.07
386.72	159.16
386.92	140.43
387.11	95.96
387.31	107.66
387.50	53.83
387.70	98.30
387.89	86.60
388.09	110.01
388.28	131.07
388.48	88.94
388.67	98.30
388.86	152.13
389.06	88.94
389.25	128.73
389.45	105.32
389.64	119.37
389.84	163.84
390.03	166.18
390.22	121.71
390.42	138.09
390.61	39.79
390.81	63.19
391.00	77.24
391.19	168.52
391.39	154.48
391.58	114.69
391.78	105.32
391.97	196.60
392.16	91.28
392.36	182.56
392.55	149.79
392.75	100.64
392.94	81.92
393.13	124.05
393.33	112.35
393.52	51.49
393.71	152.13
393.91	170.86
394.10	112.35
394.29	53.83
394.49	128.73
394.68	67.88
394.88	149.79
395.07	203.63
395.26	124.05
395.46	128.73
395.65	102.98
395.84	114.69
396.04	191.92
396.23	133.41
396.42	63.19
396.62	128.73
396.81	149.79
397.00	110.01
397.19	102.98
397.39	182.56
397.58	142.77
397.77	67.88
397.97	133.41
398.16	70.22
398.35	194.26
398.55	100.64
398.74	46.81
398.93	147.45
399.12	93.62
399.32	133.41
399.51	145.11
399.70	138.09
399.90	95.96
400.09	42.13
400.28	124.05
400.47	133.41
400.67	189.58
400.86	74.90
401.05	142.77
401.24	149.79
401.44	107.66
401.63	114.69
401.82	124.05
402.01	154.48
402.21	110.01
402.40	203.63
402.59	105.32
402.78	63.19
402.97	191.92
403.17	86.60
403.36	147.45
403.55	100.64
403.74	147.45
403.93	124.05
404.13	311.29
404.32	236.39
404.51	248.10
404.70	194.26
404.89	238.73
405.09	177.88
405.28	203.63
405.47	121.71
405.66	88.94
405.85	156.82
406.05	107.66
406.24	65.54
406.43	98.30
406.62	105.32
406.81	217.67
407.00	86.60
407.20	145.11
407.39	152.13
407.58	86.60
407.77	77.24
407.96	128.73
408.15	159.16
408.34	156.82
408.54	163.84
408.73	145.11
408.92	161.50
409.11	184.90
409.30	140.43
409.49	133.41
409.68	86.60
409.87	95.96
410.07	135.75
410.26	95.96
410.45	67.88
410.64	42.13
410.83	23.41
411.02	70.22
411.21	93.62
411.40	224.69
411.59	170.86
411.78	114.69
411.98	201.29
412.17	65.54
412.36	128.73
412.55	93.62
412.74	166.18
412.93	131.07
413.12	84.26
413.31	149.79
413.50	208.31
413.69	126.39
413.88	131.07
414.07	175.54
414.26	110.01
414.45	88.94
414.64	105.32
414.83	119.37
415.02	180.22
415.22	117.03
415.41	205.97
415.60	107.66
415.79	105.32
415.98	147.45
416.17	112.35
416.36	180.22
416.55	79.58
416.74	86.60
416.93	180.22
417.12	142.77
417.31	168.52
417.50	182.56
417.69	114.69
417.88	203.63
418.07	119.37
418.26	170.86
418.45	121.71
418.64	170.86
418.83	154.48
419.02	102.98
419.21	191.92
419.39	131.07
419.58	182.56
419.77	147.45
419.96	215.33
420.15	161.50
420.34	126.39
420.53	163.84
420.72	205.97
420.91	210.65
421.10	81.92
421.29	121.71
421.48	140.43
421.67	145.11
421.86	180.22
422.05	168.52
422.24	173.20
422.43	131.07
422.61	121.71
422.80	161.50
422.99	126.39
423.18	142.77
423.37	147.45
423.56	110.01
423.75	161.50
423.94	182.56
424.13	194.26
424.32	117.03
424.50	138.09
424.69	210.65
424.88	182.56
425.07	152.13
425.26	142.77
425.45	159.16
425.64	156.82
425.83	135.75
426.01	95.96
426.20	205.97
426.39	95.96
426.58	161.50
426.77	182.56
426.96	194.26
427.15	138.09
427.33	191.92
427.52	212.99
427.71	163.84
427.90	205.97
428.09	140.43
428.28	117.03
428.46	154.48
428.65	203.63
428.84	161.50
429.03	180.22
429.22	121.71
429.40	32.77
429.59	107.66
429.78	156.82
429.97	100.64
430.16	166.18
430.34	147.45
430.53	152.13
430.72	140.43
430.91	154.48
431.10	124.05
431.28	98.30
431.47	238.73
431.66	131.07
431.85	133.41
432.03	149.79
432.22	217.67
432.41	114.69
432.60	142.77
432.79	142.77
432.97	102.98
433.16	215.33
433.35	177.88
433.54	217.67
433.72	231.71
433.91	245.76
434.10	201.29
434.28	203.63
434.47	175.54
434.66	180.22
434.85	212.99
435.03	372.15
435.22	748.97
435.41	1240.48
435.59	1380.92
435.78	997.07
435.97	585.13
436.16	313.63
436.34	161.50
436.53	285.55
436.72	156.82
436.90	173.20
437.09	175.54
437.28	124.05
437.46	147.45
437.65	222.35
437.84	238.73
438.02	124.05
438.21	205.97
438.40	194.26
438.58	163.84
438.77	166.18
438.96	189.58
439.14	191.92
439.33	227.03
439.52	156.82
439.70	208.31
439.89	203.63
440.08	161.50
440.26	227.03
440.45	208.31
440.63	231.71
440.82	145.11
441.01	177.88
441.19	173.20
441.38	131.07
441.57	173.20
441.75	217.67
441.94	220.01
442.12	175.54
442.31	102.98
442.50	220.01
442.68	184.90
442.87	107.66
443.05	184.90
443.24	135.75
443.43	189.58
443.61	142.77
443.80	119.37
443.98	184.90
444.17	177.88
444.35	252.78
444.54	173.20
444.73	86.60
444.91	173.20
445.10	135.75
445.28	161.50
445.47	184.90
445.65	217.67
445.84	236.39
446.02	156.82
446.21	173.20
446.39	177.88
446.58	177.88
446.77	173.20
446.95	166.18
447.14	163.84
447.32	266.82
447.51	133.41
447.69	215.33
447.88	182.56
448.06	163.84
448.25	238.73
448.43	257.46
448.62	201.29
448.80	191.92
448.99	215.33
449.17	184.90
449.36	159.16
449.54	152.13
449.73	170.86
449.91	210.65
450.10	212.99
450.28	262.14
450.46	212.99
450.65	208.31
450.83	229.37
451.02	212.99
451.20	224.69
451.39	168.52
451.57	156.82
451.76	215.33
451.94	191.92
452.13	177.88
452.31	191.92
452.49	184.90
452.68	163.84
452.86	243.42
453.05	238.73
453.23	215.33
453.42	175.54
453.60	166.18
453.78	187.24
453.97	154.48
454.15	102.98
454.34	110.01
454.52	205.97
454.70	241.08
454.89	231.71
455.07	175.54
455.26	182.56
455.44	142.77
455.62	166.18
455.81	250.44
455.99	194.26
456.17	191.92
456.36	210.65
456.54	112.35
456.73	208.31
456.91	149.79
457.09	208.31
457.28	212.99
457.46	196.60
457.64	189.58
457.83	203.63
458.01	170.86
458.19	203.63
458.38	229.37
458.56	166.18
458.74	208.31
458.93	231.71
459.11	238.73
459.29	203.63
459.48	248.10
459.66	243.42
459.84	238.73
460.03	271.50
460.21	222.35
460.39	189.58
460.57	224.69
460.76	184.90
460.94	210.65
461.12	205.97
461.31	271.50
461.49	196.60
461.67	208.31
461.85	238.73
462.04	252.78
462.22	643.65
462.40	241.08
462.59	191.92
462.77	159.16
462.95	231.71
463.13	149.79
463.32	140.43
463.50	217.67
463.68	173.20
463.86	112.35
464.05	222.35
464.23	210.65
464.41	175.54
464.59	198.95
464.78	152.13
464.96	128.73
465.14	177.88
465.32	168.52
465.50	205.97
465.69	196.60
465.87	161.50
466.05	187.24
466.23	189.58
466.41	175.54
466.60	191.92
466.78	184.90
466.96	315.97
467.14	276.18
467.32	203.63
467.51	173.20
467.69	212.99
467.87	271.50
468.05	241.08
468.23	229.37
468.41	229.37
468.60	259.80
468.78	159.16
468.96	257.46
469.14	250.44
469.32	196.60
469.50	126.39
469.69	262.14
469.87	196.60
470.05	154.48
470.23	212.99
470.41	245.76
470.59	252.78
470.77	173.20
470.95	236.39
471.14	149.79
471.32	177.88
471.50	210.65
471.68	238.73
471.86	205.97
472.04	133.41
472.22	168.52
472.40	177.88
472.58	168.52
472.77	173.20
472.95	187.24
473.13	236.39
473.31	238.73
473.49	131.07
473.67	184.90
473.85	241.08
474.03	205.97
474.21	147.45
474.39	238.73
474.57	280.86
474.75	187.24
474.93	250.44
475.12	152.13
475.30	208.31
475.48	173.20
475.66	175.54
475.84	224.69
476.02	180.22
476.20	250.44
476.38	191.92
476.56	276.18
476.74	159.16
476.92	236.39
477.10	266.82
477.28	198.95
477.46	117.03
477.64	222.35
477.82	203.63
478.00	215.33
478.18	163.84
478.36	250.44
478.54	208.31
478.72	208.31
478.90	182.56
479.08	262.14
479.26	229.37
479.44	170.86
479.62	220.01
479.80	262.14
479.98	248.10
480.16	194.26
480.34	248.10
480.52	198.95
480.70	229.37
480.88	203.63
481.06	208.31
481.24	264.48
481.41	241.08
481.59	311.29
481.77	203.63
481.95	229.37
482.13	262.14
482.31	271.50
482.49	241.08
482.67	234.05
482.85	327.68
483.03	280.86
483.21	297.25
483.39	245.76
483.57	285.55
483.74	299.59
483.92	313.63
484.10	334.70
484.28	287.89
484.46	360.44
484.64	318.31
484.82	351.08
485.00	348.74
485.18	341.72
485.35	372.15
485.53	327.68
485.71	346.40
485.89	320.65
486.07	348.74
486.25	444.70
486.43	400.23
486.61	365.12
486.78	304.27
486.96	447.04
487.14	360.44
487.32	304.27
487.50	418.96
487.68	376.83
487.85	339.38
488.03	339.38
488.21	376.83
488.39	360.44
488.57	341.72
488.75	332.36
488.92	678.76
489.10	421.30
489.28	395.55
489.46	308.95
489.64	388.53
489.81	395.55
489.99	327.68
490.17	395.55
490.35	547.69
490.53	395.55
490.70	372.15
490.88	386.19
491.06	327.68
491.24	456.40
491.41	360.44
491.59	390.87
491.77	365.12
491.95	348.74
492.13	348.74
492.30	337.04
492.48	381.51
492.66	252.78
492.84	322.99
493.01	290.23
493.19	327.68
493.37	395.55
493.54	311.29
493.72	290.23
493.90	346.40
494.08	341.72
494.25	325.33
494.43	322.99
494.61	393.21
494.79	304.27
494.96	346.40
495.14	411.93
495.32	346.40
495.49	269.16
495.67	355.76
495.85	332.36
496.02	311.29
496.20	444.70
496.38	353.42
496.55	348.74
496.73	341.72
496.91	308.95
497.09	346.40
497.26	344.06
497.44	344.06
497.62	353.42
497.79	306.61
497.97	297.25
498.14	393.21
498.32	301.93
498.50	315.97
498.67	304.27
498.85	294.91
499.03	374.49
499.20	287.89
499.38	348.74
499.56	376.83
499.73	320.65
499.91	376.83
500.08	308.95
500.26	353.42
500.44	283.20
500.61	334.70
500.79	327.68
500.97	358.10
501.14	306.61
501.32	315.97
501.49	280.86
501.67	308.95
501.84	308.95
502.02	266.82
502.20	278.52
502.37	308.95
502.55	344.06
502.72	271.50
502.90	301.93
503.07	379.17
503.25	325.33
503.43	348.74
503.60	248.10
503.78	283.20
503.95	273.84
504.13	374.49
504.30	344.06
504.48	257.46
504.65	351.08
504.83	362.78
505.01	280.86
505.18	271.50
505.36	330.02
505.53	234.05
505.71	320.65
505.88	390.87
506.06	252.78
506.23	241.08
506.41	287.89
506.58	360.44
506.76	322.99
506.93	330.02
507.11	351.08
507.28	273.84
507.46	287.89
507.63	318.31
507.81	259.80
507.98	292.57
508.16	327.68
508.33	318.31
508.50	262.14
508.68	306.61
508.85	273.84
509.03	285.55
509.20	365.12
509.38	325.33
509.55	353.42
509.73	264.48
509.90	461.09
510.08	337.04
510.25	311.29
510.42	327.68
510.60	278.52
510.77	318.31
510.95	266.82
511.12	283.20
511.30	283.20
511.47	337.04
511.64	390.87
511.82	285.55
511.99	250.44
512.17	365.12
512.34	313.63
512.51	264.48
512.69	264.48
512.86	353.42
513.04	257.46
513.21	320.65
513.38	337.04
513.56	334.70
513.73	339.38
513.90	257.46
514.08	304.27
514.25	315.97
514.43	372.15
514.60	259.80
514.77	351.08
514.95	318.31
515.12	318.31
515.29	395.55
515.47	337.04
515.64	390.87
515.81	315.97
515.99	332.36
516.16	353.42
516.33	360.44
516.51	334.70
516.68	318.31
516.85	294.91
517.03	360.44
517.20	301.93
517.37	304.27
517.54	311.29
517.72	358.10
517.89	322.99
518.06	283.20
518.24	360.44
518.41	344.06
518.58	348.74
518.75	325.33
518.93	273.84
519.10	339.38
519.27	315.97
519.45	236.39
519.62	327.68
519.79	365.12
519.96	294.91
520.14	266.82
520.31	365.12
520.48	301.93
520.65	358.10
520.83	358.10
521.00	365.12
521.17	341.72
521.34	367.46
521.52	257.46
521.69	362.78
521.86	308.95
522.03	414.27
522.20	360.44
522.38	325.33
522.55	271.50
522.72	313.63
522.89	280.86
523.07	285.55
523.24	301.93
523.41	374.49
523.58	299.59
523.75	313.63
523.92	320.65
524.10	325.33
524.27	374.49
524.44	322.99
524.61	402.57
524.78	337.04
524.96	322.99
525.13	330.02
525.30	383.85
525.47	353.42
525.64	344.06
525.81	327.68
525.98	337.04
526.16	315.97
526.33	397.89
526.50	341.72
526.67	273.84
526.84	372.15
527.01	358.10
527.18	402.57
527.36	301.93
527.53	379.17
527.70	369.80
527.87	381.51
528.04	353.42
528.21	306.61
528.38	332.36
528.55	421.30
528.72	294.91
528.89	325.33
529.07	327.68
529.24	344.06
529.41	332.36
529.58	320.65
529.75	308.95
529.92	423.64
530.09	351.08
530.26	376.83
530.43	395.55
530.60	315.97
530.77	397.89
530.94	367.46
531.11	355.76
531.28	334.70
531.46	374.49
531.63	337.04
531.80	411.93
531.97	397.89
532.14	381.51
532.31	393.21
532.48	369.80
532.65	402.57
532.82	327.68
532.99	414.27
533.16	374.49
533.33	367.46
533.50	341.72
533.67	383.85
533.84	407.25
534.01	400.23
534.18	372.15
534.35	435.34
534.52	381.51
534.69	411.93
534.86	397.89
535.03	369.80
535.20	404.91
535.37	428.32
535.54	397.89
535.71	386.19
535.88	400.23
536.05	418.96
536.22	407.25
536.38	449.38
536.55	435.34
536.72	477.47
536.89	397.89
537.06	402.57
537.23	444.70
537.40	496.19
537.57	395.55
537.74	564.07
537.91	592.16
538.08	622.58
538.25	559.39
538.42	547.69
538.59	533.64
538.75	503.22
538.92	554.71
539.09	552.37
539.26	631.94
539.43	706.84
539.60	695.14
539.77	690.46
539.94	730.25
540.11	720.88
540.28	868.34
540.44	905.79
540.61	924.51
540.78	1027.50
540.95	1184.31
541.12	1350.49
541.29	1345.81
541.46	1558.80
541.62	1526.03
541.79	1481.56
541.96	1523.69
542.13	1376.24
542.30	1401.98
542.47	1434.75
542.63	1327.08
542.80	1291.98
542.97	1409.00
543.14	1322.40
543.31	1371.55
543.48	1355.17
543.64	1350.49
543.81	1306.02
543.98	1320.06
544.15	1224.10
544.32	1299.00
544.48	1280.27
544.65	1341.13
544.82	1270.91
544.99	1291.98
545.16	1259.21
545.32	1188.99
545.49	1863.07
545.66	3007.59
545.83	3550.59
546.00	3248.66
546.16	2207.13
546.33	1558.80
546.50	1345.81
546.67	1137.50
546.83	1008.77
547.00	976.00
547.17	966.64
547.34	882.38
547.50	873.02
547.67	842.59
547.84	873.02
548.00	819.19
548.17	805.14
548.34	856.64
548.51	856.64
548.67	844.93
548.84	739.61
549.01	870.68
549.18	856.64
549.34	821.53
549.51	748.97
549.68	772.38
549.84	774.72
550.01	634.29
550.18	746.63
550.34	816.85
550.51	723.23
550.68	688.12
550.84	627.26
551.01	566.41
551.18	566.41
551.34	552.37
551.51	538.32
551.68	559.39
551.84	596.84
552.01	606.20
552.18	535.98
552.34	585.13
552.51	510.24
552.68	622.58
552.84	585.13
553.01	557.05
553.18	479.81
553.34	500.87
553.51	533.64
553.67	496.19
553.84	519.60
554.01	472.79
554.17	475.13
554.34	411.93
554.51	472.79
554.67	449.38
554.84	428.32
555.00	374.49
555.17	402.57
555.33	379.17
555.50	425.98
555.67	402.57
555.83	400.23
556.00	407.25
556.16	472.79
556.33	367.46
556.50	292.57
556.66	402.57
556.83	358.10
556.99	423.64
557.16	376.83
557.32	411.93
557.49	362.78
557.65	388.53
557.82	355.76
557.98	313.63
558.15	353.42
558.32	367.46
558.48	346.40
558.65	365.12
558.81	337.04
558.98	334.70
559.14	332.36
559.31	447.04
559.47	393.21
559.64	383.85
559.80	407.25
559.97	423.64
560.13	332.36
560.30	407.25
560.46	339.38
560.63	348.74
560.79	365.12
560.96	409.59
561.12	416.62
561.29	369.80
561.45	409.59
561.61	386.19
561.78	463.43
561.94	414.27
562.11	376.83
562.27	351.08
562.44	358.10
562.60	325.33
562.77	423.64
562.93	465.77
563.10	416.62
563.26	407.25
563.42	339.38
563.59	362.78
563.75	304.27
563.92	362.78
564.08	374.49
564.24	346.40
564.41	451.72
564.57	290.23
564.74	332.36
564.90	337.04
565.07	400.23
565.23	449.38
565.39	351.08
565.56	297.25
565.72	285.55
565.88	322.99
566.05	423.64
566.21	421.30
566.38	402.57
566.54	433.00
566.70	315.97
566.87	367.46
567.03	369.80
567.19	339.38
567.36	365.12
567.52	308.95
567.68	351.08
567.85	397.89
568.01	355.76
568.17	404.91
568.34	330.02
568.50	437.68
568.66	379.17
568.83	402.57
568.99	327.68
569.15	372.15
569.32	322.99
569.48	318.31
569.64	330.02
569.81	297.25
569.97	304.27
570.13	433.00
570.30	327.68
570.46	381.51
570.62	404.91
570.78	395.55
570.95	348.74
571.11	411.93
571.27	400.23
571.43	322.99
571.60	386.19
571.76	362.78
571.92	330.02
572.09	411.93
572.25	297.25
572.41	355.76
572.57	339.38
572.74	440.02
572.90	287.89
573.06	348.74
573.22	318.31
573.38	444.70
573.55	400.23
573.71	320.65
573.87	379.17
574.03	365.12
574.20	346.40
574.36	351.08
574.52	353.42
574.68	381.51
574.84	390.87
575.01	407.25
575.17	362.78
575.33	308.95
575.49	379.17
575.65	276.18
575.82	337.04
575.98	472.79
576.14	360.44
576.30	449.38
576.46	716.20
576.62	894.08
576.79	938.55
576.95	767.70
577.11	603.86
577.27	491.51
577.43	465.77
577.59	430.66
577.75	400.23
577.92	372.15
578.08	442.36
578.24	330.02
578.40	547.69
578.56	720.88
578.72	868.34
578.88	912.81
579.04	734.93
579.21	554.71
579.37	547.69
579.53	505.56
579.69	531.30
579.85	566.41
580.01	470.45
580.17	479.81
580.33	491.51
580.49	505.56
580.65	533.64
580.82	491.51
580.98	390.87
581.14	479.81
581.30	430.66
581.46	519.60
581.62	521.94
581.78	447.04
581.94	531.30
582.10	575.77
582.26	524.28
582.42	503.22
582.58	486.83
582.74	603.86
582.90	643.65
583.06	575.77
583.22	564.07
583.38	617.90
583.54	596.84
583.70	601.52
583.86	543.00
584.02	585.13
584.18	573.43
584.34	653.01
584.50	528.96
584.66	550.03
584.82	587.47
584.98	540.66
585.14	526.62
585.30	627.26
585.46	596.84
585.62	543.00
585.78	543.00
585.94	573.43
586.10	461.09
586.26	571.09
586.42	533.64
586.58	620.24
586.74	629.60
586.90	772.38
587.06	844.93
587.22	821.53
587.38	760.67
587.54	685.78
587.70	669.39
587.86	507.90
588.02	594.50
588.18	566.41
588.34	582.79
588.49	540.66
588.65	498.53
588.81	430.66
588.97	421.30
589.13	440.02
589.29	519.60
589.45	505.56
589.61	463.43
589.77	512.58
589.93	435.34
590.08	393.21
590.24	435.34
590.40	409.59
590.56	465.77
590.72	482.15
590.88	470.45
591.04	510.24
591.20	505.56
591.35	470.45
591.51	514.92
591.67	503.22
591.83	484.49
591.99	512.58
592.15	568.75
592.31	552.37
592.46	503.22
592.62	641.31
592.78	578.11
592.94	627.26
593.10	585.13
593.26	557.05
593.41	596.84
593.57	559.39
593.73	531.30
593.89	568.75
594.05	395.55
594.20	402.57
594.36	482.15
594.52	503.22
594.68	379.17
594.84	489.17
594.99	390.87
595.15	430.66
595.31	416.62
595.47	468.11
595.62	472.79
595.78	400.23
595.94	404.91
596.10	430.66
596.25	458.74
596.41	430.66
596.57	404.91
596.73	428.32
596.88	416.62
597.04	393.21
597.20	341.72
597.36	411.93
597.51	348.74
597.67	369.80
597.83	425.98
597.99	491.51
598.14	411.93
598.30	435.34
598.46	503.22
598.61	531.30
598.77	545.34
598.93	517.26
599.09	533.64
599.24	477.47
599.40	535.98
599.56	482.15
599.71	486.83
599.87	444.70
600.03	535.98
600.18	393.21
600.34	500.87
600.50	428.32
600.65	425.98
600.81	458.74
600.97	402.57
601.12	444.70
601.28	484.49
601.44	362.78
601.59	306.61
601.75	423.64
601.91	435.34
602.06	367.46
602.22	458.74
602.37	348.74
602.53	294.91
602.69	339.38
602.84	257.46
603.00	423.64
603.16	449.38
603.31	461.09
603.47	433.00
603.62	362.78
603.78	428.32
603.94	458.74
604.09	402.57
604.25	388.53
604.40	362.78
604.56	442.36
604.71	393.21
604.87	332.36
605.03	404.91
605.18	369.80
605.34	437.68
605.49	454.06
605.65	400.23
605.80	365.12
605.96	442.36
606.12	416.62
606.27	409.59
606.43	447.04
606.58	475.13
606.74	519.60
606.89	367.46
607.05	503.22
607.20	372.15
607.36	519.60
607.51	505.56
607.67	442.36
607.82	461.09
607.98	610.88
608.13	547.69
608.29	564.07
608.44	603.86
608.60	582.79
608.75	653.01
608.91	535.98
609.06	718.54
609.22	690.46
609.37	730.25
609.53	798.12
609.68	861.32
609.84	940.90
609.99	1029.84
610.15	1053.24
610.30	1418.36
610.46	1675.82
610.61	2050.31
610.76	2518.42
610.92	2899.92
611.07	3363.35
