SpectraSuite Data File
++++++++++++++++++++++++++++++++++++
Date: Fri Oct 04 11:40:02 GMT-05:00 2013
User: price-jones
Dark Spectrum Present: No
Reference Spectrum Present: No
Number of Sampled Component Spectra: 1
Spectrometers: USB2+H05261
Integration Time (usec): 100000 (USB2+H05261)
Spectra Averaged: 1 (USB2+H05261)
Boxcar Smoothing: 0 (USB2+H05261)
Correct for Electrical Dark: No (USB2+H05261)
Strobe/Lamp Enabled: No (USB2+H05261)
Correct for Detector Non-linearity: No (USB2+H05261)
Correct for Stray Light: No (USB2+H05261)
Number of Pixels in Processed Spectrum: 2048
>>>>>Begin Processed Spectral Data<<<<<
365.73	86.60
365.92	86.60
366.12	86.60
366.32	0.00
366.52	0.00
366.72	0.00
366.91	0.00
367.11	0.00
367.31	0.00
367.51	0.00
367.70	0.00
367.90	0.00
368.10	0.00
368.30	0.00
368.49	0.00
368.69	0.00
368.89	0.00
369.09	0.00
369.28	0.00
369.48	0.00
369.68	14.04
369.87	14.04
370.07	0.00
370.27	30.43
370.47	23.41
370.66	72.56
370.86	161.50
371.06	145.11
371.25	124.05
371.45	35.11
371.65	133.41
371.84	102.98
372.04	86.60
372.24	142.77
372.44	126.39
372.63	131.07
372.83	156.82
373.03	74.90
373.22	163.84
373.42	149.79
373.62	191.92
373.81	133.41
374.01	133.41
374.21	238.73
374.40	187.24
374.60	248.10
374.79	105.32
374.99	98.30
375.19	203.63
375.38	245.76
375.58	142.77
375.78	245.76
375.97	191.92
376.17	236.39
376.37	135.75
376.56	175.54
376.76	145.11
376.95	131.07
377.15	173.20
377.35	119.37
377.54	173.20
377.74	140.43
377.93	107.66
378.13	128.73
378.33	163.84
378.52	170.86
378.72	107.66
378.91	140.43
379.11	112.35
379.31	105.32
379.50	105.32
379.70	184.90
379.89	177.88
380.09	128.73
380.28	187.24
380.48	189.58
380.68	121.71
380.87	177.88
381.07	93.62
381.26	234.05
381.46	177.88
381.65	241.08
381.85	110.01
382.04	128.73
382.24	231.71
382.43	117.03
382.63	166.18
382.83	128.73
383.02	173.20
383.22	128.73
383.41	140.43
383.61	170.86
383.80	126.39
384.00	117.03
384.19	168.52
384.39	142.77
384.58	191.92
384.78	217.67
384.97	163.84
385.17	177.88
385.36	142.77
385.56	210.65
385.75	168.52
385.95	114.69
386.14	198.95
386.34	133.41
386.53	175.54
386.72	140.43
386.92	191.92
387.11	147.45
387.31	138.09
387.50	189.58
387.70	191.92
387.89	159.16
388.09	180.22
388.28	149.79
388.48	152.13
388.67	168.52
388.86	229.37
389.06	201.29
389.25	215.33
389.45	159.16
389.64	294.91
389.84	224.69
390.03	175.54
390.22	135.75
390.42	175.54
390.61	67.88
390.81	126.39
391.00	173.20
391.19	205.97
391.39	110.01
391.58	285.55
391.78	189.58
391.97	128.73
392.16	133.41
392.36	166.18
392.55	201.29
392.75	264.48
392.94	212.99
393.13	306.61
393.33	159.16
393.52	243.42
393.71	191.92
393.91	292.57
394.10	224.69
394.29	210.65
394.49	173.20
394.68	131.07
394.88	180.22
395.07	273.84
395.26	243.42
395.46	227.03
395.65	224.69
395.84	238.73
396.04	365.12
396.23	234.05
396.42	234.05
396.62	248.10
396.81	215.33
397.00	173.20
397.19	262.14
397.39	182.56
397.58	327.68
397.77	203.63
397.97	283.20
398.16	290.23
398.35	271.50
398.55	229.37
398.74	250.44
398.93	203.63
399.12	283.20
399.32	255.12
399.51	276.18
399.70	294.91
399.90	273.84
400.09	320.65
400.28	283.20
400.47	234.05
400.67	337.04
400.86	311.29
401.05	327.68
401.24	322.99
401.44	339.38
401.63	334.70
401.82	337.04
402.01	372.15
402.21	365.12
402.40	315.97
402.59	285.55
402.78	273.84
402.97	294.91
403.17	393.21
403.36	330.02
403.55	386.19
403.74	381.51
403.93	374.49
404.13	444.70
404.32	339.38
404.51	325.33
404.70	444.70
404.89	383.85
405.09	428.32
405.28	362.78
405.47	416.62
405.66	484.49
405.85	440.02
406.05	400.23
406.24	449.38
406.43	416.62
406.62	395.55
406.81	440.02
407.00	423.64
407.20	491.51
407.39	503.22
407.58	421.30
407.77	395.55
407.96	458.74
408.15	503.22
408.34	489.17
408.54	521.94
408.73	498.53
408.92	561.73
409.11	444.70
409.30	510.24
409.49	561.73
409.68	531.30
409.87	566.41
410.07	526.62
410.26	514.92
410.45	606.20
410.64	608.54
410.83	606.20
411.02	561.73
411.21	606.20
411.40	596.84
411.59	610.88
411.78	641.31
411.98	622.58
412.17	615.56
412.36	594.50
412.55	655.35
412.74	627.26
412.93	578.11
413.12	592.16
413.31	763.01
413.50	620.24
413.69	674.07
413.88	645.99
414.07	706.84
414.26	648.33
414.45	664.71
414.64	723.23
414.83	613.22
415.02	849.61
415.22	702.16
415.41	734.93
415.60	770.04
415.79	716.20
415.98	894.08
416.17	866.00
416.36	835.57
416.55	786.42
416.74	770.04
416.93	791.10
417.12	840.25
417.31	905.79
417.50	863.66
417.69	992.39
417.88	873.02
418.07	858.98
418.26	875.36
418.45	943.24
418.64	901.11
418.83	903.45
419.02	891.74
419.21	891.74
419.39	896.43
419.58	882.38
419.77	894.08
419.96	943.24
420.15	1004.09
420.34	968.98
420.53	908.13
420.72	983.02
420.91	959.62
421.10	1015.79
421.29	1015.79
421.48	964.30
421.67	1015.79
421.86	966.64
422.05	1018.13
422.24	1046.22
422.43	978.34
422.61	994.73
422.80	943.24
422.99	1025.15
423.18	1004.09
423.37	964.30
423.56	1100.05
423.75	985.37
423.94	1034.52
424.13	936.21
424.32	978.34
424.50	1048.56
424.69	1111.75
424.88	1048.56
425.07	1034.52
425.26	1076.65
425.45	1053.24
425.64	971.32
425.83	947.92
426.01	1076.65
426.20	1067.28
426.39	1083.67
426.58	1067.28
426.77	1041.54
426.96	1102.39
427.15	1116.44
427.33	1128.14
427.52	1132.82
427.71	1097.71
427.90	1053.24
428.09	1062.60
428.28	1041.54
428.46	1055.58
428.65	1128.14
428.84	1191.33
429.03	1165.59
429.22	1135.16
429.40	1111.75
429.59	1151.54
429.78	1198.35
429.97	1102.39
430.16	1128.14
430.34	1193.67
430.53	1205.38
430.72	1144.52
430.91	1083.67
431.10	1172.61
431.28	1205.38
431.47	1284.95
431.66	1287.29
431.85	1210.06
432.03	1235.80
432.22	1315.38
432.41	1324.74
432.60	1259.21
432.79	1277.93
432.97	1334.11
433.16	1299.00
433.35	1245.16
433.54	1219.42
433.72	1296.66
433.91	1275.59
434.10	1261.55
434.28	1287.29
434.47	1322.40
434.66	1364.53
434.85	1411.34
435.03	1455.81
435.22	1591.56
435.41	1781.15
435.59	1879.45
435.78	1671.14
435.97	1373.89
436.16	1413.68
436.34	1404.32
436.53	1306.02
436.72	1437.09
436.90	1409.00
437.09	1376.24
437.28	1371.55
437.46	1359.85
437.65	1420.71
437.84	1380.92
438.02	1451.13
438.21	1385.60
438.40	1369.21
438.58	1474.54
438.77	1441.77
438.96	1469.86
439.14	1467.52
439.33	1462.83
439.52	1439.43
439.70	1404.32
439.89	1472.20
440.08	1490.92
440.26	1507.30
440.45	1540.07
440.63	1568.16
440.82	1575.18
441.01	1682.85
441.19	1624.33
441.38	1666.46
441.57	1596.25
441.75	1626.67
441.94	1680.50
442.12	1692.21
442.31	1666.46
442.50	1687.53
442.68	1626.67
442.87	1668.80
443.05	1664.12
443.24	1771.79
443.43	1703.91
443.61	1720.29
443.80	1727.32
443.98	1643.06
444.17	1519.01
444.35	1664.12
444.54	1778.81
444.73	1703.91
444.91	1701.57
445.10	1717.95
445.28	1659.44
445.47	1713.27
445.65	1720.29
445.84	1753.06
446.02	1699.23
446.21	1755.40
446.39	1694.55
446.58	1797.53
446.77	1727.32
446.95	1708.59
447.14	1659.44
447.32	1764.76
447.51	1743.70
447.69	1781.15
447.88	1820.94
448.06	1708.59
448.25	1729.66
448.43	1783.49
448.62	1685.19
448.80	1820.94
448.99	1785.83
449.17	1736.68
449.36	1858.39
449.54	1736.68
449.73	1886.47
449.91	1914.56
450.10	1984.77
450.28	1933.28
450.46	1867.75
450.65	1940.30
450.83	1809.23
451.02	1940.30
451.20	1909.88
451.39	1874.77
451.57	1884.13
451.76	1844.34
451.94	1952.01
452.13	1977.75
452.31	1973.07
452.49	1919.24
452.68	1846.68
452.86	1984.77
453.05	2003.50
453.23	2012.86
453.42	1975.41
453.60	1909.88
453.78	1860.73
453.97	1937.96
454.15	1989.46
454.34	1963.71
454.52	1994.14
454.70	1956.69
454.89	2085.42
455.07	1977.75
455.26	2097.12
455.44	1994.14
455.62	1973.07
455.81	2033.93
455.99	2062.01
456.17	2129.89
456.36	2092.44
456.54	2139.25
456.73	2160.31
456.91	2085.42
457.09	2118.18
457.28	2200.10
457.46	2155.63
457.64	2249.25
457.83	2253.94
458.01	2207.13
458.19	2150.95
458.38	2174.36
458.56	2150.95
458.74	2225.85
458.93	2232.87
459.11	2246.91
459.29	2090.10
459.48	2207.13
459.66	2228.19
459.84	2342.88
460.03	2270.32
460.21	2291.38
460.39	2326.49
460.57	2251.60
460.76	2204.78
460.94	2249.25
461.12	2211.81
461.31	2361.60
461.49	2296.07
461.67	2296.07
461.85	2333.51
462.04	2464.58
462.22	2731.41
462.40	2530.12
462.59	2485.65
462.77	2443.52
462.95	2450.54
463.13	2345.22
463.32	2345.22
463.50	2317.13
463.68	2417.77
463.86	2429.48
464.05	2363.94
464.23	2410.75
464.41	2380.32
464.59	2373.30
464.78	2480.97
464.96	2525.44
465.14	2347.56
465.32	2452.88
465.50	2513.74
465.69	2431.82
465.87	2506.71
466.05	2513.74
466.23	2448.20
466.41	2595.65
466.60	2525.44
466.78	2565.23
466.96	2408.41
467.14	2480.97
467.32	2516.08
467.51	2626.08
467.69	2675.23
467.87	2574.59
468.05	2623.74
468.23	2590.97
468.41	2525.44
468.60	2642.46
468.78	2558.21
468.96	2628.42
469.14	2586.29
469.32	2523.10
469.50	2607.36
469.69	2616.72
469.87	2672.89
470.05	2661.19
470.23	2590.97
470.41	2635.44
470.59	2722.04
470.77	2619.06
470.95	2686.94
471.14	2715.02
471.32	2583.95
471.50	2719.70
471.68	2689.28
471.86	2836.73
472.04	2750.13
472.22	2792.26
472.40	2719.70
472.58	2785.24
472.77	2780.56
472.95	2928.01
473.13	2993.55
473.31	2815.66
473.49	2995.89
473.67	2785.24
473.85	2920.99
474.03	2972.48
474.21	2939.71
474.39	3000.57
474.57	2871.84
474.75	2970.14
474.93	3110.57
475.12	3007.59
475.30	3021.63
475.48	2972.48
475.66	3047.38
475.84	2939.71
476.02	3077.80
476.20	3108.23
476.38	3077.80
476.56	3119.93
476.74	3152.70
476.92	3183.13
477.10	3222.92
477.28	3110.57
477.46	3162.06
477.64	3243.98
477.82	3180.79
478.00	3421.86
478.18	3222.92
478.36	3414.84
478.54	3361.01
478.72	3321.22
478.90	3494.42
479.08	3449.95
479.26	3559.95
479.44	3557.61
479.62	3510.80
479.80	3527.19
479.98	3639.53
480.16	3595.06
480.34	3735.50
480.52	3665.28
480.70	3653.58
480.88	3786.99
481.06	3637.19
481.24	3641.87
481.41	3702.73
481.59	3698.05
481.77	3829.12
481.95	3801.03
482.13	4018.70
482.31	3880.61
482.49	3929.76
482.67	3964.87
482.85	3967.21
483.03	4140.41
483.21	3999.98
483.39	4142.75
483.57	4198.92
483.74	4196.58
483.92	4177.86
484.10	4147.43
484.28	4262.12
484.46	4339.35
484.64	4313.61
484.82	4372.12
485.00	4451.70
485.18	4463.40
485.35	4514.89
485.53	4545.32
485.71	4503.19
485.89	4484.47
486.07	4622.56
486.25	4634.26
486.43	4559.36
486.61	4727.88
486.78	4746.61
486.96	4765.33
487.14	4910.44
487.32	4805.12
487.50	4809.80
487.68	4842.57
487.85	4985.34
488.03	5111.73
488.21	5149.18
488.39	5036.83
488.57	5200.67
488.75	5174.92
488.92	5495.58
489.10	5172.58
489.28	5310.68
489.46	5153.86
489.64	5266.21
489.81	5490.90
489.99	5284.93
490.17	5430.04
490.35	5509.62
490.53	5528.35
490.70	5685.16
490.88	5701.54
491.06	5589.20
491.24	5605.58
491.41	5790.49
491.59	5636.01
491.77	5696.86
491.95	5753.04
492.13	5680.48
492.30	5769.42
492.48	5818.57
492.66	5881.77
492.84	5834.96
493.01	5923.90
493.19	5954.32
493.37	6150.93
493.54	6040.92
493.72	6024.54
493.90	6043.26
494.08	6064.33
494.25	6125.18
494.43	6127.52
494.61	6186.04
494.79	6370.94
494.96	6279.66
495.14	6235.19
495.32	6464.56
495.49	6452.86
495.67	6579.25
495.85	6516.05
496.02	6630.74
496.20	6619.04
496.38	6668.19
496.55	6647.12
496.73	6717.34
496.91	6590.95
497.09	6771.17
497.26	6663.51
497.44	6710.32
497.62	6803.94
497.79	6794.58
497.97	6930.33
498.14	7009.90
498.32	6993.52
498.50	6876.49
498.67	7040.33
498.85	7054.37
499.03	7009.90
499.20	6913.94
499.38	7143.32
499.56	7037.99
499.73	7370.35
499.91	7178.42
500.08	7192.47
500.26	7279.07
500.44	7225.23
500.61	7265.02
500.79	7246.30
500.97	7386.73
501.14	7321.20
501.32	7508.44
501.49	7269.70
501.67	7382.05
501.84	7466.31
502.02	7463.97
502.20	7456.95
502.37	7489.71
502.55	7447.58
502.72	7538.87
502.90	7768.24
503.07	7545.89
503.25	7644.19
503.43	7606.74
503.60	7669.94
503.78	7740.15
503.95	7864.20
504.13	7801.01
504.30	7756.54
504.48	7861.86
504.65	8016.33
504.83	7969.52
505.01	8016.33
505.18	8042.08
505.36	7943.78
505.53	8241.03
505.71	7934.42
505.88	8091.23
506.06	8030.38
506.23	8133.36
506.41	7939.10
506.58	8133.36
506.76	8147.40
506.93	8236.35
507.11	7990.59
507.28	8025.70
507.46	8217.62
507.63	8255.07
507.81	8411.89
507.98	8287.84
508.16	8297.20
508.33	8369.76
508.50	8397.84
508.68	8423.59
508.85	8568.70
509.03	8414.23
509.20	8540.61
509.38	8564.02
509.55	8528.91
509.73	8652.96
509.90	8547.64
510.08	8557.00
510.25	8648.28
510.42	8711.47
510.60	8690.41
510.77	8716.16
510.95	8812.12
511.12	8692.75
511.30	8645.94
511.47	8744.24
511.64	8774.67
511.82	8814.46
511.99	8863.61
512.17	9076.60
512.34	8990.00
512.51	8903.40
512.69	8950.21
512.86	8978.30
513.04	8987.66
513.21	9088.30
513.38	8926.80
513.56	9041.49
513.73	9102.34
513.90	9081.28
514.08	8922.12
514.25	9104.68
514.43	9235.75
514.60	9331.72
514.77	9385.55
514.95	9303.63
515.12	9018.08
515.29	9371.50
515.47	9310.65
515.64	9521.30
515.81	9275.54
515.99	9350.44
516.16	9369.16
516.33	9511.94
516.51	9635.99
516.68	9593.86
516.85	9516.62
517.03	9362.14
517.20	9570.45
517.37	9628.96
517.54	9710.88
517.72	9661.73
517.89	9647.69
518.06	9572.79
518.24	9701.52
518.41	9692.16
518.58	9748.33
518.75	9795.14
518.93	9675.77
519.10	10094.73
519.27	9867.70
519.45	9717.90
519.62	9769.40
519.79	9900.47
519.96	9944.94
520.14	10085.37
520.31	9998.77
520.48	10036.22
520.65	10078.35
520.83	10068.98
521.00	9980.04
521.17	10076.01
521.34	10087.71
521.52	9977.70
521.69	10164.95
521.86	10186.01
522.03	10073.67
522.20	10338.15
522.38	10122.82
522.55	10078.35
522.72	10258.57
522.89	10319.42
523.07	10441.13
523.24	10307.72
523.41	10324.10
523.58	10424.75
523.75	10134.52
523.92	10401.34
524.10	10497.30
524.27	10396.66
524.44	10668.16
524.61	10581.56
524.78	10567.52
524.96	10555.82
525.13	10527.73
525.30	10525.39
525.47	10679.86
525.64	10445.81
525.81	10726.68
525.98	10525.39
526.16	10696.25
526.33	10567.52
526.50	10757.10
526.67	10651.78
526.84	10892.85
527.01	10757.10
527.18	10724.33
527.36	10848.38
527.53	10738.38
527.70	10759.44
527.87	10726.68
528.04	10801.57
528.21	10867.11
528.38	10899.87
528.55	11084.78
528.72	11052.01
528.89	10970.09
529.07	10937.32
529.24	10836.68
529.41	11070.73
529.58	10949.03
529.75	11023.92
529.92	11084.78
530.09	11171.38
530.26	10911.58
530.43	10927.96
530.60	10927.96
530.77	11159.67
530.94	11262.66
531.11	11061.37
531.28	11232.23
531.46	11171.38
531.63	11375.00
531.80	11222.87
531.97	11115.20
532.14	11311.81
532.31	11522.46
532.48	11295.43
532.65	11140.95
532.82	11211.17
532.99	11122.23
533.16	11262.66
533.33	11363.30
533.50	11485.01
533.67	11384.37
533.84	11243.93
534.01	11625.44
534.18	11468.62
534.35	11370.32
534.52	11513.10
534.69	11620.76
534.86	11548.20
535.03	11602.04
535.20	11482.67
535.37	11646.51
535.54	11906.31
535.71	11566.93
535.88	11880.56
536.05	11679.27
536.22	11756.51
536.38	11630.12
536.55	11782.26
536.72	11676.93
536.89	11681.61
537.06	11829.07
537.23	11538.84
537.40	11950.78
537.57	11786.94
537.74	11609.06
537.91	11777.58
538.08	11913.33
538.25	11894.60
538.42	11822.05
538.59	12259.73
538.75	11815.02
538.92	11733.11
539.09	11906.31
539.26	11927.37
539.43	12002.27
539.60	12173.13
539.77	12140.36
539.94	11981.20
540.11	12304.20
540.28	12222.28
540.44	12341.64
540.61	12154.40
540.78	12100.57
540.95	12208.23
541.12	12500.80
541.29	12463.35
541.46	12521.87
541.62	12645.91
541.79	12706.77
541.96	12489.10
542.13	12496.12
542.30	12643.57
542.47	12683.36
542.63	12205.89
542.80	12697.41
542.97	12828.48
543.14	13004.02
543.31	12479.74
543.48	12498.46
543.64	12779.32
543.81	12762.94
543.98	12795.71
544.15	12767.62
544.32	12957.21
544.48	13069.55
544.65	12891.67
544.82	12985.29
544.99	12585.06
545.16	12737.20
545.32	12835.50
545.49	13284.88
545.66	13811.50
545.83	13984.70
546.00	13760.01
546.16	13474.46
546.33	12886.99
546.50	12816.77
546.67	12659.96
546.83	12699.75
547.00	12800.39
547.17	12898.69
547.34	12835.50
547.50	12922.10
547.67	12706.77
547.84	12650.60
548.00	12709.11
548.17	12966.57
548.34	12835.50
548.51	12968.91
548.67	12739.54
548.84	12943.16
549.01	12868.27
549.18	12952.52
549.34	12795.71
549.51	12943.16
549.68	12641.23
549.84	12629.53
550.01	12966.57
550.18	12784.01
550.34	13174.88
550.51	12917.42
550.68	12982.95
550.84	12898.69
551.01	12975.93
551.18	12589.74
551.34	12531.23
551.51	12762.94
551.68	12924.44
551.84	12917.42
552.01	12849.54
552.18	13167.85
552.34	12919.76
552.51	12940.82
552.68	12734.85
552.84	13156.15
553.01	12896.35
553.18	12898.69
553.34	12903.37
553.51	12985.29
553.67	13055.51
553.84	13160.83
554.01	13081.25
554.17	12945.50
554.34	12830.82
554.51	12910.40
554.67	12987.63
554.84	13034.44
555.00	13123.38
555.17	13025.08
555.33	13069.55
555.50	13008.70
555.67	13069.55
555.83	13008.70
556.00	13027.42
556.16	13385.52
556.33	12929.12
556.50	13053.17
556.66	12982.95
556.83	13055.51
556.99	13329.35
557.16	13099.98
557.32	13118.70
557.49	13472.12
557.65	13092.96
557.82	13116.36
557.98	12938.48
558.15	13174.88
558.32	13153.81
558.48	13263.82
558.65	13233.39
558.81	13158.49
558.98	13123.38
559.14	13083.59
559.31	12957.21
559.47	13273.18
559.64	13214.66
559.80	13404.25
559.97	13256.79
560.13	13107.00
560.30	13167.85
560.46	13254.45
560.63	13135.09
560.79	13158.49
560.96	12952.52
561.12	13174.88
561.29	13238.07
561.45	13151.47
561.61	13380.84
561.78	13511.91
561.94	13394.89
562.11	13275.52
562.27	13329.35
562.44	13317.65
562.60	13495.53
562.77	13317.65
562.93	13078.91
563.10	13516.59
563.26	13336.37
563.42	13504.89
563.59	13600.85
563.75	13334.03
563.92	13366.80
564.08	13163.17
564.24	13191.26
564.41	13448.72
564.57	13048.49
564.74	13345.73
564.90	13200.62
565.07	13181.90
565.23	13270.84
565.39	13397.23
565.56	13240.41
565.72	13069.55
565.88	13465.10
566.05	13401.91
566.21	13291.90
566.38	13289.56
566.54	13317.65
566.70	13289.56
566.87	13364.46
567.03	13411.27
567.19	13397.23
567.36	13598.51
567.52	13296.58
567.68	13444.04
567.85	13308.29
568.01	13465.10
568.17	13277.86
568.34	13343.39
568.50	13209.98
568.66	13542.34
568.83	13582.13
568.99	13142.11
569.15	13263.82
569.32	13369.14
569.48	13231.05
569.64	13355.10
569.81	13511.91
569.97	13249.77
570.13	13474.46
570.30	13289.56
570.46	13427.65
570.62	13408.93
570.78	13083.59
570.95	13186.58
571.11	13687.45
571.27	13446.38
571.43	13331.69
571.60	13359.78
571.76	13439.36
571.92	13577.45
572.09	13612.56
572.25	13336.37
572.41	13455.74
572.57	13378.50
572.74	13579.79
572.90	13319.99
573.06	13467.44
573.22	13479.15
573.38	13355.10
573.55	13547.02
573.71	13776.39
573.87	13455.74
574.03	13668.73
574.20	13467.44
574.36	13329.35
574.52	13497.87
574.68	13619.58
574.84	13572.77
575.01	13418.29
575.17	13481.49
575.33	13422.97
575.49	13429.99
575.65	13694.47
575.82	13710.86
575.98	13642.98
576.14	13378.50
576.30	13554.04
576.46	13490.85
576.62	13671.07
576.79	13724.90
576.95	13806.82
577.11	13612.56
577.27	13579.79
577.43	13624.26
577.59	13469.78
577.75	13413.61
577.92	13362.12
578.08	13834.91
578.24	13493.19
578.40	13441.70
578.56	13699.16
578.72	13776.39
578.88	13987.04
579.04	13907.46
579.21	13666.39
579.37	13600.85
579.53	13359.78
579.69	13486.17
579.85	13589.15
580.01	13462.76
580.17	13872.36
580.33	13717.88
580.49	13401.91
580.65	13813.84
580.82	13689.79
580.98	13673.41
581.14	13579.79
581.30	13687.45
581.46	13495.53
581.62	13752.99
581.78	13708.52
581.94	13734.26
582.10	13453.40
582.26	13584.47
582.42	13549.36
582.58	13729.58
582.74	13568.09
582.90	13788.10
583.06	13668.73
583.22	13717.88
583.38	13706.18
583.54	13729.58
583.70	13710.86
583.86	13872.36
584.02	13603.19
584.18	13781.07
584.34	13647.66
584.50	13816.18
584.66	13734.26
584.82	13757.67
584.98	13596.17
585.14	13757.67
585.30	13460.42
585.46	13596.17
585.62	13844.27
585.78	13715.54
585.94	13570.43
586.10	13584.47
586.26	13727.24
586.42	13839.59
586.58	13996.40
586.74	13818.52
586.90	13755.33
587.06	13614.90
587.22	13551.70
587.38	13647.66
587.54	13907.46
587.70	13900.44
587.86	13781.07
588.02	13689.79
588.18	13823.20
588.34	13708.52
588.49	13640.64
588.65	13752.99
588.81	13373.82
588.97	13664.05
589.13	13486.17
589.29	13554.04
589.45	13586.81
589.61	13949.59
589.77	13806.82
589.93	13870.01
590.08	13736.60
590.24	13745.97
590.40	13708.52
590.56	13654.69
590.72	13769.37
590.88	13598.51
591.04	13479.15
591.20	13858.31
591.35	13827.88
591.51	13816.18
591.67	13575.11
591.83	14068.96
591.99	13926.19
592.15	13647.66
592.31	13935.55
592.46	13668.73
592.62	13654.69
592.78	13865.33
592.94	13764.69
593.10	13654.69
593.26	13818.52
593.41	13926.19
593.57	13741.29
593.73	13811.50
593.89	13699.16
594.05	13635.96
594.20	13549.36
594.36	13755.33
594.52	13706.18
594.68	13532.98
