SpectraSuite Data File
++++++++++++++++++++++++++++++++++++
Date: Fri Oct 04 11:39:59 GMT-05:00 2013
User: price-jones
Dark Spectrum Present: No
Reference Spectrum Present: No
Number of Sampled Component Spectra: 1
Spectrometers: USB2+H05261
Integration Time (usec): 100000 (USB2+H05261)
Spectra Averaged: 1 (USB2+H05261)
Boxcar Smoothing: 0 (USB2+H05261)
Correct for Electrical Dark: No (USB2+H05261)
Strobe/Lamp Enabled: No (USB2+H05261)
Correct for Detector Non-linearity: No (USB2+H05261)
Correct for Stray Light: No (USB2+H05261)
Number of Pixels in Processed Spectrum: 2048
>>>>>Begin Processed Spectral Data<<<<<
365.73	53.83
365.92	53.83
366.12	53.83
366.32	0.00
366.52	0.00
366.72	0.00
366.91	0.00
367.11	0.00
367.31	0.00
367.51	0.00
367.70	0.00
367.90	0.00
368.10	0.00
368.30	0.00
368.49	0.00
368.69	0.00
368.89	0.00
369.09	0.00
369.28	0.00
369.48	11.70
369.68	2.34
369.87	0.00
370.07	32.77
370.27	4.68
370.47	28.09
370.66	60.85
370.86	37.45
371.06	77.24
371.25	124.05
371.45	72.56
371.65	147.45
371.84	95.96
372.04	105.32
372.24	65.54
372.44	67.88
372.63	117.03
372.83	159.16
373.03	177.88
373.22	112.35
373.42	100.64
373.62	98.30
373.81	133.41
374.01	175.54
374.21	128.73
374.40	72.56
374.60	173.20
374.79	163.84
374.99	161.50
375.19	152.13
375.38	227.03
375.58	128.73
375.78	117.03
375.97	196.60
376.17	210.65
376.37	145.11
376.56	156.82
376.76	95.96
376.95	105.32
377.15	149.79
377.35	100.64
377.54	224.69
377.74	63.19
377.93	110.01
378.13	149.79
378.33	145.11
378.52	124.05
378.72	184.90
378.91	147.45
379.11	114.69
379.31	84.26
379.50	140.43
379.70	152.13
379.89	154.48
380.09	182.56
380.28	51.49
380.48	161.50
380.68	65.54
380.87	46.81
381.07	114.69
381.26	210.65
381.46	133.41
381.65	175.54
381.85	159.16
382.04	154.48
382.24	63.19
382.43	154.48
382.63	166.18
382.83	117.03
383.02	128.73
383.22	201.29
383.41	107.66
383.61	133.41
383.80	58.51
384.00	128.73
384.19	168.52
384.39	131.07
384.58	142.77
384.78	168.52
384.97	114.69
385.17	154.48
385.36	177.88
385.56	147.45
385.75	86.60
385.95	140.43
386.14	180.22
386.34	138.09
386.53	147.45
386.72	133.41
386.92	177.88
387.11	114.69
387.31	177.88
387.50	149.79
387.70	147.45
387.89	159.16
388.09	177.88
388.28	149.79
388.48	133.41
388.67	168.52
388.86	135.75
389.06	88.94
389.25	135.75
389.45	217.67
389.64	198.95
389.84	161.50
390.03	217.67
390.22	161.50
390.42	88.94
390.61	138.09
390.81	163.84
391.00	264.48
391.19	189.58
391.39	198.95
391.58	175.54
391.78	133.41
391.97	121.71
392.16	79.58
392.36	152.13
392.55	227.03
392.75	156.82
392.94	161.50
393.13	161.50
393.33	142.77
393.52	142.77
393.71	170.86
393.91	128.73
394.10	135.75
394.29	252.78
394.49	152.13
394.68	229.37
394.88	255.12
395.07	205.97
395.26	285.55
395.46	255.12
395.65	196.60
395.84	238.73
396.04	255.12
396.23	217.67
396.42	203.63
396.62	145.11
396.81	175.54
397.00	198.95
397.19	208.31
397.39	252.78
397.58	262.14
397.77	201.29
397.97	191.92
398.16	222.35
398.35	191.92
398.55	210.65
398.74	241.08
398.93	332.36
399.12	191.92
399.32	215.33
399.51	262.14
399.70	191.92
399.90	102.98
400.09	224.69
400.28	264.48
400.47	271.50
400.67	266.82
400.86	217.67
401.05	234.05
401.24	234.05
401.44	234.05
401.63	262.14
401.82	210.65
402.01	217.67
402.21	245.76
402.40	257.46
402.59	194.26
402.78	238.73
402.97	248.10
403.17	262.14
403.36	194.26
403.55	243.42
403.74	283.20
403.93	299.59
404.13	318.31
404.32	402.57
404.51	337.04
404.70	337.04
404.89	290.23
405.09	362.78
405.28	266.82
405.47	229.37
405.66	297.25
405.85	315.97
406.05	311.29
406.24	301.93
406.43	198.95
406.62	292.57
406.81	313.63
407.00	367.46
407.20	341.72
407.39	278.52
407.58	283.20
407.77	390.87
407.96	348.74
408.15	379.17
408.34	238.73
408.54	334.70
408.73	334.70
408.92	341.72
409.11	360.44
409.30	330.02
409.49	395.55
409.68	290.23
409.87	372.15
410.07	341.72
410.26	306.61
410.45	315.97
410.64	383.85
410.83	369.80
411.02	425.98
411.21	400.23
411.40	425.98
411.59	379.17
411.78	374.49
411.98	456.40
412.17	397.89
412.36	425.98
412.55	437.68
412.74	524.28
412.93	489.17
413.12	416.62
413.31	477.47
413.50	397.89
413.69	468.11
413.88	479.81
414.07	461.09
414.26	423.64
414.45	416.62
414.64	425.98
414.83	496.19
415.02	484.49
415.22	554.71
415.41	571.09
415.60	486.83
415.79	545.34
415.98	514.92
416.17	486.83
416.36	550.03
416.55	477.47
416.74	500.87
416.93	514.92
417.12	510.24
417.31	519.60
417.50	552.37
417.69	610.88
417.88	547.69
418.07	505.56
418.26	550.03
418.45	550.03
418.64	617.90
418.83	608.54
419.02	631.94
419.21	599.18
419.39	547.69
419.58	599.18
419.77	580.45
419.96	601.52
420.15	582.79
420.34	620.24
420.53	641.31
420.72	650.67
420.91	664.71
421.10	610.88
421.29	638.97
421.48	655.35
421.67	683.44
421.86	622.58
422.05	678.76
422.24	617.90
422.43	550.03
422.61	594.50
422.80	683.44
422.99	692.80
423.18	631.94
423.37	767.70
423.56	706.84
423.75	653.01
423.94	636.63
424.13	674.07
424.32	587.47
424.50	669.39
424.69	713.86
424.88	671.73
425.07	688.12
425.26	741.95
425.45	667.05
425.64	702.16
425.83	730.25
426.01	624.92
426.20	720.88
426.39	643.65
426.58	713.86
426.77	669.39
426.96	690.46
427.15	641.31
427.33	620.24
427.52	638.97
427.71	706.84
427.90	772.38
428.09	734.93
428.28	655.35
428.46	727.91
428.65	732.59
428.84	767.70
429.03	781.74
429.22	713.86
429.40	781.74
429.59	706.84
429.78	711.52
429.97	699.82
430.16	645.99
430.34	683.44
430.53	739.61
430.72	676.41
430.91	763.01
431.10	791.10
431.28	725.57
431.47	774.72
431.66	767.70
431.85	837.91
432.03	720.88
432.22	828.55
432.41	849.61
432.60	856.64
432.79	786.42
432.97	854.30
433.16	753.65
433.35	812.17
433.54	784.08
433.72	870.68
433.91	830.89
434.10	875.36
434.28	840.25
434.47	821.53
434.66	793.44
434.85	823.87
435.03	978.34
435.22	1142.18
435.41	1418.36
435.59	1497.94
435.78	1322.40
435.97	1081.33
436.16	938.55
436.34	856.64
436.53	868.34
436.72	896.43
436.90	819.19
437.09	929.19
437.28	805.14
437.46	863.66
437.65	887.06
437.84	945.58
438.02	889.40
438.21	835.57
438.40	816.85
438.58	777.06
438.77	983.02
438.96	868.34
439.14	919.83
439.33	894.08
439.52	889.40
439.70	851.96
439.89	961.96
440.08	983.02
440.26	917.49
440.45	983.02
440.63	910.47
440.82	947.92
441.01	933.87
441.19	961.96
441.38	1004.09
441.57	1008.77
441.75	1086.01
441.94	1018.13
442.12	971.32
442.31	1041.54
442.50	959.62
442.68	997.07
442.87	1069.62
443.05	922.17
443.24	1093.03
443.43	1041.54
443.61	1146.86
443.80	1048.56
443.98	1083.67
444.17	980.68
444.35	1057.92
444.54	1027.50
444.73	1067.28
444.91	1128.14
445.10	1029.84
445.28	1090.69
445.47	1076.65
445.65	1029.84
445.84	1125.80
446.02	1081.33
446.21	1046.22
446.39	1135.16
446.58	1153.88
446.77	1097.71
446.95	1083.67
447.14	1060.26
447.32	1102.39
447.51	1135.16
447.69	1025.15
447.88	1118.78
448.06	1146.86
448.25	1132.82
448.43	1041.54
448.62	1102.39
448.80	1156.22
448.99	1135.16
449.17	1090.69
449.36	1104.73
449.54	1125.80
449.73	1146.86
449.91	1231.12
450.10	1256.87
450.28	1256.87
450.46	1188.99
450.65	1179.63
450.83	1198.35
451.02	1177.29
451.20	1158.57
451.39	1214.74
451.57	1217.08
451.76	1107.07
451.94	1184.31
452.13	1261.55
452.31	1256.87
452.49	1212.40
452.68	1256.87
452.86	1188.99
453.05	1263.89
453.23	1170.27
453.42	1139.84
453.60	1139.84
453.78	1200.69
453.97	1207.72
454.15	1179.63
454.34	1231.12
454.52	1170.27
454.70	1160.91
454.89	1231.12
455.07	1320.06
455.26	1217.08
455.44	1324.74
455.62	1266.23
455.81	1327.08
455.99	1268.57
456.17	1270.91
456.36	1184.31
456.54	1263.89
456.73	1324.74
456.91	1322.40
457.09	1378.58
457.28	1364.53
457.46	1306.02
457.64	1310.70
457.83	1394.96
458.01	1179.63
458.19	1334.11
458.38	1287.29
458.56	1483.90
458.74	1362.19
458.93	1334.11
459.11	1416.02
459.29	1348.15
459.48	1390.28
459.66	1376.24
459.84	1420.71
460.03	1504.96
460.21	1446.45
460.39	1383.26
460.57	1352.83
460.76	1486.24
460.94	1406.66
461.12	1451.13
461.31	1469.86
461.49	1453.47
461.67	1345.81
461.85	1432.41
462.04	1416.02
462.22	1928.60
462.40	1409.00
462.59	1430.07
462.77	1511.99
462.95	1348.15
463.13	1488.58
463.32	1507.30
463.50	1455.81
463.68	1507.30
463.86	1420.71
464.05	1472.20
464.23	1495.60
464.41	1554.12
464.59	1528.37
464.78	1504.96
464.96	1352.83
465.14	1444.11
465.32	1376.24
465.50	1521.35
465.69	1556.46
465.87	1556.46
466.05	1476.88
466.23	1486.24
466.41	1577.52
466.60	1497.94
466.78	1535.39
466.96	1432.41
467.14	1593.90
467.32	1540.07
467.51	1577.52
467.69	1509.65
467.87	1540.07
468.05	1621.99
468.23	1563.48
468.41	1526.03
468.60	1598.59
468.78	1540.07
468.96	1614.97
469.14	1617.31
469.32	1617.31
469.50	1563.48
469.69	1509.65
469.87	1568.16
470.05	1652.42
470.23	1549.43
470.41	1652.42
470.59	1596.25
470.77	1472.20
470.95	1497.94
471.14	1753.06
471.32	1734.34
471.50	1734.34
471.68	1647.74
471.86	1720.29
472.04	1612.63
472.22	1626.67
472.40	1750.72
472.58	1682.85
472.77	1757.74
472.95	1673.48
473.13	1839.66
473.31	1696.89
473.49	1755.40
473.67	1781.15
473.85	1813.92
474.03	1877.11
474.21	1778.81
474.39	1856.04
474.57	1907.54
474.75	1928.60
474.93	1830.30
475.12	1919.24
475.30	1839.66
475.48	1790.51
475.66	1804.55
475.84	1823.28
476.02	1823.28
476.20	1856.04
476.38	1825.62
476.56	1947.33
476.74	2015.20
476.92	1994.14
477.10	1860.73
477.28	2022.22
477.46	1926.26
477.64	1966.05
477.82	2005.84
478.00	2127.55
478.18	1977.75
478.36	1982.43
478.54	2040.95
478.72	2036.27
478.90	2087.76
479.08	2160.31
479.26	2108.82
479.44	2148.61
479.62	2221.17
479.80	2207.13
479.98	2153.29
480.16	2160.31
480.34	2207.13
480.52	2136.91
480.70	2242.23
480.88	2293.72
481.06	2195.42
481.24	2176.70
481.41	2214.15
481.59	2207.13
481.77	2326.49
481.95	2253.94
482.13	2282.02
482.31	2333.51
482.49	2373.30
482.67	2473.95
482.85	2394.37
483.03	2448.20
483.21	2401.39
483.39	2448.20
483.57	2532.46
483.74	2642.46
483.92	2518.42
484.10	2546.50
484.28	2574.59
484.46	2715.02
484.64	2661.19
484.82	2724.38
485.00	2555.86
485.18	2750.13
485.35	2754.81
485.53	2757.15
485.71	2710.34
485.89	2712.68
486.07	2832.05
486.25	2848.43
486.43	2869.50
486.61	2981.84
486.78	2888.22
486.96	2892.90
487.14	2935.03
487.32	2848.43
487.50	2988.86
487.68	2876.52
487.85	2953.76
488.03	3061.42
488.21	3272.07
488.39	3133.98
488.57	3077.80
488.75	3141.00
488.92	3527.19
489.10	3211.22
489.28	3112.91
489.46	3171.43
489.64	3236.96
489.81	3145.68
489.99	3323.56
490.17	3225.26
490.35	3461.65
490.53	3424.20
490.70	3283.77
490.88	3260.37
491.06	3318.88
491.24	3379.73
491.41	3496.76
491.59	3391.44
491.77	3363.35
491.95	3492.08
492.13	3492.08
492.30	3438.25
492.48	3468.67
492.66	3531.87
492.84	3595.06
493.01	3508.46
493.19	3496.76
493.37	3550.59
493.54	3632.51
493.72	3578.68
493.90	3648.90
494.08	3672.30
494.25	3681.66
494.43	3728.47
494.61	3665.28
494.79	3754.22
494.96	3721.45
495.14	3679.32
495.32	3833.80
495.49	3786.99
495.67	3854.86
495.85	3955.51
496.02	3878.27
496.20	3999.98
496.38	3866.56
496.55	3932.10
496.73	3997.64
496.91	4058.49
497.09	3999.98
497.26	3950.82
497.44	4004.66
497.62	3999.98
497.79	4046.79
497.97	4035.08
498.14	4142.75
498.32	4196.58
498.50	4107.64
498.67	4138.07
498.85	4149.77
499.03	4187.22
499.20	4229.35
499.38	4304.25
499.56	4128.70
499.73	4238.71
499.91	4360.42
500.08	4367.44
500.26	4264.46
500.44	4187.22
500.61	4259.78
500.79	4369.78
500.97	4236.37
501.14	4381.48
501.32	4393.19
501.49	4252.75
501.67	4430.63
501.84	4479.79
502.02	4400.21
502.20	4468.08
502.37	4531.28
502.55	4479.79
502.72	4496.17
502.90	4542.98
503.07	4542.98
503.25	4423.61
503.43	4470.42
503.60	4603.83
503.78	4554.68
503.95	4496.17
504.13	4667.03
504.30	4470.42
504.48	4535.96
504.65	4601.49
504.83	4706.82
505.01	4638.94
505.18	4767.67
505.36	4652.98
505.53	4690.43
505.71	4709.16
505.88	4678.73
506.06	4772.35
506.23	4690.43
506.41	4692.77
506.58	4896.40
506.76	4833.21
506.93	4777.03
507.11	4809.80
507.28	5015.77
507.46	4961.94
507.63	4975.98
507.81	4830.87
507.98	4786.40
508.16	4870.65
508.33	4961.94
508.50	4898.74
508.68	4933.85
508.85	4870.65
509.03	5118.75
509.20	4980.66
509.38	4983.00
509.55	5011.09
509.73	5004.07
509.90	5174.92
510.08	5139.82
510.25	5083.64
510.42	5123.43
510.60	5177.26
510.77	5210.03
510.95	5093.01
511.12	5034.49
511.30	5146.84
511.47	5205.35
511.64	5334.08
511.82	5057.90
511.99	5252.16
512.17	5266.21
512.34	5193.65
512.51	5245.14
512.69	5263.86
512.86	5289.61
513.04	5383.23
513.21	5458.13
513.38	5582.18
513.56	5392.59
513.73	5540.05
513.90	5556.43
514.08	5383.23
514.25	5376.21
514.43	5563.45
514.60	5338.76
514.77	5291.95
514.95	5502.60
515.12	5600.90
515.29	5394.93
515.47	5619.63
515.64	5411.32
515.81	5497.92
515.99	5504.94
516.16	5603.24
516.33	5633.67
516.51	5526.00
516.68	5572.82
516.85	5528.35
517.03	5792.83
517.20	5650.05
517.37	5753.04
517.54	5675.80
517.72	5551.75
517.89	5671.12
518.06	5490.90
518.24	5746.02
518.41	5802.19
518.58	5680.48
518.75	5657.07
518.93	5881.77
519.10	5799.85
519.27	5671.12
519.45	5921.56
519.62	5830.27
519.79	5738.99
519.96	5905.17
520.14	5902.83
520.31	5818.57
520.48	5823.25
520.65	5891.13
520.83	6015.18
521.00	5923.90
521.17	5865.38
521.34	6043.26
521.52	5834.96
521.69	5898.15
521.86	5980.07
522.03	6204.76
522.20	6136.88
522.38	6045.60
522.55	6038.58
522.72	6033.90
522.89	5977.73
523.07	6328.81
523.24	6090.07
523.41	6033.90
523.58	5998.79
523.75	6043.26
523.92	6099.44
524.10	6090.07
524.27	6134.54
524.44	6076.03
524.61	6148.59
524.78	6183.70
524.96	6265.61
525.13	6223.48
525.30	6256.25
525.47	6237.53
525.64	6258.59
525.81	6242.21
525.98	6312.42
526.16	6221.14
526.33	6284.34
526.50	6235.19
526.67	6209.44
526.84	6246.89
527.01	6188.38
527.18	6422.43
527.36	6324.13
527.53	6296.04
527.70	6471.58
527.87	6326.47
528.04	6590.95
528.21	6349.87
528.38	6352.21
528.55	6429.45
528.72	6597.97
528.89	6494.99
529.07	6462.22
529.24	6537.12
529.41	6565.20
529.58	6569.88
529.75	6548.82
529.92	6530.09
530.09	6438.81
530.26	6445.84
530.43	6553.50
530.60	6431.79
530.77	6410.73
530.94	6572.22
531.11	6422.43
531.28	6544.14
531.46	6520.73
531.63	6658.82
531.80	6670.53
531.97	6635.42
532.14	6630.74
532.31	6658.82
532.48	6558.18
532.65	6607.33
532.82	6635.42
532.99	6626.06
533.16	6712.66
533.33	6890.54
533.50	6705.63
533.67	6715.00
533.84	6892.88
534.01	6918.62
534.18	6623.72
534.35	6722.02
534.52	6698.61
534.69	6913.94
534.86	6782.87
535.03	6832.02
535.20	6832.02
535.37	6752.45
535.54	6747.76
535.71	6759.47
535.88	6825.00
536.05	6822.66
536.22	6813.30
536.38	6949.05
536.55	6967.77
536.72	6974.80
536.89	6878.83
537.06	6949.05
537.23	6801.60
537.40	6918.62
537.57	7019.27
537.74	6988.84
537.91	7012.24
538.08	7030.97
538.25	7215.87
538.42	7199.49
538.59	7192.47
538.75	6909.26
538.92	7133.95
539.09	7035.65
539.26	7136.29
539.43	7133.95
539.60	6984.16
539.77	7363.33
539.94	7236.94
540.11	7119.91
540.28	7197.15
540.44	7215.87
540.61	7400.77
540.78	7372.69
540.95	7506.10
541.12	7672.28
541.29	7714.41
541.46	7810.37
541.62	7896.97
541.79	7911.01
541.96	7686.32
542.13	7740.15
542.30	7740.15
542.47	7782.28
542.63	7845.48
542.80	7796.32
542.97	7721.43
543.14	7756.54
543.31	7782.28
543.48	7564.61
543.64	7831.43
543.81	7779.94
543.98	7892.29
544.15	7955.48
544.32	7770.58
544.48	7939.10
544.65	7878.24
544.82	7911.01
544.99	7740.15
545.16	7700.36
545.32	7859.52
545.49	8023.36
545.66	8922.12
545.83	9151.49
546.00	8975.95
546.16	8564.02
546.33	8201.24
546.50	7964.84
546.67	7513.12
546.83	7541.21
547.00	7822.07
547.17	7836.11
547.34	7758.88
547.50	7581.00
547.67	7566.95
547.84	7620.78
548.00	7782.28
548.17	7744.83
548.34	7639.51
548.51	7789.30
548.67	7712.07
548.84	7761.22
549.01	7653.55
549.18	7740.15
549.34	7616.10
549.51	7758.88
549.68	7700.36
549.84	7630.15
550.01	7623.12
550.18	7658.23
550.34	7822.07
550.51	7751.85
550.68	7812.71
550.84	7552.91
551.01	7796.32
551.18	7737.81
551.34	7564.61
551.51	7669.94
551.68	7618.44
551.84	7609.08
552.01	7578.65
552.18	7709.72
552.34	7562.27
552.51	7585.68
552.68	7730.79
552.84	7438.22
553.01	7772.92
553.18	7662.91
553.34	7698.02
553.51	7602.06
553.67	7609.08
553.84	7716.75
554.01	7698.02
554.17	7623.12
554.34	7686.32
554.51	7529.50
554.67	7754.19
554.84	7616.10
555.00	7581.00
555.17	7559.93
555.33	7812.71
555.50	7932.08
555.67	7583.34
555.83	7534.18
556.00	7597.38
556.16	7763.56
556.33	7836.11
556.50	7613.76
556.66	7756.54
556.83	7669.94
556.99	7660.57
557.16	7613.76
557.32	7871.22
557.49	7655.89
557.65	7506.10
557.82	7461.63
557.98	7667.60
558.15	7892.29
558.32	7679.30
558.48	7686.32
558.65	7786.96
558.81	7581.00
558.98	7775.26
559.14	7639.51
559.31	7644.19
559.47	7770.58
559.64	7861.86
559.80	7763.56
559.97	7721.43
560.13	7571.63
560.30	7815.05
560.46	7527.16
560.63	7770.58
560.79	7843.14
560.96	7786.96
561.12	7716.75
561.29	7744.83
561.45	7655.89
561.61	7852.50
561.78	7763.56
561.94	7906.33
562.11	7805.69
562.27	7831.43
562.44	7709.72
562.60	7658.23
562.77	7709.72
562.93	7721.43
563.10	7744.83
563.26	7726.11
563.42	8025.70
563.59	7772.92
563.75	7770.58
563.92	7824.41
564.08	7770.58
564.24	7765.90
564.41	7857.18
564.57	7786.96
564.74	7625.47
564.90	7915.69
565.07	7817.39
565.23	7864.20
565.39	7763.56
565.56	7777.60
565.72	7777.60
565.88	7880.58
566.05	7768.24
566.21	7796.32
566.38	7641.85
566.54	7779.94
566.70	7768.24
566.87	7887.61
567.03	7789.30
567.19	7925.05
567.36	7969.52
567.52	7826.75
567.68	7967.18
567.85	7831.43
568.01	7765.90
568.17	7779.94
568.34	7772.92
568.50	7932.08
568.66	7953.14
568.83	7822.07
568.99	7803.35
569.15	7899.31
569.32	7726.11
569.48	7927.39
569.64	7850.16
569.81	8023.36
569.97	8028.04
570.13	7995.27
570.30	7815.05
570.46	7779.94
570.62	7955.48
570.78	7801.01
570.95	7925.05
571.11	7953.14
571.27	7887.61
571.43	8013.99
571.60	7873.56
571.76	7875.90
571.92	8049.10
572.09	7894.63
572.25	7861.86
572.41	7960.16
572.57	7770.58
572.74	7920.37
572.90	7833.77
573.06	7756.54
573.22	7899.31
573.38	7995.27
573.55	7913.35
573.71	7793.98
573.87	7948.46
574.03	7847.82
574.20	7903.99
574.36	7798.66
574.52	7658.23
574.68	7543.55
574.84	7777.60
575.01	7908.67
575.17	7866.54
575.33	7674.62
575.49	7992.93
575.65	8051.44
575.82	8060.80
575.98	7901.65
576.14	7964.84
576.30	8072.51
576.46	8056.12
576.62	7887.61
576.79	8128.68
576.95	8028.04
577.11	7922.71
577.27	8011.65
577.43	7868.88
577.59	7826.75
577.75	8009.31
577.92	7960.16
578.08	7903.99
578.24	7882.92
578.40	7875.90
578.56	7962.50
578.72	8329.97
578.88	8304.22
579.04	8109.96
579.21	8065.49
579.37	8128.68
579.53	7843.14
579.69	7920.37
579.85	8023.36
580.01	8009.31
580.17	8067.83
580.33	8081.87
580.49	8049.10
580.65	8042.08
580.82	7955.48
580.98	7801.01
581.14	7929.74
581.30	8042.08
581.46	8072.51
581.62	8035.06
581.78	8044.42
581.94	8133.36
582.10	7829.09
582.26	8112.30
582.42	8091.23
582.58	8168.47
582.74	8255.07
582.90	8219.96
583.06	8175.49
583.22	8131.02
583.38	7971.86
583.54	8119.32
583.70	7992.93
583.86	8105.28
584.02	8009.31
584.18	8184.85
584.34	8060.80
584.50	8149.75
584.66	8072.51
584.82	7957.82
584.98	8154.43
585.14	8177.83
585.30	8102.93
585.46	8173.15
585.62	7955.48
585.78	8180.17
585.94	7880.58
586.10	8063.15
586.26	8175.49
586.42	8102.93
586.58	8191.88
586.74	8358.05
586.90	8187.19
587.06	8121.66
587.22	8187.19
587.38	7995.27
587.54	8351.03
587.70	8269.11
587.86	8002.29
588.02	8105.28
588.18	7990.59
588.34	8058.46
588.49	8121.66
588.65	7903.99
588.81	8168.47
588.97	8039.74
589.13	8009.31
589.29	7925.05
589.45	8138.04
589.61	8126.34
589.77	8210.60
589.93	8079.53
590.08	8056.12
590.24	8259.75
590.40	8105.28
590.56	7934.42
590.72	8219.96
590.88	7812.71
591.04	8070.17
591.20	8025.70
591.35	8046.76
591.51	8060.80
591.67	8053.78
591.83	8088.89
591.99	8264.43
592.15	8138.04
592.31	8084.21
592.46	8063.15
592.62	8219.96
592.78	8051.44
592.94	8205.92
593.10	8138.04
593.26	8212.94
593.41	8105.28
593.57	8067.83
593.73	8215.28
593.89	8039.74
594.05	8205.92
594.20	8044.42
594.36	8109.96
594.52	7929.74
594.68	8044.42
594.84	8086.55
594.99	8053.78
595.15	8194.22
595.31	8107.62
595.47	8191.88
595.62	8149.75
595.78	7915.69
595.94	7934.42
596.10	8119.32
596.25	8116.98
596.41	8114.64
596.57	7896.97
596.73	8105.28
596.88	8013.99
597.04	8060.80
597.20	8161.45
597.36	8074.85
597.51	8100.59
597.67	7964.84
597.83	8079.53
597.99	8135.70
598.14	8159.11
598.30	8191.88
598.46	8177.83
598.61	8315.92
598.77	7969.52
598.93	8212.94
599.09	8124.00
599.24	8063.15
599.40	8107.62
599.56	8018.68
599.71	8187.19
599.87	8152.09
600.03	8131.02
600.18	8105.28
600.34	8102.93
600.50	8203.58
