SpectraSuite Data File
++++++++++++++++++++++++++++++++++++
Date: Fri Oct 04 11:39:17 GMT-05:00 2013
User: price-jones
Dark Spectrum Present: No
Reference Spectrum Present: No
Number of Sampled Component Spectra: 1
Spectrometers: USB2+H05261
Integration Time (usec): 100000 (USB2+H05261)
Spectra Averaged: 1 (USB2+H05261)
Boxcar Smoothing: 0 (USB2+H05261)
Correct for Electrical Dark: No (USB2+H05261)
Strobe/Lamp Enabled: No (USB2+H05261)
Correct for Detector Non-linearity: No (USB2+H05261)
Correct for Stray Light: No (USB2+H05261)
Number of Pixels in Processed Spectrum: 2048
>>>>>Begin Processed Spectral Data<<<<<
365.73	44.47
365.92	44.47
366.12	44.47
366.32	0.00
366.52	0.00
366.72	0.00
366.91	0.00
367.11	51.49
367.31	0.00
367.51	0.00
367.70	0.00
367.90	0.00
368.10	0.00
368.30	0.00
368.49	0.00
368.69	0.00
368.89	0.00
369.09	0.00
369.28	0.00
369.48	0.00
369.68	0.00
369.87	39.79
370.07	37.45
370.27	42.13
370.47	28.09
370.66	203.63
370.86	262.14
371.06	313.63
371.25	330.02
371.45	262.14
371.65	278.52
371.84	297.25
372.04	301.93
372.24	337.04
372.44	351.08
372.63	271.50
372.83	351.08
373.03	325.33
373.22	332.36
373.42	332.36
373.62	374.49
373.81	348.74
374.01	367.46
374.21	383.85
374.40	353.42
374.60	395.55
374.79	362.78
374.99	461.09
375.19	355.76
375.38	376.83
375.58	341.72
375.78	390.87
375.97	407.25
376.17	407.25
376.37	355.76
376.56	379.17
376.76	362.78
376.95	390.87
377.15	423.64
377.35	386.19
377.54	463.43
377.74	383.85
377.93	355.76
378.13	374.49
378.33	411.93
378.52	416.62
378.72	435.34
378.91	430.66
379.11	383.85
379.31	442.36
379.50	379.17
379.70	348.74
379.89	447.04
380.09	418.96
380.28	463.43
380.48	451.72
380.68	374.49
380.87	430.66
381.07	440.02
381.26	451.72
381.46	447.04
381.65	585.13
381.85	510.24
382.04	489.17
382.24	482.15
382.43	482.15
382.63	454.06
382.83	505.56
383.02	491.51
383.22	463.43
383.41	566.41
383.61	491.51
383.80	547.69
384.00	573.43
384.19	491.51
384.39	512.58
384.58	475.13
384.78	578.11
384.97	458.74
385.17	519.60
385.36	514.92
385.56	599.18
385.75	531.30
385.95	531.30
386.14	606.20
386.34	571.09
386.53	697.48
386.72	458.74
386.92	617.90
387.11	571.09
387.31	486.83
387.50	514.92
387.70	524.28
387.89	514.92
388.09	582.79
388.28	561.73
388.48	592.16
388.67	582.79
388.86	603.86
389.06	664.71
389.25	725.57
389.45	662.37
389.64	634.29
389.84	664.71
390.03	681.10
390.22	685.78
390.42	599.18
390.61	564.07
390.81	723.23
391.00	561.73
391.19	681.10
391.39	624.92
391.58	688.12
391.78	706.84
391.97	685.78
392.16	655.35
392.36	681.10
392.55	823.87
392.75	809.83
392.94	664.71
393.13	713.86
393.33	681.10
393.52	723.23
393.71	791.10
393.91	734.93
394.10	774.72
394.29	748.97
394.49	678.76
394.68	781.74
394.88	842.59
395.07	851.96
395.26	777.06
395.46	873.02
395.65	880.04
395.84	851.96
396.04	851.96
396.23	873.02
396.42	814.51
396.62	922.17
396.81	868.34
397.00	863.66
397.19	891.74
397.39	863.66
397.58	903.45
397.77	884.72
397.97	896.43
398.16	901.11
398.35	973.66
398.55	954.94
398.74	929.19
398.93	973.66
399.12	1013.45
399.32	940.90
399.51	987.71
399.70	1008.77
399.90	983.02
400.09	1060.26
400.28	1027.50
400.47	1013.45
400.67	1158.57
400.86	987.71
401.05	1095.37
401.24	1053.24
401.44	1158.57
401.63	1128.14
401.82	1167.93
402.01	1130.48
402.21	1184.31
402.40	1200.69
402.59	1088.35
402.78	1142.18
402.97	1165.59
403.17	1196.01
403.36	1249.85
403.55	1177.29
403.74	1261.55
403.93	1256.87
404.13	1275.59
404.32	1338.79
404.51	1284.95
404.70	1355.17
404.89	1313.04
405.09	1432.41
405.28	1270.91
405.47	1308.36
405.66	1362.19
405.85	1366.87
406.05	1472.20
406.24	1411.34
406.43	1359.85
406.62	1535.39
406.81	1511.99
407.00	1420.71
407.20	1432.41
407.39	1500.28
407.58	1467.52
407.77	1526.03
407.96	1488.58
408.15	1483.90
408.34	1481.56
408.54	1523.69
408.73	1577.52
408.92	1591.56
409.11	1650.08
409.30	1645.40
409.49	1673.48
409.68	1596.25
409.87	1715.61
410.07	1654.76
410.26	1774.13
410.45	1619.65
410.64	1818.60
410.83	1699.23
411.02	1774.13
411.21	1834.98
411.40	1858.39
411.59	1863.07
411.78	1879.45
411.98	1900.52
412.17	1825.62
412.36	1870.09
412.55	1984.77
412.74	1977.75
412.93	2113.50
413.12	2003.50
413.31	2146.27
413.50	2090.10
413.69	2033.93
413.88	2134.57
414.07	2057.33
414.26	2218.83
414.45	2148.61
414.64	2139.25
414.83	2305.43
415.02	2289.04
415.22	2253.94
415.41	2396.71
415.60	2310.11
415.79	2328.83
415.98	2340.54
416.17	2417.77
416.36	2438.84
416.55	2403.73
416.74	2558.21
416.93	2476.29
417.12	2539.48
417.31	2509.05
417.50	2516.08
417.69	2708.00
417.88	2609.70
418.07	2583.95
418.26	2520.76
418.45	2593.31
418.64	2820.35
418.83	2750.13
419.02	2789.92
419.21	2700.98
419.39	2686.94
419.58	2597.99
419.77	2623.74
419.96	2712.68
420.15	2829.71
420.34	2757.15
420.53	2935.03
420.72	2904.60
420.91	2918.65
421.10	2801.62
421.29	2991.20
421.48	2867.16
421.67	2904.60
421.86	3042.70
422.05	2906.95
422.24	2935.03
422.43	3009.93
422.61	2885.88
422.80	3030.99
422.99	3042.70
423.18	3145.68
423.37	3007.59
423.56	3075.46
423.75	3094.19
423.94	3009.93
424.13	2920.99
424.32	2977.16
424.50	3073.12
424.69	3080.14
424.88	3141.00
425.07	3117.59
425.26	3094.19
425.45	3068.44
425.64	3173.77
425.83	3243.98
426.01	3009.93
426.20	3126.96
426.39	3197.17
426.58	3239.30
426.77	3136.32
426.96	3204.19
427.15	3220.58
427.33	3229.94
427.52	3206.53
427.71	3187.81
427.90	3262.71
428.09	3236.96
428.28	3365.69
428.46	3353.99
428.65	3321.22
428.84	3487.40
429.03	3461.65
429.22	3272.07
429.40	3520.17
429.59	3463.99
429.78	3361.01
429.97	3302.50
430.16	3435.91
430.34	3468.67
430.53	3641.87
430.72	3438.25
430.91	3475.70
431.10	3492.08
431.28	3653.58
431.47	3616.13
431.66	3630.17
431.85	3463.99
432.03	3833.80
432.22	3943.80
432.41	3744.86
432.60	3805.71
432.79	3637.19
432.97	3618.47
433.16	3810.39
433.35	3761.24
433.54	3808.05
433.72	3770.60
433.91	3805.71
434.10	3864.22
434.28	3908.69
434.47	3953.16
434.66	3981.25
434.85	3915.72
435.03	4007.00
435.22	4222.33
435.41	4404.89
435.59	4461.06
435.78	4222.33
435.97	4311.27
436.16	4056.15
436.34	4028.06
436.53	4121.68
436.72	4327.65
436.90	4105.30
437.09	4201.26
437.28	4030.40
437.46	4203.60
437.65	4180.20
437.84	4217.65
438.02	4177.86
438.21	4285.52
438.40	4147.43
438.58	4388.50
438.77	4430.63
438.96	4444.68
439.14	4456.38
439.33	4535.96
439.52	4533.62
439.70	4594.47
439.89	4713.84
440.08	4617.88
440.26	4706.82
440.45	4643.62
440.63	4669.37
440.82	4741.93
441.01	4910.44
441.19	4903.42
441.38	4978.32
441.57	4910.44
441.75	4898.74
441.94	5085.98
442.12	4933.85
442.31	5039.17
442.50	5135.14
442.68	5116.41
442.87	5132.79
443.05	5193.65
443.24	5200.67
443.43	5228.76
443.61	5107.05
443.80	5193.65
443.98	5032.15
444.17	4938.53
444.35	5310.68
444.54	5198.33
444.73	5289.61
444.91	5362.17
445.10	5336.42
445.28	5256.84
445.47	5191.31
445.65	5207.69
445.84	5352.81
446.02	5366.85
446.21	5231.10
446.39	5252.16
446.58	5301.31
446.77	5406.64
446.95	5425.36
447.14	5437.06
447.32	5509.62
447.51	5263.86
447.69	5336.42
447.88	5383.23
448.06	5416.00
448.25	5474.51
448.43	5383.23
448.62	5355.15
448.80	5416.00
448.99	5430.04
449.17	5593.88
449.36	5575.16
449.54	5633.67
449.73	5640.69
449.91	5661.76
450.10	5540.05
450.28	5650.05
450.46	5757.72
450.65	5778.78
450.83	5764.74
451.02	5659.42
451.20	5748.36
451.39	5783.46
451.57	5790.49
451.76	5788.14
451.94	5900.49
452.13	5867.72
452.31	5830.27
452.49	5792.83
452.68	5856.02
452.86	5944.96
453.05	6136.88
453.23	6087.73
453.42	5870.06
453.60	5956.66
453.78	5973.05
453.97	5844.32
454.15	5914.53
454.34	6052.63
454.52	6050.28
454.70	6171.99
454.89	6148.59
455.07	6195.40
455.26	6305.40
455.44	6242.21
455.62	6296.04
455.81	6373.28
455.99	6321.79
456.17	6314.77
456.36	6471.58
456.54	6466.90
456.73	6473.92
456.91	6684.57
457.09	6656.48
457.28	6560.52
457.46	6537.12
457.64	6607.33
457.83	6593.29
458.01	6595.63
458.19	6698.61
458.38	6684.57
458.56	6686.91
458.74	6792.23
458.93	6927.99
459.11	6733.72
459.29	6768.83
459.48	6750.10
459.66	6796.92
459.84	6960.75
460.03	7180.76
460.21	6956.07
460.39	7049.69
460.57	6892.88
460.76	7068.42
460.94	6998.20
461.12	7037.99
461.31	7129.27
461.49	6984.16
461.67	7021.61
461.85	7206.51
462.04	7049.69
462.22	7550.57
462.40	7265.02
462.59	7236.94
462.77	7447.58
462.95	7501.42
463.13	7330.56
463.32	7531.84
463.50	7323.54
463.68	7543.55
463.86	7405.46
464.05	7356.30
464.23	7618.44
464.41	7522.48
464.59	7342.26
464.78	7700.36
464.96	7578.65
465.14	7452.27
465.32	7616.10
465.50	7482.69
465.69	7723.77
465.87	7644.19
466.05	7604.40
466.23	7573.97
466.41	7639.51
466.60	7920.37
466.78	7620.78
466.96	7557.59
467.14	7597.38
467.32	7669.94
467.51	7805.69
467.69	7576.31
467.87	8091.23
468.05	7941.44
468.23	7733.13
468.41	7896.97
468.60	7922.71
468.78	7889.95
468.96	7983.57
469.14	8074.85
469.32	8198.90
469.50	7948.46
469.69	8191.88
469.87	8400.18
470.05	8327.63
470.23	8142.72
470.41	8374.44
470.59	8414.23
470.77	8264.43
470.95	8334.65
471.14	8589.77
471.32	8173.15
471.50	8823.82
471.68	8631.90
471.86	8737.22
472.04	8631.90
472.22	8795.73
472.40	8643.60
472.58	8924.46
472.77	8734.88
472.95	8929.14
473.13	9060.21
473.31	8762.97
473.49	8716.16
473.67	8933.82
473.85	8966.59
474.03	9205.33
474.21	9268.52
474.39	9254.48
474.57	9348.10
474.75	9320.01
474.93	9415.98
475.12	9247.46
475.30	9448.74
475.48	9352.78
475.66	9444.06
475.84	9839.61
476.02	9715.56
476.20	9701.52
476.38	9811.53
476.56	10015.15
476.74	9954.30
476.92	9844.29
477.10	10001.11
477.28	10190.69
477.46	9951.96
477.64	10333.47
477.82	10396.66
478.00	10509.01
478.18	10764.12
478.36	10476.24
478.54	10600.29
478.72	10768.80
478.90	10729.02
479.08	11012.22
479.26	10991.16
479.44	11154.99
479.62	11131.59
479.80	11108.18
479.98	11281.38
480.16	11293.08
480.34	11335.21
480.52	11513.10
480.70	11875.88
480.88	11758.85
481.06	11967.16
481.24	11772.89
481.41	11899.28
481.59	11779.92
481.77	12271.43
481.95	12292.49
482.13	12566.34
482.31	12493.78
482.49	12702.09
482.67	12748.90
482.85	12760.60
483.03	13032.10
483.21	13247.43
483.39	13011.04
483.57	13287.22
483.74	13233.39
483.92	13514.25
484.10	13329.35
484.28	13642.98
484.46	13776.39
484.64	14012.79
484.82	13767.03
485.00	13886.40
485.18	14190.67
485.35	14441.11
485.53	13961.30
485.71	14471.53
485.89	14822.61
486.07	14637.71
486.25	14480.89
486.43	14869.42
486.61	14946.66
486.78	15246.25
486.96	15374.98
487.14	15489.67
487.32	15611.37
487.50	15302.42
487.68	15775.21
487.85	15714.36
488.03	16098.20
488.21	16240.98
488.39	16369.71
488.57	16596.74
488.75	16512.48
488.92	16844.84
489.10	16762.92
489.28	16762.92
489.46	17184.21
489.64	16847.18
489.81	17387.84
489.99	17221.66
490.17	17263.79
490.35	17535.29
490.53	17605.51
490.70	17998.72
490.88	17914.46
491.06	17994.04
491.24	17907.44
491.41	17972.97
491.59	17994.04
491.77	18438.74
491.95	18899.83
492.13	18696.20
492.30	19063.66
492.48	18918.55
492.66	18803.86
492.84	18902.17
493.01	19232.18
493.19	19658.16
493.37	19147.92
493.54	19641.78
493.72	19627.73
493.90	19630.07
494.08	20074.77
494.25	20175.42
494.43	20119.24
494.61	20247.97
494.79	20449.26
494.96	20271.38
495.14	20692.68
495.32	20893.96
495.49	20695.02
495.67	20893.96
495.85	20945.45
496.02	21322.28
496.20	21436.97
496.38	21399.52
496.55	21298.88
496.73	21654.64
496.91	21556.33
497.09	22066.57
497.26	21898.05
497.44	21951.88
497.62	22312.33
497.79	22335.73
497.97	22522.98
498.14	22822.56
498.32	22672.77
498.50	22775.75
498.67	23042.57
498.85	23145.56
499.03	22963.00
499.20	22972.36
499.38	23150.24
499.56	23143.22
499.73	23365.57
499.91	23676.86
500.08	23477.91
500.26	23339.82
500.44	23576.22
500.61	23768.14
500.79	23903.89
500.97	23552.81
501.14	24208.16
501.32	24243.27
501.49	23981.13
501.67	24194.12
501.84	24491.37
502.02	24453.92
502.20	24489.03
502.37	24936.07
502.55	24907.98
502.72	25102.25
502.90	25006.28
503.07	24985.22
503.25	24947.77
503.43	25022.67
503.60	25401.83
503.78	25469.71
503.95	25326.94
504.13	25436.94
504.30	25490.77
504.48	25413.54
504.65	25769.30
504.83	25823.13
505.01	25900.37
505.18	26129.74
505.36	26036.12
505.53	26160.17
505.71	25947.18
505.88	26384.86
506.06	26115.70
506.23	26628.27
506.41	26370.82
506.58	26775.73
506.76	26665.72
506.93	26731.26
507.11	27042.55
507.28	26897.44
507.46	27096.38
507.63	26984.04
507.81	27056.59
507.98	27285.97
508.16	27012.12
508.33	27442.78
508.50	27143.19
508.68	27182.98
508.85	27395.97
509.03	27475.55
509.20	27796.20
509.38	28175.37
509.55	28032.60
509.73	28004.51
509.90	28568.58
510.08	28093.45
510.25	28381.34
510.42	28797.95
510.60	28723.05
510.77	28545.17
510.95	29142.01
511.12	28659.86
511.30	28601.35
511.47	29191.16
511.64	28996.90
511.82	29191.16
511.99	29331.59
512.17	29207.55
512.34	29050.73
512.51	29268.40
512.69	29502.45
512.86	29722.46
513.04	29642.88
513.21	29516.50
513.38	29778.64
513.56	29635.86
513.73	30089.93
513.90	29680.33
514.08	29862.90
514.25	30256.11
514.43	30228.02
514.60	30438.67
514.77	30441.01
514.95	30562.72
515.12	30698.47
515.29	30518.25
515.47	30714.85
515.64	30609.53
515.81	30501.86
515.99	31246.15
516.16	30864.64
516.33	31208.70
516.51	31276.58
516.68	30883.37
516.85	31344.45
517.03	31007.42
517.20	31365.52
517.37	31463.82
517.54	31470.84
517.72	31426.37
517.89	31824.26
518.06	31763.41
518.24	31419.35
518.41	31686.17
518.58	31936.61
518.75	32184.71
518.93	32285.35
519.10	31960.02
519.27	32334.50
519.45	32114.49
519.62	31955.33
519.79	32247.90
519.96	32290.03
520.14	33158.37
520.31	32556.85
520.48	32687.92
520.65	32556.85
520.83	32694.94
521.00	33291.78
521.17	32917.29
521.34	33057.73
521.52	33013.26
521.69	33090.49
521.86	33385.40
522.03	33626.48
522.20	33631.16
522.38	33731.80
522.55	33598.39
522.72	33010.92
522.89	33633.50
523.07	34349.70
523.24	33993.94
523.41	33956.49
523.58	33628.82
523.75	34012.66
523.92	33752.87
524.10	34050.11
524.27	33961.17
524.44	34113.31
524.61	34675.04
524.78	34899.73
524.96	34763.98
525.13	34539.29
525.30	34749.93
525.47	35035.48
525.64	34492.47
525.81	34845.90
525.98	34841.21
526.16	34796.74
526.33	34955.90
526.50	35243.79
526.67	34895.05
526.84	34843.56
527.01	35206.34
527.18	34902.07
527.36	35440.39
527.53	35857.01
527.70	35723.60
527.87	35681.47
528.04	35608.91
528.21	35393.58
528.38	35229.74
528.55	35945.95
528.72	36144.89
528.89	35995.10
529.07	36273.62
529.24	35819.56
529.41	36341.50
529.58	35873.39
529.75	35878.07
529.92	36053.61
530.09	36156.60
530.26	36222.13
530.43	36327.45
530.60	36205.75
530.77	36538.10
530.94	36659.81
531.11	36694.92
531.28	36425.76
531.46	36605.98
531.63	36500.65
531.80	36673.85
531.97	37053.02
532.14	37200.47
532.31	37132.60
532.48	36814.29
532.65	37134.94
532.82	36837.69
532.99	37282.39
533.16	37088.13
533.33	37471.98
533.50	37483.68
533.67	37511.77
533.84	37441.55
534.01	37256.65
534.18	37294.10
534.35	37846.46
534.52	37406.44
534.69	37581.98
534.86	37834.76
535.03	37394.74
535.20	38064.13
535.37	38061.79
535.54	38096.90
535.71	38057.11
535.88	38073.49
536.05	38103.92
536.22	38850.55
536.38	38286.48
536.55	38529.90
536.72	38419.89
536.89	38080.52
537.06	38621.18
537.23	38621.18
537.40	38319.25
537.57	38433.94
537.74	38525.22
537.91	38721.82
538.08	38836.51
538.25	38574.37
538.42	38918.43
538.59	38710.12
538.75	38696.08
538.92	39119.71
539.09	39227.38
539.26	39658.04
539.43	39274.19
539.60	39119.71
539.77	39283.55
539.94	39218.02
540.11	39707.19
540.28	39463.77
540.44	39494.20
540.61	39351.43
540.78	39840.60
540.95	39651.02
541.12	39931.88
541.29	39784.43
541.46	39611.23
541.62	39405.26
541.79	40032.52
541.96	39831.24
542.13	40004.44
542.30	39966.99
542.47	40744.05
542.63	40423.39
542.80	40715.96
542.97	40914.90
543.14	40634.04
543.31	40673.83
543.48	40947.67
543.64	40779.15
543.81	40989.80
543.98	40631.70
544.15	41031.93
544.32	41205.13
544.48	41361.95
544.65	40629.36
544.82	41186.41
544.99	40495.95
545.16	41280.03
545.32	40655.11
545.49	41710.69
545.66	42351.99
545.83	41776.22
546.00	42389.44
546.16	41778.56
546.33	41118.53
546.50	40737.02
546.67	41605.36
546.83	40802.56
547.00	41151.30
547.17	41223.86
547.34	41254.28
547.50	41680.26
547.67	41525.78
547.84	41790.27
548.00	41317.48
548.17	41586.64
548.34	41546.85
548.51	42307.52
548.67	41486.00
548.84	42040.70
549.01	41558.55
549.18	42244.33
549.34	41996.23
549.51	41698.98
549.68	41876.86
549.84	41989.21
550.01	41724.73
550.18	42033.68
550.34	41701.32
550.51	42253.69
550.68	42057.09
550.84	42253.69
551.01	42539.24
551.18	41806.65
551.34	41523.44
551.51	41867.50
551.68	42394.12
551.84	42625.84
552.01	42614.13
552.18	42263.05
552.34	42597.75
552.51	42326.25
552.68	42249.01
552.84	42164.75
553.01	42326.25
553.18	42951.17
553.34	42618.81
553.51	42459.66
553.67	42466.68
553.84	43210.97
554.01	42829.46
554.17	42501.79
554.34	42944.15
554.51	42263.05
554.67	43096.28
554.84	42567.32
555.00	42572.00
555.17	42939.47
555.33	43152.46
555.50	42983.94
555.67	42820.10
555.83	42752.23
556.00	42698.39
556.16	43466.09
556.33	42974.58
556.50	43480.13
556.66	43260.12
556.83	42831.80
556.99	43161.82
557.16	43501.20
557.32	43353.74
557.49	43508.22
557.65	42827.12
557.82	43255.44
557.98	43320.98
558.15	43269.48
558.32	43335.02
558.48	43468.43
558.65	43442.68
558.81	43629.93
558.98	43606.52
559.14	43735.25
559.31	43215.65
559.47	43473.11
559.64	43487.15
559.80	43901.43
559.97	43910.79
560.13	43702.48
560.30	43456.73
560.46	43775.04
560.63	43856.96
560.79	43611.20
560.96	44203.36
561.12	43718.87
561.29	43384.17
561.45	43316.29
561.61	43927.17
561.78	43957.60
561.94	43707.16
562.11	43945.90
562.27	43686.10
562.44	44172.93
562.60	43824.19
562.77	43611.20
562.93	44041.86
563.10	44161.23
563.26	43349.06
563.42	44437.41
563.59	44018.46
563.75	44275.91
563.92	43962.28
564.08	43819.51
564.24	44065.27
564.41	44018.46
564.57	43882.70
564.74	44034.84
564.90	44194.00
565.07	44287.62
565.23	44533.37
565.39	43828.87
565.56	44226.76
565.72	44158.89
565.88	44561.46
566.05	43896.75
566.21	44144.84
566.38	43978.67
566.54	44498.26
566.70	44615.29
566.87	44814.24
567.03	44350.81
567.19	45223.83
567.36	44617.63
567.52	44580.18
567.68	44725.30
567.85	44320.38
568.01	44500.61
568.17	44692.53
568.34	44788.49
568.50	44910.20
568.66	44582.52
568.83	44610.61
568.99	44699.55
569.15	44608.27
569.32	44648.06
569.48	44395.28
569.64	44626.99
569.81	44479.54
569.97	44488.90
570.13	44278.25
570.30	44975.73
570.46	45240.21
570.62	44516.99
570.78	44779.13
570.95	44460.82
571.11	44844.66
571.27	44765.09
571.43	44390.60
571.60	44734.66
571.76	44601.25
571.92	44669.12
572.09	45027.23
572.25	44959.35
572.41	44884.45
572.57	44875.09
572.74	44692.53
572.90	44870.41
573.06	45280.00
573.22	44643.38
573.38	44774.45
573.55	44928.92
573.71	45455.54
573.87	45378.31
574.03	45212.13
574.20	45076.38
574.36	45010.84
574.52	44697.21
574.68	44912.54
574.84	44631.68
575.01	45013.18
575.17	45010.84
575.33	44753.38
575.49	45038.93
575.65	45490.65
575.82	45457.88
575.98	45167.66
576.14	44872.75
576.30	45181.70
576.46	45057.65
576.62	44650.40
576.79	44994.46
576.95	45153.62
577.11	45088.08
577.27	45495.33
577.43	45228.51
577.59	45155.96
577.75	45495.33
577.92	45219.15
578.08	44772.11
578.24	44952.33
578.40	45305.75
578.56	44978.07
578.72	45223.83
578.88	45425.12
579.04	45455.54
579.21	45212.13
579.37	45284.68
579.53	45123.19
579.69	45160.64
579.85	45642.79
580.01	45280.00
580.17	44734.66
580.33	45268.30
580.49	45041.27
580.65	45001.48
580.82	45345.54
580.98	44835.30
581.14	45584.27
581.30	45219.15
581.46	44734.66
581.62	45539.80
581.78	44942.97
581.94	45254.26
582.10	45195.74
582.26	45406.39
582.42	45254.26
582.58	45497.67
582.74	45165.32
582.90	45198.09
583.06	45464.91
583.22	45378.31
583.38	45235.53
583.54	45488.31
583.70	45556.19
583.86	45375.97
584.02	45045.95
584.18	45507.04
584.34	45759.81
584.50	45902.59
584.66	45359.58
584.82	45488.31
584.98	45144.25
585.14	45116.17
585.30	44868.07
585.46	45439.16
585.62	44907.86
585.78	45722.37
585.94	45179.36
586.10	45310.43
586.26	45052.97
586.42	45979.82
586.58	45792.58
586.74	45979.82
586.90	45357.24
587.06	45624.06
587.22	45818.33
587.38	45656.83
587.54	45542.14
587.70	45310.43
587.86	45815.99
588.02	45617.04
588.18	45591.30
588.34	45441.50
588.49	45366.60
588.65	45488.31
588.81	45265.96
588.97	45380.65
589.13	45109.14
589.29	45764.49
589.45	45729.39
589.61	46059.40
589.77	45783.22
589.93	45759.81
590.08	45720.02
590.24	45787.90
590.40	46106.21
590.56	45928.33
590.72	45467.25
590.88	45455.54
