SpectraSuite Data File
++++++++++++++++++++++++++++++++++++
Date: Fri Oct 04 11:39:18 GMT-05:00 2013
User: price-jones
Dark Spectrum Present: No
Reference Spectrum Present: No
Number of Sampled Component Spectra: 1
Spectrometers: USB2+H05261
Integration Time (usec): 100000 (USB2+H05261)
Spectra Averaged: 1 (USB2+H05261)
Boxcar Smoothing: 0 (USB2+H05261)
Correct for Electrical Dark: No (USB2+H05261)
Strobe/Lamp Enabled: No (USB2+H05261)
Correct for Detector Non-linearity: No (USB2+H05261)
Correct for Stray Light: No (USB2+H05261)
Number of Pixels in Processed Spectrum: 2048
>>>>>Begin Processed Spectral Data<<<<<
365.73	53.83
365.92	53.83
366.12	53.83
366.32	0.00
366.52	0.00
366.72	0.00
366.91	0.00
367.11	0.00
367.31	0.00
367.51	0.00
367.70	0.00
367.90	0.00
368.10	0.00
368.30	0.00
368.49	0.00
368.69	0.00
368.89	4.68
369.09	0.00
369.28	0.00
369.48	4.68
369.68	0.00
369.87	0.00
370.07	0.00
370.27	60.85
370.47	135.75
370.66	210.65
370.86	229.37
371.06	266.82
371.25	304.27
371.45	313.63
371.65	234.05
371.84	320.65
372.04	231.71
372.24	313.63
372.44	290.23
372.63	301.93
372.83	402.57
373.03	332.36
373.22	360.44
373.42	327.68
373.62	320.65
373.81	393.21
374.01	451.72
374.21	372.15
374.40	418.96
374.60	353.42
374.79	365.12
374.99	442.36
375.19	362.78
375.38	390.87
375.58	376.83
375.78	402.57
375.97	521.94
376.17	451.72
376.37	388.53
376.56	369.80
376.76	372.15
376.95	369.80
377.15	341.72
377.35	414.27
377.54	360.44
377.74	463.43
377.93	425.98
378.13	330.02
378.33	449.38
378.52	346.40
378.72	454.06
378.91	411.93
379.11	451.72
379.31	423.64
379.50	418.96
379.70	440.02
379.89	500.87
380.09	458.74
380.28	435.34
380.48	510.24
380.68	468.11
380.87	447.04
381.07	444.70
381.26	477.47
381.46	491.51
381.65	456.40
381.85	496.19
382.04	458.74
382.24	447.04
382.43	507.90
382.63	538.32
382.83	479.81
383.02	592.16
383.22	547.69
383.41	589.82
383.61	475.13
383.80	531.30
384.00	531.30
384.19	524.28
384.39	561.73
384.58	491.51
384.78	526.62
384.97	512.58
385.17	482.15
385.36	559.39
385.56	543.00
385.75	482.15
385.95	538.32
386.14	540.66
386.34	559.39
386.53	650.67
386.72	596.84
386.92	657.69
387.11	741.95
387.31	596.84
387.50	575.77
387.70	575.77
387.89	554.71
388.09	573.43
388.28	613.22
388.48	641.31
388.67	559.39
388.86	629.60
389.06	690.46
389.25	667.05
389.45	699.82
389.64	613.22
389.84	706.84
390.03	713.86
390.22	695.14
390.42	683.44
390.61	730.25
390.81	601.52
391.00	683.44
391.19	760.67
391.39	657.69
391.58	692.80
391.78	755.99
391.97	718.54
392.16	716.20
392.36	774.72
392.55	734.93
392.75	638.97
392.94	667.05
393.13	681.10
393.33	711.52
393.52	763.01
393.71	777.06
393.91	809.83
394.10	788.76
394.29	734.93
394.49	793.44
394.68	772.38
394.88	798.12
395.07	755.99
395.26	786.42
395.46	777.06
395.65	936.21
395.84	880.04
396.04	945.58
396.23	802.80
396.42	882.38
396.62	873.02
396.81	891.74
397.00	936.21
397.19	910.47
397.39	1004.09
397.58	985.37
397.77	896.43
397.97	903.45
398.16	873.02
398.35	1095.37
398.55	954.94
398.74	1032.18
398.93	1074.31
399.12	880.04
399.32	903.45
399.51	1008.77
399.70	1069.62
399.90	1006.43
400.09	1015.79
400.28	1111.75
400.47	1137.50
400.67	1116.44
400.86	1090.69
401.05	1081.33
401.24	1196.01
401.44	1268.57
401.63	1107.07
401.82	1081.33
402.01	1118.78
402.21	1128.14
402.40	1207.72
402.59	1181.97
402.78	1191.33
402.97	1123.46
403.17	1170.27
403.36	1240.48
403.55	1228.78
403.74	1228.78
403.93	1303.68
404.13	1252.19
404.32	1291.98
404.51	1336.45
404.70	1366.87
404.89	1289.64
405.09	1238.14
405.28	1418.36
405.47	1277.93
405.66	1399.64
405.85	1392.62
406.05	1385.60
406.24	1446.45
406.43	1472.20
406.62	1467.52
406.81	1526.03
407.00	1448.79
407.20	1441.77
407.39	1448.79
407.58	1444.11
407.77	1460.49
407.96	1497.94
408.15	1490.92
408.34	1551.78
408.54	1598.59
408.73	1586.88
408.92	1617.31
409.11	1703.91
409.30	1724.97
409.49	1661.78
409.68	1631.35
409.87	1666.46
410.07	1753.06
410.26	1739.02
410.45	1713.27
410.64	1720.29
410.83	1755.40
411.02	1849.02
411.21	1856.04
411.40	1907.54
411.59	1830.30
411.78	1863.07
411.98	1820.94
412.17	1942.64
412.36	1877.11
412.55	1959.03
412.74	2001.16
412.93	1984.77
413.12	2069.03
413.31	2136.91
413.50	2057.33
413.69	2214.15
413.88	2200.10
414.07	2214.15
414.26	2270.32
414.45	2160.31
414.64	2242.23
414.83	2188.40
415.02	2270.32
415.22	2260.96
415.41	2347.56
415.60	2228.19
415.79	2260.96
415.98	2413.09
416.17	2413.09
416.36	2354.58
416.55	2448.20
416.74	2473.95
416.93	2506.71
417.12	2497.35
417.31	2595.65
417.50	2499.69
417.69	2703.32
417.88	2616.72
418.07	2719.70
418.26	2607.36
418.45	2726.72
418.64	2693.96
418.83	2644.81
419.02	2612.04
419.21	2647.15
419.39	2841.41
419.58	2637.78
419.77	2850.77
419.96	2832.05
420.15	2923.33
420.34	2801.62
420.53	2855.45
420.72	2942.05
420.91	2991.20
421.10	2895.24
421.29	2970.14
421.48	2970.14
421.67	2991.20
421.86	2998.23
422.05	2946.73
422.24	3000.57
422.43	3136.32
422.61	3077.80
422.80	3040.36
422.99	3155.04
423.18	3082.49
423.37	3117.59
423.56	3122.27
423.75	3035.67
423.94	3005.25
424.13	2874.18
424.32	2963.12
424.50	3054.40
424.69	3351.65
424.88	3201.85
425.07	2986.52
425.26	3115.25
425.45	2965.46
425.64	3002.91
425.83	3141.00
426.01	3236.96
426.20	3126.96
426.39	3101.21
426.58	3077.80
426.77	3108.23
426.96	3180.79
427.15	3241.64
427.33	3213.56
427.52	3262.71
427.71	3300.16
427.90	3316.54
428.09	3370.37
428.28	3283.77
428.46	3293.13
428.65	3426.54
428.84	3412.50
429.03	3496.76
429.22	3332.92
429.40	3480.38
429.59	3517.83
429.78	3386.76
429.97	3227.60
430.16	3538.89
430.34	3557.61
430.53	3578.68
430.72	3524.85
430.91	3468.67
431.10	3616.13
431.28	3754.22
431.47	3808.05
431.66	3639.53
431.85	3620.81
432.03	3644.21
432.22	3896.99
432.41	3808.05
432.60	3857.20
432.79	3798.69
432.97	3679.32
433.16	3904.01
433.35	3845.50
433.54	3887.63
433.72	3894.65
433.91	3882.95
434.10	3798.69
434.28	3964.87
434.47	3859.54
434.66	4018.70
434.85	4021.04
435.03	4135.73
435.22	4159.13
435.41	4390.84
435.59	4280.84
435.78	4229.35
435.97	4191.90
436.16	4128.70
436.34	4028.06
436.53	4229.35
436.72	4269.14
436.90	4009.34
437.09	4262.12
437.28	4142.75
437.46	4142.75
437.65	4456.38
437.84	4236.37
438.02	4196.58
438.21	4245.73
438.40	4353.40
438.58	4545.32
438.77	4458.72
438.96	4379.14
439.14	4507.87
439.33	4507.87
439.52	4451.70
439.70	4566.39
439.89	4660.01
440.08	4711.50
440.26	4732.56
440.45	4748.95
440.63	4681.07
440.82	4793.42
441.01	4840.23
441.19	4985.34
441.38	4990.02
441.57	5036.83
441.75	4943.21
441.94	5081.30
442.12	5151.52
442.31	5130.45
442.50	4990.02
442.68	5142.16
442.87	5116.41
443.05	5083.64
443.24	5291.95
443.43	5081.30
443.61	5238.12
443.80	5467.49
443.98	5165.56
444.17	5111.73
444.35	5268.55
444.54	5345.78
444.73	5343.44
444.91	5280.25
445.10	5334.08
445.28	5249.82
445.47	5291.95
445.65	5231.10
445.84	5249.82
446.02	5472.17
446.21	5186.63
446.39	5298.97
446.58	5387.91
446.77	5418.34
446.95	5331.74
447.14	5334.08
447.32	5341.10
447.51	5472.17
447.69	5493.24
447.88	5497.92
448.06	5509.62
448.25	5310.68
448.43	5387.91
448.62	5427.70
448.80	5373.87
448.99	5495.58
449.17	5518.98
449.36	5394.93
449.54	5692.18
449.73	5671.12
449.91	5596.22
450.10	5610.26
450.28	5628.99
450.46	5860.70
450.65	5778.78
450.83	5736.65
451.02	5818.57
451.20	5921.56
451.39	5956.66
451.57	5757.72
451.76	5757.72
451.94	5951.98
452.13	5933.26
452.31	5900.49
452.49	5764.74
452.68	5888.79
452.86	5900.49
453.05	6012.84
453.23	5973.05
453.42	5947.30
453.60	6080.71
453.78	6012.84
453.97	6066.67
454.15	6115.82
454.34	6057.31
454.52	6246.89
454.70	6183.70
454.89	6162.63
455.07	6235.19
455.26	6076.03
455.44	6359.24
455.62	6375.62
455.81	6267.95
455.99	6464.56
456.17	6466.90
456.36	6279.66
456.54	6541.80
456.73	6527.75
456.91	6654.14
457.09	6612.01
457.28	6700.95
457.46	6511.37
457.64	6700.95
457.83	6560.52
458.01	6583.93
458.19	6773.51
458.38	6757.13
458.56	6897.56
458.74	6836.70
458.93	6843.73
459.11	6855.43
459.29	6839.05
459.48	6792.23
459.66	6855.43
459.84	6869.47
460.03	6979.48
460.21	6967.77
460.39	7023.95
460.57	6988.84
460.76	6867.13
460.94	7077.78
461.12	7019.27
461.31	7213.53
461.49	7110.55
461.67	7016.93
461.85	7351.62
462.04	7157.36
462.22	7655.89
462.40	7421.84
462.59	7363.33
462.77	7201.83
462.95	7332.90
463.13	7337.58
463.32	7351.62
463.50	7496.74
463.68	7541.21
463.86	7585.68
464.05	7410.14
464.23	7480.35
464.41	7536.52
464.59	7466.31
464.78	7545.89
464.96	7583.34
465.14	7602.06
465.32	7669.94
465.50	7667.60
465.69	7796.32
465.87	7658.23
466.05	7606.74
466.23	7648.87
466.41	7812.71
466.60	7882.92
466.78	7681.64
466.96	7611.42
467.14	7637.17
467.32	7768.24
467.51	7999.95
467.69	7882.92
467.87	7810.37
468.05	8032.72
468.23	7700.36
468.41	7854.84
468.60	7995.27
468.78	8234.00
468.96	7946.12
469.14	8121.66
469.32	8072.51
469.50	8095.91
469.69	8404.86
469.87	8229.32
470.05	8226.98
470.23	8271.45
470.41	8212.94
470.59	8606.15
470.77	8430.61
470.95	8631.90
471.14	8713.81
471.32	8334.65
471.50	8622.53
471.68	8390.82
471.86	8472.74
472.04	8648.28
472.22	8758.28
472.40	8648.28
472.58	8791.05
472.77	8830.84
472.95	8938.51
473.13	9100.00
473.31	8940.85
473.49	8999.36
473.67	8992.34
473.85	9076.60
474.03	9385.55
474.21	9109.36
474.39	9453.42
474.57	9462.79
474.75	9605.56
474.93	9455.76
475.12	9259.16
475.30	9650.03
475.48	9383.21
475.66	9664.07
475.84	9432.36
476.02	9647.69
476.20	9816.21
476.38	9832.59
476.56	10094.73
476.74	10164.95
476.92	9942.60
477.10	10026.86
477.28	10305.38
477.46	10071.33
477.64	10420.06
477.82	10459.85
478.00	10611.99
478.18	10726.68
478.36	10506.66
478.54	10689.23
478.72	10832.00
478.90	10864.77
479.08	11197.12
479.26	11166.70
479.44	11159.67
479.62	11449.90
479.80	11358.62
479.98	11318.83
480.16	11592.67
480.34	11723.74
480.52	11379.68
480.70	11606.72
480.88	11648.85
481.06	11733.11
481.24	11847.79
481.41	12002.27
481.59	12292.49
481.77	12360.37
481.95	12496.12
482.13	12514.84
482.31	12269.09
482.49	12542.93
482.67	12446.97
482.85	12751.24
483.03	13212.32
483.21	13151.47
483.39	13277.86
483.57	12917.42
483.74	13212.32
483.92	13144.45
484.10	13303.60
484.28	13500.21
484.46	13853.63
484.64	13937.89
484.82	13755.33
485.00	14087.68
485.18	14164.92
485.35	14464.51
485.53	14558.13
485.71	14448.13
485.89	14855.38
486.07	14480.89
486.25	14796.87
486.43	14890.49
486.61	15082.41
486.78	15232.21
486.96	15314.13
487.14	15353.91
487.32	15749.46
487.50	15609.03
487.68	15913.30
487.85	15992.88
488.03	15967.13
488.21	16145.02
488.39	16102.89
488.57	16411.84
488.75	16341.62
488.92	17095.27
489.10	16865.90
489.28	16933.78
489.46	17097.61
489.64	17275.49
489.81	17378.48
489.99	17408.90
490.17	17542.32
490.35	17640.62
490.53	17886.37
490.70	17862.97
490.88	17631.26
491.06	18134.47
491.24	18300.65
491.41	18359.16
491.59	18654.07
491.77	18602.58
491.95	18607.26
492.13	18899.83
492.30	18876.42
492.48	18941.96
492.66	19129.20
492.84	19190.05
493.01	19288.35
493.19	19456.87
493.37	19609.01
493.54	19662.84
493.72	19543.47
493.90	19796.25
494.08	19880.51
494.25	20058.39
494.43	20383.73
494.61	20524.16
494.79	20376.70
494.96	20336.91
495.14	20582.67
495.32	20727.78
495.49	20739.49
495.67	21209.93
495.85	21205.25
496.02	21280.15
496.20	21439.31
496.38	21628.89
496.55	21561.02
496.73	22127.42
496.91	21858.26
497.09	21788.05
497.26	22391.91
497.44	21741.24
497.62	22169.55
497.79	22246.79
497.97	22405.95
498.14	22644.68
498.32	22986.40
498.50	22944.27
498.67	22991.08
498.85	23061.30
499.03	23016.83
499.20	22897.46
499.38	22970.02
499.56	23709.63
499.73	23803.25
499.91	23723.67
500.08	23803.25
500.26	23522.38
500.44	23728.35
500.61	23597.28
500.79	23800.91
500.97	23728.35
501.14	24226.89
501.32	24512.43
501.49	24482.00
501.67	24374.34
501.84	24226.89
502.02	24367.32
502.20	24397.74
502.37	25064.80
502.55	24893.94
502.72	24549.88
502.90	24875.21
503.07	24889.26
503.25	24950.11
503.43	24966.49
503.60	25462.69
503.78	25614.82
503.95	25062.46
504.13	25450.99
504.30	25640.57
504.48	25568.01
504.65	25462.69
504.83	25535.24
505.01	26284.22
505.18	26188.25
505.36	26459.76
505.53	26228.04
505.71	26263.15
505.88	26171.87
506.06	26181.23
506.23	26700.83
506.41	26857.65
506.58	26801.47
506.76	26684.45
506.93	27007.44
507.11	26518.27
507.28	27115.11
507.46	27129.15
507.63	27707.26
507.81	27501.29
507.98	27323.41
508.16	27454.48
508.33	27840.67
508.50	27091.70
508.68	27611.30
508.85	27653.43
509.03	27861.74
509.20	28044.30
509.38	28304.10
509.55	28215.16
509.73	28088.77
509.90	27988.13
510.08	28613.05
510.25	28566.24
510.42	28500.70
510.60	28762.84
510.77	29123.29
510.95	28931.36
511.12	28804.97
511.30	28613.05
511.47	29184.14
511.64	29158.39
511.82	29266.06
511.99	29446.28
512.17	29656.93
512.34	29369.04
512.51	29474.37
512.69	29418.19
512.86	29872.26
513.04	29975.24
513.21	29865.24
513.38	30237.38
513.56	30185.89
513.73	30225.68
513.90	30265.47
514.08	30286.53
514.25	30183.55
514.43	30267.81
514.60	30368.45
514.77	30623.57
514.95	30307.60
515.12	30415.26
515.29	30525.27
515.47	30897.41
515.64	31225.09
515.81	30590.80
515.99	31070.61
516.16	31527.02
516.33	31269.56
516.51	31337.43
516.68	31225.09
516.85	30883.37
517.03	31445.10
517.20	31489.57
517.37	31824.26
517.54	31941.29
517.72	31798.52
517.89	31576.17
518.06	31620.64
518.24	31798.52
518.41	31906.18
518.58	32327.48
518.75	31819.58
518.93	32385.99
519.10	31653.40
519.27	32453.87
519.45	32212.79
519.62	32493.66
519.79	32584.94
519.96	32594.30
520.14	32809.63
520.31	32327.48
520.48	32692.60
520.65	32842.40
520.83	33493.07
521.00	33170.07
521.17	32844.74
521.34	33170.07
521.52	33343.27
521.69	33275.40
521.86	33507.11
522.03	33699.03
522.20	33675.63
522.38	33830.10
522.55	33998.62
522.72	33486.04
522.89	33472.00
523.07	33968.19
523.24	34071.18
523.41	33942.45
523.58	34003.30
523.75	34314.59
523.92	34101.61
524.10	34471.41
524.27	33993.94
524.44	34419.92
524.61	34642.27
524.78	34600.14
524.96	34637.59
525.13	34646.95
525.30	34829.51
525.47	34859.94
525.64	34518.22
525.81	35433.37
525.98	35295.28
526.16	35248.47
526.33	34682.06
526.50	35438.05
526.67	34895.05
526.84	35215.70
527.01	34675.04
527.18	35831.26
527.36	35424.01
527.53	36098.08
527.70	35770.41
527.87	35772.75
528.04	35461.46
528.21	36217.45
528.38	35936.59
528.55	36240.86
528.72	36383.63
528.89	36030.21
529.07	35892.12
529.24	35571.46
529.41	36517.04
529.58	35868.71
529.75	35922.54
529.92	36226.81
530.09	36257.24
530.26	36334.48
530.43	36397.67
530.60	36217.45
530.77	36453.84
530.94	36678.54
531.11	36477.25
531.28	37027.28
531.46	36872.80
531.63	36938.33
531.80	36982.80
531.97	37801.99
532.14	37359.63
532.31	36905.57
532.48	36989.83
532.65	37074.09
532.82	37139.62
532.99	37436.87
533.16	36797.90
533.33	37565.60
533.50	37624.11
533.67	37834.76
533.84	37333.89
534.01	37415.80
534.18	37275.37
534.35	37743.48
534.52	37504.74
534.69	38110.94
534.86	37961.15
535.03	38047.75
535.20	38106.26
535.37	38492.45
535.54	38291.16
535.71	37729.44
535.88	38132.01
536.05	38426.92
536.22	38494.79
536.38	38422.23
536.55	38340.32
536.72	38660.97
536.89	38345.00
537.06	38438.62
537.23	38373.08
537.40	38330.95
537.57	38326.27
537.74	38518.20
537.91	39023.75
538.08	38773.31
538.25	38827.15
538.42	39042.48
538.59	39180.57
538.75	38469.04
538.92	38665.65
539.09	38930.13
539.26	39098.65
539.43	39643.99
539.60	39531.65
539.77	39662.72
539.94	39526.97
540.11	39477.82
540.28	39761.02
540.44	40046.57
540.61	39342.06
540.78	39763.36
540.95	39950.60
541.12	40126.14
541.29	40137.85
541.46	40161.25
541.62	40219.77
541.79	40577.87
541.96	39505.90
542.13	39634.63
542.30	40266.58
542.47	40603.61
542.63	40713.62
542.80	40603.61
542.97	41123.21
543.14	41263.64
543.31	40879.80
543.48	40596.59
543.64	40849.37
543.81	41219.17
543.98	40985.12
544.15	41642.81
544.32	41584.30
544.48	41163.00
544.65	41034.27
544.82	40973.42
544.99	40772.13
545.16	41544.51
545.32	41017.89
545.49	42021.98
545.66	42068.79
545.83	41949.42
546.00	42202.20
546.16	41649.83
546.33	41401.74
546.50	41041.29
546.67	41752.82
546.83	41067.04
547.00	41455.57
547.17	41422.80
547.34	41474.29
547.50	41897.93
547.67	41909.63
547.84	41731.75
548.00	41638.13
548.17	41785.58
548.34	42014.96
548.51	41801.97
548.67	42038.36
548.84	42080.49
549.01	42050.06
549.18	42199.86
549.34	42082.83
549.51	41911.97
549.68	42099.22
549.84	41961.12
550.01	42183.48
550.18	42021.98
550.34	42204.54
550.51	42274.76
550.68	42265.39
550.84	42162.41
551.01	42321.57
551.18	41963.46
551.34	41991.55
551.51	42021.98
551.68	42518.17
551.84	42384.76
552.01	42539.24
552.18	42483.06
552.34	42232.63
552.51	42883.30
552.68	42263.05
552.84	42625.84
553.01	42726.48
553.18	42380.08
553.34	43021.39
553.51	42597.75
553.67	42995.64
553.84	43000.32
554.01	42904.36
554.17	42988.62
554.34	42916.06
554.51	42761.59
554.67	42836.48
554.84	43056.50
555.00	43103.31
555.17	42869.25
555.33	42836.48
555.50	42887.98
555.67	43697.80
555.83	42953.51
556.00	43576.09
556.16	43393.53
556.33	43215.65
556.50	43365.45
556.66	43271.82
556.83	42911.38
556.99	43627.59
557.16	43976.33
557.32	43988.03
557.49	43494.18
557.65	43517.58
557.82	43196.93
557.98	43484.81
558.15	43386.51
558.32	43632.27
558.48	43510.56
558.65	43250.76
558.81	43695.46
558.98	43597.16
559.14	43505.88
559.31	43508.22
559.47	43667.37
559.64	43772.70
559.80	43650.99
559.97	44107.40
560.13	43831.21
560.30	44676.15
560.46	44264.21
560.63	43962.28
560.79	43571.41
560.96	44198.68
561.12	44083.99
561.29	43606.52
561.45	43988.03
561.61	44098.03
561.78	44385.92
561.94	44318.04
562.11	43924.83
562.27	43945.90
562.44	43931.86
562.60	44369.54
562.77	44072.29
562.93	43906.11
563.10	44196.34
563.26	44032.50
563.42	44282.94
563.59	44697.21
563.75	44208.04
563.92	43978.67
564.08	44236.12
564.24	44072.29
564.41	44395.28
564.57	43622.90
564.74	44687.85
564.90	44114.42
565.07	44348.47
565.23	44783.81
565.39	44634.02
565.56	44355.49
565.72	44100.37
565.88	44540.39
566.05	44519.33
566.21	44048.88
566.38	44381.24
566.54	44823.60
566.70	44561.46
566.87	44879.77
567.03	44945.31
567.19	45022.54
567.36	44381.24
567.52	43990.37
567.68	44877.43
567.85	44451.45
568.01	44568.48
568.17	44247.83
568.34	44486.56
568.50	44832.96
568.66	44694.87
568.83	45081.06
568.99	44587.21
569.15	44587.21
569.32	44839.98
569.48	44247.83
569.64	44409.32
569.81	44591.89
569.97	44636.36
570.13	45090.42
570.30	44488.90
570.46	44793.17
570.62	44636.36
570.78	44938.29
570.95	44570.82
571.11	45160.64
571.27	44781.47
571.43	44619.97
571.60	44816.58
571.76	44680.83
571.92	44912.54
572.09	44971.05
572.25	44942.97
572.41	44748.70
572.57	45347.88
572.74	45085.74
572.90	44818.92
573.06	45111.49
573.22	45008.50
573.38	44910.20
573.55	44889.13
573.71	45359.58
573.87	45483.63
574.03	45043.61
574.20	45261.28
574.36	44987.44
574.52	44821.26
574.68	44924.24
574.84	45015.52
575.01	45462.57
575.17	45303.41
575.33	44942.97
575.49	45317.45
575.65	46082.81
575.82	45289.37
575.98	45256.60
576.14	45247.24
576.30	45088.08
576.46	45184.04
576.62	45331.50
576.79	45361.92
576.95	45083.40
577.11	45116.17
577.27	45921.31
577.43	45588.95
577.59	45350.22
577.75	45411.07
577.92	45219.15
578.08	45296.39
578.24	45354.90
578.40	44903.18
578.56	45216.81
578.72	45207.45
578.88	45879.18
579.04	45565.55
579.21	45539.80
579.37	45710.66
579.53	45696.62
579.69	45221.49
579.85	45574.91
580.01	45329.16
580.17	45052.97
580.33	45382.99
580.49	45132.55
580.65	45680.24
580.82	45446.18
580.98	45184.04
581.14	45453.20
581.30	45790.24
581.46	45382.99
581.62	45364.26
581.78	44940.63
581.94	45441.50
582.10	45492.99
582.26	45858.12
582.42	45488.31
582.58	45930.67
582.74	45663.85
582.90	45500.01
583.06	45329.16
583.22	45282.34
583.38	45525.76
583.54	45851.09
583.70	45474.27
583.86	45659.17
584.02	45366.60
584.18	45914.29
584.34	45918.97
584.50	45666.19
584.66	45525.76
584.82	45698.96
584.98	45563.21
585.14	45736.41
585.30	45258.94
585.46	45394.69
585.62	45476.61
585.78	45581.93
585.94	45263.62
586.10	45553.85
586.26	45516.40
586.42	45942.38
586.58	45949.40
586.74	45420.44
586.90	45289.37
587.06	45420.44
587.22	45935.35
587.38	45708.32
587.54	46099.19
587.70	46012.59
587.86	46326.22
588.02	46059.40
588.18	46330.90
588.34	45467.25
588.49	45874.50
588.65	45394.69
588.81	45549.17
588.97	46014.93
589.13	45727.05
589.29	45923.65
589.45	45823.01
589.61	45872.16
589.77	46230.26
589.93	45940.04
590.08	46213.88
590.24	46546.23
590.40	46089.83
590.56	45741.09
590.72	45907.27
590.88	45610.02
