SpectraSuite Data File
++++++++++++++++++++++++++++++++++++
Date: Fri Oct 04 11:40:07 GMT-05:00 2013
User: price-jones
Dark Spectrum Present: No
Reference Spectrum Present: No
Number of Sampled Component Spectra: 1
Spectrometers: USB2+H05261
Integration Time (usec): 100000 (USB2+H05261)
Spectra Averaged: 1 (USB2+H05261)
Boxcar Smoothing: 0 (USB2+H05261)
Correct for Electrical Dark: No (USB2+H05261)
Strobe/Lamp Enabled: No (USB2+H05261)
Correct for Detector Non-linearity: No (USB2+H05261)
Correct for Stray Light: No (USB2+H05261)
Number of Pixels in Processed Spectrum: 2048
>>>>>Begin Processed Spectral Data<<<<<
365.73	0.00
365.92	0.00
366.12	0.00
366.32	4.68
366.52	0.00
366.72	0.00
366.91	0.00
367.11	0.00
367.31	0.00
367.51	0.00
367.70	0.00
367.90	0.00
368.10	0.00
368.30	0.00
368.49	0.00
368.69	0.00
368.89	0.00
369.09	0.00
369.28	11.70
369.48	0.00
369.68	0.00
369.87	49.15
370.07	0.00
370.27	46.81
370.47	77.24
370.66	280.86
370.86	369.80
371.06	362.78
371.25	334.70
371.45	348.74
371.65	362.78
371.84	318.31
372.04	313.63
372.24	344.06
372.44	346.40
372.63	379.17
372.83	425.98
373.03	360.44
373.22	292.57
373.42	301.93
373.62	435.34
373.81	320.65
374.01	395.55
374.21	381.51
374.40	306.61
374.60	418.96
374.79	369.80
374.99	489.17
375.19	484.49
375.38	559.39
375.58	531.30
375.78	517.26
375.97	458.74
376.17	524.28
376.37	390.87
376.56	437.68
376.76	447.04
376.95	472.79
377.15	465.77
377.35	554.71
377.54	575.77
377.74	500.87
377.93	514.92
378.13	470.45
378.33	512.58
378.52	503.22
378.72	475.13
378.91	416.62
379.11	437.68
379.31	463.43
379.50	423.64
379.70	514.92
379.89	571.09
380.09	510.24
380.28	486.83
380.48	512.58
380.68	430.66
380.87	421.30
381.07	540.66
381.26	479.81
381.46	484.49
381.65	435.34
381.85	444.70
382.04	341.72
382.24	435.34
382.43	433.00
382.63	353.42
382.83	367.46
383.02	390.87
383.22	440.02
383.41	353.42
383.61	367.46
383.80	411.93
384.00	491.51
384.19	510.24
384.39	603.86
384.58	582.79
384.78	554.71
384.97	601.52
385.17	472.79
385.36	461.09
385.56	533.64
385.75	514.92
385.95	498.53
386.14	447.04
386.34	545.34
386.53	554.71
386.72	416.62
386.92	552.37
387.11	589.82
387.31	531.30
387.50	468.11
387.70	458.74
387.89	580.45
388.09	482.15
388.28	512.58
388.48	594.50
388.67	594.50
388.86	526.62
389.06	631.94
389.25	608.54
389.45	589.82
389.64	622.58
389.84	643.65
390.03	660.03
390.22	610.88
390.42	660.03
390.61	667.05
390.81	678.76
391.00	795.78
391.19	800.46
391.39	725.57
391.58	821.53
391.78	655.35
391.97	643.65
392.16	603.86
392.36	585.13
392.55	489.17
392.75	407.25
392.94	353.42
393.13	330.02
393.33	404.91
393.52	512.58
393.71	589.82
393.91	580.45
394.10	543.00
394.29	690.46
394.49	734.93
394.68	788.76
394.88	805.14
395.07	821.53
395.26	744.29
395.46	800.46
395.65	777.06
395.84	629.60
396.04	594.50
396.23	580.45
396.42	489.17
396.62	451.72
396.81	500.87
397.00	606.20
397.19	685.78
397.39	767.70
397.58	877.70
397.77	894.08
397.97	987.71
398.16	858.98
398.35	947.92
398.55	1011.11
398.74	1083.67
398.93	1050.90
399.12	1130.48
399.32	1011.11
399.51	1090.69
399.70	1160.91
399.90	1191.33
400.09	1046.22
400.28	1111.75
400.47	1074.31
400.67	1174.95
400.86	1151.54
401.05	1188.99
401.24	1142.18
401.44	1228.78
401.63	1177.29
401.82	1259.21
402.01	1053.24
402.21	1144.52
402.40	1219.42
402.59	1076.65
402.78	1095.37
402.97	1057.92
403.17	1151.54
403.36	1186.65
403.55	1210.06
403.74	1256.87
403.93	1196.01
404.13	1132.82
404.32	1095.37
404.51	1221.76
404.70	1205.38
404.89	1167.93
405.09	1291.98
405.28	1203.04
405.47	1186.65
405.66	1322.40
405.85	1245.16
406.05	1125.80
406.24	1114.10
406.43	1137.50
406.62	1228.78
406.81	1224.10
407.00	1097.71
407.20	1153.88
407.39	1151.54
407.58	1160.91
407.77	1184.31
407.96	1294.32
408.15	1352.83
408.34	1406.66
408.54	1380.92
408.73	1275.59
408.92	1362.19
409.11	1275.59
409.30	1294.32
409.49	1224.10
409.68	1069.62
409.87	1029.84
410.07	1107.07
410.26	1212.40
410.45	1259.21
410.64	1275.59
410.83	1331.76
411.02	1245.16
411.21	1364.53
411.40	1423.05
411.59	1371.55
411.78	1460.49
411.98	1345.81
412.17	1455.81
412.36	1254.53
412.55	1320.06
412.74	1343.47
412.93	1273.25
413.12	1296.66
413.31	1430.07
413.50	1383.26
413.69	1451.13
413.88	1430.07
414.07	1315.38
414.26	1357.51
414.45	1383.26
414.64	1432.41
414.83	1486.24
415.02	1500.28
415.22	1523.69
415.41	1488.58
415.60	1551.78
415.79	1497.94
415.98	1671.14
416.17	1579.86
416.36	1668.80
416.55	1540.07
416.74	1495.60
416.93	1444.11
417.12	1523.69
417.31	1481.56
417.50	1507.30
417.69	1547.09
417.88	1549.43
418.07	1497.94
418.26	1530.71
418.45	1579.86
418.64	1558.80
418.83	1582.20
419.02	1650.08
419.21	1605.61
419.39	1572.84
419.58	1500.28
419.77	1427.73
419.96	1549.43
420.15	1624.33
420.34	1629.01
420.53	1729.66
420.72	1785.83
420.91	1729.66
421.10	1659.44
421.29	1652.42
421.48	1563.48
421.67	1701.57
421.86	1561.14
422.05	1586.88
422.24	1444.11
422.43	1418.36
422.61	1317.72
422.80	1687.53
422.99	1572.84
423.18	1577.52
423.37	1537.73
423.56	1495.60
423.75	1495.60
423.94	1629.01
424.13	1572.84
424.32	1556.46
424.50	1528.37
424.69	1481.56
424.88	1556.46
425.07	1465.18
425.26	1488.58
425.45	1526.03
425.64	1474.54
425.83	1469.86
426.01	1722.63
426.20	1540.07
426.39	1476.88
426.58	1469.86
426.77	1444.11
426.96	1376.24
427.15	1413.68
427.33	1490.92
427.52	1432.41
427.71	1591.56
427.90	1507.30
428.09	1441.77
428.28	1397.30
428.46	1432.41
428.65	1441.77
428.84	1416.02
429.03	1551.78
429.22	1357.51
429.40	1315.38
429.59	1235.80
429.78	1160.91
429.97	1198.35
430.16	1177.29
430.34	1151.54
430.53	1151.54
430.72	1181.97
430.91	1228.78
431.10	1490.92
431.28	1596.25
431.47	1816.26
431.66	1736.68
431.85	1596.25
432.03	1565.82
432.22	1568.16
432.41	1558.80
432.60	1596.25
432.79	1631.35
432.97	1799.87
433.16	1750.72
433.35	1629.01
433.54	1448.79
433.72	1467.52
433.91	1460.49
434.10	1593.90
434.28	1736.68
434.47	1678.16
434.66	1788.17
434.85	1682.85
435.03	1624.33
435.22	1860.73
435.41	1947.33
435.59	2094.78
435.78	1930.94
435.97	1851.36
436.16	1998.82
436.34	1898.17
436.53	1781.15
436.72	1827.96
436.90	1724.97
437.09	1689.87
437.28	1680.50
437.46	1666.46
437.65	1893.49
437.84	1727.32
438.02	1577.52
438.21	1430.07
438.40	1479.22
438.58	1706.25
438.77	1689.87
438.96	1710.93
439.14	1834.98
439.33	1860.73
439.52	1856.04
439.70	1842.00
439.89	1825.62
440.08	1809.23
440.26	1813.92
440.45	1816.26
440.63	1959.03
440.82	1923.92
441.01	2045.63
441.19	1954.35
441.38	1998.82
441.57	2076.06
441.75	2062.01
441.94	2085.42
442.12	2080.74
442.31	2066.69
442.50	2113.50
442.68	1996.48
442.87	1975.41
443.05	2017.54
443.24	2157.97
443.43	2078.40
443.61	2078.40
443.80	2190.74
443.98	1944.99
444.17	2071.37
444.35	2146.27
444.54	2223.51
444.73	2141.59
444.91	2129.89
445.10	2115.84
445.28	1926.26
445.47	2010.52
445.65	1891.15
445.84	1944.99
446.02	1940.30
446.21	2097.12
446.39	2083.08
446.58	2134.57
446.77	1996.48
446.95	2120.53
447.14	2136.91
447.32	2225.85
447.51	2162.66
447.69	2132.23
447.88	2108.82
448.06	2078.40
448.25	2204.78
448.43	2139.25
448.62	2031.58
448.80	2113.50
448.99	2193.08
449.17	2115.84
449.36	2115.84
449.54	2064.35
449.73	2155.63
449.91	2230.53
450.10	2256.28
450.28	2317.13
450.46	2354.58
450.65	2321.81
450.83	2282.02
451.02	2263.30
451.20	2338.20
451.39	2242.23
451.57	2286.70
451.76	2251.60
451.94	2209.47
452.13	2216.49
452.31	2111.16
452.49	2108.82
452.68	2026.90
452.86	2059.67
453.05	2143.93
453.23	2204.78
453.42	2169.68
453.60	2275.00
453.78	2218.83
453.97	2155.63
454.15	2235.21
454.34	2251.60
454.52	2223.51
454.70	2221.17
454.89	2155.63
455.07	2174.36
455.26	2237.55
455.44	2258.62
455.62	2296.07
455.81	2253.94
455.99	2300.75
456.17	2293.72
456.36	2291.38
456.54	2352.24
456.73	2366.28
456.91	2340.54
457.09	2373.30
457.28	2455.22
457.46	2305.43
457.64	2394.37
457.83	2366.28
458.01	2267.98
458.19	2307.77
458.38	2209.47
458.56	2331.17
458.74	2352.24
458.93	2326.49
459.11	2415.43
459.29	2207.13
459.48	2375.64
459.66	2342.88
459.84	2321.81
460.03	2422.45
460.21	2279.68
460.39	2368.62
460.57	2422.45
460.76	2424.80
460.94	2410.75
461.12	2441.18
461.31	2424.80
461.49	2324.15
461.67	2363.94
461.85	2516.08
462.04	2466.92
462.22	2864.82
462.40	2399.05
462.59	2450.54
462.77	2492.67
462.95	2464.58
463.13	2471.61
463.32	2450.54
463.50	2331.17
463.68	2324.15
463.86	2462.24
464.05	2296.07
464.23	2253.94
464.41	2328.83
464.59	2221.17
464.78	2382.67
464.96	2359.26
465.14	2275.00
465.32	2310.11
465.50	2504.37
465.69	2445.86
465.87	2389.69
466.05	2406.07
466.23	2165.00
466.41	2111.16
466.60	2253.94
466.78	2394.37
466.96	2359.26
467.14	2347.56
467.32	2478.63
467.51	2492.67
467.69	2356.92
467.87	2267.98
468.05	2389.69
468.23	2354.58
468.41	2413.09
468.60	2293.72
468.78	2441.18
468.96	2368.62
469.14	2487.99
469.32	2485.65
469.50	2207.13
469.69	2345.22
469.87	2265.64
470.05	2312.45
470.23	2368.62
470.41	2211.81
470.59	2370.96
470.77	2394.37
470.95	2347.56
471.14	2450.54
471.32	2375.64
471.50	2502.03
471.68	2534.80
471.86	2665.87
472.04	2523.10
472.22	2640.12
472.40	2523.10
472.58	2466.92
472.77	2466.92
472.95	2392.03
473.13	2567.57
473.31	2483.31
473.49	2455.22
473.67	2530.12
473.85	2441.18
474.03	2495.01
474.21	2708.00
474.39	2553.52
474.57	2534.80
474.75	2616.72
474.93	2642.46
475.12	2511.39
475.30	2668.21
475.48	2569.91
475.66	2600.34
475.84	2576.93
476.02	2567.57
476.20	2628.42
476.38	2553.52
476.56	2736.09
476.74	2771.19
476.92	2668.21
477.10	2675.23
477.28	2771.19
477.46	2733.75
477.64	2984.18
477.82	2876.52
478.00	2670.55
478.18	2878.86
478.36	2857.79
478.54	2710.34
478.72	2904.60
478.90	2888.22
479.08	2916.31
479.26	2949.08
479.44	3096.53
479.62	2967.80
479.80	2988.86
479.98	2855.45
480.16	3089.51
480.34	3103.55
480.52	2974.82
480.70	3000.57
480.88	2956.10
481.06	3068.44
481.24	3012.27
481.41	3089.51
481.59	3328.24
481.77	3211.22
481.95	3124.62
482.13	3187.81
482.31	3208.87
482.49	3208.87
482.67	3246.32
482.85	3269.73
483.03	3222.92
483.21	3314.20
483.39	3232.28
483.57	3215.90
483.74	3243.98
483.92	3258.03
484.10	3234.62
484.28	3428.88
484.46	3286.11
484.64	3393.78
484.82	3302.50
485.00	3241.64
485.18	3239.30
485.35	3073.12
485.53	2963.12
485.71	2724.38
485.89	2595.65
486.07	2729.06
486.25	2974.82
486.43	3019.29
486.61	3229.94
486.78	3150.36
486.96	3232.28
487.14	3297.81
487.32	3187.81
487.50	3517.83
487.68	3616.13
487.85	3559.95
488.03	3716.77
488.21	3581.02
488.39	3492.08
488.57	3398.46
488.75	3342.28
488.92	3815.07
489.10	3763.58
489.28	3929.76
489.46	3880.61
489.64	3943.80
489.81	3871.25
489.99	3948.48
490.17	3999.98
490.35	4138.07
490.53	3915.72
490.70	3808.05
490.88	3978.91
491.06	3955.51
491.24	3964.87
491.41	3845.50
491.59	3625.49
491.77	3543.57
491.95	3735.50
492.13	3735.50
492.30	3976.57
492.48	4018.70
492.66	4180.20
492.84	4248.07
493.01	4072.53
493.19	4044.45
493.37	3925.08
493.54	4037.42
493.72	4007.00
493.90	4219.99
494.08	4285.52
494.25	4374.46
494.43	4273.82
494.61	4325.31
494.79	4414.25
494.96	4416.59
495.14	4339.35
495.32	4187.22
495.49	4049.13
495.67	4205.94
495.85	4283.18
496.02	4475.10
496.20	4496.17
496.38	4327.65
496.55	4458.72
496.73	4458.72
496.91	4482.13
497.09	4678.73
497.26	4664.69
497.44	4599.15
497.62	4528.94
497.79	4236.37
497.97	4241.05
498.14	4114.66
498.32	4372.12
498.50	4550.00
498.67	4458.72
498.85	4432.97
499.03	4578.09
499.20	4660.01
499.38	4713.84
499.56	4493.83
499.73	4531.28
499.91	4451.70
500.08	4444.68
500.26	4351.06
500.44	4245.73
500.61	4524.26
500.79	4517.23
500.97	4351.06
501.14	4337.01
501.32	4121.68
501.49	4238.71
501.67	4435.32
501.84	4285.52
502.02	4252.75
502.20	4461.06
502.37	4353.40
502.55	4341.69
502.72	4573.41
502.90	4702.14
503.07	4587.45
503.25	4400.21
503.43	4198.92
503.60	4161.47
503.78	3985.93
503.95	4138.07
504.13	4255.09
504.30	4514.89
504.48	4709.16
504.65	4685.75
504.83	4428.29
505.01	4526.60
505.18	4645.96
505.36	4636.60
505.53	4657.67
505.71	4641.28
505.88	4770.01
506.06	4554.68
506.23	4634.26
506.41	4547.66
506.58	4622.56
506.76	4592.13
506.93	4636.60
507.11	4557.02
507.28	4491.49
507.46	4376.80
507.63	4322.97
507.81	4421.27
507.98	4425.95
508.16	4503.19
508.33	4690.43
508.50	4725.54
508.68	4791.08
508.85	4863.63
509.03	4985.34
509.20	4718.52
509.38	4753.63
509.55	4589.79
509.73	4676.39
509.90	4669.37
510.08	4777.03
510.25	4880.02
510.42	4791.08
510.60	4676.39
510.77	4748.95
510.95	4781.71
511.12	4933.85
511.30	4870.65
511.47	4945.55
511.64	5036.83
511.82	5032.15
511.99	4812.14
512.17	4667.03
512.34	4730.22
512.51	4676.39
512.69	4510.21
512.86	4732.56
513.04	4746.61
513.21	4767.67
513.38	4751.29
513.56	4641.28
513.73	4535.96
513.90	4491.49
514.08	4477.44
514.25	4781.71
514.43	4655.33
514.60	4636.60
514.77	4802.78
514.95	4751.29
515.12	4716.18
515.29	4690.43
515.47	4880.02
515.64	4835.55
515.81	4706.82
515.99	4865.97
516.16	4636.60
516.33	4353.40
516.51	4023.38
516.68	3939.12
516.85	3768.26
517.03	3990.61
517.20	4112.32
517.37	4402.55
517.54	4734.90
517.72	4755.97
517.89	4477.44
518.06	4098.28
518.24	4079.55
518.41	4418.93
518.58	4526.60
518.75	4451.70
518.93	4603.83
519.10	4695.11
519.27	4662.35
519.45	4828.53
519.62	4688.09
519.79	5015.77
519.96	4833.21
520.14	4875.34
520.31	4564.04
520.48	4540.64
520.65	4627.24
520.83	4940.87
521.00	4952.57
521.17	4765.33
521.34	4802.78
521.52	4842.57
521.69	4856.61
521.86	4968.96
522.03	5057.90
522.20	4751.29
522.38	4568.73
522.55	4493.83
522.72	4603.83
522.89	4739.58
523.07	4760.65
523.24	4702.14
523.41	4861.29
523.58	5004.07
523.75	4964.28
523.92	5046.20
524.10	5074.28
524.27	5029.81
524.44	4940.87
524.61	4997.04
524.78	5001.72
524.96	4901.08
525.13	5006.41
525.30	4933.85
525.47	4896.40
525.64	5069.60
525.81	4945.55
525.98	4746.61
526.16	4407.23
526.33	4311.27
526.50	4114.66
526.67	4278.50
526.84	4255.09
527.01	4386.16
527.18	4465.74
527.36	4737.24
527.53	5050.88
527.70	5032.15
527.87	4751.29
528.04	4868.31
528.21	4786.40
528.38	4987.68
528.55	5004.07
528.72	5221.74
528.89	5277.91
529.07	5055.56
529.24	4950.23
529.41	4760.65
529.58	4830.87
529.75	4889.38
529.92	4723.20
530.09	4975.98
530.26	4891.72
530.43	5029.81
530.60	4985.34
530.77	5102.37
530.94	5167.90
531.11	5128.11
531.28	5090.67
531.46	4898.74
531.63	4931.51
531.80	5018.11
531.97	5067.26
532.14	4819.16
532.31	4706.82
532.48	4615.54
532.65	4468.08
532.82	4631.92
532.99	4746.61
533.16	4762.99
533.33	4856.61
533.50	4933.85
533.67	4828.53
533.84	4786.40
534.01	4828.53
534.18	4983.00
534.35	4940.87
534.52	4856.61
534.69	5032.15
534.86	4905.76
535.03	5097.69
535.20	5074.28
535.37	5273.23
535.54	5095.35
535.71	5252.16
535.88	5036.83
536.05	5093.01
536.22	4966.62
536.38	4854.27
536.55	4875.34
536.72	4627.24
536.89	4657.67
537.06	4727.88
537.23	5025.13
537.40	4868.31
537.57	5057.90
537.74	5076.62
537.91	4975.98
538.08	5076.62
538.25	4816.82
538.42	4924.49
538.59	5020.45
538.75	4870.65
538.92	4727.88
539.09	4805.12
539.26	5036.83
539.43	4741.93
539.60	4732.56
539.77	4770.01
539.94	4798.10
540.11	4615.54
540.28	4613.20
540.44	4550.00
540.61	4652.98
540.78	4755.97
540.95	4805.12
541.12	4987.68
541.29	4938.53
541.46	5104.71
541.62	5085.98
541.79	4952.57
541.96	4837.89
542.13	4903.42
542.30	5041.51
542.47	4994.70
542.63	4992.36
542.80	4997.04
542.97	4924.49
543.14	4891.72
543.31	4861.29
543.48	4861.29
543.64	5184.29
543.81	5238.12
543.98	5111.73
544.15	5018.11
544.32	4978.32
544.48	4922.15
544.65	4809.80
544.82	4882.36
544.99	4819.16
545.16	5121.09
545.32	4959.60
545.49	5219.39
545.66	5570.48
545.83	5589.20
546.00	5453.45
546.16	5078.96
546.33	4875.34
546.50	4975.98
546.67	5055.56
546.83	4835.55
547.00	4987.68
547.17	4800.44
547.34	4807.46
547.50	4678.73
547.67	4873.00
547.84	4762.99
548.00	4786.40
548.17	5029.81
548.34	5071.94
548.51	5020.45
548.67	4753.63
548.84	4844.91
549.01	4978.32
549.18	4985.34
549.34	4910.44
549.51	4746.61
549.68	4858.95
549.84	4685.75
550.01	4650.64
550.18	4912.78
550.34	4894.06
550.51	4751.29
550.68	4713.84
550.84	4524.26
551.01	4734.90
551.18	4652.98
551.34	4699.80
551.51	4751.29
551.68	4880.02
551.84	4840.23
552.01	4765.33
552.18	4709.16
552.34	4671.71
552.51	4608.51
552.68	4521.92
552.84	4709.16
553.01	4606.17
553.18	4667.03
553.34	4706.82
553.51	4739.58
553.67	4697.46
553.84	4842.57
554.01	4858.95
554.17	4744.27
554.34	4746.61
554.51	4692.77
554.67	4816.82
554.84	4828.53
555.00	4624.90
555.17	4713.84
555.33	4615.54
555.50	4704.48
555.67	4664.69
555.83	4435.32
556.00	4610.86
556.16	4674.05
556.33	4592.13
556.50	4528.94
556.66	4535.96
556.83	4353.40
556.99	4519.57
557.16	4407.23
557.32	4620.22
557.49	4594.47
557.65	4695.11
557.82	4526.60
557.98	4528.94
558.15	4390.84
558.32	4507.87
558.48	4273.82
558.65	4306.59
558.81	4390.84
558.98	4329.99
559.14	4400.21
559.31	4308.93
559.47	4407.23
559.64	4550.00
559.80	4411.91
559.97	4257.43
560.13	4337.01
560.30	4365.10
560.46	4631.92
560.63	4414.25
560.79	4582.77
560.96	4685.75
561.12	4346.37
561.29	4287.86
561.45	4276.16
561.61	4381.48
561.78	4430.63
561.94	4341.69
562.11	4428.29
562.27	4482.13
562.44	4500.85
562.60	4409.57
562.77	4430.63
562.93	4472.76
563.10	4592.13
563.26	4329.99
563.42	4339.35
563.59	4348.72
563.75	4329.99
563.92	4362.76
564.08	4327.65
564.24	4362.76
564.41	4482.13
564.57	4379.14
564.74	4402.55
564.90	4311.27
565.07	4182.54
565.23	4311.27
565.39	4102.96
565.56	4028.06
565.72	4058.49
565.88	4184.88
566.05	4145.09
566.21	4180.20
566.38	4266.80
566.54	4173.18
566.70	4262.12
566.87	4379.14
567.03	4369.78
567.19	4311.27
567.36	4264.46
567.52	4208.28
567.68	4166.15
567.85	4011.68
568.01	3939.12
568.17	3971.89
568.34	3978.91
568.50	3967.21
568.66	3913.38
568.83	4025.72
568.99	3901.67
569.15	3997.64
569.32	3974.23
569.48	4021.04
569.64	3875.93
569.81	3866.56
569.97	3906.35
570.13	3941.46
570.30	3948.48
570.46	3948.48
570.62	3988.27
570.78	3737.84
570.95	3789.33
571.11	3901.67
571.27	3985.93
571.43	3946.14
571.60	4159.13
571.76	3974.23
571.92	4063.17
572.09	4014.02
572.25	4124.02
572.41	3955.51
572.57	3974.23
572.74	3932.10
572.90	3929.76
573.06	4030.40
573.22	4135.73
573.38	4032.74
573.55	3894.65
573.71	4079.55
573.87	4084.23
574.03	3894.65
574.20	3840.82
574.36	3873.59
574.52	3833.80
574.68	3882.95
574.84	4002.32
575.01	3829.12
575.17	3857.20
575.33	3810.39
575.49	3964.87
575.65	4025.72
575.82	3882.95
575.98	3801.03
576.14	3833.80
576.30	4093.60
576.46	4177.86
576.62	4067.85
576.79	4004.66
576.95	3997.64
577.11	4009.34
577.27	3843.16
577.43	3906.35
577.59	3904.01
577.75	3852.52
577.92	3660.60
578.08	3716.77
578.24	3684.00
578.40	3857.20
578.56	3786.99
578.72	3939.12
578.88	3941.46
579.04	4067.85
579.21	3974.23
579.37	3936.78
579.53	3932.10
579.69	3925.08
579.85	3983.59
580.01	4058.49
580.17	3920.40
580.33	3927.42
580.49	3957.85
580.65	3861.88
580.82	3815.07
580.98	3976.57
581.14	3946.14
581.30	3815.07
581.46	3826.78
581.62	3831.46
581.78	3948.48
581.94	4042.11
582.10	3936.78
582.26	3892.31
582.42	3948.48
582.58	3992.95
582.74	4023.38
582.90	4095.94
583.06	3999.98
583.22	3709.75
583.38	3824.44
583.54	3777.62
583.70	3978.91
583.86	3803.37
584.02	3913.38
584.18	3920.40
584.34	3880.61
584.50	3843.16
584.66	3756.56
584.82	3836.14
584.98	3896.99
585.14	3815.07
585.30	3730.81
585.46	3749.54
585.62	3665.28
585.78	3693.37
585.94	3660.60
586.10	3716.77
586.26	3737.84
586.42	3861.88
586.58	3784.65
586.74	3768.26
586.90	3662.94
587.06	3794.01
587.22	3623.15
587.38	3499.10
587.54	3723.79
587.70	3595.06
587.86	3403.14
588.02	3346.97
588.18	3309.52
588.34	3215.90
588.49	2939.71
588.65	2897.58
588.81	2782.90
588.97	2696.30
589.13	2855.45
589.29	2801.62
589.45	2792.26
589.61	2731.41
589.77	2874.18
589.93	2995.89
590.08	3112.91
590.24	3215.90
590.40	3110.57
590.56	3136.32
590.72	3143.34
590.88	3138.66
591.04	3152.70
591.20	3248.66
591.35	3171.43
591.51	3180.79
591.67	3075.46
591.83	3077.80
591.99	3040.36
592.15	3117.59
592.31	3159.72
592.46	3225.26
592.62	3260.37
592.78	3372.71
592.94	3337.60
593.10	3372.71
593.26	3342.28
593.41	3309.52
593.57	3290.79
593.73	3281.43
593.89	3248.66
594.05	3040.36
594.20	3040.36
594.36	2871.84
594.52	2991.20
594.68	2967.80
594.84	3021.63
594.99	3115.25
595.15	3215.90
595.31	3248.66
595.47	3096.53
595.62	3251.00
595.78	3318.88
595.94	3255.69
596.10	3400.80
596.25	3311.86
596.41	3236.96
596.57	3016.95
596.73	3232.28
596.88	3407.82
597.04	3328.24
597.20	3248.66
597.36	3222.92
597.51	3215.90
597.67	3171.43
597.83	3288.45
597.99	3293.13
