SpectraSuite Data File
++++++++++++++++++++++++++++++++++++
Date: Fri Oct 04 11:39:40 GMT-05:00 2013
User: price-jones
Dark Spectrum Present: No
Reference Spectrum Present: No
Number of Sampled Component Spectra: 1
Spectrometers: USB2+H05261
Integration Time (usec): 100000 (USB2+H05261)
Spectra Averaged: 1 (USB2+H05261)
Boxcar Smoothing: 0 (USB2+H05261)
Correct for Electrical Dark: No (USB2+H05261)
Strobe/Lamp Enabled: No (USB2+H05261)
Correct for Detector Non-linearity: No (USB2+H05261)
Correct for Stray Light: No (USB2+H05261)
Number of Pixels in Processed Spectrum: 2048
>>>>>Begin Processed Spectral Data<<<<<
365.73	60.85
365.92	60.85
366.12	60.85
366.32	21.06
366.52	0.00
366.72	0.00
366.91	0.00
367.11	0.00
367.31	0.00
367.51	0.00
367.70	0.00
367.90	0.00
368.10	0.00
368.30	4.68
368.49	0.00
368.69	0.00
368.89	0.00
369.09	0.00
369.28	9.36
369.48	0.00
369.68	0.00
369.87	60.85
370.07	0.00
370.27	65.54
370.47	81.92
370.66	262.14
370.86	339.38
371.06	360.44
371.25	369.80
371.45	325.33
371.65	337.04
371.84	351.08
372.04	376.83
372.24	416.62
372.44	362.78
372.63	451.72
372.83	503.22
373.03	440.02
373.22	444.70
373.42	411.93
373.62	498.53
373.81	510.24
374.01	468.11
374.21	528.96
374.40	519.60
374.60	543.00
374.79	528.96
374.99	528.96
375.19	566.41
375.38	528.96
375.58	552.37
375.78	566.41
375.97	568.75
376.17	557.05
376.37	517.26
376.56	606.20
376.76	505.56
376.95	500.87
377.15	645.99
377.35	568.75
377.54	568.75
377.74	510.24
377.93	521.94
378.13	578.11
378.33	578.11
378.52	566.41
378.72	575.77
378.91	575.77
379.11	596.84
379.31	636.63
379.50	503.22
379.70	650.67
379.89	608.54
380.09	636.63
380.28	543.00
380.48	585.13
380.68	589.82
380.87	657.69
381.07	683.44
381.26	727.91
381.46	615.56
381.65	615.56
381.85	596.84
382.04	643.65
382.24	645.99
382.43	669.39
382.63	641.31
382.83	613.22
383.02	748.97
383.22	732.59
383.41	660.03
383.61	699.82
383.80	674.07
384.00	770.04
384.19	793.44
384.39	711.52
384.58	727.91
384.78	692.80
384.97	681.10
385.17	767.70
385.36	709.18
385.56	744.29
385.75	770.04
385.95	751.31
386.14	781.74
386.34	777.06
386.53	800.46
386.72	760.67
386.92	781.74
387.11	767.70
387.31	856.64
387.50	791.10
387.70	774.72
387.89	727.91
388.09	795.78
388.28	840.25
388.48	842.59
388.67	863.66
388.86	802.80
389.06	854.30
389.25	889.40
389.45	931.53
389.64	805.14
389.84	915.15
390.03	894.08
390.22	903.45
390.42	973.66
390.61	903.45
390.81	842.59
391.00	877.70
391.19	997.07
391.39	936.21
391.58	1004.09
391.78	933.87
391.97	964.30
392.16	994.73
392.36	1006.43
392.55	957.28
392.75	987.71
392.94	992.39
393.13	1020.47
393.33	1001.75
393.52	940.90
393.71	1116.44
393.91	1090.69
394.10	1025.15
394.29	1074.31
394.49	978.34
394.68	1074.31
394.88	1076.65
395.07	1151.54
395.26	1128.14
395.46	1118.78
395.65	1184.31
395.84	1156.22
396.04	1191.33
396.23	1184.31
396.42	1268.57
396.62	1172.61
396.81	1240.48
397.00	1221.76
397.19	1181.97
397.39	1240.48
397.58	1320.06
397.77	1270.91
397.97	1196.01
398.16	1184.31
398.35	1308.36
398.55	1249.85
398.74	1348.15
398.93	1334.11
399.12	1245.16
399.32	1315.38
399.51	1364.53
399.70	1392.62
399.90	1296.66
400.09	1383.26
400.28	1446.45
400.47	1359.85
400.67	1500.28
400.86	1343.47
401.05	1394.96
401.24	1434.75
401.44	1526.03
401.63	1418.36
401.82	1455.81
402.01	1469.86
402.21	1448.79
402.40	1406.66
402.59	1430.07
402.78	1511.99
402.97	1600.93
403.17	1617.31
403.36	1551.78
403.55	1685.19
403.74	1659.44
403.93	1685.19
404.13	1689.87
404.32	1732.00
404.51	1680.50
404.70	1647.74
404.89	1792.85
405.09	1769.44
405.28	1652.42
405.47	1717.95
405.66	1682.85
405.85	1687.53
406.05	1720.29
406.24	1844.34
406.43	1781.15
406.62	1825.62
406.81	1952.01
407.00	1746.04
407.20	1750.72
407.39	1851.36
407.58	1860.73
407.77	1930.94
407.96	1959.03
408.15	1935.62
408.34	2024.56
408.54	2113.50
408.73	2024.56
408.92	1909.88
409.11	2008.18
409.30	2062.01
409.49	2101.80
409.68	2097.12
409.87	2153.29
410.07	2148.61
410.26	2118.18
410.45	2207.13
410.64	2193.08
410.83	2235.21
411.02	2253.94
411.21	2352.24
411.40	2345.22
411.59	2232.87
411.78	2345.22
411.98	2342.88
412.17	2345.22
412.36	2373.30
412.55	2572.25
412.74	2459.90
412.93	2497.35
413.12	2509.05
413.31	2504.37
413.50	2597.99
413.69	2553.52
413.88	2672.89
414.07	2670.55
414.26	2661.19
414.45	2693.96
414.64	2743.11
414.83	2626.08
415.02	2726.72
415.22	2768.85
415.41	2855.45
415.60	3042.70
415.79	2911.63
415.98	2888.22
416.17	2836.73
416.36	3124.62
416.55	3059.08
416.74	2928.01
416.93	3061.42
417.12	3007.59
417.31	3171.43
417.50	3176.11
417.69	3187.81
417.88	3148.02
418.07	3096.53
418.26	3176.11
418.45	3258.03
418.64	3274.41
418.83	3297.81
419.02	3258.03
419.21	3353.99
419.39	3286.11
419.58	3377.39
419.77	3382.07
419.96	3258.03
420.15	3435.91
420.34	3475.70
420.53	3365.69
420.72	3473.36
420.91	3393.78
421.10	3414.84
421.29	3599.74
421.48	3555.27
421.67	3552.93
421.86	3545.91
422.05	3599.74
422.24	3632.51
422.43	3604.42
422.61	3574.00
422.80	3714.43
422.99	3812.73
423.18	3733.15
423.37	3749.54
423.56	3653.58
423.75	3524.85
423.94	3702.73
424.13	3496.76
424.32	3531.87
424.50	3616.13
424.69	3939.12
424.88	3861.88
425.07	3737.84
425.26	3775.28
425.45	3826.78
425.64	3705.07
425.83	3794.01
426.01	3801.03
426.20	3831.46
426.39	3812.73
426.58	3836.14
426.77	3840.82
426.96	3918.06
427.15	3782.31
427.33	3852.52
427.52	4051.47
427.71	3955.51
427.90	3824.44
428.09	3918.06
428.28	4091.26
428.46	4163.81
428.65	4187.22
428.84	4117.00
429.03	4184.88
429.22	3939.12
429.40	4105.30
429.59	4257.43
429.78	4007.00
429.97	3981.25
430.16	4060.83
430.34	4102.96
430.53	4346.37
430.72	4320.63
430.91	4241.05
431.10	4248.07
431.28	4311.27
431.47	4388.50
431.66	4456.38
431.85	4208.28
432.03	4327.65
432.22	4645.96
432.41	4559.36
432.60	4500.85
432.79	4402.55
432.97	4489.15
433.16	4505.53
433.35	4552.34
433.54	4535.96
433.72	4578.09
433.91	4587.45
434.10	4507.87
434.28	4725.54
434.47	4709.16
434.66	4613.20
434.85	4582.77
435.03	4875.34
435.22	5130.45
435.41	5186.63
435.59	5191.31
435.78	5020.45
435.97	5062.58
436.16	4943.21
436.34	4812.14
436.53	4875.34
436.72	5034.49
436.90	4882.36
437.09	4926.83
437.28	4975.98
437.46	4994.70
437.65	4971.30
437.84	5029.81
438.02	4926.83
438.21	4997.04
438.40	5025.13
438.58	5249.82
438.77	5191.31
438.96	5186.63
439.14	5472.17
439.33	5369.19
439.52	5441.75
439.70	5385.57
439.89	5516.64
440.08	5682.82
440.26	5565.79
440.45	5586.86
440.63	5741.33
440.82	5694.52
441.01	5537.71
441.19	5811.55
441.38	5879.43
441.57	5797.51
441.75	6047.94
441.94	5827.93
442.12	5923.90
442.31	6045.60
442.50	6026.88
442.68	6036.24
442.87	6031.56
443.05	5933.26
443.24	6078.37
443.43	6223.48
443.61	6188.38
443.80	6431.79
443.98	6111.14
444.17	6012.84
444.35	6195.40
444.54	6263.27
444.73	6291.36
444.91	6090.07
445.10	6441.15
445.28	6176.67
445.47	6193.06
445.65	6499.67
445.84	6314.77
446.02	6354.55
446.21	6305.40
446.39	6282.00
446.58	6469.24
446.77	6375.62
446.95	6253.91
447.14	6328.81
447.32	6277.32
447.51	6326.47
447.69	6305.40
447.88	6277.32
448.06	6492.65
448.25	6473.92
448.43	6333.49
448.62	6619.04
448.80	6349.87
448.99	6373.28
449.17	6710.32
449.36	6494.99
449.54	6684.57
449.73	6691.59
449.91	6729.04
450.10	6560.52
450.28	6878.83
450.46	6766.49
450.65	6684.57
450.83	6633.08
451.02	6850.75
451.20	6909.26
451.39	6839.05
451.57	6984.16
451.76	6799.26
451.94	6906.92
452.13	6963.09
452.31	7126.93
452.49	6829.68
452.68	7190.13
452.86	6937.35
453.05	6974.80
453.23	6878.83
453.42	6956.07
453.60	6876.49
453.78	7066.08
453.97	7014.59
454.15	7059.06
454.34	7117.57
454.52	7311.83
454.70	7213.53
454.89	7339.92
455.07	7384.39
455.26	7281.41
455.44	7475.67
455.62	7442.90
455.81	7346.94
455.99	7377.37
456.17	7375.03
456.36	7307.15
456.54	7602.06
456.73	7777.60
456.91	7796.32
457.09	7573.97
457.28	7810.37
457.46	7683.98
457.64	7707.38
457.83	7880.58
458.01	7733.13
458.19	7925.05
458.38	7733.13
458.56	8138.04
458.74	7920.37
458.93	7922.71
459.11	7962.50
459.29	7976.55
459.48	7974.21
459.66	8039.74
459.84	8053.78
460.03	8173.15
460.21	8149.75
460.39	8219.96
460.57	8201.24
460.76	8049.10
460.94	8297.20
461.12	8264.43
461.31	8271.45
461.49	8332.31
461.67	8287.84
461.85	8573.38
462.04	8451.67
462.22	8762.97
462.40	8566.36
462.59	8505.51
462.77	8603.81
462.95	8477.42
463.13	8390.82
463.32	8603.81
463.50	8688.07
463.68	8863.61
463.86	8557.00
464.05	8554.66
464.23	8709.13
464.41	8851.91
464.59	8659.98
464.78	8917.44
464.96	8938.51
465.14	8610.83
465.32	8788.71
465.50	9109.36
465.69	8802.75
465.87	8807.44
466.05	9064.89
466.23	8915.10
466.41	9153.84
466.60	9142.13
466.78	9041.49
466.96	8931.48
467.14	9004.04
467.32	9125.75
467.51	9343.42
467.69	8975.95
467.87	9118.73
468.05	9195.96
468.23	9118.73
468.41	9109.36
468.60	9200.65
468.78	9509.60
468.96	9247.46
469.14	9305.97
469.32	9423.00
469.50	9240.44
469.69	9722.59
469.87	9635.99
470.05	9701.52
470.23	9659.39
470.41	9731.95
470.59	9755.35
470.77	9792.80
470.95	9867.70
471.14	9848.97
471.32	9771.74
471.50	9853.66
471.68	9884.08
471.86	10026.86
472.04	9884.08
472.22	10237.50
472.40	10141.54
472.58	10071.33
472.77	10312.40
472.95	10436.45
473.13	10616.67
473.31	10293.68
473.49	10389.64
473.67	10310.06
473.85	10361.55
474.03	10729.02
474.21	10408.36
474.39	10902.22
474.57	10640.08
474.75	10829.66
474.93	10906.90
475.12	10864.77
475.30	10899.87
475.48	10827.32
475.66	11166.70
475.84	10824.98
476.02	11246.27
476.20	11222.87
476.38	11286.06
476.56	11513.10
476.74	11669.91
476.92	11386.71
477.10	11508.41
477.28	11641.82
477.46	11529.48
477.64	11859.49
477.82	12126.32
478.00	12521.87
478.18	12189.51
478.36	12271.43
478.54	12381.43
478.72	12409.52
478.90	12535.91
479.08	12606.13
479.26	13018.06
479.44	12617.83
479.62	12966.57
479.80	13053.17
479.98	12940.82
480.16	13528.30
480.34	13200.62
480.52	13603.19
480.70	13525.96
480.88	13458.08
481.06	13680.43
481.24	13687.45
481.41	13809.16
481.59	14253.86
481.77	13987.04
481.95	14185.99
482.13	14340.46
482.31	14354.51
482.49	14511.32
482.67	14567.49
482.85	14696.22
483.03	15211.14
483.21	14949.00
483.39	15351.57
483.57	15208.80
483.74	15414.77
483.92	15524.77
484.10	15442.85
484.28	15964.79
484.46	16079.48
484.64	15653.50
484.82	16074.80
485.00	16114.59
485.18	16322.90
485.35	16688.02
485.53	16535.88
485.71	16868.24
485.89	17139.74
486.07	16624.83
486.25	16947.82
486.43	17179.53
486.61	17238.05
486.78	17575.08
486.96	17631.26
487.14	17682.75
487.32	17905.10
487.50	17961.27
487.68	18040.85
487.85	18382.57
488.03	18569.81
488.21	18775.78
488.39	18658.75
488.57	19168.99
488.75	19269.63
488.92	19531.77
489.10	19161.97
489.28	19267.29
489.46	19433.47
489.64	19737.74
489.81	20065.41
489.99	20226.91
490.17	20130.95
490.35	20226.91
490.53	20152.01
490.70	20638.84
490.88	20863.54
491.06	20919.71
491.24	20891.62
491.41	21034.39
491.59	21092.91
491.77	21181.85
491.95	21511.86
492.13	21455.69
492.30	21432.29
492.48	21781.03
492.66	21848.90
492.84	21900.39
493.01	22167.21
493.19	22148.49
493.37	22293.60
493.54	22457.44
493.72	22459.78
493.90	22635.32
494.08	22995.76
494.25	22834.27
494.43	23400.68
494.61	23070.66
494.79	23379.61
494.96	23061.30
495.14	23524.72
495.32	23789.20
495.49	23789.20
495.67	24229.23
495.85	24393.06
496.02	24453.92
496.20	24638.82
496.38	24355.61
496.55	24783.93
496.73	25076.50
496.91	24807.34
497.09	24938.41
497.26	25390.13
497.44	25146.72
497.62	24947.77
497.79	25713.13
497.97	25717.81
498.14	26146.12
498.32	25937.82
498.50	25947.18
498.67	26665.72
498.85	26129.74
499.03	26302.94
499.20	26225.70
499.38	26057.18
499.56	26726.58
499.73	26930.20
499.91	26796.79
500.08	26813.18
500.26	26654.02
500.44	27035.53
500.61	26920.84
500.79	27232.13
500.97	27300.01
501.14	27557.47
501.32	27971.74
501.49	27599.60
501.67	27503.64
501.84	28086.43
502.02	27742.37
502.20	28224.52
502.37	28470.28
502.55	28369.63
502.72	28297.08
502.90	28224.52
503.07	28304.10
503.25	28514.75
503.43	28519.43
503.60	28877.53
503.78	28961.79
503.95	28842.42
504.13	29034.35
504.30	29067.11
504.48	29336.27
504.65	29013.28
504.83	29509.47
505.01	29659.27
505.18	29586.71
505.36	30026.73
505.53	29621.82
505.71	29249.67
505.88	29717.78
506.06	29556.28
506.23	30080.56
506.41	30057.16
506.58	30237.38
506.76	30342.70
506.93	30590.80
507.11	29944.81
507.28	30616.55
507.46	30305.26
507.63	30689.10
507.81	31075.29
507.98	30913.80
508.16	30829.54
508.33	30494.84
508.50	31208.70
508.68	31152.53
508.85	31765.75
509.03	31974.06
509.20	31805.54
509.38	31744.69
509.55	32006.83
509.73	31976.40
509.90	31899.16
510.08	32048.96
510.25	31964.70
510.42	32053.64
510.60	32348.54
510.77	32488.98
510.95	32524.08
511.12	32676.22
511.30	33137.30
511.47	32851.76
511.64	32339.18
511.82	33163.05
511.99	32884.53
512.17	33343.27
512.34	33165.39
512.51	32877.51
512.69	33352.63
512.86	33333.91
513.04	33652.22
513.21	33464.98
513.38	33642.86
513.56	33638.18
513.73	33902.66
513.90	33869.89
514.08	33612.43
514.25	33940.11
514.43	34300.55
514.60	33745.84
514.77	34630.57
514.95	34440.98
515.12	34174.16
515.29	34457.37
515.47	34621.20
515.64	34712.49
515.81	34749.93
515.99	34885.68
516.16	35302.30
516.33	35239.11
516.51	35271.87
516.68	34843.56
516.85	34820.15
517.03	35428.69
517.20	35559.76
517.37	35337.41
517.54	35232.08
517.72	35447.41
517.89	35674.45
518.06	35653.38
518.24	35491.88
518.41	35391.24
518.58	35875.73
518.75	36238.51
518.93	36627.04
519.10	35997.44
519.27	35852.33
519.45	35929.56
519.62	36315.75
519.79	36236.17
519.96	36336.82
520.14	36884.50
520.31	36458.52
520.48	36748.75
520.65	36519.38
520.83	36760.45
521.00	36959.40
521.17	37123.24
521.34	36678.54
521.52	36889.18
521.69	37425.17
521.86	37516.45
522.03	37357.29
522.20	37682.62
522.38	37528.15
522.55	37383.04
522.72	37518.79
522.89	37507.08
523.07	38094.56
523.24	37975.19
523.41	38080.52
523.58	37603.05
523.75	38129.67
523.92	38033.71
524.10	38309.89
524.27	38227.97
524.44	38120.31
524.61	38871.62
524.78	38429.26
524.96	38473.73
525.13	38471.39
525.30	38593.09
525.47	38855.23
525.64	38614.16
525.81	39007.37
525.98	39323.34
526.16	39365.47
526.33	39033.11
526.50	39342.06
526.67	38859.91
526.84	39082.27
527.01	39037.80
527.18	39269.51
527.36	39690.80
527.53	39655.70
527.70	39955.29
527.87	39966.99
528.04	39749.32
528.21	39625.27
528.38	39571.44
528.55	39936.56
528.72	39739.96
528.89	40109.76
529.07	40430.41
529.24	39903.79
529.41	40170.61
529.58	40062.95
529.75	39892.09
529.92	39964.65
530.09	40257.21
530.26	40395.31
530.43	40304.02
530.60	39978.69
530.77	40624.68
530.94	40570.85
531.11	40301.68
531.28	40325.09
531.46	40509.99
531.63	40790.86
531.80	40739.36
531.97	40704.26
532.14	41366.63
532.31	41106.83
532.48	40863.41
532.65	41366.63
532.82	40788.52
532.99	41144.28
533.16	41291.73
533.33	41247.26
533.50	41717.71
533.67	41572.60
533.84	41579.62
534.01	41273.01
534.18	41378.33
534.35	41825.37
534.52	41291.73
534.69	41834.74
534.86	41926.02
535.03	41605.36
535.20	42190.50
535.37	42031.34
535.54	42000.91
535.71	41745.80
535.88	42000.91
536.05	42225.60
536.22	42265.39
536.38	42225.60
536.55	42234.97
536.72	42710.10
536.89	42143.69
537.06	42546.26
537.23	42520.51
537.40	42213.90
537.57	42817.76
537.74	42579.03
537.91	42836.48
538.08	42672.65
538.25	42513.49
538.42	42504.13
538.59	43131.39
538.75	42916.06
538.92	42682.01
539.09	43313.95
539.26	43388.85
539.43	43096.28
539.60	42962.87
539.77	43154.80
539.94	43182.88
540.11	43180.54
540.28	43604.18
540.44	43445.02
540.61	43496.52
540.78	43440.34
540.95	43856.96
541.12	44086.33
541.29	44130.80
541.46	43831.21
541.62	44060.58
541.79	44112.08
541.96	43147.78
542.13	43840.57
542.30	43868.66
542.47	44259.53
542.63	44339.11
542.80	44397.62
542.97	44982.76
543.14	44772.11
543.31	44264.21
543.48	44402.30
543.64	44748.70
543.81	45001.48
543.98	44811.90
544.15	44708.91
544.32	44718.28
544.48	45242.56
544.65	44678.49
544.82	44837.64
544.99	44158.89
545.16	44832.96
545.32	44355.49
545.49	45624.06
545.66	46333.24
545.83	45991.53
546.00	46078.13
546.16	45439.16
546.33	44795.51
546.50	44594.23
546.67	45265.96
546.83	44814.24
547.00	45240.21
547.17	45268.30
547.34	45509.38
547.50	45357.24
547.67	45467.25
547.84	45158.30
548.00	45261.28
548.17	45682.58
548.34	45230.85
548.51	45738.75
548.67	45738.75
548.84	45890.88
549.01	45535.12
549.18	45813.65
549.34	45825.35
549.51	45855.78
549.68	45263.62
549.84	45673.21
550.01	46335.59
550.18	45382.99
550.34	45909.61
550.51	45694.28
550.68	45968.12
550.84	45942.38
551.01	45881.52
551.18	45832.37
551.34	46000.89
551.51	45925.99
551.68	45790.24
551.84	46122.60
552.01	46005.57
552.18	46309.84
552.34	46106.21
552.51	46316.86
552.68	45808.96
552.84	46265.37
553.01	46162.39
553.18	46344.95
553.34	46256.01
553.51	46349.63
553.67	46358.99
553.84	46621.13
554.01	46487.72
554.17	46742.84
554.34	46513.47
554.51	46389.42
554.67	46630.49
554.84	46546.23
555.00	46438.57
555.17	46548.57
555.33	47042.43
555.50	46557.94
555.67	46726.46
555.83	46656.24
556.00	46323.88
556.16	47061.15
556.33	46527.51
556.50	46476.02
556.66	47124.35
556.83	46541.55
556.99	47037.75
557.16	47332.65
557.32	47103.28
557.49	47133.71
557.65	46630.49
557.82	46930.08
557.98	46534.53
558.15	46841.14
558.32	47051.79
558.48	47091.58
558.65	47107.96
558.81	47229.67
558.98	46731.14
559.14	47100.94
559.31	46974.55
559.47	47152.43
559.64	47363.08
559.80	47508.19
559.97	47318.61
560.13	47168.82
560.30	47480.11
560.46	47426.28
560.63	47246.05
560.79	46976.89
560.96	47470.75
561.12	47098.60
561.29	47306.91
561.45	47625.22
561.61	47676.71
561.78	47356.06
561.94	47496.49
562.11	47945.87
562.27	47082.22
562.44	47618.20
562.60	47302.23
562.77	47409.89
562.93	47393.51
563.10	47892.04
563.26	47342.02
563.42	47964.60
563.59	47643.94
563.75	47765.65
563.92	47997.37
564.08	47709.48
564.24	47796.08
564.41	47206.26
564.57	47569.05
564.74	47767.99
564.90	48002.05
565.07	47735.23
565.23	47934.17
565.39	47702.46
565.56	47536.28
565.72	47349.04
565.88	47683.73
566.05	47828.85
566.21	47547.98
566.38	47576.07
566.54	47608.84
566.70	48123.75
566.87	48280.57
567.03	47501.17
567.19	48547.39
567.36	47863.96
567.52	47730.54
567.68	48086.31
567.85	47512.88
568.01	47882.68
568.17	47632.24
568.34	47969.28
568.50	47828.85
568.66	47672.03
568.83	48149.50
568.99	47973.96
569.15	48137.80
569.32	47866.30
569.48	47730.54
569.64	47599.47
569.81	47555.00
569.97	48212.70
570.13	48191.63
570.30	48051.20
570.46	48093.33
570.62	47826.51
570.78	47632.24
570.95	47760.97
571.11	48163.54
571.27	47746.93
571.43	47636.92
571.60	47856.93
571.76	48072.26
571.92	48112.05
572.09	48280.57
572.25	48137.80
572.41	47903.74
572.57	47962.26
572.74	48044.18
572.90	48058.22
573.06	47922.47
573.22	48016.09
573.38	47985.66
573.55	47924.81
573.71	48418.66
573.87	48327.38
574.03	47646.29
574.20	48238.44
574.36	47866.30
574.52	48257.17
574.68	48156.52
574.84	47988.00
575.01	48004.39
575.17	48273.55
575.33	48011.41
575.49	48350.79
575.65	48259.51
575.82	48472.49
575.98	48009.07
576.14	48128.44
576.30	48325.04
576.46	47929.49
576.62	47870.98
576.79	48303.98
576.95	48069.92
577.11	47866.30
577.27	48360.15
577.43	48112.05
577.59	48011.41
577.75	48081.63
577.92	47592.45
578.08	47648.63
578.24	47938.85
578.40	48149.50
578.56	47978.64
578.72	47938.85
578.88	48257.17
579.04	48605.91
579.21	48383.55
579.37	48182.27
579.53	48285.25
579.69	47735.23
579.85	47999.71
580.01	48233.76
580.17	47959.92
580.33	48107.37
580.49	47978.64
580.65	48374.19
580.82	48203.33
580.98	48409.30
581.14	48336.74
581.30	48360.15
581.46	47924.81
581.62	47856.93
581.78	48158.86
581.94	48168.22
582.10	47786.72
582.26	48196.31
582.42	48142.48
582.58	47910.77
582.74	48573.14
582.90	48205.67
583.06	48123.75
583.22	47990.34
583.38	48161.20
583.54	48334.40
583.70	48046.52
583.86	47969.28
584.02	47845.23
584.18	47997.37
584.34	48308.66
584.50	48467.81
584.66	48067.58
584.82	47838.21
584.98	48760.38
585.14	48046.52
585.30	48069.92
585.46	47789.06
585.62	47873.32
585.78	48254.82
585.94	48016.09
586.10	48545.05
586.26	48266.53
586.42	48067.58
586.58	48151.84
586.74	48589.52
586.90	48247.80
587.06	48112.05
587.22	47978.64
587.38	48142.48
587.54	48327.38
587.70	48264.19
587.86	48210.35
588.02	48273.55
588.18	48629.31
588.34	48378.87
588.49	48296.95
588.65	48247.80
588.81	48062.90
588.97	48257.17
589.13	48011.41
589.29	47922.47
589.45	48442.07
589.61	48622.29
589.77	48701.87
589.93	48685.48
590.08	48587.18
590.24	48624.63
