SpectraSuite Data File
++++++++++++++++++++++++++++++++++++
Date: Fri Oct 04 11:39:45 GMT-05:00 2013
User: price-jones
Dark Spectrum Present: No
Reference Spectrum Present: No
Number of Sampled Component Spectra: 1
Spectrometers: USB2+H05261
Integration Time (usec): 100000 (USB2+H05261)
Spectra Averaged: 1 (USB2+H05261)
Boxcar Smoothing: 0 (USB2+H05261)
Correct for Electrical Dark: No (USB2+H05261)
Strobe/Lamp Enabled: No (USB2+H05261)
Correct for Detector Non-linearity: No (USB2+H05261)
Correct for Stray Light: No (USB2+H05261)
Number of Pixels in Processed Spectrum: 2048
>>>>>Begin Processed Spectral Data<<<<<
365.73	60.85
365.92	60.85
366.12	60.85
366.32	0.00
366.52	0.00
366.72	0.00
366.91	32.77
367.11	0.00
367.31	0.00
367.51	0.00
367.70	0.00
367.90	0.00
368.10	28.09
368.30	4.68
368.49	0.00
368.69	0.00
368.89	0.00
369.09	39.79
369.28	53.83
369.48	0.00
369.68	86.60
369.87	0.00
370.07	0.00
370.27	74.90
370.47	114.69
370.66	414.27
370.86	386.19
371.06	524.28
371.25	526.62
371.45	517.26
371.65	615.56
371.84	557.05
372.04	578.11
372.24	571.09
372.44	517.26
372.63	608.54
372.83	629.60
373.03	662.37
373.22	596.84
373.42	648.33
373.62	613.22
373.81	706.84
374.01	664.71
374.21	695.14
374.40	690.46
374.60	716.20
374.79	655.35
374.99	699.82
375.19	634.29
375.38	753.65
375.58	685.78
375.78	755.99
375.97	732.59
376.17	751.31
376.37	763.01
376.56	772.38
376.76	751.31
376.95	763.01
377.15	781.74
377.35	833.23
377.54	791.10
377.74	755.99
377.93	854.30
378.13	772.38
378.33	826.21
378.52	1015.79
378.72	788.76
378.91	828.55
379.11	816.85
379.31	889.40
379.50	800.46
379.70	868.34
379.89	901.11
380.09	908.13
380.28	851.96
380.48	800.46
380.68	840.25
380.87	922.17
381.07	898.77
381.26	863.66
381.46	929.19
381.65	950.26
381.85	940.90
382.04	980.68
382.24	952.60
382.43	964.30
382.63	971.32
382.83	987.71
383.02	971.32
383.22	1008.77
383.41	1057.92
383.61	1004.09
383.80	964.30
384.00	1095.37
384.19	1074.31
384.39	1128.14
384.58	1032.18
384.78	1043.88
384.97	1029.84
385.17	1011.11
385.36	1104.73
385.56	1013.45
385.75	1114.10
385.95	1086.01
386.14	1062.60
386.34	1100.05
386.53	1184.31
386.72	1088.35
386.92	1186.65
387.11	1219.42
387.31	1214.74
387.50	1125.80
387.70	1184.31
387.89	1163.25
388.09	1205.38
388.28	1174.95
388.48	1193.67
388.67	1273.25
388.86	1200.69
389.06	1238.14
389.25	1280.27
389.45	1359.85
389.64	1320.06
389.84	1270.91
390.03	1357.51
390.22	1352.83
390.42	1313.04
390.61	1301.34
390.81	1355.17
391.00	1324.74
391.19	1331.76
391.39	1390.28
391.58	1423.05
391.78	1373.89
391.97	1441.77
392.16	1416.02
392.36	1511.99
392.55	1500.28
392.75	1434.75
392.94	1521.35
393.13	1474.54
393.33	1465.18
393.52	1624.33
393.71	1636.03
393.91	1584.54
394.10	1519.01
394.29	1603.27
394.49	1533.05
394.68	1652.42
394.88	1619.65
395.07	1701.57
395.26	1666.46
395.46	1701.57
395.65	1750.72
395.84	1675.82
396.04	1778.81
396.23	1739.02
396.42	1703.91
396.62	1727.32
396.81	1769.44
397.00	1785.83
397.19	1657.10
397.39	1720.29
397.58	1886.47
397.77	1802.21
397.97	1949.67
398.16	1895.83
398.35	1954.35
398.55	1867.75
398.74	1909.88
398.93	2017.54
399.12	1914.56
399.32	1825.62
399.51	1907.54
399.70	1966.05
399.90	1898.17
400.09	2101.80
400.28	1954.35
400.47	1940.30
400.67	2113.50
400.86	2015.20
401.05	2108.82
401.24	2129.89
401.44	2277.34
401.63	2155.63
401.82	2260.96
402.01	2190.74
402.21	2167.34
402.40	2270.32
402.59	2249.25
402.78	2244.57
402.97	2272.66
403.17	2373.30
403.36	2335.85
403.55	2363.94
403.74	2452.88
403.93	2471.61
404.13	2448.20
404.32	2534.80
404.51	2504.37
404.70	2546.50
404.89	2523.10
405.09	2590.97
405.28	2565.23
405.47	2586.29
405.66	2551.18
405.85	2647.15
406.05	2633.10
406.24	2558.21
406.43	2619.06
406.62	2684.59
406.81	2857.79
407.00	2726.72
407.20	2555.86
407.39	2703.32
407.58	2754.81
407.77	2911.63
407.96	2916.31
408.15	2799.28
408.34	2710.34
408.54	3014.61
408.73	2923.33
408.92	3014.61
409.11	3033.33
409.30	2892.90
409.49	3035.67
409.68	3173.77
409.87	3040.36
410.07	3215.90
410.26	3117.59
410.45	3227.60
410.64	3215.90
410.83	3236.96
411.02	3302.50
411.21	3344.63
411.40	3258.03
411.59	3375.05
411.78	3290.79
411.98	3384.41
412.17	3365.69
412.36	3515.48
412.55	3466.33
412.74	3604.42
412.93	3632.51
413.12	3473.36
413.31	3651.24
413.50	3646.55
413.69	3779.97
413.88	3843.16
414.07	3763.58
414.26	3885.29
414.45	3918.06
414.64	3915.72
414.83	3950.82
415.02	3934.44
415.22	4074.87
415.41	4028.06
415.60	4131.05
415.79	4140.41
415.98	4339.35
416.17	4395.53
416.36	4339.35
416.55	4252.75
416.74	4344.03
416.93	4297.22
417.12	4344.03
417.31	4479.79
417.50	4564.04
417.69	4596.81
417.88	4585.11
418.07	4386.16
418.26	4690.43
418.45	4674.05
418.64	4894.06
418.83	4840.23
419.02	4791.08
419.21	4807.46
419.39	4873.00
419.58	4723.20
419.77	4795.76
419.96	4903.42
420.15	4994.70
420.34	4887.04
420.53	4983.00
420.72	5067.26
420.91	4957.25
421.10	5081.30
421.29	5116.41
421.48	5130.45
421.67	5268.55
421.86	5170.24
422.05	5273.23
422.24	5205.35
422.43	5205.35
422.61	5273.23
422.80	5542.39
422.99	5359.83
423.18	5275.57
423.37	5392.59
423.56	5177.26
423.75	5345.78
423.94	5156.20
424.13	4973.64
424.32	5252.16
424.50	5502.60
424.69	5537.71
424.88	5521.32
425.07	5404.30
425.26	5268.55
425.45	5355.15
425.64	5462.81
425.83	5535.37
426.01	5404.30
426.20	5448.77
426.39	5362.17
426.58	5572.82
426.77	5631.33
426.96	5589.20
427.15	5582.18
427.33	5851.34
427.52	5509.62
427.71	5638.35
427.90	5715.59
428.09	5795.17
428.28	5830.27
428.46	5738.99
428.65	5851.34
428.84	6064.33
429.03	6043.26
429.22	5942.62
429.40	6148.59
429.59	6012.84
429.78	5729.63
429.97	5753.04
430.16	5898.15
430.34	6256.25
430.53	6333.49
430.72	6162.63
430.91	6232.85
431.10	6127.52
431.28	6384.98
431.47	6544.14
431.66	6511.37
431.85	6225.82
432.03	6410.73
432.22	6614.35
432.41	6387.32
432.60	6658.82
432.79	6551.16
432.97	6569.88
433.16	6682.23
433.35	6600.31
433.54	6778.19
433.72	6743.08
433.91	6658.82
434.10	6724.36
434.28	6628.40
434.47	6799.26
434.66	6832.02
434.85	6883.52
435.03	6913.94
435.22	7016.93
435.41	7569.29
435.59	7403.11
435.78	7243.96
435.97	7166.72
436.16	7073.10
436.34	7213.53
436.53	7176.08
436.72	7466.31
436.90	6995.86
437.09	7145.66
437.28	7246.30
437.46	7197.15
437.65	7496.74
437.84	7604.40
438.02	7419.50
438.21	7543.55
438.40	7393.75
438.58	7634.83
438.77	7768.24
438.96	7571.63
439.14	7817.39
439.33	7934.42
439.52	8084.21
439.70	7854.84
439.89	8205.92
440.08	8074.85
440.26	8222.30
440.45	8255.07
440.63	8184.85
440.82	8486.78
441.01	8355.71
441.19	8566.36
441.38	8510.19
441.57	8650.62
441.75	8784.03
441.94	8624.87
442.12	8837.86
442.31	8847.22
442.50	8982.98
442.68	8922.12
442.87	8779.35
443.05	9055.53
443.24	9071.92
443.43	8952.55
443.61	9015.74
443.80	9425.34
443.98	8835.52
444.17	8755.94
444.35	9167.88
444.54	9305.97
444.73	9371.50
444.91	9104.68
445.10	9490.87
445.28	9202.99
445.47	9076.60
445.65	9331.72
445.84	9413.63
446.02	9350.44
446.21	9366.82
446.39	9287.25
446.58	9434.70
446.77	9350.44
446.95	9341.08
447.14	9371.50
447.32	9411.29
447.51	9437.04
447.69	9577.47
447.88	9579.81
448.06	9610.24
448.25	9369.16
448.43	9490.87
448.62	9572.79
448.80	9486.19
448.99	9659.39
449.17	9748.33
449.36	9785.78
449.54	9722.59
449.73	10010.47
449.91	9820.89
450.10	10071.33
450.28	10164.95
450.46	10171.97
450.65	10148.56
450.83	10143.88
451.02	10038.56
451.20	10389.64
451.39	10132.18
451.57	10003.45
451.76	10139.20
451.94	10359.21
452.13	10284.31
452.31	10373.25
452.49	10368.57
452.68	10349.85
452.86	10345.17
453.05	10670.50
453.23	10686.89
453.42	10544.11
453.60	10354.53
453.78	10665.82
453.97	10520.71
454.15	10523.05
454.34	10630.71
454.52	10881.15
454.70	10551.14
454.89	10745.40
455.07	11021.58
455.26	11063.71
455.44	11145.63
455.62	11016.90
455.81	10981.79
455.99	11229.89
456.17	11213.51
456.36	11220.53
456.54	11454.58
456.73	11405.43
456.91	11576.29
457.09	11410.11
457.28	11815.02
457.46	11489.69
457.64	11625.44
457.83	11962.48
458.01	11534.16
458.19	11796.30
458.38	11686.29
458.56	12053.76
458.74	11946.09
458.93	12058.44
459.11	12088.87
459.29	12203.55
459.48	11941.41
459.66	12149.72
459.84	12077.16
460.03	12290.15
460.21	12198.87
460.39	12308.88
460.57	12332.28
460.76	12564.00
460.94	12432.93
461.12	12601.44
461.31	12641.23
461.49	12659.96
461.67	12411.86
461.85	12699.75
462.04	12620.17
462.22	13191.26
462.40	12840.18
462.59	12805.07
462.77	12950.18
462.95	13146.79
463.13	12732.51
463.32	12751.24
463.50	12978.27
463.68	13144.45
463.86	12755.92
464.05	13181.90
464.23	13055.51
464.41	13259.13
464.59	13128.06
464.78	13429.99
464.96	13617.24
465.14	13046.15
465.32	13804.48
465.50	13411.27
465.69	13895.76
465.87	13460.42
466.05	13701.50
466.23	13422.97
466.41	13727.24
466.60	14033.85
466.78	13525.96
466.96	13860.65
467.14	13563.40
467.32	13891.08
467.51	13853.63
467.69	13654.69
467.87	13937.89
468.05	14012.79
468.23	13944.91
468.41	13771.71
468.60	13970.66
468.78	14656.43
468.96	14167.26
469.14	14455.15
469.32	14525.36
469.50	14054.92
469.69	14501.96
469.87	14909.21
470.05	14956.02
470.23	14871.76
470.41	14775.80
470.59	14794.53
470.77	14600.26
470.95	15073.05
471.14	15197.10
471.32	15073.05
471.50	15569.24
471.68	15070.71
471.86	15098.80
472.04	15330.51
472.22	15714.36
472.40	15466.26
472.58	15508.39
472.77	15477.96
472.95	15852.45
473.13	16318.22
473.31	15852.45
473.49	15662.86
473.67	16032.67
473.85	16135.65
474.03	16463.33
474.21	16596.74
474.39	16477.37
474.57	16449.28
474.75	16814.41
474.93	16849.52
475.12	16783.98
475.30	17025.06
475.48	16556.95
475.66	17008.67
475.84	17043.78
476.02	17343.37
476.20	17385.50
476.38	17671.04
476.56	17942.55
476.74	18024.47
476.92	17877.01
477.10	17862.97
477.28	18712.58
477.46	18185.96
477.64	18448.10
477.82	18834.29
478.00	18991.11
478.18	19183.03
478.36	19096.43
478.54	19229.84
478.72	19225.16
478.90	19681.56
479.08	19599.65
479.26	19932.00
479.44	20002.22
479.62	19906.26
479.80	20280.74
479.98	20463.30
480.16	20716.08
480.34	20697.36
480.52	20783.96
480.70	20961.84
480.88	21010.99
481.06	21137.38
481.24	21350.37
481.41	21701.45
481.59	21724.85
481.77	22078.27
481.95	22197.64
482.13	22228.07
482.31	22164.87
482.49	22640.00
482.67	22750.01
482.85	22927.89
483.03	23506.00
483.21	23590.26
483.39	23665.16
483.57	23714.31
483.74	23775.16
483.92	24191.78
484.10	24006.87
484.28	24379.02
484.46	24865.85
484.64	25575.03
484.82	25064.80
485.00	24835.42
485.18	25610.14
485.35	25720.15
485.53	25949.52
485.71	26029.10
485.89	26883.39
486.07	26398.90
486.25	26654.02
486.43	26677.43
486.61	26759.34
486.78	27110.43
486.96	27641.73
487.14	28027.92
487.32	27821.95
487.50	27838.33
487.68	28379.00
487.85	28486.66
488.03	29010.94
488.21	29252.02
488.39	29364.36
488.57	29586.71
488.75	29523.52
488.92	29612.46
489.10	30492.50
489.28	30080.56
489.46	31234.45
489.64	30806.13
489.81	31302.32
489.99	31442.76
490.17	31250.83
490.35	31573.83
490.53	31765.75
490.70	31988.10
490.88	32350.88
491.06	32744.09
491.24	32638.77
491.41	32837.72
491.59	32868.14
491.77	32992.19
491.95	33624.14
492.13	33450.94
492.30	33977.56
492.48	33919.04
492.66	33984.58
492.84	34363.75
493.01	34462.05
493.19	34745.25
493.37	35367.84
493.54	35342.09
493.72	35599.55
493.90	35634.66
494.08	35943.61
494.25	36514.70
494.43	36044.25
494.61	36769.82
494.79	37228.56
494.96	37041.32
495.14	37020.25
495.32	37268.35
495.49	37720.07
495.67	37865.19
495.85	38309.89
496.02	38307.55
496.20	38485.43
496.38	38646.93
496.55	38628.20
496.73	39409.94
496.91	38773.31
497.09	39372.49
497.26	39840.60
497.44	39269.51
497.62	40032.52
497.79	40418.71
497.97	39999.76
498.14	40886.82
498.32	40938.31
498.50	41001.50
498.67	41373.65
498.85	40980.44
499.03	40823.62
499.20	41036.61
499.38	41497.70
499.56	42171.77
499.73	42127.30
499.91	42136.66
500.08	42251.35
500.26	41827.71
500.44	42550.94
500.61	42705.41
500.79	42183.48
500.97	43150.12
501.14	43629.93
501.32	43632.27
501.49	43459.07
501.67	43927.17
501.84	43718.87
502.02	43786.74
502.20	43585.46
502.37	44435.07
502.55	44259.53
502.72	44538.05
502.90	44392.94
503.07	44350.81
503.25	44313.36
503.43	44737.00
503.60	44985.10
503.78	45013.18
503.95	45544.48
504.13	45226.17
504.30	45478.95
504.48	45090.42
504.65	45542.14
504.83	46239.62
505.01	46658.58
505.18	46050.04
505.36	46291.12
505.53	46642.20
505.71	46403.46
505.88	46548.57
506.06	46550.91
506.23	46916.04
506.41	46806.03
506.58	46794.33
506.76	47473.09
506.93	47456.70
507.11	47208.61
507.28	47175.84
507.46	47540.96
507.63	48311.00
507.81	48453.77
507.98	47959.92
508.16	47742.25
508.33	48381.21
508.50	48413.98
508.68	48184.61
508.85	49205.08
509.03	49020.18
509.20	48884.43
509.38	49546.80
509.55	49462.54
509.73	49591.27
509.90	49289.34
510.08	49244.87
510.25	49464.88
510.42	49862.77
510.60	49766.81
510.77	50181.09
510.95	50038.31
511.12	50267.69
511.30	50038.31
511.47	50197.47
511.64	50234.92
511.82	50738.13
511.99	50288.75
512.17	50969.85
512.34	50506.42
512.51	51086.87
512.69	51136.02
512.86	51098.58
513.04	51402.85
513.21	51725.84
513.38	51349.01
513.56	51543.28
513.73	51695.41
513.90	51606.47
514.08	51899.04
514.25	51742.22
514.43	52069.90
514.60	52147.14
514.77	52285.23
514.95	52355.44
515.12	52273.52
515.29	52076.92
515.47	52151.82
515.64	52605.88
515.81	52484.17
515.99	52781.42
516.16	52973.34
516.33	52853.98
516.51	53221.44
516.68	53085.69
516.85	52823.55
517.03	53076.33
517.20	53329.11
517.37	53382.94
517.54	53539.75
517.72	53483.58
517.89	53584.22
518.06	53340.81
518.24	53570.18
518.41	53317.40
518.58	53811.26
518.75	53656.78
518.93	54239.57
519.10	54082.76
519.27	54080.42
519.45	53748.06
519.62	54248.94
519.79	54071.06
519.96	54401.07
520.14	54588.31
520.31	54174.04
520.48	54394.05
520.65	54527.46
520.83	54761.51
521.00	54511.08
521.17	54646.83
521.34	54600.02
521.52	55086.85
521.69	54871.52
521.86	55004.93
522.03	55150.04
522.20	55107.91
522.38	55096.21
522.55	55222.60
522.72	55033.02
522.89	55264.73
523.07	55402.82
523.24	55487.08
523.41	55489.42
523.58	55473.04
523.75	55746.88
523.92	55620.49
524.10	55641.56
524.27	55784.33
524.44	55854.54
524.61	56292.22
524.78	56044.13
524.96	56165.84
525.13	56203.28
525.30	56182.22
525.47	56034.77
525.64	56467.76
525.81	56367.12
525.98	56498.19
526.16	56488.83
526.33	56619.90
526.50	56587.13
526.67	56638.62
526.84	56746.29
527.01	56467.76
527.18	56779.06
527.36	56807.14
527.53	57001.41
527.70	57092.69
527.87	57120.77
528.04	56999.07
528.21	56919.49
528.38	56968.64
528.55	57099.71
528.72	57137.16
528.89	56942.89
529.07	57017.79
529.24	57123.11
529.41	57455.47
529.58	57322.06
529.75	57378.23
529.92	57425.04
530.09	57322.06
530.26	57464.83
530.43	57710.59
530.60	57282.27
530.77	57455.47
530.94	57719.95
531.11	57490.58
531.28	57584.20
531.46	57659.10
531.63	57979.75
531.80	58209.12
531.97	58188.06
532.14	58115.50
532.31	57937.62
532.48	57977.41
532.65	58061.67
532.82	57879.11
532.99	58230.19
533.16	58286.36
533.33	58277.00
533.50	58363.60
533.67	58122.52
533.84	58248.91
534.01	58305.09
534.18	58307.43
534.35	58532.12
534.52	58525.10
534.69	58604.67
534.86	58653.82
535.03	58686.59
535.20	58717.02
535.37	58801.28
535.54	58719.36
535.71	58667.87
535.88	58838.73
536.05	58892.56
536.22	58960.44
536.38	59117.25
536.55	59089.16
536.72	59056.40
536.89	59007.25
537.06	59037.67
537.23	59058.74
537.40	59185.13
537.57	59051.72
537.74	58946.39
537.91	59508.12
538.08	59416.84
538.25	59182.79
538.42	59407.48
538.59	59456.63
538.75	58990.86
538.92	59381.73
539.09	59292.79
539.26	59435.56
539.43	59564.29
539.60	59721.11
539.77	59407.48
539.94	59807.71
540.11	59800.69
540.28	59812.39
540.44	59721.11
540.61	59868.56
540.78	59739.83
540.95	59945.80
541.12	59978.57
541.29	60179.85
541.46	60144.75
541.62	59985.59
541.79	59955.16
541.96	59880.27
542.13	59934.10
542.30	60133.04
542.47	60280.50
542.63	60552.00
542.80	60324.97
542.97	60561.36
543.14	60678.39
543.31	60430.29
543.48	60353.05
543.64	60701.79
543.81	60472.42
543.98	60755.63
544.15	60802.44
544.32	60755.63
544.48	60769.67
544.65	60676.05
544.82	60802.44
544.99	60722.86
545.16	60676.05
545.32	60781.37
545.49	60987.34
545.66	61256.50
545.83	61265.86
546.00	61457.79
546.16	61123.09
546.33	60996.70
546.50	60568.38
546.67	61013.08
546.83	60615.19
547.00	61195.65
547.17	61109.05
547.34	61282.25
547.50	61275.22
547.67	61153.52
547.84	61141.81
548.00	61270.54
548.17	61467.15
548.34	61050.53
548.51	61478.85
548.67	61293.95
548.84	61478.85
549.01	61439.06
549.18	61256.50
549.34	61256.50
549.51	61235.44
549.68	61254.16
549.84	61265.86
550.01	61425.02
550.18	61420.34
550.34	61495.24
550.51	61717.59
550.68	61719.93
550.84	61476.51
551.01	61591.20
551.18	61539.71
551.34	61425.02
551.51	61630.99
551.68	61722.27
551.84	61539.71
552.01	61542.05
552.18	61914.19
552.34	61659.07
552.51	61893.13
552.68	61750.35
552.84	61808.87
553.01	61963.34
553.18	61764.40
553.34	62075.69
553.51	61792.48
553.67	62171.65
553.84	62176.33
554.01	61998.45
554.17	62225.48
554.34	62026.54
554.51	62173.99
554.67	62213.78
554.84	62162.29
555.00	62209.10
555.17	62209.10
555.33	62389.32
555.50	62382.30
555.67	61982.07
555.83	62239.53
556.00	62272.29
556.16	62450.17
556.33	62195.06
556.50	62155.27
556.66	62358.89
556.83	62398.68
556.99	62585.92
557.16	62616.35
557.32	62583.58
557.49	62553.16
557.65	62368.26
557.82	62398.68
557.98	62417.41
558.15	62424.43
558.32	62763.81
558.48	62639.76
558.65	62621.03
558.81	62644.44
558.98	62515.71
559.14	62553.16
559.31	62665.50
559.47	62621.03
559.64	62595.29
559.80	62616.35
559.97	62770.83
560.13	62674.87
560.30	62752.10
560.46	62784.87
560.63	62976.79
560.79	62677.21
560.96	63007.22
561.12	62843.38
561.29	62691.25
561.45	63014.24
561.61	62972.11
561.78	62932.32
561.94	62986.16
562.11	62801.25
562.27	62920.62
562.44	62880.83
562.60	62925.30
562.77	63100.84
562.93	62848.06
563.10	63072.76
563.26	62925.30
563.42	63142.97
563.59	63252.98
563.75	63000.20
563.92	63175.74
564.08	63089.14
564.24	63142.97
564.41	62932.32
564.57	63023.61
564.74	63042.33
564.90	63304.47
565.07	63362.98
565.23	63302.13
565.39	63126.59
565.56	63330.22
565.72	63128.93
565.88	63124.25
566.05	63168.72
566.21	63042.33
566.38	63128.93
566.54	63229.57
566.70	63210.85
566.87	63362.98
567.03	63320.85
567.19	63409.79
567.36	63234.25
567.52	63330.22
567.68	63484.69
567.85	63096.16
568.01	63362.98
568.17	63234.25
568.34	63379.37
568.50	63374.69
568.66	63402.77
568.83	63444.90
568.99	63367.66
569.15	63262.34
569.32	63271.70
569.48	63407.45
569.64	63505.76
569.81	63437.88
569.97	63370.00
570.13	63601.72
570.30	63440.22
570.46	63519.80
570.62	63309.15
570.78	63522.14
570.95	63547.89
571.11	63458.94
571.27	63178.08
571.43	63334.90
571.60	63529.16
571.76	63332.56
571.92	63433.20
572.09	63433.20
572.25	63557.25
572.41	63604.06
572.57	63608.74
572.74	63648.53
572.90	63465.97
573.06	63543.20
573.22	63470.65
573.38	63669.59
573.55	63566.61
573.71	63798.32
573.87	63739.81
574.03	63774.92
574.20	63714.06
574.36	63590.01
574.52	63489.37
574.68	63625.12
574.84	63585.33
575.01	63697.68
575.17	63852.15
575.33	63529.16
575.49	63662.57
575.65	63875.56
575.82	63875.56
575.98	63620.44
576.14	63573.63
576.30	63744.49
576.46	63690.66
576.62	63582.99
576.79	63674.27
576.95	63774.92
577.11	63695.34
577.27	63877.90
577.43	63714.06
577.59	63620.44
577.75	63777.26
577.92	63714.06
578.08	63683.64
578.24	63674.27
578.40	63627.46
578.56	63833.43
578.72	64015.99
578.88	64221.96
579.04	64079.19
579.21	64004.29
579.37	64004.29
579.53	63994.93
579.69	63681.30
579.85	63803.00
580.01	63938.75
580.17	63812.37
580.33	63934.07
580.49	64046.42
580.65	64126.00
580.82	63859.18
580.98	63889.60
581.14	63901.31
581.30	64055.78
581.46	63866.20
581.62	63784.28
581.78	63779.60
581.94	64023.01
582.10	63849.81
582.26	64032.38
582.42	63964.50
582.58	64013.65
582.74	63973.86
582.90	63917.69
583.06	63931.73
583.22	63915.35
583.38	63959.82
583.54	64001.95
583.70	63859.18
583.86	63760.87
584.02	63728.11
584.18	63997.27
584.34	63962.16
584.50	64015.99
584.66	63943.44
584.82	64018.33
584.98	64133.02
585.14	63905.99
585.30	63856.84
585.46	63838.11
585.62	63849.81
585.78	64191.53
585.94	63917.69
586.10	63910.67
586.26	64048.76
586.42	64154.08
586.58	64095.57
586.74	64062.80
586.90	64048.76
587.06	64069.82
587.22	64015.99
587.38	63922.37
587.54	64172.81
587.70	64264.09
587.86	64144.72
588.02	64114.29
588.18	64186.85
588.34	64140.04
588.49	64257.07
