SpectraSuite Data File
++++++++++++++++++++++++++++++++++++
Date: Fri Oct 04 11:39:56 GMT-05:00 2013
User: price-jones
Dark Spectrum Present: No
Reference Spectrum Present: No
Number of Sampled Component Spectra: 1
Spectrometers: USB2+H05261
Integration Time (usec): 100000 (USB2+H05261)
Spectra Averaged: 1 (USB2+H05261)
Boxcar Smoothing: 0 (USB2+H05261)
Correct for Electrical Dark: No (USB2+H05261)
Strobe/Lamp Enabled: No (USB2+H05261)
Correct for Detector Non-linearity: No (USB2+H05261)
Correct for Stray Light: No (USB2+H05261)
Number of Pixels in Processed Spectrum: 2048
>>>>>Begin Processed Spectral Data<<<<<
365.73	53.83
365.92	53.83
366.12	53.83
366.32	0.00
366.52	0.00
366.72	0.00
366.91	18.72
367.11	0.00
367.31	2.34
367.51	0.00
367.70	0.00
367.90	0.00
368.10	0.00
368.30	0.00
368.49	0.00
368.69	0.00
368.89	0.00
369.09	0.00
369.28	0.00
369.48	0.00
369.68	0.00
369.87	0.00
370.07	14.04
370.27	30.43
370.47	51.49
370.66	126.39
370.86	135.75
371.06	234.05
371.25	294.91
371.45	205.97
371.65	330.02
371.84	250.44
372.04	278.52
372.24	355.76
372.44	255.12
372.63	271.50
372.83	283.20
373.03	308.95
373.22	287.89
373.42	287.89
373.62	344.06
373.81	327.68
374.01	271.50
374.21	313.63
374.40	322.99
374.60	341.72
374.79	285.55
374.99	318.31
375.19	409.59
375.38	344.06
375.58	390.87
375.78	386.19
375.97	294.91
376.17	477.47
376.37	290.23
376.56	313.63
376.76	339.38
376.95	395.55
377.15	409.59
377.35	393.21
377.54	388.53
377.74	369.80
377.93	315.97
378.13	433.00
378.33	421.30
378.52	327.68
378.72	435.34
378.91	416.62
379.11	355.76
379.31	353.42
379.50	360.44
379.70	379.17
379.89	407.25
380.09	353.42
380.28	346.40
380.48	397.89
380.68	444.70
380.87	376.83
381.07	433.00
381.26	435.34
381.46	447.04
381.65	407.25
381.85	402.57
382.04	388.53
382.24	383.85
382.43	454.06
382.63	444.70
382.83	425.98
383.02	482.15
383.22	496.19
383.41	505.56
383.61	435.34
383.80	397.89
384.00	381.51
384.19	437.68
384.39	428.32
384.58	440.02
384.78	442.36
384.97	425.98
385.17	454.06
385.36	433.00
385.56	528.96
385.75	519.60
385.95	479.81
386.14	507.90
386.34	393.21
386.53	538.32
386.72	451.72
386.92	547.69
387.11	533.64
387.31	533.64
387.50	458.74
387.70	393.21
387.89	437.68
388.09	500.87
388.28	547.69
388.48	491.51
388.67	486.83
388.86	489.17
389.06	512.58
389.25	575.77
389.45	566.41
389.64	463.43
389.84	547.69
390.03	620.24
390.22	620.24
390.42	486.83
390.61	543.00
390.81	559.39
391.00	559.39
391.19	606.20
391.39	550.03
391.58	638.97
391.78	634.29
391.97	613.22
392.16	564.07
392.36	702.16
392.55	664.71
392.75	617.90
392.94	617.90
393.13	648.33
393.33	620.24
393.52	648.33
393.71	727.91
393.91	638.97
394.10	599.18
394.29	601.52
394.49	720.88
394.68	617.90
394.88	655.35
395.07	816.85
395.26	718.54
395.46	681.10
395.65	739.61
395.84	770.04
396.04	842.59
396.23	781.74
396.42	730.25
396.62	753.65
396.81	716.20
397.00	741.95
397.19	856.64
397.39	805.14
397.58	791.10
397.77	741.95
397.97	805.14
398.16	755.99
398.35	866.00
398.55	830.89
398.74	777.06
398.93	875.36
399.12	863.66
399.32	823.87
399.51	753.65
399.70	908.13
399.90	901.11
400.09	873.02
400.28	912.81
400.47	903.45
400.67	1043.88
400.86	936.21
401.05	931.53
401.24	903.45
401.44	999.41
401.63	903.45
401.82	1013.45
402.01	933.87
402.21	997.07
402.40	999.41
402.59	997.07
402.78	1039.20
402.97	1027.50
403.17	985.37
403.36	1069.62
403.55	1036.86
403.74	1081.33
403.93	1128.14
404.13	1128.14
404.32	1151.54
404.51	1081.33
404.70	1135.16
404.89	1151.54
405.09	1224.10
405.28	1177.29
405.47	1109.41
405.66	1205.38
405.85	1184.31
406.05	1242.82
406.24	1203.04
406.43	1184.31
406.62	1310.70
406.81	1397.30
407.00	1233.46
407.20	1331.76
407.39	1275.59
407.58	1320.06
407.77	1350.49
407.96	1317.72
408.15	1289.64
408.34	1378.58
408.54	1352.83
408.73	1287.29
408.92	1439.43
409.11	1448.79
409.30	1460.49
409.49	1551.78
409.68	1418.36
409.87	1568.16
410.07	1675.82
410.26	1446.45
410.45	1596.25
410.64	1439.43
410.83	1523.69
411.02	1458.15
411.21	1600.93
411.40	1596.25
411.59	1633.69
411.78	1675.82
411.98	1680.50
412.17	1764.76
412.36	1816.26
412.55	1650.08
412.74	1769.44
412.93	1764.76
413.12	1795.19
413.31	1919.24
413.50	1701.57
413.69	1816.26
413.88	1879.45
414.07	1863.07
414.26	1872.43
414.45	1849.02
414.64	1989.46
414.83	1963.71
415.02	2022.22
415.22	1991.80
415.41	2026.90
415.60	2085.42
415.79	2106.48
415.98	2143.93
416.17	2066.69
416.36	2108.82
416.55	2125.21
416.74	2209.47
416.93	2314.79
417.12	2120.53
417.31	2134.57
417.50	2113.50
417.69	2279.68
417.88	2324.15
418.07	2207.13
418.26	2382.67
418.45	2293.72
418.64	2438.84
418.83	2424.80
419.02	2420.11
419.21	2450.54
419.39	2417.77
419.58	2394.37
419.77	2375.64
419.96	2497.35
420.15	2457.56
420.34	2513.74
420.53	2588.63
420.72	2574.59
420.91	2504.37
421.10	2614.38
421.29	2637.78
421.48	2502.03
421.67	2710.34
421.86	2656.51
422.05	2614.38
422.24	2567.57
422.43	2619.06
422.61	2743.11
422.80	2665.87
422.99	2705.66
423.18	2700.98
423.37	2752.47
423.56	2700.98
423.75	2745.45
423.94	2717.36
424.13	2537.14
424.32	2661.19
424.50	2715.02
424.69	2754.81
424.88	2663.53
425.07	2633.10
425.26	2782.90
425.45	2846.09
425.64	2759.49
425.83	2803.96
426.01	2829.71
426.20	2710.34
426.39	2766.51
426.58	2869.50
426.77	2841.41
426.96	2867.16
427.15	2822.69
427.33	2911.63
427.52	2745.45
427.71	2881.20
427.90	2740.77
428.09	2970.14
428.28	2932.69
428.46	3000.57
428.65	2956.10
428.84	3066.10
429.03	3138.66
429.22	2925.67
429.40	2986.52
429.59	3059.08
429.78	3038.02
429.97	2949.08
430.16	3068.44
430.34	3042.70
430.53	3066.10
430.72	3171.43
430.91	3164.40
431.10	2963.12
431.28	3126.96
431.47	3173.77
431.66	3243.98
431.85	3131.64
432.03	3199.51
432.22	3243.98
432.41	3251.00
432.60	3297.81
432.79	3222.92
432.97	3456.97
433.16	3318.88
433.35	3178.45
433.54	3213.56
433.72	3412.50
433.91	3349.31
434.10	3419.52
434.28	3471.01
434.47	3414.84
434.66	3377.39
434.85	3508.46
435.03	3531.87
435.22	3655.92
435.41	3946.14
435.59	3826.78
435.78	4004.66
435.97	3641.87
436.16	3592.72
436.34	3569.32
436.53	3599.74
436.72	3613.79
436.90	3557.61
437.09	3672.30
437.28	3611.45
437.46	3667.62
437.65	3646.55
437.84	3775.28
438.02	3861.88
438.21	3691.02
438.40	3742.52
438.58	3810.39
438.77	3871.25
438.96	3915.72
439.14	3742.52
439.33	3988.27
439.52	3885.29
439.70	3918.06
439.89	4009.34
440.08	4002.32
440.26	4128.70
440.45	4133.39
440.63	4138.07
440.82	4100.62
441.01	4152.11
441.19	4156.79
441.38	4245.73
441.57	4290.20
441.75	4215.30
441.94	4320.63
442.12	4500.85
442.31	4547.66
442.50	4367.44
442.68	4435.32
442.87	4526.60
443.05	4477.44
443.24	4533.62
443.43	4582.77
443.61	4479.79
443.80	4634.26
443.98	4358.08
444.17	4404.89
444.35	4664.69
444.54	4573.41
444.73	4601.49
444.91	4669.37
445.10	4683.41
445.28	4526.60
445.47	4418.93
445.65	4676.39
445.84	4531.28
446.02	4746.61
446.21	4496.17
446.39	4601.49
446.58	4484.47
446.77	4704.48
446.95	4589.79
447.14	4685.75
447.32	4793.42
447.51	4723.20
447.69	4615.54
447.88	4737.24
448.06	4601.49
448.25	4603.83
448.43	4634.26
448.62	4837.89
448.80	4667.03
448.99	4823.84
449.17	4863.63
449.36	4777.03
449.54	4819.16
449.73	4807.46
449.91	4819.16
450.10	5039.17
450.28	4887.04
450.46	5025.13
450.65	4854.27
450.83	5053.22
451.02	4915.12
451.20	5015.77
451.39	5039.17
451.57	5055.56
451.76	5025.13
451.94	5055.56
452.13	5107.05
452.31	5104.71
452.49	5032.15
452.68	5088.32
452.86	5151.52
453.05	5081.30
453.23	5259.18
453.42	5210.03
453.60	5160.88
453.78	5097.69
453.97	5060.24
454.15	5184.29
454.34	5245.14
454.52	5226.42
454.70	5282.59
454.89	5324.72
455.07	5214.71
455.26	5561.11
455.44	5563.45
455.62	5280.25
455.81	5418.34
455.99	5502.60
456.17	5359.83
456.36	5401.96
456.54	5530.69
456.73	5521.32
456.91	5701.54
457.09	5621.97
457.28	5685.16
457.46	5570.48
457.64	5584.52
457.83	5748.36
458.01	5584.52
458.19	5741.33
458.38	5717.93
458.56	5872.40
458.74	5830.27
458.93	5762.40
459.11	6015.18
459.29	5973.05
459.48	5919.21
459.66	5902.83
459.84	5956.66
460.03	5951.98
460.21	5959.00
460.39	5874.74
460.57	5944.96
460.76	6118.16
460.94	6129.86
461.12	6054.97
461.31	6101.78
461.49	5825.59
461.67	6001.13
461.85	6307.74
462.04	6097.10
462.22	6689.25
462.40	6160.29
462.59	6272.64
462.77	6225.82
462.95	6157.95
463.13	6200.08
463.32	6317.11
463.50	6211.78
463.68	6401.37
463.86	6310.08
464.05	6207.10
464.23	6232.85
464.41	6359.24
464.59	6345.19
464.78	6590.95
464.96	6665.85
465.14	6441.15
465.32	6480.94
465.50	6490.31
465.69	6752.45
465.87	6623.72
466.05	6431.79
466.23	6450.52
466.41	6459.88
466.60	6649.46
466.78	6654.14
466.96	6743.08
467.14	6595.63
467.32	6799.26
467.51	6729.04
467.69	6558.18
467.87	6602.65
468.05	6932.67
468.23	6715.00
468.41	6558.18
468.60	6689.25
468.78	7049.69
468.96	6878.83
469.14	6787.55
469.32	6857.77
469.50	6888.20
469.69	6932.67
469.87	6890.54
470.05	7131.61
470.23	6972.46
470.41	7019.27
470.59	7234.60
470.77	7227.57
470.95	7171.40
471.14	7295.45
471.32	7091.82
471.50	7201.83
471.68	7349.28
471.86	7346.94
472.04	7328.22
472.22	7424.18
472.40	7403.11
472.58	7543.55
472.77	7400.77
472.95	7679.30
473.13	7658.23
473.31	7749.51
473.49	7658.23
473.67	7494.40
473.85	7726.11
474.03	7751.85
474.21	7833.77
474.39	7983.57
474.57	7868.88
474.75	7981.23
474.93	8065.49
475.12	7983.57
475.30	7981.23
475.48	8142.72
475.66	8077.19
475.84	7985.91
476.02	8058.46
476.20	8351.03
476.38	8353.37
476.56	8662.32
476.74	8608.49
476.92	8369.76
477.10	8587.43
477.28	8470.40
477.46	8475.08
477.64	8517.21
477.82	8830.84
478.00	8861.27
478.18	9013.40
478.36	9029.79
478.54	9032.13
478.72	9060.21
478.90	9228.73
479.08	9174.90
479.26	9312.99
479.44	9362.14
479.62	9238.09
479.80	9474.49
479.98	9589.17
480.16	9783.44
480.34	9809.19
480.52	9935.57
480.70	9848.97
480.88	9652.37
481.06	10054.94
481.24	9914.51
481.41	10068.98
481.59	10377.94
481.77	10284.31
481.95	10274.95
482.13	10422.41
482.31	10436.45
482.49	10691.57
482.67	10647.10
482.85	10745.40
483.03	10949.03
483.21	11047.33
483.39	10923.28
483.57	10855.40
483.74	11138.61
483.92	11140.95
484.10	11089.46
484.28	11405.43
484.46	11791.62
484.64	12070.14
484.82	11613.74
485.00	11777.58
485.18	11784.60
485.35	12063.12
485.53	12205.89
485.71	11922.69
485.89	12241.00
486.07	12360.37
486.25	12512.50
486.43	12547.61
486.61	12650.60
486.78	12702.09
486.96	12896.35
487.14	12858.90
487.32	12879.97
487.50	12746.56
487.68	13238.07
487.85	13371.48
488.03	13411.27
488.21	13532.98
488.39	13755.33
488.57	13664.05
488.75	13991.72
488.92	14188.33
489.10	14195.35
489.28	14265.57
489.46	14293.65
489.64	14015.13
489.81	14558.13
489.99	14593.24
490.17	14272.59
490.35	14714.95
490.53	14415.36
490.70	14754.74
490.88	14920.92
491.06	15112.84
491.24	14869.42
491.41	14934.96
491.59	15389.02
491.77	15374.98
491.95	15442.85
492.13	15552.86
492.30	15854.79
492.48	15569.24
492.66	15648.82
492.84	15850.11
493.01	16215.23
493.19	16212.89
493.37	16496.10
493.54	16259.70
493.72	16367.37
493.90	16428.22
494.08	16837.81
494.25	16620.14
494.43	16755.90
494.61	16957.18
494.79	17060.16
494.96	17111.66
495.14	17123.36
495.32	17149.11
495.49	17394.86
495.67	17301.24
495.85	17792.75
496.02	17514.23
496.20	17743.60
496.38	17752.96
496.55	17837.22
496.73	18068.94
496.91	18073.62
497.09	18085.32
497.26	18132.13
497.44	18256.18
497.62	18459.81
497.79	18487.89
497.97	18560.45
498.14	18970.04
498.32	18824.93
498.50	18937.27
498.67	19119.84
498.85	18834.29
499.03	19047.28
499.20	19267.29
499.38	19042.60
499.56	19293.04
499.73	19520.07
499.91	19342.19
500.08	19548.15
500.26	19435.81
500.44	19651.14
500.61	20086.48
500.79	19576.24
500.97	19922.64
501.14	20187.12
501.32	20236.27
501.49	19971.79
501.67	20098.18
501.84	19948.39
502.02	20128.61
502.20	20580.33
502.37	20475.01
502.55	20428.20
502.72	20718.42
502.90	20896.30
503.07	20467.98
503.25	20659.91
503.43	20772.25
503.60	20842.47
503.78	21263.77
503.95	20971.20
504.13	21113.97
504.30	21041.42
504.48	20985.24
504.65	21378.45
504.83	21443.99
505.01	21544.63
505.18	21612.51
505.36	21666.34
505.53	21226.32
505.71	21577.40
505.88	21668.68
506.06	21638.25
506.23	21879.33
506.41	21888.69
506.58	22099.34
506.76	22230.41
506.93	22019.76
507.11	22314.67
507.28	22291.26
507.46	22361.48
507.63	22717.24
507.81	22672.77
507.98	22359.14
508.16	22450.42
508.33	22478.50
508.50	22672.77
508.68	22714.90
508.85	23026.19
509.03	22944.27
509.20	23035.55
509.38	23185.35
509.55	23063.64
509.73	23030.87
509.90	23190.03
510.08	23302.37
510.25	23438.12
510.42	23566.85
510.60	23262.58
510.77	23351.52
510.95	23988.15
511.12	23667.50
511.30	23838.36
511.47	23779.84
511.64	24006.87
511.82	24002.19
511.99	23946.02
512.17	24355.61
512.34	23964.75
512.51	23997.51
512.69	24474.98
512.86	24397.74
513.04	24519.45
513.21	24655.20
513.38	24645.84
513.56	24500.73
513.73	24421.15
513.90	24727.76
514.08	24744.14
514.25	24952.45
514.43	24987.56
514.60	24774.57
514.77	25013.31
514.95	24793.29
515.12	25256.72
515.29	25130.33
515.47	25022.67
515.64	25755.26
515.81	25076.50
515.99	25558.65
516.16	25275.45
516.33	25488.43
516.51	25572.69
516.68	25509.50
516.85	25680.36
517.03	25898.03
517.20	25839.51
517.37	25876.96
517.54	25919.09
517.72	25865.26
517.89	25710.78
518.06	25689.72
518.24	25792.70
518.41	26017.40
518.58	26389.54
518.75	26059.52
518.93	26396.56
519.10	26326.35
519.27	26438.69
519.45	26455.08
519.62	26551.04
519.79	26445.71
519.96	26471.46
520.14	26792.11
520.31	26511.25
520.48	27005.10
520.65	26785.09
520.83	26923.18
521.00	27061.27
521.17	27168.94
521.34	27126.81
521.52	27393.63
521.69	27510.66
521.86	27346.82
522.03	27510.66
522.20	27597.26
522.38	27522.36
522.55	27311.71
522.72	27534.06
522.89	27480.23
523.07	27868.76
523.24	27728.33
523.41	28123.88
523.58	28065.36
523.75	27906.21
523.92	28023.23
524.10	28268.99
524.27	28254.95
524.44	28166.01
524.61	28332.18
524.78	28264.31
524.96	28278.35
525.13	28453.89
525.30	28407.08
525.47	28460.91
525.64	28484.32
525.81	28166.01
525.98	28685.61
526.16	28664.54
526.33	28807.31
526.50	28938.38
526.67	28404.74
526.84	28795.61
527.01	28554.54
527.18	28856.46
527.36	29062.43
527.53	28694.97
527.70	29275.42
527.87	29277.76
528.04	29663.95
528.21	29158.39
528.38	28858.81
528.55	29188.82
528.72	29242.65
528.89	29411.17
529.07	29355.00
529.24	29422.87
529.41	29359.68
529.58	29443.94
529.75	28994.56
529.92	29549.26
530.09	29139.67
530.26	29692.04
530.43	29619.48
530.60	29598.41
530.77	29572.67
530.94	30045.46
531.11	29696.72
531.28	29851.19
531.46	30251.42
531.63	29914.39
531.80	29912.05
531.97	30110.99
532.14	30316.96
532.31	30333.34
532.48	30099.29
532.65	30265.47
532.82	29626.50
532.99	30253.76
533.16	30441.01
533.33	30319.30
533.50	30593.14
533.67	30323.98
533.84	30195.25
534.01	30272.49
534.18	30436.33
534.35	30726.55
534.52	30567.40
534.69	30490.16
534.86	31239.13
535.03	30499.52
535.20	30925.50
535.37	30754.64
535.54	30724.21
535.71	31122.10
535.88	30677.40
536.05	30806.13
536.22	31225.09
536.38	31295.30
536.55	31229.77
536.72	31000.40
536.89	31178.28
537.06	31271.90
537.23	31199.34
537.40	31103.38
537.57	31140.83
537.74	31253.17
537.91	31466.16
538.08	31494.25
538.25	31456.80
538.42	31536.38
538.59	31400.63
538.75	31143.17
538.92	31409.99
539.09	31660.43
539.26	31800.86
539.43	31857.03
539.60	32116.83
539.77	32105.13
539.94	31917.89
540.11	32147.26
540.28	31817.24
540.44	32191.73
540.61	32395.35
540.78	32119.17
540.95	32582.60
541.12	32393.01
541.29	32842.40
541.46	32615.37
541.62	32339.18
541.79	32486.64
541.96	32137.90
542.13	32563.87
542.30	32566.21
542.47	32760.48
542.63	32893.89
542.80	32533.45
542.97	32870.48
543.14	33254.33
543.31	33008.58
543.48	32968.79
543.64	33312.84
543.81	33619.46
543.98	33254.33
544.15	33308.16
544.32	33181.77
544.48	33235.61
544.65	33394.76
544.82	32678.56
544.99	32882.19
545.16	33303.48
545.32	33184.12
545.49	33993.94
545.66	33912.02
545.83	34623.54
546.00	34508.86
546.16	34298.21
546.33	33802.02
546.50	33291.78
546.67	33675.63
546.83	33446.26
547.00	33572.64
547.17	33439.23
547.34	33638.18
547.50	33736.48
547.67	33666.27
547.84	33848.83
548.00	33736.48
548.17	33944.79
548.34	33544.56
548.51	33977.56
548.67	33855.85
548.84	33830.10
549.01	33507.11
549.18	33881.60
549.34	33825.42
549.51	33783.29
549.68	33523.49
549.84	34103.95
550.01	34237.36
550.18	33912.02
550.34	34260.76
550.51	34387.15
550.68	34415.24
550.84	33415.83
551.01	34176.50
551.18	33560.94
551.34	33626.48
551.51	34022.03
551.68	34209.27
551.84	34202.25
552.01	34209.27
552.18	34471.41
552.34	34279.49
552.51	34291.19
552.68	34054.79
552.84	34139.05
553.01	34099.26
553.18	33956.49
553.34	34384.81
553.51	34609.50
553.67	34646.95
553.84	34637.59
554.01	34675.04
554.17	34504.18
554.34	34539.29
554.51	34363.75
554.67	34532.26
554.84	34508.86
555.00	34363.75
555.17	34597.80
555.33	34827.17
555.50	34532.26
555.67	34749.93
555.83	34625.89
556.00	34375.45
556.16	35253.15
556.33	34539.29
556.50	34405.88
556.66	34724.19
556.83	34574.39
556.99	35000.37
557.16	35089.31
557.32	34972.28
557.49	34925.47
557.65	34181.18
557.82	34553.33
557.98	34550.99
558.15	34635.25
558.32	35157.19
558.48	34632.91
558.65	34845.90
558.81	34906.75
558.98	34974.63
559.14	34904.41
559.31	35157.19
559.47	34689.08
559.64	35077.61
559.80	35030.80
559.97	35178.25
560.13	34646.95
560.30	35402.94
560.46	35171.23
560.63	35536.35
560.79	35220.38
560.96	35023.78
561.12	35033.14
561.29	34759.30
561.45	35253.15
561.61	35498.91
561.78	34972.28
561.94	35306.98
562.11	35470.82
562.27	35379.54
562.44	35166.55
562.60	35367.84
562.77	35269.53
562.93	35515.29
563.10	35489.54
563.26	35239.11
563.42	35332.73
563.59	35496.56
563.75	35412.31
563.92	35342.09
564.08	35110.38
564.24	35140.80
564.41	35564.44
564.57	35524.65
564.74	35204.00
564.90	35402.94
565.07	35543.38
565.23	35531.67
565.39	35559.76
565.56	35531.67
565.72	35316.34
565.88	35381.88
566.05	35168.89
566.21	35405.28
566.38	35438.05
566.54	35538.69
566.70	35849.99
566.87	35569.12
567.03	35335.07
567.19	35889.77
567.36	35405.28
567.52	35438.05
567.68	35047.18
567.85	35215.70
568.01	35550.40
568.17	35498.91
568.34	35414.65
568.50	35852.33
568.66	35690.83
568.83	35737.64
568.99	35189.95
569.15	35599.55
569.32	35201.66
569.48	35182.93
569.64	35772.75
569.81	35515.29
569.97	35438.05
570.13	35796.15
570.30	35550.40
570.46	35597.21
570.62	35894.46
570.78	35519.97
570.95	35304.64
571.11	35658.06
571.27	35093.99
571.43	35213.36
571.60	35601.89
571.76	35325.71
571.92	35789.13
572.09	36147.23
572.25	35920.20
572.41	35948.29
572.57	35803.17
572.74	36065.31
572.90	35955.31
573.06	36032.55
573.22	35669.76
573.38	35599.55
573.55	35564.44
573.71	35945.95
573.87	35847.64
574.03	35997.44
574.20	35615.93
574.36	35601.89
574.52	35290.60
574.68	35669.76
574.84	35667.42
575.01	35917.86
575.17	35997.44
575.33	35592.53
575.49	36240.86
575.65	36027.87
575.82	36037.23
575.98	35838.28
576.14	35702.53
576.30	35859.35
576.46	35599.55
576.62	35538.69
576.79	36205.75
576.95	35927.22
577.11	35751.68
577.27	35871.05
577.43	35857.01
577.59	35524.65
577.75	35871.05
577.92	35552.74
578.08	35526.99
578.24	35360.81
578.40	36020.84
578.56	35709.55
578.72	36130.85
578.88	35864.03
579.04	36362.56
579.21	35651.04
579.37	35885.09
579.53	35901.48
579.69	35601.89
579.85	36020.84
580.01	36011.48
580.17	35974.03
580.33	35962.33
580.49	35826.58
580.65	36292.35
580.82	36210.43
580.98	35360.81
581.14	35892.12
581.30	36282.98
581.46	35735.30
581.62	35648.70
581.78	35068.25
581.94	36055.95
582.10	35709.55
582.26	35964.67
582.42	35398.26
582.58	36254.90
582.74	35974.03
582.90	36170.64
583.06	36051.27
583.22	35716.58
583.38	36119.15
583.54	35686.15
583.70	35969.35
583.86	35742.32
584.02	35857.01
584.18	36444.48
584.34	35819.56
584.50	35976.37
584.66	35859.35
584.82	35552.74
584.98	35559.76
585.14	35927.22
585.30	35742.32
585.46	35775.09
585.62	35747.00
585.78	35941.27
585.94	35400.60
586.10	36065.31
586.26	35763.39
586.42	36273.62
586.58	36191.70
586.74	36046.59
586.90	35882.75
587.06	35875.73
587.22	35835.94
587.38	36037.23
587.54	36442.14
587.70	36322.77
587.86	35852.33
588.02	35906.16
588.18	36203.41
588.34	36247.88
588.49	36109.78
588.65	35786.79
588.81	35716.58
588.97	36215.11
589.13	36172.98
589.29	36051.27
589.45	36137.87
589.61	35927.22
589.77	36390.65
589.93	36713.64
590.08	36149.57
590.24	35976.37
590.40	36191.70
590.56	36306.39
590.72	36053.61
590.88	35723.60
591.04	36046.59
591.20	36203.41
591.35	36072.34
