SpectraSuite Data File
++++++++++++++++++++++++++++++++++++
Date: Fri Oct 04 11:39:37 GMT-05:00 2013
User: price-jones
Dark Spectrum Present: No
Reference Spectrum Present: No
Number of Sampled Component Spectra: 1
Spectrometers: USB2+H05261
Integration Time (usec): 100000 (USB2+H05261)
Spectra Averaged: 1 (USB2+H05261)
Boxcar Smoothing: 0 (USB2+H05261)
Correct for Electrical Dark: No (USB2+H05261)
Strobe/Lamp Enabled: No (USB2+H05261)
Correct for Detector Non-linearity: No (USB2+H05261)
Correct for Stray Light: No (USB2+H05261)
Number of Pixels in Processed Spectrum: 2048
>>>>>Begin Processed Spectral Data<<<<<
365.73	119.37
365.92	119.37
366.12	119.37
366.32	32.77
366.52	0.00
366.72	0.00
366.91	0.00
367.11	0.00
367.31	0.00
367.51	0.00
367.70	0.00
367.90	0.00
368.10	0.00
368.30	0.00
368.49	46.81
368.69	0.00
368.89	0.00
369.09	0.00
369.28	2.34
369.48	0.00
369.68	14.04
369.87	0.00
370.07	7.02
370.27	46.81
370.47	86.60
370.66	264.48
370.86	332.36
371.06	313.63
371.25	365.12
371.45	381.51
371.65	337.04
371.84	327.68
372.04	351.08
372.24	428.32
372.44	407.25
372.63	395.55
372.83	496.19
373.03	425.98
373.22	332.36
373.42	437.68
373.62	440.02
373.81	496.19
374.01	475.13
374.21	461.09
374.40	454.06
374.60	528.96
374.79	500.87
374.99	540.66
375.19	449.38
375.38	552.37
375.58	449.38
375.78	535.98
375.97	561.73
376.17	552.37
376.37	559.39
376.56	517.26
376.76	505.56
376.95	505.56
377.15	550.03
377.35	531.30
377.54	528.96
377.74	503.22
377.93	547.69
378.13	519.60
378.33	575.77
378.52	573.43
378.72	545.34
378.91	517.26
379.11	526.62
379.31	587.47
379.50	482.15
379.70	580.45
379.89	514.92
380.09	557.05
380.28	564.07
380.48	599.18
380.68	561.73
380.87	514.92
381.07	655.35
381.26	634.29
381.46	674.07
381.65	627.26
381.85	564.07
382.04	718.54
382.24	662.37
382.43	641.31
382.63	688.12
382.83	702.16
383.02	695.14
383.22	676.41
383.41	638.97
383.61	725.57
383.80	676.41
384.00	643.65
384.19	725.57
384.39	713.86
384.58	688.12
384.78	720.88
384.97	744.29
385.17	683.44
385.36	655.35
385.56	746.63
385.75	678.76
385.95	772.38
386.14	737.27
386.34	755.99
386.53	772.38
386.72	690.46
386.92	758.33
387.11	732.59
387.31	770.04
387.50	767.70
387.70	702.16
387.89	767.70
388.09	739.61
388.28	777.06
388.48	788.76
388.67	702.16
388.86	819.19
389.06	870.68
389.25	837.91
389.45	844.93
389.64	844.93
389.84	866.00
390.03	873.02
390.22	868.34
390.42	873.02
390.61	826.21
390.81	875.36
391.00	875.36
391.19	978.34
391.39	891.74
391.58	903.45
391.78	856.64
391.97	896.43
392.16	985.37
392.36	957.28
392.55	933.87
392.75	957.28
392.94	870.68
393.13	938.55
393.33	950.26
393.52	938.55
393.71	1057.92
393.91	1020.47
394.10	1006.43
394.29	915.15
394.49	1041.54
394.68	987.71
394.88	1036.86
395.07	1034.52
395.26	985.37
395.46	1116.44
395.65	1022.81
395.84	1142.18
396.04	1188.99
396.23	1198.35
396.42	1081.33
396.62	1170.27
396.81	1107.07
397.00	1144.52
397.19	1151.54
397.39	1135.16
397.58	1188.99
397.77	1118.78
397.97	1207.72
398.16	1212.40
398.35	1303.68
398.55	1214.74
398.74	1214.74
398.93	1287.29
399.12	1289.64
399.32	1343.47
399.51	1228.78
399.70	1348.15
399.90	1329.42
400.09	1308.36
400.28	1343.47
400.47	1526.03
400.67	1303.68
400.86	1387.94
401.05	1437.09
401.24	1371.55
401.44	1371.55
401.63	1479.22
401.82	1495.60
402.01	1345.81
402.21	1476.88
402.40	1488.58
402.59	1558.80
402.78	1397.30
402.97	1570.50
403.17	1600.93
403.36	1561.14
403.55	1568.16
403.74	1621.99
403.93	1678.16
404.13	1739.02
404.32	1558.80
404.51	1680.50
404.70	1760.08
404.89	1556.46
405.09	1568.16
405.28	1629.01
405.47	1624.33
405.66	1734.34
405.85	1776.47
406.05	1722.63
406.24	1652.42
406.43	1858.39
406.62	1846.68
406.81	1860.73
407.00	1839.66
407.20	1827.96
407.39	1849.02
407.58	1912.22
407.77	1970.73
407.96	1867.75
408.15	1914.56
408.34	1968.39
408.54	1937.96
408.73	1952.01
408.92	2047.97
409.11	2008.18
409.30	2033.93
409.49	1949.67
409.68	2097.12
409.87	2134.57
410.07	2200.10
410.26	2193.08
410.45	2143.93
410.64	2132.23
410.83	2167.34
411.02	2207.13
411.21	2331.17
411.40	2258.62
411.59	2305.43
411.78	2244.57
411.98	2317.13
412.17	2455.22
412.36	2314.79
412.55	2473.95
412.74	2459.90
412.93	2509.05
413.12	2342.88
413.31	2551.18
413.50	2436.50
413.69	2626.08
413.88	2619.06
414.07	2605.02
414.26	2630.76
414.45	2663.53
414.64	2717.36
414.83	2881.20
415.02	2663.53
415.22	2733.75
415.41	2825.03
415.60	2895.24
415.79	2864.82
415.98	2890.56
416.17	3040.36
416.36	2895.24
416.55	3000.57
416.74	3019.29
416.93	3190.15
417.12	3103.55
417.31	3150.36
417.50	3030.99
417.69	3213.56
417.88	3220.58
418.07	3173.77
418.26	3164.40
418.45	3283.77
418.64	3417.18
418.83	3229.94
419.02	3396.12
419.21	3396.12
419.39	3398.46
419.58	3400.80
419.77	3344.63
419.96	3344.63
420.15	3515.48
420.34	3482.72
420.53	3396.12
420.72	3503.78
420.91	3569.32
421.10	3667.62
421.29	3585.70
421.48	3616.13
421.67	3602.08
421.86	3562.30
422.05	3737.84
422.24	3576.34
422.43	3674.64
422.61	3784.65
422.80	3812.73
422.99	3700.39
423.18	3763.58
423.37	3758.90
423.56	3705.07
423.75	3808.05
423.94	3646.55
424.13	3496.76
424.32	3562.30
424.50	3955.51
424.69	3861.88
424.88	3988.27
425.07	3728.47
425.26	3676.98
425.45	3763.58
425.64	3826.78
425.83	3805.71
426.01	3815.07
426.20	3707.41
426.39	3843.16
426.58	3819.75
426.77	3997.64
426.96	3838.48
427.15	3929.76
427.33	4023.38
427.52	4011.68
427.71	4114.66
427.90	4058.49
428.09	4004.66
428.28	3953.16
428.46	3964.87
428.65	4133.39
428.84	4128.70
429.03	4184.88
429.22	4077.21
429.40	4140.41
429.59	4124.02
429.78	4079.55
429.97	4067.85
430.16	4002.32
430.34	4121.68
430.53	4381.48
430.72	4379.14
430.91	4234.03
431.10	4271.48
431.28	4362.76
431.47	4533.62
431.66	4421.27
431.85	4390.84
432.03	4407.23
432.22	4662.35
432.41	4531.28
432.60	4636.60
432.79	4547.66
432.97	4383.82
433.16	4697.46
433.35	4503.19
433.54	4685.75
433.72	4631.92
433.91	4641.28
434.10	4706.82
434.28	4802.78
434.47	4863.63
434.66	4828.53
434.85	4812.14
435.03	4865.97
435.22	5093.01
435.41	5186.63
435.59	5399.62
435.78	5177.26
435.97	5027.47
436.16	4990.02
436.34	4947.89
436.53	5090.67
436.72	5107.05
436.90	4823.84
437.09	5053.22
437.28	5071.94
437.46	5125.77
437.65	5039.17
437.84	5062.58
438.02	5172.58
438.21	5181.95
438.40	5137.48
438.58	5137.48
438.77	5366.85
438.96	5221.74
439.14	5313.02
439.33	5472.17
439.52	5558.77
439.70	5509.62
439.89	5418.34
440.08	5509.62
440.26	5678.14
440.45	5734.31
440.63	5516.64
440.82	5781.12
441.01	5703.89
441.19	5757.72
441.38	5874.74
441.57	6061.99
441.75	5968.37
441.94	6059.65
442.12	5909.85
442.31	6200.08
442.50	6118.16
442.68	6071.35
442.87	6085.39
443.05	6218.80
443.24	6480.94
443.43	6284.34
443.61	6272.64
443.80	6408.39
443.98	6242.21
444.17	6155.61
444.35	6263.27
444.54	6459.88
444.73	6509.03
444.91	6352.21
445.10	6483.28
445.28	6338.17
445.47	6321.79
445.65	6448.18
445.84	6286.68
446.02	6342.85
446.21	6352.21
446.39	6282.00
446.58	6502.01
446.77	6523.07
446.95	6424.77
447.14	6392.00
447.32	6450.52
447.51	6478.60
447.69	6464.56
447.88	6523.07
448.06	6506.69
448.25	6644.78
448.43	6642.44
448.62	6427.11
448.80	6497.33
448.99	6675.21
449.17	6745.42
449.36	6525.41
449.54	6796.92
449.73	6726.70
449.91	6904.58
450.10	6890.54
450.28	6897.56
450.46	6836.70
450.65	6913.94
450.83	6829.68
451.02	6724.36
451.20	7042.67
451.39	6890.54
451.57	6871.81
451.76	6897.56
451.94	7005.22
452.13	7045.01
452.31	7040.33
452.49	6860.11
452.68	7030.97
452.86	7033.31
453.05	7213.53
453.23	7229.91
453.42	6970.12
453.60	6817.98
453.78	7234.60
453.97	7215.87
454.15	7169.06
454.34	6965.43
454.52	7229.91
454.70	7377.37
454.89	7330.56
455.07	7248.64
455.26	7365.67
455.44	7632.49
455.62	7332.90
455.81	7648.87
455.99	7599.72
456.17	7627.81
456.36	7548.23
456.54	7751.85
456.73	7602.06
456.91	7943.78
457.09	7789.30
457.28	8072.51
457.46	7850.16
457.64	7880.58
457.83	7882.92
458.01	7805.69
458.19	7915.69
458.38	7941.44
458.56	8177.83
458.74	8119.32
458.93	8133.36
459.11	8149.75
459.29	8262.09
459.48	8140.38
459.66	8173.15
459.84	8336.99
460.03	8381.46
460.21	8070.17
460.39	8142.72
460.57	8109.96
460.76	8187.19
460.94	8301.88
461.12	8224.64
461.31	8397.84
461.49	8463.38
461.67	8367.42
461.85	8638.92
462.04	8557.00
462.22	8716.16
462.40	8533.59
462.59	8690.41
462.77	8711.47
462.95	8718.50
463.13	8727.86
463.32	8805.10
463.50	8683.39
463.68	8753.60
463.86	8854.25
464.05	8641.26
464.23	8788.71
464.41	8912.76
464.59	8709.13
464.78	9062.55
464.96	8908.08
465.14	8901.06
465.32	9046.17
465.50	9282.56
465.69	9153.84
465.87	9043.83
466.05	9226.39
466.23	8973.61
466.41	8973.61
466.60	9359.80
466.78	9207.67
466.96	9179.58
467.14	8945.53
467.32	9210.01
467.51	9469.81
467.69	8973.61
467.87	9380.87
468.05	9366.82
468.23	9090.64
468.41	9359.80
468.60	9334.06
468.78	9364.48
468.96	9324.69
469.14	9551.73
469.32	9556.41
469.50	9317.67
469.69	9610.24
469.87	9710.88
470.05	9977.70
470.23	9757.69
470.41	9827.91
470.59	9781.10
470.77	9771.74
470.95	9771.74
471.14	10047.92
471.32	9973.02
471.50	10188.35
471.68	10239.84
471.86	10071.33
472.04	10106.43
472.22	10394.32
472.40	10083.03
472.58	10384.96
472.77	10061.96
472.95	10633.05
473.13	10677.52
473.31	10272.61
473.49	10466.88
473.67	10597.95
473.85	10626.03
474.03	10714.97
474.21	10806.25
474.39	10916.26
474.57	10913.92
474.75	11300.11
474.93	11206.48
475.12	10916.26
475.30	11147.97
475.48	10909.24
475.66	11178.40
475.84	11314.15
476.02	11349.26
476.20	11585.65
476.38	11592.67
476.56	11646.51
476.74	11761.19
476.92	11889.92
477.10	11908.65
477.28	12081.85
477.46	11995.25
477.64	11887.58
477.82	12131.00
478.00	12311.22
478.18	12521.87
478.36	12620.17
478.54	12568.68
478.72	12751.24
478.90	12718.47
479.08	12582.72
479.26	12844.86
479.44	12975.93
479.62	13099.98
479.80	13252.11
479.98	13273.18
480.16	13359.78
480.34	13441.70
480.52	13818.52
480.70	13682.77
480.88	13561.06
481.06	13785.76
481.24	13820.86
481.41	13816.18
481.59	14195.35
481.77	14118.11
481.95	14272.59
482.13	14626.01
482.31	14508.98
482.49	14902.19
482.67	14710.27
482.85	14963.04
483.03	15112.84
483.21	15264.97
483.39	15286.04
483.57	15332.85
483.74	15494.35
483.92	15421.79
484.10	15925.00
484.28	15939.05
484.46	16386.09
484.64	16465.67
484.82	16304.17
485.00	16407.16
485.18	16690.36
485.35	16688.02
485.53	16737.17
485.71	16842.50
485.89	17341.03
486.07	17263.79
486.25	17200.60
486.43	17149.11
486.61	17722.54
486.78	17539.97
486.96	17603.17
487.14	18293.63
487.32	18108.72
487.50	18375.55
487.68	18352.14
487.85	18728.97
488.03	18848.33
488.21	19094.09
488.39	18946.64
488.57	19227.50
488.75	19328.14
488.92	19543.47
489.10	19583.26
489.28	19520.07
489.46	19775.19
489.64	19702.63
489.81	20266.70
489.99	19981.15
490.17	20432.88
490.35	20493.73
490.53	20561.61
490.70	20849.49
490.88	20652.89
491.06	21125.68
491.24	21207.59
491.41	21472.07
491.59	21106.95
491.77	21355.05
491.95	21806.77
492.13	21816.13
492.30	21715.49
492.48	21876.99
492.66	22146.15
492.84	22043.17
493.01	22342.75
493.19	22726.60
493.37	22623.62
493.54	22728.94
493.72	22801.50
493.90	23056.62
494.08	23194.71
494.25	23468.55
494.43	23440.47
494.61	23728.35
494.79	23931.98
494.96	23754.10
495.14	23777.50
495.32	23777.50
495.49	24086.45
495.67	24416.47
495.85	24353.27
496.02	24636.48
496.20	24779.25
496.38	24680.95
496.55	24891.60
496.73	25654.61
496.91	25333.96
497.09	25682.70
497.26	25572.69
497.44	25577.37
497.62	25549.29
497.79	25902.71
497.97	25572.69
498.14	26115.70
498.32	26469.12
498.50	26609.55
498.67	26522.95
498.85	26595.51
499.03	26639.98
499.20	26735.94
499.38	26665.72
499.56	26735.94
499.73	27520.02
499.91	27414.69
500.08	27421.72
500.26	26871.69
500.44	27711.94
500.61	27365.54
500.79	27562.15
500.97	27828.97
501.14	27810.25
501.32	27740.03
501.49	27955.36
501.67	27695.56
501.84	28446.87
502.02	28236.22
502.20	28758.16
502.37	28744.12
502.55	28669.22
502.72	28606.03
502.90	28875.19
503.07	28563.90
503.25	29032.00
503.43	28601.35
503.60	29249.67
503.78	29083.50
503.95	29057.75
504.13	29528.20
504.30	29378.40
504.48	29441.60
504.65	29867.58
504.83	29944.81
505.01	30019.71
505.18	30401.22
505.36	30567.40
505.53	30164.82
505.71	29975.24
505.88	30555.69
506.06	30195.25
506.23	30628.25
506.41	30724.21
506.58	30480.80
506.76	30527.61
506.93	30419.94
507.11	30654.00
507.28	30806.13
507.46	31056.57
507.63	31145.51
507.81	31424.03
507.98	31255.51
508.16	31545.74
508.33	31398.29
508.50	31496.59
508.68	31723.62
508.85	31613.62
509.03	31992.78
509.20	31714.26
509.38	31840.65
509.55	32318.12
509.73	32458.55
509.90	32378.97
510.08	32397.70
510.25	32498.34
510.42	32694.94
510.60	32734.73
510.77	32861.12
510.95	33200.50
511.12	32858.78
511.30	33083.47
511.47	32821.33
511.64	33429.87
511.82	33722.44
511.99	32980.49
512.17	33476.68
512.34	33652.22
512.51	33848.83
512.69	33720.10
512.86	33589.03
513.04	34139.05
513.21	34167.14
513.38	34246.72
513.56	33926.07
513.73	33844.15
513.90	34319.28
514.08	34157.78
514.25	34349.70
514.43	34553.33
514.60	34660.99
514.77	34920.79
514.95	35129.10
515.12	34642.27
515.29	34712.49
515.47	34747.59
515.64	35269.53
515.81	35054.20
515.99	35386.56
516.16	35494.22
516.33	35777.43
516.51	35419.33
516.68	35381.88
516.85	35613.59
517.03	35749.34
517.20	35976.37
517.37	35683.81
517.54	36407.03
517.72	36240.86
517.89	35936.59
518.06	35857.01
518.24	36105.10
518.41	36187.02
518.58	36329.80
518.75	35873.39
518.93	36753.43
519.10	36776.84
519.27	36491.29
519.45	36643.43
519.62	36493.63
519.79	36781.52
519.96	36673.85
520.14	37207.50
520.31	37071.75
520.48	37123.24
520.65	37308.14
520.83	37596.03
521.00	37329.20
521.17	37106.85
521.34	37614.75
521.52	37593.68
521.69	37539.85
521.86	37867.53
522.03	37956.47
522.20	37958.81
522.38	37841.78
522.55	38202.22
522.72	38220.95
522.89	38047.75
523.07	38511.17
523.24	38274.78
523.41	38726.50
523.58	38520.54
523.75	38572.03
523.92	38649.27
524.10	38614.16
524.27	38770.97
524.44	39295.25
524.61	38848.21
524.78	39014.39
524.96	39007.37
525.13	39056.52
525.30	39175.89
525.47	39414.62
525.64	39269.51
525.81	39737.62
525.98	39643.99
526.16	39615.91
526.33	39660.38
526.50	40191.68
526.67	39391.22
526.84	39208.65
527.01	39580.80
527.18	39878.05
527.36	39899.11
527.53	39976.35
527.70	40229.13
527.87	40320.41
528.04	40311.05
528.21	40512.33
528.38	40046.57
528.55	40229.13
528.72	40491.27
528.89	40636.38
529.07	40165.93
529.24	40521.69
529.41	40837.67
529.58	40341.47
529.75	40605.95
529.92	40540.42
530.09	41170.02
530.26	41015.55
530.43	41102.15
530.60	40589.57
530.77	40999.16
530.94	41312.80
531.11	40765.11
531.28	40861.07
531.46	41476.63
531.63	41237.90
531.80	41708.35
531.97	41265.99
532.14	41378.33
532.31	41172.36
532.48	41825.37
532.65	41811.33
532.82	41467.27
532.99	41820.69
533.16	41698.98
533.33	41902.61
533.50	42139.00
533.67	42396.46
533.84	41895.59
534.01	42068.79
534.18	41666.22
534.35	42150.71
534.52	41996.23
534.69	42939.47
534.86	42527.53
535.03	42412.85
535.20	42597.75
535.37	42646.90
535.54	42789.67
535.71	42270.08
535.88	42293.48
536.05	42560.30
536.22	42934.79
536.38	42782.65
536.55	43093.94
536.72	42824.78
536.89	43030.75
537.06	42717.12
537.23	43164.16
537.40	42803.72
537.57	43068.20
537.74	43065.86
537.91	43398.21
538.08	43262.46
538.25	43416.94
538.42	43487.15
538.59	43501.20
538.75	43267.14
538.92	43346.72
539.09	43735.25
539.26	43882.70
539.43	43555.03
539.60	43744.61
539.77	43419.28
539.94	44053.56
540.11	44062.93
540.28	44030.16
540.44	43992.71
540.61	43952.92
540.78	43913.13
540.95	44388.26
541.12	44215.06
541.29	44521.67
541.46	43887.39
541.62	43995.05
541.79	44559.12
541.96	44287.62
542.13	43997.39
542.30	44451.45
542.47	44985.10
542.63	44797.85
542.80	44760.40
542.97	45069.36
543.14	45244.90
543.31	45024.89
543.48	45113.83
543.64	45614.70
543.81	45385.33
543.98	45418.10
544.15	45408.73
544.32	45401.71
544.48	45703.64
544.65	45427.46
544.82	45249.58
544.99	45071.70
545.16	45397.03
545.32	44985.10
545.49	45928.33
545.66	46658.58
545.83	46616.45
546.00	46281.75
546.16	45717.68
546.33	45890.88
546.50	45038.93
546.67	45771.52
546.83	45235.53
547.00	46146.00
547.17	45734.07
547.34	45717.68
547.50	46122.60
547.67	46148.34
547.84	46024.29
548.00	46333.24
548.17	46279.41
548.34	46150.68
548.51	46803.69
548.67	46298.14
548.84	46267.71
549.01	46078.13
549.18	46277.07
549.34	46401.12
549.51	46471.34
549.68	46000.89
549.84	46253.67
550.01	46415.16
550.18	46223.24
550.34	46459.63
550.51	46438.57
550.68	46609.43
550.84	46307.50
551.01	46644.54
551.18	46225.58
551.34	46092.17
551.51	46349.63
551.68	46534.53
551.84	46483.04
552.01	46813.05
552.18	46721.77
552.34	46452.61
552.51	46522.83
552.68	46431.55
552.84	46424.53
553.01	46859.87
553.18	46934.76
553.34	46789.65
553.51	46667.94
553.67	47189.88
553.84	47213.29
554.01	47292.86
554.17	47114.98
554.34	46983.91
554.51	47019.02
554.67	46979.23
554.84	47274.14
555.00	46937.10
555.17	47316.27
555.33	47519.90
555.50	47096.26
555.67	47117.32
555.83	47082.22
556.00	46988.60
556.16	47622.88
556.33	47157.11
556.50	46939.44
556.66	47330.31
556.83	47416.91
556.99	47646.29
557.16	47159.45
557.32	47255.42
557.49	47681.39
557.65	47009.66
557.82	47157.11
557.98	47304.57
558.15	47236.69
558.32	47852.25
558.48	47381.80
558.65	48069.92
558.81	47639.26
558.98	47463.72
559.14	47786.72
559.31	47267.12
559.47	47665.01
559.64	47540.96
559.80	47688.42
559.97	47770.33
560.13	47803.10
560.30	47791.40
560.46	47585.43
560.63	47796.08
560.79	47512.88
560.96	47870.98
561.12	47739.91
561.29	47557.35
561.45	47707.14
561.61	48062.90
561.78	47983.32
561.94	48151.84
562.11	48107.37
562.27	47491.81
562.44	47976.30
562.60	47800.76
562.77	47791.40
562.93	48189.29
563.10	47973.96
563.26	48004.39
563.42	48498.24
563.59	48046.52
563.75	47767.99
563.92	48037.16
564.08	48102.69
564.24	48034.81
564.41	48025.45
564.57	47665.01
564.74	48114.39
564.90	48069.92
565.07	48282.91
565.23	48378.87
565.39	48238.44
565.56	48149.50
565.72	47856.93
565.88	48013.75
566.05	47466.06
566.21	47746.93
566.38	48074.60
566.54	48243.12
566.70	48769.74
566.87	48711.23
567.03	48119.07
567.19	48575.48
567.36	48280.57
567.52	48128.44
567.68	48282.91
567.85	47952.90
568.01	48388.24
568.17	48240.78
568.34	48025.45
568.50	47983.32
568.66	48275.89
568.83	48137.80
568.99	48451.43
569.15	48025.45
569.32	47950.56
569.48	47990.34
569.64	48301.64
569.81	48058.22
569.97	48044.18
570.13	48357.81
570.30	48105.03
570.46	48018.43
570.62	48748.68
570.78	48196.31
570.95	48435.05
571.11	48449.09
571.27	48016.09
571.43	47962.26
571.60	48535.69
571.76	48465.47
571.92	48336.74
572.09	48465.47
572.25	48783.79
572.41	48493.56
572.57	48212.70
572.74	48727.61
572.90	48013.75
573.06	48641.01
573.22	48849.32
573.38	48594.20
573.55	48566.12
573.71	48753.36
573.87	48751.02
574.03	48374.19
574.20	48505.26
574.36	48521.65
574.52	48301.64
574.68	48566.12
574.84	48449.09
575.01	48762.72
575.17	48708.89
575.33	48090.99
575.49	48224.40
575.65	48467.81
575.82	48552.07
575.98	48135.46
576.14	48559.09
576.30	48301.64
576.46	48608.25
576.62	48676.12
576.79	48282.91
576.95	48624.63
577.11	48388.24
577.27	48596.54
577.43	48795.49
577.59	48442.07
577.75	48505.26
577.92	48278.23
578.08	48664.42
578.24	48566.12
578.40	48687.82
578.56	48711.23
578.72	48765.06
578.88	48612.93
579.04	48608.25
579.21	48516.96
579.37	48858.68
579.53	48622.29
579.69	48126.10
579.85	48406.96
580.01	48758.04
580.17	48336.74
580.33	48250.14
580.49	48664.42
580.65	48720.59
580.82	48428.02
580.98	48814.21
581.14	48622.29
581.30	48734.63
581.46	48154.18
581.62	48582.50
581.78	48041.84
581.94	48624.63
582.10	48526.33
582.26	48825.92
582.42	48699.53
582.58	48470.15
582.74	48458.45
582.90	48573.14
583.06	48645.69
583.22	48341.42
583.38	48863.36
583.54	48442.07
583.70	48683.14
583.86	48641.01
584.02	48474.84
584.18	48542.71
584.34	48734.63
584.50	48444.41
584.66	48552.07
584.82	48528.67
584.98	48755.70
585.14	48692.50
585.30	48346.11
585.46	48636.33
585.62	48591.86
585.78	48467.81
585.94	48655.06
586.10	48505.26
586.26	48507.60
586.42	48626.97
586.58	48725.27
586.74	48662.08
586.90	48229.08
587.06	48514.62
587.22	48821.23
587.38	48538.03
587.54	48797.83
587.70	48659.74
587.86	48924.22
588.02	48797.83
588.18	49003.80
588.34	48746.34
588.49	48547.39
588.65	48451.43
588.81	48893.79
588.97	48584.84
589.13	48465.47
589.29	48774.42
589.45	48886.77
589.61	48809.53
589.77	49462.54
589.93	48603.56
590.08	48662.08
590.24	48676.12
