SpectraSuite Data File
++++++++++++++++++++++++++++++++++++
Date: Fri Oct 04 11:39:32 GMT-05:00 2013
User: price-jones
Dark Spectrum Present: No
Reference Spectrum Present: No
Number of Sampled Component Spectra: 1
Spectrometers: USB2+H05261
Integration Time (usec): 100000 (USB2+H05261)
Spectra Averaged: 1 (USB2+H05261)
Boxcar Smoothing: 0 (USB2+H05261)
Correct for Electrical Dark: No (USB2+H05261)
Strobe/Lamp Enabled: No (USB2+H05261)
Correct for Detector Non-linearity: No (USB2+H05261)
Correct for Stray Light: No (USB2+H05261)
Number of Pixels in Processed Spectrum: 2048
>>>>>Begin Processed Spectral Data<<<<<
365.73	65.54
365.92	65.54
366.12	65.54
366.32	0.00
366.52	0.00
366.72	0.00
366.91	0.00
367.11	0.00
367.31	0.00
367.51	0.00
367.70	0.00
367.90	0.00
368.10	0.00
368.30	0.00
368.49	0.00
368.69	21.06
368.89	0.00
369.09	11.70
369.28	32.77
369.48	0.00
369.68	0.00
369.87	0.00
370.07	32.77
370.27	25.75
370.47	18.72
370.66	173.20
370.86	252.78
371.06	250.44
371.25	318.31
371.45	238.73
371.65	222.35
371.84	238.73
372.04	271.50
372.24	238.73
372.44	234.05
372.63	280.86
372.83	372.15
373.03	210.65
373.22	273.84
373.42	264.48
373.62	365.12
373.81	332.36
374.01	346.40
374.21	386.19
374.40	353.42
374.60	311.29
374.79	290.23
374.99	297.25
375.19	360.44
375.38	386.19
375.58	416.62
375.78	337.04
375.97	367.46
376.17	404.91
376.37	276.18
376.56	330.02
376.76	308.95
376.95	292.57
377.15	372.15
377.35	299.59
377.54	346.40
377.74	294.91
377.93	313.63
378.13	280.86
378.33	381.51
378.52	386.19
378.72	280.86
378.91	404.91
379.11	315.97
379.31	299.59
379.50	416.62
379.70	374.49
379.89	397.89
380.09	472.79
380.28	367.46
380.48	390.87
380.68	372.15
380.87	393.21
381.07	346.40
381.26	393.21
381.46	388.53
381.65	388.53
381.85	355.76
382.04	287.89
382.24	362.78
382.43	395.55
382.63	428.32
382.83	402.57
383.02	463.43
383.22	414.27
383.41	332.36
383.61	489.17
383.80	442.36
384.00	449.38
384.19	390.87
384.39	454.06
384.58	395.55
384.78	456.40
384.97	374.49
385.17	470.45
385.36	418.96
385.56	477.47
385.75	458.74
385.95	468.11
386.14	461.09
386.34	470.45
386.53	451.72
386.72	505.56
386.92	428.32
387.11	414.27
387.31	421.30
387.50	442.36
387.70	496.19
387.89	531.30
388.09	482.15
388.28	491.51
388.48	463.43
388.67	517.26
388.86	580.45
389.06	470.45
389.25	496.19
389.45	531.30
389.64	454.06
389.84	500.87
390.03	484.49
390.22	580.45
390.42	580.45
390.61	507.90
390.81	543.00
391.00	538.32
391.19	615.56
391.39	491.51
391.58	636.63
391.78	543.00
391.97	594.50
392.16	571.09
392.36	699.82
392.55	624.92
392.75	627.26
392.94	578.11
393.13	615.56
393.33	608.54
393.52	671.73
393.71	674.07
393.91	643.65
394.10	681.10
394.29	638.97
394.49	582.79
394.68	638.97
394.88	620.24
395.07	636.63
395.26	669.39
395.46	690.46
395.65	763.01
395.84	676.41
396.04	690.46
396.23	716.20
396.42	718.54
396.62	828.55
396.81	645.99
397.00	753.65
397.19	716.20
397.39	709.18
397.58	777.06
397.77	734.93
397.97	711.52
398.16	819.19
398.35	819.19
398.55	840.25
398.74	814.51
398.93	786.42
399.12	889.40
399.32	763.01
399.51	737.27
399.70	828.55
399.90	784.08
400.09	882.38
400.28	851.96
400.47	905.79
400.67	973.66
400.86	931.53
401.05	894.08
401.24	940.90
401.44	983.02
401.63	943.24
401.82	952.60
402.01	952.60
402.21	926.85
402.40	1018.13
402.59	1046.22
402.78	1025.15
402.97	1011.11
403.17	1029.84
403.36	1071.97
403.55	1064.94
403.74	1107.07
403.93	1128.14
404.13	1123.46
404.32	1093.03
404.51	1100.05
404.70	1179.63
404.89	1177.29
405.09	1259.21
405.28	1139.84
405.47	1214.74
405.66	1315.38
405.85	1324.74
406.05	1301.34
406.24	1287.29
406.43	1320.06
406.62	1238.14
406.81	1392.62
407.00	1289.64
407.20	1341.13
407.39	1301.34
407.58	1263.89
407.77	1486.24
407.96	1369.21
408.15	1472.20
408.34	1430.07
408.54	1493.26
408.73	1511.99
408.92	1437.09
409.11	1589.22
409.30	1504.96
409.49	1626.67
409.68	1530.71
409.87	1537.73
410.07	1617.31
410.26	1694.55
410.45	1652.42
410.64	1519.01
410.83	1771.79
411.02	1717.95
411.21	1764.76
411.40	1781.15
411.59	1739.02
411.78	1788.17
411.98	1774.13
412.17	1734.34
412.36	1762.42
412.55	1881.79
412.74	1884.13
412.93	2005.84
413.12	1956.69
413.31	2052.65
413.50	2038.61
413.69	1959.03
413.88	2076.06
414.07	2127.55
414.26	2118.18
414.45	2069.03
414.64	2083.08
414.83	2211.81
415.02	2186.06
415.22	2162.66
415.41	2307.77
415.60	2401.39
415.79	2333.51
415.98	2326.49
416.17	2305.43
416.36	2298.41
416.55	2373.30
416.74	2441.18
416.93	2457.56
417.12	2363.94
417.31	2471.61
417.50	2562.89
417.69	2583.95
417.88	2574.59
418.07	2534.80
418.26	2640.12
418.45	2546.50
418.64	2803.96
418.83	2677.57
419.02	2794.60
419.21	2796.94
419.39	2696.30
419.58	2775.88
419.77	2794.60
419.96	2843.75
420.15	2820.35
420.34	2820.35
420.53	2899.92
420.72	2874.18
420.91	3005.25
421.10	2993.55
421.29	3126.96
421.48	2906.95
421.67	2920.99
421.86	2951.42
422.05	2979.50
422.24	3012.27
422.43	2942.05
422.61	3056.74
422.80	3059.08
422.99	3047.38
423.18	3052.06
423.37	3199.51
423.56	3035.67
423.75	3040.36
423.94	3035.67
424.13	2939.71
424.32	2930.35
424.50	3138.66
424.69	3283.77
424.88	3267.39
425.07	3232.28
425.26	3141.00
425.45	3068.44
425.64	3199.51
425.83	3286.11
426.01	3199.51
426.20	3162.06
426.39	3101.21
426.58	3126.96
426.77	3145.68
426.96	3236.96
427.15	3073.12
427.33	3349.31
427.52	3295.47
427.71	3227.60
427.90	3236.96
428.09	3276.75
428.28	3169.09
428.46	3218.24
428.65	3463.99
428.84	3428.88
429.03	3442.93
429.22	3311.86
429.40	3492.08
429.59	3569.32
429.78	3382.07
429.97	3267.39
430.16	3236.96
430.34	3489.74
430.53	3543.57
430.72	3463.99
430.91	3433.57
431.10	3606.77
431.28	3754.22
431.47	3634.85
431.66	3817.41
431.85	3538.89
432.03	3880.61
432.22	3857.20
432.41	3660.60
432.60	3812.73
432.79	3775.28
432.97	3824.44
433.16	3829.12
433.35	3705.07
433.54	3861.88
433.72	3826.78
433.91	3925.08
434.10	3943.80
434.28	3943.80
434.47	3927.42
434.66	3974.23
434.85	3896.99
435.03	4084.23
435.22	4276.16
435.41	4390.84
435.59	4360.42
435.78	4313.61
435.97	4208.28
436.16	4257.43
436.34	4037.42
436.53	4107.64
436.72	4231.69
436.90	4210.62
437.09	4257.43
437.28	4114.66
437.46	4114.66
437.65	4215.30
437.84	4397.87
438.02	4290.20
438.21	4397.87
438.40	4447.02
438.58	4472.76
438.77	4521.92
438.96	4367.44
439.14	4498.51
439.33	4641.28
439.52	4545.32
439.70	4643.62
439.89	4669.37
440.08	4589.79
440.26	4833.21
440.45	4734.90
440.63	4868.31
440.82	4812.14
441.01	4805.12
441.19	4990.02
441.38	4896.40
441.57	5078.96
441.75	5057.90
441.94	5050.88
442.12	4980.66
442.31	5041.51
442.50	5060.24
442.68	5078.96
442.87	5205.35
443.05	5188.97
443.24	5266.21
443.43	5207.69
443.61	5198.33
443.80	5193.65
443.98	5245.14
444.17	5013.43
444.35	5256.84
444.54	5420.68
444.73	5303.65
444.91	5203.01
445.10	5228.76
445.28	5294.29
445.47	5294.29
445.65	5284.93
445.84	5256.84
446.02	5476.85
446.21	5313.02
446.39	5352.81
446.58	5329.40
446.77	5451.11
446.95	5359.83
447.14	5247.48
447.32	5387.91
447.51	5448.77
447.69	5378.55
447.88	5444.09
448.06	5376.21
448.25	5397.28
448.43	5579.84
448.62	5329.40
448.80	5334.08
448.99	5493.24
449.17	5565.79
449.36	5408.98
449.54	5795.17
449.73	5596.22
449.91	5809.21
450.10	5799.85
450.28	5802.19
450.46	5813.89
450.65	5907.51
450.83	5820.91
451.02	5802.19
451.20	5832.62
451.39	5853.68
451.57	5902.83
451.76	5757.72
451.94	5774.10
452.13	5930.92
452.31	6024.54
452.49	5888.79
452.68	5959.00
452.86	5757.72
453.05	5994.11
453.23	6143.91
453.42	5944.96
453.60	5994.11
453.78	5966.03
453.97	5966.03
454.15	5991.77
454.34	6047.94
454.52	6099.44
454.70	6113.48
454.89	6167.31
455.07	6155.61
455.26	6284.34
455.44	6270.30
455.62	6221.14
455.81	6331.15
455.99	6361.58
456.17	6399.02
456.36	6420.09
456.54	6293.70
456.73	6242.21
456.91	6677.55
457.09	6476.26
457.28	6691.59
457.46	6548.82
457.64	6768.83
457.83	6754.79
458.01	6523.07
458.19	6686.91
458.38	6567.54
458.56	6506.69
458.74	6843.73
458.93	6726.70
459.11	6743.08
459.29	6616.69
459.48	6939.69
459.66	6766.49
459.84	6988.84
460.03	6942.03
460.21	7073.10
460.39	6853.09
460.57	6960.75
460.76	7157.36
460.94	7087.14
461.12	6965.43
461.31	7136.29
461.49	7089.48
461.67	7019.27
461.85	7178.42
462.04	7129.27
462.22	7370.35
462.40	7204.17
462.59	7227.57
462.77	7213.53
462.95	7276.73
463.13	7431.20
463.32	7382.05
463.50	7269.70
463.68	7456.95
463.86	7606.74
464.05	7463.97
464.23	7255.66
464.41	7517.80
464.59	7295.45
464.78	7737.81
464.96	7620.78
465.14	7428.86
465.32	7625.47
465.50	7520.14
465.69	7889.95
465.87	7363.33
466.05	7709.72
466.23	7709.72
466.41	7723.77
466.60	7878.24
466.78	7817.39
466.96	7590.36
467.14	7550.57
467.32	7756.54
467.51	7775.26
467.69	7482.69
467.87	7772.92
468.05	7822.07
468.23	7735.47
468.41	7913.35
468.60	7845.48
468.78	7789.30
468.96	8065.49
469.14	7908.67
469.32	8131.02
469.50	7896.97
469.69	8325.29
469.87	8163.79
470.05	8351.03
470.23	8140.38
470.41	8187.19
470.59	8198.90
470.77	8161.45
470.95	8278.47
471.14	8449.33
471.32	8259.75
471.50	8496.14
471.68	8629.56
471.86	8439.97
472.04	8451.67
472.22	8706.79
472.40	8566.36
472.58	8758.28
472.77	8571.04
472.95	8786.37
473.13	9142.13
473.31	8840.20
473.49	8800.41
473.67	8987.66
473.85	9034.47
474.03	9067.24
474.21	8950.21
474.39	9207.67
474.57	9125.75
474.75	9235.75
474.93	9411.29
475.12	9179.58
475.30	9406.61
475.48	9249.80
475.66	9415.98
475.84	9467.47
476.02	9364.48
476.20	9603.22
476.38	9741.31
476.56	9848.97
476.74	9916.85
476.92	9703.86
477.10	9762.37
477.28	10031.54
477.46	9940.26
477.64	10139.20
477.82	10237.50
478.00	10614.33
478.18	10609.65
478.36	10626.03
478.54	10668.16
478.72	10651.78
478.90	10757.10
479.08	10824.98
479.26	10885.83
479.44	10934.98
479.62	11002.86
479.80	11059.03
479.98	11220.53
480.16	11349.26
480.34	11213.51
480.52	11386.71
480.70	11489.69
480.88	11403.09
481.06	11700.34
481.24	11698.00
481.41	11843.11
481.59	11840.77
481.77	11920.35
481.95	12451.65
482.13	12112.27
482.31	11838.43
482.49	12306.54
482.67	12528.89
482.85	12718.47
483.03	12896.35
483.21	13149.13
483.39	13125.72
483.57	12971.25
483.74	13107.00
483.92	13322.33
484.10	13179.56
484.28	13425.31
484.46	13605.53
484.64	13846.61
484.82	13413.61
485.00	13652.34
485.18	13905.12
485.35	14132.15
485.53	14307.69
485.71	14036.19
485.89	14593.24
486.07	14427.06
486.25	14539.41
486.43	14621.33
486.61	14834.32
486.78	14839.00
486.96	15194.76
487.14	15382.00
487.32	15080.07
487.50	15328.17
487.68	15513.07
487.85	15421.79
488.03	15939.05
488.21	15838.41
488.39	15925.00
488.57	16023.31
488.75	16027.99
488.92	16573.33
489.10	16496.10
489.28	16526.52
489.46	16903.35
489.64	16730.15
489.81	17092.93
489.99	16659.93
490.17	16842.50
490.35	17343.37
490.53	17357.41
490.70	17462.74
490.88	17451.03
491.06	17825.52
491.24	17696.79
491.41	17942.55
491.59	17958.93
491.77	17881.69
491.95	18415.34
492.13	18417.68
492.30	18401.29
492.48	18501.93
492.66	18712.58
492.84	18614.28
493.01	18733.65
493.19	18853.02
493.37	18860.04
493.54	19344.53
493.72	19183.03
493.90	19372.61
494.08	19154.94
494.25	19550.49
494.43	20163.72
494.61	19798.59
494.79	20222.23
494.96	19611.35
495.14	20224.57
495.32	20346.28
495.49	20283.08
495.67	20252.66
495.85	20741.83
496.02	20596.71
496.20	20690.34
496.38	21067.16
496.55	20533.52
496.73	21493.14
496.91	21235.68
497.09	21261.43
497.26	21268.45
497.44	21282.49
497.62	21429.94
497.79	21792.73
497.97	21743.58
498.14	22134.45
498.32	22164.87
498.50	22075.93
498.67	22359.14
498.85	22263.18
499.03	22466.80
499.20	22492.55
499.38	22422.33
499.56	22909.16
499.73	22874.06
499.91	23035.55
500.08	22888.10
500.26	22796.82
500.44	23311.74
500.61	23264.92
500.79	23190.03
500.97	23669.84
501.14	23826.65
501.32	23417.06
501.49	23477.91
501.67	23548.13
501.84	23775.16
502.02	23793.89
502.20	24067.73
502.37	24233.91
502.55	23784.52
502.72	24156.67
502.90	23974.11
503.07	24065.39
503.25	24439.87
503.43	24320.51
503.60	24130.92
503.78	24554.56
503.95	24772.23
504.13	24641.16
504.30	24418.81
504.48	24514.77
504.65	24940.75
504.83	24987.56
505.01	24891.60
505.18	25387.79
505.36	25617.16
505.53	25125.65
505.71	25640.57
505.88	25633.55
506.06	25167.78
506.23	25935.48
506.41	25706.10
506.58	25811.43
506.76	26143.78
506.93	26169.53
507.11	25961.22
507.28	26265.49
507.46	26150.81
507.63	26019.74
507.81	26389.54
507.98	26199.96
508.16	26555.72
508.33	26295.92
508.50	26780.41
508.68	26714.87
508.85	27218.09
509.03	26675.09
509.20	26918.50
509.38	27239.15
509.55	27461.51
509.73	26984.04
509.90	27218.09
510.08	27393.63
510.25	27711.94
510.42	27484.91
510.60	27838.33
510.77	27793.86
510.95	28343.89
511.12	27768.12
511.30	27971.74
511.47	28189.41
511.64	28168.35
511.82	28524.11
511.99	28135.58
512.17	28425.81
512.34	28180.05
512.51	28259.63
512.69	28397.72
512.86	28233.88
513.04	28893.91
513.21	29062.43
513.38	29273.08
513.56	29046.05
513.73	28896.25
513.90	29064.77
514.08	29233.29
514.25	29439.26
514.43	29666.29
514.60	29694.38
514.77	29326.91
514.95	29797.36
515.12	29039.03
515.29	29333.93
515.47	29586.71
515.64	29874.60
515.81	30003.33
515.99	29902.68
516.16	30328.66
516.33	30316.96
516.51	30057.16
516.68	30031.41
516.85	30089.93
517.03	30197.59
517.20	30176.53
517.37	30614.21
517.54	30579.10
517.72	30597.82
517.89	30412.92
518.06	30778.04
518.24	30511.22
518.41	30595.48
518.58	30668.04
518.75	31026.14
518.93	31117.42
519.10	31248.49
519.27	31290.62
519.45	31304.67
519.62	31126.78
519.79	31683.83
519.96	31459.14
520.14	31892.14
520.31	31414.67
520.48	31770.43
520.65	31463.82
520.83	31864.05
521.00	31407.65
521.17	31885.12
521.34	31952.99
521.52	32016.19
521.69	31976.40
521.86	32575.58
522.03	32629.41
522.20	32552.17
522.38	32259.60
522.55	32652.81
522.72	31821.92
522.89	32613.02
523.07	32933.68
523.24	33104.54
523.41	32851.76
523.58	32694.94
523.75	32936.02
523.92	33020.28
524.10	33123.26
524.27	32816.65
524.44	33387.74
524.61	33216.88
524.78	33247.31
524.96	33256.67
525.13	33582.01
525.30	33551.58
525.47	33596.05
525.64	33514.13
525.81	33532.86
525.98	33809.04
526.16	33694.35
526.33	33640.52
526.50	33539.88
526.67	33502.43
526.84	33961.17
527.01	33795.00
527.18	33975.22
527.36	34476.09
527.53	34216.29
527.70	34443.32
527.87	34700.78
528.04	34120.33
528.21	34171.82
528.38	34256.08
528.55	34565.03
528.72	34012.66
528.89	34565.03
529.07	34300.55
529.24	34473.75
529.41	34787.38
529.58	34572.05
529.75	34829.51
529.92	34855.26
530.09	34944.20
530.26	35009.73
530.43	35358.47
530.60	34838.87
530.77	35105.70
530.94	35047.18
531.11	35005.05
531.28	35063.57
531.46	35129.10
531.63	35136.12
531.80	35285.92
531.97	35475.50
532.14	35487.20
532.31	35414.65
532.48	35550.40
532.65	36219.79
532.82	35424.01
532.99	35739.98
533.16	35297.62
533.33	35967.01
533.50	36273.62
533.67	36187.02
533.84	35718.92
534.01	35800.83
534.18	35468.48
534.35	36084.04
534.52	35896.80
534.69	36362.56
534.86	36126.17
535.03	36378.95
535.20	36196.38
535.37	36666.83
535.54	36561.51
535.71	36154.26
535.88	36781.52
536.05	36671.51
536.22	36762.79
536.38	36823.65
536.55	36584.91
536.72	36935.99
536.89	36814.29
537.06	36809.61
537.23	37036.64
537.40	37001.53
537.57	36994.51
537.74	36989.83
537.91	37420.48
538.08	37296.44
538.25	36797.90
538.42	37305.80
538.59	37366.65
538.75	37008.55
538.92	37036.64
539.09	37151.32
539.26	37338.57
539.43	37504.74
539.60	37479.00
539.77	37343.25
539.94	37958.81
540.11	37699.01
540.28	37589.00
540.44	37560.92
540.61	37322.18
540.78	37741.14
540.95	37998.60
541.12	37752.84
541.29	38260.74
541.46	38466.70
541.62	38153.07
541.79	38258.40
541.96	37919.02
542.13	38267.76
542.30	38501.81
542.47	38616.50
542.63	38682.03
542.80	38728.84
542.97	39009.71
543.14	39555.05
543.31	38838.85
543.48	38600.12
543.64	39232.06
543.81	39051.84
543.98	39398.24
544.15	39391.22
544.32	39182.91
544.48	39405.26
544.65	39093.97
544.82	39215.68
544.99	39108.01
545.16	39379.51
545.32	39089.29
545.49	39901.45
545.66	40465.52
545.83	40320.41
546.00	40294.66
546.16	39714.21
546.33	39522.29
546.50	38778.00
546.67	38904.38
546.83	38848.21
547.00	39456.75
547.17	39335.04
547.34	39395.90
547.50	39585.48
547.67	39772.72
547.84	39505.90
548.00	39641.65
548.17	39477.82
548.34	39353.77
548.51	39618.25
548.67	40095.72
548.84	39875.71
549.01	39737.62
549.18	39796.13
549.34	39856.98
549.51	40294.66
549.68	40149.55
549.84	39948.26
550.01	39599.52
550.18	39725.91
550.34	39826.56
550.51	40390.62
550.68	40336.79
550.84	39756.34
551.01	40589.57
551.18	40114.44
551.34	39421.64
551.51	39906.13
551.68	40535.74
551.84	40364.88
552.01	40151.89
552.18	40456.16
552.34	40224.45
552.51	40142.53
552.68	40561.48
552.84	40325.09
553.01	40404.67
553.18	39969.33
553.34	40444.46
553.51	40432.75
553.67	40596.59
553.84	40587.23
554.01	41017.89
554.17	40528.72
554.34	40467.86
554.51	40456.16
554.67	40669.15
554.84	40863.41
555.00	40346.15
555.17	40818.94
555.33	40531.06
555.50	40673.83
555.67	40648.08
555.83	40662.13
556.00	40713.62
556.16	41062.36
556.33	40999.16
556.50	40467.86
556.66	40875.12
556.83	40802.56
556.99	41074.06
557.16	41181.73
557.32	41205.13
557.49	41205.13
557.65	40535.74
557.82	40610.64
557.98	40594.25
558.15	41385.35
558.32	41469.61
558.48	40996.82
558.65	40917.25
558.81	41333.86
558.98	40947.67
559.14	41352.58
559.31	40699.58
559.47	41340.88
559.64	41214.49
559.80	41247.26
559.97	41022.57
560.13	41034.27
560.30	41432.16
560.46	41294.07
560.63	41338.54
560.79	41446.21
560.96	41373.65
561.12	41581.96
561.29	41481.31
561.45	41352.58
561.61	41277.69
561.78	42047.72
561.94	41015.55
562.11	41329.18
562.27	41579.62
562.44	41277.69
562.60	41081.08
562.77	41186.41
562.93	41022.57
563.10	41326.84
563.26	41277.69
563.42	41860.48
563.59	41441.53
563.75	41539.83
563.92	41858.14
564.08	41567.91
564.24	41670.90
564.41	41350.24
564.57	41537.49
564.74	41848.78
564.90	41811.33
565.07	41715.37
565.23	41720.05
565.39	41918.99
565.56	41532.81
565.72	41427.48
565.88	41977.51
566.05	41324.50
566.21	41972.83
566.38	41392.37
566.54	41148.96
566.70	41832.39
566.87	42199.86
567.03	41755.16
567.19	42218.58
567.36	42012.62
567.52	41308.11
567.68	41521.10
567.85	41785.58
568.01	41584.30
568.17	41750.48
568.34	42223.26
568.50	41741.11
568.66	42066.45
568.83	42234.97
568.99	41347.90
569.15	41895.59
569.32	41738.77
569.48	41687.28
569.64	41837.08
569.81	42057.09
569.97	41727.07
570.13	41972.83
570.30	42082.83
570.46	41909.63
570.62	41757.50
570.78	41713.03
570.95	41670.90
571.11	41862.82
571.27	41652.17
571.43	41607.70
571.60	41532.81
571.76	41820.69
571.92	41607.70
572.09	42108.58
572.25	41986.87
572.41	41984.53
572.57	41867.50
572.74	41900.27
572.90	41834.74
573.06	41790.27
573.22	41951.76
573.38	41874.52
573.55	41900.27
573.71	42351.99
573.87	42630.52
574.03	41577.28
574.20	41860.48
574.36	41792.61
574.52	41883.89
574.68	41811.33
574.84	42202.20
575.01	42127.30
575.17	41776.22
575.33	42122.62
575.49	42157.73
575.65	42754.57
575.82	42073.47
575.98	41968.15
576.14	42391.78
576.30	41982.19
576.46	42209.22
576.62	41331.52
576.79	42244.33
576.95	42143.69
577.11	42148.37
577.27	42246.67
577.43	41965.81
577.59	41806.65
577.75	42134.32
577.92	41722.39
578.08	41848.78
578.24	42068.79
578.40	41916.65
578.56	42033.68
578.72	42253.69
578.88	42848.19
579.04	42536.90
579.21	42216.24
579.37	42061.77
579.53	42143.69
579.69	41977.51
579.85	41961.12
580.01	41698.98
580.17	41832.39
580.33	42089.85
580.49	41991.55
580.65	42438.59
580.82	42148.37
580.98	42110.92
581.14	42218.58
581.30	42047.72
581.46	42370.72
581.62	42359.02
581.78	41588.98
581.94	42110.92
582.10	41832.39
582.26	42178.79
582.42	42410.51
582.58	42572.00
582.74	42314.55
582.90	42106.24
583.06	42401.14
583.22	42330.93
583.38	42244.33
583.54	42019.64
583.70	41937.72
583.86	42209.22
584.02	41956.44
584.18	41867.50
584.34	42682.01
584.50	42363.70
584.66	42300.50
584.82	42003.25
584.98	42359.02
585.14	42043.04
585.30	41907.29
585.46	42162.41
585.62	41956.44
585.78	42295.82
585.94	42169.43
586.10	42326.25
586.26	42040.70
586.42	42412.85
586.58	42370.72
586.74	42597.75
586.90	42045.38
587.06	42031.34
587.22	42103.90
587.38	42003.25
587.54	42602.43
587.70	42560.30
587.86	42160.07
588.02	42080.49
588.18	42590.73
588.34	42148.37
588.49	42220.92
588.65	42368.38
588.81	41933.04
588.97	42293.48
589.13	42253.69
589.29	42543.92
589.45	42445.62
589.61	42321.57
589.77	42679.67
589.93	42541.58
590.08	42806.06
590.24	42532.22
590.40	42686.69
590.56	42440.93
590.72	42323.91
590.88	42209.22
591.04	42731.16
