SpectraSuite Data File
++++++++++++++++++++++++++++++++++++
Date: Fri Oct 04 11:39:12 GMT-05:00 2013
User: price-jones
Dark Spectrum Present: No
Reference Spectrum Present: No
Number of Sampled Component Spectra: 1
Spectrometers: USB2+H05261
Integration Time (usec): 100000 (USB2+H05261)
Spectra Averaged: 1 (USB2+H05261)
Boxcar Smoothing: 0 (USB2+H05261)
Correct for Electrical Dark: No (USB2+H05261)
Strobe/Lamp Enabled: No (USB2+H05261)
Correct for Detector Non-linearity: No (USB2+H05261)
Correct for Stray Light: No (USB2+H05261)
Number of Pixels in Processed Spectrum: 2048
>>>>>Begin Processed Spectral Data<<<<<
365.73	28.09
365.92	28.09
366.12	28.09
366.32	0.00
366.52	0.00
366.72	46.81
366.91	0.00
367.11	0.00
367.31	0.00
367.51	0.00
367.70	0.00
367.90	0.00
368.10	0.00
368.30	0.00
368.49	0.00
368.69	0.00
368.89	4.68
369.09	0.00
369.28	0.00
369.48	0.00
369.68	39.79
369.87	0.00
370.07	9.36
370.27	14.04
370.47	0.00
370.66	67.88
370.86	53.83
371.06	163.84
371.25	210.65
371.45	63.19
371.65	142.77
371.84	145.11
372.04	72.56
372.24	196.60
372.44	194.26
372.63	126.39
372.83	170.86
373.03	58.51
373.22	159.16
373.42	91.28
373.62	250.44
373.81	191.92
374.01	177.88
374.21	135.75
374.40	189.58
374.60	210.65
374.79	234.05
374.99	173.20
375.19	189.58
375.38	168.52
375.58	177.88
375.78	133.41
375.97	248.10
376.17	245.76
376.37	241.08
376.56	222.35
376.76	222.35
376.95	187.24
377.15	248.10
377.35	182.56
377.54	231.71
377.74	264.48
377.93	241.08
378.13	170.86
378.33	205.97
378.52	234.05
378.72	182.56
378.91	205.97
379.11	236.39
379.31	210.65
379.50	159.16
379.70	208.31
379.89	191.92
380.09	173.20
380.28	182.56
380.48	205.97
380.68	203.63
380.87	250.44
381.07	217.67
381.26	203.63
381.46	212.99
381.65	205.97
381.85	187.24
382.04	255.12
382.24	210.65
382.43	234.05
382.63	220.01
382.83	203.63
383.02	234.05
383.22	220.01
383.41	170.86
383.61	227.03
383.80	238.73
384.00	215.33
384.19	208.31
384.39	210.65
384.58	264.48
384.78	264.48
384.97	306.61
385.17	250.44
385.36	245.76
385.56	245.76
385.75	189.58
385.95	234.05
386.14	215.33
386.34	203.63
386.53	217.67
386.72	222.35
386.92	292.57
387.11	313.63
387.31	238.73
387.50	353.42
387.70	248.10
387.89	215.33
388.09	231.71
388.28	294.91
388.48	175.54
388.67	325.33
388.86	243.42
389.06	224.69
389.25	297.25
389.45	222.35
389.64	245.76
389.84	273.84
390.03	205.97
390.22	299.59
390.42	299.59
390.61	301.93
390.81	285.55
391.00	292.57
391.19	301.93
391.39	201.29
391.58	273.84
391.78	224.69
391.97	290.23
392.16	285.55
392.36	341.72
392.55	327.68
392.75	280.86
392.94	203.63
393.13	337.04
393.33	320.65
393.52	250.44
393.71	318.31
393.91	341.72
394.10	290.23
394.29	379.17
394.49	355.76
394.68	304.27
394.88	299.59
395.07	348.74
395.26	252.78
395.46	320.65
395.65	330.02
395.84	285.55
396.04	421.30
396.23	360.44
396.42	358.10
396.62	299.59
396.81	280.86
397.00	299.59
397.19	334.70
397.39	304.27
397.58	379.17
397.77	325.33
397.97	339.38
398.16	231.71
398.35	322.99
398.55	374.49
398.74	322.99
398.93	400.23
399.12	353.42
399.32	313.63
399.51	351.08
399.70	393.21
399.90	341.72
400.09	360.44
400.28	365.12
400.47	369.80
400.67	367.46
400.86	304.27
401.05	395.55
401.24	393.21
401.44	393.21
401.63	388.53
401.82	383.85
402.01	369.80
402.21	472.79
402.40	444.70
402.59	393.21
402.78	430.66
402.97	400.23
403.17	491.51
403.36	395.55
403.55	444.70
403.74	383.85
403.93	503.22
404.13	482.15
404.32	395.55
404.51	449.38
404.70	500.87
404.89	402.57
405.09	489.17
405.28	479.81
405.47	482.15
405.66	440.02
405.85	526.62
406.05	433.00
406.24	458.74
406.43	517.26
406.62	416.62
406.81	517.26
407.00	521.94
407.20	423.64
407.39	510.24
407.58	477.47
407.77	489.17
407.96	573.43
408.15	486.83
408.34	461.09
408.54	503.22
408.73	589.82
408.92	561.73
409.11	545.34
409.30	519.60
409.49	624.92
409.68	573.43
409.87	514.92
410.07	533.64
410.26	585.13
410.45	535.98
410.64	573.43
410.83	578.11
411.02	620.24
411.21	638.97
411.40	580.45
411.59	554.71
411.78	592.16
411.98	653.01
412.17	610.88
412.36	585.13
412.55	608.54
412.74	657.69
412.93	674.07
413.12	671.73
413.31	676.41
413.50	585.13
413.69	613.22
413.88	732.59
414.07	697.48
414.26	720.88
414.45	716.20
414.64	709.18
414.83	791.10
415.02	643.65
415.22	711.52
415.41	699.82
415.60	788.76
415.79	711.52
415.98	837.91
416.17	758.33
416.36	802.80
416.55	758.33
416.74	791.10
416.93	763.01
417.12	765.36
417.31	784.08
417.50	748.97
417.69	870.68
417.88	894.08
418.07	849.61
418.26	732.59
418.45	812.17
418.64	866.00
418.83	861.32
419.02	823.87
419.21	891.74
419.39	861.32
419.58	875.36
419.77	774.72
419.96	840.25
420.15	858.98
420.34	882.38
420.53	938.55
420.72	924.51
420.91	940.90
421.10	891.74
421.29	866.00
421.48	870.68
421.67	919.83
421.86	877.70
422.05	952.60
422.24	952.60
422.43	837.91
422.61	947.92
422.80	952.60
422.99	947.92
423.18	891.74
423.37	992.39
423.56	957.28
423.75	912.81
423.94	896.43
424.13	922.17
424.32	873.02
424.50	924.51
424.69	945.58
424.88	968.98
425.07	938.55
425.26	910.47
425.45	866.00
425.64	957.28
425.83	1011.11
426.01	1064.94
426.20	959.62
426.39	961.96
426.58	1043.88
426.77	976.00
426.96	1015.79
427.15	945.58
427.33	940.90
427.52	997.07
427.71	933.87
427.90	964.30
428.09	985.37
428.28	919.83
428.46	959.62
428.65	997.07
428.84	966.64
429.03	1069.62
429.22	964.30
429.40	957.28
429.59	983.02
429.78	1013.45
429.97	1100.05
430.16	926.85
430.34	1029.84
430.53	1006.43
430.72	1095.37
430.91	1036.86
431.10	1027.50
431.28	1029.84
431.47	997.07
431.66	1022.81
431.85	1156.22
432.03	1142.18
432.22	1165.59
432.41	1170.27
432.60	1142.18
432.79	1093.03
432.97	1132.82
433.16	1123.46
433.35	1078.99
433.54	1109.41
433.72	1132.82
433.91	1207.72
434.10	1083.67
434.28	1177.29
434.47	1107.07
434.66	1170.27
434.85	1238.14
435.03	1249.85
435.22	1289.64
435.41	1526.03
435.59	1493.26
435.78	1387.94
435.97	1284.95
436.16	1226.44
436.34	1177.29
436.53	1198.35
436.72	1242.82
436.90	1167.93
437.09	1284.95
437.28	1179.63
437.46	1249.85
437.65	1277.93
437.84	1235.80
438.02	1240.48
438.21	1196.01
438.40	1233.46
438.58	1320.06
438.77	1284.95
438.96	1289.64
439.14	1217.08
439.33	1350.49
439.52	1301.34
439.70	1390.28
439.89	1291.98
440.08	1256.87
440.26	1341.13
440.45	1479.22
440.63	1399.64
440.82	1394.96
441.01	1511.99
441.19	1453.47
441.38	1380.92
441.57	1392.62
441.75	1390.28
441.94	1481.56
442.12	1418.36
442.31	1448.79
442.50	1544.75
442.68	1448.79
442.87	1593.90
443.05	1500.28
443.24	1561.14
443.43	1474.54
443.61	1537.73
443.80	1572.84
443.98	1392.62
444.17	1413.68
444.35	1535.39
444.54	1500.28
444.73	1462.83
444.91	1586.88
445.10	1533.05
445.28	1472.20
445.47	1570.50
445.65	1469.86
445.84	1593.90
446.02	1614.97
446.21	1575.18
446.39	1558.80
446.58	1486.24
446.77	1521.35
446.95	1483.90
447.14	1558.80
447.32	1638.38
447.51	1472.20
447.69	1469.86
447.88	1654.76
448.06	1551.78
448.25	1547.09
448.43	1533.05
448.62	1458.15
448.80	1607.95
448.99	1582.20
449.17	1526.03
449.36	1535.39
449.54	1577.52
449.73	1540.07
449.91	1593.90
450.10	1621.99
450.28	1610.29
450.46	1598.59
450.65	1533.05
450.83	1547.09
451.02	1591.56
451.20	1570.50
451.39	1687.53
451.57	1689.87
451.76	1694.55
451.94	1586.88
452.13	1603.27
452.31	1671.14
452.49	1694.55
452.68	1708.59
452.86	1708.59
453.05	1755.40
453.23	1643.06
453.42	1708.59
453.60	1678.16
453.78	1666.46
453.97	1528.37
454.15	1638.38
454.34	1753.06
454.52	1750.72
454.70	1682.85
454.89	1708.59
455.07	1657.10
455.26	1696.89
455.44	1764.76
455.62	1785.83
455.81	1732.00
455.99	1837.32
456.17	1870.09
456.36	1717.95
456.54	1802.21
456.73	1724.97
456.91	1842.00
457.09	1900.52
457.28	1909.88
457.46	1907.54
457.64	1858.39
457.83	1839.66
458.01	1858.39
458.19	1914.56
458.38	1806.89
458.56	1860.73
458.74	1834.98
458.93	1856.04
459.11	1884.13
459.29	1907.54
459.48	1956.69
459.66	1874.77
459.84	1926.26
460.03	1935.62
460.21	1788.17
460.39	1987.11
460.57	1944.99
460.76	1930.94
460.94	1902.86
461.12	2033.93
461.31	1982.43
461.49	1998.82
461.67	2033.93
461.85	1942.64
462.04	1952.01
462.22	2085.42
462.40	2069.03
462.59	2001.16
462.77	1916.90
462.95	2078.40
463.13	2012.86
463.32	2019.88
463.50	2043.29
463.68	2165.00
463.86	2033.93
464.05	2029.24
464.23	2012.86
464.41	1968.39
464.59	2040.95
464.78	2073.71
464.96	1970.73
465.14	1966.05
465.32	2125.21
465.50	2059.67
465.69	2038.61
465.87	2104.14
466.05	2167.34
466.23	2111.16
466.41	2059.67
466.60	2094.78
466.78	2150.95
466.96	2092.44
467.14	2120.53
467.32	2176.70
467.51	2242.23
467.69	2094.78
467.87	2188.40
468.05	2104.14
468.23	2125.21
468.41	2162.66
468.60	2207.13
468.78	2214.15
468.96	2183.72
469.14	2253.94
469.32	2186.06
469.50	2125.21
469.69	2197.76
469.87	2363.94
470.05	2183.72
470.23	2225.85
470.41	2221.17
470.59	2291.38
470.77	2256.28
470.95	2221.17
471.14	2340.54
471.32	2326.49
471.50	2342.88
471.68	2366.28
471.86	2270.32
472.04	2469.27
472.22	2363.94
472.40	2202.44
472.58	2389.69
472.77	2324.15
472.95	2356.92
473.13	2469.27
473.31	2452.88
473.49	2349.90
473.67	2429.48
473.85	2452.88
474.03	2487.99
474.21	2410.75
474.39	2452.88
474.57	2527.78
474.75	2471.61
474.93	2410.75
475.12	2516.08
475.30	2607.36
475.48	2490.33
475.66	2588.63
475.84	2539.48
476.02	2686.94
476.20	2682.25
476.38	2626.08
476.56	2801.62
476.74	2558.21
476.92	2607.36
477.10	2724.38
477.28	2757.15
477.46	2663.53
477.64	2717.36
477.82	2761.83
478.00	2731.41
478.18	2862.48
478.36	2855.45
478.54	2876.52
478.72	2946.73
478.90	2810.98
479.08	2801.62
479.26	2871.84
479.44	2984.18
479.62	2853.11
479.80	2930.35
479.98	2932.69
480.16	3148.02
480.34	2944.39
480.52	3073.12
480.70	3033.33
480.88	3000.57
481.06	3169.09
481.24	3136.32
481.41	3351.65
481.59	3194.83
481.77	3136.32
481.95	3124.62
482.13	3325.90
482.31	3211.22
482.49	3365.69
482.67	3229.94
482.85	3290.79
483.03	3431.23
483.21	3407.82
483.39	3431.23
483.57	3337.60
483.74	3494.42
483.92	3562.30
484.10	3435.91
484.28	3611.45
484.46	3576.34
484.64	3674.64
484.82	3571.66
485.00	3716.77
485.18	3742.52
485.35	3936.78
485.53	3721.45
485.71	3744.86
485.89	3824.44
486.07	3786.99
486.25	3740.18
486.43	3770.60
486.61	4011.68
486.78	4037.42
486.96	3882.95
487.14	4074.87
487.32	4039.76
487.50	4072.53
487.68	4056.15
487.85	4121.68
488.03	4049.13
488.21	4257.43
488.39	4135.73
488.57	4198.92
488.75	4341.69
488.92	4662.35
489.10	4344.03
489.28	4400.21
489.46	4491.49
489.64	4210.62
489.81	4435.32
489.99	4545.32
490.17	4479.79
490.35	4648.30
490.53	4505.53
490.70	4505.53
490.88	4498.51
491.06	4636.60
491.24	4461.06
491.41	4636.60
491.59	4652.98
491.77	4652.98
491.95	4734.90
492.13	4704.48
492.30	4685.75
492.48	4980.66
492.66	4912.78
492.84	4912.78
493.01	4800.44
493.19	4917.47
493.37	5097.69
493.54	5036.83
493.72	4971.30
493.90	4933.85
494.08	4933.85
494.25	5118.75
494.43	5217.05
494.61	5158.54
494.79	5310.68
494.96	5249.82
495.14	5252.16
495.32	5245.14
495.49	5270.89
495.67	5156.20
495.85	5364.51
496.02	5303.65
496.20	5404.30
496.38	5315.36
496.55	5458.13
496.73	5549.41
496.91	5533.03
497.09	5551.75
497.26	5586.86
497.44	5549.41
497.62	5551.75
497.79	5502.60
497.97	5795.17
498.14	5638.35
498.32	5797.51
498.50	5668.78
498.67	5734.31
498.85	5813.89
499.03	5851.34
499.20	5809.21
499.38	5790.49
499.56	5825.59
499.73	5872.40
499.91	5912.19
500.08	5949.64
500.26	5947.30
500.44	5729.63
500.61	5984.75
500.79	5987.09
500.97	6246.89
501.14	6148.59
501.32	6026.88
501.49	6127.52
501.67	6125.18
501.84	6101.78
502.02	6181.35
502.20	6050.28
502.37	6277.32
502.55	6057.31
502.72	6225.82
502.90	6146.25
503.07	6251.57
503.25	6300.72
503.43	6104.12
503.60	6225.82
503.78	6375.62
503.95	6300.72
504.13	6394.34
504.30	6256.25
504.48	6370.94
504.65	6434.13
504.83	6293.70
505.01	6548.82
505.18	6588.61
505.36	6672.87
505.53	6504.35
505.71	6349.87
505.88	6562.86
506.06	6413.07
506.23	6619.04
506.41	6619.04
506.58	6586.27
506.76	6757.13
506.93	6630.74
507.11	6588.61
507.28	6752.45
507.46	6944.37
507.63	6677.55
507.81	6761.81
507.98	6579.25
508.16	6794.58
508.33	6731.38
508.50	6890.54
508.68	7019.27
508.85	6799.26
509.03	6682.23
509.20	6836.70
509.38	6911.60
509.55	6981.82
509.73	7192.47
509.90	6867.13
510.08	6984.16
510.25	6970.12
510.42	7040.33
510.60	7155.02
510.77	7246.30
510.95	6946.71
511.12	7110.55
511.30	7098.84
511.47	7239.28
511.64	7250.98
511.82	7236.94
511.99	7314.17
512.17	7199.49
512.34	7192.47
512.51	7185.44
512.69	7321.20
512.86	7501.42
513.04	7229.91
513.21	7206.51
513.38	7276.73
513.56	7089.48
513.73	7314.17
513.90	7403.11
514.08	7335.24
514.25	7323.54
514.43	7442.90
514.60	7492.05
514.77	7321.20
514.95	7510.78
515.12	7290.77
515.29	7494.40
515.47	7639.51
515.64	7691.00
515.81	7667.60
515.99	7660.57
516.16	7592.70
516.33	7660.57
516.51	7555.25
516.68	7562.27
516.85	7625.47
517.03	7693.34
517.20	7751.85
517.37	7793.98
517.54	7749.51
517.72	7859.52
517.89	7878.24
518.06	7644.19
518.24	7683.98
518.41	7845.48
518.58	7894.63
518.75	7653.55
518.93	7915.69
519.10	7896.97
519.27	7915.69
519.45	7934.42
519.62	8011.65
519.79	8011.65
519.96	7953.14
520.14	7974.21
520.31	7943.78
520.48	8217.62
520.65	7892.29
520.83	8128.68
521.00	8189.53
521.17	8152.09
521.34	8046.76
521.52	7967.18
521.69	8112.30
521.86	8182.51
522.03	8060.80
522.20	8177.83
522.38	8395.50
522.55	8234.00
522.72	8257.41
522.89	8243.37
523.07	8533.59
523.24	8098.25
523.41	8269.11
523.58	8177.83
523.75	8355.71
523.92	8465.72
524.10	8379.12
524.27	8393.16
524.44	8318.26
524.61	8557.00
524.78	8510.19
524.96	8411.89
525.13	8461.04
525.30	8613.17
525.47	8463.38
525.64	8461.04
525.81	8547.64
525.98	8461.04
526.16	8578.06
526.33	8456.36
526.50	8435.29
526.67	8662.32
526.84	8589.77
527.01	8557.00
527.18	8674.03
527.36	8580.40
527.53	8435.29
527.70	8624.87
527.87	8695.09
528.04	8795.73
528.21	8734.88
528.38	8573.38
528.55	8521.89
528.72	8828.50
528.89	8791.05
529.07	8664.66
529.24	8671.68
529.41	8793.39
529.58	8849.57
529.75	8744.24
529.92	8830.84
530.09	8823.82
530.26	9041.49
530.43	8987.66
530.60	8870.63
530.77	8840.20
530.94	9018.08
531.11	8786.37
531.28	8978.30
531.46	8875.31
531.63	8863.61
531.80	9224.05
531.97	9142.13
532.14	9177.24
532.31	8903.40
532.48	9177.24
532.65	8933.82
532.82	9018.08
532.99	8997.02
533.16	9198.31
533.33	9198.31
533.50	9266.18
533.67	9235.75
533.84	9245.12
534.01	9228.73
534.18	9259.16
534.35	9221.71
534.52	9029.79
534.69	9268.52
534.86	9167.88
535.03	9261.50
535.20	9160.86
535.37	9343.42
535.54	9228.73
535.71	9100.00
535.88	9263.84
536.05	9305.97
536.22	9369.16
536.38	9256.82
536.55	9277.88
536.72	9383.21
536.89	9488.53
537.06	9343.42
537.23	9570.45
537.40	9259.16
537.57	9446.40
537.74	9437.04
537.91	9509.60
538.08	9352.78
538.25	9446.40
538.42	9235.75
538.59	9680.46
538.75	9364.48
538.92	9525.98
539.09	9451.08
539.26	9596.20
539.43	9582.15
539.60	9675.77
539.77	9671.09
539.94	9521.30
540.11	9701.52
540.28	9596.20
540.44	9717.90
540.61	9680.46
540.78	9645.35
540.95	9858.34
541.12	9914.51
541.29	9827.91
541.46	9776.42
541.62	9764.72
541.79	9991.75
541.96	9823.23
542.13	9738.97
542.30	9853.66
542.47	10022.17
542.63	9844.29
542.80	9802.16
542.97	10001.11
543.14	10157.92
543.31	10064.30
543.48	10171.97
543.64	10108.77
543.81	9980.04
543.98	10106.43
544.15	10054.94
544.32	10242.18
544.48	10040.90
544.65	10076.01
544.82	9825.57
544.99	9968.34
545.16	10214.10
545.32	10209.42
545.49	10532.41
545.66	10499.64
545.83	10668.16
546.00	10736.04
546.16	10375.59
546.33	10188.35
546.50	10061.96
546.67	10122.82
546.83	9935.57
547.00	10071.33
547.17	10052.60
547.34	9722.59
547.50	9977.70
547.67	10171.97
547.84	10078.35
548.00	10001.11
548.17	10338.15
548.34	10190.69
548.51	10071.33
548.67	10083.03
548.84	10286.65
549.01	10153.24
549.18	10424.75
549.34	10363.89
549.51	9933.23
549.68	10078.35
549.84	10225.80
550.01	10178.99
550.18	10204.74
550.34	10272.61
550.51	10214.10
550.68	10340.49
550.84	10160.27
551.01	10349.85
551.18	10052.60
551.34	10157.92
551.51	10143.88
551.68	10352.19
551.84	10417.72
552.01	10211.76
552.18	10267.93
552.34	10134.52
552.51	10174.31
552.68	10230.48
552.84	10216.44
553.01	10141.54
553.18	10242.18
553.34	10356.87
553.51	10352.19
553.67	10333.47
553.84	10429.43
554.01	10277.29
554.17	10235.16
554.34	10483.26
554.51	10207.08
554.67	10366.23
554.84	10415.38
555.00	10338.15
555.17	10281.97
555.33	10321.76
555.50	10340.49
555.67	10239.84
555.83	10164.95
556.00	10293.68
556.16	10714.97
556.33	10424.75
556.50	10251.55
556.66	10567.52
556.83	10469.22
556.99	10228.14
557.16	10576.88
557.32	10415.38
557.49	10387.30
557.65	10396.66
557.82	10537.09
557.98	10427.09
558.15	10387.30
558.32	10464.54
558.48	10471.56
558.65	10698.59
558.81	10424.75
558.98	10539.43
559.14	10588.58
559.31	10373.25
559.47	10396.66
559.64	10494.96
559.80	10600.29
559.97	10401.34
560.13	10394.32
560.30	10668.16
560.46	10354.53
560.63	10251.55
560.79	10462.19
560.96	10527.73
561.12	10420.06
561.29	10518.37
561.45	10469.22
561.61	10455.17
561.78	10757.10
561.94	10548.79
562.11	10464.54
562.27	10583.90
562.44	10459.85
562.60	10408.36
562.77	10534.75
562.93	10448.15
563.10	10431.77
563.26	10497.30
563.42	10450.49
563.59	10719.65
563.75	10441.13
563.92	10532.41
564.08	10738.38
564.24	10523.05
564.41	10792.21
564.57	10539.43
564.74	10417.72
564.90	10700.93
565.07	10619.01
565.23	10686.89
565.39	10626.03
565.56	10745.40
565.72	10321.76
565.88	10719.65
566.05	10670.50
566.21	10478.58
566.38	10530.07
566.54	10626.03
566.70	10787.53
566.87	10656.46
567.03	10586.24
567.19	11061.37
567.36	10773.49
567.52	10497.30
567.68	10530.07
567.85	10509.01
568.01	10579.22
568.17	10616.67
568.34	10710.29
568.50	10712.63
568.66	10511.35
568.83	10719.65
568.99	10647.10
569.15	10443.47
569.32	10710.29
569.48	10448.15
569.64	10757.10
569.81	10693.91
569.97	10679.86
570.13	10766.46
570.30	10817.96
570.46	10604.97
570.62	10600.29
570.78	10609.65
570.95	10574.54
571.11	10721.99
571.27	10754.76
571.43	10541.77
571.60	10686.89
571.76	10630.71
571.92	10981.79
572.09	10719.65
572.25	10626.03
572.41	10616.67
572.57	10810.93
572.74	10834.34
572.90	10623.69
573.06	10853.06
573.22	10733.70
573.38	10937.32
573.55	10871.79
573.71	10600.29
573.87	10684.55
574.03	10579.22
574.20	10909.24
574.36	10569.86
574.52	10576.88
574.68	10906.90
574.84	10775.83
575.01	10832.00
575.17	10750.08
575.33	10904.56
575.49	10640.08
575.65	10775.83
575.82	10623.69
575.98	10675.18
576.14	10794.55
576.30	10733.70
576.46	10876.47
576.62	10834.34
576.79	10656.46
576.95	10806.25
577.11	10986.47
577.27	10764.12
577.43	10780.51
577.59	10724.33
577.75	10860.09
577.92	10579.22
578.08	10377.94
578.24	10778.17
578.40	10759.44
578.56	10850.72
578.72	10705.61
578.88	11077.76
579.04	10806.25
579.21	10789.87
579.37	10874.13
579.53	10773.49
579.69	10714.97
579.85	10707.95
580.01	10705.61
580.17	10834.34
580.33	10733.70
580.49	10532.41
580.65	10743.06
580.82	10827.32
580.98	10754.76
581.14	10766.46
581.30	10853.06
581.46	10623.69
581.62	10729.02
581.78	10668.16
581.94	10721.99
582.10	10836.68
582.26	10607.31
582.42	10853.06
582.58	10752.42
582.74	10792.21
582.90	10904.56
583.06	10967.75
583.22	11087.12
583.38	10745.40
583.54	10883.49
583.70	10974.77
583.86	11047.33
584.02	10654.12
584.18	10759.44
584.34	10846.04
584.50	10958.39
584.66	10759.44
584.82	10743.06
584.98	10721.99
585.14	10949.03
585.30	10874.13
585.46	10752.42
585.62	10899.87
585.78	10733.70
585.94	10878.81
586.10	10920.94
586.26	10698.59
586.42	10913.92
586.58	11171.38
586.74	10972.43
586.90	11023.92
587.06	10750.08
587.22	10860.09
587.38	10752.42
587.54	10925.62
587.70	10775.83
587.86	10834.34
588.02	10829.66
588.18	10869.45
588.34	10846.04
588.49	10747.74
588.65	10806.25
588.81	10757.10
588.97	10782.85
589.13	10675.18
589.29	10745.40
589.45	10965.41
589.61	11028.60
589.77	10663.48
589.93	10752.42
590.08	10970.09
590.24	11061.37
590.40	10656.46
590.56	11082.44
590.72	10927.96
590.88	10642.42
591.04	10885.83
591.20	10686.89
591.35	10906.90
591.51	11122.23
591.67	11075.42
591.83	10822.64
591.99	10810.93
592.15	11044.99
592.31	10949.03
592.46	10815.62
592.62	10867.11
592.78	10979.45
592.94	10712.63
593.10	10916.26
593.26	10766.46
593.41	10839.02
593.57	10839.02
593.73	10913.92
593.89	10803.91
594.05	10785.19
594.20	10799.23
594.36	10862.43
594.52	10892.85
594.68	10970.09
594.84	10848.38
594.99	10897.53
595.15	10778.17
595.31	10803.91
595.47	10876.47
595.62	11166.70
595.78	10956.05
595.94	10799.23
596.10	10759.44
596.25	10984.13
