SpectraSuite Data File
++++++++++++++++++++++++++++++++++++
Date: Fri Oct 04 11:39:17 GMT-05:00 2013
User: price-jones
Dark Spectrum Present: No
Reference Spectrum Present: No
Number of Sampled Component Spectra: 1
Spectrometers: USB2+H05261
Integration Time (usec): 100000 (USB2+H05261)
Spectra Averaged: 1 (USB2+H05261)
Boxcar Smoothing: 0 (USB2+H05261)
Correct for Electrical Dark: No (USB2+H05261)
Strobe/Lamp Enabled: No (USB2+H05261)
Correct for Detector Non-linearity: No (USB2+H05261)
Correct for Stray Light: No (USB2+H05261)
Number of Pixels in Processed Spectrum: 2048
>>>>>Begin Processed Spectral Data<<<<<
365.73	46.81
365.92	46.81
366.12	46.81
366.32	0.00
366.52	11.70
366.72	32.77
366.91	11.70
367.11	0.00
367.31	0.00
367.51	0.00
367.70	0.00
367.90	0.00
368.10	0.00
368.30	0.00
368.49	0.00
368.69	16.38
368.89	0.00
369.09	18.72
369.28	0.00
369.48	14.04
369.68	44.47
369.87	0.00
370.07	53.83
370.27	25.75
370.47	49.15
370.66	196.60
370.86	306.61
371.06	353.42
371.25	332.36
371.45	315.97
371.65	287.89
371.84	266.82
372.04	266.82
372.24	264.48
372.44	315.97
372.63	341.72
372.83	264.48
373.03	353.42
373.22	344.06
373.42	358.10
373.62	358.10
373.81	308.95
374.01	325.33
374.21	374.49
374.40	397.89
374.60	395.55
374.79	395.55
374.99	337.04
375.19	440.02
375.38	423.64
375.58	386.19
375.78	362.78
375.97	472.79
376.17	442.36
376.37	355.76
376.56	337.04
376.76	388.53
376.95	390.87
377.15	376.83
377.35	475.13
377.54	489.17
377.74	465.77
377.93	390.87
378.13	386.19
378.33	451.72
378.52	374.49
378.72	444.70
378.91	437.68
379.11	500.87
379.31	477.47
379.50	433.00
379.70	470.45
379.89	470.45
380.09	346.40
380.28	425.98
380.48	433.00
380.68	425.98
380.87	465.77
381.07	428.32
381.26	442.36
381.46	535.98
381.65	486.83
381.85	498.53
382.04	449.38
382.24	454.06
382.43	519.60
382.63	463.43
382.83	543.00
383.02	444.70
383.22	568.75
383.41	505.56
383.61	421.30
383.80	514.92
384.00	550.03
384.19	580.45
384.39	543.00
384.58	543.00
384.78	512.58
384.97	535.98
385.17	496.19
385.36	514.92
385.56	587.47
385.75	510.24
385.95	552.37
386.14	547.69
386.34	538.32
386.53	620.24
386.72	519.60
386.92	514.92
387.11	638.97
387.31	606.20
387.50	538.32
387.70	493.85
387.89	622.58
388.09	606.20
388.28	624.92
388.48	517.26
388.67	601.52
388.86	564.07
389.06	617.90
389.25	643.65
389.45	622.58
389.64	596.84
389.84	653.01
390.03	706.84
390.22	641.31
390.42	671.73
390.61	688.12
390.81	653.01
391.00	695.14
391.19	737.27
391.39	716.20
391.58	821.53
391.78	655.35
391.97	772.38
392.16	657.69
392.36	648.33
392.55	835.57
392.75	765.36
392.94	718.54
393.13	748.97
393.33	734.93
393.52	727.91
393.71	744.29
393.91	798.12
394.10	692.80
394.29	697.48
394.49	800.46
394.68	751.31
394.88	725.57
395.07	828.55
395.26	802.80
395.46	800.46
395.65	858.98
395.84	847.27
396.04	800.46
396.23	784.08
396.42	828.55
396.62	894.08
396.81	917.49
397.00	837.91
397.19	814.51
397.39	887.06
397.58	863.66
397.77	880.04
397.97	880.04
398.16	912.81
398.35	954.94
398.55	931.53
398.74	968.98
398.93	889.40
399.12	973.66
399.32	959.62
399.51	1034.52
399.70	1069.62
399.90	985.37
400.09	1130.48
400.28	1032.18
400.47	1039.20
400.67	1060.26
400.86	1090.69
401.05	1165.59
401.24	1132.82
401.44	1142.18
401.63	1170.27
401.82	1210.06
402.01	1083.67
402.21	1186.65
402.40	1198.35
402.59	1219.42
402.78	1128.14
402.97	1088.35
403.17	1174.95
403.36	1167.93
403.55	1158.57
403.74	1198.35
403.93	1308.36
404.13	1238.14
404.32	1336.45
404.51	1324.74
404.70	1362.19
404.89	1315.38
405.09	1357.51
405.28	1387.94
405.47	1343.47
405.66	1441.77
405.85	1378.58
406.05	1425.39
406.24	1387.94
406.43	1444.11
406.62	1495.60
406.81	1579.86
407.00	1371.55
407.20	1425.39
407.39	1430.07
407.58	1558.80
407.77	1490.92
407.96	1596.25
408.15	1593.90
408.34	1497.94
408.54	1645.40
408.73	1633.69
408.92	1579.86
409.11	1561.14
409.30	1650.08
409.49	1636.03
409.68	1638.38
409.87	1692.21
410.07	1743.70
410.26	1710.93
410.45	1729.66
410.64	1746.04
410.83	1818.60
411.02	1767.10
411.21	1781.15
411.40	1750.72
411.59	1837.32
411.78	1872.43
411.98	1837.32
412.17	1877.11
412.36	1891.15
412.55	1991.80
412.74	1956.69
412.93	1914.56
413.12	2029.24
413.31	2115.84
413.50	2050.31
413.69	2010.52
413.88	2127.55
414.07	2047.97
414.26	2108.82
414.45	2256.28
414.64	2127.55
414.83	2207.13
415.02	2204.78
415.22	2293.72
415.41	2291.38
415.60	2392.03
415.79	2476.29
415.98	2431.82
416.17	2385.01
416.36	2385.01
416.55	2345.22
416.74	2406.07
416.93	2520.76
417.12	2445.86
417.31	2569.91
417.50	2558.21
417.69	2565.23
417.88	2579.27
418.07	2546.50
418.26	2600.34
418.45	2677.57
418.64	2712.68
418.83	2726.72
419.02	2738.43
419.21	2726.72
419.39	2750.13
419.58	2731.41
419.77	2764.17
419.96	2827.37
420.15	2878.86
420.34	2768.85
420.53	2747.79
420.72	2932.69
420.91	2878.86
421.10	2972.48
421.29	2918.65
421.48	2869.50
421.67	3023.97
421.86	2977.16
422.05	2951.42
422.24	2890.56
422.43	3038.02
422.61	2939.71
422.80	3016.95
422.99	3141.00
423.18	3236.96
423.37	3061.42
423.56	3159.72
423.75	2944.39
423.94	3091.85
424.13	2867.16
424.32	2965.46
424.50	3115.25
424.69	3026.31
424.88	3185.47
425.07	3080.14
425.26	3150.36
425.45	3049.72
425.64	3185.47
425.83	3236.96
426.01	3304.84
426.20	3073.12
426.39	3251.00
426.58	3101.21
426.77	3126.96
426.96	3213.56
427.15	3204.19
427.33	3218.24
427.52	3232.28
427.71	3215.90
427.90	3300.16
428.09	3358.67
428.28	3346.97
428.46	3255.69
428.65	3321.22
428.84	3417.18
429.03	3471.01
429.22	3323.56
429.40	3449.95
429.59	3386.76
429.78	3393.78
429.97	3281.43
430.16	3262.71
430.34	3503.78
430.53	3414.84
430.72	3513.14
430.91	3478.04
431.10	3438.25
431.28	3723.79
431.47	3613.79
431.66	3604.42
431.85	3634.85
432.03	3714.43
432.22	3824.44
432.41	3686.34
432.60	3786.99
432.79	3726.13
432.97	3798.69
433.16	3737.84
433.35	3798.69
433.54	3955.51
433.72	3824.44
433.91	3850.18
434.10	3901.67
434.28	3796.35
434.47	3960.19
434.66	4070.19
434.85	3960.19
435.03	4004.66
435.22	4060.83
435.41	4337.01
435.59	4402.55
435.78	4112.32
435.97	4189.56
436.16	4142.75
436.34	3892.31
436.53	4081.89
436.72	4161.47
436.90	4107.64
437.09	4112.32
437.28	4121.68
437.46	4030.40
437.65	4269.14
437.84	4283.18
438.02	4145.09
438.21	4257.43
438.40	4301.90
438.58	4344.03
438.77	4432.97
438.96	4430.63
439.14	4491.49
439.33	4451.70
439.52	4449.36
439.70	4561.70
439.89	4643.62
440.08	4685.75
440.26	4531.28
440.45	4643.62
440.63	4706.82
440.82	4699.80
441.01	4840.23
441.19	4746.61
441.38	4954.91
441.57	4795.76
441.75	4929.17
441.94	4968.96
442.12	4887.04
442.31	4973.64
442.50	5118.75
442.68	4999.38
442.87	5095.35
443.05	5174.92
443.24	5128.11
443.43	5165.56
443.61	5001.72
443.80	5217.05
443.98	5060.24
444.17	5135.14
444.35	5184.29
444.54	5172.58
444.73	5235.78
444.91	5214.71
445.10	5048.54
445.28	5313.02
445.47	5139.82
445.65	5125.77
445.84	5158.54
446.02	5317.70
446.21	5233.44
446.39	5343.44
446.58	5252.16
446.77	5345.78
446.95	5219.39
447.14	5432.38
447.32	5203.01
447.51	5483.88
447.69	5287.27
447.88	5465.15
448.06	5364.51
448.25	5345.78
448.43	5465.15
448.62	5467.49
448.80	5336.42
448.99	5366.85
449.17	5490.90
449.36	5460.47
449.54	5638.35
449.73	5636.01
449.91	5596.22
450.10	5757.72
450.28	5853.68
450.46	5727.29
450.65	5699.20
450.83	5767.08
451.02	5551.75
451.20	5696.86
451.39	5717.93
451.57	5884.11
451.76	5701.54
451.94	5771.76
452.13	5942.62
452.31	6066.67
452.49	5832.62
452.68	5846.66
452.86	5968.37
453.05	6033.90
453.23	5912.19
453.42	5984.75
453.60	5830.27
453.78	5977.73
453.97	5909.85
454.15	6017.52
454.34	5809.21
454.52	5994.11
454.70	6258.59
454.89	6057.31
455.07	6141.57
455.26	6179.01
455.44	6317.11
455.62	6237.53
455.81	6104.12
455.99	6354.55
456.17	6417.75
456.36	6317.11
456.54	6417.75
456.73	6471.58
456.91	6729.04
457.09	6604.99
457.28	6832.02
457.46	6422.43
457.64	6651.80
457.83	6651.80
458.01	6654.14
458.19	6619.04
458.38	6548.82
458.56	6715.00
458.74	6740.74
458.93	6656.48
459.11	6846.07
459.29	6736.06
459.48	6775.85
459.66	6665.85
459.84	6881.18
460.03	6960.75
460.21	6778.19
460.39	6878.83
460.57	6773.51
460.76	6923.30
460.94	7180.76
461.12	6881.18
461.31	7091.82
461.49	6965.43
461.67	7073.10
461.85	7286.09
462.04	7133.95
462.22	7728.45
462.40	7136.29
462.59	7248.64
462.77	7049.69
462.95	7183.10
463.13	7351.62
463.32	7337.58
463.50	7400.77
463.68	7243.96
463.86	7384.39
464.05	7375.03
464.23	7417.16
464.41	7468.65
464.59	7267.36
464.78	7482.69
464.96	7576.31
465.14	7293.11
465.32	7545.89
465.50	7744.83
465.69	7784.62
465.87	7412.48
466.05	7482.69
466.23	7445.24
466.41	7522.48
466.60	8016.33
466.78	7653.55
466.96	7674.62
467.14	7676.96
467.32	7693.34
467.51	7974.21
467.69	7749.51
467.87	8077.19
468.05	7777.60
468.23	7763.56
468.41	7751.85
468.60	7918.03
468.78	8018.68
468.96	7901.65
469.14	7992.93
469.32	7913.35
469.50	8028.04
469.69	8163.79
469.87	8315.92
470.05	8351.03
470.23	8056.12
470.41	8248.05
470.59	8411.89
470.77	8379.12
470.95	8404.86
471.14	8451.67
471.32	8486.78
471.50	8306.56
471.68	8416.57
471.86	8437.63
472.04	8716.16
472.22	8730.20
472.40	8491.46
472.58	8514.87
472.77	8791.05
472.95	8762.97
473.13	9004.04
473.31	8851.91
473.49	8896.38
473.67	8940.85
473.85	8898.72
474.03	8854.25
474.21	9100.00
474.39	9270.86
474.57	9212.35
474.75	9357.46
474.93	9231.07
475.12	9355.12
475.30	9277.88
475.48	9479.17
475.66	9486.19
475.84	9345.76
476.02	9563.43
476.20	9589.17
476.38	9781.10
476.56	10260.91
476.74	9916.85
476.92	9832.59
477.10	9884.08
477.28	10148.56
477.46	10022.17
477.64	10127.50
477.82	10391.98
478.00	10494.96
478.18	10705.61
478.36	10651.78
478.54	10731.36
478.72	10665.82
478.90	10736.04
479.08	10827.32
479.26	11117.54
479.44	11164.36
479.62	11066.05
479.80	11178.40
479.98	11173.72
480.16	11522.46
480.34	11358.62
480.52	11672.25
480.70	11716.72
480.88	11475.65
481.06	11772.89
481.24	11660.55
481.41	11672.25
481.59	12023.33
481.77	12060.78
481.95	12341.64
482.13	12018.65
482.31	12617.83
482.49	12645.91
482.67	12444.63
482.85	12709.11
483.03	13011.04
483.21	12854.22
483.39	13048.49
483.57	13025.08
483.74	13050.83
483.92	13315.31
484.10	13338.71
484.28	13451.06
484.46	13626.60
484.64	13879.38
484.82	13755.33
485.00	13954.27
485.18	14064.28
485.35	14078.32
485.53	14272.59
485.71	14349.82
485.89	14600.26
486.07	14527.71
486.25	14803.89
486.43	14764.10
486.61	14719.63
486.78	15047.30
486.96	15161.99
487.14	15311.78
487.32	15452.22
487.50	15470.94
487.68	15513.07
487.85	15674.57
488.03	15702.65
488.21	16327.58
488.39	16084.16
488.57	16290.13
488.75	16264.38
488.92	16589.72
489.10	16957.18
489.28	16601.42
489.46	16730.15
489.64	16896.33
489.81	17252.09
489.99	17139.74
490.17	17247.41
490.35	17558.70
490.53	17750.62
490.70	17635.94
490.88	17647.64
491.06	18143.83
491.24	17834.88
491.41	18218.73
491.59	18401.29
491.77	18295.97
491.95	18281.92
492.13	18743.01
492.30	18679.82
492.48	18661.09
492.66	18766.42
492.84	18780.46
493.01	19431.13
493.19	19037.92
493.37	19513.05
493.54	19524.75
493.72	19541.13
493.90	19616.03
494.08	19618.37
494.25	19974.13
494.43	19976.47
494.61	20376.70
494.79	20093.50
494.96	20318.19
495.14	20498.41
495.32	20893.96
495.49	20369.68
495.67	21039.08
495.85	20870.56
496.02	21036.74
496.20	20987.58
496.38	21362.07
496.55	21310.58
496.73	21738.90
496.91	21537.61
497.09	21769.32
497.26	21994.01
497.44	21633.57
497.62	21996.35
497.79	22068.91
497.97	22099.34
498.14	22075.93
498.32	22359.14
498.50	22597.87
498.67	22679.79
498.85	22672.77
499.03	22780.43
499.20	23314.08
499.38	22958.31
499.56	23012.15
499.73	23321.10
499.91	23850.06
500.08	23466.21
500.26	23332.80
500.44	23346.84
500.61	23456.85
500.79	23351.52
500.97	23424.08
501.14	24088.79
501.32	24121.56
501.49	23931.98
501.67	24233.91
501.84	24460.94
502.02	23964.75
502.20	24519.45
502.37	24566.26
502.55	24577.97
502.72	25057.78
502.90	24868.19
503.07	24491.37
503.25	24844.79
503.43	24797.98
503.60	25289.49
503.78	25151.40
503.95	25324.60
504.13	25127.99
504.30	25415.88
504.48	25486.09
504.65	25762.28
504.83	25720.15
505.01	25937.82
505.18	25631.21
505.36	26019.74
505.53	26118.04
505.71	25720.15
505.88	26209.32
506.06	25654.61
506.23	26143.78
506.41	25942.50
506.58	26618.91
506.76	26817.86
506.93	26403.58
507.11	26480.82
507.28	27037.87
507.46	26806.16
507.63	26654.02
507.81	27367.88
507.98	27044.89
508.16	27276.60
508.33	27459.16
508.50	27143.19
508.68	27522.36
508.85	27559.81
509.03	27459.16
509.20	27782.16
509.38	27924.93
509.55	27845.35
509.73	27906.21
509.90	28177.71
510.08	27896.85
510.25	28077.07
510.42	28444.53
510.60	28826.04
510.77	28882.21
510.95	28802.63
511.12	28617.73
511.30	28528.79
511.47	28886.89
511.64	28388.36
511.82	28975.83
511.99	28793.27
512.17	29113.92
512.34	29029.66
512.51	29242.65
512.69	29256.70
512.86	29488.41
513.04	29605.44
513.21	29886.30
513.38	29944.81
513.56	29614.80
513.73	29303.51
513.90	29685.01
514.08	29890.98
514.25	30401.22
514.43	30291.21
514.60	30338.02
514.77	30206.95
514.95	30735.92
515.12	29834.81
515.29	30441.01
515.47	30368.45
515.64	30698.47
515.81	30195.25
515.99	30501.86
516.16	31077.63
516.33	30855.28
516.51	31037.84
516.68	31227.43
516.85	31232.11
517.03	30871.67
517.20	31304.67
517.37	31096.36
517.54	31709.58
517.72	31461.48
517.89	31491.91
518.06	31515.31
518.24	31632.34
518.41	31227.43
518.58	31821.92
518.75	31786.82
518.93	31906.18
519.10	31475.52
519.27	31910.86
519.45	31976.40
519.62	32023.21
519.79	31580.85
519.96	32360.25
520.14	32175.34
520.31	32151.94
520.48	32512.38
520.65	32453.87
520.83	32411.74
521.00	32613.02
521.17	32339.18
521.34	32353.23
521.52	32748.78
521.69	33048.36
521.86	33099.86
522.03	33401.79
522.20	33586.69
522.38	33493.07
522.55	33509.45
522.72	33156.03
522.89	33525.83
523.07	33675.63
523.24	33933.09
523.41	33881.60
523.58	33905.00
523.75	34185.86
523.92	33830.10
524.10	33584.35
524.27	33745.84
524.44	34319.28
524.61	34684.40
524.78	34103.95
524.96	34328.64
525.13	34197.57
525.30	34150.76
525.47	34778.02
525.64	34398.85
525.81	34806.11
525.98	35152.51
526.16	34864.62
526.33	34827.17
526.50	35442.73
526.67	35304.64
526.84	34796.74
527.01	34401.19
527.18	35000.37
527.36	35393.58
527.53	35393.58
527.70	35763.39
527.87	35639.34
528.04	35653.38
528.21	35330.39
528.38	35346.77
528.55	35255.49
528.72	35639.34
528.89	35997.44
529.07	35744.66
529.24	35723.60
529.41	36299.37
529.58	36297.03
529.75	35974.03
529.92	35943.61
530.09	36060.63
530.26	36360.22
530.43	36463.21
530.60	35763.39
530.77	35957.65
530.94	36268.94
531.11	36002.12
531.28	36315.75
531.46	36694.92
531.63	36730.03
531.80	36470.23
531.97	36961.74
532.14	37067.06
532.31	36428.10
532.48	37067.06
532.65	37156.00
532.82	36985.15
532.99	37572.62
533.16	36730.03
533.33	37106.85
533.50	37315.16
533.67	37179.41
533.84	36919.61
534.01	36840.03
534.18	36926.63
534.35	37392.40
534.52	37216.86
534.69	37614.75
534.86	37359.63
535.03	37338.57
535.20	37977.53
535.37	37942.42
535.54	37811.35
535.71	37900.29
535.88	38024.34
536.05	37970.51
536.22	37919.02
536.38	37853.48
536.55	38117.96
536.72	37937.74
536.89	38213.93
537.06	38415.21
537.23	38286.48
537.40	38359.04
537.57	38192.86
537.74	38265.42
537.91	38785.02
538.08	38670.33
538.25	38220.95
538.42	38637.56
538.59	38906.73
538.75	38139.03
538.92	38527.56
539.09	39267.17
539.26	38759.27
539.43	38770.97
539.60	39166.52
539.77	39152.48
539.94	39454.41
540.11	39407.60
540.28	39147.80
540.44	39531.65
540.61	39019.07
540.78	39222.70
540.95	39590.16
541.12	39447.39
541.29	39428.66
541.46	39381.85
541.62	39632.29
541.79	40020.82
541.96	39618.25
542.13	39302.28
542.30	39817.19
542.47	40282.96
542.63	39796.13
542.80	40025.50
542.97	40540.42
543.14	40877.46
543.31	40474.88
543.48	40435.10
543.64	40842.35
543.81	40783.83
543.98	41008.53
544.15	40809.58
544.32	41134.92
544.48	41481.31
544.65	40460.84
544.82	40744.05
544.99	40428.07
545.16	40847.03
545.32	40896.18
545.49	41153.64
545.66	41741.11
545.83	41743.45
546.00	41654.51
546.16	41282.37
546.33	40905.54
546.50	40959.38
546.67	41446.21
546.83	40886.82
547.00	41366.63
547.17	41282.37
547.34	41523.44
547.50	41474.29
547.67	41481.31
547.84	41226.20
548.00	41375.99
548.17	41837.08
548.34	41581.96
548.51	41659.20
548.67	41940.06
548.84	41783.24
549.01	41544.51
549.18	41404.08
549.34	41949.42
549.51	41439.18
549.68	41603.02
549.84	41373.65
550.01	41993.89
550.18	41415.78
550.34	41970.49
550.51	41947.08
550.68	42010.28
550.84	41415.78
551.01	42160.07
551.18	41703.67
551.34	41780.90
551.51	41811.33
551.68	42026.66
551.84	42356.67
552.01	42178.79
552.18	42071.13
552.34	41848.78
552.51	42061.77
552.68	41825.37
552.84	42450.30
553.01	42415.19
553.18	42131.98
553.34	42394.12
553.51	42157.73
553.67	42883.30
553.84	42782.65
554.01	42838.83
554.17	42677.33
554.34	42604.77
554.51	42120.28
554.67	42696.05
554.84	42539.24
555.00	42532.22
555.17	42515.83
555.33	43019.05
555.50	42616.47
555.67	42766.27
555.83	42841.17
556.00	42740.52
556.16	42747.54
556.33	42682.01
556.50	42572.00
556.66	42555.62
556.83	42873.93
556.99	43037.77
557.16	43576.09
557.32	43253.10
557.49	42745.20
557.65	42759.25
557.82	43304.59
557.98	43075.22
558.15	42953.51
558.32	43208.63
558.48	42948.83
558.65	43292.89
558.81	43367.79
558.98	43217.99
559.14	43669.72
559.31	43166.50
559.47	43494.18
559.64	43548.01
559.80	43440.34
559.97	43232.04
560.13	43421.62
560.30	43496.52
560.46	43880.36
560.63	43381.83
560.79	43316.29
560.96	43885.04
561.12	43372.47
561.29	43658.01
561.45	43650.99
561.61	43674.40
561.78	43686.10
561.94	43826.53
562.11	43887.39
562.27	43936.54
562.44	44055.90
562.60	44098.03
562.77	43885.04
562.93	43931.86
563.10	43899.09
563.26	44282.94
563.42	44280.60
563.59	44257.19
563.75	44102.71
563.92	44327.41
564.08	44032.50
564.24	43929.51
564.41	43370.13
564.57	43903.77
564.74	43849.94
564.90	44030.16
565.07	44409.32
565.23	43896.75
565.39	44100.37
565.56	44205.70
565.72	43901.43
565.88	43964.62
566.05	44023.14
566.21	44182.29
566.38	44055.90
566.54	43826.53
566.70	44414.01
566.87	44383.58
567.03	44154.21
567.19	44957.01
567.36	44231.44
567.52	44121.44
567.68	44566.14
567.85	44130.80
568.01	44552.10
568.17	44524.01
568.34	44289.96
568.50	44392.94
568.66	44390.60
568.83	44371.88
568.99	44715.93
569.15	44369.54
569.32	44231.44
569.48	43761.00
569.64	44219.74
569.81	44601.25
569.97	44713.59
570.13	44275.91
570.30	44385.92
570.46	44662.10
570.62	44655.08
570.78	44486.56
570.95	44350.81
571.11	44793.17
571.27	44243.15
571.43	44425.71
571.60	44388.26
571.76	44135.48
571.92	44849.35
572.09	44734.66
572.25	44666.78
572.41	44528.69
572.57	44699.55
572.74	44357.83
572.90	44425.71
573.06	44067.61
573.22	44662.10
573.38	44795.51
573.55	44725.30
573.71	45418.10
573.87	45261.28
574.03	44500.61
574.20	44708.91
574.36	44582.52
574.52	44414.01
574.68	44807.22
574.84	44437.41
575.01	44854.03
575.17	44580.18
575.33	44378.90
575.49	44804.88
575.65	45104.46
575.82	44729.98
575.98	44594.23
576.14	45102.12
576.30	44591.89
576.46	44980.42
576.62	44809.56
576.79	44896.16
576.95	44982.76
577.11	45282.34
577.27	44863.39
577.43	44842.32
577.59	45144.25
577.75	45137.23
577.92	44650.40
578.08	45099.78
578.24	44465.50
578.40	44910.20
578.56	45055.31
578.72	45003.82
578.88	45179.36
579.04	45069.36
579.21	45022.54
579.37	45343.20
579.53	45422.78
579.69	45258.94
579.85	45071.70
580.01	44872.75
580.17	44512.31
580.33	44905.52
580.49	44854.03
580.65	45577.25
580.82	45331.50
580.98	44779.13
581.14	44776.79
581.30	45062.33
581.46	45368.94
581.62	45603.00
581.78	44814.24
581.94	45394.69
582.10	45174.68
582.26	45083.40
582.42	45495.33
582.58	45642.79
582.74	45387.67
582.90	45333.84
583.06	45778.54
583.22	45029.57
583.38	45155.96
583.54	45301.07
583.70	45212.13
583.86	44919.56
584.02	45148.93
584.18	45347.88
584.34	45319.79
584.50	45656.83
584.66	45408.73
584.82	44884.45
584.98	45134.89
585.14	45048.29
585.30	44704.23
585.46	45469.59
585.62	44992.12
585.78	45368.94
585.94	45230.85
586.10	44891.48
586.26	45256.60
586.42	45453.20
586.58	45619.38
586.74	45308.09
586.90	45111.49
587.06	45031.91
587.22	45350.22
587.38	45027.23
587.54	45144.25
587.70	45310.43
587.86	45598.32
588.02	45741.09
588.18	45401.71
588.34	45471.93
588.49	45612.36
588.65	45385.33
588.81	45347.88
588.97	45095.10
589.13	45310.43
589.29	45801.94
589.45	45591.30
589.61	45888.54
589.77	45542.14
589.93	45310.43
590.08	45635.77
590.24	45738.75
590.40	45794.92
590.56	45790.24
590.72	45558.53
590.88	45375.97
