SpectraSuite Data File
++++++++++++++++++++++++++++++++++++
Date: Fri Oct 04 11:39:19 GMT-05:00 2013
User: price-jones
Dark Spectrum Present: No
Reference Spectrum Present: No
Number of Sampled Component Spectra: 1
Spectrometers: USB2+H05261
Integration Time (usec): 100000 (USB2+H05261)
Spectra Averaged: 1 (USB2+H05261)
Boxcar Smoothing: 0 (USB2+H05261)
Correct for Electrical Dark: No (USB2+H05261)
Strobe/Lamp Enabled: No (USB2+H05261)
Correct for Detector Non-linearity: No (USB2+H05261)
Correct for Stray Light: No (USB2+H05261)
Number of Pixels in Processed Spectrum: 2048
>>>>>Begin Processed Spectral Data<<<<<
365.73	23.41
365.92	23.41
366.12	23.41
366.32	0.00
366.52	0.00
366.72	0.00
366.91	0.00
367.11	0.00
367.31	0.00
367.51	0.00
367.70	0.00
367.90	0.00
368.10	0.00
368.30	0.00
368.49	0.00
368.69	0.00
368.89	0.00
369.09	7.02
369.28	0.00
369.48	0.00
369.68	53.83
369.87	4.68
370.07	63.19
370.27	84.26
370.47	7.02
370.66	152.13
370.86	220.01
371.06	276.18
371.25	280.86
371.45	234.05
371.65	266.82
371.84	301.93
372.04	241.08
372.24	266.82
372.44	266.82
372.63	283.20
372.83	351.08
373.03	257.46
373.22	301.93
373.42	287.89
373.62	306.61
373.81	388.53
374.01	381.51
374.21	313.63
374.40	315.97
374.60	383.85
374.79	311.29
374.99	257.46
375.19	294.91
375.38	489.17
375.58	339.38
375.78	395.55
375.97	402.57
376.17	402.57
376.37	344.06
376.56	355.76
376.76	372.15
376.95	325.33
377.15	330.02
377.35	409.59
377.54	383.85
377.74	372.15
377.93	367.46
378.13	372.15
378.33	437.68
378.52	330.02
378.72	465.77
378.91	365.12
379.11	362.78
379.31	423.64
379.50	414.27
379.70	388.53
379.89	430.66
380.09	372.15
380.28	430.66
380.48	458.74
380.68	395.55
380.87	409.59
381.07	402.57
381.26	407.25
381.46	409.59
381.65	463.43
381.85	437.68
382.04	411.93
382.24	414.27
382.43	514.92
382.63	468.11
382.83	498.53
383.02	435.34
383.22	503.22
383.41	425.98
383.61	477.47
383.80	456.40
384.00	498.53
384.19	507.90
384.39	484.49
384.58	510.24
384.78	456.40
384.97	496.19
385.17	507.90
385.36	498.53
385.56	638.97
385.75	550.03
385.95	498.53
386.14	543.00
386.34	510.24
386.53	538.32
386.72	538.32
386.92	568.75
387.11	580.45
387.31	554.71
387.50	564.07
387.70	535.98
387.89	629.60
388.09	587.47
388.28	528.96
388.48	510.24
388.67	526.62
388.86	575.77
389.06	575.77
389.25	596.84
389.45	575.77
389.64	657.69
389.84	631.94
390.03	620.24
390.22	587.47
390.42	496.19
390.61	512.58
390.81	648.33
391.00	657.69
391.19	699.82
391.39	688.12
391.58	636.63
391.78	636.63
391.97	650.67
392.16	608.54
392.36	655.35
392.55	554.71
392.75	725.57
392.94	723.23
393.13	739.61
393.33	629.60
393.52	709.18
393.71	709.18
393.91	681.10
394.10	688.12
394.29	657.69
394.49	643.65
394.68	648.33
394.88	732.59
395.07	760.67
395.26	711.52
395.46	767.70
395.65	755.99
395.84	772.38
396.04	814.51
396.23	772.38
396.42	763.01
396.62	732.59
396.81	821.53
397.00	788.76
397.19	828.55
397.39	828.55
397.58	926.85
397.77	840.25
397.97	844.93
398.16	840.25
398.35	823.87
398.55	861.32
398.74	887.06
398.93	976.00
399.12	884.72
399.32	917.49
399.51	917.49
399.70	926.85
399.90	973.66
400.09	978.34
400.28	936.21
400.47	999.41
400.67	924.51
400.86	961.96
401.05	1006.43
401.24	985.37
401.44	1020.47
401.63	978.34
401.82	1034.52
402.01	947.92
402.21	1020.47
402.40	1076.65
402.59	1032.18
402.78	1069.62
402.97	1034.52
403.17	1043.88
403.36	1123.46
403.55	1093.03
403.74	1086.01
403.93	1043.88
404.13	1210.06
404.32	1193.67
404.51	1156.22
404.70	1186.65
404.89	1174.95
405.09	1268.57
405.28	1188.99
405.47	1142.18
405.66	1291.98
405.85	1240.48
406.05	1320.06
406.24	1249.85
406.43	1254.53
406.62	1299.00
406.81	1352.83
407.00	1371.55
407.20	1247.51
407.39	1294.32
407.58	1296.66
407.77	1364.53
407.96	1369.21
408.15	1364.53
408.34	1514.33
408.54	1437.09
408.73	1418.36
408.92	1401.98
409.11	1467.52
409.30	1577.52
409.49	1533.05
409.68	1432.41
409.87	1516.67
410.07	1540.07
410.26	1504.96
410.45	1530.71
410.64	1591.56
410.83	1701.57
411.02	1612.63
411.21	1694.55
411.40	1607.95
411.59	1631.35
411.78	1764.76
411.98	1703.91
412.17	1703.91
412.36	1717.95
412.55	1771.79
412.74	1778.81
412.93	1839.66
413.12	1849.02
413.31	1970.73
413.50	1886.47
413.69	1952.01
413.88	1989.46
414.07	1937.96
414.26	1916.90
414.45	1952.01
414.64	2001.16
414.83	2078.40
415.02	1991.80
415.22	2118.18
415.41	2179.04
415.60	2148.61
415.79	2193.08
415.98	2120.53
416.17	2270.32
416.36	2064.35
416.55	2115.84
416.74	2174.36
416.93	2270.32
417.12	2228.19
417.31	2300.75
417.50	2307.77
417.69	2403.73
417.88	2319.47
418.07	2307.77
418.26	2422.45
418.45	2317.13
418.64	2485.65
418.83	2485.65
419.02	2478.63
419.21	2420.11
419.39	2569.91
419.58	2480.97
419.77	2429.48
419.96	2511.39
420.15	2544.16
420.34	2466.92
420.53	2532.46
420.72	2747.79
420.91	2647.15
421.10	2562.89
421.29	2654.17
421.48	2700.98
421.67	2708.00
421.86	2583.95
422.05	2715.02
422.24	2738.43
422.43	2761.83
422.61	2614.38
422.80	2761.83
422.99	2745.45
423.18	2794.60
423.37	2768.85
423.56	2722.04
423.75	2719.70
423.94	2663.53
424.13	2551.18
424.32	2747.79
424.50	2796.94
424.69	2789.92
424.88	2761.83
425.07	2857.79
425.26	2773.53
425.45	2672.89
425.64	2789.92
425.83	2792.26
426.01	2878.86
426.20	2904.60
426.39	2862.48
426.58	2956.10
426.77	3049.72
426.96	2925.67
427.15	2806.30
427.33	2981.84
427.52	2768.85
427.71	2890.56
427.90	3035.67
428.09	2937.37
428.28	2963.12
428.46	2935.03
428.65	3075.46
428.84	3045.04
429.03	3047.38
429.22	3038.02
429.40	3061.42
429.59	3112.91
429.78	3115.25
429.97	3056.74
430.16	3075.46
430.34	3211.22
430.53	3145.68
430.72	3089.51
430.91	3143.34
431.10	3049.72
431.28	3243.98
431.47	3286.11
431.66	3272.07
431.85	3272.07
432.03	3176.11
432.22	3349.31
432.41	3241.64
432.60	3316.54
432.79	3309.52
432.97	3419.52
433.16	3304.84
433.35	3356.33
433.54	3328.24
433.72	3405.48
433.91	3480.38
434.10	3456.97
434.28	3449.95
434.47	3503.78
434.66	3508.46
434.85	3721.45
435.03	3641.87
435.22	3709.75
435.41	4102.96
435.59	3906.35
435.78	3920.40
435.97	3798.69
436.16	3749.54
436.34	3665.28
436.53	3698.05
436.72	3674.64
436.90	3606.77
437.09	3616.13
437.28	3648.90
437.46	3723.79
437.65	3653.58
437.84	3925.08
438.02	3751.88
438.21	3833.80
438.40	3789.33
438.58	4023.38
438.77	3868.91
438.96	3985.93
439.14	4154.45
439.33	3981.25
439.52	4079.55
439.70	4063.17
439.89	4217.65
440.08	4152.11
440.26	4159.13
440.45	4177.86
440.63	4166.15
440.82	4308.93
441.01	4337.01
441.19	4219.99
441.38	4407.23
441.57	4386.16
441.75	4329.99
441.94	4449.36
442.12	4610.86
442.31	4620.22
442.50	4655.33
442.68	4561.70
442.87	4575.75
443.05	4507.87
443.24	4557.02
443.43	4535.96
443.61	4655.33
443.80	4709.16
443.98	4554.68
444.17	4629.58
444.35	4772.35
444.54	4802.78
444.73	4688.09
444.91	4751.29
445.10	4615.54
445.28	4868.31
445.47	4704.48
445.65	4573.41
445.84	4765.33
446.02	4856.61
446.21	4723.20
446.39	4720.86
446.58	4744.27
446.77	4767.67
446.95	4802.78
447.14	4720.86
447.32	4896.40
447.51	4847.25
447.69	4896.40
447.88	4774.69
448.06	4887.04
448.25	4880.02
448.43	4945.55
448.62	4870.65
448.80	4788.74
448.99	4842.57
449.17	4975.98
449.36	5118.75
449.54	5130.45
449.73	5034.49
449.91	5036.83
450.10	5090.67
450.28	5142.16
450.46	5085.98
450.65	5200.67
450.83	5135.14
451.02	5179.61
451.20	5268.55
451.39	5158.54
451.57	5242.80
451.76	4903.42
451.94	5219.39
452.13	5263.86
452.31	5268.55
452.49	5355.15
452.68	5303.65
452.86	5308.34
453.05	5355.15
453.23	5303.65
453.42	5240.46
453.60	5266.21
453.78	5579.84
453.97	5284.93
454.15	5446.43
454.34	5373.87
454.52	5516.64
454.70	5352.81
454.89	5528.35
455.07	5495.58
455.26	5495.58
455.44	5589.20
455.62	5479.19
455.81	5579.84
455.99	5734.31
456.17	5518.98
456.36	5654.73
456.54	5746.02
456.73	5781.12
456.91	5790.49
457.09	5853.68
457.28	6045.60
457.46	5788.14
457.64	6097.10
457.83	5820.91
458.01	5886.45
458.19	6099.44
458.38	5944.96
458.56	5994.11
458.74	5905.17
458.93	6043.26
459.11	6031.56
459.29	6143.91
459.48	6078.37
459.66	6061.99
459.84	6211.78
460.03	6345.19
460.21	6186.04
460.39	6080.71
460.57	6235.19
460.76	6420.09
460.94	6392.00
461.12	6333.49
461.31	6249.23
461.49	6317.11
461.67	6356.90
461.85	6389.66
462.04	6492.65
462.22	7059.06
462.40	6450.52
462.59	6558.18
462.77	6640.10
462.95	6544.14
463.13	6506.69
463.32	6565.20
463.50	6616.69
463.68	6572.22
463.86	6623.72
464.05	6644.78
464.23	6668.19
464.41	6803.94
464.59	6740.74
464.78	6789.89
464.96	6621.38
465.14	6593.29
465.32	6700.95
465.50	7016.93
465.69	6722.02
465.87	6731.38
466.05	6740.74
466.23	6825.00
466.41	6881.18
466.60	7089.48
466.78	6834.36
466.96	6855.43
467.14	6892.88
467.32	6916.28
467.51	7155.02
467.69	6839.05
467.87	7082.46
468.05	7150.34
468.23	7089.48
468.41	6836.70
468.60	7080.12
468.78	7082.46
468.96	7098.84
469.14	7047.35
469.32	7220.55
469.50	7265.02
469.69	7255.66
469.87	7351.62
470.05	7389.07
470.23	7400.77
470.41	7297.79
470.59	7625.47
470.77	7393.75
470.95	7480.35
471.14	7501.42
471.32	7414.82
471.50	7751.85
471.68	7691.00
471.86	7721.43
472.04	7707.38
472.22	7899.31
472.40	7566.95
472.58	7747.17
472.77	7585.68
472.95	7878.24
473.13	8262.09
473.31	7894.63
473.49	7913.35
473.67	7971.86
473.85	8145.06
474.03	8255.07
474.21	8238.69
474.39	8336.99
474.57	8322.94
474.75	8383.80
474.93	8386.14
475.12	8372.10
475.30	8437.63
475.48	8402.52
475.66	8526.57
475.84	8475.08
476.02	8671.68
476.20	8709.13
476.38	8713.81
476.56	9107.02
476.74	8917.44
476.92	8872.97
477.10	8912.76
477.28	9074.26
477.46	9043.83
477.64	9125.75
477.82	9135.11
478.00	9371.50
478.18	9551.73
478.36	9437.04
478.54	9481.51
478.72	9703.86
478.90	9731.95
479.08	9741.31
479.26	9771.74
479.44	9851.31
479.62	9879.40
479.80	9984.73
479.98	10108.77
480.16	10111.11
480.34	10265.59
480.52	10551.14
480.70	10509.01
480.88	10225.80
481.06	10406.02
481.24	10719.65
481.41	10534.75
481.59	10857.75
481.77	10857.75
481.95	10953.71
482.13	11033.29
482.31	11042.65
482.49	11241.59
482.67	11250.96
482.85	11225.21
483.03	11538.84
483.21	11566.93
483.39	11854.81
483.57	11754.17
483.74	11918.01
483.92	11815.02
484.10	11808.00
484.28	12210.57
484.46	12250.36
484.64	12531.23
484.82	12269.09
485.00	12325.26
485.18	12666.98
485.35	12842.52
485.53	12786.35
485.71	12992.31
485.89	12901.03
486.07	13060.19
486.25	13053.17
486.43	13207.64
486.61	13530.64
486.78	13315.31
486.96	13509.57
487.14	13855.97
487.32	13635.96
487.50	13724.90
487.68	13802.14
487.85	14218.75
488.03	14251.52
488.21	14190.67
488.39	14235.14
488.57	14562.81
488.75	14445.79
488.92	14747.72
489.10	14909.21
489.28	14885.81
489.46	15194.76
489.64	15040.28
489.81	15262.63
489.99	15325.83
490.17	15513.07
490.35	15873.51
490.53	15777.55
490.70	15906.28
490.88	15796.28
491.06	16149.70
491.24	15885.22
491.41	16299.49
491.59	16102.89
491.77	16273.74
491.95	16582.70
492.13	16627.17
492.30	16786.32
492.48	16524.18
492.66	16580.36
492.84	17076.55
493.01	16971.22
493.19	16896.33
493.37	17233.36
493.54	17158.47
493.72	17341.03
493.90	17486.14
494.08	17554.02
494.25	17933.18
494.43	17673.39
494.61	17928.50
494.79	18143.83
494.96	18052.55
495.14	18317.03
495.32	18340.44
495.49	18326.39
495.67	18658.75
495.85	18757.05
496.02	19026.21
496.20	18986.43
496.38	18838.97
496.55	19026.21
496.73	19353.89
496.91	19356.23
497.09	19520.07
497.26	19339.85
497.44	19536.45
497.62	19693.27
497.79	20093.50
497.97	19747.10
498.14	20140.31
498.32	19946.05
498.50	20276.06
498.67	20348.62
498.85	20149.67
499.03	20407.13
499.20	20545.22
499.38	20800.34
499.56	20606.08
499.73	20814.38
499.91	20744.17
500.08	20987.58
500.26	21097.59
500.44	20917.37
500.61	20819.07
500.79	20821.41
500.97	21221.64
501.14	21645.27
501.32	21495.48
501.49	21729.53
501.67	21366.75
501.84	21605.49
502.02	21851.24
502.20	22132.11
502.37	22279.56
502.55	21750.60
502.72	22059.55
502.90	22232.75
503.07	21977.63
503.25	22132.11
503.43	22389.56
503.60	22609.58
503.78	22314.67
503.95	22682.13
504.13	22799.16
504.30	22616.60
504.48	22607.23
504.65	22728.94
504.83	23037.89
505.01	23070.66
505.18	22810.86
505.36	23304.71
505.53	22902.14
505.71	23208.75
505.88	23180.67
506.06	23262.58
506.23	23559.83
506.41	23665.16
506.58	23761.12
506.76	23557.49
506.93	23498.98
507.11	23597.28
507.28	23997.51
507.46	23784.52
507.63	24381.36
507.81	24367.32
507.98	24121.56
508.16	24140.29
508.33	24383.70
508.50	23957.72
508.68	24486.68
508.85	24781.59
509.03	24498.39
509.20	24599.03
509.38	24924.36
509.55	24912.66
509.73	24828.40
509.90	25153.74
510.08	25034.37
510.25	24924.36
510.42	25273.10
510.60	25228.63
510.77	25415.88
510.95	25645.25
511.12	25364.39
511.30	25245.02
511.47	25851.22
511.64	25474.39
511.82	25551.63
511.99	25659.29
512.17	26094.63
512.34	25724.83
512.51	25968.24
512.69	26164.85
512.86	26075.91
513.04	26504.23
513.21	26052.50
513.38	26841.26
513.56	26668.06
513.73	26340.39
513.90	26602.53
514.08	26279.54
514.25	26953.61
514.43	26625.93
514.60	26916.16
514.77	27271.92
514.95	26897.44
515.12	26630.62
515.29	26529.97
515.47	27222.77
515.64	27328.10
515.81	27075.32
515.99	27576.19
516.16	27662.79
516.33	27882.80
516.51	27761.09
516.68	27402.99
516.85	27351.50
517.03	27735.35
517.20	27971.74
517.37	27817.27
517.54	28254.95
517.72	28013.87
517.89	28032.60
518.06	28123.88
518.24	28196.43
518.41	28163.67
518.58	28332.18
518.75	28219.84
518.93	28418.78
519.10	28379.00
519.27	28182.39
519.45	28432.83
519.62	28690.29
519.79	28486.66
519.96	28563.90
520.14	29252.02
520.31	28760.50
520.48	29207.55
520.65	29039.03
520.83	29081.16
521.00	28879.87
521.17	29076.48
521.34	29359.68
521.52	28858.81
521.69	29961.20
521.86	29577.35
522.03	29422.87
522.20	29895.66
522.38	29890.98
522.55	29783.32
522.72	29659.27
522.89	29933.11
523.07	30291.21
523.24	30075.88
523.41	30022.05
523.58	29858.21
523.75	30361.43
523.92	30211.64
524.10	30380.15
524.27	30656.34
524.44	30319.30
524.61	30384.83
524.78	30986.35
524.96	30890.39
525.13	31178.28
525.30	30408.24
525.47	30874.01
525.64	30771.02
525.81	30668.04
525.98	31096.36
526.16	30892.73
526.33	30937.20
526.50	31393.61
526.67	31159.55
526.84	31072.95
527.01	31119.76
527.18	31208.70
527.36	31255.51
527.53	31365.52
527.70	31938.95
527.87	31751.71
528.04	31257.85
528.21	31395.95
528.38	31566.81
528.55	32009.17
528.72	32067.68
528.89	32046.62
529.07	31798.52
529.24	32074.70
529.41	31903.84
529.58	31878.10
529.75	31800.86
529.92	31981.08
530.09	32006.83
530.26	32278.33
530.43	32713.67
530.60	32173.00
530.77	32804.95
530.94	32598.98
531.11	32350.88
531.28	32268.97
531.46	32671.54
531.63	32568.55
531.80	32591.96
531.97	32821.33
532.14	32723.03
532.31	32746.44
532.48	32966.45
532.65	32751.12
532.82	32582.60
532.99	32921.98
533.16	32739.41
533.33	33277.74
533.50	33528.17
533.67	33347.95
533.84	32870.48
534.01	32847.08
534.18	32978.15
534.35	33174.75
534.52	33420.51
534.69	33666.27
534.86	33607.75
535.03	33392.42
535.20	33652.22
535.37	33851.17
535.54	33968.19
535.71	33628.82
535.88	33954.15
536.05	33787.97
536.22	34005.64
536.38	34117.99
536.55	34328.64
536.72	34117.99
536.89	34061.82
537.06	33841.81
537.23	34017.35
537.40	33757.55
537.57	34305.23
537.74	34284.17
537.91	34604.82
538.08	34298.21
538.25	34443.32
538.42	35070.59
538.59	34614.18
538.75	34281.83
538.92	34822.49
539.09	34593.12
539.26	34382.47
539.43	34623.54
539.60	34885.68
539.77	35012.07
539.94	35065.91
540.11	35044.84
540.28	34976.97
540.44	35201.66
540.61	35079.95
540.78	35145.48
540.95	35459.12
541.12	35339.75
541.29	35566.78
541.46	35335.07
541.62	35503.59
541.79	35716.58
541.96	35711.89
542.13	35117.40
542.30	35725.94
542.47	35871.05
542.63	36025.53
542.80	35899.14
542.97	35997.44
543.14	36208.09
543.31	36245.54
543.48	35952.97
543.64	36208.09
543.81	35842.96
543.98	36315.75
544.15	36208.09
544.32	36631.72
544.48	36786.20
544.65	36320.43
544.82	36542.78
544.99	36184.68
545.16	36634.06
545.32	36678.54
545.49	37160.69
545.66	37366.65
545.83	38000.94
546.00	37521.13
546.16	36992.17
546.33	36718.32
546.50	36233.83
546.67	37127.92
546.83	36540.44
547.00	36926.63
547.17	36362.56
547.34	36432.78
547.50	36928.97
547.67	37383.04
547.84	36825.99
548.00	37111.53
548.17	37387.72
548.34	36797.90
548.51	37249.63
548.67	37153.66
548.84	37198.13
549.01	37053.02
549.18	36954.72
549.34	37282.39
549.51	37626.45
549.68	37237.92
549.84	36800.24
550.01	37642.84
550.18	37195.79
550.34	37453.25
550.51	37553.90
550.68	37071.75
550.84	37020.25
551.01	37319.84
551.18	37226.22
551.34	36870.46
551.51	37439.21
551.68	37368.99
551.84	37371.33
552.01	38017.32
552.18	37975.19
552.34	37713.05
552.51	37710.71
552.68	37823.06
552.84	37457.93
553.01	37900.29
553.18	37635.81
553.34	38328.61
553.51	37762.20
553.67	37930.72
553.84	38033.71
554.01	37928.38
554.17	37928.38
554.34	37584.32
554.51	38150.73
554.67	38202.22
554.84	38188.18
555.00	37977.53
555.17	37928.38
555.33	38394.15
555.50	38267.76
555.67	38583.73
555.83	38359.04
556.00	38251.38
556.16	38609.48
556.33	38190.52
556.50	38321.59
556.66	38471.39
556.83	38305.21
556.99	38504.15
557.16	38728.84
557.32	38660.97
557.49	38789.70
557.65	38157.75
557.82	38466.70
557.98	38246.69
558.15	38588.41
558.32	38579.05
558.48	38644.59
558.65	38773.31
558.81	38834.17
558.98	38752.25
559.14	38684.37
559.31	38667.99
559.47	38646.93
559.64	38663.31
559.80	38815.44
559.97	39086.95
560.13	38548.62
560.30	38880.98
560.46	39100.99
560.63	38941.83
560.79	38766.29
560.96	39428.66
561.12	39028.43
561.29	38660.97
561.45	38806.08
561.61	39206.31
561.78	39208.65
561.94	38965.24
562.11	39089.29
562.27	39203.97
562.44	39194.61
562.60	39435.69
562.77	39180.57
562.93	38888.00
563.10	39519.95
563.26	39386.54
563.42	39803.15
563.59	39758.68
563.75	39564.42
563.92	39835.92
564.08	39459.09
564.24	39335.04
564.41	39147.80
564.57	39229.72
564.74	38925.45
564.90	39541.01
565.07	39398.24
565.23	39625.27
565.39	38946.51
565.56	39641.65
565.72	39496.54
565.88	38925.45
566.05	39253.12
566.21	39524.63
566.38	39201.63
566.54	39482.50
566.70	39978.69
566.87	39913.16
567.03	39707.19
567.19	40116.78
567.36	39704.85
567.52	38998.01
567.68	39686.12
567.85	39313.98
568.01	39721.23
568.17	39498.88
568.34	39611.23
568.50	39456.75
568.66	39964.65
568.83	39789.11
568.99	39775.06
569.15	39510.58
569.32	40147.21
569.48	40044.23
569.64	39807.83
569.81	39400.58
569.97	39718.89
570.13	40149.55
570.30	39569.10
570.46	40182.32
570.62	39552.71
570.78	39519.95
570.95	39702.51
571.11	39805.49
571.27	39732.93
571.43	39295.25
571.60	39887.41
571.76	39936.56
571.92	39966.99
572.09	40179.98
572.25	40046.57
572.41	39929.54
572.57	40411.69
572.74	40287.64
572.90	39892.09
573.06	40320.41
573.22	39894.43
573.38	39962.31
573.55	39643.99
573.71	40540.42
573.87	40573.19
574.03	40037.20
574.20	40161.25
574.36	39695.49
574.52	39625.27
574.68	40179.98
574.84	40374.24
575.01	40622.34
575.17	40245.51
575.33	40067.63
575.49	40208.06
575.65	40301.68
575.82	40254.87
575.98	40107.42
576.14	40154.23
576.30	39805.49
576.46	40091.04
576.62	40046.57
576.79	40107.42
576.95	40292.32
577.11	40318.07
577.27	40531.06
577.43	40011.46
577.59	40177.64
577.75	40222.11
577.92	40027.84
578.08	39873.37
578.24	39943.58
578.40	39688.46
578.56	40439.78
578.72	40289.98
578.88	40495.95
579.04	40591.91
579.21	40713.62
579.37	40671.49
579.53	40786.18
579.69	40282.96
579.85	40425.73
580.01	40128.48
580.17	39906.13
580.33	40219.77
580.49	40306.37
580.65	40367.22
580.82	40306.37
580.98	40446.80
581.14	40605.95
581.30	40348.50
581.46	40184.66
581.62	40364.88
581.78	40243.17
581.94	40357.86
582.10	40126.14
582.26	40591.91
582.42	40945.33
582.58	40540.42
582.74	40374.24
582.90	40540.42
583.06	40472.54
583.22	40313.39
583.38	40648.08
583.54	40362.54
583.70	40727.66
583.86	40409.35
584.02	40554.46
584.18	40650.42
584.34	40708.94
584.50	40664.47
584.66	40439.78
584.82	40411.69
584.98	40378.92
585.14	40622.34
585.30	40140.19
585.46	40411.69
585.62	40650.42
585.78	40727.66
585.94	40367.22
586.10	40938.31
586.26	40645.74
586.42	40627.02
586.58	40528.72
586.74	40697.24
586.90	40804.90
587.06	40418.71
587.22	40898.52
587.38	40566.16
587.54	40978.10
587.70	41106.83
587.86	40631.70
588.02	40914.90
588.18	40814.26
588.34	40715.96
588.49	40720.64
588.65	40472.54
588.81	40229.13
588.97	40603.61
589.13	40517.01
589.29	40238.49
589.45	40617.66
589.61	40657.45
589.77	41062.36
589.93	40985.12
590.08	41177.04
590.24	40900.86
590.40	41184.07
590.56	41193.43
590.72	40872.78
590.88	40311.05
591.04	40439.78
591.20	40896.18
