SpectraSuite Data File
++++++++++++++++++++++++++++++++++++
Date: Fri Oct 04 11:39:14 GMT-05:00 2013
User: price-jones
Dark Spectrum Present: No
Reference Spectrum Present: No
Number of Sampled Component Spectra: 1
Spectrometers: USB2+H05261
Integration Time (usec): 100000 (USB2+H05261)
Spectra Averaged: 1 (USB2+H05261)
Boxcar Smoothing: 0 (USB2+H05261)
Correct for Electrical Dark: No (USB2+H05261)
Strobe/Lamp Enabled: No (USB2+H05261)
Correct for Detector Non-linearity: No (USB2+H05261)
Correct for Stray Light: No (USB2+H05261)
Number of Pixels in Processed Spectrum: 2048
>>>>>Begin Processed Spectral Data<<<<<
365.73	72.56
365.92	72.56
366.12	72.56
366.32	0.00
366.52	4.68
366.72	14.04
366.91	0.00
367.11	0.00
367.31	0.00
367.51	0.00
367.70	2.34
367.90	0.00
368.10	0.00
368.30	30.43
368.49	0.00
368.69	0.00
368.89	0.00
369.09	0.00
369.28	30.43
369.48	0.00
369.68	0.00
369.87	0.00
370.07	7.02
370.27	14.04
370.47	37.45
370.66	231.71
370.86	163.84
371.06	198.95
371.25	273.84
371.45	189.58
371.65	182.56
371.84	180.22
372.04	241.08
372.24	212.99
372.44	203.63
372.63	273.84
372.83	241.08
373.03	311.29
373.22	236.39
373.42	287.89
373.62	297.25
373.81	285.55
374.01	341.72
374.21	308.95
374.40	212.99
374.60	365.12
374.79	266.82
374.99	313.63
375.19	280.86
375.38	259.80
375.58	304.27
375.78	362.78
375.97	365.12
376.17	383.85
376.37	362.78
376.56	327.68
376.76	250.44
376.95	351.08
377.15	332.36
377.35	320.65
377.54	355.76
377.74	374.49
377.93	262.14
378.13	367.46
378.33	294.91
378.52	346.40
378.72	411.93
378.91	423.64
379.11	397.89
379.31	332.36
379.50	327.68
379.70	411.93
379.89	411.93
380.09	390.87
380.28	355.76
380.48	346.40
380.68	355.76
380.87	301.93
381.07	283.20
381.26	402.57
381.46	428.32
381.65	393.21
381.85	332.36
382.04	402.57
382.24	411.93
382.43	376.83
382.63	301.93
382.83	416.62
383.02	411.93
383.22	465.77
383.41	395.55
383.61	458.74
383.80	425.98
384.00	430.66
384.19	362.78
384.39	482.15
384.58	397.89
384.78	416.62
384.97	433.00
385.17	395.55
385.36	456.40
385.56	514.92
385.75	454.06
385.95	421.30
386.14	468.11
386.34	400.23
386.53	524.28
386.72	428.32
386.92	550.03
387.11	528.96
387.31	531.30
387.50	489.17
387.70	449.38
387.89	521.94
388.09	571.09
388.28	444.70
388.48	491.51
388.67	500.87
388.86	470.45
389.06	505.56
389.25	545.34
389.45	521.94
389.64	526.62
389.84	510.24
390.03	409.59
390.22	484.49
390.42	463.43
390.61	521.94
390.81	514.92
391.00	528.96
391.19	526.62
391.39	461.09
391.58	512.58
391.78	557.05
391.97	571.09
392.16	533.64
392.36	617.90
392.55	587.47
392.75	524.28
392.94	559.39
393.13	580.45
393.33	498.53
393.52	580.45
393.71	557.05
393.91	575.77
394.10	610.88
394.29	578.11
394.49	620.24
394.68	657.69
394.88	568.75
395.07	720.88
395.26	564.07
395.46	610.88
395.65	681.10
395.84	681.10
396.04	697.48
396.23	702.16
396.42	688.12
396.62	739.61
396.81	730.25
397.00	699.82
397.19	547.69
397.39	650.67
397.58	723.23
397.77	674.07
397.97	695.14
398.16	737.27
398.35	809.83
398.55	702.16
398.74	812.17
398.93	781.74
399.12	758.33
399.32	669.39
399.51	779.40
399.70	798.12
399.90	842.59
400.09	732.59
400.28	809.83
400.47	830.89
400.67	753.65
400.86	828.55
401.05	826.21
401.24	821.53
401.44	847.27
401.63	835.57
401.82	910.47
402.01	887.06
402.21	940.90
402.40	833.23
402.59	950.26
402.78	931.53
402.97	931.53
403.17	875.36
403.36	1022.81
403.55	924.51
403.74	933.87
403.93	905.79
404.13	985.37
404.32	931.53
404.51	945.58
404.70	976.00
404.89	1062.60
405.09	1034.52
405.28	1006.43
405.47	1081.33
405.66	959.62
405.85	1041.54
406.05	1086.01
406.24	1043.88
406.43	1020.47
406.62	1160.91
406.81	1015.79
407.00	1114.10
407.20	1111.75
407.39	1060.26
407.58	1193.67
407.77	1123.46
407.96	1132.82
408.15	1149.20
408.34	1165.59
408.54	1203.04
408.73	1242.82
408.92	1210.06
409.11	1282.61
409.30	1200.69
409.49	1158.57
409.68	1207.72
409.87	1275.59
410.07	1261.55
410.26	1261.55
410.45	1219.42
410.64	1203.04
410.83	1306.02
411.02	1291.98
411.21	1364.53
411.40	1404.32
411.59	1357.51
411.78	1348.15
411.98	1427.73
412.17	1390.28
412.36	1327.08
412.55	1514.33
412.74	1423.05
412.93	1474.54
413.12	1394.96
413.31	1453.47
413.50	1469.86
413.69	1593.90
413.88	1617.31
414.07	1612.63
414.26	1528.37
414.45	1645.40
414.64	1589.22
414.83	1643.06
415.02	1619.65
415.22	1666.46
415.41	1785.83
415.60	1640.72
415.79	1701.57
415.98	1713.27
416.17	1706.25
416.36	1797.53
416.55	1694.55
416.74	1797.53
416.93	1846.68
417.12	1926.26
417.31	1727.32
417.50	1724.97
417.69	1919.24
417.88	1870.09
418.07	1893.49
418.26	1872.43
418.45	1961.37
418.64	2038.61
418.83	1991.80
419.02	1968.39
419.21	2071.37
419.39	1954.35
419.58	1877.11
419.77	1959.03
419.96	1982.43
420.15	2047.97
420.34	2059.67
420.53	1930.94
420.72	2122.87
420.91	2190.74
421.10	2045.63
421.29	2104.14
421.48	2043.29
421.67	2104.14
421.86	2120.53
422.05	2120.53
422.24	2202.44
422.43	2272.66
422.61	2242.23
422.80	2207.13
422.99	2230.53
423.18	2214.15
423.37	2256.28
423.56	2267.98
423.75	2275.00
423.94	2249.25
424.13	2092.44
424.32	2195.42
424.50	2120.53
424.69	2186.06
424.88	2221.17
425.07	2223.51
425.26	2209.47
425.45	2052.65
425.64	2174.36
425.83	2380.32
426.01	2335.85
426.20	2293.72
426.39	2277.34
426.58	2207.13
426.77	2165.00
426.96	2296.07
427.15	2377.98
427.33	2279.68
427.52	2298.41
427.71	2455.22
427.90	2356.92
428.09	2270.32
428.28	2377.98
428.46	2403.73
428.65	2422.45
428.84	2492.67
429.03	2368.62
429.22	2387.35
429.40	2415.43
429.59	2370.96
429.78	2363.94
429.97	2363.94
430.16	2415.43
430.34	2448.20
430.53	2408.41
430.72	2495.01
430.91	2551.18
431.10	2438.84
431.28	2572.25
431.47	2614.38
431.66	2712.68
431.85	2600.34
432.03	2691.62
432.22	2752.47
432.41	2726.72
432.60	2780.56
432.79	2668.21
432.97	2768.85
433.16	2644.81
433.35	2637.78
433.54	2747.79
433.72	2855.45
433.91	2738.43
434.10	2670.55
434.28	2766.51
434.47	2825.03
434.66	2913.97
434.85	2846.09
435.03	2977.16
435.22	2974.82
435.41	3248.66
435.59	3377.39
435.78	3007.59
435.97	2995.89
436.16	2984.18
436.34	2928.01
436.53	2846.09
436.72	3094.19
436.90	2829.71
437.09	2977.16
437.28	2839.07
437.46	2810.98
437.65	3089.51
437.84	3038.02
438.02	2925.67
438.21	3035.67
438.40	2998.23
438.58	3087.17
438.77	3129.30
438.96	3187.81
439.14	3185.47
439.33	3227.60
439.52	3300.16
439.70	3187.81
439.89	3255.69
440.08	3288.45
440.26	3295.47
440.45	3187.81
440.63	3325.90
440.82	3398.46
441.01	3398.46
441.19	3363.35
441.38	3428.88
441.57	3370.37
441.75	3482.72
441.94	3510.80
442.12	3485.06
442.31	3627.83
442.50	3543.57
442.68	3461.65
442.87	3597.40
443.05	3691.02
443.24	3597.40
443.43	3648.90
443.61	3742.52
443.80	3887.63
443.98	3669.96
444.17	3613.79
444.35	3693.37
444.54	3632.51
444.73	3786.99
444.91	3761.24
445.10	3775.28
445.28	3662.94
445.47	3758.90
445.65	3735.50
445.84	3712.09
446.02	3772.94
446.21	3775.28
446.39	3691.02
446.58	3981.25
446.77	3929.76
446.95	3723.79
447.14	3709.75
447.32	3894.65
447.51	3786.99
447.69	3770.60
447.88	3812.73
448.06	3915.72
448.25	3831.46
448.43	3840.82
448.62	3899.33
448.80	3932.10
448.99	3904.01
449.17	3817.41
449.36	3875.93
449.54	3964.87
449.73	3957.85
449.91	4009.34
450.10	3955.51
450.28	4168.49
450.46	4086.58
450.65	3992.95
450.83	4035.08
451.02	3953.16
451.20	4042.11
451.39	4138.07
451.57	3922.74
451.76	3953.16
451.94	4067.85
452.13	4229.35
452.31	4166.15
452.49	4023.38
452.68	4287.86
452.86	4187.22
453.05	4224.67
453.23	4126.36
453.42	4194.24
453.60	4117.00
453.78	4243.39
453.97	4229.35
454.15	4166.15
454.34	4234.03
454.52	4180.20
454.70	4320.63
454.89	4248.07
455.07	4463.40
455.26	4458.72
455.44	4472.76
455.62	4440.00
455.81	4507.87
455.99	4430.63
456.17	4550.00
456.36	4512.55
456.54	4585.11
456.73	4542.98
456.91	4561.70
457.09	4592.13
457.28	4798.10
457.46	4493.83
457.64	4704.48
457.83	4627.24
458.01	4582.77
458.19	4858.95
458.38	4685.75
458.56	4912.78
458.74	4657.67
458.93	4655.33
459.11	4718.52
459.29	4718.52
459.48	4702.14
459.66	4791.08
459.84	4812.14
460.03	5008.75
460.21	4959.60
460.39	4844.91
460.57	4753.63
460.76	5071.94
460.94	4990.02
461.12	4987.68
461.31	5001.72
461.49	4971.30
461.67	5011.09
461.85	5219.39
462.04	5067.26
462.22	5212.37
462.40	4966.62
462.59	5191.31
462.77	5125.77
462.95	5163.22
463.13	5228.76
463.32	5074.28
463.50	5128.11
463.68	5301.31
463.86	5109.39
464.05	5207.69
464.23	5284.93
464.41	5284.93
464.59	5139.82
464.78	5334.08
464.96	5270.89
465.14	5259.18
465.32	5231.10
465.50	5376.21
465.69	5472.17
465.87	5394.93
466.05	5315.36
466.23	5364.51
466.41	5305.99
466.60	5561.11
466.78	5448.77
466.96	5348.12
467.14	5343.44
467.32	5572.82
467.51	5598.56
467.69	5336.42
467.87	5699.20
468.05	5483.88
468.23	5626.65
468.41	5416.00
468.60	5612.60
468.78	5584.52
468.96	5455.79
469.14	5526.00
469.32	5699.20
469.50	5430.04
469.69	5619.63
469.87	5774.10
470.05	5736.65
470.23	5673.46
470.41	5678.14
470.59	5755.38
470.77	5743.67
470.95	5881.77
471.14	5851.34
471.32	5790.49
471.50	6083.05
471.68	5996.45
471.86	6076.03
472.04	6001.13
472.22	6031.56
472.40	5975.39
472.58	6057.31
472.77	6071.35
472.95	6347.53
473.13	6473.92
473.31	6183.70
473.49	6249.23
473.67	6169.65
473.85	6237.53
474.03	6244.55
474.21	6431.79
474.39	6511.37
474.57	6616.69
474.75	6719.68
474.93	6492.65
475.12	6422.43
475.30	6567.54
475.48	6588.61
475.66	6656.48
475.84	6597.97
476.02	6738.40
476.20	6710.32
476.38	6871.81
476.56	6888.20
476.74	7077.78
476.92	7068.42
477.10	7166.72
477.28	7084.80
477.46	7066.08
477.64	7169.06
477.82	7136.29
478.00	7344.60
478.18	7499.08
478.36	7314.17
478.54	7473.33
478.72	7382.05
478.90	7536.52
479.08	7667.60
479.26	7705.04
479.44	7810.37
479.62	7868.88
479.80	7716.75
479.98	7801.01
480.16	8128.68
480.34	7969.52
480.52	8121.66
480.70	8133.36
480.88	8102.93
481.06	8311.24
481.24	8098.25
481.41	8341.67
481.59	8287.84
481.77	8416.57
481.95	8634.24
482.13	8648.28
482.31	8442.31
482.49	8828.50
482.67	8896.38
482.85	8856.59
483.03	9121.07
483.21	9256.82
483.39	9083.62
483.57	9163.20
483.74	8929.14
483.92	9121.07
484.10	9390.23
484.28	9591.52
484.46	9453.42
484.64	9886.42
484.82	9659.39
485.00	9827.91
485.18	9799.82
485.35	10078.35
485.53	10108.77
485.71	10015.15
485.89	10026.86
486.07	10209.42
486.25	10452.83
486.43	10204.74
486.61	10249.21
486.78	10597.95
486.96	10492.62
487.14	10523.05
487.32	10745.40
487.50	10813.28
487.68	10832.00
487.85	11063.71
488.03	11468.62
488.21	11276.70
488.39	11147.97
488.57	11222.87
488.75	11108.18
488.92	11595.01
489.10	11782.26
489.28	11709.70
489.46	11686.29
489.64	11714.38
489.81	12116.95
489.99	11971.84
490.17	11866.52
490.35	12423.56
490.53	12475.06
490.70	12147.38
490.88	12514.84
491.06	12676.34
491.24	12556.97
491.41	12730.17
491.59	12610.81
491.77	12723.15
491.95	12814.43
492.13	12826.14
492.30	13022.74
492.48	12985.29
492.66	12975.93
492.84	13153.81
493.01	13221.69
493.19	13369.14
493.37	13493.19
493.54	13362.12
493.72	13603.19
493.90	13610.22
494.08	13586.81
494.25	13905.12
494.43	13891.08
494.61	14202.37
494.79	14127.47
494.96	14059.60
495.14	14136.84
495.32	14396.64
495.49	14420.04
495.67	14464.51
495.85	14555.79
496.02	14670.48
496.20	14719.63
496.38	14766.44
496.55	14721.97
496.73	15154.97
496.91	15115.18
497.09	15026.24
497.26	15180.71
497.44	14867.08
497.62	15068.37
497.79	15501.37
497.97	15557.54
498.14	15499.03
498.32	15616.05
498.50	15866.49
498.67	15733.08
498.85	15686.27
499.03	15609.03
499.20	16063.10
499.38	15929.69
499.56	16248.00
499.73	16056.08
499.91	16020.97
500.08	16608.44
500.26	16039.69
500.44	16355.66
500.61	16255.02
500.79	16294.81
500.97	16470.35
501.14	16624.83
501.32	16851.86
501.49	16711.42
501.67	16580.36
501.84	16856.54
502.02	16875.26
502.20	16798.02
502.37	17532.95
502.55	17184.21
502.72	17083.57
502.90	17219.32
503.07	16856.54
503.25	17303.58
503.43	17132.72
503.60	17247.41
503.78	17399.54
503.95	17366.78
504.13	17708.49
504.30	17891.06
504.48	17362.09
504.65	17682.75
504.83	17790.41
505.01	18115.75
505.18	17893.40
505.36	18347.46
505.53	17696.79
505.71	18148.51
505.88	18424.70
506.06	17869.99
506.23	18492.57
506.41	18389.59
506.58	18644.71
506.76	18253.84
506.93	18232.77
507.11	18532.36
507.28	18808.54
507.46	18574.49
507.63	18506.62
507.81	18813.23
507.98	18944.30
508.16	18759.39
508.33	19023.87
508.50	19183.03
508.68	19253.25
508.85	19222.82
509.03	19187.71
509.20	19007.49
509.38	19438.15
509.55	19644.12
509.73	19484.96
509.90	19407.72
510.08	19421.77
510.25	19445.17
510.42	19482.62
510.60	19719.01
510.77	20051.37
510.95	20053.71
511.12	19719.01
511.30	19789.23
511.47	19906.26
511.64	20072.43
511.82	20203.50
511.99	20409.47
512.17	20252.66
512.34	20173.08
512.51	20287.76
512.69	20149.67
512.86	20601.40
513.04	20362.66
513.21	20547.56
513.38	20493.73
513.56	20856.51
513.73	20542.88
513.90	20383.73
514.08	20886.94
514.25	20739.49
514.43	20800.34
514.60	20657.57
514.77	20961.84
514.95	21118.65
515.12	20767.57
515.29	21284.83
515.47	21039.08
515.64	21556.33
515.81	21198.23
515.99	21586.76
516.16	21708.47
516.33	21392.50
516.51	21462.71
516.68	21235.68
516.85	21528.25
517.03	21692.08
517.20	21930.82
517.37	21301.22
517.54	21888.69
517.72	21741.24
517.89	21631.23
518.06	21930.82
518.24	21809.11
518.41	21790.39
518.58	22125.08
518.75	22033.80
518.93	21991.67
519.10	22279.56
519.27	22391.91
519.45	22586.17
519.62	22434.03
519.79	22190.62
519.96	22363.82
520.14	22670.43
520.31	22513.61
520.48	22506.59
520.65	22602.55
520.83	22586.17
521.00	22796.82
521.17	22705.54
521.34	22977.04
521.52	22836.61
521.69	22977.04
521.86	23311.74
522.03	23157.26
522.20	23405.36
522.38	23077.68
522.55	23005.13
522.72	23473.23
522.89	23601.96
523.07	23791.55
523.24	23517.70
523.41	23681.54
523.58	23051.94
523.75	23740.05
523.92	23709.63
524.10	23503.66
524.27	23833.68
524.44	23585.58
524.61	23768.14
524.78	23639.41
524.96	23887.51
525.13	23955.38
525.30	23950.70
525.47	23953.04
525.64	23461.53
525.81	23721.33
525.98	24105.18
526.16	23967.09
526.33	23988.15
526.50	24154.33
526.67	24355.61
526.84	24372.00
527.01	24175.39
527.18	24615.41
527.36	24393.06
527.53	24446.90
527.70	24694.99
527.87	24704.35
528.04	24533.50
528.21	24617.75
528.38	24531.15
528.55	25135.01
528.72	24769.89
528.89	24737.12
529.07	24779.25
529.24	24907.98
529.41	25165.44
529.58	24915.00
529.75	25085.86
529.92	25233.32
530.09	25282.47
530.26	24992.24
530.43	25233.32
530.60	25090.54
530.77	24896.28
530.94	25530.56
531.11	25654.61
531.28	24994.58
531.46	25415.88
531.63	25558.65
531.80	25291.83
531.97	25476.73
532.14	25912.07
532.31	25467.37
532.48	25816.11
532.65	25799.73
532.82	25584.40
532.99	25933.14
533.16	25678.02
533.33	25816.11
533.50	25961.22
533.67	26059.52
533.84	25509.50
534.01	25479.07
534.18	25972.92
534.35	26270.17
534.52	25642.91
534.69	26111.02
534.86	26134.42
535.03	26190.59
535.20	26434.01
535.37	26380.18
535.54	26476.14
535.71	26436.35
535.88	26319.32
536.05	26134.42
536.22	26288.90
536.38	26321.66
536.55	26438.69
536.72	26389.54
536.89	26565.08
537.06	26829.56
537.23	26607.21
537.40	26663.38
537.57	26923.18
537.74	26939.57
537.91	26225.70
538.08	26539.33
538.25	26820.20
538.42	26855.31
538.59	27386.61
538.75	26836.58
538.92	26951.27
539.09	27417.04
539.26	26948.93
539.43	27370.22
539.60	27534.06
539.77	27763.43
539.94	27718.96
540.11	27253.20
540.28	27136.17
540.44	27225.11
540.61	27573.85
540.78	27676.83
540.95	27559.81
541.12	27290.65
541.29	27775.14
541.46	27615.98
541.62	27887.48
541.79	27803.22
541.96	27754.07
542.13	27285.97
542.30	28231.54
542.47	28215.16
542.63	28147.28
542.80	28184.73
542.97	28283.03
543.14	28224.52
543.31	28503.04
543.48	28287.71
543.64	28355.59
543.81	28650.50
543.98	28355.59
544.15	28430.49
544.32	28556.88
544.48	28641.14
544.65	28416.44
544.82	28486.66
544.99	28444.53
545.16	28755.82
545.32	28416.44
545.49	29015.62
545.66	29823.11
545.83	29415.85
546.00	29240.31
546.16	29134.99
546.33	28849.44
546.50	28652.84
546.67	28903.28
546.83	28669.22
547.00	28720.71
547.17	28814.34
547.34	28327.50
547.50	28978.17
547.67	28849.44
547.84	28739.44
548.00	29355.00
548.17	29362.02
548.34	29127.97
548.51	28938.38
548.67	29453.30
548.84	29237.97
549.01	29242.65
549.18	29024.98
549.34	29095.20
549.51	28891.57
549.68	28978.17
549.84	29362.02
550.01	29525.86
550.18	28975.83
550.34	29490.75
550.51	29425.22
550.68	29233.29
550.84	29256.70
551.01	29387.77
551.18	29553.94
551.34	29385.43
551.51	29394.79
551.68	29626.50
551.84	29457.98
552.01	29123.29
552.18	29443.94
552.34	29296.49
552.51	29703.74
552.68	29369.04
552.84	29441.60
553.01	29958.86
553.18	29750.55
553.34	29467.34
553.51	29376.06
553.67	29874.60
553.84	29387.77
554.01	30162.48
554.17	29759.91
554.34	29551.60
554.51	29544.58
554.67	30024.39
554.84	29584.37
555.00	29542.24
555.17	29457.98
555.33	30103.97
555.50	29883.96
555.67	29804.38
555.83	30181.21
556.00	29612.46
556.16	30141.42
556.33	30110.99
556.50	30195.25
556.66	29998.65
556.83	29383.09
556.99	30462.07
557.16	30176.53
557.32	30487.82
557.49	30202.27
557.65	30361.43
557.82	30426.96
557.98	30387.18
558.15	30307.60
558.32	30340.36
558.48	30134.40
558.65	30249.08
558.81	30499.52
558.98	30078.22
559.14	30359.09
559.31	30064.18
559.47	30122.69
559.64	30630.59
559.80	30534.63
559.97	30677.40
560.13	30410.58
560.30	30433.99
560.46	30754.64
560.63	30778.04
560.79	30279.51
560.96	30672.72
561.12	30445.69
561.29	30494.84
561.45	30431.65
561.61	30405.90
561.78	30806.13
561.94	30794.43
562.11	30749.96
562.27	30670.38
562.44	30466.75
562.60	30654.00
562.77	30756.98
562.93	30380.15
563.10	30731.23
563.26	30476.12
563.42	31295.30
563.59	30881.03
563.75	30962.95
563.92	31166.57
564.08	30731.23
564.24	30724.21
564.41	30827.20
564.57	30785.07
564.74	30382.49
564.90	31040.18
565.07	30902.09
565.23	31021.46
565.39	30838.90
565.56	31105.72
565.72	30541.65
565.88	30822.51
566.05	30845.92
566.21	30869.33
566.38	30841.24
566.54	30824.86
566.70	31040.18
566.87	30838.90
567.03	31054.23
567.19	31314.03
567.36	30820.17
567.52	30274.83
567.68	30918.48
567.85	31037.84
568.01	31030.82
568.17	30820.17
568.34	31108.06
568.50	31185.30
568.66	30932.52
568.83	31459.14
568.99	31377.22
569.15	30934.86
569.32	31159.55
569.48	30885.71
569.64	31119.76
569.81	31021.46
569.97	31159.55
570.13	31473.18
570.30	31372.54
570.46	31353.82
570.62	31412.33
570.78	30852.94
570.95	30986.35
571.11	31171.25
571.27	31175.94
571.43	31065.93
571.60	31180.62
571.76	31049.55
571.92	31220.41
572.09	31360.84
572.25	31166.57
572.41	31126.78
572.57	31527.02
572.74	31271.90
572.90	31005.08
573.06	31222.75
573.22	31545.74
573.38	31426.37
573.55	31566.81
573.71	31454.46
573.87	31580.85
574.03	31367.86
574.20	31534.04
574.36	31395.95
574.52	31318.71
574.68	31386.58
574.84	31604.25
575.01	31578.51
575.17	31945.97
575.33	31805.54
575.49	31349.14
575.65	31709.58
575.82	31384.24
575.98	31517.65
576.14	31594.89
576.30	31835.97
576.46	31501.27
576.62	31850.01
576.79	31447.44
576.95	31400.63
577.11	31395.95
577.27	32072.36
577.43	31503.61
577.59	31651.06
577.75	31676.81
577.92	31599.57
578.08	31608.93
578.24	31274.24
578.40	31510.63
578.56	31363.18
578.72	31906.18
578.88	32009.17
579.04	31819.58
579.21	32088.74
579.37	31866.39
579.53	32002.14
579.69	31569.15
579.85	31821.92
580.01	31379.56
580.17	31356.16
580.33	31498.93
580.49	31548.08
580.65	31421.69
580.82	31906.18
580.98	31536.38
581.14	31803.20
581.30	32128.53
581.46	31358.50
581.62	31571.49
581.78	31611.28
581.94	32063.00
582.10	31791.50
582.26	31454.46
582.42	31793.84
582.58	31952.99
582.74	31515.31
582.90	31845.33
583.06	31735.32
583.22	31402.97
583.38	31508.29
583.54	31838.31
583.70	32055.98
583.86	32144.92
584.02	31800.86
584.18	31943.63
584.34	32144.92
584.50	32070.02
584.66	31524.68
584.82	31854.69
584.98	32203.43
585.14	31672.13
585.30	31491.91
585.46	31831.29
585.62	31770.43
585.78	31845.33
585.94	31964.70
586.10	32175.34
586.26	31878.10
586.42	31964.70
586.58	31814.90
586.74	31604.25
586.90	31534.04
587.06	31480.21
587.22	31536.38
587.38	31522.34
587.54	31786.82
587.70	32173.00
587.86	31833.63
588.02	32538.13
588.18	32308.76
588.34	31814.90
588.49	31964.70
588.65	32149.60
588.81	31857.03
588.97	31683.83
589.13	31899.16
589.29	32018.53
589.45	32142.58
589.61	32294.71
589.77	32336.84
589.93	32123.85
590.08	31983.42
590.24	32285.35
590.40	32360.25
590.56	32018.53
590.72	32004.49
590.88	32142.58
591.04	32102.79
591.20	31978.74
591.35	31971.72
591.51	32652.81
591.67	32397.70
