SpectraSuite Data File
++++++++++++++++++++++++++++++++++++
Date: Fri Oct 04 11:39:46 GMT-05:00 2013
User: price-jones
Dark Spectrum Present: No
Reference Spectrum Present: No
Number of Sampled Component Spectra: 1
Spectrometers: USB2+H05261
Integration Time (usec): 100000 (USB2+H05261)
Spectra Averaged: 1 (USB2+H05261)
Boxcar Smoothing: 0 (USB2+H05261)
Correct for Electrical Dark: No (USB2+H05261)
Strobe/Lamp Enabled: No (USB2+H05261)
Correct for Detector Non-linearity: No (USB2+H05261)
Correct for Stray Light: No (USB2+H05261)
Number of Pixels in Processed Spectrum: 2048
>>>>>Begin Processed Spectral Data<<<<<
365.73	30.43
365.92	30.43
366.12	30.43
366.32	53.83
366.52	0.00
366.72	58.51
366.91	0.00
367.11	25.75
367.31	0.00
367.51	0.00
367.70	0.00
367.90	0.00
368.10	0.00
368.30	0.00
368.49	0.00
368.69	0.00
368.89	25.75
369.09	0.00
369.28	0.00
369.48	25.75
369.68	18.72
369.87	25.75
370.07	0.00
370.27	28.09
370.47	128.73
370.66	416.62
370.86	512.58
371.06	575.77
371.25	559.39
371.45	517.26
371.65	533.64
371.84	521.94
372.04	521.94
372.24	557.05
372.44	514.92
372.63	575.77
372.83	688.12
373.03	627.26
373.22	643.65
373.42	688.12
373.62	610.88
373.81	716.20
374.01	704.50
374.21	713.86
374.40	664.71
374.60	748.97
374.79	767.70
374.99	678.76
375.19	704.50
375.38	695.14
375.58	781.74
375.78	772.38
375.97	894.08
376.17	844.93
376.37	816.85
376.56	784.08
376.76	746.63
376.95	814.51
377.15	809.83
377.35	807.48
377.54	767.70
377.74	812.17
377.93	744.29
378.13	861.32
378.33	793.44
378.52	828.55
378.72	847.27
378.91	795.78
379.11	842.59
379.31	873.02
379.50	851.96
379.70	837.91
379.89	957.28
380.09	950.26
380.28	868.34
380.48	858.98
380.68	903.45
380.87	952.60
381.07	959.62
381.26	980.68
381.46	964.30
381.65	912.81
381.85	940.90
382.04	990.05
382.24	922.17
382.43	901.11
382.63	999.41
382.83	971.32
383.02	1071.97
383.22	1123.46
383.41	997.07
383.61	1004.09
383.80	994.73
384.00	1025.15
384.19	1046.22
384.39	1029.84
384.58	1067.28
384.78	1076.65
384.97	1130.48
385.17	1174.95
385.36	1083.67
385.56	1053.24
385.75	1050.90
385.95	1139.84
386.14	1196.01
386.34	1210.06
386.53	1132.82
386.72	1160.91
386.92	1181.97
387.11	1228.78
387.31	1221.76
387.50	1266.23
387.70	1144.52
387.89	1149.20
388.09	1207.72
388.28	1252.19
388.48	1153.88
388.67	1301.34
388.86	1263.89
389.06	1317.72
389.25	1303.68
389.45	1322.40
389.64	1275.59
389.84	1373.89
390.03	1341.13
390.22	1350.49
390.42	1343.47
390.61	1409.00
390.81	1385.60
391.00	1380.92
391.19	1451.13
391.39	1331.76
391.58	1511.99
391.78	1465.18
391.97	1423.05
392.16	1427.73
392.36	1516.67
392.55	1476.88
392.75	1589.22
392.94	1530.71
393.13	1565.82
393.33	1462.83
393.52	1575.18
393.71	1570.50
393.91	1568.16
394.10	1610.29
394.29	1629.01
394.49	1544.75
394.68	1610.29
394.88	1542.41
395.07	1682.85
395.26	1692.21
395.46	1617.31
395.65	1706.25
395.84	1689.87
396.04	1844.34
396.23	1802.21
396.42	1699.23
396.62	1830.30
396.81	1802.21
397.00	1778.81
397.19	1863.07
397.39	1792.85
397.58	1823.28
397.77	1884.13
397.97	1856.04
398.16	1867.75
398.35	1930.94
398.55	1900.52
398.74	1998.82
398.93	1996.48
399.12	1956.69
399.32	1921.58
399.51	1830.30
399.70	2047.97
399.90	2076.06
400.09	2172.02
400.28	2085.42
400.47	2066.69
400.67	2099.46
400.86	2141.59
401.05	2307.77
401.24	2221.17
401.44	2347.56
401.63	2368.62
401.82	2207.13
402.01	2324.15
402.21	2214.15
402.40	2312.45
402.59	2321.81
402.78	2209.47
402.97	2307.77
403.17	2363.94
403.36	2387.35
403.55	2392.03
403.74	2382.67
403.93	2347.56
404.13	2490.33
404.32	2464.58
404.51	2487.99
404.70	2583.95
404.89	2534.80
405.09	2562.89
405.28	2607.36
405.47	2635.44
405.66	2583.95
405.85	2724.38
406.05	2640.12
406.24	2651.83
406.43	2708.00
406.62	2708.00
406.81	2771.19
407.00	2705.66
407.20	2633.10
407.39	2867.16
407.58	2836.73
407.77	2923.33
407.96	3042.70
408.15	2909.29
408.34	2841.41
408.54	2860.13
408.73	2979.50
408.92	2939.71
409.11	2942.05
409.30	3105.89
409.49	3033.33
409.68	3227.60
409.87	3049.72
410.07	3141.00
410.26	3110.57
410.45	3197.17
410.64	3241.64
410.83	3288.45
411.02	3253.34
411.21	3452.29
411.40	3382.07
411.59	3478.04
411.78	3501.44
411.98	3419.52
412.17	3382.07
412.36	3471.01
412.55	3662.94
412.74	3606.77
412.93	3569.32
413.12	3569.32
413.31	3824.44
413.50	3779.97
413.69	3868.91
413.88	3908.69
414.07	3822.09
414.26	3885.29
414.45	3786.99
414.64	3896.99
414.83	4196.58
415.02	4056.15
415.22	3995.29
415.41	4161.47
415.60	4248.07
415.79	4194.24
415.98	4227.01
416.17	4421.27
416.36	4308.93
416.55	4294.88
416.74	4472.76
416.93	4421.27
417.12	4493.83
417.31	4643.62
417.50	4552.34
417.69	4664.69
417.88	4798.10
418.07	4657.67
418.26	4678.73
418.45	4816.82
418.64	4779.37
418.83	4819.16
419.02	4823.84
419.21	5013.43
419.39	4861.29
419.58	4791.08
419.77	4891.72
419.96	4959.60
420.15	4959.60
420.34	4957.25
420.53	5034.49
420.72	5270.89
420.91	5203.01
421.10	5226.42
421.29	5390.25
421.48	5053.22
421.67	5404.30
421.86	5247.48
422.05	5313.02
422.24	5273.23
422.43	5226.42
422.61	5495.58
422.80	5448.77
422.99	5261.52
423.18	5460.47
423.37	5565.79
423.56	5533.03
423.75	5397.28
423.94	5291.95
424.13	5261.52
424.32	5221.74
424.50	5437.06
424.69	5720.27
424.88	5526.00
425.07	5479.19
425.26	5556.43
425.45	5408.98
425.64	5467.49
425.83	5500.26
426.01	5738.99
426.20	5502.60
426.39	5497.92
426.58	5633.67
426.77	5593.88
426.96	5640.69
427.15	5638.35
427.33	5729.63
427.52	5689.84
427.71	5799.85
427.90	5818.57
428.09	5832.62
428.28	5858.36
428.46	5905.17
428.65	6054.97
428.84	6143.91
429.03	6328.81
429.22	5902.83
429.40	6080.71
429.59	6031.56
429.78	5841.98
429.97	5841.98
430.16	5975.39
430.34	6246.89
430.53	6324.13
430.72	6291.36
430.91	6265.61
431.10	6230.51
431.28	6321.79
431.47	6417.75
431.66	6497.33
431.85	6319.45
432.03	6562.86
432.22	6511.37
432.41	6572.22
432.60	6689.25
432.79	6647.12
432.97	6754.79
433.16	6693.93
433.35	6595.63
433.54	6705.63
433.72	6834.36
433.91	6628.40
434.10	7005.22
434.28	6834.36
434.47	6883.52
434.66	7047.35
434.85	7007.56
435.03	7035.65
435.22	7192.47
435.41	7714.41
435.59	7283.75
435.78	7360.98
435.97	7318.86
436.16	7279.07
436.34	7225.23
436.53	7426.52
436.72	7555.25
436.90	7204.17
437.09	7297.79
437.28	7304.81
437.46	7485.03
437.65	7398.43
437.84	7384.39
438.02	7751.85
438.21	7550.57
438.40	7604.40
438.58	7714.41
438.77	7927.39
438.96	7719.09
439.14	7779.94
439.33	8018.68
439.52	8184.85
439.70	8088.89
439.89	8243.37
440.08	8259.75
440.26	8133.36
440.45	8215.28
440.63	8348.69
440.82	8421.25
441.01	8514.87
441.19	8580.40
441.38	8692.75
441.57	8706.79
441.75	8800.41
441.94	8903.40
442.12	8833.18
442.31	8990.00
442.50	9006.38
442.68	9067.24
442.87	9069.58
443.05	9156.18
443.24	9282.56
443.43	8933.82
443.61	9210.01
443.80	9411.29
443.98	9046.17
444.17	8884.67
444.35	9327.03
444.54	9474.49
444.73	9415.98
444.91	9605.56
445.10	9317.67
445.28	9465.13
445.47	9404.27
445.65	9394.91
445.84	9525.98
446.02	9507.26
446.21	9369.16
446.39	9603.22
446.58	9521.30
446.77	9385.55
446.95	9364.48
447.14	9446.40
447.32	9614.92
447.51	9399.59
447.69	9423.00
447.88	9500.23
448.06	9565.77
448.25	9668.75
448.43	9685.14
448.62	9610.24
448.80	9643.01
448.99	9811.53
449.17	9928.55
449.36	9818.55
449.54	10029.20
449.73	10160.27
449.91	10134.52
450.10	9980.04
450.28	10228.14
450.46	10239.84
450.65	10244.52
450.83	10242.18
451.02	10228.14
451.20	10401.34
451.39	10281.97
451.57	10356.87
451.76	10251.55
451.94	10352.19
452.13	10597.95
452.31	10611.99
452.49	10420.06
452.68	10590.92
452.86	10417.72
453.05	10637.73
453.23	10736.04
453.42	10583.90
453.60	10555.82
453.78	10864.77
453.97	10530.07
454.15	10738.38
454.34	10644.76
454.52	11126.91
454.70	11052.01
454.89	11014.56
455.07	10930.30
455.26	11066.05
455.44	11307.13
455.62	11112.86
455.81	11325.85
455.99	11138.61
456.17	11297.77
456.36	11431.18
456.54	11590.33
456.73	11557.57
456.91	11868.86
457.09	11798.64
457.28	11948.43
457.46	11705.02
457.64	11698.00
457.83	11803.32
458.01	11653.53
458.19	12088.87
458.38	11920.35
458.56	12224.62
458.74	12053.76
458.93	12386.12
459.11	12046.74
459.29	12262.07
459.48	12362.71
459.66	12294.83
459.84	12292.49
460.03	12627.19
460.21	12545.27
460.39	12355.69
460.57	12116.95
460.76	12418.88
460.94	12889.33
461.12	12723.15
461.31	12578.04
461.49	12444.63
461.67	12807.41
461.85	12938.48
462.04	12905.71
462.22	13591.49
462.40	13118.70
462.59	13128.06
462.77	12989.97
462.95	13013.38
463.13	13345.73
463.32	12968.91
463.50	13142.11
463.68	13163.17
463.86	13429.99
464.05	13287.22
464.23	13411.27
464.41	13547.02
464.59	13114.02
464.78	13626.60
464.96	13327.01
465.14	13645.32
465.32	13638.30
465.50	13729.58
465.69	13874.70
465.87	13589.15
466.05	13703.84
466.23	13764.69
466.41	13867.67
466.60	14258.54
466.78	14136.84
466.96	13694.47
467.14	14012.79
467.32	14094.71
467.51	14607.28
467.69	13745.97
467.87	14094.71
468.05	14408.34
468.23	13909.80
468.41	13984.70
468.60	14314.72
468.78	14466.85
468.96	14314.72
469.14	14689.20
469.32	14560.47
469.50	14232.80
469.69	15138.58
469.87	14916.23
470.05	14831.97
470.23	14923.26
470.41	15108.16
470.59	15412.43
470.77	14689.20
470.95	15110.50
471.14	15269.66
471.32	15054.33
471.50	15625.42
471.68	15337.53
471.86	15772.87
472.04	15672.23
472.22	15836.06
472.40	15520.09
472.58	15964.79
472.77	15770.53
472.95	16070.12
473.13	16313.53
473.31	15955.43
473.49	15887.56
473.67	16184.80
473.85	16369.71
474.03	16372.05
474.21	16507.80
474.39	16933.78
474.57	16755.90
474.75	17132.72
474.93	17334.01
475.12	17144.42
475.30	16912.71
475.48	17364.43
475.66	17249.75
475.84	17376.14
476.02	17694.45
476.20	17841.90
476.38	18036.17
476.56	18099.36
476.74	17987.02
476.92	17888.71
477.10	18225.75
477.28	18298.31
477.46	18473.85
477.64	18916.21
477.82	18724.29
478.00	19211.12
478.18	19499.00
478.36	19103.45
478.54	19882.85
478.72	19639.44
478.90	19800.93
479.08	19960.09
479.26	20353.30
479.44	20224.57
479.62	20685.65
479.80	20381.38
479.98	20891.62
480.16	21240.36
480.34	20695.02
480.52	21333.98
480.70	21376.11
480.88	20978.22
481.06	21998.70
481.24	21425.26
481.41	21820.81
481.59	21935.50
481.77	22153.17
481.95	22125.08
482.13	22436.38
482.31	22476.16
482.49	23215.77
482.67	23030.87
482.85	23028.53
483.03	23314.08
483.21	24065.39
483.39	24217.52
483.57	23510.68
483.74	24107.52
483.92	24482.00
484.10	24226.89
484.28	24774.57
484.46	25287.15
484.64	25841.85
484.82	25373.75
485.00	25582.06
485.18	25944.84
485.35	26675.09
485.53	26073.57
485.71	26211.66
485.89	27126.81
486.07	26857.65
486.25	26878.71
486.43	26913.82
486.61	27166.60
486.78	27850.03
486.96	28121.54
487.14	28374.31
487.32	27992.81
487.50	28348.57
487.68	28507.72
487.85	29298.83
488.03	29345.64
488.21	29954.18
488.39	29802.04
488.57	29666.29
488.75	30176.53
488.92	30057.16
489.10	30663.36
489.28	30813.15
489.46	31409.99
489.64	31257.85
489.81	31625.32
489.99	31718.94
490.17	32041.93
490.35	32093.43
490.53	32378.97
490.70	32732.39
490.88	32561.53
491.06	32994.53
491.24	33153.69
491.41	33266.03
491.59	33336.25
491.77	33762.23
491.95	34356.72
492.13	34347.36
492.30	34405.88
492.48	34616.52
492.66	34366.09
492.84	34815.47
493.01	35447.41
493.19	35447.41
493.37	35786.79
493.54	35653.38
493.72	36367.24
493.90	35917.86
494.08	36278.30
494.25	36802.58
494.43	36935.99
494.61	37371.33
494.79	37205.16
494.96	37113.87
495.14	37886.25
495.32	38113.28
495.49	38169.46
495.67	38431.60
495.85	38579.05
496.02	38822.47
496.20	38904.38
496.38	38934.81
496.55	38789.70
496.73	39934.22
496.91	39899.11
497.09	40250.19
497.26	40343.81
497.44	40163.59
497.62	40521.69
497.79	40804.90
497.97	40629.36
498.14	41174.70
498.32	41811.33
498.50	41404.08
498.67	41883.89
498.85	41813.67
499.03	42021.98
499.20	41862.82
499.38	42195.18
499.56	42394.12
499.73	42646.90
499.91	42635.20
500.08	42768.61
500.26	42637.54
500.44	42951.17
500.61	43297.57
500.79	43262.46
500.97	43845.26
501.14	44076.97
501.32	44053.56
501.49	43812.49
501.67	44254.85
501.84	44371.88
502.02	44060.58
502.20	44243.15
502.37	44711.25
502.55	44818.92
502.72	44776.79
502.90	44964.03
503.07	45052.97
503.25	45177.02
503.43	45287.03
503.60	45862.80
503.78	45944.72
503.95	46036.00
504.13	46335.59
504.30	46199.83
504.48	45949.40
504.65	46506.44
504.83	46681.98
505.01	46815.40
505.18	46986.25
505.36	46967.53
505.53	46698.37
505.71	47178.18
505.88	47264.78
506.06	46693.69
506.23	47791.40
506.41	47650.97
506.58	47810.12
506.76	48032.47
506.93	48315.68
507.11	47611.18
507.28	48055.88
507.46	48219.72
507.63	48603.56
507.81	48914.86
507.98	48392.92
508.16	48886.77
508.33	48683.14
508.50	48699.53
508.68	49118.48
508.85	49586.59
509.03	49453.18
509.20	49619.36
509.38	49921.29
509.55	49738.72
509.73	49991.50
509.90	49670.85
510.08	50117.89
510.25	49951.71
510.42	50153.00
510.60	50593.02
510.77	50724.09
510.95	50679.62
511.12	50635.15
511.30	50368.33
511.47	50780.26
511.64	50714.73
511.82	51295.18
511.99	51159.43
512.17	51482.42
512.34	51334.97
512.51	51264.75
512.69	51597.11
512.86	51782.01
513.04	51744.56
513.21	51917.76
513.38	52016.07
513.56	52053.51
513.73	52161.18
513.90	52198.63
514.08	52168.20
514.25	52484.17
514.43	52500.56
514.60	52362.46
514.77	52643.33
514.95	52341.40
515.12	52706.52
515.29	52669.08
515.47	52945.26
515.64	52940.58
515.81	52884.40
515.99	53263.57
516.16	53600.61
516.33	53464.86
516.51	53380.60
516.68	53411.02
516.85	53333.79
517.03	53471.88
517.20	53916.58
517.37	53829.98
517.54	53865.09
517.72	53923.60
517.89	53808.92
518.06	54047.65
518.24	53712.95
518.41	54075.74
518.58	53993.82
518.75	54059.35
518.93	54380.01
519.10	54543.84
519.27	54490.01
519.45	54464.27
519.62	54223.19
519.79	54513.42
519.96	54843.43
520.14	55124.30
520.31	54724.07
520.48	54965.14
520.65	54941.74
520.83	54962.80
521.00	55299.84
521.17	54838.75
521.34	55084.51
521.52	55133.66
521.69	55325.58
521.86	55440.27
522.03	55489.42
522.20	55688.37
522.38	55655.60
522.55	55655.60
522.72	55477.72
522.89	55751.56
523.07	56027.74
523.24	55840.50
523.41	56240.73
523.58	55973.91
523.75	56013.70
523.92	55868.59
524.10	56147.11
524.27	56526.28
524.44	56186.90
524.61	56362.44
524.78	56713.52
524.96	56399.89
525.13	56390.53
525.30	56498.19
525.47	56694.80
525.64	56547.34
525.81	56825.87
525.98	56900.76
526.16	57125.46
526.33	56917.15
526.50	57195.67
526.67	56711.18
526.84	56938.21
527.01	57179.29
527.18	57043.54
527.36	57254.18
527.53	57471.85
527.70	57584.20
527.87	57443.77
528.04	57279.93
528.21	57408.66
528.38	57326.74
528.55	57371.21
528.72	57525.69
528.89	57659.10
529.07	57535.05
529.24	57434.41
529.41	57427.38
529.58	57605.26
529.75	57748.04
529.92	57836.98
530.09	57925.92
530.26	57790.17
530.43	57759.74
530.60	57729.31
530.77	58021.88
530.94	57932.94
531.11	57836.98
531.28	57937.62
531.46	58162.31
531.63	58166.99
531.80	58351.90
531.97	58625.74
532.14	58365.94
532.31	58522.76
532.48	58323.81
532.65	58419.77
532.82	58480.63
532.99	58618.72
533.16	58387.00
533.33	58801.28
533.50	59065.76
533.67	58688.93
533.84	58681.91
534.01	58791.92
534.18	58677.23
534.35	58824.68
534.52	58918.31
534.69	58808.30
534.86	59227.26
535.03	59100.87
535.20	59220.23
535.37	59133.63
535.54	59199.17
535.71	59040.01
535.88	59133.63
536.05	59089.16
536.22	59367.69
536.38	59304.49
536.55	59215.55
536.72	59547.91
536.89	59217.89
537.06	59360.67
537.23	59599.40
537.40	59302.15
537.57	59409.82
537.74	59419.18
537.91	59657.91
538.08	59664.94
538.25	59777.28
538.42	59704.73
538.59	59695.36
538.75	59351.30
538.92	59758.56
539.09	59908.35
539.26	59870.90
539.43	59877.93
539.60	60172.83
539.77	60095.60
539.94	60259.43
540.11	60009.00
540.28	60093.25
540.44	60236.03
540.61	60320.29
540.78	60191.56
540.95	60385.82
541.12	60505.19
541.29	60439.65
541.46	60364.76
541.62	60310.92
541.79	60528.59
541.96	60229.01
542.13	60266.45
542.30	60322.63
542.47	60708.82
542.63	60523.91
542.80	60821.16
542.97	60842.23
543.14	60818.82
543.31	60610.51
543.48	60664.35
543.64	61043.51
543.81	61219.05
543.98	61008.40
544.15	61034.15
544.32	61422.68
544.48	61050.53
544.65	61144.16
544.82	61176.92
544.99	60856.27
545.16	61209.69
545.32	61193.31
545.49	61495.24
545.66	61736.31
545.83	61750.35
546.00	61654.39
546.16	61528.00
546.33	61228.41
546.50	61057.56
546.67	61345.44
546.83	61097.34
547.00	61193.31
547.17	61336.08
547.34	61406.30
547.50	61511.62
547.67	61771.42
547.84	61462.47
548.00	61790.14
548.17	61600.56
548.34	61303.31
548.51	61726.95
548.67	61661.41
548.84	61797.16
549.01	61797.16
549.18	61649.71
549.34	61832.27
549.51	61724.61
549.68	61757.38
549.84	61553.75
550.01	61736.31
550.18	61694.18
550.34	61937.60
550.51	62061.64
550.68	62017.17
550.84	61708.22
551.01	62115.48
551.18	61918.87
551.34	62087.39
551.51	61965.68
551.68	61900.15
551.84	62340.17
552.01	61825.25
552.18	62171.65
552.34	62157.61
552.51	62394.00
552.68	62234.84
552.84	62246.55
553.01	62312.08
553.18	62244.21
553.34	62379.96
553.51	62234.84
553.67	62618.69
553.84	62621.03
554.01	62534.43
554.17	62335.49
554.34	62459.54
554.51	62323.78
554.67	62588.27
554.84	62445.49
555.00	62611.67
555.17	62382.30
555.33	62571.88
555.50	62415.07
555.67	62714.65
555.83	62623.37
556.00	62700.61
556.16	62649.12
556.33	62468.90
556.50	62728.70
556.66	62808.28
556.83	62709.97
556.99	62829.34
557.16	63145.31
557.32	62862.11
557.49	62915.94
557.65	62665.50
557.82	62630.40
557.98	62929.98
558.15	62775.51
558.32	63014.24
558.48	63044.67
558.65	63051.69
558.81	62885.51
558.98	62974.45
559.14	62979.14
559.31	62819.98
559.47	62892.54
559.64	63107.86
559.80	62967.43
559.97	63199.15
560.13	63079.78
560.30	63093.82
560.46	63227.23
560.63	63133.61
560.79	63203.83
560.96	63344.26
561.12	63257.66
561.29	63196.80
561.45	63398.09
561.61	63384.05
561.78	63192.12
561.94	63412.13
562.11	63313.83
562.27	63252.98
562.44	63372.34
562.60	63339.58
562.77	63269.36
562.93	63271.70
563.10	63475.33
563.26	63220.21
563.42	63655.55
563.59	63522.14
563.75	63540.86
563.92	63564.27
564.08	63236.59
564.24	63267.02
564.41	63295.11
564.57	63571.29
564.74	63496.39
564.90	63735.13
565.07	63695.34
565.23	63625.12
565.39	63578.31
565.56	63578.31
565.72	63559.59
565.88	63498.73
566.05	63543.20
566.21	63559.59
566.38	63489.37
566.54	63517.46
566.70	63845.13
566.87	63763.21
567.03	63767.90
567.19	63938.75
567.36	63676.61
567.52	63683.64
567.68	63826.41
567.85	63599.38
568.01	63590.01
568.17	63828.75
568.34	63870.88
568.50	63847.47
568.66	63833.43
568.83	63814.71
568.99	63868.54
569.15	63657.89
569.32	63826.41
569.48	63463.63
569.64	63749.17
569.81	63884.92
569.97	63725.77
570.13	63777.26
570.30	63622.78
570.46	63966.84
570.62	63861.52
570.78	63898.97
570.95	63655.55
571.11	63887.26
571.27	63728.11
571.43	63812.37
571.60	63917.69
571.76	63840.45
571.92	64053.44
572.09	63927.05
572.25	64044.08
572.41	64006.63
572.57	63943.44
572.74	64081.53
572.90	63927.05
573.06	64006.63
573.22	64137.70
573.38	64147.06
573.55	64083.87
573.71	64441.97
573.87	64203.24
574.03	64039.40
574.20	64074.51
574.36	64044.08
574.52	63922.37
574.68	64039.40
574.84	64065.14
575.01	64193.87
575.17	64207.92
575.33	63903.65
575.49	64104.93
575.65	64203.24
575.82	64259.41
575.98	63985.57
576.14	64100.25
576.30	64186.85
576.46	64109.61
576.62	64015.99
576.79	64184.51
576.95	64060.46
577.11	64011.31
577.27	64060.46
577.43	64161.11
577.59	64107.27
577.75	64118.98
577.92	64060.46
578.08	63978.54
578.24	64011.31
578.40	64175.15
578.56	64273.45
578.72	64264.09
578.88	64341.33
579.04	64381.12
579.21	64346.01
579.37	64285.15
579.53	64338.99
579.69	64069.82
579.85	64041.74
580.01	64067.48
580.17	64200.89
580.33	64149.40
580.49	64189.19
580.65	64308.56
580.82	64336.65
580.98	64266.43
581.14	64191.53
581.30	64381.12
581.46	64069.82
581.62	64193.87
581.78	64088.55
581.94	64404.52
582.10	64292.18
582.26	64317.92
582.42	64423.25
582.58	64456.01
582.74	64348.35
582.90	64362.39
583.06	64320.26
583.22	64196.21
583.38	64409.20
583.54	64285.15
583.70	64257.07
583.86	64252.39
584.02	64184.51
584.18	64582.40
584.34	64456.01
584.50	64533.25
584.66	64324.94
584.82	64303.88
584.98	64381.12
585.14	64289.84
585.30	64161.11
585.46	64104.93
585.62	64259.41
585.78	64317.92
585.94	64196.21
586.10	64477.08
586.26	64481.76
586.42	64591.76
586.58	64413.88
586.74	64512.19
586.90	64409.20
587.06	64341.33
587.22	64460.69
587.38	64329.62
587.54	64500.48
587.70	64615.17
587.86	64694.75
588.02	64526.23
588.18	64762.62
588.34	64535.59
588.49	64481.76
