SpectraSuite Data File
++++++++++++++++++++++++++++++++++++
Date: Fri Oct 04 11:39:12 GMT-05:00 2013
User: price-jones
Dark Spectrum Present: No
Reference Spectrum Present: No
Number of Sampled Component Spectra: 1
Spectrometers: USB2+H05261
Integration Time (usec): 100000 (USB2+H05261)
Spectra Averaged: 1 (USB2+H05261)
Boxcar Smoothing: 0 (USB2+H05261)
Correct for Electrical Dark: No (USB2+H05261)
Strobe/Lamp Enabled: No (USB2+H05261)
Correct for Detector Non-linearity: No (USB2+H05261)
Correct for Stray Light: No (USB2+H05261)
Number of Pixels in Processed Spectrum: 2048
>>>>>Begin Processed Spectral Data<<<<<
365.73	42.13
365.92	42.13
366.12	42.13
366.32	0.00
366.52	0.00
366.72	0.00
366.91	0.00
367.11	0.00
367.31	0.00
367.51	0.00
367.70	0.00
367.90	0.00
368.10	0.00
368.30	0.00
368.49	0.00
368.69	0.00
368.89	9.36
369.09	0.00
369.28	0.00
369.48	0.00
369.68	0.00
369.87	0.00
370.07	35.11
370.27	35.11
370.47	86.60
370.66	51.49
370.86	65.54
371.06	152.13
371.25	222.35
371.45	91.28
371.65	191.92
371.84	126.39
372.04	124.05
372.24	124.05
372.44	161.50
372.63	60.85
372.83	198.95
373.03	135.75
373.22	236.39
373.42	177.88
373.62	117.03
373.81	234.05
374.01	210.65
374.21	182.56
374.40	250.44
374.60	224.69
374.79	205.97
374.99	208.31
375.19	191.92
375.38	189.58
375.58	184.90
375.78	241.08
375.97	264.48
376.17	257.46
376.37	262.14
376.56	100.64
376.76	229.37
376.95	215.33
377.15	220.01
377.35	187.24
377.54	149.79
377.74	212.99
377.93	140.43
378.13	208.31
378.33	212.99
378.52	187.24
378.72	229.37
378.91	231.71
379.11	182.56
379.31	231.71
379.50	147.45
379.70	248.10
379.89	189.58
380.09	201.29
380.28	250.44
380.48	159.16
380.68	227.03
380.87	259.80
381.07	238.73
381.26	255.12
381.46	259.80
381.65	184.90
381.85	173.20
382.04	177.88
382.24	271.50
382.43	203.63
382.63	156.82
382.83	215.33
383.02	170.86
383.22	250.44
383.41	222.35
383.61	159.16
383.80	163.84
384.00	166.18
384.19	276.18
384.39	222.35
384.58	159.16
384.78	203.63
384.97	217.67
385.17	161.50
385.36	177.88
385.56	220.01
385.75	203.63
385.95	273.84
386.14	257.46
386.34	224.69
386.53	222.35
386.72	208.31
386.92	234.05
387.11	175.54
387.31	236.39
387.50	173.20
387.70	222.35
387.89	245.76
388.09	224.69
388.28	229.37
388.48	152.13
388.67	271.50
388.86	245.76
389.06	201.29
389.25	210.65
389.45	313.63
389.64	259.80
389.84	252.78
390.03	290.23
390.22	241.08
390.42	227.03
390.61	177.88
390.81	189.58
391.00	217.67
391.19	276.18
391.39	208.31
391.58	271.50
391.78	341.72
391.97	245.76
392.16	234.05
392.36	367.46
392.55	292.57
392.75	304.27
392.94	210.65
393.13	360.44
393.33	306.61
393.52	227.03
393.71	276.18
393.91	276.18
394.10	236.39
394.29	205.97
394.49	248.10
394.68	341.72
394.88	234.05
395.07	299.59
395.26	308.95
395.46	248.10
395.65	266.82
395.84	381.51
396.04	330.02
396.23	210.65
396.42	273.84
396.62	325.33
396.81	257.46
397.00	290.23
397.19	273.84
397.39	344.06
397.58	367.46
397.77	227.03
397.97	367.46
398.16	266.82
398.35	318.31
398.55	248.10
398.74	322.99
398.93	334.70
399.12	297.25
399.32	299.59
399.51	301.93
399.70	318.31
399.90	255.12
400.09	304.27
400.28	395.55
400.47	376.83
400.67	339.38
400.86	337.04
401.05	341.72
401.24	355.76
401.44	367.46
401.63	346.40
401.82	304.27
402.01	402.57
402.21	407.25
402.40	393.21
402.59	383.85
402.78	425.98
402.97	327.68
403.17	388.53
403.36	397.89
403.55	348.74
403.74	428.32
403.93	421.30
404.13	304.27
404.32	475.13
404.51	383.85
404.70	472.79
404.89	379.17
405.09	407.25
405.28	430.66
405.47	374.49
405.66	374.49
405.85	428.32
406.05	425.98
406.24	390.87
406.43	425.98
406.62	411.93
406.81	461.09
407.00	451.72
407.20	414.27
407.39	395.55
407.58	402.57
407.77	435.34
407.96	479.81
408.15	503.22
408.34	477.47
408.54	479.81
408.73	514.92
408.92	449.38
409.11	463.43
409.30	477.47
409.49	388.53
409.68	496.19
409.87	491.51
410.07	463.43
410.26	512.58
410.45	472.79
410.64	524.28
410.83	531.30
411.02	512.58
411.21	519.60
411.40	507.90
411.59	514.92
411.78	512.58
411.98	550.03
412.17	566.41
412.36	582.79
412.55	477.47
412.74	594.50
412.93	608.54
413.12	545.34
413.31	552.37
413.50	589.82
413.69	564.07
413.88	622.58
414.07	540.66
414.26	608.54
414.45	711.52
414.64	615.56
414.83	599.18
415.02	585.13
415.22	571.09
415.41	678.76
415.60	582.79
415.79	688.12
415.98	617.90
416.17	676.41
416.36	704.50
416.55	650.67
416.74	706.84
416.93	720.88
417.12	711.52
417.31	690.46
417.50	753.65
417.69	678.76
417.88	772.38
418.07	741.95
418.26	683.44
418.45	688.12
418.64	767.70
418.83	781.74
419.02	709.18
419.21	784.08
419.39	786.42
419.58	739.61
419.77	730.25
419.96	863.66
420.15	770.04
420.34	734.93
420.53	709.18
420.72	699.82
420.91	781.74
421.10	760.67
421.29	730.25
421.48	725.57
421.67	730.25
421.86	819.19
422.05	779.40
422.24	774.72
422.43	732.59
422.61	807.48
422.80	809.83
422.99	748.97
423.18	751.31
423.37	711.52
423.56	793.44
423.75	786.42
423.94	781.74
424.13	779.40
424.32	692.80
424.50	847.27
424.69	851.96
424.88	816.85
425.07	786.42
425.26	748.97
425.45	798.12
425.64	823.87
425.83	753.65
426.01	819.19
426.20	849.61
426.39	777.06
426.58	830.89
426.77	727.91
426.96	793.44
427.15	800.46
427.33	795.78
427.52	763.01
427.71	833.23
427.90	873.02
428.09	744.29
428.28	807.48
428.46	924.51
428.65	844.93
428.84	877.70
429.03	873.02
429.22	765.36
429.40	926.85
429.59	856.64
429.78	880.04
429.97	868.34
430.16	891.74
430.34	809.83
430.53	821.53
430.72	908.13
430.91	833.23
431.10	840.25
431.28	847.27
431.47	957.28
431.66	997.07
431.85	915.15
432.03	889.40
432.22	983.02
432.41	915.15
432.60	1043.88
432.79	952.60
432.97	999.41
433.16	905.79
433.35	793.44
433.54	931.53
433.72	994.73
433.91	971.32
434.10	943.24
434.28	1041.54
434.47	1006.43
434.66	959.62
434.85	1090.69
435.03	1060.26
435.22	1135.16
435.41	1401.98
435.59	1390.28
435.78	1170.27
435.97	1076.65
436.16	1090.69
436.34	1029.84
436.53	1081.33
436.72	1088.35
436.90	1074.31
437.09	1015.79
437.28	999.41
437.46	1004.09
437.65	1132.82
437.84	1020.47
438.02	1067.28
438.21	1083.67
438.40	1013.45
438.58	1022.81
438.77	1137.50
438.96	1083.67
439.14	1067.28
439.33	1015.79
439.52	1114.10
439.70	1137.50
439.89	1071.97
440.08	1055.58
440.26	1074.31
440.45	1165.59
440.63	1165.59
440.82	1153.88
441.01	1128.14
441.19	1186.65
441.38	1303.68
441.57	1153.88
441.75	1266.23
441.94	1282.61
442.12	1235.80
442.31	1167.93
442.50	1315.38
442.68	1254.53
442.87	1186.65
443.05	1196.01
443.24	1247.51
443.43	1242.82
443.61	1280.27
443.80	1273.25
443.98	1200.69
444.17	1135.16
444.35	1198.35
444.54	1282.61
444.73	1252.19
444.91	1245.16
445.10	1329.42
445.28	1259.21
445.47	1291.98
445.65	1186.65
445.84	1270.91
446.02	1306.02
446.21	1249.85
446.39	1317.72
446.58	1317.72
446.77	1301.34
446.95	1252.19
447.14	1179.63
447.32	1345.81
447.51	1294.32
447.69	1320.06
447.88	1357.51
448.06	1317.72
448.25	1289.64
448.43	1287.29
448.62	1184.31
448.80	1296.66
448.99	1376.24
449.17	1394.96
449.36	1324.74
449.54	1256.87
449.73	1280.27
449.91	1399.64
450.10	1390.28
450.28	1385.60
450.46	1362.19
450.65	1427.73
450.83	1291.98
451.02	1240.48
451.20	1301.34
451.39	1359.85
451.57	1392.62
451.76	1364.53
451.94	1430.07
452.13	1437.09
452.31	1495.60
452.49	1385.60
452.68	1434.75
452.86	1446.45
453.05	1474.54
453.23	1455.81
453.42	1366.87
453.60	1439.43
453.78	1420.71
453.97	1352.83
454.15	1390.28
454.34	1343.47
454.52	1563.48
454.70	1369.21
454.89	1472.20
455.07	1511.99
455.26	1434.75
455.44	1401.98
455.62	1490.92
455.81	1495.60
455.99	1535.39
456.17	1401.98
456.36	1476.88
456.54	1507.30
456.73	1563.48
456.91	1476.88
457.09	1568.16
457.28	1446.45
457.46	1453.47
457.64	1589.22
457.83	1533.05
458.01	1523.69
458.19	1488.58
458.38	1551.78
458.56	1570.50
458.74	1500.28
458.93	1551.78
459.11	1397.30
459.29	1673.48
459.48	1579.86
459.66	1607.95
459.84	1624.33
460.03	1687.53
460.21	1558.80
460.39	1544.75
460.57	1694.55
460.76	1617.31
460.94	1699.23
461.12	1682.85
461.31	1671.14
461.49	1563.48
461.67	1621.99
461.85	1638.38
462.04	1568.16
462.22	1675.82
462.40	1701.57
462.59	1619.65
462.77	1661.78
462.95	1603.27
463.13	1671.14
463.32	1757.74
463.50	1685.19
463.68	1799.87
463.86	1764.76
464.05	1717.95
464.23	1685.19
464.41	1703.91
464.59	1732.00
464.78	1650.08
464.96	1722.63
465.14	1647.74
465.32	1790.51
465.50	1802.21
465.69	1769.44
465.87	1680.50
466.05	1797.53
466.23	1710.93
466.41	1668.80
466.60	1834.98
466.78	1834.98
466.96	1788.17
467.14	1753.06
467.32	1762.42
467.51	1771.79
467.69	1741.36
467.87	1694.55
468.05	1724.97
468.23	1795.19
468.41	1701.57
468.60	1781.15
468.78	1792.85
468.96	1884.13
469.14	1975.41
469.32	1799.87
469.50	1867.75
469.69	1823.28
469.87	1802.21
470.05	1898.17
470.23	1818.60
470.41	1802.21
470.59	1928.60
470.77	1724.97
470.95	1921.58
471.14	2026.90
471.32	1825.62
471.50	2024.56
471.68	1898.17
471.86	1881.79
472.04	1937.96
472.22	1968.39
472.40	1764.76
472.58	1984.77
472.77	1900.52
472.95	1991.80
473.13	2029.24
473.31	2122.87
473.49	1923.92
473.67	1928.60
473.85	2066.69
474.03	2005.84
474.21	2019.88
474.39	2050.31
474.57	2085.42
474.75	2040.95
474.93	2094.78
475.12	2033.93
475.30	2059.67
475.48	2059.67
475.66	2026.90
475.84	2090.10
476.02	2162.66
476.20	2083.08
476.38	2132.23
476.56	2265.64
476.74	2246.91
476.92	2160.31
477.10	2190.74
477.28	2282.02
477.46	2225.85
477.64	2296.07
477.82	2256.28
478.00	2289.04
478.18	2307.77
478.36	2373.30
478.54	2359.26
478.72	2335.85
478.90	2394.37
479.08	2424.80
479.26	2410.75
479.44	2450.54
479.62	2495.01
479.80	2544.16
479.98	2476.29
480.16	2511.39
480.34	2492.67
480.52	2551.18
480.70	2597.99
480.88	2537.14
481.06	2588.63
481.24	2502.03
481.41	2511.39
481.59	2654.17
481.77	2612.04
481.95	2581.61
482.13	2670.55
482.31	2630.76
482.49	2775.88
482.67	2740.77
482.85	2761.83
483.03	2822.69
483.21	2832.05
483.39	2911.63
483.57	2738.43
483.74	2888.22
483.92	2974.82
484.10	2860.13
484.28	2883.54
484.46	3007.59
484.64	2972.48
484.82	2885.88
485.00	3009.93
485.18	2963.12
485.35	3138.66
485.53	3030.99
485.71	3082.49
485.89	3190.15
486.07	3190.15
486.25	3222.92
486.43	3101.21
486.61	3115.25
486.78	3157.38
486.96	3248.66
487.14	3232.28
487.32	3323.56
487.50	3316.54
487.68	3300.16
487.85	3353.99
488.03	3419.52
488.21	3454.63
488.39	3389.10
488.57	3485.06
488.75	3485.06
488.92	3829.12
489.10	3522.51
489.28	3686.34
489.46	3524.85
489.64	3543.57
489.81	3634.85
489.99	3730.81
490.17	3742.52
490.35	3742.52
490.53	3667.62
490.70	3676.98
490.88	3639.53
491.06	3768.26
491.24	3798.69
491.41	3826.78
491.59	3761.24
491.77	3735.50
491.95	3875.93
492.13	3962.53
492.30	3904.01
492.48	3915.72
492.66	3978.91
492.84	3967.21
493.01	4058.49
493.19	4086.58
493.37	4184.88
493.54	4018.70
493.72	4109.98
493.90	4191.90
494.08	4074.87
494.25	4297.22
494.43	4201.26
494.61	4107.64
494.79	4189.56
494.96	4262.12
495.14	4198.92
495.32	4425.95
495.49	4442.34
495.67	4374.46
495.85	4294.88
496.02	4416.59
496.20	4475.10
496.38	4449.36
496.55	4332.33
496.73	4688.09
496.91	4503.19
497.09	4678.73
497.26	4388.50
497.44	4589.79
497.62	4617.88
497.79	4493.83
497.97	4540.64
498.14	4482.13
498.32	4713.84
498.50	4784.06
498.67	4748.95
498.85	4711.50
499.03	4592.13
499.20	4798.10
499.38	4620.22
499.56	4809.80
499.73	4758.31
499.91	4821.50
500.08	4940.87
500.26	4781.71
500.44	5053.22
500.61	4835.55
500.79	4826.18
500.97	4912.78
501.14	4950.23
501.32	4793.42
501.49	4940.87
501.67	4943.21
501.84	4990.02
502.02	4880.02
502.20	4926.83
502.37	4994.70
502.55	5008.75
502.72	5104.71
502.90	5123.43
503.07	4987.68
503.25	5069.60
503.43	5172.58
503.60	5130.45
503.78	5095.35
503.95	5132.79
504.13	5032.15
504.30	5273.23
504.48	5327.06
504.65	5210.03
504.83	5132.79
505.01	5261.52
505.18	5282.59
505.36	5158.54
505.53	5085.98
505.71	5280.25
505.88	5259.18
506.06	5224.08
506.23	5547.07
506.41	5277.91
506.58	5416.00
506.76	5439.40
506.93	5247.48
507.11	5420.68
507.28	5460.47
507.46	5430.04
507.63	5549.41
507.81	5500.26
507.98	5455.79
508.16	5598.56
508.33	5376.21
508.50	5502.60
508.68	5643.03
508.85	5621.97
509.03	5612.60
509.20	5710.91
509.38	5652.39
509.55	5748.36
509.73	5717.93
509.90	5722.61
510.08	5628.99
510.25	5577.50
510.42	5628.99
510.60	5834.96
510.77	5849.00
510.95	5881.77
511.12	5823.25
511.30	5682.82
511.47	5767.08
511.64	5837.30
511.82	5996.45
511.99	5870.06
512.17	5966.03
512.34	5830.27
512.51	5959.00
512.69	5865.38
512.86	5966.03
513.04	6003.47
513.21	5989.43
513.38	6069.01
513.56	6015.18
513.73	5984.75
513.90	6019.86
514.08	6059.65
514.25	6174.33
514.43	6190.72
514.60	5954.32
514.77	6106.46
514.95	6080.71
515.12	5907.51
515.29	6223.48
515.47	6228.17
515.64	6181.35
515.81	6136.88
515.99	6176.67
516.16	6179.01
516.33	6277.32
516.51	6244.55
516.68	6249.23
516.85	6277.32
517.03	6127.52
517.20	6258.59
517.37	6190.72
517.54	6314.77
517.72	6267.95
517.89	6319.45
518.06	6216.46
518.24	6417.75
518.41	6382.64
518.58	6384.98
518.75	6356.90
518.93	6464.56
519.10	6452.86
519.27	6387.32
519.45	6354.55
519.62	6265.61
519.79	6260.93
519.96	6382.64
520.14	6452.86
520.31	6626.06
520.48	6328.81
520.65	6523.07
520.83	6389.66
521.00	6642.44
521.17	6595.63
521.34	6356.90
521.52	6504.35
521.69	6612.01
521.86	6733.72
522.03	6588.61
522.20	6614.35
522.38	6619.04
522.55	6616.69
522.72	6583.93
522.89	6715.00
523.07	6764.15
523.24	6895.22
523.41	6649.46
523.58	6621.38
523.75	6754.79
523.92	6670.53
524.10	6691.59
524.27	6642.44
524.44	6691.59
524.61	6815.64
524.78	6693.93
524.96	6775.85
525.13	6754.79
525.30	6817.98
525.47	6806.28
525.64	6899.90
525.81	6916.28
525.98	6839.05
526.16	6773.51
526.33	6803.94
526.50	6902.24
526.67	6860.11
526.84	6958.41
527.01	6946.71
527.18	6956.07
527.36	7007.56
527.53	7159.70
527.70	7162.04
527.87	6902.24
528.04	7021.61
528.21	7080.12
528.38	6984.16
528.55	7019.27
528.72	7066.08
528.89	7052.03
529.07	7077.78
529.24	7033.31
529.41	7166.72
529.58	7138.63
529.75	7246.30
529.92	7180.76
530.09	6960.75
530.26	7197.15
530.43	7136.29
530.60	7145.66
530.77	7068.42
530.94	7197.15
531.11	7171.40
531.28	7103.53
531.46	7321.20
531.63	7145.66
531.80	7281.41
531.97	7393.75
532.14	7370.35
532.31	7190.13
532.48	7290.77
532.65	7309.49
532.82	7162.04
532.99	7328.22
533.16	7311.83
533.33	7314.17
533.50	7335.24
533.67	7494.40
533.84	7309.49
534.01	7435.88
534.18	7260.34
534.35	7604.40
534.52	7379.71
534.69	7620.78
534.86	7356.30
535.03	7536.52
535.20	7227.57
535.37	7510.78
535.54	7316.51
535.71	7499.08
535.88	7569.29
536.05	7555.25
536.22	7641.85
536.38	7602.06
536.55	7494.40
536.72	7417.16
536.89	7571.63
537.06	7676.96
537.23	7658.23
537.40	7524.82
537.57	7669.94
537.74	7597.38
537.91	7513.12
538.08	7941.44
538.25	7777.60
538.42	7506.10
538.59	7712.07
538.75	7733.13
538.92	7613.76
539.09	7569.29
539.26	7730.79
539.43	7826.75
539.60	7934.42
539.77	7630.15
539.94	7681.64
540.11	7808.03
540.28	7712.07
540.44	7899.31
540.61	7840.79
540.78	7810.37
540.95	7992.93
541.12	7913.35
541.29	7976.55
541.46	7939.10
541.62	8074.85
541.79	8035.06
541.96	7934.42
542.13	7847.82
542.30	7981.23
542.47	8241.03
542.63	8142.72
542.80	8163.79
542.97	8203.58
543.14	8212.94
543.31	8079.53
543.48	8072.51
543.64	8021.02
543.81	8203.58
543.98	8133.36
544.15	8269.11
544.32	8329.97
544.48	8393.16
544.65	8093.57
544.82	8025.70
544.99	8070.17
545.16	8226.98
545.32	8105.28
545.49	8547.64
545.66	8835.52
545.83	8945.53
546.00	8652.96
546.16	8278.47
546.33	8229.32
546.50	8222.30
546.67	8308.90
546.83	8154.43
547.00	8147.40
547.17	8166.13
547.34	8084.21
547.50	8042.08
547.67	8166.13
547.84	8116.98
548.00	8149.75
548.17	8166.13
548.34	8210.60
548.51	8248.05
548.67	8318.26
548.84	8121.66
549.01	7988.25
549.18	8074.85
549.34	8119.32
549.51	8187.19
549.68	8280.82
549.84	8121.66
550.01	8133.36
550.18	8362.73
550.34	8252.73
550.51	8201.24
550.68	8301.88
550.84	8072.51
551.01	8124.00
551.18	8116.98
551.34	8098.25
551.51	8215.28
551.68	8081.87
551.84	8383.80
552.01	8231.66
552.18	8252.73
552.34	8203.58
552.51	8184.85
552.68	8355.71
552.84	8088.89
553.01	8514.87
553.18	8402.52
553.34	8259.75
553.51	8154.43
553.67	8379.12
553.84	8533.59
554.01	8418.91
554.17	8205.92
554.34	8449.33
554.51	8421.25
554.67	8290.18
554.84	8215.28
555.00	8166.13
555.17	8280.82
555.33	8470.40
555.50	8271.45
555.67	8269.11
555.83	8311.24
556.00	8393.16
556.16	8458.70
556.33	8418.91
556.50	8241.03
556.66	8290.18
556.83	8404.86
556.99	8428.27
557.16	8491.46
557.32	8367.42
557.49	8365.07
557.65	8329.97
557.82	8411.89
557.98	8360.39
558.15	8217.62
558.32	8297.20
558.48	8414.23
558.65	8217.62
558.81	8603.81
558.98	8430.61
559.14	8418.91
559.31	8245.71
559.47	8266.77
559.64	8372.10
559.80	8416.57
559.97	8299.54
560.13	8402.52
560.30	8416.57
560.46	8578.06
560.63	8510.19
560.79	8348.69
560.96	8589.77
561.12	8482.10
561.29	8547.64
561.45	8161.45
561.61	8486.78
561.78	8557.00
561.94	8449.33
562.11	8336.99
562.27	8521.89
562.44	8393.16
562.60	8416.57
562.77	8465.72
562.93	8430.61
563.10	8533.59
563.26	8393.16
563.42	8603.81
563.59	8645.94
563.75	8269.11
563.92	8589.77
564.08	8564.02
564.24	8451.67
564.41	8320.60
564.57	8435.29
564.74	8411.89
564.90	8641.26
565.07	8451.67
565.23	8559.34
565.39	8484.44
565.56	8444.65
565.72	8442.31
565.88	8341.67
566.05	8507.85
566.21	8358.05
566.38	8252.73
566.54	8580.40
566.70	8402.52
566.87	8505.51
567.03	8594.45
567.19	8428.27
567.36	8561.68
567.52	8339.33
567.68	8535.93
567.85	8486.78
568.01	8554.66
568.17	8561.68
568.34	8704.45
568.50	8545.30
568.66	8390.82
568.83	8568.70
568.99	8613.17
569.15	8514.87
569.32	8645.94
569.48	8596.79
569.64	8346.35
569.81	8463.38
569.97	8692.75
570.13	8634.24
570.30	8580.40
570.46	8524.23
570.62	8510.19
570.78	8634.24
570.95	8446.99
571.11	8655.30
571.27	8517.21
571.43	8334.65
571.60	8613.17
571.76	8566.36
571.92	8430.61
572.09	8760.63
572.25	8519.55
572.41	8624.87
572.57	8669.34
572.74	8655.30
572.90	8486.78
573.06	8641.26
573.22	8648.28
573.38	8479.76
573.55	8554.66
573.71	8788.71
573.87	8706.79
574.03	8554.66
574.20	8540.61
574.36	8360.39
574.52	8678.71
574.68	8540.61
574.84	8559.34
575.01	8461.04
575.17	8608.49
575.33	8664.66
575.49	8690.41
575.65	8610.83
575.82	8552.32
575.98	8477.42
576.14	8582.74
576.30	8287.84
576.46	8538.27
576.62	8643.60
576.79	8667.00
576.95	8662.32
577.11	8477.42
577.27	8578.06
577.43	8648.28
577.59	8746.58
577.75	8531.25
577.92	8475.08
578.08	8596.79
578.24	8404.86
578.40	8589.77
578.56	8774.67
578.72	8755.94
578.88	8755.94
579.04	8917.44
579.21	8482.10
579.37	8524.23
579.53	8496.14
579.69	8376.78
579.85	8606.15
580.01	8648.28
580.17	8388.48
580.33	8430.61
580.49	8458.70
580.65	8575.72
580.82	8652.96
580.98	8615.51
581.14	8531.25
581.30	8683.39
581.46	8692.75
581.62	8737.22
581.78	8388.48
581.94	8765.31
582.10	8449.33
582.26	8723.18
582.42	8631.90
582.58	8777.01
582.74	8730.20
582.90	8468.06
583.06	8662.32
583.22	8631.90
583.38	8585.08
583.54	8622.53
583.70	8795.73
583.86	8676.37
584.02	8641.26
584.18	8870.63
584.34	8781.69
584.50	8617.85
584.66	8493.80
584.82	8683.39
584.98	8610.83
585.14	8674.03
585.30	8688.07
585.46	8557.00
585.62	8704.45
585.78	8674.03
585.94	8554.66
586.10	8512.53
586.26	8573.38
586.42	8636.58
586.58	8795.73
586.74	8538.27
586.90	8830.84
587.06	8648.28
587.22	8744.24
587.38	8842.54
587.54	8830.84
587.70	8634.24
587.86	8657.64
588.02	8671.68
588.18	8901.06
588.34	8718.50
588.49	8573.38
588.65	8365.07
588.81	8564.02
588.97	8669.34
589.13	8615.51
589.29	8676.37
589.45	8655.30
589.61	8629.56
589.77	8741.90
589.93	8587.43
590.08	8713.81
590.24	8676.37
590.40	8704.45
590.56	8571.04
590.72	8585.08
590.88	8704.45
591.04	8634.24
591.20	8575.72
591.35	8716.16
591.51	8936.17
591.67	8828.50
591.83	8872.97
591.99	8798.07
592.15	8650.62
592.31	8674.03
592.46	8950.21
592.62	8648.28
592.78	8610.83
592.94	8795.73
593.10	8685.73
593.26	8655.30
593.41	8788.71
593.57	8538.27
593.73	8816.80
593.89	8692.75
594.05	8561.68
594.20	8538.27
594.36	8573.38
594.52	8489.12
594.68	8484.44
594.84	8879.99
594.99	8669.34
595.15	8725.52
595.31	8678.71
595.47	8814.46
595.62	8699.77
595.78	8760.63
595.94	8781.69
596.10	8645.94
596.25	8559.34
596.41	8636.58
596.57	8578.06
596.73	8475.08
596.88	8585.08
597.04	8596.79
597.20	8648.28
597.36	8674.03
597.51	8720.84
597.67	8423.59
597.83	8540.61
597.99	8559.34
598.14	8507.85
598.30	8493.80
598.46	8692.75
598.61	8711.47
598.77	8580.40
598.93	8753.60
599.09	8912.76
599.24	8624.87
599.40	8610.83
599.56	8643.60
599.71	8650.62
599.87	8580.40
600.03	8697.43
