SpectraSuite Data File
++++++++++++++++++++++++++++++++++++
Date: Fri Oct 04 11:39:43 GMT-05:00 2013
User: price-jones
Dark Spectrum Present: No
Reference Spectrum Present: No
Number of Sampled Component Spectra: 1
Spectrometers: USB2+H05261
Integration Time (usec): 100000 (USB2+H05261)
Spectra Averaged: 1 (USB2+H05261)
Boxcar Smoothing: 0 (USB2+H05261)
Correct for Electrical Dark: No (USB2+H05261)
Strobe/Lamp Enabled: No (USB2+H05261)
Correct for Detector Non-linearity: No (USB2+H05261)
Correct for Stray Light: No (USB2+H05261)
Number of Pixels in Processed Spectrum: 2048
>>>>>Begin Processed Spectral Data<<<<<
365.73	124.05
365.92	124.05
366.12	124.05
366.32	0.00
366.52	0.00
366.72	0.00
366.91	0.00
367.11	0.00
367.31	0.00
367.51	0.00
367.70	0.00
367.90	0.00
368.10	0.00
368.30	0.00
368.49	0.00
368.69	0.00
368.89	0.00
369.09	0.00
369.28	9.36
369.48	0.00
369.68	0.00
369.87	0.00
370.07	0.00
370.27	16.38
370.47	37.45
370.66	0.00
370.86	30.43
371.06	126.39
371.25	142.77
371.45	140.43
371.65	102.98
371.84	124.05
372.04	110.01
372.24	88.94
372.44	135.75
372.63	119.37
372.83	93.62
373.03	215.33
373.22	184.90
373.42	205.97
373.62	210.65
373.81	121.71
374.01	236.39
374.21	255.12
374.40	191.92
374.60	196.60
374.79	229.37
374.99	161.50
375.19	194.26
375.38	156.82
375.58	170.86
375.78	266.82
375.97	196.60
376.17	198.95
376.37	175.54
376.56	194.26
376.76	131.07
376.95	77.24
377.15	140.43
377.35	222.35
377.54	154.48
377.74	196.60
377.93	166.18
378.13	135.75
378.33	208.31
378.52	154.48
378.72	180.22
378.91	128.73
379.11	133.41
379.31	149.79
379.50	91.28
379.70	170.86
379.89	173.20
380.09	105.32
380.28	110.01
380.48	184.90
380.68	196.60
380.87	121.71
381.07	154.48
381.26	173.20
381.46	159.16
381.65	198.95
381.85	168.52
382.04	114.69
382.24	187.24
382.43	138.09
382.63	84.26
382.83	187.24
383.02	194.26
383.22	156.82
383.41	161.50
383.61	173.20
383.80	161.50
384.00	182.56
384.19	105.32
384.39	182.56
384.58	128.73
384.78	152.13
384.97	156.82
385.17	224.69
385.36	142.77
385.56	168.52
385.75	119.37
385.95	93.62
386.14	147.45
386.34	142.77
386.53	220.01
386.72	203.63
386.92	196.60
387.11	119.37
387.31	140.43
387.50	128.73
387.70	102.98
387.89	182.56
388.09	184.90
388.28	168.52
388.48	149.79
388.67	210.65
388.86	210.65
389.06	227.03
389.25	196.60
389.45	217.67
389.64	205.97
389.84	262.14
390.03	189.58
390.22	191.92
390.42	93.62
390.61	140.43
390.81	229.37
391.00	220.01
391.19	191.92
391.39	182.56
391.58	248.10
391.78	236.39
391.97	203.63
392.16	189.58
392.36	278.52
392.55	194.26
392.75	234.05
392.94	170.86
393.13	217.67
393.33	257.46
393.52	177.88
393.71	257.46
393.91	194.26
394.10	210.65
394.29	205.97
394.49	194.26
394.68	238.73
394.88	315.97
395.07	198.95
395.26	287.89
395.46	227.03
395.65	217.67
395.84	217.67
396.04	276.18
396.23	194.26
396.42	264.48
396.62	332.36
396.81	273.84
397.00	243.42
397.19	369.80
397.39	159.16
397.58	313.63
397.77	227.03
397.97	273.84
398.16	229.37
398.35	264.48
398.55	201.29
398.74	376.83
398.93	290.23
399.12	280.86
399.32	334.70
399.51	262.14
399.70	327.68
399.90	344.06
400.09	313.63
400.28	362.78
400.47	252.78
400.67	341.72
400.86	334.70
401.05	337.04
401.24	365.12
401.44	353.42
401.63	332.36
401.82	292.57
402.01	320.65
402.21	367.46
402.40	344.06
402.59	421.30
402.78	379.17
402.97	358.10
403.17	411.93
403.36	379.17
403.55	400.23
403.74	332.36
403.93	355.76
404.13	540.66
404.32	428.32
404.51	414.27
404.70	414.27
404.89	383.85
405.09	524.28
405.28	414.27
405.47	404.91
405.66	416.62
405.85	447.04
406.05	421.30
406.24	442.36
406.43	442.36
406.62	491.51
406.81	615.56
407.00	512.58
407.20	433.00
407.39	435.34
407.58	496.19
407.77	528.96
407.96	615.56
408.15	645.99
408.34	465.77
408.54	559.39
408.73	533.64
408.92	545.34
409.11	550.03
409.30	627.26
409.49	475.13
409.68	643.65
409.87	631.94
410.07	526.62
410.26	631.94
410.45	643.65
410.64	547.69
410.83	615.56
411.02	634.29
411.21	575.77
411.40	634.29
411.59	671.73
411.78	702.16
411.98	592.16
412.17	671.73
412.36	662.37
412.55	662.37
412.74	716.20
412.93	692.80
413.12	690.46
413.31	772.38
413.50	765.36
413.69	695.14
413.88	809.83
414.07	702.16
414.26	774.72
414.45	741.95
414.64	727.91
414.83	758.33
415.02	786.42
415.22	833.23
415.41	894.08
415.60	847.27
415.79	873.02
415.98	887.06
416.17	826.21
416.36	936.21
416.55	891.74
416.74	952.60
416.93	954.94
417.12	964.30
417.31	959.62
417.50	910.47
417.69	959.62
417.88	929.19
418.07	880.04
418.26	1006.43
418.45	1090.69
418.64	947.92
418.83	1062.60
419.02	905.79
419.21	964.30
419.39	1006.43
419.58	940.90
419.77	1001.75
419.96	1011.11
420.15	1064.94
420.34	1055.58
420.53	1081.33
420.72	1032.18
420.91	1149.20
421.10	1132.82
421.29	1109.41
421.48	1163.25
421.67	1177.29
421.86	1078.99
422.05	1078.99
422.24	1130.48
422.43	1076.65
422.61	1076.65
422.80	1156.22
422.99	1135.16
423.18	1095.37
423.37	1156.22
423.56	1146.86
423.75	1069.62
423.94	1151.54
424.13	1064.94
424.32	1212.40
424.50	1135.16
424.69	1210.06
424.88	1233.46
425.07	1149.20
425.26	1093.03
425.45	1121.12
425.64	1139.84
425.83	1132.82
426.01	1238.14
426.20	1142.18
426.39	1158.57
426.58	1287.29
426.77	1153.88
426.96	1188.99
427.15	1273.25
427.33	1158.57
427.52	1174.95
427.71	1228.78
427.90	1329.42
428.09	1146.86
428.28	1207.72
428.46	1210.06
428.65	1275.59
428.84	1357.51
429.03	1238.14
429.22	1214.74
429.40	1310.70
429.59	1240.48
429.78	1306.02
429.97	1228.78
430.16	1324.74
430.34	1315.38
430.53	1212.40
430.72	1380.92
430.91	1306.02
431.10	1371.55
431.28	1385.60
431.47	1341.13
431.66	1329.42
431.85	1430.07
432.03	1390.28
432.22	1444.11
432.41	1390.28
432.60	1509.65
432.79	1399.64
432.97	1448.79
433.16	1383.26
433.35	1390.28
433.54	1406.66
433.72	1437.09
433.91	1495.60
434.10	1479.22
434.28	1493.26
434.47	1504.96
434.66	1446.45
434.85	1446.45
435.03	1556.46
435.22	1706.25
435.41	1867.75
435.59	1851.36
435.78	1806.89
435.97	1732.00
436.16	1645.40
436.34	1556.46
436.53	1523.69
436.72	1577.52
436.90	1582.20
437.09	1579.86
437.28	1547.09
437.46	1582.20
437.65	1565.82
437.84	1600.93
438.02	1493.26
438.21	1565.82
438.40	1629.01
438.58	1495.60
438.77	1652.42
438.96	1600.93
439.14	1710.93
439.33	1746.04
439.52	1614.97
439.70	1661.78
439.89	1724.97
440.08	1764.76
440.26	1736.68
440.45	1792.85
440.63	1849.02
440.82	1736.68
441.01	1732.00
441.19	1809.23
441.38	1732.00
441.57	1839.66
441.75	1774.13
441.94	1912.22
442.12	1898.17
442.31	1832.64
442.50	1832.64
442.68	1914.56
442.87	1844.34
443.05	1860.73
443.24	1930.94
443.43	1893.49
443.61	1844.34
443.80	2026.90
443.98	1879.45
444.17	1916.90
444.35	1928.60
444.54	1898.17
444.73	1994.14
444.91	2017.54
445.10	1930.94
445.28	1977.75
445.47	1937.96
445.65	1959.03
445.84	1842.00
446.02	1980.09
446.21	1968.39
446.39	1980.09
446.58	1956.69
446.77	1940.30
446.95	1891.15
447.14	2033.93
447.32	1991.80
447.51	1954.35
447.69	1947.33
447.88	1975.41
448.06	1975.41
448.25	1963.71
448.43	1975.41
448.62	1865.41
448.80	2076.06
448.99	2026.90
449.17	2078.40
449.36	2008.18
449.54	2029.24
449.73	2097.12
449.91	2087.76
450.10	2078.40
450.28	2157.97
450.46	2179.04
450.65	2099.46
450.83	2169.68
451.02	2143.93
451.20	2106.48
451.39	2162.66
451.57	2036.27
451.76	2134.57
451.94	2223.51
452.13	2174.36
452.31	2190.74
452.49	2153.29
452.68	2134.57
452.86	2277.34
453.05	2260.96
453.23	2223.51
453.42	2211.81
453.60	2111.16
453.78	2263.30
453.97	2181.38
454.15	2209.47
454.34	2165.00
454.52	2209.47
454.70	2242.23
454.89	2190.74
455.07	2324.15
455.26	2321.81
455.44	2326.49
455.62	2307.77
455.81	2265.64
455.99	2333.51
456.17	2413.09
456.36	2321.81
456.54	2356.92
456.73	2317.13
456.91	2403.73
457.09	2450.54
457.28	2394.37
457.46	2326.49
457.64	2410.75
457.83	2443.52
458.01	2417.77
458.19	2471.61
458.38	2443.52
458.56	2410.75
458.74	2516.08
458.93	2462.24
459.11	2455.22
459.29	2518.42
459.48	2485.65
459.66	2485.65
459.84	2530.12
460.03	2689.28
460.21	2487.99
460.39	2502.03
460.57	2544.16
460.76	2628.42
460.94	2459.90
461.12	2682.25
461.31	2534.80
461.49	2590.97
461.67	2593.31
461.85	2710.34
462.04	2614.38
462.22	2970.14
462.40	2539.48
462.59	2590.97
462.77	2619.06
462.95	2684.59
463.13	2640.12
463.32	2609.70
463.50	2651.83
463.68	2757.15
463.86	2600.34
464.05	2766.51
464.23	2738.43
464.41	2717.36
464.59	2696.30
464.78	2640.12
464.96	2619.06
465.14	2691.62
465.32	2712.68
465.50	2764.17
465.69	2906.95
465.87	2850.77
466.05	2759.49
466.23	2654.17
466.41	2691.62
466.60	2808.64
466.78	2829.71
466.96	2794.60
467.14	2771.19
467.32	2782.90
467.51	2789.92
467.69	2794.60
467.87	2782.90
468.05	2743.11
468.23	2771.19
468.41	2988.86
468.60	2897.58
468.78	2855.45
468.96	2712.68
469.14	2991.20
469.32	2820.35
469.50	2839.07
469.69	3054.40
469.87	3030.99
470.05	2925.67
470.23	2939.71
470.41	2951.42
470.59	2951.42
470.77	3080.14
470.95	3101.21
471.14	3042.70
471.32	3002.91
471.50	3002.91
471.68	2977.16
471.86	3009.93
472.04	3087.17
472.22	3110.57
472.40	3101.21
472.58	3124.62
472.77	3155.04
472.95	3199.51
473.13	3251.00
473.31	3054.40
473.49	3077.80
473.67	3148.02
473.85	3084.83
474.03	3185.47
474.21	3288.45
474.39	3267.39
474.57	3311.86
474.75	3379.73
474.93	3389.10
475.12	3417.18
475.30	3426.54
475.48	3361.01
475.66	3440.59
475.84	3412.50
476.02	3487.40
476.20	3513.14
476.38	3590.38
476.56	3510.80
476.74	3550.59
476.92	3503.78
477.10	3611.45
477.28	3698.05
477.46	3634.85
477.64	3637.19
477.82	3676.98
478.00	3588.04
478.18	3688.68
478.36	3770.60
478.54	3817.41
478.72	3948.48
478.90	3843.16
479.08	3896.99
479.26	3782.31
479.44	3894.65
479.62	4028.06
479.80	4002.32
479.98	3990.61
480.16	4109.98
480.34	4154.45
480.52	4037.42
480.70	4145.09
480.88	4114.66
481.06	4140.41
481.24	4154.45
481.41	4135.73
481.59	4287.86
481.77	4325.31
481.95	4358.08
482.13	4369.78
482.31	4423.61
482.49	4379.14
482.67	4491.49
482.85	4568.73
483.03	4432.97
483.21	4535.96
483.39	4692.77
483.57	4660.01
483.74	4613.20
483.92	4631.92
484.10	4603.83
484.28	4823.84
484.46	4828.53
484.64	4905.76
484.82	4873.00
485.00	4983.00
485.18	4945.55
485.35	5146.84
485.53	5036.83
485.71	5100.03
485.89	5046.20
486.07	5097.69
486.25	5193.65
486.43	5324.72
486.61	5355.15
486.78	5329.40
486.96	5441.75
487.14	5416.00
487.32	5486.22
487.50	5523.66
487.68	5397.28
487.85	5589.20
488.03	5535.37
488.21	5715.59
488.39	5694.52
488.57	5720.27
488.75	5708.57
488.92	6029.22
489.10	5951.98
489.28	6101.78
489.46	5879.43
489.64	5921.56
489.81	6108.80
489.99	5935.60
490.17	6157.95
490.35	6047.94
490.53	6167.31
490.70	5991.77
490.88	6296.04
491.06	6183.70
491.24	6193.06
491.41	6246.89
491.59	6401.37
491.77	6249.23
491.95	6429.45
492.13	6417.75
492.30	6623.72
492.48	6485.62
492.66	6703.29
492.84	6434.13
493.01	6752.45
493.19	6637.76
493.37	6789.89
493.54	6829.68
493.72	6855.43
493.90	6832.02
494.08	6906.92
494.25	7054.37
494.43	7005.22
494.61	6869.47
494.79	7143.32
494.96	7073.10
495.14	7101.19
495.32	7012.24
495.49	7049.69
495.67	7159.70
495.85	7419.50
496.02	7297.79
496.20	7384.39
496.38	7375.03
496.55	7611.42
496.73	7566.95
496.91	7304.81
497.09	7723.77
497.26	7815.05
497.44	7550.57
497.62	7538.87
497.79	7709.72
497.97	7674.62
498.14	7831.43
498.32	7946.12
498.50	7730.79
498.67	7815.05
498.85	7833.77
499.03	7847.82
499.20	7808.03
499.38	7925.05
499.56	7969.52
499.73	8149.75
499.91	8191.88
500.08	8037.40
500.26	7983.57
500.44	8276.13
500.61	8236.35
500.79	8116.98
500.97	8208.26
501.14	8212.94
501.32	8215.28
501.49	8336.99
501.67	8294.86
501.84	8404.86
502.02	8379.12
502.20	8545.30
502.37	8484.44
502.55	8404.86
502.72	8578.06
502.90	8477.42
503.07	8355.71
503.25	8519.55
503.43	8411.89
503.60	8784.03
503.78	8821.48
503.95	8615.51
504.13	8896.38
504.30	8777.01
504.48	8805.10
504.65	8812.12
504.83	8847.22
505.01	8861.27
505.18	8898.72
505.36	8990.00
505.53	8755.94
505.71	8975.95
505.88	8978.30
506.06	9015.74
506.23	9142.13
506.41	9090.64
506.58	9254.48
506.76	9177.24
506.93	9064.89
507.11	9390.23
507.28	9259.16
507.46	9378.53
507.63	9221.71
507.81	9256.82
507.98	9301.29
508.16	9329.38
508.33	9486.19
508.50	9413.63
508.68	9348.10
508.85	9446.40
509.03	9511.94
509.20	9525.98
509.38	9596.20
509.55	9542.36
509.73	9853.66
509.90	9565.77
510.08	9659.39
510.25	9652.37
510.42	9678.12
510.60	9734.29
510.77	10033.88
510.95	10071.33
511.12	9748.33
511.30	9844.29
511.47	9661.73
511.64	9839.61
511.82	10061.96
511.99	10008.13
512.17	9970.68
512.34	9987.07
512.51	10005.79
512.69	10064.30
512.86	10036.22
513.04	10370.91
513.21	10335.81
513.38	10251.55
513.56	10120.48
513.73	10071.33
513.90	10183.67
514.08	10197.71
514.25	10429.43
514.43	10438.79
514.60	10501.98
514.77	10310.06
514.95	10429.43
515.12	10307.72
515.29	10450.49
515.47	10457.51
515.64	10525.39
515.81	10509.01
515.99	10729.02
516.16	10635.39
516.33	10464.54
516.51	10679.86
516.68	10808.59
516.85	10579.22
517.03	10696.25
517.20	10782.85
517.37	10857.75
517.54	10775.83
517.72	10672.84
517.89	10766.46
518.06	10946.69
518.24	10801.57
518.41	10899.87
518.58	10750.08
518.75	10836.68
518.93	11047.33
519.10	10939.66
519.27	11126.91
519.45	10855.40
519.62	10923.28
519.79	11218.19
519.96	11096.48
520.14	11068.39
520.31	11241.59
520.48	11267.34
520.65	11183.08
520.83	11339.90
521.00	11225.21
521.17	11183.08
521.34	11274.36
521.52	11386.71
521.69	11311.81
521.86	11431.18
522.03	11311.81
522.20	11602.04
522.38	11393.73
522.55	11213.51
522.72	11487.35
522.89	11639.48
523.07	11712.04
523.24	11529.48
523.41	11613.74
523.58	11468.62
523.75	11800.98
523.92	11775.24
524.10	11597.35
524.27	11669.91
524.44	11716.72
524.61	11693.32
524.78	11927.37
524.96	11712.04
525.13	11698.00
525.30	11789.28
525.47	12002.27
525.64	11887.58
525.81	12147.38
525.98	11922.69
526.16	11885.24
526.33	11882.90
526.50	11908.65
526.67	12011.63
526.84	11950.78
527.01	12091.21
527.18	12098.23
527.36	12287.81
527.53	12105.25
527.70	12163.76
527.87	12327.60
528.04	12379.09
528.21	12224.62
528.38	12093.55
528.55	12442.29
528.72	12369.73
528.89	12402.50
529.07	12245.68
529.24	12100.57
529.41	12468.03
529.58	12346.33
529.75	12599.10
529.92	12425.90
530.09	12414.20
530.26	12107.59
530.43	12542.93
530.60	12425.90
530.77	12231.64
530.94	12339.30
531.11	12393.14
531.28	12461.01
531.46	12400.16
531.63	12381.43
531.80	12699.75
531.97	12489.10
532.14	12301.86
532.31	12629.53
532.48	12755.92
532.65	12856.56
532.82	12753.58
532.99	12858.90
533.16	12669.32
533.33	12809.75
533.50	12870.61
533.67	12807.41
533.84	12926.78
534.01	12739.54
534.18	12559.31
534.35	12882.31
534.52	12901.03
534.69	13064.87
534.86	12711.45
535.03	12961.89
535.20	12641.23
535.37	13055.51
535.54	12985.29
535.71	12894.01
535.88	13034.44
536.05	13195.94
536.22	13102.32
536.38	13198.28
536.55	13270.84
536.72	13043.81
536.89	12896.35
537.06	12924.44
537.23	12868.27
537.40	13355.10
537.57	13048.49
537.74	13217.01
537.91	13191.26
538.08	13245.09
538.25	13233.39
538.42	13191.26
538.59	13399.57
538.75	13376.16
538.92	13406.59
539.09	13387.86
539.26	13530.64
539.43	13549.36
539.60	13394.89
539.77	13591.49
539.94	13832.57
540.11	13565.74
540.28	13774.05
540.44	13509.57
540.61	13542.34
540.78	13692.13
540.95	13874.70
541.12	13778.73
541.29	13977.68
541.46	13657.03
541.62	13954.27
541.79	13851.29
541.96	13886.40
542.13	13781.07
542.30	14040.87
542.47	14012.79
542.63	14087.68
542.80	14356.85
542.97	13912.14
543.14	14050.24
543.31	14141.52
543.48	14274.93
543.64	14230.46
543.81	14204.71
543.98	14361.53
544.15	14136.84
544.32	14197.69
544.48	14295.99
544.65	14202.37
544.82	14258.54
544.99	14141.52
545.16	14174.28
545.32	14171.94
545.49	14824.95
545.66	15218.16
545.83	15440.51
546.00	15009.86
546.16	14799.21
546.33	14534.73
546.50	13994.06
546.67	14207.05
546.83	14178.97
547.00	14284.29
547.17	14183.65
547.34	14291.31
547.50	14478.55
547.67	14539.41
547.84	14288.97
548.00	14410.68
548.17	14558.13
548.34	14422.38
548.51	14162.58
548.67	14443.45
548.84	14525.36
549.01	14303.01
549.18	14310.04
549.34	14349.82
549.51	14677.50
549.68	14415.36
549.84	14427.06
550.01	14307.69
550.18	14340.46
550.34	14441.11
550.51	14658.78
550.68	14445.79
550.84	14235.14
551.01	14560.47
551.18	14258.54
551.34	14251.52
551.51	14075.98
551.68	14597.92
551.84	14387.27
552.01	14527.71
552.18	14553.45
552.34	14207.05
552.51	14565.15
552.68	14293.65
552.84	14471.53
553.01	14829.63
553.18	14600.26
553.34	14532.39
553.51	14448.13
553.67	14621.33
553.84	14677.50
554.01	14871.76
554.17	14773.46
554.34	14518.34
554.51	14651.75
554.67	14682.18
554.84	14686.86
555.00	14548.77
555.17	14775.80
555.33	14633.03
555.50	14434.08
555.67	14492.60
555.83	14516.00
556.00	14466.85
556.16	14750.06
556.33	14333.44
556.50	14679.84
556.66	14420.04
556.83	14719.63
556.99	14768.78
557.16	14869.42
557.32	14867.08
557.49	14602.60
557.65	14611.96
557.82	14581.54
557.98	14682.18
558.15	14469.19
558.32	14689.20
558.48	14738.35
558.65	14789.85
558.81	14979.43
558.98	14546.43
559.14	14633.03
559.31	14611.96
559.47	14890.49
559.64	14616.65
559.80	14970.07
559.97	14874.10
560.13	15040.28
560.30	14864.74
560.46	14848.36
560.63	14747.72
560.79	14881.13
560.96	15068.37
561.12	14635.37
561.29	14677.50
561.45	14867.08
561.61	14939.64
561.78	14881.13
561.94	14761.76
562.11	14972.41
562.27	14789.85
562.44	14923.26
562.60	14764.10
562.77	14696.22
562.93	14885.81
563.10	14920.92
563.26	14588.56
563.42	15124.54
563.59	14885.81
563.75	14738.35
563.92	15005.17
564.08	14796.87
564.24	14824.95
564.41	14953.68
564.57	14654.09
564.74	14829.63
564.90	14993.47
565.07	15000.49
565.23	14923.26
565.39	15075.39
565.56	15110.50
565.72	14778.14
565.88	14941.98
566.05	14995.81
566.21	14927.94
566.38	14918.57
566.54	14888.15
566.70	14986.45
566.87	14892.83
567.03	14951.34
567.19	14860.06
567.36	14888.15
567.52	14869.42
567.68	15049.64
567.85	14728.99
568.01	15026.24
568.17	14677.50
568.34	14998.15
568.50	15026.24
568.66	14963.04
568.83	15108.16
568.99	14979.43
569.15	14965.39
569.32	14658.78
569.48	14944.32
569.64	14972.41
569.81	14981.77
569.97	14710.27
570.13	14768.78
570.30	14986.45
570.46	15374.98
570.62	15098.80
570.78	15131.56
570.95	14909.21
571.11	14932.62
571.27	14801.55
571.43	14953.68
571.60	14984.11
571.76	14998.15
571.92	14899.85
572.09	15119.86
572.25	15098.80
572.41	15033.26
572.57	14820.27
572.74	15262.63
572.90	14853.04
573.06	15173.69
573.22	14984.11
573.38	15105.82
573.55	15056.67
573.71	15007.52
573.87	15330.51
574.03	15126.88
574.20	15117.52
574.36	15016.88
574.52	15178.37
574.68	14986.45
574.84	15059.01
575.01	15204.12
575.17	15044.96
575.33	15192.42
575.49	14876.44
575.65	14855.38
575.82	15049.64
575.98	15030.92
576.14	15192.42
576.30	15269.66
576.46	15363.28
576.62	15115.18
576.79	15171.35
576.95	15126.88
577.11	15218.16
577.27	15115.18
577.43	14970.07
577.59	15143.27
577.75	15147.95
577.92	14602.60
578.08	14857.72
578.24	14759.42
578.40	15161.99
578.56	15255.61
578.72	15620.74
578.88	15330.51
579.04	15557.54
579.21	15302.42
579.37	15407.75
579.53	14967.73
579.69	14963.04
579.85	15229.87
580.01	15522.43
580.17	15000.49
580.33	15101.14
580.49	15304.76
580.65	15302.42
580.82	15150.29
580.98	15037.94
581.14	14995.81
581.30	15293.06
581.46	15028.58
581.62	15051.99
581.78	15061.35
581.94	15126.88
582.10	15023.90
582.26	15140.93
582.42	15073.05
582.58	15400.72
582.74	15309.44
582.90	15192.42
583.06	15587.97
583.22	15169.01
583.38	15171.35
583.54	15330.51
583.70	15232.21
583.86	15030.92
584.02	15117.52
584.18	15194.76
584.34	15351.57
584.50	15272.00
584.66	15447.54
584.82	15112.84
584.98	15084.75
585.14	15304.76
585.30	14998.15
585.46	15257.95
585.62	15295.40
585.78	15241.57
585.94	15257.95
586.10	15131.56
586.26	15243.91
586.42	15171.35
586.58	15274.34
586.74	15396.04
586.90	15096.46
587.06	15260.29
587.22	15353.91
587.38	15143.27
587.54	15192.42
587.70	15122.20
587.86	15421.79
588.02	15115.18
588.18	15344.55
588.34	15190.08
588.49	15365.62
588.65	15129.22
588.81	15047.30
588.97	15030.92
589.13	15047.30
589.29	15183.06
589.45	15382.00
589.61	15290.72
589.77	15227.53
589.93	15250.93
590.08	15489.67
590.24	15538.82
590.40	15138.58
590.56	15332.85
590.72	15204.12
590.88	15311.78
591.04	15208.80
591.20	15520.09
591.35	15302.42
591.51	15316.47
591.67	15101.14
591.83	15232.21
591.99	15393.70
592.15	15410.09
592.31	15311.78
592.46	15129.22
592.62	15122.20
592.78	15515.41
592.94	15377.32
593.10	15215.82
593.26	15122.20
593.41	15353.91
593.57	15571.58
593.73	15260.29
593.89	15482.64
