SpectraSuite Data File
++++++++++++++++++++++++++++++++++++
Date: Fri Oct 04 11:39:44 GMT-05:00 2013
User: price-jones
Dark Spectrum Present: No
Reference Spectrum Present: No
Number of Sampled Component Spectra: 1
Spectrometers: USB2+H05261
Integration Time (usec): 100000 (USB2+H05261)
Spectra Averaged: 1 (USB2+H05261)
Boxcar Smoothing: 0 (USB2+H05261)
Correct for Electrical Dark: No (USB2+H05261)
Strobe/Lamp Enabled: No (USB2+H05261)
Correct for Detector Non-linearity: No (USB2+H05261)
Correct for Stray Light: No (USB2+H05261)
Number of Pixels in Processed Spectrum: 2048
>>>>>Begin Processed Spectral Data<<<<<
365.73	110.01
365.92	110.01
366.12	110.01
366.32	0.00
366.52	0.00
366.72	0.00
366.91	0.00
367.11	4.68
367.31	2.34
367.51	0.00
367.70	0.00
367.90	0.00
368.10	0.00
368.30	0.00
368.49	0.00
368.69	67.88
368.89	16.38
369.09	0.00
369.28	0.00
369.48	21.06
369.68	0.00
369.87	46.81
370.07	11.70
370.27	0.00
370.47	177.88
370.66	400.23
370.86	430.66
371.06	589.82
371.25	557.05
371.45	496.19
371.65	573.43
371.84	568.75
372.04	599.18
372.24	564.07
372.44	524.28
372.63	528.96
372.83	655.35
373.03	557.05
373.22	624.92
373.42	535.98
373.62	638.97
373.81	685.78
374.01	655.35
374.21	629.60
374.40	699.82
374.60	662.37
374.79	627.26
374.99	622.58
375.19	685.78
375.38	847.27
375.58	699.82
375.78	770.04
375.97	704.50
376.17	727.91
376.37	770.04
376.56	816.85
376.76	695.14
376.95	676.41
377.15	772.38
377.35	706.84
377.54	725.57
377.74	645.99
377.93	774.72
378.13	777.06
378.33	830.89
378.52	821.53
378.72	840.25
378.91	798.12
379.11	788.76
379.31	809.83
379.50	826.21
379.70	826.21
379.89	847.27
380.09	770.04
380.28	903.45
380.48	875.36
380.68	873.02
380.87	922.17
381.07	873.02
381.26	912.81
381.46	849.61
381.65	863.66
381.85	889.40
382.04	936.21
382.24	926.85
382.43	919.83
382.63	954.94
382.83	926.85
383.02	922.17
383.22	961.96
383.41	980.68
383.61	961.96
383.80	1090.69
384.00	926.85
384.19	980.68
384.39	1006.43
384.58	1071.97
384.78	1046.22
384.97	1006.43
385.17	1062.60
385.36	1020.47
385.56	1086.01
385.75	997.07
385.95	1086.01
386.14	1020.47
386.34	1067.28
386.53	1102.39
386.72	1060.26
386.92	1102.39
387.11	1203.04
387.31	1076.65
387.50	1123.46
387.70	1151.54
387.89	1219.42
388.09	1198.35
388.28	1151.54
388.48	1210.06
388.67	1165.59
388.86	1158.57
389.06	1270.91
389.25	1254.53
389.45	1198.35
389.64	1160.91
389.84	1226.44
390.03	1198.35
390.22	1350.49
390.42	1245.16
390.61	1296.66
390.81	1291.98
391.00	1273.25
391.19	1334.11
391.39	1301.34
391.58	1378.58
391.78	1479.22
391.97	1392.62
392.16	1425.39
392.36	1387.94
392.55	1301.34
392.75	1394.96
392.94	1446.45
393.13	1399.64
393.33	1373.89
393.52	1554.12
393.71	1514.33
393.91	1345.81
394.10	1519.01
394.29	1570.50
394.49	1434.75
394.68	1617.31
394.88	1474.54
395.07	1621.99
395.26	1554.12
395.46	1568.16
395.65	1678.16
395.84	1561.14
396.04	1764.76
396.23	1657.10
396.42	1589.22
396.62	1762.42
396.81	1722.63
397.00	1652.42
397.19	1732.00
397.39	1701.57
397.58	1699.23
397.77	1834.98
397.97	1872.43
398.16	1804.55
398.35	1797.53
398.55	1715.61
398.74	1867.75
398.93	1956.69
399.12	1905.20
399.32	1905.20
399.51	1867.75
399.70	2050.31
399.90	1909.88
400.09	2022.22
400.28	2019.88
400.47	1898.17
400.67	2129.89
400.86	1944.99
401.05	2010.52
401.24	2043.29
401.44	2050.31
401.63	2101.80
401.82	2150.95
402.01	2043.29
402.21	2129.89
402.40	2099.46
402.59	2139.25
402.78	2265.64
402.97	2190.74
403.17	2251.60
403.36	2232.87
403.55	2284.36
403.74	2284.36
403.93	2260.96
404.13	2312.45
404.32	2377.98
404.51	2326.49
404.70	2408.41
404.89	2338.20
405.09	2509.05
405.28	2581.61
405.47	2527.78
405.66	2565.23
405.85	2523.10
406.05	2539.48
406.24	2525.44
406.43	2443.52
406.62	2647.15
406.81	2649.49
407.00	2558.21
407.20	2516.08
407.39	2602.68
407.58	2836.73
407.77	2717.36
407.96	2796.94
408.15	2768.85
408.34	2832.05
408.54	2745.45
408.73	2766.51
408.92	2698.64
409.11	2928.01
409.30	2911.63
409.49	2867.16
409.68	3073.12
409.87	3068.44
410.07	2993.55
410.26	3103.55
410.45	3152.70
410.64	3136.32
410.83	3002.91
411.02	3075.46
411.21	3283.77
411.40	3293.13
411.59	3297.81
411.78	3349.31
411.98	3232.28
412.17	3424.20
412.36	3503.78
412.55	3452.29
412.74	3529.53
412.93	3452.29
413.12	3520.17
413.31	3662.94
413.50	3599.74
413.69	3513.14
413.88	3719.11
414.07	3688.68
414.26	3761.24
414.45	3815.07
414.64	3845.50
414.83	3925.08
415.02	3836.14
415.22	3892.31
415.41	3995.29
415.60	3829.12
415.79	4124.02
415.98	4177.86
416.17	4105.30
416.36	4105.30
416.55	4166.15
416.74	4198.92
416.93	4379.14
417.12	4308.93
417.31	4351.06
417.50	4491.49
417.69	4505.53
417.88	4552.34
418.07	4468.08
418.26	4477.44
418.45	4458.72
418.64	4702.14
418.83	4671.71
419.02	4652.98
419.21	4709.16
419.39	4830.87
419.58	4601.49
419.77	4706.82
419.96	4746.61
420.15	4938.53
420.34	4727.88
420.53	4713.84
420.72	4964.28
420.91	5011.09
421.10	5160.88
421.29	5039.17
421.48	4873.00
421.67	5011.09
421.86	5057.90
422.05	5123.43
422.24	5093.01
422.43	5160.88
422.61	5097.69
422.80	5193.65
422.99	5233.44
423.18	5275.57
423.37	5270.89
423.56	5240.46
423.75	5195.99
423.94	5135.14
424.13	5039.17
424.32	5097.69
424.50	5313.02
424.69	5516.64
424.88	5371.53
425.07	5233.44
425.26	5193.65
425.45	5233.44
425.64	5296.63
425.83	5371.53
426.01	5210.03
426.20	5036.83
426.39	5343.44
426.58	5490.90
426.77	5329.40
426.96	5458.13
427.15	5408.98
427.33	5453.45
427.52	5488.56
427.71	5568.13
427.90	5518.98
428.09	5568.13
428.28	5675.80
428.46	5816.23
428.65	5769.42
428.84	5937.94
429.03	5977.73
429.22	5530.69
429.40	5778.78
429.59	5860.70
429.78	5661.76
429.97	5593.88
430.16	5720.27
430.34	5884.11
430.53	6045.60
430.72	6022.20
430.91	5923.90
431.10	5970.71
431.28	5980.07
431.47	6143.91
431.66	6321.79
431.85	6164.97
432.03	6356.90
432.22	6590.95
432.41	6457.54
432.60	6462.22
432.79	6326.47
432.97	6450.52
433.16	6464.56
433.35	6450.52
433.54	6628.40
433.72	6736.06
433.91	6588.61
434.10	6539.46
434.28	6525.41
434.47	6586.27
434.66	6654.14
434.85	6736.06
435.03	6815.64
435.22	6911.60
435.41	7417.16
435.59	7325.88
435.78	7199.49
435.97	7007.56
436.16	7007.56
436.34	7000.54
436.53	7021.61
436.72	7068.42
436.90	6939.69
437.09	7077.78
437.28	7124.59
437.46	7087.14
437.65	7197.15
437.84	7204.17
438.02	7236.94
438.21	7389.07
438.40	7239.28
438.58	7538.87
438.77	7620.78
438.96	7559.93
439.14	7674.62
439.33	7611.42
439.52	7786.96
439.70	7997.61
439.89	7817.39
440.08	7953.14
440.26	7978.89
440.45	8086.55
440.63	8051.44
440.82	8184.85
441.01	7920.37
441.19	8161.45
441.38	8430.61
441.57	8341.67
441.75	8463.38
441.94	8468.06
442.12	8690.41
442.31	8737.22
442.50	8503.17
442.68	8470.40
442.87	8755.94
443.05	8685.73
443.24	8861.27
443.43	8809.78
443.61	8718.50
443.80	9090.64
443.98	8826.16
444.17	8542.96
444.35	9039.15
444.54	9050.85
444.73	9036.81
444.91	8898.72
445.10	9111.71
445.28	9076.60
445.47	8828.50
445.65	9025.11
445.84	8994.68
446.02	9177.24
446.21	9200.65
446.39	9226.39
446.58	9102.34
446.77	9071.92
446.95	9050.85
447.14	9261.50
447.32	9401.93
447.51	9167.88
447.69	9100.00
447.88	9320.01
448.06	9376.19
448.25	9221.71
448.43	9380.87
448.62	9097.66
448.80	9020.42
448.99	9394.91
449.17	9497.89
449.36	9294.27
449.54	9640.67
449.73	9785.78
449.91	9645.35
450.10	9774.08
450.28	9991.75
450.46	9628.96
450.65	9881.74
450.83	9830.25
451.02	9727.27
451.20	9949.62
451.39	9928.55
451.57	10010.47
451.76	9942.60
451.94	9767.06
452.13	9998.77
452.31	10207.08
452.49	10008.13
452.68	10043.24
452.86	10094.73
453.05	10160.27
453.23	10473.90
453.42	10265.59
453.60	10272.61
453.78	10272.61
453.97	10228.14
454.15	10310.06
454.34	10352.19
454.52	10399.00
454.70	10544.11
454.89	10724.33
455.07	10511.35
455.26	10633.05
455.44	10745.40
455.62	10581.56
455.81	10782.85
455.99	10778.17
456.17	10883.49
456.36	10970.09
456.54	10810.93
456.73	11201.80
456.91	11405.43
457.09	11248.61
457.28	11595.01
457.46	11225.21
457.64	11473.31
457.83	11400.75
458.01	11339.90
458.19	11522.46
458.38	11391.39
458.56	11749.49
458.74	11695.66
458.93	11700.34
459.11	11735.45
459.29	11688.64
459.48	11800.98
459.66	11892.26
459.84	11974.18
460.03	11779.92
460.21	11962.48
460.39	11796.30
460.57	11850.13
460.76	12091.21
460.94	12166.10
461.12	12257.39
461.31	12145.04
461.49	12248.02
461.67	11948.43
461.85	12250.36
462.04	12353.35
462.22	12882.31
462.40	12212.92
462.59	12620.17
462.77	12681.02
462.95	12533.57
463.13	12842.52
463.32	12676.34
463.50	12835.50
463.68	13071.89
463.86	12795.71
464.05	12713.79
464.23	12989.97
464.41	12980.61
464.59	12666.98
464.78	13191.26
464.96	13048.49
465.14	12674.00
465.32	13231.05
465.50	13261.48
465.69	13067.21
465.87	13228.71
466.05	13308.29
466.23	13455.74
466.41	13226.37
466.60	13621.92
466.78	13357.44
466.96	13219.35
467.14	13481.49
467.32	13481.49
467.51	13561.06
467.69	13245.09
467.87	13652.34
468.05	13799.80
468.23	13483.83
468.41	13586.81
468.60	13923.85
468.78	13792.78
468.96	13455.74
469.14	13816.18
469.32	14052.58
469.50	13708.52
469.69	14132.15
469.87	14204.71
470.05	14310.04
470.23	14146.20
470.41	14073.64
470.59	14401.32
470.77	14448.13
470.95	14373.23
471.14	14532.39
471.32	14260.88
471.50	15005.17
471.68	14698.56
471.86	14764.10
472.04	14724.31
472.22	15194.76
472.40	14920.92
472.58	15037.94
472.77	15300.08
472.95	15417.11
473.13	15845.43
473.31	15389.02
473.49	15534.14
473.67	15484.98
473.85	15679.25
474.03	15665.21
474.21	15953.09
474.39	15719.04
474.57	16135.65
474.75	16547.59
474.93	16304.17
475.12	16379.07
475.30	16505.46
475.48	16369.71
475.66	16484.39
475.84	16664.61
476.02	16645.89
476.20	16863.56
476.38	17303.58
476.56	17577.42
476.74	17179.53
476.92	17369.12
477.10	17249.75
477.28	17696.79
477.46	17884.03
477.64	18143.83
477.82	18192.98
478.00	18778.12
478.18	18562.79
478.36	18429.38
478.54	18951.32
478.72	18927.91
478.90	18853.02
479.08	19117.50
479.26	19199.41
479.44	19438.15
479.62	19590.28
479.80	19711.99
479.98	19941.36
480.16	20091.16
480.34	19948.39
480.52	20325.21
480.70	20922.05
480.88	20318.19
481.06	20631.82
481.24	20725.44
481.41	20835.45
481.59	21102.27
481.77	21446.33
481.95	21654.64
482.13	21769.32
482.31	21621.87
482.49	22092.32
482.67	22001.04
482.85	22317.01
483.03	23023.85
483.21	22789.80
483.39	22881.08
483.57	23126.83
483.74	23168.96
483.92	23498.98
484.10	23372.59
484.28	24032.62
484.46	24290.08
484.64	24390.72
484.82	24100.50
485.00	24699.67
485.18	24875.21
485.35	25041.39
485.53	24797.98
485.71	25331.62
485.89	26024.42
486.07	25537.59
486.25	25855.90
486.43	25975.27
486.61	26345.07
486.78	26497.20
486.96	27037.87
487.14	27239.15
487.32	26955.95
487.50	27267.24
487.68	27391.29
487.85	27679.18
488.03	27819.61
488.21	28531.13
488.39	28442.19
488.57	28795.61
488.75	28774.55
488.92	29116.26
489.10	28912.64
489.28	29614.80
489.46	29888.64
489.64	29846.51
489.81	29996.31
489.99	30394.20
490.17	30436.33
490.35	30883.37
490.53	31058.91
490.70	31592.55
490.88	31372.54
491.06	31714.26
491.24	31693.19
491.41	31786.82
491.59	32100.45
491.77	32175.34
491.95	32524.08
492.13	32685.58
492.30	32912.61
492.48	32694.94
492.66	33046.02
492.84	33202.84
493.01	33684.99
493.19	33907.34
493.37	33942.45
493.54	34370.77
493.72	34771.00
493.90	34377.79
494.08	34742.91
494.25	34988.67
494.43	35386.56
494.61	36170.64
494.79	35915.52
494.96	35754.02
495.14	35807.86
495.32	36477.25
495.49	36474.91
495.67	36793.22
495.85	36669.17
496.02	37083.45
496.20	37415.80
496.38	37511.77
496.55	37322.18
496.73	38380.10
496.91	37954.13
497.09	38361.38
497.26	38569.69
497.44	38487.77
497.62	38597.77
497.79	39145.46
497.97	38836.51
498.14	40198.70
498.32	39824.22
498.50	39744.64
498.67	40404.67
498.85	40065.29
499.03	40240.83
499.20	40018.48
499.38	40465.52
499.56	40512.33
499.73	41158.32
499.91	41446.21
500.08	41326.84
500.26	40996.82
500.44	41434.50
500.61	41406.42
500.79	41579.62
500.97	41986.87
501.14	42564.98
501.32	42078.15
501.49	41895.59
501.67	42279.44
501.84	42583.71
502.02	42433.91
502.20	42918.40
502.37	42962.87
502.55	43079.90
502.72	43756.32
502.90	42918.40
503.07	43470.77
503.25	43377.15
503.43	43529.28
503.60	43929.51
503.78	43878.02
503.95	44034.84
504.13	44381.24
504.30	44378.90
504.48	44210.38
504.65	44573.16
504.83	45083.40
505.01	45251.92
505.18	44947.65
505.36	45649.81
505.53	45497.67
505.71	45336.18
505.88	45968.12
506.06	45404.05
506.23	45872.16
506.41	45722.37
506.58	46202.18
506.76	46054.72
506.93	46410.48
507.11	45970.46
507.28	46375.37
507.46	46443.25
507.63	46946.47
507.81	47035.41
507.98	46607.09
508.16	46986.25
508.33	46649.22
508.50	47201.58
508.68	47634.58
508.85	47508.19
509.03	47695.44
509.20	47721.18
509.38	47990.34
509.55	48348.45
509.73	48170.57
509.90	48205.67
510.08	48318.02
510.25	48732.29
510.42	48523.99
510.60	49036.56
510.77	48793.15
510.95	48914.86
511.12	48516.96
511.30	48650.38
511.47	48802.51
511.64	49366.58
511.82	49483.61
511.99	49710.64
512.17	50028.95
512.34	49675.53
512.51	49902.56
512.69	50052.36
512.86	49757.45
513.04	50504.08
513.21	50454.93
513.38	50307.47
513.56	50529.83
513.73	50293.43
513.90	50595.36
514.08	50443.23
514.25	50916.01
514.43	50688.98
514.60	51051.76
514.77	51136.02
514.95	51159.43
515.12	51136.02
515.29	50813.03
515.47	51236.67
515.64	51683.71
515.81	51564.34
515.99	51826.48
516.16	52186.92
516.33	51910.74
516.51	51866.27
516.68	51934.15
516.85	52219.69
517.03	52039.47
517.20	52271.18
517.37	52245.44
517.54	52090.96
517.72	52172.88
517.89	52526.30
518.06	52783.76
518.24	52570.77
518.41	52753.33
518.58	52655.03
518.75	52978.03
518.93	53041.22
519.10	52823.55
519.27	53385.28
519.45	53062.29
519.62	52980.37
519.79	53207.40
519.96	53139.52
520.14	53422.73
520.31	53350.17
520.48	53614.65
520.65	53277.61
520.83	54031.27
521.00	53727.00
521.17	53722.32
521.34	53609.97
521.52	53907.22
521.69	54185.74
521.86	54089.78
522.03	54167.02
522.20	53977.43
522.38	54237.23
522.55	54148.29
522.72	54255.96
522.89	54265.32
523.07	54543.84
523.24	54419.80
523.41	54663.21
523.58	54358.94
523.75	54988.55
523.92	54747.47
524.10	54850.45
524.27	54948.76
524.44	54993.23
524.61	55388.78
524.78	55351.33
524.96	55194.51
525.13	55091.53
525.30	55386.44
525.47	55433.25
525.64	55559.64
525.81	55412.18
525.98	55697.73
526.16	55515.17
526.33	55646.24
526.50	55927.10
526.67	55456.65
526.84	55817.10
527.01	55725.81
527.18	55634.53
527.36	56069.87
527.53	56236.05
527.70	56404.57
527.87	56137.75
528.04	55976.25
528.21	56128.39
528.38	55999.66
528.55	56472.45
528.72	56072.21
528.89	56353.08
529.07	56353.08
529.24	56559.05
529.41	56502.87
529.58	56348.40
529.75	56268.82
529.92	56690.12
530.09	56477.13
530.26	56390.53
530.43	56687.78
530.60	56687.78
530.77	56856.29
530.94	56872.68
531.11	56788.42
531.28	56753.31
531.46	56823.53
531.63	57179.29
531.80	57078.64
531.97	57254.18
532.14	57338.44
532.31	57474.20
532.48	57106.73
532.65	57446.11
532.82	57029.49
532.99	57474.20
533.16	57190.99
533.33	57584.20
533.50	58059.33
533.67	57722.29
533.84	57687.18
534.01	57619.31
534.18	57471.85
534.35	57834.64
534.52	57914.22
534.69	57844.00
534.86	57883.79
535.03	57743.36
535.20	58003.16
535.37	57991.45
535.54	57993.79
535.71	57722.29
535.88	58059.33
536.05	58141.25
536.22	58197.42
536.38	58298.06
536.55	58176.36
536.72	58293.38
536.89	58035.92
537.06	58099.12
537.23	58225.51
537.40	58504.03
537.57	58300.40
537.74	58295.72
537.91	58653.82
538.08	58632.76
538.25	58534.46
538.42	58489.99
538.59	58562.54
538.75	58363.60
538.92	58539.14
539.09	58663.19
539.26	58913.62
539.43	58859.79
539.60	59180.45
539.77	58787.24
539.94	59100.87
540.11	59054.06
540.28	59004.91
540.44	59121.93
540.61	59021.29
540.78	58815.32
540.95	59196.83
541.12	59100.87
541.29	59058.74
541.46	59316.20
541.62	59065.76
541.79	59372.37
541.96	59098.53
542.13	59295.13
542.30	59332.58
542.47	59491.74
542.63	59690.68
542.80	59646.21
542.97	59835.80
543.14	59606.42
543.31	59643.87
543.48	59676.64
543.64	59931.76
543.81	60083.89
543.98	59852.18
544.15	59875.58
544.32	60142.41
544.48	60189.22
544.65	59938.78
544.82	60004.31
544.99	59597.06
545.16	59952.82
545.32	60018.36
545.49	60420.93
545.66	60378.80
545.83	60711.16
546.00	60697.11
546.16	60327.31
546.33	60088.57
546.50	59774.94
546.67	60369.44
546.83	59906.01
547.00	60236.03
547.17	60285.18
547.34	60266.45
547.50	60523.91
547.67	60580.09
547.84	60430.29
548.00	60636.26
548.17	60411.57
548.34	60498.17
548.51	60617.53
548.67	60629.24
548.84	60615.19
549.01	60725.20
549.18	60725.20
549.34	60638.60
549.51	60591.79
549.68	60652.64
549.84	60638.60
550.01	60722.86
550.18	60631.58
550.34	60818.82
550.51	60856.27
550.68	60996.70
550.84	60371.78
551.01	60963.93
551.18	60999.04
551.34	60706.47
551.51	60999.04
551.68	61097.34
551.84	61123.09
552.01	60989.68
552.18	61057.56
552.34	60956.91
552.51	61125.43
552.68	60977.98
552.84	60898.40
553.01	61176.92
553.18	61240.12
553.34	61216.71
553.51	61205.01
553.67	61373.53
553.84	61525.66
554.01	61382.89
554.17	61387.57
554.34	61481.19
554.51	61293.95
554.67	61340.76
554.84	61385.23
555.00	61446.08
555.17	61251.82
555.33	61537.36
555.50	61464.81
555.67	61535.02
555.83	61602.90
556.00	61298.63
556.16	61680.14
556.33	61530.34
556.50	61485.87
556.66	61794.82
556.83	61666.09
556.99	61792.48
557.16	61895.47
557.32	61733.97
557.49	61696.52
557.65	61605.24
557.82	61794.82
557.98	61680.14
558.15	61855.68
558.32	61897.81
558.48	61953.98
558.65	62021.86
558.81	61956.32
558.98	62014.83
559.14	61895.47
559.31	61834.61
559.47	61895.47
559.64	61965.68
559.80	62012.49
559.97	62106.12
560.13	61897.81
560.30	62056.96
560.46	62049.94
560.63	61811.21
560.79	62003.13
560.96	62300.38
561.12	61977.39
561.29	62230.16
561.45	62049.94
561.61	62171.65
561.78	62209.10
561.94	62190.37
562.11	62340.17
562.27	62136.54
562.44	62251.23
562.60	62429.11
562.77	62223.14
562.93	62178.67
563.10	62206.76
563.26	62169.31
563.42	62340.17
563.59	62218.46
563.75	62291.02
563.92	62628.05
564.08	62276.97
564.24	62408.04
564.41	62298.04
564.57	62314.42
564.74	62239.53
564.90	62518.05
565.07	62553.16
565.23	62665.50
565.39	62340.17
565.56	62440.81
565.72	62326.13
565.88	62440.81
566.05	62433.79
566.21	62316.76
566.38	62384.64
566.54	62461.88
566.70	62578.90
566.87	62658.48
567.03	62618.69
567.19	62845.72
567.36	62588.27
567.52	62471.24
567.68	62553.16
567.85	62403.36
568.01	62663.16
568.17	62459.54
568.34	62728.70
568.50	62581.24
568.66	62756.78
568.83	62681.89
568.99	62520.39
569.15	62805.94
569.32	62513.37
569.48	62677.21
569.64	62801.25
569.81	62574.22
569.97	62812.96
570.13	62829.34
570.30	62674.87
570.46	62801.25
570.62	62759.12
570.78	62522.73
570.95	62651.46
571.11	62585.92
571.27	62478.26
571.43	62651.46
571.60	62709.97
571.76	62677.21
571.92	62955.73
572.09	62941.69
572.25	62944.03
572.41	62796.57
572.57	62780.19
572.74	62920.62
572.90	62705.29
573.06	62798.91
573.22	62855.09
573.38	62862.11
573.55	62817.64
573.71	63133.61
573.87	63089.14
574.03	62908.92
574.20	62922.96
574.36	62915.94
574.52	63014.24
574.68	62955.73
574.84	63023.61
575.01	62899.56
575.17	63091.48
575.33	62873.81
575.49	62913.60
575.65	63082.12
575.82	63072.76
575.98	62836.36
576.14	62869.13
576.30	62920.62
576.46	62831.68
576.62	62845.72
576.79	62937.01
576.95	62944.03
577.11	62976.79
577.27	63025.95
577.43	62976.79
577.59	63149.99
577.75	63016.58
577.92	62913.60
578.08	62878.49
578.24	63131.27
578.40	63070.42
578.56	62960.41
578.72	63238.93
578.88	63402.77
579.04	63161.70
579.21	63346.60
579.37	63124.25
579.53	63313.83
579.69	62763.81
579.85	63075.10
580.01	62995.52
580.17	63084.46
580.33	63103.18
580.49	63243.62
580.65	63241.28
580.82	63262.34
580.98	63252.98
581.14	63145.31
581.30	63154.68
581.46	63023.61
581.62	63220.21
581.78	63089.14
581.94	63358.30
582.10	62953.39
582.26	63147.65
582.42	63157.02
582.58	63243.62
582.74	63250.64
582.90	63192.12
583.06	63313.83
583.22	63089.14
583.38	62834.02
583.54	63222.55
583.70	63182.76
583.86	63171.06
584.02	63290.43
584.18	63276.38
584.34	63353.62
584.50	63332.56
584.66	63276.38
584.82	63149.99
584.98	63203.83
585.14	63316.17
585.30	63124.25
585.46	63075.10
585.62	63206.17
585.78	63313.83
585.94	63210.85
586.10	63334.90
586.26	63194.46
586.42	63400.43
586.58	63482.35
586.74	63121.91
586.90	63042.33
587.06	63299.79
587.22	63283.40
587.38	63220.21
587.54	63398.09
587.70	63505.76
587.86	63295.11
588.02	63384.05
588.18	63641.51
588.34	63433.20
588.49	63440.22
588.65	63292.77
