SpectraSuite Data File
++++++++++++++++++++++++++++++++++++
Date: Fri Oct 04 11:39:53 GMT-05:00 2013
User: price-jones
Dark Spectrum Present: No
Reference Spectrum Present: No
Number of Sampled Component Spectra: 1
Spectrometers: USB2+H05261
Integration Time (usec): 100000 (USB2+H05261)
Spectra Averaged: 1 (USB2+H05261)
Boxcar Smoothing: 0 (USB2+H05261)
Correct for Electrical Dark: No (USB2+H05261)
Strobe/Lamp Enabled: No (USB2+H05261)
Correct for Detector Non-linearity: No (USB2+H05261)
Correct for Stray Light: No (USB2+H05261)
Number of Pixels in Processed Spectrum: 2048
>>>>>Begin Processed Spectral Data<<<<<
365.73	39.79
365.92	39.79
366.12	39.79
366.32	0.00
366.52	2.34
366.72	72.56
366.91	0.00
367.11	0.00
367.31	0.00
367.51	0.00
367.70	0.00
367.90	0.00
368.10	0.00
368.30	0.00
368.49	0.00
368.69	0.00
368.89	0.00
369.09	0.00
369.28	0.00
369.48	0.00
369.68	0.00
369.87	51.49
370.07	18.72
370.27	0.00
370.47	93.62
370.66	121.71
370.86	133.41
371.06	168.52
371.25	259.80
371.45	161.50
371.65	152.13
371.84	121.71
372.04	102.98
372.24	138.09
372.44	217.67
372.63	168.52
372.83	163.84
373.03	159.16
373.22	229.37
373.42	234.05
373.62	220.01
373.81	255.12
374.01	208.31
374.21	262.14
374.40	208.31
374.60	224.69
374.79	224.69
374.99	369.80
375.19	278.52
375.38	285.55
375.58	175.54
375.78	245.76
375.97	241.08
376.17	325.33
376.37	269.16
376.56	348.74
376.76	159.16
376.95	285.55
377.15	227.03
377.35	346.40
377.54	369.80
377.74	245.76
377.93	325.33
378.13	252.78
378.33	337.04
378.52	259.80
378.72	208.31
378.91	301.93
379.11	245.76
379.31	306.61
379.50	234.05
379.70	278.52
379.89	290.23
380.09	243.42
380.28	285.55
380.48	205.97
380.68	255.12
380.87	315.97
381.07	238.73
381.26	313.63
381.46	299.59
381.65	360.44
381.85	339.38
382.04	262.14
382.24	280.86
382.43	266.82
382.63	222.35
382.83	269.16
383.02	215.33
383.22	325.33
383.41	236.39
383.61	271.50
383.80	304.27
384.00	276.18
384.19	236.39
384.39	273.84
384.58	320.65
384.78	264.48
384.97	379.17
385.17	285.55
385.36	259.80
385.56	395.55
385.75	353.42
385.95	355.76
386.14	393.21
386.34	327.68
386.53	390.87
386.72	344.06
386.92	348.74
387.11	327.68
387.31	313.63
387.50	290.23
387.70	325.33
387.89	369.80
388.09	332.36
388.28	311.29
388.48	315.97
388.67	351.08
388.86	355.76
389.06	332.36
389.25	407.25
389.45	374.49
389.64	358.10
389.84	395.55
390.03	402.57
390.22	393.21
390.42	355.76
390.61	423.64
390.81	365.12
391.00	402.57
391.19	404.91
391.39	376.83
391.58	395.55
391.78	332.36
391.97	386.19
392.16	344.06
392.36	458.74
392.55	395.55
392.75	360.44
392.94	379.17
393.13	470.45
393.33	402.57
393.52	390.87
393.71	498.53
393.91	489.17
394.10	468.11
394.29	521.94
394.49	472.79
394.68	465.77
394.88	479.81
395.07	486.83
395.26	486.83
395.46	458.74
395.65	444.70
395.84	510.24
396.04	521.94
396.23	538.32
396.42	512.58
396.62	547.69
396.81	533.64
397.00	526.62
397.19	531.30
397.39	510.24
397.58	589.82
397.77	550.03
397.97	552.37
398.16	575.77
398.35	601.52
398.55	606.20
398.74	662.37
398.93	634.29
399.12	610.88
399.32	601.52
399.51	655.35
399.70	662.37
399.90	613.22
400.09	669.39
400.28	636.63
400.47	660.03
400.67	720.88
400.86	653.01
401.05	664.71
401.24	657.69
401.44	697.48
401.63	732.59
401.82	777.06
402.01	734.93
402.21	711.52
402.40	702.16
402.59	819.19
402.78	772.38
402.97	678.76
403.17	716.20
403.36	809.83
403.55	727.91
403.74	889.40
403.93	854.30
404.13	891.74
404.32	861.32
404.51	800.46
404.70	875.36
404.89	833.23
405.09	840.25
405.28	936.21
405.47	884.72
405.66	889.40
405.85	826.21
406.05	936.21
406.24	863.66
406.43	891.74
406.62	915.15
406.81	959.62
407.00	954.94
407.20	1062.60
407.39	943.24
407.58	1025.15
407.77	1067.28
407.96	1067.28
408.15	1011.11
408.34	983.02
408.54	1193.67
408.73	1107.07
408.92	1128.14
409.11	1086.01
409.30	1153.88
409.49	1130.48
409.68	1076.65
409.87	1074.31
410.07	1069.62
410.26	1191.33
410.45	1252.19
410.64	1118.78
410.83	1245.16
411.02	1184.31
411.21	1226.44
411.40	1242.82
411.59	1373.89
411.78	1308.36
411.98	1369.21
412.17	1455.81
412.36	1268.57
412.55	1465.18
412.74	1427.73
412.93	1465.18
413.12	1409.00
413.31	1437.09
413.50	1387.94
413.69	1394.96
413.88	1547.09
414.07	1537.73
414.26	1544.75
414.45	1526.03
414.64	1533.05
414.83	1621.99
415.02	1657.10
415.22	1645.40
415.41	1687.53
415.60	1664.12
415.79	1647.74
415.98	1746.04
416.17	1774.13
416.36	1713.27
416.55	1774.13
416.74	1788.17
416.93	1755.40
417.12	1739.02
417.31	1778.81
417.50	1760.08
417.69	2010.52
417.88	1870.09
418.07	1820.94
418.26	1893.49
418.45	1870.09
418.64	1982.43
418.83	2092.44
419.02	1980.09
419.21	2043.29
419.39	2073.71
419.58	1980.09
419.77	2099.46
419.96	1926.26
420.15	2050.31
420.34	2036.27
420.53	2129.89
420.72	2125.21
420.91	2134.57
421.10	2153.29
421.29	2293.72
421.48	2293.72
421.67	2228.19
421.86	2251.60
422.05	2115.84
422.24	2092.44
422.43	2289.04
422.61	2286.70
422.80	2363.94
422.99	2200.10
423.18	2300.75
423.37	2396.71
423.56	2228.19
423.75	2216.49
423.94	2260.96
424.13	2057.33
424.32	2139.25
424.50	2317.13
424.69	2340.54
424.88	2377.98
425.07	2153.29
425.26	2216.49
425.45	2155.63
425.64	2293.72
425.83	2324.15
426.01	2399.05
426.20	2321.81
426.39	2279.68
426.58	2401.39
426.77	2277.34
426.96	2443.52
427.15	2298.41
427.33	2373.30
427.52	2279.68
427.71	2417.77
427.90	2438.84
428.09	2473.95
428.28	2385.01
428.46	2487.99
428.65	2586.29
428.84	2396.71
429.03	2537.14
429.22	2434.16
429.40	2565.23
429.59	2569.91
429.78	2485.65
429.97	2602.68
430.16	2518.42
430.34	2548.84
430.53	2640.12
430.72	2654.17
430.91	2590.97
431.10	2567.57
431.28	2736.09
431.47	2661.19
431.66	2672.89
431.85	2597.99
432.03	2775.88
432.22	2761.83
432.41	2747.79
432.60	2691.62
432.79	2712.68
432.97	2874.18
433.16	2829.71
433.35	2773.53
433.54	2745.45
433.72	2876.52
433.91	2876.52
434.10	2848.43
434.28	2942.05
434.47	2911.63
434.66	2832.05
434.85	2778.22
435.03	2995.89
435.22	3236.96
435.41	3466.33
435.59	3398.46
435.78	3148.02
435.97	3155.04
436.16	3021.63
436.34	2988.86
436.53	3042.70
436.72	3091.85
436.90	3049.72
437.09	3178.45
437.28	3030.99
437.46	3171.43
437.65	3082.49
437.84	3197.17
438.02	3117.59
438.21	3152.70
438.40	3045.04
438.58	3157.38
438.77	3218.24
438.96	3269.73
439.14	3145.68
439.33	3363.35
439.52	3564.64
439.70	3269.73
439.89	3447.61
440.08	3407.82
440.26	3304.84
440.45	3389.10
440.63	3480.38
440.82	3541.23
441.01	3662.94
441.19	3660.60
441.38	3742.52
441.57	3712.09
441.75	3789.33
441.94	3779.97
442.12	3723.79
442.31	3740.18
442.50	3674.64
442.68	3728.47
442.87	3651.24
443.05	3770.60
443.24	3805.71
443.43	3911.04
443.61	3885.29
443.80	3906.35
443.98	3733.15
444.17	3852.52
444.35	3850.18
444.54	3955.51
444.73	3906.35
444.91	3920.40
445.10	3962.53
445.28	3908.69
445.47	3784.65
445.65	3964.87
445.84	3892.31
446.02	3976.57
446.21	3953.16
446.39	3812.73
446.58	3904.01
446.77	3908.69
446.95	3969.55
447.14	3899.33
447.32	3803.37
447.51	3892.31
447.69	4161.47
447.88	4042.11
448.06	4007.00
448.25	3838.48
448.43	3969.55
448.62	3946.14
448.80	4105.30
448.99	4325.31
449.17	4142.75
449.36	3974.23
449.54	4180.20
449.73	4156.79
449.91	4189.56
450.10	4276.16
450.28	4318.29
450.46	4299.56
450.65	4241.05
450.83	4135.73
451.02	4180.20
451.20	4304.25
451.39	4348.72
451.57	4311.27
451.76	4329.99
451.94	4208.28
452.13	4423.61
452.31	4320.63
452.49	4224.67
452.68	4451.70
452.86	4344.03
453.05	4367.44
453.23	4456.38
453.42	4287.86
453.60	4346.37
453.78	4510.21
453.97	4311.27
454.15	4444.68
454.34	4344.03
454.52	4587.45
454.70	4578.09
454.89	4748.95
455.07	4472.76
455.26	4535.96
455.44	4704.48
455.62	4688.09
455.81	4667.03
455.99	4622.56
456.17	4784.06
456.36	4638.94
456.54	4901.08
456.73	4655.33
456.91	4854.27
457.09	4741.93
457.28	4931.51
457.46	4709.16
457.64	5013.43
457.83	4919.81
458.01	4837.89
458.19	4957.25
458.38	4856.61
458.56	4929.17
458.74	4877.68
458.93	5172.58
459.11	5177.26
459.29	5078.96
459.48	5100.03
459.66	5163.22
459.84	5228.76
460.03	5212.37
460.21	5095.35
460.39	5118.75
460.57	5224.08
460.76	5345.78
460.94	5315.36
461.12	5207.69
461.31	5193.65
461.49	5238.12
461.67	5294.29
461.85	5357.49
462.04	5441.75
462.22	5837.30
462.40	5364.51
462.59	5490.90
462.77	5364.51
462.95	5416.00
463.13	5392.59
463.32	5453.45
463.50	5413.66
463.68	5455.79
463.86	5504.94
464.05	5472.17
464.23	5462.81
464.41	5549.41
464.59	5570.48
464.78	5652.39
464.96	5556.43
465.14	5570.48
465.32	5619.63
465.50	5586.86
465.69	5701.54
465.87	5507.28
466.05	5579.84
466.23	5729.63
466.41	5645.37
466.60	5905.17
466.78	5834.96
466.96	5785.80
467.14	5680.48
467.32	5893.47
467.51	5851.34
467.69	5633.67
467.87	5881.77
468.05	5776.44
468.23	5823.25
468.41	5806.87
468.60	5895.81
468.78	5839.64
468.96	5877.09
469.14	5884.11
469.32	6094.76
469.50	5977.73
469.69	6181.35
469.87	6122.84
470.05	6333.49
470.23	5991.77
470.41	6150.93
470.59	6270.30
470.77	6218.80
470.95	6101.78
471.14	6427.11
471.32	6277.32
471.50	6406.05
471.68	6352.21
471.86	6363.92
472.04	6511.37
472.22	6583.93
472.40	6502.01
472.58	6413.07
472.77	6342.85
472.95	6614.35
473.13	6780.53
473.31	6722.02
473.49	6539.46
473.67	6614.35
473.85	6579.25
474.03	6661.16
474.21	6829.68
474.39	6832.02
474.57	7026.29
474.75	6878.83
474.93	6949.05
475.12	6986.50
475.30	6951.39
475.48	6988.84
475.66	7087.14
475.84	7155.02
476.02	7295.45
476.20	7250.98
476.38	7325.88
476.56	7363.33
476.74	7393.75
476.92	7485.03
477.10	7375.03
477.28	7531.84
477.46	7468.65
477.64	7545.89
477.82	7691.00
478.00	7920.37
478.18	7801.01
478.36	7934.42
478.54	7927.39
478.72	7873.56
478.90	7847.82
479.08	8287.84
479.26	8126.34
479.44	8077.19
479.62	8477.42
479.80	8482.10
479.98	8301.88
480.16	8458.70
480.34	8535.93
480.52	8805.10
480.70	8627.21
480.88	8575.72
481.06	8589.77
481.24	8578.06
481.41	8901.06
481.59	9123.41
481.77	9004.04
481.95	8966.59
482.13	9109.36
482.31	9022.77
482.49	9404.27
482.67	9334.06
482.85	9376.19
483.03	9657.05
483.21	9612.58
483.39	9612.58
483.57	9657.05
483.74	9834.93
483.92	9998.77
484.10	9942.60
484.28	9966.00
484.46	10237.50
484.64	10413.04
484.82	10127.50
485.00	10303.04
485.18	10380.28
485.35	10803.91
485.53	10628.37
485.71	10705.61
485.89	10602.63
486.07	10876.47
486.25	10817.96
486.43	10944.34
486.61	10984.13
486.78	11136.27
486.96	11222.87
487.14	11293.08
487.32	11414.79
487.50	11363.30
487.68	11468.62
487.85	11592.67
488.03	11903.96
488.21	12070.14
488.39	11712.04
488.57	11838.43
488.75	12198.87
488.92	12503.14
489.10	12292.49
489.28	12233.98
489.46	12554.63
489.64	12404.84
489.81	12886.99
489.99	12989.97
490.17	12706.77
490.35	12765.28
490.53	12788.69
490.70	13062.53
490.88	13062.53
491.06	13334.03
491.24	13209.98
491.41	13151.47
491.59	13280.20
491.77	13350.42
491.95	13621.92
492.13	13738.94
492.30	14050.24
492.48	13818.52
492.66	14031.51
492.84	13809.16
493.01	14202.37
493.19	14122.79
493.37	14363.87
493.54	14464.51
493.72	14310.04
493.90	14480.89
494.08	14775.80
494.25	14841.34
494.43	14668.14
494.61	14848.36
494.79	14930.28
494.96	15082.41
495.14	15286.04
495.32	15051.99
495.49	15089.43
495.67	15391.36
495.85	15473.28
496.02	15234.55
496.20	15688.61
496.38	15690.95
496.55	15964.79
496.73	16154.38
496.91	15908.62
497.09	16273.74
497.26	15936.71
497.44	16156.72
497.62	16404.81
497.79	16306.51
497.97	16641.21
498.14	16484.39
498.32	16578.01
498.50	16704.40
498.67	16791.00
498.85	16968.88
499.03	17027.40
499.20	16917.39
499.38	17036.76
499.56	17090.59
499.73	17261.45
499.91	17312.94
500.08	17294.22
500.26	17191.23
500.44	17312.94
500.61	17305.92
500.79	17453.37
500.97	17987.02
501.14	17942.55
501.32	17713.17
501.49	17872.33
501.67	17839.56
501.84	17869.99
502.02	18045.53
502.20	18181.28
502.37	18256.18
502.55	18204.69
502.72	18253.84
502.90	18274.90
503.07	18307.67
503.25	18288.95
503.43	18424.70
503.60	18705.56
503.78	18567.47
503.95	18487.89
504.13	18714.92
504.30	18881.10
504.48	18574.49
504.65	18979.40
504.83	19047.28
505.01	19012.17
505.18	18897.49
505.36	19159.63
505.53	18965.36
505.71	19241.54
505.88	19342.19
506.06	19194.73
506.23	19405.38
506.41	19477.94
506.58	19559.86
506.76	19737.74
506.93	19826.68
507.11	19508.37
507.28	19681.56
507.46	19674.54
507.63	20154.35
507.81	20212.87
507.98	20013.92
508.16	20210.53
508.33	20114.56
508.50	20037.33
508.68	20465.64
508.85	20339.26
509.03	20137.97
509.20	20748.85
509.38	20805.02
509.55	20760.55
509.73	21032.05
509.90	20947.79
510.08	21231.00
510.25	20865.88
510.42	21104.61
510.60	20896.30
510.77	21057.80
510.95	21238.02
511.12	20943.11
511.30	21069.50
511.47	21406.54
511.64	21256.75
511.82	21621.87
511.99	21413.56
512.17	21678.04
512.34	21481.44
512.51	21902.73
512.69	21703.79
512.86	21902.73
513.04	21923.80
513.21	22338.07
513.38	22244.45
513.56	22221.05
513.73	22335.73
513.90	22024.44
514.08	22068.91
514.25	22115.72
514.43	22298.28
514.60	22513.61
514.77	22490.21
514.95	22836.61
515.12	22625.96
515.29	22345.09
515.47	22977.04
515.64	22621.28
515.81	22808.52
515.99	22967.68
516.16	23419.40
516.33	23049.60
516.51	23164.28
516.68	22822.56
516.85	23187.69
517.03	23056.62
517.20	23274.29
517.37	23101.09
517.54	23388.97
517.72	23381.95
517.89	23513.02
518.06	23370.25
518.24	23658.14
518.41	23510.68
518.58	23461.53
518.75	23325.78
518.93	24006.87
519.10	23791.55
519.27	23960.06
519.45	23761.12
519.62	23641.75
519.79	23648.77
519.96	23873.46
520.14	24402.43
520.31	23917.93
520.48	24451.58
520.65	24376.68
520.83	24341.57
521.00	24751.17
521.17	24386.04
521.34	24561.58
521.52	24357.96
521.69	25022.67
521.86	24489.03
522.03	24877.55
522.20	24580.31
522.38	24816.70
522.55	24926.71
522.72	24720.74
522.89	24950.11
523.07	25238.00
523.24	25240.34
523.41	25528.22
523.58	25221.61
523.75	25186.50
523.92	25223.95
524.10	25598.44
524.27	25245.02
524.44	25493.12
524.61	25579.71
524.78	25663.97
524.96	25434.60
525.13	25895.69
525.30	25450.99
525.47	25696.74
525.64	25710.78
525.81	25902.71
525.98	25888.67
526.16	26022.08
526.33	26103.99
526.50	26527.63
526.67	25933.14
526.84	25860.58
527.01	26052.50
527.18	26209.32
527.36	26696.15
527.53	26738.28
527.70	26441.03
527.87	26967.65
528.04	26286.56
528.21	26307.62
528.38	26445.71
528.55	26305.28
528.72	26721.90
528.89	26843.60
529.07	26714.87
529.24	26689.13
529.41	26843.60
529.58	26462.10
529.75	26476.14
529.92	26604.87
530.09	26960.63
530.26	26991.06
530.43	26852.97
530.60	26911.48
530.77	27026.17
530.94	27225.11
531.11	27065.96
531.28	27344.48
531.46	27042.55
531.63	27311.71
531.80	27187.66
531.97	27417.04
532.14	27709.60
532.31	27637.05
532.48	27768.12
532.65	27475.55
532.82	27681.52
532.99	27992.81
533.16	27899.19
533.33	28048.98
533.50	27637.05
533.67	28056.00
533.84	27770.46
534.01	27658.11
534.18	27730.67
534.35	27814.93
534.52	27681.52
534.69	27861.74
534.86	28437.51
535.03	27990.47
535.20	28163.67
535.37	27758.75
535.54	28334.53
535.71	27955.36
535.88	28112.17
536.05	28287.71
536.22	28261.97
536.38	28753.48
536.55	28615.39
536.72	28357.93
536.89	28463.25
537.06	28547.51
537.23	28524.11
537.40	28271.33
537.57	28479.64
537.74	28531.13
537.91	28919.66
538.08	28987.53
538.25	28877.53
538.42	28772.21
538.59	28980.51
538.75	28437.51
538.92	29027.32
539.09	29076.48
539.26	28458.57
539.43	29303.51
539.60	29298.83
539.77	29165.42
539.94	29216.91
540.11	29706.08
540.28	29336.27
540.44	29411.17
540.61	29490.75
540.78	29415.85
540.95	30415.26
541.12	29888.64
541.29	30127.38
541.46	29661.61
541.62	29689.70
541.79	30270.15
541.96	29642.88
542.13	29827.79
542.30	30228.02
542.47	30061.84
542.63	29919.07
542.80	30155.46
542.97	30057.16
543.14	30366.11
543.31	30031.41
543.48	29914.39
543.64	30761.66
543.81	30852.94
543.98	30576.76
544.15	30401.22
544.32	30773.36
544.48	30874.01
544.65	30466.75
544.82	30682.08
544.99	30277.17
545.16	30375.47
545.32	30579.10
545.49	31494.25
545.66	31784.48
545.83	31627.66
546.00	31805.54
546.16	31388.92
546.33	30724.21
546.50	30705.49
546.67	30796.77
546.83	30302.92
547.00	31299.98
547.17	30974.65
547.34	31072.95
547.50	30747.62
547.67	31096.36
547.84	30930.18
548.00	31213.38
548.17	31161.89
548.34	31133.81
548.51	31407.65
548.67	30981.67
548.84	31288.28
549.01	31225.09
549.18	30960.61
549.34	31164.23
549.51	31505.95
549.68	31204.02
549.84	31051.89
550.01	31552.76
550.18	31281.26
550.34	31356.16
550.51	31721.28
550.68	32140.24
550.84	31517.65
551.01	31791.50
551.18	31349.14
551.34	31346.79
551.51	31653.40
551.68	31714.26
551.84	31482.55
552.01	31304.67
552.18	31967.04
552.34	31372.54
552.51	31627.66
552.68	31269.56
552.84	31314.03
553.01	31995.12
553.18	31344.45
553.34	32168.32
553.51	31611.28
553.67	32168.32
553.84	32032.57
554.01	31466.16
554.17	31978.74
554.34	32432.80
554.51	31981.08
554.67	31768.09
554.84	31894.48
555.00	31938.95
555.17	31983.42
555.33	32376.63
555.50	32142.58
555.67	31995.12
555.83	31707.24
556.00	32147.26
556.16	32467.91
556.33	32439.82
556.50	32378.97
556.66	32467.91
556.83	31749.37
556.99	32606.00
557.16	32393.01
557.32	32643.45
557.49	32690.26
557.65	31793.84
557.82	32215.13
557.98	32165.98
558.15	32488.98
558.32	32648.13
558.48	32311.10
558.65	32013.85
558.81	32355.57
558.98	32584.94
559.14	32158.96
559.31	32584.94
559.47	32397.70
559.64	32268.97
559.80	32634.09
559.97	32601.32
560.13	32734.73
560.30	32449.19
560.46	32676.22
560.63	32247.90
560.79	32400.04
560.96	32835.38
561.12	32538.13
561.29	32708.99
561.45	32627.07
561.61	32980.49
561.78	32807.29
561.94	33394.76
562.11	32811.97
562.27	32783.88
562.44	32907.93
562.60	32437.48
562.77	32945.38
562.93	33069.43
563.10	32638.77
563.26	32919.63
563.42	32844.74
563.59	33163.05
563.75	32905.59
563.92	32818.99
564.08	32741.75
564.24	32474.93
564.41	33067.09
564.57	33006.23
564.74	33244.97
564.90	33141.99
565.07	33219.22
565.23	32896.23
565.39	32706.65
565.56	33050.70
565.72	32818.99
565.88	32851.76
566.05	32594.30
566.21	33006.23
566.38	32924.32
566.54	33329.23
566.70	33050.70
566.87	33340.93
567.03	33457.96
567.19	33287.10
567.36	33160.71
567.52	33010.92
567.68	33280.08
567.85	32917.29
568.01	33397.10
568.17	33113.90
568.34	33205.18
568.50	33095.18
568.66	33432.21
568.83	33221.56
568.99	32971.13
569.15	33474.34
569.32	33518.81
569.48	32840.06
569.64	33525.83
569.81	33441.57
569.97	33244.97
570.13	33146.67
570.30	33385.40
570.46	33523.49
570.62	33343.27
570.78	33198.16
570.95	33408.81
571.11	33369.02
571.27	32877.51
571.43	33298.80
571.60	33481.36
571.76	33474.34
571.92	33319.87
572.09	33551.58
572.25	33462.64
572.41	33450.94
572.57	33235.61
572.74	33769.25
572.90	33298.80
573.06	33429.87
573.22	33778.61
573.38	33586.69
573.55	33425.19
573.71	33614.77
573.87	33530.51
574.03	33926.07
574.20	33392.42
574.36	33497.75
574.52	33315.19
574.68	33116.24
574.84	33921.38
575.01	33860.53
575.17	33668.61
575.33	33717.76
575.49	33778.61
575.65	33610.09
575.82	33706.05
575.98	33584.35
576.14	33837.12
576.30	33500.09
576.46	33591.37
576.62	33729.46
576.79	33816.06
576.95	33479.02
577.11	33944.79
577.27	33429.87
577.43	33535.20
577.59	33830.10
577.75	33776.27
577.92	33294.12
578.08	33214.54
578.24	33846.49
578.40	33567.96
578.56	33820.74
578.72	33940.11
578.88	33970.54
579.04	34160.12
579.21	34024.37
579.37	34183.52
579.53	33752.87
579.69	33315.19
579.85	33745.84
580.01	33582.01
580.17	33439.23
580.33	33696.69
580.49	33586.69
580.65	33888.62
580.82	33986.92
580.98	33666.27
581.14	33635.84
581.30	34089.90
581.46	33783.29
581.62	33509.45
581.78	33198.16
581.94	33514.13
582.10	33745.84
582.26	33862.87
582.42	34082.88
582.58	34050.11
582.74	33900.32
582.90	33523.49
583.06	34068.84
583.22	33928.41
583.38	33507.11
583.54	33869.89
583.70	33425.19
583.86	33841.81
584.02	33762.23
584.18	34003.30
584.34	34302.89
584.50	33893.30
584.66	34246.72
584.82	33558.60
584.98	33804.36
585.14	33570.30
585.30	33787.97
585.46	33706.05
585.62	33865.21
585.78	33993.94
585.94	33823.08
586.10	33996.28
586.26	33825.42
586.42	34190.55
586.58	34398.85
586.74	33806.70
586.90	33846.49
587.06	34059.48
587.22	33954.15
587.38	34185.86
587.54	34291.19
587.70	34129.69
587.86	34146.08
588.02	34204.59
588.18	34085.22
588.34	34143.74
588.49	33916.70
588.65	33593.71
588.81	33820.74
588.97	33694.35
589.13	33729.46
589.29	33876.91
589.45	34265.44
589.61	34162.46
589.77	34323.96
589.93	33968.19
590.08	34618.86
590.24	34295.87
590.40	34075.86
590.56	34480.77
590.72	34146.08
590.88	33949.47
591.04	34270.12
591.20	33977.56
591.35	34663.33
591.51	35077.61
591.67	34405.88
