SpectraSuite Data File
++++++++++++++++++++++++++++++++++++
Date: Fri Oct 04 11:39:46 GMT-05:00 2013
User: price-jones
Dark Spectrum Present: No
Reference Spectrum Present: No
Number of Sampled Component Spectra: 1
Spectrometers: USB2+H05261
Integration Time (usec): 100000 (USB2+H05261)
Spectra Averaged: 1 (USB2+H05261)
Boxcar Smoothing: 0 (USB2+H05261)
Correct for Electrical Dark: No (USB2+H05261)
Strobe/Lamp Enabled: No (USB2+H05261)
Correct for Detector Non-linearity: No (USB2+H05261)
Correct for Stray Light: No (USB2+H05261)
Number of Pixels in Processed Spectrum: 2048
>>>>>Begin Processed Spectral Data<<<<<
365.73	65.54
365.92	65.54
366.12	65.54
366.32	0.00
366.52	0.00
366.72	0.00
366.91	0.00
367.11	0.00
367.31	0.00
367.51	0.00
367.70	0.00
367.90	0.00
368.10	32.77
368.30	0.00
368.49	0.00
368.69	0.00
368.89	0.00
369.09	0.00
369.28	37.45
369.48	67.88
369.68	0.00
369.87	60.85
370.07	0.00
370.27	37.45
370.47	107.66
370.66	416.62
370.86	463.43
371.06	503.22
371.25	545.34
371.45	465.77
371.65	538.32
371.84	493.85
372.04	531.30
372.24	554.71
372.44	559.39
372.63	580.45
372.83	566.41
373.03	557.05
373.22	603.86
373.42	594.50
373.62	526.62
373.81	650.67
374.01	620.24
374.21	674.07
374.40	734.93
374.60	660.03
374.79	699.82
374.99	674.07
375.19	704.50
375.38	753.65
375.58	692.80
375.78	739.61
375.97	727.91
376.17	716.20
376.37	685.78
376.56	709.18
376.76	718.54
376.95	702.16
377.15	699.82
377.35	732.59
377.54	800.46
377.74	755.99
377.93	683.44
378.13	770.04
378.33	877.70
378.52	788.76
378.72	770.04
378.91	835.57
379.11	823.87
379.31	777.06
379.50	800.46
379.70	884.72
379.89	919.83
380.09	840.25
380.28	880.04
380.48	950.26
380.68	763.01
380.87	943.24
381.07	880.04
381.26	915.15
381.46	884.72
381.65	875.36
381.85	1013.45
382.04	971.32
382.24	1006.43
382.43	910.47
382.63	931.53
382.83	1001.75
383.02	910.47
383.22	1039.20
383.41	976.00
383.61	1006.43
383.80	1069.62
384.00	1057.92
384.19	954.94
384.39	1109.41
384.58	1097.71
384.78	999.41
384.97	1083.67
385.17	1121.12
385.36	999.41
385.56	1027.50
385.75	1081.33
385.95	1090.69
386.14	1102.39
386.34	1102.39
386.53	1053.24
386.72	1095.37
386.92	1212.40
387.11	1132.82
387.31	1158.57
387.50	1198.35
387.70	1188.99
387.89	1203.04
388.09	1165.59
388.28	1184.31
388.48	1125.80
388.67	1174.95
388.86	1256.87
389.06	1228.78
389.25	1252.19
389.45	1238.14
389.64	1294.32
389.84	1299.00
390.03	1317.72
390.22	1362.19
390.42	1329.42
390.61	1306.02
390.81	1317.72
391.00	1315.38
391.19	1329.42
391.39	1345.81
391.58	1383.26
391.78	1413.68
391.97	1437.09
392.16	1425.39
392.36	1465.18
392.55	1404.32
392.75	1549.43
392.94	1385.60
393.13	1523.69
393.33	1465.18
393.52	1502.62
393.71	1511.99
393.91	1458.15
394.10	1561.14
394.29	1589.22
394.49	1530.71
394.68	1657.10
394.88	1645.40
395.07	1565.82
395.26	1617.31
395.46	1610.29
395.65	1661.78
395.84	1657.10
396.04	1727.32
396.23	1699.23
396.42	1717.95
396.62	1764.76
396.81	1776.47
397.00	1755.40
397.19	1870.09
397.39	1839.66
397.58	1870.09
397.77	1809.23
397.97	1736.68
398.16	1820.94
398.35	1844.34
398.55	1839.66
398.74	1813.92
398.93	1905.20
399.12	1980.09
399.32	1886.47
399.51	1916.90
399.70	1956.69
399.90	1942.64
400.09	2050.31
400.28	2047.97
400.47	2078.40
400.67	2071.37
400.86	2106.48
401.05	2087.76
401.24	2129.89
401.44	2099.46
401.63	2054.99
401.82	2157.97
402.01	2132.23
402.21	2207.13
402.40	2099.46
402.59	2230.53
402.78	2083.08
402.97	2326.49
403.17	2293.72
403.36	2314.79
403.55	2319.47
403.74	2328.83
403.93	2333.51
404.13	2375.64
404.32	2473.95
404.51	2546.50
404.70	2492.67
404.89	2420.11
405.09	2459.90
405.28	2406.07
405.47	2502.03
405.66	2438.84
405.85	2492.67
406.05	2544.16
406.24	2614.38
406.43	2672.89
406.62	2635.44
406.81	2619.06
407.00	2630.76
407.20	2675.23
407.39	2731.41
407.58	2836.73
407.77	2820.35
407.96	2752.47
408.15	2892.90
408.34	2801.62
408.54	2939.71
408.73	2881.20
408.92	2904.60
409.11	2972.48
409.30	2998.23
409.49	2972.48
409.68	2988.86
409.87	2918.65
410.07	3063.76
410.26	3157.38
410.45	3145.68
410.64	3171.43
410.83	3183.13
411.02	3316.54
411.21	3510.80
411.40	3344.63
411.59	3400.80
411.78	3328.24
411.98	3199.51
412.17	3410.16
412.36	3414.84
412.55	3503.78
412.74	3487.40
412.93	3520.17
413.12	3494.42
413.31	3698.05
413.50	3588.04
413.69	3765.92
413.88	3735.50
414.07	3775.28
414.26	3742.52
414.45	3908.69
414.64	3911.04
414.83	3871.25
415.02	3936.78
415.22	3995.29
415.41	4138.07
415.60	4007.00
415.79	4315.95
415.98	4124.02
416.17	4124.02
416.36	4234.03
416.55	4332.33
416.74	4304.25
416.93	4325.31
417.12	4280.84
417.31	4379.14
417.50	4465.74
417.69	4617.88
417.88	4547.66
418.07	4500.85
418.26	4461.06
418.45	4690.43
418.64	4676.39
418.83	4706.82
419.02	4613.20
419.21	4767.67
419.39	4840.23
419.58	4786.40
419.77	4741.93
419.96	4938.53
420.15	4854.27
420.34	5057.90
420.53	4770.01
420.72	5055.56
420.91	4884.70
421.10	5193.65
421.29	5256.84
421.48	5029.81
421.67	5029.81
421.86	5109.39
422.05	5114.07
422.24	5179.61
422.43	5151.52
422.61	5362.17
422.80	5310.68
422.99	5231.10
423.18	5416.00
423.37	5369.19
423.56	5404.30
423.75	5387.91
423.94	5287.27
424.13	4968.96
424.32	5109.39
424.50	5366.85
424.69	5600.90
424.88	5561.11
425.07	5231.10
425.26	5296.63
425.45	5266.21
425.64	5479.19
425.83	5390.25
426.01	5479.19
426.20	5493.24
426.39	5591.54
426.58	5263.86
426.77	5469.83
426.96	5680.48
427.15	5530.69
427.33	5577.50
427.52	5589.20
427.71	5645.37
427.90	5673.46
428.09	5738.99
428.28	5664.10
428.46	5771.76
428.65	5830.27
428.84	6101.78
429.03	6097.10
429.22	5968.37
429.40	5996.45
429.59	5900.49
429.78	5687.50
429.97	5535.37
430.16	5827.93
430.34	5989.43
430.53	6150.93
430.72	6190.72
430.91	6052.63
431.10	6017.52
431.28	6108.80
431.47	6090.07
431.66	6406.05
431.85	6293.70
432.03	6380.30
432.22	6476.26
432.41	6459.88
432.60	6511.37
432.79	6384.98
432.97	6553.50
433.16	6506.69
433.35	6527.75
433.54	6569.88
433.72	6590.95
433.91	6698.61
434.10	6839.05
434.28	6590.95
434.47	6782.87
434.66	6878.83
434.85	6766.49
435.03	6813.30
435.22	6991.18
435.41	7442.90
435.59	7335.24
435.78	7248.64
435.97	7138.63
436.16	7178.42
436.34	7124.59
436.53	7061.40
436.72	7321.20
436.90	7016.93
437.09	7030.97
437.28	7225.23
437.46	7234.60
437.65	7300.13
437.84	7393.75
438.02	7360.98
438.21	7424.18
438.40	7323.54
438.58	7625.47
438.77	7733.13
438.96	7466.31
439.14	7801.01
439.33	7793.98
439.52	7988.25
439.70	7969.52
439.89	8124.00
440.08	8086.55
440.26	8037.40
440.45	7939.10
440.63	8131.02
440.82	8285.50
441.01	8210.60
441.19	8430.61
441.38	8376.78
441.57	8491.46
441.75	8486.78
441.94	8599.13
442.12	8528.91
442.31	8786.37
442.50	8798.07
442.68	8744.24
442.87	8814.46
443.05	8716.16
443.24	9055.53
443.43	8945.53
443.61	9074.26
443.80	9233.41
443.98	8830.84
444.17	8573.38
444.35	9158.52
444.54	9329.38
444.73	9207.67
444.91	9104.68
445.10	9130.43
445.28	9114.05
445.47	9013.40
445.65	9177.24
445.84	9273.20
446.02	9111.71
446.21	9247.46
446.39	9153.84
446.58	9444.06
446.77	9233.41
446.95	9104.68
447.14	9420.66
447.32	9664.07
447.51	9413.63
447.69	9137.45
447.88	9329.38
448.06	9406.61
448.25	9228.73
448.43	9614.92
448.62	9525.98
448.80	9355.12
448.99	9427.68
449.17	9605.56
449.36	9710.88
449.54	9619.60
449.73	9741.31
449.91	9856.00
450.10	10010.47
450.28	9998.77
450.46	9865.36
450.65	10047.92
450.83	10141.54
451.02	9827.91
451.20	10228.14
451.39	10120.48
451.57	10078.35
451.76	10050.26
451.94	10373.25
452.13	10083.03
452.31	10207.08
452.49	10221.12
452.68	10420.06
452.86	10164.95
453.05	10434.11
453.23	10494.96
453.42	10544.11
453.60	10277.29
453.78	10450.49
453.97	10291.34
454.15	10457.51
454.34	10373.25
454.52	10876.47
454.70	10661.14
454.89	10738.38
455.07	10799.23
455.26	10843.70
455.44	11023.92
455.62	10867.11
455.81	10764.12
455.99	10871.79
456.17	11007.54
456.36	11103.50
456.54	11218.19
456.73	11283.72
456.91	11396.07
457.09	11573.95
457.28	11728.42
457.46	11438.20
457.64	11592.67
457.83	11499.05
458.01	11590.33
458.19	11606.72
458.38	11496.71
458.56	11737.79
458.74	11758.85
458.93	11592.67
459.11	11784.60
459.29	11676.93
459.48	11932.05
459.66	12091.21
459.84	12013.97
460.03	12297.17
460.21	12210.57
460.39	12116.95
460.57	12095.89
460.76	12177.81
460.94	12386.12
461.12	12196.53
461.31	12503.14
461.49	12067.80
461.67	12142.70
461.85	12781.67
462.04	12578.04
462.22	13200.62
462.40	12734.85
462.59	12585.06
462.77	12758.26
462.95	12891.67
463.13	13076.57
463.32	12835.50
463.50	13036.78
463.68	12968.91
463.86	13011.04
464.05	13076.57
464.23	13055.51
464.41	13050.83
464.59	12870.61
464.78	13317.65
464.96	13116.36
465.14	13151.47
465.32	13116.36
465.50	13568.09
465.69	13397.23
465.87	13263.82
466.05	13200.62
466.23	13427.65
466.41	13415.95
466.60	13769.37
466.78	13362.12
466.96	13406.59
467.14	13451.06
467.32	13755.33
467.51	13792.78
467.69	13322.33
467.87	13738.94
468.05	13764.69
468.23	13692.13
468.41	13694.47
468.60	13781.07
468.78	14214.07
468.96	13975.34
469.14	14221.10
469.32	14398.98
469.50	14047.90
469.69	14516.00
469.87	14541.75
470.05	14633.03
470.23	14593.24
470.41	14651.75
470.59	14813.25
470.77	14459.83
470.95	14796.87
471.14	14963.04
471.32	14736.01
471.50	15403.07
471.68	15080.07
471.86	15302.42
472.04	14977.09
472.22	15386.68
472.40	15250.93
472.58	15253.27
472.77	15351.57
472.95	15672.23
473.13	16130.97
473.31	15756.49
473.49	16011.60
473.67	15730.74
473.85	15953.09
474.03	16346.30
474.21	16210.55
474.39	16390.77
474.57	16512.48
474.75	16837.81
474.93	16802.71
475.12	16372.05
475.30	16884.62
475.48	16585.04
475.66	16713.77
475.84	16713.77
476.02	17263.79
476.20	17137.40
476.38	17617.21
476.56	17666.36
476.74	17862.97
476.92	17298.90
477.10	17687.43
477.28	18085.32
477.46	17965.95
477.64	18249.16
477.82	18494.91
478.00	18888.12
478.18	18934.93
478.36	18981.74
478.54	19110.47
478.72	19269.63
478.90	19414.74
479.08	19360.91
479.26	19321.12
479.44	19779.87
479.62	19618.37
479.80	20161.37
479.98	20175.42
480.16	20442.24
480.34	20688.00
480.52	20601.40
480.70	20868.22
480.88	20730.12
481.06	21116.31
481.24	21088.23
481.41	21151.42
481.59	21493.14
481.77	21778.68
481.95	21621.87
482.13	21928.48
482.31	21844.22
482.49	22286.58
482.67	22431.69
482.85	22616.60
483.03	22932.57
483.21	23194.71
483.39	23337.48
483.57	23290.67
483.74	23480.25
483.92	23548.13
484.10	23948.36
484.28	24374.34
484.46	24882.24
484.64	24950.11
484.82	24624.78
485.00	24957.13
485.18	25336.30
485.35	25539.93
485.53	25575.03
485.71	25905.05
485.89	26494.86
486.07	26312.30
486.25	26181.23
486.43	26490.18
486.61	26506.57
486.78	27105.74
486.96	27049.57
487.14	27496.61
487.32	27351.50
487.50	27768.12
487.68	27805.56
487.85	28538.15
488.03	28790.93
488.21	28720.71
488.39	28699.65
488.57	29371.38
488.75	29191.16
488.92	29752.89
489.10	30281.85
489.28	29996.31
489.46	30672.72
489.64	30438.67
489.81	31295.30
489.99	30902.09
490.17	31131.47
490.35	31187.64
490.53	31498.93
490.70	31903.84
490.88	31709.58
491.06	32402.38
491.24	31786.82
491.41	32280.67
491.59	32903.25
491.77	33146.67
491.95	33125.60
492.13	33457.96
492.30	33177.09
492.48	33570.30
492.66	33518.81
492.84	33692.01
493.01	34256.08
493.19	34314.59
493.37	35028.46
493.54	35063.57
493.72	35021.44
493.90	35206.34
494.08	35496.56
494.25	35931.90
494.43	36032.55
494.61	36327.45
494.79	36666.83
494.96	36390.65
495.14	36708.96
495.32	36514.70
495.49	37415.80
495.67	37130.26
495.85	37560.92
496.02	37605.39
496.20	37603.05
496.38	38447.98
496.55	38103.92
496.73	38546.28
496.91	38567.35
497.09	38754.59
497.26	38939.49
497.44	38644.59
497.62	39311.64
497.79	39791.45
497.97	39541.01
498.14	40158.91
498.32	40863.41
498.50	40711.28
498.67	41008.53
498.85	40477.22
499.03	40910.22
499.20	40933.63
499.38	41090.44
499.56	41476.63
499.73	41460.25
499.91	41741.11
500.08	42033.68
500.26	41572.60
500.44	41605.36
500.61	42092.19
500.79	42319.23
500.97	42370.72
501.14	42916.06
501.32	42838.83
501.49	42864.57
501.67	42883.30
501.84	43131.39
502.02	43337.36
502.20	43236.72
502.37	43887.39
502.55	44058.24
502.72	43896.75
502.90	44140.16
503.07	43845.26
503.25	44233.78
503.43	43873.34
503.60	44673.81
503.78	44648.06
503.95	44788.49
504.13	44919.56
504.30	44914.88
504.48	45074.04
504.65	45265.96
504.83	45155.96
505.01	45734.07
505.18	45855.78
505.36	45972.80
505.53	45825.35
505.71	45881.52
505.88	45989.19
506.06	45918.97
506.23	46461.97
506.41	46239.62
506.58	46492.40
506.76	46962.85
506.93	46955.83
507.11	47026.04
507.28	47119.66
507.46	47283.50
507.63	47360.74
507.81	47622.88
507.98	47349.04
508.16	47428.62
508.33	47983.32
508.50	47409.89
508.68	47723.52
508.85	48626.97
509.03	48540.37
509.20	48678.46
509.38	48760.38
509.55	49027.20
509.73	48463.13
509.90	49275.30
510.08	48949.96
510.25	49045.93
510.42	49193.38
510.60	49963.42
510.77	49727.02
510.95	49579.57
511.12	49567.87
511.30	49382.96
511.47	49471.90
511.64	50050.02
511.82	49965.76
511.99	49996.18
512.17	50141.30
512.34	50136.62
512.51	50798.99
512.69	50873.88
512.86	50735.79
513.04	50967.51
513.21	51241.35
513.38	51433.27
513.56	51367.74
513.73	51114.96
513.90	51501.15
514.08	51201.56
514.25	51231.99
514.43	51423.91
514.60	51798.40
514.77	51810.10
514.95	51758.61
515.12	51498.81
515.29	51473.06
515.47	51585.41
515.64	52147.14
515.81	52006.70
515.99	52261.82
516.16	52676.10
516.33	52554.39
516.51	52594.18
516.68	52430.34
516.85	52364.81
517.03	52718.23
517.20	52729.93
517.37	53043.56
517.54	52924.19
517.72	52956.96
517.89	52982.71
518.06	52832.91
518.24	53118.46
518.41	53230.80
518.58	53326.77
518.75	53350.17
518.93	53668.48
519.10	53448.47
519.27	53792.53
519.45	53467.20
519.62	53492.94
519.79	53565.50
519.96	53897.86
520.14	53886.15
520.31	53478.90
520.48	54281.70
520.65	54197.44
520.83	54401.07
521.00	54227.87
521.17	54246.60
521.34	54326.17
521.52	54363.62
521.69	54438.52
521.86	54803.64
522.03	54616.40
522.20	54707.68
522.38	54817.69
522.55	54642.15
522.72	54733.43
522.89	54981.52
523.07	54995.57
523.24	55271.75
523.41	55332.60
523.58	55121.96
523.75	55140.68
523.92	55241.32
524.10	55077.49
524.27	55435.59
524.44	55533.89
524.61	56168.18
524.78	55512.83
524.96	55660.28
525.13	55725.81
525.30	55700.07
525.47	55803.05
525.64	55887.31
525.81	55990.30
525.98	56196.26
526.16	56009.02
526.33	56313.29
526.50	56364.78
526.67	56006.68
526.84	56268.82
527.01	56205.62
527.18	56034.77
527.36	56479.47
527.53	56619.90
527.70	56711.18
527.87	56863.32
528.04	56486.49
528.21	56694.80
528.38	56662.03
528.55	56783.74
528.72	56713.52
528.89	56835.23
529.07	56687.78
529.24	56746.29
529.41	56970.98
529.58	57029.49
529.75	56940.55
529.92	56905.44
530.09	57003.75
530.26	57048.22
530.43	57242.48
530.60	57116.09
530.77	57310.36
530.94	57406.32
531.11	57167.58
531.28	57317.38
531.46	57221.42
531.63	57546.75
531.80	57530.37
531.97	57752.72
532.14	57799.53
532.31	57602.92
532.48	57628.67
532.65	57813.57
532.82	57635.69
532.99	57808.89
533.16	57759.74
533.33	57813.57
533.50	58075.71
533.67	58075.71
533.84	58042.95
534.01	57921.24
534.18	58049.97
534.35	58131.89
534.52	58274.66
534.69	58368.28
534.86	58450.20
535.03	58106.14
535.20	58349.56
535.37	58452.54
535.54	58372.96
535.71	58026.56
535.88	58478.28
536.05	58452.54
536.22	58452.54
536.38	58738.08
536.55	58749.79
536.72	58803.62
536.89	58588.29
537.06	58658.51
537.23	58707.66
537.40	58670.21
537.57	58763.83
537.74	58848.09
537.91	58983.84
538.08	59009.59
538.25	59128.95
538.42	58965.12
538.59	59201.51
538.75	58824.68
538.92	59040.01
539.09	59100.87
539.26	59210.87
539.43	59327.90
539.60	59643.87
539.77	59236.62
539.94	59503.44
540.11	59456.63
540.28	59299.81
540.44	59360.67
540.61	59707.07
540.78	59501.10
540.95	59671.96
541.12	59688.34
541.29	59725.79
541.46	59700.04
541.62	59751.54
541.79	59625.15
541.96	59348.96
542.13	59767.92
542.30	59667.28
542.47	60214.96
542.63	59964.52
542.80	60135.38
542.97	60165.81
543.14	60186.88
543.31	60020.70
543.48	59936.44
543.64	60175.17
543.81	60301.56
543.98	60470.08
544.15	60395.18
544.32	60413.91
544.48	60629.24
544.65	60198.58
544.82	60336.67
544.99	60301.56
545.16	60589.45
545.32	60350.71
545.49	60750.94
545.66	61015.43
545.83	60874.99
546.00	61228.41
546.16	60910.10
546.33	60559.02
546.50	60385.82
546.67	60694.77
546.83	60331.99
547.00	60624.56
547.17	60835.20
547.34	60631.58
547.50	60938.19
547.67	60961.59
547.84	60933.51
548.00	60945.21
548.17	60863.29
548.34	60980.32
548.51	61003.72
548.67	61104.37
548.84	61123.09
549.01	61188.63
549.18	61036.49
549.34	61085.64
549.51	61048.19
549.68	61116.07
549.84	61123.09
550.01	61095.00
550.18	61064.58
550.34	61408.64
550.51	61366.51
550.68	61303.31
550.84	61235.44
551.01	61240.12
551.18	61020.11
551.34	61214.37
551.51	61300.97
551.68	61577.15
551.84	61595.88
552.01	61425.02
552.18	61401.61
552.34	61436.72
552.51	61574.81
552.68	61375.87
552.84	61399.27
553.01	61717.59
553.18	61532.68
553.34	61726.95
553.51	61602.90
553.67	61797.16
553.84	61961.00
554.01	61907.17
554.17	61886.10
554.34	61848.66
554.51	61827.59
554.67	61750.35
554.84	61804.19
555.00	61832.27
555.17	61853.34
555.33	61986.75
555.50	61874.40
555.67	61879.08
555.83	61963.34
556.00	61970.36
556.16	62033.56
556.33	61923.55
556.50	61932.92
556.66	61907.17
556.83	62122.50
556.99	62145.90
557.16	62225.48
557.32	62073.35
557.49	62124.84
557.65	62038.24
557.82	62227.82
557.98	62061.64
558.15	62075.69
558.32	62426.77
558.48	62333.15
558.65	62349.53
558.81	62347.19
558.98	62291.02
559.14	62195.06
559.31	62096.75
559.47	62136.54
559.64	62204.42
559.80	62518.05
559.97	62567.20
560.13	62321.44
560.30	62447.83
560.46	62597.63
560.63	62623.37
560.79	62489.96
560.96	62543.80
561.12	62274.63
561.29	62342.51
561.45	62431.45
561.61	62646.78
561.78	62518.05
561.94	62752.10
562.11	62787.21
562.27	62494.64
562.44	62616.35
562.60	62468.90
562.77	62419.75
562.93	62698.27
563.10	62967.43
563.26	62461.88
563.42	62911.26
563.59	62756.78
563.75	62969.77
563.92	62899.56
564.08	62728.70
564.24	62702.95
564.41	62740.40
564.57	62761.47
564.74	62908.92
564.90	62904.24
565.07	62812.96
565.23	62855.09
565.39	62812.96
565.56	62988.50
565.72	62855.09
565.88	62927.64
566.05	62782.53
566.21	62724.02
566.38	62887.85
566.54	62709.97
566.70	63051.69
566.87	63229.57
567.03	63070.42
567.19	63248.30
567.36	62953.39
567.52	62679.55
567.68	63065.73
567.85	62908.92
568.01	63004.88
568.17	62997.86
568.34	63056.37
568.50	63084.46
568.66	62983.82
568.83	63128.93
568.99	63082.12
569.15	62906.58
569.32	63009.56
569.48	62962.75
569.64	63018.92
569.81	62955.73
569.97	63042.33
570.13	63304.47
570.30	62901.90
570.46	63164.04
570.62	63295.11
570.78	63173.40
570.95	62911.26
571.11	63002.54
571.27	62976.79
571.43	62995.52
571.60	62995.52
571.76	63018.92
571.92	63000.20
572.09	63234.25
572.25	63409.79
572.41	63250.64
572.57	63341.92
572.74	63227.23
572.90	62969.77
573.06	63327.87
573.22	63182.76
573.38	63264.68
573.55	63341.92
573.71	63803.00
573.87	63597.04
574.03	63320.85
574.20	63454.26
574.36	63327.87
574.52	63360.64
574.68	63299.79
574.84	63465.97
575.01	63487.03
575.17	63536.18
575.33	63299.79
575.49	63472.99
575.65	63435.54
575.82	63571.29
575.98	63260.00
576.14	63355.96
576.30	63611.08
576.46	63215.53
576.62	63367.66
576.79	63426.18
576.95	63309.15
577.11	63590.01
577.27	63646.19
577.43	63604.06
577.59	63398.09
577.75	63472.99
577.92	63395.75
578.08	63264.68
578.24	63267.02
578.40	63435.54
578.56	63423.84
578.72	63454.26
578.88	63915.35
579.04	63774.92
579.21	63622.78
579.37	63491.71
579.53	63594.70
579.69	63175.74
579.85	63358.30
580.01	63435.54
580.17	63372.34
580.33	63634.48
580.49	63737.47
580.65	63730.45
580.82	63606.40
580.98	63348.94
581.14	63566.61
581.30	63774.92
581.46	63332.56
581.62	63274.04
581.78	63437.88
581.94	63552.57
582.10	63374.69
582.26	63529.16
582.42	63711.72
582.58	63777.26
582.74	63669.59
582.90	63812.37
583.06	63697.68
583.22	63599.38
583.38	63625.12
583.54	63674.27
583.70	63510.44
583.86	63496.39
584.02	63400.43
584.18	63669.59
584.34	63599.38
584.50	63765.56
584.66	63758.53
584.82	63688.32
584.98	63646.19
585.14	63660.23
585.30	63725.77
585.46	63608.74
585.62	63557.25
585.78	63648.53
585.94	63419.16
586.10	63594.70
586.26	63866.20
586.42	63852.15
586.58	63774.92
586.74	63608.74
586.90	63646.19
587.06	63634.48
587.22	63648.53
587.38	63599.38
587.54	63997.27
587.70	63868.54
587.86	63910.67
588.02	63791.30
588.18	64027.70
588.34	63882.58
588.49	63875.56
588.65	63735.13
