SpectraSuite Data File
++++++++++++++++++++++++++++++++++++
Date: Fri Oct 04 11:39:44 GMT-05:00 2013
User: price-jones
Dark Spectrum Present: No
Reference Spectrum Present: No
Number of Sampled Component Spectra: 1
Spectrometers: USB2+H05261
Integration Time (usec): 100000 (USB2+H05261)
Spectra Averaged: 1 (USB2+H05261)
Boxcar Smoothing: 0 (USB2+H05261)
Correct for Electrical Dark: No (USB2+H05261)
Strobe/Lamp Enabled: No (USB2+H05261)
Correct for Detector Non-linearity: No (USB2+H05261)
Correct for Stray Light: No (USB2+H05261)
Number of Pixels in Processed Spectrum: 2048
>>>>>Begin Processed Spectral Data<<<<<
365.73	11.70
365.92	11.70
366.12	11.70
366.32	0.00
366.52	0.00
366.72	21.06
366.91	0.00
367.11	0.00
367.31	0.00
367.51	0.00
367.70	0.00
367.90	0.00
368.10	9.36
368.30	0.00
368.49	0.00
368.69	0.00
368.89	0.00
369.09	9.36
369.28	7.02
369.48	0.00
369.68	49.15
369.87	46.81
370.07	0.00
370.27	0.00
370.47	152.13
370.66	458.74
370.86	500.87
371.06	543.00
371.25	615.56
371.45	390.87
371.65	493.85
371.84	510.24
372.04	547.69
372.24	496.19
372.44	533.64
372.63	643.65
372.83	601.52
373.03	578.11
373.22	559.39
373.42	657.69
373.62	725.57
373.81	674.07
374.01	697.48
374.21	645.99
374.40	706.84
374.60	748.97
374.79	723.23
374.99	662.37
375.19	720.88
375.38	758.33
375.58	706.84
375.78	718.54
375.97	753.65
376.17	816.85
376.37	770.04
376.56	744.29
376.76	730.25
376.95	741.95
377.15	786.42
377.35	917.49
377.54	858.98
377.74	814.51
377.93	716.20
378.13	833.23
378.33	821.53
378.52	781.74
378.72	807.48
378.91	875.36
379.11	854.30
379.31	856.64
379.50	877.70
379.70	826.21
379.89	858.98
380.09	894.08
380.28	854.30
380.48	943.24
380.68	896.43
380.87	882.38
381.07	877.70
381.26	926.85
381.46	919.83
381.65	877.70
381.85	1004.09
382.04	868.34
382.24	954.94
382.43	915.15
382.63	933.87
382.83	985.37
383.02	1020.47
383.22	980.68
383.41	919.83
383.61	1102.39
383.80	994.73
384.00	1027.50
384.19	1104.73
384.39	1067.28
384.58	1109.41
384.78	1081.33
384.97	1081.33
385.17	1029.84
385.36	1104.73
385.56	1060.26
385.75	1081.33
385.95	1179.63
386.14	1109.41
386.34	1102.39
386.53	1125.80
386.72	1111.75
386.92	1224.10
387.11	1123.46
387.31	1135.16
387.50	1149.20
387.70	1107.07
387.89	1151.54
388.09	1123.46
388.28	1256.87
388.48	1174.95
388.67	1261.55
388.86	1273.25
389.06	1249.85
389.25	1287.29
389.45	1275.59
389.64	1275.59
389.84	1263.89
390.03	1385.60
390.22	1270.91
390.42	1308.36
390.61	1334.11
390.81	1219.42
391.00	1315.38
391.19	1394.96
391.39	1446.45
391.58	1310.70
391.78	1432.41
391.97	1385.60
392.16	1406.66
392.36	1411.34
392.55	1526.03
392.75	1455.81
392.94	1479.22
393.13	1425.39
393.33	1535.39
393.52	1500.28
393.71	1556.46
393.91	1514.33
394.10	1563.48
394.29	1636.03
394.49	1643.06
394.68	1610.29
394.88	1514.33
395.07	1614.97
395.26	1547.09
395.46	1713.27
395.65	1598.59
395.84	1621.99
396.04	1696.89
396.23	1741.36
396.42	1837.32
396.62	1760.08
396.81	1753.06
397.00	1783.49
397.19	1806.89
397.39	1678.16
397.58	1778.81
397.77	1874.77
397.97	1703.91
398.16	1968.39
398.35	1959.03
398.55	1935.62
398.74	1942.64
398.93	2022.22
399.12	1996.48
399.32	1975.41
399.51	1966.05
399.70	2045.63
399.90	1977.75
400.09	2015.20
400.28	2092.44
400.47	2022.22
400.67	2129.89
400.86	2036.27
401.05	1996.48
401.24	2085.42
401.44	2155.63
401.63	2174.36
401.82	2193.08
402.01	2174.36
402.21	2237.55
402.40	2237.55
402.59	2293.72
402.78	2338.20
402.97	2300.75
403.17	2242.23
403.36	2256.28
403.55	2377.98
403.74	2277.34
403.93	2366.28
404.13	2495.01
404.32	2511.39
404.51	2490.33
404.70	2537.14
404.89	2499.69
405.09	2567.57
405.28	2576.93
405.47	2504.37
405.66	2534.80
405.85	2684.59
406.05	2576.93
406.24	2654.17
406.43	2593.31
406.62	2752.47
406.81	2857.79
407.00	2675.23
407.20	2637.78
407.39	2789.92
407.58	2813.32
407.77	2820.35
407.96	2841.41
408.15	2939.71
408.34	2883.54
408.54	2871.84
408.73	3040.36
408.92	2995.89
409.11	3005.25
409.30	3016.95
409.49	3052.06
409.68	2925.67
409.87	2967.80
410.07	3131.64
410.26	3136.32
410.45	3155.04
410.64	3211.22
410.83	3150.36
411.02	3131.64
411.21	3304.84
411.40	3197.17
411.59	3239.30
411.78	3304.84
411.98	3463.99
412.17	3365.69
412.36	3489.74
412.55	3531.87
412.74	3737.84
412.93	3599.74
413.12	3478.04
413.31	3803.37
413.50	3705.07
413.69	3684.00
413.88	3817.41
414.07	3728.47
414.26	3758.90
414.45	3985.93
414.64	3768.26
414.83	4086.58
415.02	4056.15
415.22	4070.19
415.41	4292.54
415.60	4161.47
415.79	4124.02
415.98	4278.50
416.17	4278.50
416.36	4266.80
416.55	4362.76
416.74	4353.40
416.93	4252.75
417.12	4428.29
417.31	4447.02
417.50	4447.02
417.69	4617.88
417.88	4603.83
418.07	4627.24
418.26	4589.79
418.45	4676.39
418.64	4812.14
418.83	4910.44
419.02	4823.84
419.21	4800.44
419.39	4915.12
419.58	4826.18
419.77	4833.21
419.96	5020.45
420.15	4980.66
420.34	4990.02
420.53	4908.10
420.72	5071.94
420.91	5097.69
421.10	5093.01
421.29	5170.24
421.48	5083.64
421.67	5242.80
421.86	5151.52
422.05	5217.05
422.24	5125.77
422.43	5156.20
422.61	5266.21
422.80	5329.40
422.99	5310.68
423.18	5472.17
423.37	5284.93
423.56	5401.96
423.75	5376.21
423.94	5282.59
424.13	5107.05
424.32	5284.93
424.50	5495.58
424.69	5507.28
424.88	5563.45
425.07	5235.78
425.26	5493.24
425.45	5301.31
425.64	5401.96
425.83	5556.43
426.01	5582.18
426.20	5392.59
426.39	5523.66
426.58	5406.64
426.77	5371.53
426.96	5596.22
427.15	5699.20
427.33	5722.61
427.52	5764.74
427.71	5827.93
427.90	5675.80
428.09	5701.54
428.28	5834.96
428.46	5827.93
428.65	5975.39
428.84	6111.14
429.03	6167.31
429.22	5874.74
429.40	5977.73
429.59	6108.80
429.78	5645.37
429.97	5902.83
430.16	5984.75
430.34	6104.12
430.53	6300.72
430.72	6120.50
430.91	6101.78
431.10	6120.50
431.28	6347.53
431.47	6410.73
431.66	6649.46
431.85	6448.18
432.03	6445.84
432.22	6555.84
432.41	6642.44
432.60	6476.26
432.79	6399.02
432.97	6516.05
433.16	6588.61
433.35	6532.44
433.54	6583.93
433.72	6572.22
433.91	6909.26
434.10	6771.17
434.28	6731.38
434.47	6738.40
434.66	6841.39
434.85	7002.88
435.03	7019.27
435.22	7178.42
435.41	7524.82
435.59	7510.78
435.78	7246.30
435.97	7250.98
436.16	7206.51
436.34	7169.06
436.53	7246.30
436.72	7304.81
436.90	7096.50
437.09	7269.70
437.28	7112.89
437.46	7377.37
437.65	7281.41
437.84	7583.34
438.02	7360.98
438.21	7339.92
438.40	7426.52
438.58	7812.71
438.77	7798.66
438.96	7660.57
439.14	7805.69
439.33	7833.77
439.52	7946.12
439.70	7964.84
439.89	8039.74
440.08	8091.23
440.26	8252.73
440.45	8102.93
440.63	8269.11
440.82	8358.05
441.01	8248.05
441.19	8514.87
441.38	8376.78
441.57	8631.90
441.75	8685.73
441.94	8849.57
442.12	8767.65
442.31	9048.51
442.50	8854.25
442.68	8809.78
442.87	8922.12
443.05	9039.15
443.24	9242.78
443.43	9027.45
443.61	9057.87
443.80	9273.20
443.98	9053.19
444.17	8655.30
444.35	9205.33
444.54	9362.14
444.73	9062.55
444.91	9074.26
445.10	9228.73
445.28	9142.13
445.47	9153.84
445.65	9076.60
445.84	9357.46
446.02	9528.32
446.21	9444.06
446.39	9376.19
446.58	9451.08
446.77	9460.45
446.95	9256.82
447.14	9401.93
447.32	9399.59
447.51	9554.07
447.69	9568.11
447.88	9511.94
448.06	9458.10
448.25	9444.06
448.43	9582.15
448.62	9540.02
448.80	9589.17
448.99	9572.79
449.17	9783.44
449.36	9703.86
449.54	9982.38
449.73	9942.60
449.91	10038.56
450.10	10092.39
450.28	10136.86
450.46	10040.90
450.65	10148.56
450.83	10160.27
451.02	10087.71
451.20	10181.33
451.39	10326.44
451.57	10281.97
451.76	10347.51
451.94	10277.29
452.13	10546.45
452.31	10401.34
452.49	10242.18
452.68	10609.65
452.86	10457.51
453.05	10494.96
453.23	10487.94
453.42	10466.88
453.60	10530.07
453.78	10616.67
453.97	10443.47
454.15	10586.24
454.34	10743.06
454.52	10927.96
454.70	10686.89
454.89	10911.58
455.07	10822.64
455.26	11225.21
455.44	11080.10
455.62	11002.86
455.81	11077.76
455.99	11180.74
456.17	10967.75
456.36	11140.95
456.54	11452.24
456.73	11454.58
456.91	11630.12
457.09	11508.41
457.28	11686.29
457.46	11445.22
457.64	12084.19
457.83	11765.87
458.01	11653.53
458.19	12114.61
458.38	11903.96
458.56	12100.57
458.74	11936.73
458.93	11962.48
459.11	11878.22
459.29	12044.40
459.48	11981.20
459.66	11946.09
459.84	12208.23
460.03	12453.99
460.21	12339.30
460.39	12346.33
460.57	12156.74
460.76	12475.06
460.94	12903.37
461.12	12346.33
461.31	12683.36
461.49	12510.16
461.67	12596.76
461.85	12784.01
462.04	12868.27
462.22	13355.10
462.40	13071.89
462.59	12531.23
462.77	12826.14
462.95	13034.44
463.13	13064.87
463.32	12903.37
463.50	12905.71
463.68	13179.56
463.86	12901.03
464.05	12868.27
464.23	13221.69
464.41	13214.66
464.59	13027.42
464.78	13724.90
464.96	13422.97
465.14	13261.48
465.32	13139.77
465.50	13650.00
465.69	13839.59
465.87	13472.12
466.05	13811.50
466.23	13451.06
466.41	13902.78
466.60	14136.84
466.78	13689.79
466.96	13689.79
467.14	13783.41
467.32	14078.32
467.51	13977.68
467.69	13596.17
467.87	13921.51
468.05	14143.86
468.23	13949.59
468.41	14141.52
468.60	14029.17
468.78	14209.39
468.96	14115.77
469.14	14171.94
469.32	14530.05
469.50	14214.07
469.69	14607.28
469.87	14597.92
470.05	14597.92
470.23	14686.86
470.41	14806.23
470.59	14874.10
470.77	14721.97
470.95	14934.96
471.14	14916.23
471.32	14635.37
471.50	15356.25
471.68	15552.86
471.86	15356.25
472.04	15403.07
472.22	15880.53
472.40	15197.10
472.58	15492.01
472.77	15840.75
472.95	16042.03
473.13	16285.45
473.31	16009.26
473.49	16130.97
473.67	16030.33
473.85	16011.60
474.03	16559.29
474.21	16402.47
474.39	16475.03
474.57	16484.39
474.75	16840.15
474.93	16819.09
475.12	16926.75
475.30	16765.26
475.48	16835.47
475.66	17057.82
475.84	17062.51
476.02	17486.14
476.20	17575.08
476.38	17680.41
476.56	17813.82
476.74	18061.91
476.92	17830.20
477.10	18132.13
477.28	18377.89
477.46	17942.55
477.64	18094.68
477.82	18600.24
478.00	18965.36
478.18	18785.14
478.36	19206.44
478.54	19274.31
478.72	19515.39
478.90	19648.80
479.08	19873.49
479.26	19978.81
479.44	20002.22
479.62	19920.30
479.80	20173.08
479.98	20297.13
480.16	20950.14
480.34	20772.25
480.52	20912.69
480.70	21462.71
480.88	20592.03
481.06	21420.58
481.24	21184.19
481.41	21596.12
481.59	21598.46
481.77	22171.89
481.95	22265.52
482.13	22045.51
482.31	22377.86
482.49	22876.40
482.67	22948.95
482.85	23056.62
483.03	23323.44
483.21	23524.72
483.39	23936.66
483.57	23840.70
483.74	24060.71
483.92	24369.66
484.10	24161.35
484.28	24472.64
484.46	24746.48
484.64	25621.84
484.82	24982.88
485.00	25371.41
485.18	25507.16
485.35	26078.25
485.53	25790.36
485.71	26125.06
485.89	26661.04
486.07	26546.36
486.25	26731.26
486.43	26618.91
486.61	26761.69
486.78	27208.73
486.96	27974.08
487.14	27960.04
487.32	27623.00
487.50	28194.09
487.68	28655.18
487.85	28507.72
488.03	28896.25
488.21	29303.51
488.39	29343.30
488.57	29345.64
488.75	29677.99
488.92	29914.39
489.10	30356.75
489.28	30256.11
489.46	30761.66
489.64	30904.43
489.81	31412.33
489.99	31171.25
490.17	31461.48
490.35	31988.10
490.53	31985.76
490.70	32346.20
490.88	32315.78
491.06	32610.68
491.24	32575.58
491.41	32753.46
491.59	33247.31
491.77	33411.15
491.95	33766.91
492.13	33652.22
492.30	33851.17
492.48	34036.07
492.66	33827.76
492.84	34284.17
493.01	34866.96
493.19	34794.40
493.37	35314.00
493.54	35299.96
493.72	35374.86
493.90	35398.26
494.08	35992.76
494.25	35981.06
494.43	36198.73
494.61	36959.40
494.79	36854.08
494.96	36669.17
495.14	37296.44
495.32	37439.21
495.49	37783.27
495.67	37853.48
495.85	38316.91
496.02	38543.94
496.20	38347.34
496.38	38244.35
496.55	38958.22
496.73	39166.52
496.91	39344.41
497.09	39636.97
497.26	39662.72
497.44	39522.29
497.62	39938.90
497.79	40135.51
497.97	40322.75
498.14	40601.27
498.32	40978.10
498.50	41333.86
498.67	41064.70
498.85	40945.33
499.03	41668.56
499.20	41504.72
499.38	41593.66
499.56	41830.05
499.73	41813.67
499.91	42199.86
500.08	42604.77
500.26	41792.61
500.44	42859.89
500.61	42679.67
500.79	43070.54
500.97	43002.66
501.14	43791.42
501.32	43524.60
501.49	43679.08
501.67	43316.29
501.84	43978.67
502.02	43936.54
502.20	44294.64
502.37	44568.48
502.55	44294.64
502.72	44994.46
502.90	44479.54
503.07	44236.12
503.25	44900.84
503.43	44800.19
503.60	45380.65
503.78	45476.61
503.95	45450.86
504.13	45434.48
504.30	45853.44
504.48	45687.26
504.65	45825.35
504.83	46265.37
505.01	46298.14
505.18	46607.09
505.36	46384.74
505.53	46284.09
505.71	46993.28
505.88	46644.54
506.06	46653.90
506.23	47051.79
506.41	47047.11
506.58	47271.80
506.76	47217.97
506.93	47524.58
507.11	47316.27
507.28	47599.47
507.46	47672.03
507.63	47885.02
507.81	48184.61
507.98	48013.75
508.16	48062.90
508.33	48306.32
508.50	48219.72
508.68	48479.52
508.85	48615.27
509.03	49031.88
509.20	48870.39
509.38	49130.19
509.55	49298.70
509.73	49095.08
509.90	49378.28
510.08	49607.65
510.25	49696.59
510.42	49567.87
510.60	50035.97
510.77	50096.83
510.95	50181.09
511.12	49663.83
511.30	50024.27
511.47	50103.85
511.64	50543.87
511.82	50710.05
511.99	50663.24
512.17	50824.73
512.34	50885.59
512.51	51035.38
512.69	51250.71
512.86	50880.91
513.04	51470.72
513.21	51482.42
513.38	51662.64
513.56	51489.45
513.73	51316.25
513.90	51536.26
514.08	51526.89
514.25	51887.34
514.43	52158.84
514.60	52076.92
514.77	52020.75
514.95	52437.36
515.12	52179.90
515.29	51999.68
515.47	52278.21
515.64	52563.75
515.81	52711.20
515.99	52884.40
516.16	52844.62
516.33	52917.17
516.51	53059.94
516.68	52788.44
516.85	53066.97
517.03	53066.97
517.20	53436.77
517.37	53343.15
517.54	53382.94
517.72	53132.50
517.89	53364.21
518.06	53504.65
518.24	53539.75
518.41	53844.02
518.58	53893.18
518.75	53642.74
518.93	54246.60
519.10	54113.19
519.27	54461.93
519.45	54064.03
519.62	54127.23
519.79	54047.65
519.96	54630.44
520.14	54593.00
520.31	54291.07
520.48	54550.87
520.65	54349.58
520.83	54550.87
521.00	54461.93
521.17	54363.62
521.34	54717.04
521.52	54742.79
521.69	54845.77
521.86	55112.59
522.03	55318.56
522.20	54986.21
522.38	55243.66
522.55	55105.57
522.72	55185.15
522.89	55276.43
523.07	55498.78
523.24	55519.85
523.41	55505.80
523.58	55707.09
523.75	55683.69
523.92	55564.32
524.10	55585.38
524.27	55978.59
524.44	55807.73
524.61	56079.24
524.78	56006.68
524.96	56126.05
525.13	56261.80
525.30	56062.85
525.47	56198.60
525.64	56371.80
525.81	56367.12
525.98	56392.87
526.16	56734.59
526.33	56500.53
526.50	56502.87
526.67	56381.16
526.84	56636.28
527.01	56755.65
527.18	56659.69
527.36	56851.61
527.53	57008.43
527.70	57116.09
527.87	57293.97
528.04	56662.03
528.21	57052.90
528.38	57041.20
528.55	57073.96
528.72	57190.99
528.89	57256.53
529.07	57282.27
529.24	57043.54
529.41	57441.43
529.58	57256.53
529.75	57127.80
529.92	57476.54
530.09	57350.15
530.26	57607.61
530.43	57436.75
530.60	57572.50
530.77	57497.60
530.94	57708.25
531.11	57530.37
531.28	57523.35
531.46	57710.59
531.63	57783.15
531.80	57879.11
531.97	58103.80
532.14	57993.79
532.31	58052.31
532.48	57918.90
532.65	58164.65
532.82	57848.68
532.99	58164.65
533.16	58326.15
533.33	58347.21
533.50	58529.78
533.67	58471.26
533.84	58237.21
534.01	58412.75
534.18	58183.38
534.35	58515.73
534.52	58237.21
534.69	58686.59
534.86	58576.59
535.03	58405.73
535.20	58759.15
535.37	58915.96
535.54	58848.09
535.71	58529.78
535.88	58873.84
536.05	58735.74
536.22	58983.84
536.38	59011.93
536.55	59110.23
536.72	58934.69
536.89	59077.46
537.06	58787.24
537.23	58922.99
537.40	59016.61
537.57	58955.75
537.74	59168.74
537.91	59318.54
538.08	59407.48
538.25	59323.22
538.42	59245.98
538.59	59442.59
538.75	59206.19
538.92	59192.15
539.09	59533.87
539.26	59585.36
539.43	59800.69
539.60	59758.56
539.77	59728.13
539.94	59784.30
540.11	59580.68
540.28	59800.69
540.44	59611.10
540.61	60060.49
540.78	59863.88
540.95	59852.18
541.12	59978.57
541.29	60275.82
541.46	60254.75
541.62	60011.34
541.79	60030.06
541.96	59709.41
542.13	59980.91
542.30	59763.24
542.47	60301.56
542.63	60271.14
542.80	60303.90
542.97	60589.45
543.14	60570.72
543.31	60292.20
543.48	60542.64
543.64	60786.05
543.81	60662.00
543.98	60835.20
544.15	60664.35
544.32	60874.99
544.48	60865.63
544.65	60718.18
544.82	60748.60
544.99	60528.59
545.16	60793.07
545.32	60914.78
545.49	61190.97
545.66	61371.19
545.83	61333.74
546.00	61242.46
546.16	61181.60
546.33	60926.49
546.50	60736.90
546.67	60994.36
546.83	60753.29
547.00	60940.53
547.17	61305.65
547.34	60999.04
547.50	61176.92
547.67	61130.11
547.84	61371.19
548.00	61130.11
548.17	61448.42
548.34	61092.66
548.51	61385.23
548.67	61469.49
548.84	61481.19
549.01	61443.74
549.18	61286.93
549.34	61488.21
549.51	61584.18
549.68	61357.14
549.84	61403.95
550.01	61490.55
550.18	61279.91
550.34	61544.39
550.51	61593.54
550.68	61640.35
550.84	61645.03
551.01	61642.69
551.18	61506.94
551.34	61359.48
551.51	61630.99
551.68	61724.61
551.84	61736.31
552.01	61471.83
552.18	61893.13
552.34	61944.62
552.51	61914.19
552.68	61862.70
552.84	61748.01
553.01	61989.09
553.18	61764.40
553.34	62042.92
553.51	61773.76
553.67	62120.16
553.84	62288.68
554.01	62295.70
554.17	62157.61
554.34	62049.94
554.51	62148.24
554.67	62286.34
554.84	62295.70
555.00	62003.13
555.17	62176.33
555.33	62234.84
555.50	62354.21
555.67	62246.55
555.83	62218.46
556.00	62328.47
556.16	62372.94
556.33	62143.56
556.50	62314.42
556.66	62454.86
556.83	62328.47
556.99	62548.48
557.16	62599.97
557.32	62733.38
557.49	62454.86
557.65	62115.48
557.82	62417.41
557.98	62508.69
558.15	62499.33
558.32	62649.12
558.48	62557.84
558.65	62791.89
558.81	62625.71
558.98	62459.54
559.14	62735.72
559.31	62611.67
559.47	62637.42
559.64	62728.70
559.80	62707.63
559.97	62829.34
560.13	62553.16
560.30	62646.78
560.46	62749.76
560.63	62901.90
560.79	62841.04
560.96	63037.65
561.12	62855.09
561.29	62808.28
561.45	62845.72
561.61	62901.90
561.78	62965.09
561.94	62962.75
562.11	62981.48
562.27	63042.33
562.44	63145.31
562.60	62951.05
562.77	63030.63
562.93	62929.98
563.10	63152.33
563.26	62967.43
563.42	63119.57
563.59	63049.35
563.75	63224.89
563.92	63180.42
564.08	63107.86
564.24	62878.49
564.41	62822.32
564.57	63049.35
564.74	63103.18
564.90	63250.64
565.07	63274.04
565.23	63248.30
565.39	63126.59
565.56	63316.17
565.72	63344.26
565.88	63189.78
566.05	63252.98
566.21	63089.14
566.38	63054.03
566.54	63227.23
566.70	63402.77
566.87	63430.86
567.03	63381.71
567.19	63489.37
567.36	63241.28
567.52	63337.24
567.68	63388.73
567.85	63049.35
568.01	63267.02
568.17	63276.38
568.34	63529.16
568.50	63508.10
568.66	63449.58
568.83	63468.31
568.99	63580.65
569.15	63491.71
569.32	63283.40
569.48	63337.24
569.64	63463.63
569.81	63393.41
569.97	63449.58
570.13	63496.39
570.30	63276.38
570.46	63517.46
570.62	63526.82
570.78	63416.82
570.95	63306.81
571.11	63522.14
571.27	63402.77
571.43	63409.79
571.60	63306.81
571.76	63494.05
571.92	63618.10
572.09	63725.77
572.25	63592.36
572.41	63613.42
572.57	63636.83
572.74	63676.61
572.90	63618.10
573.06	63601.72
573.22	63585.33
573.38	63625.12
573.55	63704.70
573.71	63838.11
573.87	63810.03
574.03	63613.42
574.20	63723.43
574.36	63777.26
574.52	63522.14
574.68	63763.21
574.84	63653.21
575.01	63781.94
575.17	63557.25
575.33	63711.72
575.49	63657.89
575.65	63828.75
575.82	63924.71
575.98	63707.04
576.14	63709.38
576.30	63716.40
576.46	63721.08
576.62	63568.95
576.79	63910.67
576.95	63735.13
577.11	63758.53
577.27	63950.46
577.43	63765.56
577.59	63800.66
577.75	63826.41
577.92	63590.01
578.08	63737.47
578.24	63575.97
578.40	63767.90
578.56	63901.31
578.72	63866.20
578.88	64046.42
579.04	63838.11
579.21	64055.78
579.37	63969.18
579.53	64011.31
579.69	63763.21
579.85	63744.49
580.01	63774.92
580.17	63688.32
580.33	63847.47
580.49	63952.80
580.65	63924.71
580.82	64027.70
580.98	63903.65
581.14	63845.13
581.30	64111.95
581.46	63793.64
581.62	63758.53
581.78	63800.66
581.94	64083.87
582.10	63903.65
582.26	63950.46
582.42	64093.23
582.58	63973.86
582.74	64069.82
582.90	64097.91
583.06	64095.57
583.22	63903.65
583.38	64111.95
583.54	63721.08
583.70	63833.43
583.86	63952.80
584.02	63943.44
584.18	64144.72
584.34	63999.61
584.50	64074.51
584.66	64121.32
584.82	63915.35
584.98	64088.55
585.14	63917.69
585.30	63854.50
585.46	64102.59
585.62	63978.54
585.78	64156.42
585.94	63779.60
586.10	64065.14
586.26	63950.46
586.42	64144.72
586.58	64411.54
586.74	64090.89
586.90	63863.86
587.06	63999.61
587.22	64067.48
587.38	63992.59
587.54	64100.25
587.70	64289.84
587.86	64081.53
588.02	64303.88
588.18	64252.39
588.34	64196.21
588.49	64271.11
588.65	63927.05
