SpectraSuite Data File
++++++++++++++++++++++++++++++++++++
Date: Fri Oct 04 11:39:45 GMT-05:00 2013
User: price-jones
Dark Spectrum Present: No
Reference Spectrum Present: No
Number of Sampled Component Spectra: 1
Spectrometers: USB2+H05261
Integration Time (usec): 100000 (USB2+H05261)
Spectra Averaged: 1 (USB2+H05261)
Boxcar Smoothing: 0 (USB2+H05261)
Correct for Electrical Dark: No (USB2+H05261)
Strobe/Lamp Enabled: No (USB2+H05261)
Correct for Detector Non-linearity: No (USB2+H05261)
Correct for Stray Light: No (USB2+H05261)
Number of Pixels in Processed Spectrum: 2048
>>>>>Begin Processed Spectral Data<<<<<
365.73	56.17
365.92	56.17
366.12	56.17
366.32	11.70
366.52	9.36
366.72	42.13
366.91	0.00
367.11	4.68
367.31	0.00
367.51	0.00
367.70	0.00
367.90	0.00
368.10	0.00
368.30	0.00
368.49	0.00
368.69	0.00
368.89	0.00
369.09	14.04
369.28	0.00
369.48	0.00
369.68	56.17
369.87	39.79
370.07	37.45
370.27	119.37
370.47	161.50
370.66	416.62
370.86	484.49
371.06	613.22
371.25	627.26
371.45	456.40
371.65	489.17
371.84	582.79
372.04	547.69
372.24	627.26
372.44	561.73
372.63	592.16
372.83	674.07
373.03	645.99
373.22	690.46
373.42	662.37
373.62	627.26
373.81	622.58
374.01	690.46
374.21	617.90
374.40	615.56
374.60	720.88
374.79	704.50
374.99	664.71
375.19	697.48
375.38	683.44
375.58	737.27
375.78	641.31
375.97	676.41
376.17	873.02
376.37	744.29
376.56	744.29
376.76	702.16
376.95	842.59
377.15	638.97
377.35	784.08
377.54	758.33
377.74	866.00
377.93	873.02
378.13	751.31
378.33	814.51
378.52	788.76
378.72	819.19
378.91	905.79
379.11	802.80
379.31	849.61
379.50	788.76
379.70	887.06
379.89	833.23
380.09	882.38
380.28	863.66
380.48	842.59
380.68	959.62
380.87	812.17
381.07	877.70
381.26	957.28
381.46	931.53
381.65	931.53
381.85	992.39
382.04	1006.43
382.24	938.55
382.43	943.24
382.63	889.40
382.83	983.02
383.02	936.21
383.22	987.71
383.41	968.98
383.61	1025.15
383.80	1060.26
384.00	968.98
384.19	1078.99
384.39	1008.77
384.58	997.07
384.78	1060.26
384.97	1055.58
385.17	1067.28
385.36	1181.97
385.56	1097.71
385.75	1015.79
385.95	1116.44
386.14	1179.63
386.34	1057.92
386.53	1193.67
386.72	1158.57
386.92	1132.82
387.11	1219.42
387.31	1196.01
387.50	1114.10
387.70	1200.69
387.89	1268.57
388.09	1219.42
388.28	1261.55
388.48	1203.04
388.67	1277.93
388.86	1268.57
389.06	1291.98
389.25	1327.08
389.45	1308.36
389.64	1198.35
389.84	1289.64
390.03	1275.59
390.22	1345.81
390.42	1348.15
390.61	1401.98
390.81	1425.39
391.00	1313.04
391.19	1331.76
391.39	1306.02
391.58	1423.05
391.78	1437.09
391.97	1416.02
392.16	1359.85
392.36	1404.32
392.55	1439.43
392.75	1401.98
392.94	1523.69
393.13	1530.71
393.33	1502.62
393.52	1502.62
393.71	1577.52
393.91	1486.24
394.10	1530.71
394.29	1544.75
394.49	1586.88
394.68	1544.75
394.88	1668.80
395.07	1629.01
395.26	1661.78
395.46	1661.78
395.65	1589.22
395.84	1720.29
396.04	1736.68
396.23	1811.57
396.42	1760.08
396.62	1767.10
396.81	1863.07
397.00	1769.44
397.19	1678.16
397.39	1729.66
397.58	1823.28
397.77	1720.29
397.97	1750.72
398.16	1856.04
398.35	1874.77
398.55	1842.00
398.74	1921.58
398.93	1877.11
399.12	1935.62
399.32	1900.52
399.51	1914.56
399.70	1942.64
399.90	2043.29
400.09	2083.08
400.28	2019.88
400.47	2078.40
400.67	2157.97
400.86	2071.37
401.05	2132.23
401.24	2054.99
401.44	2204.78
401.63	2092.44
401.82	2246.91
402.01	2183.72
402.21	2125.21
402.40	2204.78
402.59	2246.91
402.78	2345.22
402.97	2307.77
403.17	2307.77
403.36	2296.07
403.55	2265.64
403.74	2387.35
403.93	2375.64
404.13	2548.84
404.32	2513.74
404.51	2406.07
404.70	2541.82
404.89	2518.42
405.09	2560.55
405.28	2373.30
405.47	2541.82
405.66	2719.70
405.85	2705.66
406.05	2555.86
406.24	2715.02
406.43	2722.04
406.62	2775.88
406.81	2778.22
407.00	2612.04
407.20	2665.87
407.39	2822.69
407.58	2825.03
407.77	2878.86
407.96	2979.50
408.15	2745.45
408.34	2794.60
408.54	2953.76
408.73	3082.49
408.92	2972.48
409.11	3091.85
409.30	2998.23
409.49	2991.20
409.68	3007.59
409.87	3028.65
410.07	3204.19
410.26	3023.97
410.45	3138.66
410.64	3208.87
410.83	3208.87
411.02	3206.53
411.21	3318.88
411.40	3438.25
411.59	3398.46
411.78	3293.13
411.98	3302.50
412.17	3501.44
412.36	3328.24
412.55	3576.34
412.74	3618.47
412.93	3637.19
413.12	3503.78
413.31	3684.00
413.50	3735.50
413.69	3847.84
413.88	3775.28
414.07	3812.73
414.26	3873.59
414.45	3829.12
414.64	3960.19
414.83	3922.74
415.02	4095.94
415.22	4002.32
415.41	4028.06
415.60	4074.87
415.79	4133.39
415.98	4229.35
416.17	4217.65
416.36	4365.10
416.55	4161.47
416.74	4299.56
416.93	4306.59
417.12	4320.63
417.31	4479.79
417.50	4507.87
417.69	4648.30
417.88	4685.75
418.07	4648.30
418.26	4620.22
418.45	4545.32
418.64	4800.44
418.83	4748.95
419.02	4758.31
419.21	4823.84
419.39	4908.10
419.58	4873.00
419.77	4765.33
419.96	4936.19
420.15	5032.15
420.34	4908.10
420.53	5013.43
420.72	5074.28
420.91	5165.56
421.10	5249.82
421.29	5284.93
421.48	4999.38
421.67	5191.31
421.86	5160.88
422.05	5305.99
422.24	5214.71
422.43	5280.25
422.61	5240.46
422.80	5252.16
422.99	5350.46
423.18	5455.79
423.37	5434.72
423.56	5336.42
423.75	5352.81
423.94	5181.95
424.13	4992.36
424.32	5174.92
424.50	5345.78
424.69	5502.60
424.88	5486.22
425.07	5366.85
425.26	5399.62
425.45	5289.61
425.64	5352.81
425.83	5364.51
426.01	5467.49
426.20	5455.79
426.39	5404.30
426.58	5654.73
426.77	5544.73
426.96	5577.50
427.15	5645.37
427.33	5619.63
427.52	5774.10
427.71	5685.16
427.90	5701.54
428.09	5647.71
428.28	5893.47
428.46	5809.21
428.65	5954.32
428.84	6139.23
429.03	5937.94
429.22	5788.14
429.40	5944.96
429.59	5909.85
429.78	5823.25
429.97	5877.09
430.16	5884.11
430.34	5991.77
430.53	6167.31
430.72	6377.96
430.91	6026.88
431.10	6132.20
431.28	6249.23
431.47	6216.46
431.66	6541.80
431.85	6394.34
432.03	6441.15
432.22	6565.20
432.41	6457.54
432.60	6487.96
432.79	6511.37
432.97	6689.25
433.16	6590.95
433.35	6492.65
433.54	6647.12
433.72	6752.45
433.91	6677.55
434.10	6693.93
434.28	6726.70
434.47	6752.45
434.66	6808.62
434.85	6883.52
435.03	6963.09
435.22	7002.88
435.41	7499.08
435.59	7356.30
435.78	7396.09
435.97	7180.76
436.16	7045.01
436.34	7002.88
436.53	7155.02
436.72	7335.24
436.90	7206.51
437.09	7314.17
437.28	7377.37
437.46	7311.83
437.65	7356.30
437.84	7499.08
438.02	7337.58
438.21	7311.83
438.40	7346.94
438.58	7536.52
438.77	7864.20
438.96	7660.57
439.14	7805.69
439.33	7889.95
439.52	7988.25
439.70	7969.52
439.89	8105.28
440.08	7988.25
440.26	8140.38
440.45	8046.76
440.63	8351.03
440.82	8175.49
441.01	8205.92
441.19	8521.89
441.38	8531.25
441.57	8421.25
441.75	8594.45
441.94	8828.50
442.12	8723.18
442.31	8922.12
442.50	8833.18
442.68	8898.72
442.87	9062.55
443.05	9025.11
443.24	9092.98
443.43	8954.89
443.61	9078.94
443.80	9348.10
443.98	8997.02
444.17	8802.75
444.35	9301.29
444.54	9298.95
444.73	9261.50
444.91	9371.50
445.10	9081.28
445.28	9277.88
445.47	9240.44
445.65	9228.73
445.84	9659.39
446.02	9324.69
446.21	9310.65
446.39	9280.22
446.58	9474.49
446.77	9530.66
446.95	9177.24
447.14	9081.28
447.32	9460.45
447.51	9343.42
447.69	9362.14
447.88	9444.06
448.06	9282.56
448.25	9291.93
448.43	9551.73
448.62	9493.21
448.80	9254.48
448.99	9408.95
449.17	9605.56
449.36	9631.30
449.54	9898.13
449.73	10022.17
449.91	10026.86
450.10	9891.10
450.28	9973.02
450.46	9886.42
450.65	9923.87
450.83	10216.44
451.02	10073.67
451.20	10087.71
451.39	10031.54
451.57	9970.68
451.76	10274.95
451.94	10328.78
452.13	10628.37
452.31	10333.47
452.49	10331.12
452.68	10382.62
452.86	10347.51
453.05	10345.17
453.23	10471.56
453.42	10450.49
453.60	10544.11
453.78	10490.28
453.97	10677.52
454.15	10539.43
454.34	10541.77
454.52	10771.15
454.70	10693.91
454.89	10794.55
455.07	10951.37
455.26	10923.28
455.44	10892.85
455.62	11183.08
455.81	10815.62
455.99	10904.56
456.17	11049.67
456.36	11089.46
456.54	11220.53
456.73	11405.43
456.91	11506.07
457.09	11552.88
457.28	11414.79
457.46	11342.24
457.64	11611.40
457.83	11719.06
458.01	11599.70
458.19	11936.73
458.38	11475.65
458.56	12102.91
458.74	11936.73
458.93	12065.46
459.11	11910.99
459.29	12058.44
459.48	12079.50
459.66	12147.38
459.84	12121.63
460.03	12336.96
460.21	12315.90
460.39	12432.93
460.57	12175.47
460.76	12283.13
460.94	12496.12
461.12	12161.42
461.31	12657.62
461.49	12486.76
461.67	12320.58
461.85	12746.56
462.04	12613.15
462.22	13172.54
462.40	13039.12
462.59	12774.64
462.77	12812.09
462.95	12861.24
463.13	13078.91
463.32	13006.36
463.50	13109.34
463.68	13273.18
463.86	13242.75
464.05	12809.75
464.23	13184.24
464.41	13050.83
464.59	12929.12
464.78	13525.96
464.96	13191.26
465.14	13088.28
465.32	13432.33
465.50	13525.96
465.69	13734.26
465.87	13345.73
466.05	13675.75
466.23	13284.88
466.41	13734.26
466.60	13921.51
466.78	13652.34
466.96	13540.00
467.14	13764.69
467.32	14085.34
467.51	13912.14
467.69	13497.87
467.87	13909.80
468.05	14001.08
468.23	13844.27
468.41	13671.07
468.60	14108.75
468.78	14057.26
468.96	14040.87
469.14	14333.44
469.32	14310.04
469.50	14017.47
469.69	14637.71
469.87	14684.52
470.05	14738.35
470.23	14649.41
470.41	14476.21
470.59	14984.11
470.77	14836.66
470.95	14768.78
471.14	15220.50
471.32	14562.81
471.50	15447.54
471.68	15302.42
471.86	15119.86
472.04	15323.49
472.22	15655.84
472.40	15241.57
472.58	15651.16
472.77	15667.55
472.95	15857.13
473.13	16177.78
473.31	15590.31
473.49	15812.66
473.67	15936.71
473.85	16091.18
474.03	16322.90
474.21	16236.30
474.39	16187.14
474.57	16531.20
474.75	16814.41
474.93	16931.44
475.12	16734.83
475.30	16863.56
475.48	16702.06
475.66	17137.40
475.84	16985.27
476.02	17383.16
476.20	17144.42
476.38	17465.08
476.56	18015.10
476.74	17764.67
476.92	17694.45
477.10	17734.24
477.28	18015.10
477.46	17937.87
477.64	18314.69
477.82	18469.17
478.00	18897.49
478.18	18918.55
478.36	19213.46
478.54	19314.10
478.72	19274.31
478.90	19311.76
479.08	19159.63
479.26	19747.10
479.44	19812.63
479.62	20453.94
479.80	20196.48
479.98	20552.24
480.16	20540.54
480.34	20538.20
480.52	20978.22
480.70	20732.47
480.88	20709.06
481.06	21193.55
481.24	21116.31
481.41	21266.11
481.59	21582.08
481.77	22022.10
481.95	22153.17
482.13	22228.07
482.31	22249.13
482.49	22647.02
482.67	22750.01
482.85	22955.97
483.03	23461.53
483.21	23541.11
483.39	23702.61
483.57	23676.86
483.74	24006.87
483.92	23917.93
484.10	23758.78
484.28	24261.99
484.46	24758.19
484.64	25411.20
484.82	24535.84
485.00	24987.56
485.18	25284.81
485.35	25610.14
485.53	25888.67
485.71	26239.75
485.89	26663.38
486.07	26632.96
486.25	26621.25
486.43	26228.04
486.61	26883.39
486.78	27072.98
486.96	27571.51
487.14	27557.47
487.32	28140.26
487.50	27800.88
487.68	28203.46
487.85	28531.13
488.03	28833.06
488.21	29195.84
488.39	29249.67
488.57	29142.01
488.75	29518.84
488.92	29731.83
489.10	30064.18
489.28	30274.83
489.46	30876.35
489.64	30452.71
489.81	31438.08
489.99	31318.71
490.17	30944.22
490.35	31800.86
490.53	31674.47
490.70	32409.40
490.88	32126.19
491.06	32758.14
491.24	32156.62
491.41	32416.42
491.59	32959.42
491.77	33008.58
491.95	33420.51
492.13	33467.32
492.30	33324.55
492.48	33741.16
492.66	34007.98
492.84	34204.59
493.01	34653.97
493.19	34656.31
493.37	35276.55
493.54	34951.22
493.72	35470.82
493.90	35349.11
494.08	35849.99
494.25	36460.87
494.43	36367.24
494.61	36811.95
494.79	36882.16
494.96	36435.12
495.14	36858.76
495.32	37359.63
495.49	37046.00
495.67	37579.64
495.85	37998.60
496.02	37991.58
496.20	38134.35
496.38	38045.41
496.55	38572.03
496.73	38988.64
496.91	39068.22
497.09	39445.05
497.26	39751.66
497.44	39079.92
497.62	39388.88
497.79	40210.40
497.97	40051.25
498.14	40528.72
498.32	40884.48
498.50	40760.43
498.67	40978.10
498.85	40741.71
499.03	41043.63
499.20	41104.49
499.38	41289.39
499.56	41724.73
499.73	42096.88
499.91	42188.16
500.08	42017.30
500.26	42216.24
500.44	42291.14
500.61	42150.71
500.79	42511.15
500.97	42850.53
501.14	43243.74
501.32	43260.12
501.49	43297.57
501.67	43522.26
501.84	43262.46
502.02	43875.68
502.20	43934.20
502.37	44629.34
502.55	44205.70
502.72	44126.12
502.90	44135.48
503.07	44718.28
503.25	44683.17
503.43	44474.86
503.60	44865.73
503.78	45251.92
503.95	45361.92
504.13	45088.08
504.30	45331.50
504.48	44715.93
504.65	45689.60
504.83	45642.79
505.01	46129.62
505.18	46246.65
505.36	46429.21
505.53	46476.02
505.71	46483.04
505.88	46447.93
506.06	46263.03
506.23	47283.50
506.41	46864.55
506.58	47185.20
506.76	47061.15
506.93	47337.33
507.11	47363.08
507.28	47414.57
507.46	47416.91
507.63	47540.96
507.81	48165.88
507.98	47882.68
508.16	48135.46
508.33	47885.02
508.50	48079.28
508.68	48341.42
508.85	48535.69
509.03	48591.86
509.20	48982.73
509.38	49153.59
509.55	49329.13
509.73	49043.59
509.90	49109.12
510.08	49214.44
510.25	49242.53
510.42	49572.55
510.60	49771.49
510.77	49986.82
510.95	49949.37
511.12	49762.13
511.30	49666.17
511.47	50068.74
511.64	50337.90
511.82	50768.56
511.99	50265.34
512.17	50590.68
512.34	50738.13
512.51	50852.82
512.69	50955.80
512.86	50948.78
513.04	51199.22
513.21	51468.38
513.38	51533.92
513.56	51559.66
513.73	51103.26
513.90	51351.35
514.08	51433.27
514.25	51580.73
514.43	51648.60
514.60	51683.71
514.77	52135.43
514.95	52058.20
515.12	51950.53
515.29	52137.77
515.47	52067.56
515.64	52397.57
515.81	52327.36
515.99	52629.29
516.16	52818.87
516.33	52982.71
516.51	52959.30
516.68	52458.43
516.85	52687.80
517.03	52994.41
517.20	53099.73
517.37	53034.20
517.54	53247.19
517.72	53378.26
517.89	53148.88
518.06	53123.14
518.24	53097.39
518.41	53249.53
518.58	53652.10
518.75	53635.72
518.93	53829.98
519.10	53766.79
519.27	53975.09
519.45	53783.17
519.62	53806.58
519.79	53605.29
519.96	54220.85
520.14	54436.18
520.31	54096.80
520.48	54595.34
520.65	54206.81
520.83	54578.95
521.00	54316.81
521.17	54380.01
521.34	54443.20
521.52	54808.32
521.69	54808.32
521.86	55089.19
522.03	54948.76
522.20	54883.22
522.38	54955.78
522.55	54714.70
522.72	54967.48
522.89	55250.69
523.07	55416.86
523.24	55360.69
523.41	55473.04
523.58	55007.27
523.75	55634.53
523.92	55606.45
524.10	55360.69
524.27	55903.70
524.44	55880.29
524.61	55962.21
524.78	55674.32
524.96	55819.44
525.13	55877.95
525.30	56076.90
525.47	56140.09
525.64	56109.66
525.81	56076.90
525.98	56332.01
526.16	56392.87
526.33	56306.27
526.50	56561.39
526.67	56191.58
526.84	56350.74
527.01	56332.01
527.18	56488.83
527.36	56575.43
527.53	57057.58
527.70	56928.85
527.87	56956.94
528.04	56846.93
528.21	56921.83
528.38	56825.87
528.55	57120.77
528.72	56928.85
528.89	56844.59
529.07	57010.77
529.24	57116.09
529.41	57155.88
529.58	57298.65
529.75	57146.52
529.92	57228.44
530.09	57144.18
530.26	57387.60
530.43	57504.62
530.60	57160.56
530.77	57312.70
530.94	57626.33
531.11	57574.84
531.28	57635.69
531.46	57513.98
531.63	57523.35
531.80	57808.89
531.97	57949.32
532.14	57836.98
532.31	58028.90
532.48	58049.97
532.65	57991.45
532.82	57689.52
532.99	58031.24
533.16	57970.39
533.33	58064.01
533.50	58356.58
533.67	58312.11
533.84	57958.69
534.01	58155.29
534.18	58122.52
534.35	58527.44
534.52	58419.77
534.69	58607.01
534.86	58616.38
535.03	58401.05
535.20	58721.70
535.37	58632.76
535.54	58522.76
535.71	58365.94
535.88	58614.04
536.05	58852.77
536.22	58733.40
536.38	58951.07
536.55	59100.87
536.72	59054.06
536.89	58731.06
537.06	59035.33
537.23	58721.70
537.40	59133.63
537.57	59112.57
537.74	59180.45
537.91	59271.73
538.08	59203.85
538.25	59072.78
538.42	59164.06
538.59	59430.88
538.75	59196.83
538.92	59007.25
539.09	59554.93
539.26	59351.30
539.43	59536.21
539.60	59758.56
539.77	59571.32
539.94	59693.02
540.11	59533.87
540.28	59728.13
540.44	59721.11
540.61	59632.17
540.78	59561.95
540.95	59915.37
541.12	59870.90
541.29	60053.47
541.46	60163.47
541.62	59922.40
541.79	60023.04
541.96	59700.04
542.13	59807.71
542.30	60044.10
542.47	60126.02
542.63	60151.77
542.80	60392.84
542.97	60301.56
543.14	60502.85
543.31	60240.71
543.48	60069.85
543.64	60437.31
543.81	60556.68
543.98	60708.82
544.15	60456.04
544.32	60753.29
544.48	60781.37
544.65	60619.88
544.82	60584.77
544.99	60151.77
545.16	60636.26
545.32	60526.25
545.49	60977.98
545.66	61279.91
545.83	61162.88
546.00	61214.37
546.16	61034.15
546.33	60842.23
546.50	60481.78
546.67	60912.44
546.83	60584.77
547.00	60694.77
547.17	60882.02
547.34	60954.57
547.50	61125.43
547.67	61193.31
547.84	61172.24
548.00	61148.84
548.17	61151.18
548.34	61151.18
548.51	61319.70
548.67	61329.06
548.84	61254.16
549.01	61235.44
549.18	61052.87
549.34	61291.61
549.51	61073.94
549.68	61282.25
549.84	61209.69
550.01	61200.33
550.18	61272.88
550.34	61249.48
550.51	61605.24
550.68	61448.42
550.84	61401.61
551.01	61563.11
551.18	61584.18
551.34	61265.86
551.51	61289.27
551.68	61652.05
551.84	61539.71
552.01	61403.95
552.18	61771.42
552.34	61630.99
552.51	61616.94
552.68	61607.58
552.84	61630.99
553.01	61876.74
553.18	61633.33
553.34	61839.29
553.51	61815.89
553.67	61904.83
553.84	62115.48
554.01	62059.30
554.17	62101.43
554.34	61841.63
554.51	62035.90
554.67	62047.60
554.84	62173.99
555.00	61982.07
555.17	62063.99
555.33	61984.41
555.50	62059.30
555.67	62047.60
555.83	62213.78
556.00	62162.29
556.16	62192.72
556.33	62115.48
556.50	62176.33
556.66	62157.61
556.83	62337.83
556.99	62431.45
557.16	62363.57
557.32	62351.87
557.49	62475.92
557.65	62262.93
557.82	62284.00
557.98	62368.26
558.15	62330.81
558.32	62574.22
558.48	62480.60
558.65	62759.12
558.81	62532.09
558.98	62403.36
559.14	62609.33
559.31	62508.69
559.47	62405.70
559.64	62548.48
559.80	62546.14
559.97	62759.12
560.13	62548.48
560.30	62534.43
560.46	62761.47
560.63	62803.59
560.79	62740.40
560.96	62855.09
561.12	62702.95
561.29	62733.38
561.45	62714.65
561.61	62906.58
561.78	62843.38
561.94	62955.73
562.11	62801.25
562.27	62618.69
562.44	62805.94
562.60	62752.10
562.77	62852.75
562.93	62735.72
563.10	62981.48
563.26	62789.55
563.42	62983.82
563.59	62939.35
563.75	63072.76
563.92	62967.43
564.08	62841.04
564.24	62892.54
564.41	63042.33
564.57	62841.04
564.74	62993.18
564.90	63016.58
565.07	63021.26
565.23	63145.31
565.39	62946.37
565.56	63103.18
565.72	63159.36
565.88	63304.47
566.05	63154.68
566.21	62929.98
566.38	62901.90
566.54	63093.82
566.70	63332.56
566.87	63526.82
567.03	63297.45
567.19	63365.32
567.36	63147.65
567.52	63058.71
567.68	63285.75
567.85	63061.05
568.01	63217.87
568.17	63292.77
568.34	63414.47
568.50	63414.47
568.66	63458.94
568.83	63327.87
568.99	63330.22
569.15	63255.32
569.32	63316.17
569.48	63220.21
569.64	63309.15
569.81	63355.96
569.97	63299.79
570.13	63437.88
570.30	63107.86
570.46	63550.23
570.62	63582.99
570.78	63229.57
570.95	63306.81
571.11	63449.58
571.27	63236.59
571.43	63140.63
571.60	63409.79
571.76	63437.88
571.92	63529.16
572.09	63496.39
572.25	63529.16
572.41	63339.58
572.57	63536.18
572.74	63559.59
572.90	63379.37
573.06	63557.25
573.22	63611.08
573.38	63381.71
573.55	63484.69
573.71	63896.62
573.87	63678.96
574.03	63341.92
574.20	63646.19
574.36	63386.39
574.52	63454.26
574.68	63487.03
574.84	63547.89
575.01	63629.80
575.17	63702.36
575.33	63590.01
575.49	63676.61
575.65	63788.96
575.82	63803.00
575.98	63578.31
576.14	63674.27
576.30	63678.96
576.46	63693.00
576.62	63538.52
576.79	63604.06
576.95	63327.87
577.11	63688.32
577.27	63868.54
577.43	63714.06
577.59	63629.80
577.75	63772.58
577.92	63463.63
578.08	63608.74
578.24	63634.48
578.40	63781.94
578.56	63685.98
578.72	63758.53
578.88	63957.48
579.04	63980.88
579.21	63795.98
579.37	63969.18
579.53	63763.21
579.69	63620.44
579.85	63554.91
580.01	63561.93
580.17	63632.14
580.33	63866.20
580.49	63718.74
580.65	63905.99
580.82	63868.54
580.98	63756.19
581.14	63709.38
581.30	63840.45
581.46	63632.14
581.62	63716.40
581.78	63634.48
581.94	63927.05
582.10	63805.34
582.26	63828.75
582.42	63931.73
582.58	63920.03
582.74	63943.44
582.90	63957.48
583.06	63945.78
583.22	63793.64
583.38	63788.96
583.54	63791.30
583.70	63730.45
583.86	63606.40
584.02	63770.24
584.18	64051.10
584.34	63969.18
584.50	63929.39
584.66	63920.03
584.82	63868.54
584.98	63976.20
585.14	63849.81
585.30	63735.13
585.46	63819.39
585.62	63760.87
585.78	64053.44
585.94	63746.83
586.10	63772.58
586.26	63866.20
586.42	63973.86
586.58	64072.17
586.74	63931.73
586.90	64018.33
587.06	63824.07
587.22	64051.10
587.38	63828.75
587.54	63971.52
587.70	64011.31
587.86	64065.14
588.02	64053.44
588.18	64111.95
588.34	64034.72
588.49	64083.87
588.65	63973.86
