SpectraSuite Data File
++++++++++++++++++++++++++++++++++++
Date: Fri Oct 04 11:39:14 GMT-05:00 2013
User: price-jones
Dark Spectrum Present: No
Reference Spectrum Present: No
Number of Sampled Component Spectra: 1
Spectrometers: USB2+H05261
Integration Time (usec): 100000 (USB2+H05261)
Spectra Averaged: 1 (USB2+H05261)
Boxcar Smoothing: 0 (USB2+H05261)
Correct for Electrical Dark: No (USB2+H05261)
Strobe/Lamp Enabled: No (USB2+H05261)
Correct for Detector Non-linearity: No (USB2+H05261)
Correct for Stray Light: No (USB2+H05261)
Number of Pixels in Processed Spectrum: 2048
>>>>>Begin Processed Spectral Data<<<<<
365.73	56.17
365.92	56.17
366.12	56.17
366.32	0.00
366.52	0.00
366.72	0.00
366.91	7.02
367.11	0.00
367.31	0.00
367.51	0.00
367.70	0.00
367.90	0.00
368.10	0.00
368.30	0.00
368.49	0.00
368.69	0.00
368.89	0.00
369.09	0.00
369.28	0.00
369.48	0.00
369.68	0.00
369.87	67.88
370.07	32.77
370.27	86.60
370.47	42.13
370.66	163.84
370.86	187.24
371.06	234.05
371.25	215.33
371.45	229.37
371.65	196.60
371.84	215.33
372.04	180.22
372.24	297.25
372.44	266.82
372.63	287.89
372.83	318.31
373.03	241.08
373.22	285.55
373.42	332.36
373.62	248.10
373.81	280.86
374.01	367.46
374.21	325.33
374.40	273.84
374.60	344.06
374.79	292.57
374.99	266.82
375.19	393.21
375.38	337.04
375.58	311.29
375.78	306.61
375.97	353.42
376.17	346.40
376.37	369.80
376.56	290.23
376.76	283.20
376.95	283.20
377.15	369.80
377.35	315.97
377.54	322.99
377.74	290.23
377.93	355.76
378.13	308.95
378.33	315.97
378.52	339.38
378.72	376.83
378.91	360.44
379.11	337.04
379.31	388.53
379.50	418.96
379.70	409.59
379.89	465.77
380.09	292.57
380.28	344.06
380.48	362.78
380.68	332.36
380.87	306.61
381.07	381.51
381.26	379.17
381.46	484.49
381.65	369.80
381.85	315.97
382.04	390.87
382.24	400.23
382.43	241.08
382.63	337.04
382.83	322.99
383.02	358.10
383.22	479.81
383.41	322.99
383.61	414.27
383.80	421.30
384.00	292.57
384.19	414.27
384.39	414.27
384.58	461.09
384.78	397.89
384.97	484.49
385.17	374.49
385.36	383.85
385.56	367.46
385.75	442.36
385.95	447.04
386.14	425.98
386.34	435.34
386.53	360.44
386.72	395.55
386.92	498.53
387.11	550.03
387.31	430.66
387.50	358.10
387.70	484.49
387.89	376.83
388.09	390.87
388.28	397.89
388.48	409.59
388.67	442.36
388.86	456.40
389.06	376.83
389.25	440.02
389.45	449.38
389.64	503.22
389.84	428.32
390.03	512.58
390.22	437.68
390.42	425.98
390.61	491.51
390.81	442.36
391.00	470.45
391.19	524.28
391.39	510.24
391.58	500.87
391.78	409.59
391.97	528.96
392.16	524.28
392.36	538.32
392.55	510.24
392.75	521.94
392.94	521.94
393.13	540.66
393.33	418.96
393.52	517.26
393.71	545.34
393.91	603.86
394.10	538.32
394.29	435.34
394.49	613.22
394.68	514.92
394.88	610.88
395.07	641.31
395.26	543.00
395.46	564.07
395.65	547.69
395.84	638.97
396.04	571.09
396.23	617.90
396.42	580.45
396.62	521.94
396.81	683.44
397.00	585.13
397.19	631.94
397.39	620.24
397.58	645.99
397.77	662.37
397.97	674.07
398.16	624.92
398.35	720.88
398.55	638.97
398.74	713.86
398.93	720.88
399.12	657.69
399.32	692.80
399.51	664.71
399.70	664.71
399.90	667.05
400.09	748.97
400.28	706.84
400.47	772.38
400.67	812.17
400.86	723.23
401.05	734.93
401.24	774.72
401.44	732.59
401.63	786.42
401.82	770.04
402.01	683.44
402.21	826.21
402.40	781.74
402.59	697.48
402.78	823.87
402.97	746.63
403.17	763.01
403.36	919.83
403.55	784.08
403.74	828.55
403.93	856.64
404.13	929.19
404.32	856.64
404.51	889.40
404.70	903.45
404.89	910.47
405.09	959.62
405.28	943.24
405.47	891.74
405.66	1013.45
405.85	971.32
406.05	877.70
406.24	959.62
406.43	976.00
406.62	990.05
406.81	1083.67
407.00	987.71
407.20	954.94
407.39	952.60
407.58	1076.65
407.77	1100.05
407.96	1006.43
408.15	1018.13
408.34	1029.84
408.54	1109.41
408.73	1006.43
408.92	1029.84
409.11	1083.67
409.30	1086.01
409.49	1104.73
409.68	1151.54
409.87	1093.03
410.07	1245.16
410.26	1100.05
410.45	1109.41
410.64	1060.26
410.83	1198.35
411.02	1135.16
411.21	1242.82
411.40	1235.80
411.59	1184.31
411.78	1233.46
411.98	1228.78
412.17	1306.02
412.36	1306.02
412.55	1299.00
412.74	1301.34
412.93	1320.06
413.12	1411.34
413.31	1284.95
413.50	1282.61
413.69	1437.09
413.88	1432.41
414.07	1392.62
414.26	1434.75
414.45	1404.32
414.64	1458.15
414.83	1476.88
415.02	1444.11
415.22	1533.05
415.41	1497.94
415.60	1589.22
415.79	1558.80
415.98	1631.35
416.17	1584.54
416.36	1526.03
416.55	1537.73
416.74	1584.54
416.93	1619.65
417.12	1687.53
417.31	1710.93
417.50	1668.80
417.69	1750.72
417.88	1764.76
418.07	1652.42
418.26	1664.12
418.45	1706.25
418.64	1790.51
418.83	1689.87
419.02	1750.72
419.21	1788.17
419.39	1769.44
419.58	1888.81
419.77	1736.68
419.96	1874.77
420.15	1734.34
420.34	1816.26
420.53	1797.53
420.72	1820.94
420.91	1846.68
421.10	1844.34
421.29	1928.60
421.48	1797.53
421.67	2080.74
421.86	1921.58
422.05	1832.64
422.24	1980.09
422.43	1991.80
422.61	1895.83
422.80	1944.99
422.99	1935.62
423.18	1923.92
423.37	2050.31
423.56	1991.80
423.75	2057.33
423.94	2008.18
424.13	1888.81
424.32	1923.92
424.50	2001.16
424.69	2050.31
424.88	1954.35
425.07	2026.90
425.26	1961.37
425.45	1930.94
425.64	2097.12
425.83	2015.20
426.01	2015.20
426.20	1952.01
426.39	2071.37
426.58	2059.67
426.77	1858.39
426.96	2134.57
427.15	2092.44
427.33	2097.12
427.52	2052.65
427.71	2129.89
427.90	2148.61
428.09	2076.06
428.28	2160.31
428.46	2115.84
428.65	2167.34
428.84	2204.78
429.03	2174.36
429.22	2165.00
429.40	2169.68
429.59	2223.51
429.78	2172.02
429.97	2188.40
430.16	2115.84
430.34	2134.57
430.53	2242.23
430.72	2305.43
430.91	2284.36
431.10	2221.17
431.28	2342.88
431.47	2326.49
431.66	2403.73
431.85	2324.15
432.03	2457.56
432.22	2476.29
432.41	2427.14
432.60	2403.73
432.79	2303.09
432.97	2487.99
433.16	2410.75
433.35	2410.75
433.54	2387.35
433.72	2548.84
433.91	2492.67
434.10	2410.75
434.28	2509.05
434.47	2544.16
434.66	2616.72
434.85	2443.52
435.03	2612.04
435.22	2733.75
435.41	2874.18
435.59	2888.22
435.78	2775.88
435.97	2715.02
436.16	2665.87
436.34	2562.89
436.53	2569.91
436.72	2663.53
436.90	2581.61
437.09	2597.99
437.28	2747.79
437.46	2626.08
437.65	2651.83
437.84	2810.98
438.02	2747.79
438.21	2843.75
438.40	2729.06
438.58	2813.32
438.77	2862.48
438.96	2771.19
439.14	2836.73
439.33	2761.83
439.52	2967.80
439.70	2920.99
439.89	2899.92
440.08	2911.63
440.26	2923.33
440.45	3094.19
440.63	2895.24
440.82	3052.06
441.01	3094.19
441.19	3073.12
441.38	3183.13
441.57	3007.59
441.75	3119.93
441.94	3218.24
442.12	3129.30
442.31	3283.77
442.50	3243.98
442.68	3229.94
442.87	3211.22
443.05	3243.98
443.24	3332.92
443.43	3309.52
443.61	3272.07
443.80	3332.92
443.98	3229.94
444.17	3155.04
444.35	3300.16
444.54	3248.66
444.73	3482.72
444.91	3396.12
445.10	3424.20
445.28	3272.07
445.47	3372.71
445.65	3318.88
445.84	3384.41
446.02	3433.57
446.21	3431.23
446.39	3389.10
446.58	3438.25
446.77	3316.54
446.95	3279.09
447.14	3428.88
447.32	3466.33
447.51	3295.47
447.69	3468.67
447.88	3428.88
448.06	3433.57
448.25	3412.50
448.43	3466.33
448.62	3466.33
448.80	3426.54
448.99	3538.89
449.17	3468.67
449.36	3410.16
449.54	3534.21
449.73	3585.70
449.91	3618.47
450.10	3733.15
450.28	3639.53
450.46	3681.66
450.65	3597.40
450.83	3684.00
451.02	3611.45
451.20	3602.08
451.39	3740.18
451.57	3686.34
451.76	3688.68
451.94	3721.45
452.13	3840.82
452.31	3772.94
452.49	3684.00
452.68	3756.56
452.86	3684.00
453.05	3808.05
453.23	3709.75
453.42	3700.39
453.60	3761.24
453.78	4002.32
453.97	3749.54
454.15	3810.39
454.34	3777.62
454.52	3904.01
454.70	3758.90
454.89	3861.88
455.07	3808.05
455.26	3911.04
455.44	4021.04
455.62	3864.22
455.81	3880.61
455.99	3943.80
456.17	4088.92
456.36	4140.41
456.54	4102.96
456.73	4159.13
456.91	4142.75
457.09	4231.69
457.28	4271.48
457.46	4053.81
457.64	4194.24
457.83	4142.75
458.01	4168.49
458.19	4210.62
458.38	4292.54
458.56	4299.56
458.74	4234.03
458.93	4154.45
459.11	4372.12
459.29	4311.27
459.48	4236.37
459.66	4203.60
459.84	4447.02
460.03	4416.59
460.21	4440.00
460.39	4489.15
460.57	4297.22
460.76	4418.93
460.94	4526.60
461.12	4449.36
461.31	4407.23
461.49	4365.10
461.67	4369.78
461.85	4510.21
462.04	4411.91
462.22	4765.33
462.40	4596.81
462.59	4545.32
462.77	4559.36
462.95	4610.86
463.13	4512.55
463.32	4685.75
463.50	4608.51
463.68	4678.73
463.86	4737.24
464.05	4662.35
464.23	4652.98
464.41	4760.65
464.59	4643.62
464.78	4669.37
464.96	4557.02
465.14	4667.03
465.32	4753.63
465.50	4873.00
465.69	4863.63
465.87	4807.46
466.05	4894.06
466.23	4823.84
466.41	4875.34
466.60	4915.12
466.78	4734.90
466.96	4880.02
467.14	4961.94
467.32	4814.48
467.51	5043.85
467.69	4723.20
467.87	4938.53
468.05	4826.18
468.23	4931.51
468.41	5069.60
468.60	5011.09
468.78	4980.66
468.96	4952.57
469.14	4940.87
469.32	5093.01
469.50	5043.85
469.69	5179.61
469.87	5217.05
470.05	5205.35
470.23	5142.16
470.41	5121.09
470.59	5219.39
470.77	5266.21
470.95	5050.88
471.14	5242.80
471.32	5167.90
471.50	5313.02
471.68	5479.19
471.86	5430.04
472.04	5404.30
472.22	5362.17
472.40	5444.09
472.58	5446.43
472.77	5586.86
472.95	5694.52
473.13	5753.04
473.31	5591.54
473.49	5593.88
473.67	5565.79
473.85	5769.42
474.03	5689.84
474.21	5699.20
474.39	5872.40
474.57	6003.47
474.75	5968.37
474.93	5853.68
475.12	5830.27
475.30	5895.81
475.48	5956.66
475.66	5874.74
475.84	6008.16
476.02	6176.67
476.20	5968.37
476.38	6104.12
476.56	6380.30
476.74	6279.66
476.92	6258.59
477.10	6122.84
477.28	6464.56
477.46	6359.24
477.64	6359.24
477.82	6586.27
478.00	6565.20
478.18	6581.59
478.36	6593.29
478.54	6609.67
478.72	6715.00
478.90	6668.19
479.08	6736.06
479.26	6778.19
479.44	6988.84
479.62	6920.96
479.80	6911.60
479.98	7045.01
480.16	7133.95
480.34	7063.74
480.52	7274.38
480.70	7239.28
480.88	7197.15
481.06	7295.45
481.24	7445.24
481.41	7501.42
481.59	7510.78
481.77	7571.63
481.95	7707.38
482.13	7793.98
482.31	7623.12
482.49	7763.56
482.67	7934.42
482.85	8088.89
483.03	8013.99
483.21	8079.53
483.39	8166.13
483.57	8107.62
483.74	8224.64
483.92	8341.67
484.10	8229.32
484.28	8411.89
484.46	8376.78
484.64	8592.11
484.82	8500.83
485.00	8662.32
485.18	8851.91
485.35	9008.72
485.53	9085.96
485.71	8800.41
485.89	8816.80
486.07	9095.32
486.25	9100.00
486.43	9076.60
486.61	9373.85
486.78	9399.59
486.96	9434.70
487.14	9603.22
487.32	9547.05
487.50	9736.63
487.68	9635.99
487.85	9741.31
488.03	9717.90
488.21	10083.03
488.39	9923.87
488.57	10174.31
488.75	10115.80
488.92	10487.94
489.10	10263.25
489.28	10452.83
489.46	10338.15
489.64	10314.74
489.81	10733.70
489.99	10614.33
490.17	10794.55
490.35	10920.94
490.53	10778.17
490.70	10977.11
490.88	10916.26
491.06	10953.71
491.24	11129.25
491.41	11147.97
491.59	11124.57
491.77	11229.89
491.95	11379.68
492.13	11545.86
492.30	11538.84
492.48	11602.04
492.66	11686.29
492.84	11559.91
493.01	12004.61
493.19	11885.24
493.37	12044.40
493.54	12081.85
493.72	12301.86
493.90	12123.98
494.08	12336.96
494.25	12208.23
494.43	12432.93
494.61	12463.35
494.79	12571.02
494.96	12528.89
495.14	12631.87
495.32	12599.10
495.49	12802.73
495.67	12868.27
495.85	12917.42
496.02	12973.59
496.20	13226.37
496.38	12952.52
496.55	13027.42
496.73	13392.55
496.91	13151.47
497.09	13207.64
497.26	13238.07
497.44	13317.65
497.62	13551.70
497.79	13827.88
497.97	13474.46
498.14	13926.19
498.32	13837.25
498.50	14167.26
498.67	13851.29
498.85	14019.81
499.03	13989.38
499.20	14185.99
499.38	14195.35
499.56	14143.86
499.73	14483.24
499.91	14155.56
500.08	14525.36
500.26	14249.18
500.44	14427.06
500.61	14560.47
500.79	14457.49
500.97	14820.27
501.14	14843.68
501.32	14871.76
501.49	14855.38
501.67	14574.52
501.84	14806.23
502.02	14953.68
502.20	15044.96
502.37	15372.64
502.55	15157.31
502.72	15087.09
502.90	15405.41
503.07	15145.61
503.25	15295.40
503.43	15239.23
503.60	15641.80
503.78	15279.02
503.95	15552.86
504.13	15522.43
504.30	15637.12
504.48	15590.31
504.65	15697.97
504.83	15866.49
505.01	15737.76
505.18	15971.82
505.36	16283.11
505.53	15908.62
505.71	15932.03
505.88	16411.84
506.06	16065.44
506.23	15955.43
506.41	16147.36
506.58	16152.04
506.76	16491.41
506.93	16149.70
507.11	16290.13
507.28	16362.69
507.46	16362.69
507.63	16521.84
507.81	16671.64
507.98	16659.93
508.16	16563.97
508.33	16762.92
508.50	16842.50
508.68	16802.71
508.85	16901.01
509.03	17090.59
509.20	17238.05
509.38	17172.51
509.55	17432.31
509.73	17434.65
509.90	17268.47
510.08	17240.39
510.25	17266.13
510.42	17448.69
510.60	17357.41
510.77	17497.84
510.95	17701.47
511.12	17659.34
511.30	17591.47
511.47	17715.51
511.64	17752.96
511.82	18040.85
511.99	17734.24
512.17	17886.37
512.34	17678.07
512.51	18075.96
512.69	17977.65
512.86	18183.62
513.04	18178.94
513.21	18185.96
513.38	18677.48
513.56	18260.86
513.73	18230.43
513.90	18338.10
514.08	18298.31
514.25	18237.45
514.43	18457.46
514.60	18281.92
514.77	18794.50
514.95	18834.29
515.12	18644.71
515.29	18738.33
515.47	18625.98
515.64	18967.70
515.81	19019.19
515.99	18920.89
516.16	19101.11
516.33	19131.54
516.51	19030.90
516.68	19047.28
516.85	18944.30
517.03	19204.10
517.20	19548.15
517.37	19508.37
517.54	19049.62
517.72	19274.31
517.89	19381.98
518.06	18984.09
518.24	19138.56
518.41	19337.51
518.58	19733.06
518.75	19403.04
518.93	19840.72
519.10	19674.54
519.27	20046.69
519.45	19693.27
519.62	19714.33
519.79	19686.25
519.96	19847.74
520.14	20018.60
520.31	19875.83
520.48	20140.31
520.65	19936.68
520.83	20215.21
521.00	20348.62
521.17	19906.26
521.34	20318.19
521.52	20400.11
521.69	20322.87
521.86	20730.12
522.03	20917.37
522.20	20709.06
522.38	20610.76
522.55	20882.26
522.72	20226.91
522.89	20835.45
523.07	20582.67
523.24	20559.27
523.41	20833.11
523.58	20577.99
523.75	20716.08
523.92	21010.99
524.10	20952.48
524.27	20858.85
524.44	21223.98
524.61	21151.42
524.78	21188.87
524.96	21305.90
525.13	21460.37
525.30	20889.28
525.47	21326.96
525.64	21392.50
525.81	21266.11
525.98	21832.52
526.16	21373.77
526.33	21369.09
526.50	21193.55
526.67	21451.01
526.84	21348.03
527.01	21458.03
527.18	21638.25
527.36	21813.79
527.53	21905.07
527.70	21766.98
527.87	21687.40
528.04	22101.68
528.21	21965.93
528.38	22139.13
528.55	22059.55
528.72	22045.51
528.89	22141.47
529.07	21984.65
529.24	21703.79
529.41	22293.60
529.58	22050.19
529.75	22108.70
529.92	22267.86
530.09	21909.75
530.26	22167.21
530.43	22487.87
530.60	22263.18
530.77	22462.12
530.94	22455.10
531.11	22471.48
531.28	22429.35
531.46	22717.24
531.63	22602.55
531.80	22574.47
531.97	22703.20
532.14	22925.55
532.31	22843.63
532.48	22600.21
532.65	22831.93
532.82	22649.36
532.99	22459.78
533.16	22881.08
533.33	23080.02
533.50	23089.38
533.67	23094.07
533.84	23040.23
534.01	23199.39
534.18	22967.68
534.35	23274.29
534.52	23051.94
534.69	23435.78
534.86	23283.65
535.03	23302.37
535.20	23070.66
535.37	23115.13
535.54	23665.16
535.71	23297.69
535.88	23445.15
536.05	23578.56
536.22	23344.50
536.38	23683.88
536.55	23742.39
536.72	23459.19
536.89	23468.55
537.06	23620.69
537.23	23733.03
537.40	23763.46
537.57	23681.54
537.74	23569.19
537.91	23894.53
538.08	23716.65
538.25	24060.71
538.42	23894.53
538.59	24095.82
538.75	23779.84
538.92	23908.57
539.09	23899.21
539.26	24065.39
539.43	23969.43
539.60	24072.41
539.77	24053.69
539.94	24634.14
540.11	24060.71
540.28	24491.37
540.44	24245.61
540.61	24034.96
540.78	24446.90
540.95	24325.19
541.12	24657.54
541.29	24718.40
541.46	24954.79
541.62	24563.92
541.79	24425.83
541.96	24790.95
542.13	24938.41
542.30	24702.01
542.47	24945.43
542.63	24968.84
542.80	24884.58
542.97	25209.91
543.14	24884.58
543.31	25207.57
543.48	25167.78
543.64	25233.32
543.81	25619.50
543.98	25390.13
544.15	25259.06
544.32	25284.81
544.48	25420.56
544.65	25207.57
544.82	24961.81
544.99	25062.46
545.16	25469.71
545.32	24982.88
545.49	25652.27
545.66	26017.40
545.83	26405.92
546.00	26096.97
546.16	26054.84
546.33	25703.76
546.50	24980.54
546.67	25542.27
546.83	25340.98
547.00	25523.54
547.17	25439.28
547.34	25546.95
547.50	25397.15
547.67	25579.71
547.84	25891.01
548.00	25771.64
548.17	26005.69
548.34	25736.53
548.51	26059.52
548.67	26401.24
548.84	25986.97
549.01	25867.60
549.18	25589.08
549.34	25818.45
549.51	26003.35
549.68	25933.14
549.84	25883.98
550.01	25926.11
550.18	25532.90
550.34	26251.45
550.51	25930.80
550.68	26197.62
550.84	25872.28
551.01	25668.66
551.18	25715.47
551.34	25827.81
551.51	25785.68
551.68	25977.61
551.84	26094.63
552.01	26155.49
552.18	26480.82
552.34	26195.28
552.51	26253.79
552.68	26209.32
552.84	26253.79
553.01	26476.14
553.18	26487.84
553.34	26319.32
553.51	26382.52
553.67	26319.32
553.84	26614.23
554.01	26511.25
554.17	26522.95
554.34	26515.93
554.51	26244.43
554.67	26881.05
554.84	26504.23
555.00	26677.43
555.17	26366.13
555.33	26382.52
555.50	26623.59
555.67	26422.31
555.83	26335.71
556.00	26583.80
556.16	27054.25
556.33	26995.74
556.50	26394.22
556.66	26616.57
556.83	26513.59
556.99	26965.31
557.16	26852.97
557.32	26953.61
557.49	26630.62
557.65	26321.66
557.82	26579.12
557.98	26698.49
558.15	26661.04
558.32	26724.24
558.48	26974.67
558.65	27072.98
558.81	26869.35
558.98	26731.26
559.14	26981.70
559.31	26778.07
559.47	26911.48
559.64	27342.14
559.80	27267.24
559.97	26962.97
560.13	26735.94
560.30	27110.43
560.46	26991.06
560.63	27281.28
560.79	27384.27
560.96	27175.96
561.12	27201.71
561.29	26792.11
561.45	26991.06
561.61	27103.40
561.78	27309.37
561.94	26897.44
562.11	27129.15
562.27	27119.79
562.44	27072.98
562.60	26927.86
562.77	27110.43
562.93	27009.78
563.10	27620.66
563.26	27131.49
563.42	27339.80
563.59	27339.80
563.75	27150.21
563.92	27608.96
564.08	27274.26
564.24	27218.09
564.41	27527.04
564.57	27445.12
564.74	27089.36
564.90	27407.67
565.07	27452.14
565.23	27711.94
565.39	27590.24
565.56	27339.80
565.72	27538.74
565.88	27133.83
566.05	27372.57
566.21	27552.79
566.38	27487.25
566.54	27271.92
566.70	27447.46
566.87	27744.71
567.03	27669.81
567.19	27585.55
567.36	27302.35
567.52	27285.97
567.68	27536.40
567.85	27166.60
568.01	27393.63
568.17	27672.15
568.34	27372.57
568.50	27718.96
568.66	27597.26
568.83	27676.83
568.99	27583.21
569.15	27672.15
569.32	27611.30
569.48	27569.17
569.64	27573.85
569.81	27718.96
569.97	27585.55
570.13	27924.93
570.30	27646.41
570.46	27449.80
570.62	27480.23
570.78	27491.93
570.95	27768.12
571.11	27754.07
571.27	27220.43
571.43	27527.04
571.60	27974.08
571.76	27716.62
571.92	28013.87
572.09	27747.05
572.25	27761.09
572.41	27953.02
572.57	27711.94
572.74	27868.76
572.90	27756.41
573.06	27452.14
573.22	27850.03
573.38	27992.81
573.55	27538.74
573.71	27913.23
573.87	28379.00
574.03	27527.04
574.20	27882.80
574.36	27873.44
574.52	28158.99
574.68	27985.79
574.84	28114.52
575.01	27985.79
575.17	27962.38
575.33	27763.43
575.49	27983.44
575.65	28180.05
575.82	27957.70
575.98	27988.13
576.14	27618.32
576.30	28041.96
576.46	28051.32
576.62	28259.63
576.79	28044.30
576.95	27852.38
577.11	27960.04
577.27	28297.08
577.43	27934.29
577.59	27917.91
577.75	27894.50
577.92	27948.34
578.08	27784.50
578.24	27833.65
578.40	28023.23
578.56	28130.90
578.72	28128.56
578.88	28105.15
579.04	28369.63
579.21	28151.96
579.37	28379.00
579.53	28091.11
579.69	28034.94
579.85	27644.07
580.01	27597.26
580.17	27665.13
580.33	27957.70
580.49	28280.69
580.65	28407.08
580.82	27894.50
580.98	27929.61
581.14	28161.33
581.30	28154.30
581.46	27826.63
581.62	27782.16
581.78	27821.95
581.94	27873.44
582.10	27936.63
582.26	28236.22
582.42	27758.75
582.58	28158.99
582.74	27908.55
582.90	27997.49
583.06	28180.05
583.22	28065.36
583.38	28334.53
583.54	27878.12
583.70	28486.66
583.86	28018.55
584.02	28299.42
584.18	28393.04
584.34	27899.19
584.50	28290.06
584.66	28133.24
584.82	28166.01
584.98	28292.40
585.14	28135.58
585.30	28402.40
585.46	28163.67
585.62	27906.21
585.78	28060.68
585.94	27894.50
586.10	28481.98
586.26	28357.93
586.42	28615.39
586.58	28177.71
586.74	28304.10
586.90	28013.87
587.06	27978.76
587.22	28325.16
587.38	27789.18
587.54	28587.30
587.70	28589.64
587.86	28182.39
588.02	28123.88
588.18	28500.70
588.34	28238.56
588.49	28526.45
588.65	28381.34
588.81	28056.00
588.97	28301.76
589.13	27892.16
589.29	27964.72
589.45	28294.74
589.61	28631.77
589.77	28603.69
589.93	28575.60
590.08	28631.77
590.24	28554.54
590.40	28453.89
590.56	28458.57
590.72	28264.31
590.88	28311.12
591.04	28290.06
591.20	28563.90
591.35	28802.63
591.51	29055.41
591.67	28709.01
591.83	28554.54
591.99	28219.84
