SpectraSuite Data File
++++++++++++++++++++++++++++++++++++
Date: Fri Oct 04 11:39:48 GMT-05:00 2013
User: price-jones
Dark Spectrum Present: No
Reference Spectrum Present: No
Number of Sampled Component Spectra: 1
Spectrometers: USB2+H05261
Integration Time (usec): 100000 (USB2+H05261)
Spectra Averaged: 1 (USB2+H05261)
Boxcar Smoothing: 0 (USB2+H05261)
Correct for Electrical Dark: No (USB2+H05261)
Strobe/Lamp Enabled: No (USB2+H05261)
Correct for Detector Non-linearity: No (USB2+H05261)
Correct for Stray Light: No (USB2+H05261)
Number of Pixels in Processed Spectrum: 2048
>>>>>Begin Processed Spectral Data<<<<<
365.73	0.00
365.92	0.00
366.12	0.00
366.32	18.72
366.52	0.00
366.72	0.00
366.91	0.00
367.11	0.00
367.31	0.00
367.51	0.00
367.70	0.00
367.90	0.00
368.10	0.00
368.30	0.00
368.49	0.00
368.69	0.00
368.89	0.00
369.09	0.00
369.28	0.00
369.48	0.00
369.68	0.00
369.87	30.43
370.07	32.77
370.27	32.77
370.47	46.81
370.66	322.99
370.86	308.95
371.06	320.65
371.25	315.97
371.45	339.38
371.65	362.78
371.84	344.06
372.04	362.78
372.24	409.59
372.44	372.15
372.63	367.46
372.83	456.40
373.03	400.23
373.22	362.78
373.42	423.64
373.62	379.17
373.81	442.36
374.01	435.34
374.21	517.26
374.40	442.36
374.60	521.94
374.79	479.81
374.99	407.25
375.19	510.24
375.38	458.74
375.58	470.45
375.78	559.39
375.97	456.40
376.17	489.17
376.37	449.38
376.56	470.45
376.76	524.28
376.95	465.77
377.15	498.53
377.35	566.41
377.54	486.83
377.74	543.00
377.93	526.62
378.13	468.11
378.33	540.66
378.52	559.39
378.72	514.92
378.91	521.94
379.11	517.26
379.31	566.41
379.50	475.13
379.70	592.16
379.89	561.73
380.09	554.71
380.28	524.28
380.48	559.39
380.68	603.86
380.87	472.79
381.07	503.22
381.26	643.65
381.46	699.82
381.65	671.73
381.85	554.71
382.04	554.71
382.24	603.86
382.43	610.88
382.63	624.92
382.83	596.84
383.02	594.50
383.22	671.73
383.41	641.31
383.61	568.75
383.80	617.90
384.00	690.46
384.19	573.43
384.39	578.11
384.58	676.41
384.78	723.23
384.97	681.10
385.17	688.12
385.36	678.76
385.56	685.78
385.75	634.29
385.95	662.37
386.14	709.18
386.34	741.95
386.53	674.07
386.72	662.37
386.92	732.59
387.11	777.06
387.31	685.78
387.50	629.60
387.70	805.14
387.89	725.57
388.09	734.93
388.28	723.23
388.48	748.97
388.67	734.93
388.86	716.20
389.06	709.18
389.25	767.70
389.45	781.74
389.64	774.72
389.84	894.08
390.03	791.10
390.22	854.30
390.42	854.30
390.61	863.66
390.81	877.70
391.00	828.55
391.19	926.85
391.39	912.81
391.58	877.70
391.78	819.19
391.97	873.02
392.16	938.55
392.36	1011.11
392.55	929.19
392.75	898.77
392.94	999.41
393.13	889.40
393.33	873.02
393.52	936.21
393.71	954.94
393.91	896.43
394.10	957.28
394.29	1046.22
394.49	947.92
394.68	1015.79
394.88	1057.92
395.07	1050.90
395.26	931.53
395.46	1064.94
395.65	1029.84
395.84	1109.41
396.04	1146.86
396.23	1078.99
396.42	1015.79
396.62	1060.26
396.81	1020.47
397.00	1069.62
397.19	1081.33
397.39	1111.75
397.58	1177.29
397.77	1064.94
397.97	1104.73
398.16	1224.10
398.35	1125.80
398.55	1144.52
398.74	1067.28
398.93	1214.74
399.12	1191.33
399.32	1160.91
399.51	1151.54
399.70	1310.70
399.90	1165.59
400.09	1214.74
400.28	1203.04
400.47	1170.27
400.67	1172.61
400.86	1263.89
401.05	1291.98
401.24	1371.55
401.44	1350.49
401.63	1350.49
401.82	1221.76
402.01	1322.40
402.21	1348.15
402.40	1301.34
402.59	1348.15
402.78	1373.89
402.97	1338.79
403.17	1451.13
403.36	1458.15
403.55	1397.30
403.74	1423.05
403.93	1507.30
404.13	1579.86
404.32	1551.78
404.51	1554.12
404.70	1551.78
404.89	1551.78
405.09	1600.93
405.28	1558.80
405.47	1554.12
405.66	1673.48
405.85	1565.82
406.05	1640.72
406.24	1643.06
406.43	1629.01
406.62	1659.44
406.81	1673.48
407.00	1790.51
407.20	1668.80
407.39	1633.69
407.58	1753.06
407.77	1781.15
407.96	1748.38
408.15	1860.73
408.34	1788.17
408.54	1872.43
408.73	1837.32
408.92	1804.55
409.11	1961.37
409.30	1944.99
409.49	1921.58
409.68	1893.49
409.87	1916.90
410.07	1921.58
410.26	1963.71
410.45	2057.33
410.64	1959.03
410.83	2038.61
411.02	2024.56
411.21	2097.12
411.40	2094.78
411.59	2244.57
411.78	2080.74
411.98	2094.78
412.17	2078.40
412.36	2265.64
412.55	2319.47
412.74	2195.42
412.93	2286.70
413.12	2092.44
413.31	2375.64
413.50	2310.11
413.69	2392.03
413.88	2359.26
414.07	2363.94
414.26	2457.56
414.45	2452.88
414.64	2614.38
414.83	2427.14
415.02	2548.84
415.22	2640.12
415.41	2731.41
415.60	2590.97
415.79	2668.21
415.98	2780.56
416.17	2640.12
416.36	2651.83
416.55	2794.60
416.74	2743.11
416.93	2892.90
417.12	2726.72
417.31	2918.65
417.50	2789.92
417.69	2981.84
417.88	2949.08
418.07	2916.31
418.26	2920.99
418.45	2967.80
418.64	3110.57
418.83	3122.27
419.02	3061.42
419.21	2974.82
419.39	3108.23
419.58	3070.78
419.77	3042.70
419.96	3267.39
420.15	3136.32
420.34	3129.30
420.53	3143.34
420.72	3269.73
420.91	3227.60
421.10	3295.47
421.29	3337.60
421.48	3321.22
421.67	3400.80
421.86	3274.41
422.05	3365.69
422.24	3288.45
422.43	3325.90
422.61	3442.93
422.80	3372.71
422.99	3407.82
423.18	3531.87
423.37	3365.69
423.56	3356.33
423.75	3468.67
423.94	3375.05
424.13	3126.96
424.32	3311.86
424.50	3424.20
424.69	3440.59
424.88	3571.66
425.07	3510.80
425.26	3506.12
425.45	3463.99
425.64	3529.53
425.83	3571.66
426.01	3403.14
426.20	3480.38
426.39	3463.99
426.58	3503.78
426.77	3574.00
426.96	3581.02
427.15	3606.77
427.33	3698.05
427.52	3510.80
427.71	3723.79
427.90	3691.02
428.09	3611.45
428.28	3730.81
428.46	3894.65
428.65	3634.85
428.84	4018.70
429.03	3878.27
429.22	3779.97
429.40	3733.15
429.59	3899.33
429.78	3684.00
429.97	3803.37
430.16	3896.99
430.34	3803.37
430.53	3712.09
430.72	3983.59
430.91	4002.32
431.10	3896.99
431.28	4058.49
431.47	4011.68
431.66	4112.32
431.85	3962.53
432.03	4018.70
432.22	4095.94
432.41	4259.78
432.60	4269.14
432.79	4138.07
432.97	4133.39
433.16	4184.88
433.35	4280.84
433.54	4365.10
433.72	4407.23
433.91	4325.31
434.10	4238.71
434.28	4159.13
434.47	4472.76
434.66	4449.36
434.85	4376.80
435.03	4519.57
435.22	4561.70
435.41	4873.00
435.59	4819.16
435.78	4727.88
435.97	4681.07
436.16	4580.43
436.34	4617.88
436.53	4610.86
436.72	4638.94
436.90	4440.00
437.09	4730.22
437.28	4690.43
437.46	4751.29
437.65	4758.31
437.84	4758.31
438.02	4737.24
438.21	4795.76
438.40	4744.27
438.58	4828.53
438.77	5057.90
438.96	4858.95
439.14	5001.72
439.33	5060.24
439.52	4983.00
439.70	4980.66
439.89	5135.14
440.08	5146.84
440.26	5252.16
440.45	5153.86
440.63	5163.22
440.82	5137.48
441.01	5291.95
441.19	5378.55
441.38	5418.34
441.57	5359.83
441.75	5416.00
441.94	5490.90
442.12	5535.37
442.31	5565.79
442.50	5577.50
442.68	5626.65
442.87	5659.42
443.05	5762.40
443.24	5849.00
443.43	5600.90
443.61	5652.39
443.80	5963.68
443.98	5621.97
444.17	5554.09
444.35	5776.44
444.54	5783.46
444.73	5975.39
444.91	6015.18
445.10	5724.95
445.28	5778.78
445.47	5884.11
445.65	5809.21
445.84	5849.00
446.02	6057.31
446.21	6064.33
446.39	5916.87
446.58	6043.26
446.77	6010.50
446.95	5863.04
447.14	5919.21
447.32	6031.56
447.51	6024.54
447.69	5970.71
447.88	5930.92
448.06	5891.13
448.25	6003.47
448.43	6157.95
448.62	5863.04
448.80	5996.45
448.99	6136.88
449.17	6015.18
449.36	5951.98
449.54	6282.00
449.73	6441.15
449.91	6317.11
450.10	6296.04
450.28	6321.79
450.46	6424.77
450.65	6384.98
450.83	6307.74
451.02	6366.26
451.20	6403.71
451.39	6445.84
451.57	6326.47
451.76	6345.19
451.94	6363.92
452.13	6434.13
452.31	6436.47
452.49	6471.58
452.68	6377.96
452.86	6579.25
453.05	6509.03
453.23	6672.87
453.42	6600.31
453.60	6497.33
453.78	6703.29
453.97	6593.29
454.15	6792.23
454.34	6595.63
454.52	6848.41
454.70	6722.02
454.89	6890.54
455.07	6803.94
455.26	6806.28
455.44	6923.30
455.62	6935.01
455.81	6874.15
455.99	6801.60
456.17	7080.12
456.36	6911.60
456.54	7155.02
456.73	7176.08
456.91	7119.91
457.09	7314.17
457.28	7421.84
457.46	7279.07
457.64	7555.25
457.83	7384.39
458.01	7258.00
458.19	7470.99
458.38	7447.58
458.56	7351.62
458.74	7634.83
458.93	7506.10
459.11	7503.76
459.29	7590.36
459.48	7702.70
459.66	7625.47
459.84	7688.66
460.03	7793.98
460.21	7719.09
460.39	7742.49
460.57	7735.47
460.76	7882.92
460.94	7850.16
461.12	7793.98
461.31	7957.82
461.49	7845.48
461.67	7604.40
461.85	8079.53
462.04	8044.42
462.22	8451.67
462.40	7964.84
462.59	8161.45
462.77	8189.53
462.95	8098.25
463.13	8049.10
463.32	8203.58
463.50	8248.05
463.68	8121.66
463.86	8065.49
464.05	8070.17
464.23	8259.75
464.41	8222.30
464.59	8088.89
464.78	8547.64
464.96	8318.26
465.14	8355.71
465.32	8575.72
465.50	8458.70
465.69	8374.44
465.87	8334.65
466.05	8578.06
466.23	8631.90
466.41	8416.57
466.60	8814.46
466.78	8702.11
466.96	8549.98
467.14	8542.96
467.32	8652.96
467.51	8734.88
467.69	8535.93
467.87	8564.02
468.05	8655.30
468.23	8704.45
468.41	8620.19
468.60	8849.57
468.78	8884.67
468.96	8819.14
469.14	8943.19
469.32	8973.61
469.50	8842.54
469.69	9160.86
469.87	9123.41
470.05	9212.35
470.23	9221.71
470.41	9259.16
470.59	8992.34
470.77	9132.77
470.95	9053.19
471.14	9437.04
471.32	9280.22
471.50	9673.43
471.68	9582.15
471.86	9497.89
472.04	9486.19
472.22	9720.24
472.40	9493.21
472.58	9603.22
472.77	9914.51
472.95	9689.82
473.13	10141.54
473.31	9834.93
473.49	10029.20
473.67	9764.72
473.85	10059.62
474.03	9937.91
474.21	10204.74
474.39	10293.68
474.57	10178.99
474.75	10296.02
474.93	10394.32
475.12	10504.32
475.30	10614.33
475.48	10375.59
475.66	10494.96
475.84	10733.70
476.02	10710.29
476.20	10721.99
476.38	10984.13
476.56	11253.30
476.74	11063.71
476.92	11220.53
477.10	11133.93
477.28	11400.75
477.46	11157.33
477.64	11370.32
477.82	11283.72
478.00	11786.94
478.18	11506.07
478.36	11566.93
478.54	12044.40
478.72	11936.73
478.90	12009.29
479.08	12163.76
479.26	12367.39
479.44	12196.53
479.62	12463.35
479.80	12531.23
479.98	12655.28
480.16	12784.01
480.34	12617.83
480.52	12931.46
480.70	12917.42
480.88	12961.89
481.06	13104.66
481.24	12912.74
481.41	13179.56
481.59	13483.83
481.77	13479.15
481.95	13755.33
482.13	13633.62
482.31	13673.41
482.49	13806.82
482.67	13905.12
482.85	14157.90
483.03	14352.16
483.21	14457.49
483.39	14689.20
483.57	14527.71
483.74	14890.49
483.92	15005.17
484.10	14864.74
484.28	14991.13
484.46	15545.84
484.64	15726.06
484.82	15536.48
485.00	15529.45
485.18	15819.68
485.35	15681.59
485.53	15892.24
485.71	16159.06
485.89	16395.45
486.07	16240.98
486.25	16266.72
486.43	16613.12
486.61	16437.58
486.78	16893.99
486.96	16652.91
487.14	17139.74
487.32	16807.39
487.50	17380.82
487.68	17521.25
487.85	17722.54
488.03	17893.40
488.21	18118.09
488.39	17991.70
488.57	18197.67
488.75	18607.26
488.92	18588.53
489.10	18506.62
489.28	18717.26
489.46	18700.88
489.64	18972.38
489.81	19456.87
489.99	19314.10
490.17	19157.28
490.35	19524.75
490.53	19571.56
490.70	20067.75
490.88	19798.59
491.06	20063.07
491.24	20191.80
491.41	20030.30
491.59	20545.22
491.77	20365.00
491.95	20446.92
492.13	20673.95
492.30	20788.64
492.48	20915.03
492.66	21191.21
492.84	21231.00
493.01	21390.16
493.19	21521.23
493.37	21553.99
493.54	21476.76
493.72	21813.79
493.90	22061.89
494.08	22375.52
494.25	22050.19
494.43	22499.57
494.61	22845.97
494.79	22466.80
494.96	22448.08
495.14	22750.01
495.32	22963.00
495.49	23285.99
495.67	23115.13
495.85	23475.57
496.02	23269.61
496.20	23592.60
496.38	23913.25
496.55	23999.85
496.73	24510.09
496.91	24016.24
497.09	24041.98
497.26	24561.58
497.44	24278.38
497.62	24252.63
497.79	24687.97
497.97	24662.22
498.14	24800.32
498.32	25256.72
498.50	25350.34
498.67	25181.82
498.85	25481.41
499.03	25497.80
499.20	25673.34
499.38	26064.21
499.56	25949.52
499.73	26375.50
499.91	26324.01
500.08	26068.89
500.26	25869.94
500.44	26043.14
500.61	26675.09
500.79	25940.16
500.97	26366.13
501.14	26707.85
501.32	26927.86
501.49	26925.52
501.67	26672.74
501.84	27009.78
502.02	27290.65
502.20	27473.21
502.37	27477.89
502.55	27433.42
502.72	27433.42
502.90	27477.89
503.07	27580.87
503.25	27637.05
503.43	27903.87
503.60	27838.33
503.78	27796.20
503.95	28276.01
504.13	28137.92
504.30	28151.96
504.48	28477.30
504.65	28507.72
504.83	28907.96
505.01	29078.82
505.18	28844.76
505.36	29146.69
505.53	28802.63
505.71	29034.35
505.88	28922.00
506.06	28879.87
506.23	29268.40
506.41	29282.44
506.58	29572.67
506.76	29465.00
506.93	29649.91
507.11	29413.51
507.28	30005.67
507.46	29958.86
507.63	30075.88
507.81	30405.90
507.98	30221.00
508.16	30373.13
508.33	30752.30
508.50	30742.94
508.68	30616.55
508.85	31051.89
509.03	30595.48
509.20	31236.79
509.38	31124.44
509.55	31021.46
509.73	31035.50
509.90	31522.34
510.08	31208.70
510.25	31498.93
510.42	31344.45
510.60	31910.86
510.77	32165.98
510.95	32084.06
511.12	31913.20
511.30	32004.49
511.47	32105.13
511.64	32437.48
511.82	32357.91
511.99	32238.54
512.17	32095.77
512.34	32252.58
512.51	32030.23
512.69	32444.51
512.86	32470.25
513.04	33130.28
513.21	33050.70
513.38	33097.52
513.56	33380.72
513.73	33127.94
513.90	32992.19
514.08	33476.68
514.25	33263.69
514.43	33598.39
514.60	33694.35
514.77	33771.59
514.95	33979.90
515.12	33441.57
515.29	33865.21
515.47	34045.43
515.64	33883.94
515.81	33818.40
515.99	34029.05
516.16	34352.04
516.33	34380.13
516.51	34934.84
516.68	34284.17
516.85	34494.82
517.03	34646.95
517.20	34642.27
517.37	34930.16
517.54	35054.20
517.72	35119.74
517.89	34864.62
518.06	35061.22
518.24	35187.61
518.41	35189.95
518.58	35328.05
518.75	35180.59
518.93	35885.09
519.10	35622.95
519.27	35583.16
519.45	35667.42
519.62	35594.87
519.79	35739.98
519.96	35798.49
520.14	36041.91
520.31	35508.27
520.48	36278.30
520.65	36282.98
520.83	36526.40
521.00	36591.94
521.17	36517.04
521.34	36439.80
521.52	36414.05
521.69	36491.29
521.86	36474.91
522.03	36790.88
522.20	37127.92
522.38	37589.00
522.55	37003.87
522.72	37216.86
522.89	37408.78
523.07	37668.58
523.24	37425.17
523.41	37638.15
523.58	37631.13
523.75	37591.34
523.92	37563.26
524.10	37684.97
524.27	38012.64
524.44	38040.73
524.61	37858.17
524.78	38087.54
524.96	38181.16
525.13	38284.14
525.30	37797.31
525.47	38359.04
525.64	38153.07
525.81	38153.07
525.98	38494.79
526.16	38663.31
526.33	38616.50
526.50	38967.58
526.67	38759.27
526.84	38710.12
527.01	38876.30
527.18	38792.04
527.36	39075.24
527.53	39358.45
527.70	39611.23
527.87	39243.76
528.04	39442.71
528.21	39669.74
528.38	39529.31
528.55	39658.04
528.72	39299.94
528.89	39709.53
529.07	39431.01
529.24	39571.44
529.41	39861.66
529.58	39770.38
529.75	39526.97
529.92	39842.94
530.09	40128.48
530.26	40147.21
530.43	40006.78
530.60	40458.50
530.77	40301.68
530.94	40657.45
531.11	40318.07
531.28	40315.73
531.46	40699.58
531.63	40119.12
531.80	40664.47
531.97	40664.47
532.14	40722.98
532.31	40643.40
532.48	40900.86
532.65	40950.01
532.82	40802.56
532.99	40758.09
533.16	41060.02
533.33	40940.65
533.50	41383.01
533.67	41006.19
533.84	40982.78
534.01	41457.91
534.18	40968.74
534.35	41745.80
534.52	41179.39
534.69	41799.63
534.86	42361.36
535.03	41521.10
535.20	41794.95
535.37	41544.51
535.54	41904.95
535.71	41675.58
535.88	41708.35
536.05	41464.93
536.22	42014.96
536.38	42127.30
536.55	42249.01
536.72	42635.20
536.89	42087.51
537.06	42176.45
537.23	42642.22
537.40	42258.37
537.57	42234.97
537.74	42148.37
537.91	42749.88
538.08	42773.29
538.25	42763.93
538.42	43089.26
538.59	42967.55
538.75	42679.67
538.92	43180.54
539.09	43225.01
539.26	43400.55
539.43	43086.92
539.60	43405.23
539.77	43196.93
539.94	43470.77
540.11	43749.29
540.28	43566.73
540.44	43421.62
540.61	43648.65
540.78	43643.97
540.95	43494.18
541.12	43419.28
541.29	43842.92
541.46	43639.29
541.62	43580.78
541.79	43737.59
541.96	43793.76
542.13	43892.07
542.30	44119.10
542.47	44615.29
542.63	44245.49
542.80	44095.69
542.97	44449.11
543.14	44790.83
543.31	44360.17
543.48	44437.41
543.64	45013.18
543.81	45165.32
543.98	44957.01
544.15	45118.51
544.32	45336.18
544.48	45296.39
544.65	44690.19
544.82	45162.98
544.99	44931.26
545.16	45158.30
545.32	45418.10
545.49	45518.74
545.66	46398.78
545.83	46230.26
546.00	45925.99
546.16	45684.92
546.33	45137.23
546.50	45172.34
546.67	45170.00
546.83	44512.31
547.00	45265.96
547.17	45336.18
547.34	45270.64
547.50	45102.12
547.67	45909.61
547.84	45947.06
548.00	45689.60
548.17	45397.03
548.34	45958.76
548.51	45560.87
548.67	46038.34
548.84	45581.93
549.01	45736.41
549.18	45918.97
549.34	45839.39
549.51	45846.41
549.68	46026.63
549.84	46131.96
550.01	45757.47
550.18	45776.20
550.34	45797.26
550.51	46436.23
550.68	46665.60
550.84	45478.95
551.01	46190.47
551.18	45972.80
551.34	45860.46
551.51	46309.84
551.68	46422.19
551.84	46639.86
552.01	46454.95
552.18	46431.55
552.34	46508.79
552.51	46602.41
552.68	46536.87
552.84	45968.12
553.01	46628.15
553.18	46726.46
553.34	46754.54
553.51	47189.88
553.67	46583.68
553.84	47379.46
554.01	46761.56
554.17	46705.39
554.34	47150.09
554.51	47093.92
554.67	46974.55
554.84	46974.55
555.00	46993.28
555.17	46733.48
555.33	47246.05
555.50	47012.00
555.67	46813.05
555.83	47051.79
556.00	46691.35
556.16	47072.85
556.33	47224.99
556.50	47152.43
556.66	47320.95
556.83	47129.03
556.99	47320.95
557.16	47463.72
557.32	47674.37
557.49	47327.97
557.65	47398.19
557.82	47592.45
557.98	47243.71
558.15	47236.69
558.32	47543.30
558.48	47767.99
558.65	47702.46
558.81	47770.33
558.98	47686.07
559.14	47662.67
559.31	47749.27
559.47	47882.68
559.64	48044.18
559.80	48055.88
559.97	47908.43
560.13	47468.40
560.30	48018.43
560.46	47915.45
560.63	47995.03
560.79	47941.19
560.96	48196.31
561.12	48163.54
561.29	47910.77
561.45	47552.66
561.61	47421.59
561.78	48507.60
561.94	47824.17
562.11	48186.95
562.27	47962.26
562.44	47674.37
562.60	48168.22
562.77	47887.36
562.93	47847.57
563.10	48421.00
563.26	48128.44
563.42	48552.07
563.59	48776.76
563.75	48933.58
563.92	48741.66
564.08	48208.01
564.24	48397.60
564.41	48184.61
564.57	48308.66
564.74	48149.50
564.90	48067.58
565.07	48538.03
565.23	48523.99
565.39	48570.80
565.56	48589.52
565.72	48355.47
565.88	48495.90
566.05	48383.55
566.21	48226.74
566.38	48318.02
566.54	48561.44
566.70	48629.31
566.87	48545.05
567.03	49179.34
567.19	49020.18
567.36	48769.74
567.52	48746.34
567.68	48610.59
567.85	48563.78
568.01	48858.68
568.17	48652.72
568.34	48818.89
568.50	48971.03
568.66	48463.13
568.83	48795.49
568.99	48449.09
569.15	48706.55
569.32	48633.99
569.48	48224.40
569.64	48397.60
569.81	48545.05
569.97	48914.86
570.13	48793.15
570.30	48861.02
570.46	49244.87
570.62	49162.95
570.78	48748.68
570.95	48673.78
571.11	48999.12
571.27	48507.60
571.43	48502.92
571.60	49141.89
571.76	48863.36
571.92	48956.99
572.09	48837.62
572.25	48924.22
572.41	49153.59
572.57	49181.68
572.74	49207.42
572.90	48596.54
573.06	49265.94
573.22	49219.13
573.38	49074.01
573.55	49020.18
573.71	49413.39
573.87	49102.10
574.03	49179.34
574.20	49038.90
574.36	49095.08
574.52	49572.55
574.68	49153.59
574.84	49177.00
575.01	49090.40
575.17	49354.88
575.33	49193.38
575.49	48999.12
575.65	48949.96
575.82	49118.48
575.98	49081.03
576.14	49085.72
576.30	48823.58
576.46	49235.51
576.62	48722.93
576.79	49457.86
576.95	49013.16
577.11	49366.58
577.27	49675.53
577.43	49429.77
577.59	49038.90
577.75	48940.60
577.92	48732.29
578.08	48931.24
578.24	48612.93
578.40	49308.07
578.56	49389.98
578.72	48933.58
578.88	49769.15
579.04	49373.60
579.21	49209.76
579.37	49511.69
579.53	49394.67
579.69	49127.84
579.85	49256.57
580.01	49097.42
580.17	49310.41
580.33	49169.97
580.49	49167.63
580.65	49523.40
580.82	49495.31
580.98	49275.30
581.14	49202.74
581.30	49631.06
581.46	49326.79
581.62	49574.89
581.78	49284.66
581.94	49317.43
582.10	49382.96
582.26	49593.61
582.42	49324.45
582.58	49804.26
582.74	49460.20
582.90	49153.59
583.06	49490.63
583.22	49083.37
583.38	49336.15
583.54	49626.38
583.70	49141.89
583.86	49310.41
584.02	49066.99
584.18	49694.25
584.34	49940.01
584.50	49830.01
584.66	49539.78
584.82	48999.12
584.98	49415.73
585.14	49649.78
585.30	49209.76
585.46	49359.56
585.62	49006.14
585.78	49741.06
585.94	49338.49
586.10	49738.72
586.26	49200.40
586.42	49785.54
586.58	49776.17
586.74	49710.64
586.90	49413.39
587.06	49380.62
587.22	49483.61
587.38	49521.05
587.54	50003.20
587.70	49815.96
587.86	49750.43
588.02	49560.84
588.18	49827.66
588.34	49329.13
588.49	49523.40
588.65	49350.20
588.81	49380.62
588.97	49432.11
589.13	49474.24
589.29	49544.46
589.45	49420.41
589.61	49806.60
589.77	50054.70
589.93	50178.75
590.08	49937.67
590.24	49689.57
590.40	49937.67
