SpectraSuite Data File
++++++++++++++++++++++++++++++++++++
Date: Fri Oct 04 11:39:28 GMT-05:00 2013
User: price-jones
Dark Spectrum Present: No
Reference Spectrum Present: No
Number of Sampled Component Spectra: 1
Spectrometers: USB2+H05261
Integration Time (usec): 100000 (USB2+H05261)
Spectra Averaged: 1 (USB2+H05261)
Boxcar Smoothing: 0 (USB2+H05261)
Correct for Electrical Dark: No (USB2+H05261)
Strobe/Lamp Enabled: No (USB2+H05261)
Correct for Detector Non-linearity: No (USB2+H05261)
Correct for Stray Light: No (USB2+H05261)
Number of Pixels in Processed Spectrum: 2048
>>>>>Begin Processed Spectral Data<<<<<
365.73	16.38
365.92	16.38
366.12	16.38
366.32	35.11
366.52	0.00
366.72	21.06
366.91	0.00
367.11	0.00
367.31	0.00
367.51	0.00
367.70	7.02
367.90	35.11
368.10	2.34
368.30	0.00
368.49	0.00
368.69	0.00
368.89	0.00
369.09	0.00
369.28	0.00
369.48	0.00
369.68	0.00
369.87	0.00
370.07	0.00
370.27	42.13
370.47	60.85
370.66	159.16
370.86	77.24
371.06	168.52
371.25	138.09
371.45	56.17
371.65	93.62
371.84	124.05
372.04	149.79
372.24	163.84
372.44	196.60
372.63	205.97
372.83	154.48
373.03	236.39
373.22	114.69
373.42	234.05
373.62	306.61
373.81	208.31
374.01	229.37
374.21	184.90
374.40	173.20
374.60	224.69
374.79	217.67
374.99	180.22
375.19	236.39
375.38	152.13
375.58	102.98
375.78	189.58
375.97	262.14
376.17	224.69
376.37	198.95
376.56	229.37
376.76	243.42
376.95	156.82
377.15	266.82
377.35	201.29
377.54	273.84
377.74	208.31
377.93	154.48
378.13	196.60
378.33	227.03
378.52	231.71
378.72	177.88
378.91	227.03
379.11	112.35
379.31	170.86
379.50	187.24
379.70	255.12
379.89	271.50
380.09	168.52
380.28	212.99
380.48	194.26
380.68	208.31
380.87	159.16
381.07	245.76
381.26	231.71
381.46	152.13
381.65	191.92
381.85	264.48
382.04	220.01
382.24	159.16
382.43	236.39
382.63	276.18
382.83	273.84
383.02	241.08
383.22	259.80
383.41	229.37
383.61	285.55
383.80	259.80
384.00	198.95
384.19	250.44
384.39	210.65
384.58	224.69
384.78	231.71
384.97	217.67
385.17	301.93
385.36	283.20
385.56	203.63
385.75	217.67
385.95	231.71
386.14	245.76
386.34	173.20
386.53	189.58
386.72	280.86
386.92	290.23
387.11	320.65
387.31	341.72
387.50	283.20
387.70	234.05
387.89	191.92
388.09	292.57
388.28	294.91
388.48	243.42
388.67	283.20
388.86	308.95
389.06	278.52
389.25	353.42
389.45	276.18
389.64	280.86
389.84	222.35
390.03	278.52
390.22	271.50
390.42	250.44
390.61	250.44
390.81	245.76
391.00	332.36
391.19	360.44
391.39	313.63
391.58	301.93
391.78	299.59
391.97	252.78
392.16	262.14
392.36	320.65
392.55	421.30
392.75	325.33
392.94	332.36
393.13	294.91
393.33	393.21
393.52	327.68
393.71	337.04
393.91	311.29
394.10	348.74
394.29	362.78
394.49	262.14
394.68	346.40
394.88	330.02
395.07	376.83
395.26	315.97
395.46	337.04
395.65	330.02
395.84	313.63
396.04	440.02
396.23	390.87
396.42	362.78
396.62	362.78
396.81	428.32
397.00	400.23
397.19	362.78
397.39	411.93
397.58	444.70
397.77	404.91
397.97	449.38
398.16	472.79
398.35	484.49
398.55	444.70
398.74	456.40
398.93	440.02
399.12	500.87
399.32	535.98
399.51	592.16
399.70	451.72
399.90	449.38
400.09	475.13
400.28	617.90
400.47	559.39
400.67	463.43
400.86	463.43
401.05	554.71
401.24	491.51
401.44	557.05
401.63	524.28
401.82	543.00
402.01	582.79
402.21	610.88
402.40	587.47
402.59	528.96
402.78	575.77
402.97	550.03
403.17	620.24
403.36	608.54
403.55	653.01
403.74	610.88
403.93	699.82
404.13	667.05
404.32	699.82
404.51	788.76
404.70	765.36
404.89	636.63
405.09	739.61
405.28	676.41
405.47	667.05
405.66	706.84
405.85	767.70
406.05	695.14
406.24	737.27
406.43	821.53
406.62	744.29
406.81	887.06
407.00	763.01
407.20	681.10
407.39	819.19
407.58	858.98
407.77	903.45
407.96	924.51
408.15	868.34
408.34	940.90
408.54	882.38
408.73	894.08
408.92	842.59
409.11	950.26
409.30	908.13
409.49	917.49
409.68	905.79
409.87	898.77
410.07	861.32
410.26	924.51
410.45	1048.56
410.64	936.21
410.83	1025.15
411.02	1034.52
411.21	1135.16
411.40	1090.69
411.59	1020.47
411.78	1114.10
411.98	1022.81
412.17	1207.72
412.36	1114.10
412.55	1156.22
412.74	1238.14
412.93	1179.63
413.12	1174.95
413.31	1277.93
413.50	1240.48
413.69	1196.01
413.88	1362.19
414.07	1303.68
414.26	1364.53
414.45	1331.76
414.64	1254.53
414.83	1427.73
415.02	1362.19
415.22	1380.92
415.41	1511.99
415.60	1394.96
415.79	1526.03
415.98	1394.96
416.17	1483.90
416.36	1409.00
416.55	1511.99
416.74	1572.84
416.93	1416.02
417.12	1577.52
417.31	1624.33
417.50	1530.71
417.69	1619.65
417.88	1584.54
418.07	1582.20
418.26	1612.63
418.45	1696.89
418.64	1659.44
418.83	1839.66
419.02	1701.57
419.21	1619.65
419.39	1750.72
419.58	1694.55
419.77	1748.38
419.96	1736.68
420.15	1914.56
420.34	1865.41
420.53	1867.75
420.72	1860.73
420.91	1947.33
421.10	1741.36
421.29	1980.09
421.48	1811.57
421.67	1872.43
421.86	1877.11
422.05	1905.20
422.24	1947.33
422.43	1867.75
422.61	2022.22
422.80	1879.45
422.99	1942.64
423.18	1914.56
423.37	2022.22
423.56	1994.14
423.75	1952.01
423.94	1900.52
424.13	1832.64
424.32	1853.70
424.50	2024.56
424.69	1914.56
424.88	2003.50
425.07	2033.93
425.26	2047.97
425.45	1914.56
425.64	1956.69
425.83	2005.84
426.01	2059.67
426.20	2040.95
426.39	1975.41
426.58	2092.44
426.77	2167.34
426.96	2059.67
427.15	2019.88
427.33	2022.22
427.52	2066.69
427.71	2087.76
427.90	2172.02
428.09	2148.61
428.28	2183.72
428.46	2129.89
428.65	2197.76
428.84	2289.04
429.03	2218.83
429.22	2069.03
429.40	2195.42
429.59	2186.06
429.78	2176.70
429.97	2118.18
430.16	2197.76
430.34	2134.57
430.53	2277.34
430.72	2338.20
430.91	2279.68
431.10	2300.75
431.28	2392.03
431.47	2352.24
431.66	2424.80
431.85	2389.69
432.03	2431.82
432.22	2469.27
432.41	2403.73
432.60	2588.63
432.79	2246.91
432.97	2422.45
433.16	2464.58
433.35	2502.03
433.54	2520.76
433.72	2424.80
433.91	2464.58
434.10	2434.16
434.28	2462.24
434.47	2495.01
434.66	2579.27
434.85	2626.08
435.03	2623.74
435.22	2810.98
435.41	3009.93
435.59	3066.10
435.78	2923.33
435.97	2607.36
436.16	2871.84
436.34	2593.31
436.53	2654.17
436.72	2626.08
436.90	2715.02
437.09	2689.28
437.28	2541.82
437.46	2745.45
437.65	2724.38
437.84	2839.07
438.02	2682.25
438.21	2644.81
438.40	2832.05
438.58	2874.18
438.77	2827.37
438.96	2878.86
439.14	2902.26
439.33	3019.29
439.52	2935.03
439.70	2918.65
439.89	3016.95
440.08	2977.16
440.26	3035.67
440.45	2970.14
440.63	3129.30
440.82	3014.61
441.01	3075.46
441.19	3108.23
441.38	3155.04
441.57	3141.00
441.75	3042.70
441.94	3073.12
442.12	3300.16
442.31	3206.53
442.50	3227.60
442.68	3290.79
442.87	3141.00
443.05	3183.13
443.24	3328.24
443.43	3417.18
443.61	3351.65
443.80	3386.76
443.98	3290.79
444.17	3232.28
444.35	3304.84
444.54	3314.20
444.73	3382.07
444.91	3419.52
445.10	3454.63
445.28	3337.60
445.47	3445.27
445.65	3351.65
445.84	3304.84
446.02	3482.72
446.21	3454.63
446.39	3557.61
446.58	3332.92
446.77	3391.44
446.95	3391.44
447.14	3463.99
447.32	3513.14
447.51	3496.76
447.69	3578.68
447.88	3426.54
448.06	3433.57
448.25	3566.98
448.43	3581.02
448.62	3524.85
448.80	3386.76
448.99	3545.91
449.17	3531.87
449.36	3508.46
449.54	3609.11
449.73	3674.64
449.91	3632.51
450.10	3634.85
450.28	3726.13
450.46	3733.15
450.65	3730.81
450.83	3904.01
451.02	3674.64
451.20	3777.62
451.39	3644.21
451.57	3698.05
451.76	3597.40
451.94	3740.18
452.13	3815.07
452.31	3784.65
452.49	3803.37
452.68	3756.56
452.86	3829.12
453.05	3714.43
453.23	3894.65
453.42	3756.56
453.60	3873.59
453.78	3805.71
453.97	3815.07
454.15	3646.55
454.34	3843.16
454.52	3918.06
454.70	3852.52
454.89	3995.29
455.07	3953.16
455.26	4081.89
455.44	4133.39
455.62	3992.95
455.81	3899.33
455.99	4025.72
456.17	4032.74
456.36	3906.35
456.54	4084.23
456.73	4142.75
456.91	4201.26
457.09	4205.94
457.28	4388.50
457.46	4119.34
457.64	4271.48
457.83	4201.26
458.01	3957.85
458.19	4271.48
458.38	4222.33
458.56	4266.80
458.74	4348.72
458.93	4484.47
459.11	4308.93
459.29	4325.31
459.48	4393.19
459.66	4479.79
459.84	4470.42
460.03	4447.02
460.21	4425.95
460.39	4400.21
460.57	4465.74
460.76	4493.83
460.94	4568.73
461.12	4589.79
461.31	4566.39
461.49	4547.66
461.67	4475.10
461.85	4507.87
462.04	4498.51
462.22	4727.88
462.40	4655.33
462.59	4645.96
462.77	4578.09
462.95	4627.24
463.13	4704.48
463.32	4793.42
463.50	4739.58
463.68	4727.88
463.86	4800.44
464.05	4629.58
464.23	4660.01
464.41	4877.68
464.59	4610.86
464.78	4755.97
464.96	4795.76
465.14	4674.05
465.32	4858.95
465.50	4877.68
465.69	4875.34
465.87	4805.12
466.05	4793.42
466.23	4718.52
466.41	4889.38
466.60	4873.00
466.78	4950.23
466.96	4922.15
467.14	4943.21
467.32	5060.24
467.51	5090.67
467.69	4922.15
467.87	5055.56
468.05	5067.26
468.23	5048.54
468.41	4826.18
468.60	4943.21
468.78	4973.64
468.96	4973.64
469.14	5107.05
469.32	5221.74
469.50	4992.36
469.69	5060.24
469.87	5221.74
470.05	5181.95
470.23	5245.14
470.41	5139.82
470.59	5303.65
470.77	5200.67
470.95	5118.75
471.14	5327.06
471.32	5348.12
471.50	5373.87
471.68	5455.79
471.86	5420.68
472.04	5446.43
472.22	5582.18
472.40	5437.06
472.58	5636.01
472.77	5394.93
472.95	5565.79
473.13	5755.38
473.31	5607.92
473.49	5647.71
473.67	5575.16
473.85	5703.89
474.03	5886.45
474.21	5900.49
474.39	5905.17
474.57	5706.23
474.75	5832.62
474.93	5975.39
475.12	6054.97
475.30	6066.67
475.48	5977.73
475.66	6146.25
475.84	5865.38
476.02	6197.74
476.20	6223.48
476.38	6113.48
476.56	6267.95
476.74	6244.55
476.92	6197.74
477.10	6263.27
477.28	6464.56
477.46	6462.22
477.64	6415.41
477.82	6497.33
478.00	6672.87
478.18	6918.62
478.36	6635.42
478.54	6848.41
478.72	6857.77
478.90	6841.39
479.08	6857.77
479.26	6988.84
479.44	6993.52
479.62	6869.47
479.80	6998.20
479.98	7087.14
480.16	7070.76
480.34	7297.79
480.52	7316.51
480.70	7377.37
480.88	7192.47
481.06	7344.60
481.24	7300.13
481.41	7548.23
481.59	7494.40
481.77	7651.21
481.95	7595.04
482.13	7768.24
482.31	7698.02
482.49	7932.08
482.67	7836.11
482.85	8058.46
483.03	8114.64
483.21	8072.51
483.39	8234.00
483.57	8046.76
483.74	8423.59
483.92	8313.58
484.10	8339.33
484.28	8592.11
484.46	8671.68
484.64	8950.21
484.82	8596.79
485.00	8833.18
485.18	9083.62
485.35	8924.46
485.53	9109.36
485.71	9181.92
485.89	9221.71
486.07	9137.45
486.25	9291.93
486.43	9247.46
486.61	9186.60
486.78	9350.44
486.96	9528.32
487.14	9673.43
487.32	9652.37
487.50	9671.09
487.68	9678.12
487.85	9804.50
488.03	10040.90
488.21	10399.00
488.39	10043.24
488.57	10183.67
488.75	9961.32
488.92	10415.38
489.10	10651.78
489.28	10560.50
489.46	10707.95
489.64	10684.55
489.81	10810.93
489.99	10785.19
490.17	10675.18
490.35	11021.58
490.53	10927.96
490.70	11225.21
490.88	11019.24
491.06	11117.54
491.24	11222.87
491.41	11470.97
491.59	11356.28
491.77	11499.05
491.95	11426.50
492.13	11499.05
492.30	11576.29
492.48	11566.93
492.66	11602.04
492.84	11908.65
493.01	11957.80
493.19	11770.55
493.37	11843.11
493.54	11817.36
493.72	12161.42
493.90	12231.64
494.08	12278.45
494.25	12451.65
494.43	12432.93
494.61	12482.08
494.79	12624.85
494.96	12641.23
495.14	12751.24
495.32	12737.20
495.49	12652.94
495.67	12957.21
495.85	13137.43
496.02	13139.77
496.20	12999.34
496.38	13308.29
496.55	13200.62
496.73	13577.45
496.91	13303.60
497.09	13331.69
497.26	13521.27
497.44	13556.38
497.62	13418.29
497.79	13694.47
497.97	13870.01
498.14	13872.36
498.32	13996.40
498.50	13771.71
498.67	14022.15
498.85	14118.11
499.03	14094.71
499.20	14139.18
499.38	14223.44
499.56	14246.84
499.73	14661.12
499.91	14260.88
500.08	14548.77
500.26	14225.78
500.44	14553.45
500.61	14459.83
500.79	14661.12
500.97	14523.02
501.14	14897.51
501.32	14691.54
501.49	15066.03
501.67	14719.63
501.84	14986.45
502.02	15124.54
502.20	15253.27
502.37	15094.11
502.55	15019.22
502.72	15213.48
502.90	15157.31
503.07	15077.73
503.25	15293.06
503.43	15239.23
503.60	15363.28
503.78	15557.54
503.95	15611.37
504.13	15756.49
504.30	15676.91
504.48	15494.35
504.65	15822.02
504.83	15868.83
505.01	15917.98
505.18	15543.50
505.36	16105.23
505.53	16250.34
505.71	16011.60
505.88	15770.53
506.06	16233.96
506.23	16212.89
506.41	16269.06
506.58	16475.03
506.76	16278.43
506.93	16402.47
507.11	16533.54
507.28	16493.76
507.46	16315.87
507.63	16542.91
507.81	16610.78
507.98	16610.78
508.16	16751.21
508.33	16662.27
508.50	16994.63
508.68	16814.41
508.85	16961.86
509.03	17011.01
509.20	17336.35
509.38	17441.67
509.55	17242.73
509.73	17355.07
509.90	17406.56
510.08	16933.78
510.25	17057.82
510.42	17661.68
510.60	17439.33
510.77	17465.08
510.95	17523.59
511.12	17537.63
511.30	17706.15
511.47	18003.40
511.64	17523.59
511.82	17907.44
511.99	18120.43
512.17	17837.22
512.34	18127.45
512.51	18022.12
512.69	18104.04
512.86	18211.71
513.04	18441.08
513.21	18377.89
513.38	18246.82
513.56	18338.10
513.73	18090.00
513.90	18366.18
514.08	18221.07
514.25	18766.42
514.43	18530.02
514.60	18625.98
514.77	18523.00
514.95	19073.03
515.12	18618.96
515.29	18448.10
515.47	18970.04
515.64	18960.68
515.81	18705.56
515.99	18906.85
516.16	19199.41
516.33	19377.30
516.51	19208.78
516.68	19105.79
516.85	19119.84
517.03	19403.04
517.20	19276.65
517.37	19447.51
517.54	19480.28
517.72	19714.33
517.89	19190.05
518.06	19246.23
518.24	19576.24
518.41	19590.28
518.58	19768.16
518.75	19679.22
518.93	19655.82
519.10	19974.13
519.27	20098.18
519.45	19910.94
519.62	20292.44
519.79	19772.85
519.96	19721.35
520.14	20231.59
520.31	19836.04
520.48	20383.73
520.65	20037.33
520.83	20304.15
521.00	20318.19
521.17	20276.06
521.34	20467.98
521.52	20156.69
521.69	20465.64
521.86	20498.41
522.03	20645.87
522.20	20629.48
522.38	20446.92
522.55	20383.73
522.72	20659.91
522.89	20755.87
523.07	20772.25
523.24	20776.94
523.41	21025.03
523.58	20673.95
523.75	21181.85
523.92	20774.60
524.10	20652.89
524.27	21025.03
524.44	21317.60
524.61	21425.26
524.78	21404.20
524.96	21603.14
525.13	21460.37
525.30	21329.30
525.47	21186.53
525.64	21242.70
525.81	21221.64
525.98	21579.74
526.16	21406.54
526.33	21563.36
526.50	21769.32
526.67	21570.38
526.84	21493.14
527.01	21481.44
527.18	21724.85
527.36	21673.36
527.53	22061.89
527.70	22052.53
527.87	22017.42
528.04	21682.72
528.21	22064.23
528.38	21886.35
528.55	21907.41
528.72	22005.72
528.89	22197.64
529.07	22108.70
529.24	22178.92
529.41	22214.02
529.58	22143.81
529.75	22284.24
529.92	22710.22
530.09	22267.86
530.26	22120.40
530.43	22267.86
530.60	22417.65
530.77	22164.87
530.94	22670.43
531.11	22277.22
531.28	22281.90
531.46	22382.54
531.63	22623.62
531.80	22946.61
531.97	22558.08
532.14	22640.00
532.31	22726.60
532.48	22995.76
532.65	22944.27
532.82	22752.35
532.99	22916.19
533.16	22911.50
533.33	23278.97
533.50	23175.98
533.67	22834.27
533.84	22745.33
534.01	22864.69
534.18	22799.16
534.35	23222.80
534.52	22827.24
534.69	23253.22
534.86	23433.44
535.03	23194.71
535.20	23138.54
535.37	23283.65
535.54	23229.82
535.71	23730.69
535.88	23330.46
536.05	23002.78
536.22	23819.63
536.38	23590.26
536.55	23639.41
536.72	23281.31
536.89	23529.41
537.06	23936.66
537.23	23826.65
537.40	23520.04
537.57	23571.54
537.74	23487.28
537.91	23995.17
538.08	24023.26
538.25	23971.77
538.42	24091.13
538.59	23840.70
538.75	23679.20
538.92	23740.05
539.09	23978.79
539.26	24065.39
539.43	24109.86
539.60	24460.94
539.77	24121.56
539.94	24397.74
540.11	24056.03
540.28	24334.55
540.44	24353.27
540.61	24119.22
540.78	24273.70
540.95	24456.26
541.12	24772.23
541.29	25088.20
541.46	24690.31
541.62	25017.99
541.79	24720.74
541.96	24802.66
542.13	24947.77
542.30	24496.05
542.47	25090.54
542.63	25125.65
542.80	24783.93
542.97	25235.66
543.14	25135.01
543.31	25095.22
543.48	25064.80
543.64	25380.77
543.81	25333.96
543.98	25202.89
544.15	24982.88
544.32	25230.98
544.48	25869.94
544.65	25273.10
544.82	25060.12
544.99	25186.50
545.16	25034.37
545.32	25160.76
545.49	25965.90
545.66	26579.12
545.83	26312.30
546.00	26558.06
546.16	25867.60
546.33	25495.46
546.50	25266.08
546.67	25125.65
546.83	25289.49
547.00	25678.02
547.17	25380.77
547.34	25497.80
547.50	25221.61
547.67	25736.53
547.84	25408.86
548.00	25432.26
548.17	25418.22
548.34	25596.10
548.51	25291.83
548.67	26218.68
548.84	25621.84
549.01	25479.07
549.18	25816.11
549.34	25706.10
549.51	25420.56
549.68	25865.26
549.84	25481.41
550.01	25642.91
550.18	25869.94
550.34	25792.70
550.51	25771.64
550.68	26199.96
550.84	25516.52
551.01	25963.56
551.18	25350.34
551.34	25659.29
551.51	25830.15
551.68	25607.80
551.84	25731.85
552.01	26001.01
552.18	25809.09
552.34	25703.76
552.51	26103.99
552.68	25577.37
552.84	25893.35
553.01	26078.25
553.18	26073.57
553.34	25820.79
553.51	25865.26
553.67	26288.90
553.84	26380.18
554.01	26574.44
554.17	25949.52
554.34	25984.63
554.51	26263.15
554.67	26141.44
554.84	26314.64
555.00	26335.71
555.17	26455.08
555.33	25895.69
555.50	26171.87
555.67	26384.86
555.83	25998.67
556.00	26237.41
556.16	26785.09
556.33	26286.56
556.50	26279.54
556.66	26169.53
556.83	26153.15
556.99	26590.83
557.16	26754.66
557.32	26434.01
557.49	26424.65
557.65	26408.26
557.82	26132.08
557.98	26307.62
558.15	26366.13
558.32	26656.36
558.48	26012.71
558.65	26209.32
558.81	26534.65
558.98	26389.54
559.14	26466.78
559.31	26221.02
559.47	26354.43
559.64	26108.68
559.80	26359.11
559.97	26583.80
560.13	26244.43
560.30	26356.77
560.46	26761.69
560.63	26347.41
560.79	26457.42
560.96	26642.32
561.12	26642.32
561.29	26876.37
561.45	26398.90
561.61	26658.70
561.78	26544.02
561.94	26892.76
562.11	27267.24
562.27	26544.02
562.44	26434.01
562.60	26754.66
562.77	27089.36
562.93	26487.84
563.10	26745.30
563.26	26768.71
563.42	26972.33
563.59	26974.67
563.75	26625.93
563.92	26764.03
564.08	26609.55
564.24	27201.71
564.41	26820.20
564.57	27075.32
564.74	26670.40
564.90	26923.18
565.07	26749.98
565.23	26890.41
565.39	26546.36
565.56	27190.00
565.72	26553.38
565.88	26668.06
566.05	26911.48
566.21	26948.93
566.38	26649.34
566.54	26834.24
566.70	26686.79
566.87	27087.02
567.03	26735.94
567.19	27023.83
567.36	27096.38
567.52	26632.96
567.68	26909.14
567.85	26962.97
568.01	26986.38
568.17	26888.07
568.34	26951.27
568.50	26944.25
568.66	27007.44
568.83	27229.79
568.99	26986.38
569.15	27030.85
569.32	26525.29
569.48	26775.73
569.64	27143.19
569.81	26930.20
569.97	26871.69
570.13	27201.71
570.30	26581.46
570.46	26827.22
570.62	26738.28
570.78	26958.29
570.95	26906.80
571.11	26845.94
571.27	26852.97
571.43	27145.53
571.60	27051.91
571.76	27021.48
571.92	26962.97
572.09	27000.42
572.25	27412.35
572.41	27314.05
572.57	27173.62
572.74	27363.20
572.90	26937.23
573.06	27026.17
573.22	26824.88
573.38	26911.48
573.55	26754.66
573.71	27342.14
573.87	27344.48
574.03	27103.40
574.20	26874.03
574.36	26766.37
574.52	27087.02
574.68	27026.17
574.84	27094.04
575.01	26766.37
575.17	26745.30
575.33	27187.66
575.49	27218.09
575.65	27225.11
575.82	27613.64
575.98	27112.77
576.14	27395.97
576.30	27243.84
576.46	27166.60
576.62	27435.76
576.79	27253.20
576.95	26969.99
577.11	27421.72
577.27	27335.12
577.43	27393.63
577.59	27133.83
577.75	27491.93
577.92	26881.05
578.08	26923.18
578.24	26969.99
578.40	26941.91
578.56	27337.46
578.72	27159.58
578.88	27700.24
579.04	27606.62
579.21	27496.61
579.37	26991.06
579.53	27276.60
579.69	27267.24
579.85	27110.43
580.01	27424.06
580.17	27131.49
580.33	27606.62
580.49	27316.39
580.65	27190.00
580.82	27171.28
580.98	27267.24
581.14	27550.45
581.30	27295.33
581.46	27225.11
581.62	27171.28
581.78	26859.99
581.94	27232.13
582.10	27040.21
582.26	27412.35
582.42	27335.12
582.58	27606.62
582.74	27096.38
582.90	27496.61
583.06	27360.86
583.22	27014.46
583.38	27091.70
583.54	27482.57
583.70	27349.16
583.86	27339.80
584.02	27044.89
584.18	27267.24
584.34	27250.86
584.50	27669.81
584.66	27356.18
584.82	27428.74
584.98	27353.84
585.14	27295.33
585.30	27096.38
585.46	27187.66
585.62	27288.31
585.78	26749.98
585.94	27269.58
586.10	27496.61
586.26	27711.94
586.42	27407.67
586.58	27110.43
586.74	26874.03
586.90	27323.41
587.06	27477.89
587.22	27606.62
587.38	27077.66
587.54	27477.89
587.70	27388.95
587.86	27344.48
588.02	27131.49
588.18	27693.22
588.34	27524.70
588.49	27044.89
588.65	27250.86
588.81	27482.57
588.97	27290.65
589.13	27257.88
589.29	27344.48
589.45	27569.17
589.61	27494.27
589.77	27681.52
589.93	27498.95
590.08	27496.61
590.24	27513.00
590.40	27559.81
590.56	27503.64
590.72	27262.56
590.88	27215.75
591.04	27653.43
591.20	27630.02
591.35	27770.46
591.51	27765.78
591.67	27522.36
591.83	27543.42
591.99	27405.33
592.15	27473.21
