SpectraSuite Data File
++++++++++++++++++++++++++++++++++++
Date: Fri Oct 04 11:39:39 GMT-05:00 2013
User: price-jones
Dark Spectrum Present: No
Reference Spectrum Present: No
Number of Sampled Component Spectra: 1
Spectrometers: USB2+H05261
Integration Time (usec): 100000 (USB2+H05261)
Spectra Averaged: 1 (USB2+H05261)
Boxcar Smoothing: 0 (USB2+H05261)
Correct for Electrical Dark: No (USB2+H05261)
Strobe/Lamp Enabled: No (USB2+H05261)
Correct for Detector Non-linearity: No (USB2+H05261)
Correct for Stray Light: No (USB2+H05261)
Number of Pixels in Processed Spectrum: 2048
>>>>>Begin Processed Spectral Data<<<<<
365.73	98.30
365.92	98.30
366.12	98.30
366.32	0.00
366.52	0.00
366.72	0.00
366.91	0.00
367.11	0.00
367.31	0.00
367.51	0.00
367.70	0.00
367.90	4.68
368.10	0.00
368.30	0.00
368.49	0.00
368.69	0.00
368.89	0.00
369.09	0.00
369.28	9.36
369.48	51.49
369.68	9.36
369.87	72.56
370.07	0.00
370.27	7.02
370.47	105.32
370.66	273.84
370.86	360.44
371.06	346.40
371.25	393.21
371.45	304.27
371.65	444.70
371.84	339.38
372.04	390.87
372.24	376.83
372.44	416.62
372.63	362.78
372.83	514.92
373.03	362.78
373.22	404.91
373.42	463.43
373.62	402.57
373.81	447.04
374.01	505.56
374.21	458.74
374.40	486.83
374.60	500.87
374.79	482.15
374.99	477.47
375.19	472.79
375.38	428.32
375.58	484.49
375.78	456.40
375.97	484.49
376.17	603.86
376.37	521.94
376.56	440.02
376.76	486.83
376.95	482.15
377.15	423.64
377.35	517.26
377.54	493.85
377.74	493.85
377.93	503.22
378.13	484.49
378.33	493.85
378.52	510.24
378.72	571.09
378.91	585.13
379.11	568.75
379.31	557.05
379.50	543.00
379.70	587.47
379.89	561.73
380.09	601.52
380.28	564.07
380.48	531.30
380.68	617.90
380.87	592.16
381.07	608.54
381.26	671.73
381.46	550.03
381.65	573.43
381.85	620.24
382.04	585.13
382.24	559.39
382.43	613.22
382.63	645.99
382.83	554.71
383.02	683.44
383.22	599.18
383.41	664.71
383.61	669.39
383.80	601.52
384.00	613.22
384.19	653.01
384.39	690.46
384.58	758.33
384.78	676.41
384.97	674.07
385.17	578.11
385.36	627.26
385.56	648.33
385.75	674.07
385.95	674.07
386.14	709.18
386.34	645.99
386.53	697.48
386.72	716.20
386.92	772.38
387.11	718.54
387.31	765.36
387.50	741.95
387.70	723.23
387.89	793.44
388.09	737.27
388.28	751.31
388.48	758.33
388.67	793.44
388.86	830.89
389.06	788.76
389.25	753.65
389.45	793.44
389.64	800.46
389.84	849.61
390.03	849.61
390.22	894.08
390.42	821.53
390.61	758.33
390.81	791.10
391.00	788.76
391.19	837.91
391.39	868.34
391.58	877.70
391.78	851.96
391.97	933.87
392.16	854.30
392.36	973.66
392.55	957.28
392.75	919.83
392.94	917.49
393.13	999.41
393.33	936.21
393.52	933.87
393.71	994.73
393.91	952.60
394.10	898.77
394.29	950.26
394.49	983.02
394.68	1041.54
394.88	1013.45
395.07	1050.90
395.26	1067.28
395.46	1043.88
395.65	1001.75
395.84	1057.92
396.04	1083.67
396.23	1039.20
396.42	1128.14
396.62	1158.57
396.81	1121.12
397.00	1090.69
397.19	1114.10
397.39	1083.67
397.58	1167.93
397.77	1139.84
397.97	1177.29
398.16	1217.08
398.35	1252.19
398.55	1200.69
398.74	1167.93
398.93	1301.34
399.12	1198.35
399.32	1153.88
399.51	1170.27
399.70	1310.70
399.90	1277.93
400.09	1217.08
400.28	1315.38
400.47	1357.51
400.67	1390.28
400.86	1357.51
401.05	1420.71
401.24	1380.92
401.44	1341.13
401.63	1357.51
401.82	1399.64
402.01	1357.51
402.21	1317.72
402.40	1446.45
402.59	1430.07
402.78	1455.81
402.97	1359.85
403.17	1488.58
403.36	1547.09
403.55	1561.14
403.74	1596.25
403.93	1593.90
404.13	1535.39
404.32	1610.29
404.51	1605.61
404.70	1696.89
404.89	1643.06
405.09	1666.46
405.28	1715.61
405.47	1600.93
405.66	1734.34
405.85	1673.48
406.05	1689.87
406.24	1717.95
406.43	1680.50
406.62	1870.09
406.81	1783.49
407.00	1895.83
407.20	1834.98
407.39	1823.28
407.58	1954.35
407.77	1863.07
407.96	1888.81
408.15	1902.86
408.34	1790.51
408.54	1837.32
408.73	1937.96
408.92	1928.60
409.11	2036.27
409.30	1970.73
409.49	2012.86
409.68	1952.01
409.87	1994.14
410.07	2155.63
410.26	2040.95
410.45	2073.71
410.64	2043.29
410.83	2176.70
411.02	2097.12
411.21	2204.78
411.40	2314.79
411.59	2298.41
411.78	2286.70
411.98	2179.04
412.17	2413.09
412.36	2338.20
412.55	2581.61
412.74	2457.56
412.93	2490.33
413.12	2499.69
413.31	2647.15
413.50	2509.05
413.69	2497.35
413.88	2640.12
414.07	2630.76
414.26	2722.04
414.45	2640.12
414.64	2628.42
414.83	2925.67
415.02	2663.53
415.22	2843.75
415.41	2775.88
415.60	2726.72
415.79	2963.12
415.98	3045.04
416.17	3042.70
416.36	2822.69
416.55	2995.89
416.74	2899.92
416.93	3077.80
417.12	3080.14
417.31	3054.40
417.50	3138.66
417.69	3274.41
417.88	3204.19
418.07	3143.34
418.26	3260.37
418.45	3155.04
418.64	3419.52
418.83	3321.22
419.02	3279.09
419.21	3442.93
419.39	3426.54
419.58	3389.10
419.77	3281.43
419.96	3559.95
420.15	3454.63
420.34	3492.08
420.53	3609.11
420.72	3550.59
420.91	3529.53
421.10	3574.00
421.29	3618.47
421.48	3513.14
421.67	3651.24
421.86	3478.04
422.05	3674.64
422.24	3686.34
422.43	3630.17
422.61	3674.64
422.80	3889.97
422.99	3847.84
423.18	3765.92
423.37	3772.94
423.56	3922.74
423.75	3871.25
423.94	3674.64
424.13	3517.83
424.32	3705.07
424.50	3904.01
424.69	3805.71
424.88	3892.31
425.07	3758.90
425.26	3747.20
425.45	3786.99
425.64	3681.66
425.83	3889.97
426.01	3957.85
426.20	3906.35
426.39	3796.35
426.58	3770.60
426.77	3854.86
426.96	3887.63
427.15	3852.52
427.33	3922.74
427.52	3913.38
427.71	3894.65
427.90	4102.96
428.09	4140.41
428.28	4091.26
428.46	4119.34
428.65	4065.51
428.84	4262.12
429.03	4280.84
429.22	4021.04
429.40	4187.22
429.59	4306.59
429.78	4084.23
429.97	3992.95
430.16	4229.35
430.34	4266.80
430.53	4332.33
430.72	4409.57
430.91	4276.16
431.10	4404.89
431.28	4416.59
431.47	4454.04
431.66	4447.02
431.85	4440.00
432.03	4512.55
432.22	4528.94
432.41	4491.49
432.60	4571.07
432.79	4491.49
432.97	4699.80
433.16	4667.03
433.35	4592.13
433.54	4660.01
433.72	4681.07
433.91	4652.98
434.10	4699.80
434.28	4578.09
434.47	4732.56
434.66	4781.71
434.85	4727.88
435.03	4990.02
435.22	5160.88
435.41	5249.82
435.59	5273.23
435.78	5039.17
435.97	4957.25
436.16	4971.30
436.34	5008.75
436.53	5137.48
436.72	5083.64
436.90	5060.24
437.09	5118.75
437.28	5034.49
437.46	4938.53
437.65	5104.71
437.84	5163.22
438.02	5160.88
438.21	5224.08
438.40	5186.63
438.58	5249.82
438.77	5320.04
438.96	5128.11
439.14	5441.75
439.33	5352.81
439.52	5540.05
439.70	5399.62
439.89	5650.05
440.08	5652.39
440.26	5614.95
440.45	5638.35
440.63	5671.12
440.82	5748.36
441.01	5736.65
441.19	5769.42
441.38	5968.37
441.57	5973.05
441.75	5963.68
441.94	5935.60
442.12	5942.62
442.31	6139.23
442.50	6125.18
442.68	6085.39
442.87	6108.80
443.05	6157.95
443.24	6293.70
443.43	6296.04
443.61	6303.06
443.80	6394.34
443.98	6272.64
444.17	5989.43
444.35	6267.95
444.54	6377.96
444.73	6471.58
444.91	6291.36
445.10	6232.85
445.28	6314.77
445.47	6251.57
445.65	6347.53
445.84	6422.43
446.02	6331.15
446.21	6335.83
446.39	6289.02
446.58	6392.00
446.77	6370.94
446.95	6436.47
447.14	6384.98
447.32	6324.13
447.51	6377.96
447.69	6478.60
447.88	6663.51
448.06	6403.71
448.25	6532.44
448.43	6511.37
448.62	6272.64
448.80	6450.52
448.99	6633.08
449.17	6677.55
449.36	6502.01
449.54	6693.93
449.73	6743.08
449.91	6808.62
450.10	6740.74
450.28	6899.90
450.46	6904.58
450.65	6853.09
450.83	6944.37
451.02	7030.97
451.20	6942.03
451.39	6792.23
451.57	6869.47
451.76	6993.52
451.94	7056.72
452.13	6857.77
452.31	7187.79
452.49	7014.59
452.68	7005.22
452.86	6995.86
453.05	7185.44
453.23	7087.14
453.42	7117.57
453.60	7211.19
453.78	7091.82
453.97	7119.91
454.15	7110.55
454.34	7211.19
454.52	7417.16
454.70	7363.33
454.89	7351.62
455.07	7323.54
455.26	7487.37
455.44	7445.24
455.62	7550.57
455.81	7510.78
455.99	7435.88
456.17	7541.21
456.36	7667.60
456.54	7616.10
456.73	7801.01
456.91	7873.56
457.09	7660.57
457.28	7939.10
457.46	7824.41
457.64	7964.84
457.83	7801.01
458.01	7669.94
458.19	8325.29
458.38	7885.26
458.56	8004.63
458.74	8072.51
458.93	8128.68
459.11	8273.79
459.29	8198.90
459.48	8257.41
459.66	8252.73
459.84	8210.60
460.03	8360.39
460.21	8304.22
460.39	8091.23
460.57	8280.82
460.76	8208.26
460.94	8334.65
461.12	8381.46
461.31	8418.91
461.49	8503.17
461.67	8222.30
461.85	8617.85
462.04	8540.61
462.22	8737.22
462.40	8713.81
462.59	8451.67
462.77	8798.07
462.95	8716.16
463.13	8945.53
463.32	8800.41
463.50	8709.13
463.68	8795.73
463.86	8727.86
464.05	8648.28
464.23	8809.78
464.41	8929.14
464.59	8535.93
464.78	9167.88
464.96	8987.66
465.14	8814.46
465.32	9097.66
465.50	9151.49
465.69	9109.36
465.87	9188.94
466.05	8847.22
466.23	9041.49
466.41	9109.36
466.60	9535.34
466.78	9111.71
466.96	9085.96
467.14	9085.96
467.32	9139.79
467.51	9362.14
467.69	9034.47
467.87	9247.46
468.05	9364.48
468.23	9111.71
468.41	9303.63
468.60	9399.59
468.78	9516.62
468.96	9303.63
469.14	9591.52
469.32	9689.82
469.50	9233.41
469.69	9710.88
469.87	9778.76
470.05	9823.23
470.23	9598.54
470.41	9790.46
470.59	9872.38
470.77	9708.54
470.95	9762.37
471.14	10270.27
471.32	9818.55
471.50	10186.01
471.68	10274.95
471.86	10298.36
472.04	9996.43
472.22	10209.42
472.40	10204.74
472.58	10347.51
472.77	10277.29
472.95	10347.51
473.13	10986.47
473.31	10452.83
473.49	10590.92
473.67	10410.70
473.85	10586.24
474.03	10829.66
474.21	10583.90
474.39	11028.60
474.57	10930.30
474.75	11101.16
474.93	11140.95
475.12	10920.94
475.30	11147.97
475.48	11028.60
475.66	11204.14
475.84	11316.49
476.02	11477.99
476.20	11325.85
476.38	11489.69
476.56	11868.86
476.74	11793.96
476.92	11735.45
477.10	11733.11
477.28	11749.49
477.46	11831.41
477.64	12238.66
477.82	12229.30
478.00	12566.34
478.18	12479.74
478.36	12784.01
478.54	12608.47
478.72	12592.08
478.90	12985.29
479.08	13013.38
479.26	12996.99
479.44	13254.45
479.62	13151.47
479.80	13362.12
479.98	13156.15
480.16	13390.20
480.34	13422.97
480.52	13771.71
480.70	13757.67
480.88	13455.74
481.06	13490.85
481.24	13708.52
481.41	14253.86
481.59	14068.96
481.77	14249.18
481.95	14267.91
482.13	14637.71
482.31	14590.90
482.49	14747.72
482.67	14890.49
482.85	15096.46
483.03	15232.21
483.21	15279.02
483.39	15492.01
483.57	15084.75
483.74	15524.77
483.92	15810.32
484.10	15676.91
484.28	15960.11
484.46	16334.60
484.64	16456.31
484.82	15957.77
485.00	16290.13
485.18	16393.11
485.35	16964.20
485.53	16713.77
485.71	16919.73
485.89	17352.73
486.07	17322.30
486.25	17502.53
486.43	17174.85
486.61	17586.79
486.78	17657.00
486.96	17673.39
487.14	18480.87
487.32	18244.48
487.50	17877.01
487.68	18118.09
487.85	18581.51
488.03	18764.07
488.21	19126.86
488.39	19133.88
488.57	19260.27
488.75	19023.87
488.92	19639.44
489.10	19719.01
489.28	19765.82
489.46	20044.35
489.64	19737.74
489.81	20023.28
489.99	20049.03
490.17	20362.66
490.35	20645.87
490.53	20503.09
490.70	20812.04
490.88	20695.02
491.06	20821.41
491.24	20919.71
491.41	21106.95
491.59	21429.94
491.77	21418.24
491.95	21596.12
492.13	21685.06
492.30	21965.93
492.48	21942.52
492.66	22157.85
492.84	22001.04
493.01	22260.84
493.19	22401.27
493.37	22530.00
493.54	22579.15
493.72	22742.99
493.90	22764.05
494.08	23133.86
494.25	23250.88
494.43	23243.86
494.61	23356.21
494.79	23798.57
494.96	24037.30
495.14	23913.25
495.32	24119.22
495.49	24070.07
495.67	24304.12
495.85	24372.00
496.02	24812.02
496.20	24678.61
496.38	24680.95
496.55	24556.90
496.73	25479.07
496.91	24978.20
497.09	24964.15
497.26	25443.96
497.44	25553.97
497.62	25872.28
497.79	25715.47
497.97	25851.22
498.14	26221.02
498.32	25816.11
498.50	26307.62
498.67	26691.47
498.85	26597.85
499.03	26618.91
499.20	27147.87
499.38	26611.89
499.56	26920.84
499.73	27152.55
499.91	27229.79
500.08	27407.67
500.26	27054.25
500.44	27094.04
500.61	27686.20
500.79	27494.27
500.97	27592.58
501.14	28009.19
501.32	28205.80
501.49	27665.13
501.67	28128.56
501.84	27992.81
502.02	28173.03
502.20	28362.61
502.37	28442.19
502.55	28379.00
502.72	28535.81
502.90	28603.69
503.07	28489.00
503.25	28865.83
503.43	29088.18
503.60	29032.00
503.78	29046.05
503.95	29024.98
504.13	29518.84
504.30	29490.75
504.48	29408.83
504.65	29846.51
504.83	29481.39
505.01	30118.01
505.18	29741.19
505.36	30169.51
505.53	29685.01
505.71	30192.91
505.88	30291.21
506.06	30370.79
506.23	30639.95
506.41	30267.81
506.58	30691.44
506.76	30742.94
506.93	30778.04
507.11	30377.81
507.28	30939.54
507.46	31056.57
507.63	30859.96
507.81	31166.57
507.98	31246.15
508.16	30976.99
508.33	31122.10
508.50	31475.52
508.68	31208.70
508.85	31557.44
509.03	31707.24
509.20	31821.92
509.38	32177.68
509.55	32402.38
509.73	32638.77
509.90	32278.33
510.08	32245.56
510.25	32297.05
510.42	32671.54
510.60	33312.84
510.77	32751.12
510.95	32790.91
511.12	32596.64
511.30	32959.42
511.47	33254.33
511.64	33202.84
511.82	33266.03
511.99	33457.96
512.17	33298.80
512.34	33116.24
512.51	34113.31
512.69	33820.74
512.86	34120.33
513.04	34064.16
513.21	33930.75
513.38	34099.26
513.56	34258.42
513.73	33930.75
513.90	34513.54
514.08	34043.09
514.25	34256.08
514.43	34550.99
514.60	34646.95
514.77	34511.20
514.95	34953.56
515.12	34955.90
515.29	34515.88
515.47	34937.18
515.64	34983.99
515.81	35086.97
515.99	35445.07
516.16	35634.66
516.33	35491.88
516.51	35519.97
516.68	35400.60
516.85	35360.81
517.03	35849.99
517.20	36079.36
517.37	36058.29
517.54	36297.03
517.72	35906.16
517.89	35487.20
518.06	36114.47
518.24	35943.61
518.41	36418.74
518.58	36554.49
518.75	36423.42
518.93	36683.22
519.10	36311.07
519.27	36732.37
519.45	36648.11
519.62	36488.95
519.79	36563.85
519.96	36821.31
520.14	37099.83
520.31	36697.26
520.48	36964.08
520.65	37249.63
520.83	37317.50
521.00	37251.97
521.17	37336.23
521.34	37481.34
521.52	38005.62
521.69	37706.03
521.86	37755.18
522.03	37968.17
522.20	38080.52
522.38	37771.57
522.55	37947.11
522.72	37670.92
522.89	38597.77
523.07	38202.22
523.24	38457.34
523.41	38480.75
523.58	38223.29
523.75	38841.19
523.92	38422.23
524.10	38389.47
524.27	38518.20
524.44	38780.34
524.61	38927.79
524.78	38918.43
524.96	38742.89
525.13	38990.98
525.30	39021.41
525.47	39449.73
525.64	39213.34
525.81	39206.31
525.98	39805.49
526.16	39306.96
526.33	39386.54
526.50	39679.10
526.67	38965.24
526.84	39491.86
527.01	39779.74
527.18	39840.60
527.36	39777.40
527.53	40257.21
527.70	40388.28
527.87	40240.83
528.04	40044.23
528.21	40493.61
528.38	40149.55
528.55	40294.66
528.72	40187.00
528.89	40430.41
529.07	40278.28
529.24	40184.66
529.41	40589.57
529.58	40287.64
529.75	40435.10
529.92	40446.80
530.09	40739.36
530.26	40751.07
530.43	40507.65
530.60	40844.69
530.77	40755.75
530.94	41261.30
531.11	40797.88
531.28	41184.07
531.46	41146.62
531.63	41633.45
531.80	41284.71
531.97	41488.34
532.14	41441.53
532.31	41188.75
532.48	41361.95
532.65	41832.39
532.82	41617.07
532.99	41560.89
533.16	41549.19
533.33	42080.49
533.50	42174.11
533.67	42288.80
533.84	41911.97
534.01	42253.69
534.18	41427.48
534.35	42068.79
534.52	42078.15
534.69	42471.36
534.86	42370.72
535.03	41949.42
535.20	42485.40
535.37	42572.00
535.54	42616.47
535.71	42211.56
535.88	42178.79
536.05	42241.99
536.22	42501.79
536.38	43236.72
536.55	42754.57
536.72	42817.76
536.89	42885.64
537.06	42555.62
537.23	42880.95
537.40	42920.74
537.57	42789.67
537.74	43030.75
537.91	43419.28
538.08	43098.62
538.25	43487.15
538.42	43014.37
538.59	43405.23
538.75	42665.63
538.92	43199.27
539.09	43524.60
539.26	43700.14
539.43	43468.43
539.60	43627.59
539.77	43889.73
539.94	44109.74
540.11	43658.01
540.28	43819.51
540.44	43690.78
540.61	43871.00
540.78	44203.36
540.95	44201.02
541.12	44247.83
541.29	44081.65
541.46	44336.77
541.62	44814.24
541.79	44226.76
541.96	44072.29
542.13	44348.47
542.30	44421.03
542.47	44746.36
542.63	44432.73
542.80	44945.31
542.97	45116.17
543.14	45095.10
543.31	44905.52
543.48	44996.80
543.64	45092.76
543.81	45333.84
543.98	45338.52
544.15	45710.66
544.32	45242.56
544.48	45567.89
544.65	44959.35
544.82	44849.35
544.99	44933.60
545.16	45464.91
545.32	45734.07
545.49	45918.97
545.66	46562.62
545.83	46162.39
546.00	46394.10
546.16	45680.24
546.33	46003.23
546.50	45123.19
546.67	45570.23
546.83	45312.77
547.00	45490.65
547.17	45312.77
547.34	45813.65
547.50	45759.81
547.67	46244.30
547.84	45914.29
548.00	46024.29
548.17	46330.90
548.34	46227.92
548.51	46122.60
548.67	46272.39
548.84	46073.45
549.01	46078.13
549.18	46113.23
549.34	45930.67
549.51	46036.00
549.68	46216.22
549.84	45769.18
550.01	46108.55
550.18	45668.53
550.34	46478.36
550.51	46230.26
550.68	46007.91
550.84	46373.03
551.01	46808.37
551.18	45764.49
551.34	46253.67
551.51	46248.99
551.68	46536.87
551.84	46408.14
552.01	46108.55
552.18	46501.76
552.34	46342.61
552.51	46981.57
552.68	46527.51
552.84	46618.79
553.01	46667.94
553.18	46754.54
553.34	46782.63
553.51	46740.50
553.67	46773.27
553.84	47136.05
554.01	47428.62
554.17	47182.86
554.34	46871.57
554.51	46724.11
554.67	46899.65
554.84	46939.44
555.00	47374.78
555.17	46766.24
555.33	46810.71
555.50	47201.58
555.67	46939.44
555.83	47047.11
556.00	46768.58
556.16	47681.39
556.33	46920.72
556.50	47119.66
556.66	46932.42
556.83	47089.24
556.99	47555.00
557.16	47674.37
557.32	47241.37
557.49	47402.87
557.65	47084.56
557.82	46843.48
557.98	47260.10
558.15	47035.41
558.32	47557.35
558.48	47416.91
558.65	47585.43
558.81	47442.66
558.98	47789.06
559.14	47508.19
559.31	47239.03
559.47	47992.68
559.64	47962.26
559.80	47878.00
559.97	47512.88
560.13	47517.56
560.30	47402.87
560.46	47730.54
560.63	47854.59
560.79	47700.12
560.96	48002.05
561.12	47992.68
561.29	47185.20
561.45	47835.87
561.61	48027.79
561.78	47980.98
561.94	47882.68
562.11	47819.49
562.27	47540.96
562.44	47547.98
562.60	48011.41
562.77	47653.31
562.93	47721.18
563.10	48046.52
563.26	47800.76
563.42	48257.17
563.59	48011.41
563.75	47959.92
563.92	48039.50
564.08	47969.28
564.24	47690.76
564.41	47803.10
564.57	47758.63
564.74	47927.15
564.90	48219.72
565.07	48236.10
565.23	48271.21
565.39	47995.03
565.56	47999.71
565.72	47821.83
565.88	48048.86
566.05	48240.78
566.21	48039.50
566.38	47763.31
566.54	48463.13
566.70	48315.68
566.87	48608.25
567.03	48133.12
567.19	48463.13
567.36	48140.14
567.52	47959.92
567.68	48264.19
567.85	47777.36
568.01	48002.05
568.17	48044.18
568.34	48327.38
568.50	48322.70
568.66	47995.03
568.83	48121.41
568.99	48327.38
569.15	48175.25
569.32	48229.08
569.48	48037.16
569.64	48137.80
569.81	48006.73
569.97	48109.71
570.13	48107.37
570.30	48030.13
570.46	48390.58
570.62	48107.37
570.78	48208.01
570.95	47908.43
571.11	48196.31
571.27	47648.63
571.43	48002.05
571.60	48334.40
571.76	48030.13
571.92	48601.22
572.09	48566.12
572.25	48523.99
572.41	48289.93
572.57	48486.54
572.74	48596.54
572.90	48278.23
573.06	48200.99
573.22	48397.60
573.38	48423.34
573.55	48444.41
573.71	48851.66
573.87	48863.36
574.03	47817.14
574.20	48474.84
574.36	47863.96
574.52	48641.01
574.68	48435.05
574.84	48301.64
575.01	48423.34
575.17	48554.41
575.33	48229.08
575.49	48336.74
575.65	48753.36
575.82	48526.33
575.98	48126.10
576.14	48708.89
576.30	48776.76
576.46	48299.30
576.62	48531.01
576.79	48360.15
576.95	48456.11
577.11	48769.74
577.27	48240.78
577.43	48236.10
577.59	48322.70
577.75	48233.76
577.92	48275.89
578.08	48439.73
578.24	48296.95
578.40	48507.60
578.56	48233.76
578.72	48456.11
578.88	48664.42
579.04	48659.74
579.21	48556.75
579.37	48612.93
579.53	48093.33
579.69	48364.83
579.85	48495.90
580.01	48044.18
580.17	48596.54
580.33	48051.20
580.49	48589.52
580.65	48706.55
580.82	48666.76
580.98	48470.15
581.14	48383.55
581.30	48257.17
581.46	48252.48
581.62	48079.28
581.78	47980.98
581.94	48425.68
582.10	48507.60
582.26	48208.01
582.42	48694.85
582.58	48622.29
582.74	48547.39
582.90	48739.32
583.06	48720.59
583.22	48200.99
583.38	48479.52
583.54	48516.96
583.70	48233.76
583.86	48512.28
584.02	48287.59
584.18	48343.77
584.34	48397.60
584.50	48886.77
584.66	48250.14
584.82	48488.88
584.98	48538.03
585.14	48123.75
585.30	48411.64
585.46	48378.87
585.62	48114.39
585.78	48877.41
585.94	48301.64
586.10	48655.06
586.26	48456.11
586.42	48570.80
586.58	48671.44
586.74	48399.94
586.90	48554.41
587.06	48275.89
587.22	48449.09
587.38	48413.98
587.54	48481.86
587.70	48727.61
587.86	48711.23
588.02	48502.92
588.18	48718.25
588.34	48701.87
588.49	48629.31
588.65	48392.92
588.81	48526.33
588.97	48512.28
589.13	48479.52
589.29	48687.82
589.45	48774.42
589.61	48486.54
589.77	48734.63
589.93	48832.94
590.08	48973.37
590.24	48722.93
590.40	48687.82
