SpectraSuite Data File
++++++++++++++++++++++++++++++++++++
Date: Fri Oct 04 11:39:34 GMT-05:00 2013
User: price-jones
Dark Spectrum Present: No
Reference Spectrum Present: No
Number of Sampled Component Spectra: 1
Spectrometers: USB2+H05261
Integration Time (usec): 100000 (USB2+H05261)
Spectra Averaged: 1 (USB2+H05261)
Boxcar Smoothing: 0 (USB2+H05261)
Correct for Electrical Dark: No (USB2+H05261)
Strobe/Lamp Enabled: No (USB2+H05261)
Correct for Detector Non-linearity: No (USB2+H05261)
Correct for Stray Light: No (USB2+H05261)
Number of Pixels in Processed Spectrum: 2048
>>>>>Begin Processed Spectral Data<<<<<
365.73	100.64
365.92	100.64
366.12	100.64
366.32	0.00
366.52	0.00
366.72	70.22
366.91	0.00
367.11	0.00
367.31	0.00
367.51	0.00
367.70	0.00
367.90	0.00
368.10	0.00
368.30	16.38
368.49	0.00
368.69	0.00
368.89	0.00
369.09	0.00
369.28	0.00
369.48	0.00
369.68	18.72
369.87	0.00
370.07	81.92
370.27	21.06
370.47	2.34
370.66	88.94
370.86	131.07
371.06	159.16
371.25	173.20
371.45	105.32
371.65	166.18
371.84	196.60
372.04	98.30
372.24	110.01
372.44	159.16
372.63	220.01
372.83	227.03
373.03	166.18
373.22	138.09
373.42	163.84
373.62	220.01
373.81	201.29
374.01	231.71
374.21	299.59
374.40	250.44
374.60	205.97
374.79	215.33
374.99	229.37
375.19	250.44
375.38	217.67
375.58	234.05
375.78	227.03
375.97	196.60
376.17	222.35
376.37	231.71
376.56	210.65
376.76	182.56
376.95	189.58
377.15	191.92
377.35	306.61
377.54	224.69
377.74	266.82
377.93	189.58
378.13	201.29
378.33	210.65
378.52	234.05
378.72	220.01
378.91	250.44
379.11	229.37
379.31	215.33
379.50	215.33
379.70	222.35
379.89	121.71
380.09	166.18
380.28	189.58
380.48	264.48
380.68	177.88
380.87	201.29
381.07	180.22
381.26	245.76
381.46	292.57
381.65	210.65
381.85	147.45
382.04	149.79
382.24	297.25
382.43	248.10
382.63	241.08
382.83	238.73
383.02	250.44
383.22	217.67
383.41	238.73
383.61	280.86
383.80	198.95
384.00	147.45
384.19	203.63
384.39	210.65
384.58	266.82
384.78	264.48
384.97	292.57
385.17	283.20
385.36	234.05
385.56	287.89
385.75	367.46
385.95	306.61
386.14	229.37
386.34	271.50
386.53	241.08
386.72	243.42
386.92	367.46
387.11	290.23
387.31	351.08
387.50	255.12
387.70	217.67
387.89	259.80
388.09	304.27
388.28	262.14
388.48	224.69
388.67	325.33
388.86	278.52
389.06	297.25
389.25	313.63
389.45	318.31
389.64	301.93
389.84	301.93
390.03	304.27
390.22	337.04
390.42	304.27
390.61	362.78
390.81	229.37
391.00	238.73
391.19	351.08
391.39	341.72
391.58	304.27
391.78	325.33
391.97	334.70
392.16	351.08
392.36	383.85
392.55	327.68
392.75	400.23
392.94	264.48
393.13	407.25
393.33	367.46
393.52	372.15
393.71	322.99
393.91	386.19
394.10	374.49
394.29	351.08
394.49	257.46
394.68	372.15
394.88	440.02
395.07	458.74
395.26	397.89
395.46	411.93
395.65	482.15
395.84	374.49
396.04	454.06
396.23	353.42
396.42	472.79
396.62	461.09
396.81	386.19
397.00	458.74
397.19	411.93
397.39	463.43
397.58	456.40
397.77	442.36
397.97	514.92
398.16	449.38
398.35	552.37
398.55	479.81
398.74	461.09
398.93	512.58
399.12	510.24
399.32	491.51
399.51	545.34
399.70	543.00
399.90	594.50
400.09	568.75
400.28	660.03
400.47	578.11
400.67	524.28
400.86	610.88
401.05	608.54
401.24	554.71
401.44	699.82
401.63	678.76
401.82	662.37
402.01	580.45
402.21	653.01
402.40	585.13
402.59	669.39
402.78	725.57
402.97	709.18
403.17	751.31
403.36	657.69
403.55	692.80
403.74	748.97
403.93	828.55
404.13	798.12
404.32	671.73
404.51	770.04
404.70	760.67
404.89	655.35
405.09	866.00
405.28	784.08
405.47	781.74
405.66	894.08
405.85	880.04
406.05	844.93
406.24	896.43
406.43	858.98
406.62	964.30
406.81	987.71
407.00	926.85
407.20	954.94
407.39	938.55
407.58	924.51
407.77	994.73
407.96	1041.54
408.15	950.26
408.34	1034.52
408.54	1055.58
408.73	1032.18
408.92	1074.31
409.11	1165.59
409.30	1097.71
409.49	1118.78
409.68	1188.99
409.87	1144.52
410.07	1259.21
410.26	1116.44
410.45	1181.97
410.64	1212.40
410.83	1210.06
411.02	1217.08
411.21	1273.25
411.40	1256.87
411.59	1327.08
411.78	1263.89
411.98	1352.83
412.17	1385.60
412.36	1289.64
412.55	1301.34
412.74	1441.77
412.93	1455.81
413.12	1556.46
413.31	1427.73
413.50	1495.60
413.69	1481.56
413.88	1614.97
414.07	1570.50
414.26	1577.52
414.45	1572.84
414.64	1596.25
414.83	1729.66
415.02	1640.72
415.22	1694.55
415.41	1760.08
415.60	1746.04
415.79	1886.47
415.98	1813.92
416.17	1846.68
416.36	1863.07
416.55	1825.62
416.74	1806.89
416.93	1832.64
417.12	1837.32
417.31	1900.52
417.50	1966.05
417.69	2024.56
417.88	2064.35
418.07	2019.88
418.26	1921.58
418.45	2057.33
418.64	2099.46
418.83	2062.01
419.02	2078.40
419.21	2064.35
419.39	2069.03
419.58	2094.78
419.77	2106.48
419.96	2270.32
420.15	2221.17
420.34	2139.25
420.53	2153.29
420.72	2211.81
420.91	2321.81
421.10	2284.36
421.29	2242.23
421.48	2216.49
421.67	2300.75
421.86	2314.79
422.05	2328.83
422.24	2333.51
422.43	2324.15
422.61	2427.14
422.80	2370.96
422.99	2394.37
423.18	2403.73
423.37	2303.09
423.56	2450.54
423.75	2455.22
423.94	2284.36
424.13	2260.96
424.32	2366.28
424.50	2567.57
424.69	2487.99
424.88	2518.42
425.07	2415.43
425.26	2427.14
425.45	2516.08
425.64	2382.67
425.83	2476.29
426.01	2452.88
426.20	2469.27
426.39	2413.09
426.58	2476.29
426.77	2567.57
426.96	2415.43
427.15	2562.89
427.33	2476.29
427.52	2593.31
427.71	2684.59
427.90	2642.46
428.09	2583.95
428.28	2574.59
428.46	2656.51
428.65	2633.10
428.84	2743.11
429.03	2684.59
429.22	2593.31
429.40	2630.76
429.59	2675.23
429.78	2572.25
429.97	2806.30
430.16	2740.77
430.34	2782.90
430.53	2754.81
430.72	2780.56
430.91	2843.75
431.10	2825.03
431.28	3028.65
431.47	2923.33
431.66	2918.65
431.85	2911.63
432.03	3016.95
432.22	2995.89
432.41	3023.97
432.60	2897.58
432.79	2888.22
432.97	2972.48
433.16	3066.10
433.35	2984.18
433.54	3145.68
433.72	3082.49
433.91	3117.59
434.10	3056.74
434.28	3091.85
434.47	3173.77
434.66	3204.19
434.85	3208.87
435.03	3148.02
435.22	3318.88
435.41	3555.27
435.59	3517.83
435.78	3445.27
435.97	3300.16
436.16	3190.15
436.34	3316.54
436.53	3267.39
436.72	3351.65
436.90	3253.34
437.09	3269.73
437.28	3173.77
437.46	3318.88
437.65	3251.00
437.84	3389.10
438.02	3337.60
438.21	3382.07
438.40	3396.12
438.58	3386.76
438.77	3562.30
438.96	3503.78
439.14	3611.45
439.33	3449.95
439.52	3660.60
439.70	3707.41
439.89	3772.94
440.08	3698.05
440.26	3627.83
440.45	3777.62
440.63	3747.20
440.82	3721.45
441.01	3775.28
441.19	3953.16
441.38	3904.01
441.57	4032.74
441.75	3915.72
441.94	4173.18
442.12	3953.16
442.31	4117.00
442.50	4051.47
442.68	3964.87
442.87	4119.34
443.05	4133.39
443.24	4065.51
443.43	4117.00
443.61	4217.65
443.80	4322.97
443.98	4109.98
444.17	4032.74
444.35	4215.30
444.54	4306.59
444.73	4292.54
444.91	4292.54
445.10	4189.56
445.28	4234.03
445.47	4042.11
445.65	4091.26
445.84	4219.99
446.02	4259.78
446.21	4198.92
446.39	4102.96
446.58	4283.18
446.77	4365.10
446.95	4154.45
447.14	4430.63
447.32	4463.40
447.51	4177.86
447.69	4262.12
447.88	4266.80
448.06	4379.14
448.25	4297.22
448.43	4332.33
448.62	4283.18
448.80	4379.14
448.99	4503.19
449.17	4362.76
449.36	4367.44
449.54	4337.01
449.73	4622.56
449.91	4442.34
450.10	4561.70
450.28	4550.00
450.46	4634.26
450.65	4542.98
450.83	4561.70
451.02	4517.23
451.20	4713.84
451.39	4688.09
451.57	4578.09
451.76	4755.97
451.94	4533.62
452.13	4681.07
452.31	4688.09
452.49	4662.35
452.68	4660.01
452.86	4737.24
453.05	4753.63
453.23	4718.52
453.42	4652.98
453.60	4699.80
453.78	4744.27
453.97	4652.98
454.15	4835.55
454.34	4718.52
454.52	4954.91
454.70	4945.55
454.89	4924.49
455.07	4877.68
455.26	4809.80
455.44	4821.50
455.62	4975.98
455.81	4954.91
455.99	5132.79
456.17	5062.58
456.36	4954.91
456.54	5219.39
456.73	5090.67
456.91	5172.58
457.09	5074.28
457.28	5238.12
457.46	5146.84
457.64	5301.31
457.83	5210.03
458.01	5224.08
458.19	5275.57
458.38	5420.68
458.56	5406.64
458.74	5453.45
458.93	5554.09
459.11	5439.40
459.29	5387.91
459.48	5425.36
459.66	5460.47
459.84	5469.83
460.03	5556.43
460.21	5324.72
460.39	5488.56
460.57	5572.82
460.76	5563.45
460.94	5607.92
461.12	5575.16
461.31	5722.61
461.49	5671.12
461.67	5664.10
461.85	5680.48
462.04	5643.03
462.22	5891.13
462.40	5818.57
462.59	5792.83
462.77	5682.82
462.95	5813.89
463.13	5724.95
463.32	5853.68
463.50	5769.42
463.68	5968.37
463.86	5856.02
464.05	5839.64
464.23	5839.64
464.41	6171.99
464.59	5795.17
464.78	6108.80
464.96	5991.77
465.14	5771.76
465.32	5914.53
465.50	6090.07
465.69	6050.28
465.87	6050.28
466.05	6076.03
466.23	6115.82
466.41	6078.37
466.60	6342.85
466.78	5933.26
466.96	6125.18
467.14	5935.60
467.32	6237.53
467.51	6223.48
467.69	6193.06
467.87	6267.95
468.05	6160.29
468.23	6277.32
468.41	6239.87
468.60	6225.82
468.78	6422.43
468.96	6235.19
469.14	6424.77
469.32	6354.55
469.50	6061.99
469.69	6541.80
469.87	6424.77
470.05	6635.42
470.23	6656.48
470.41	6567.54
470.59	6518.39
470.77	6579.25
470.95	6633.08
471.14	6724.36
471.32	6548.82
471.50	6686.91
471.68	6658.82
471.86	6829.68
472.04	6792.23
472.22	6932.67
472.40	6775.85
472.58	6839.05
472.77	6860.11
472.95	7159.70
473.13	7136.29
473.31	6960.75
473.49	6995.86
473.67	7047.35
473.85	6927.99
474.03	7040.33
474.21	7258.00
474.39	7281.41
474.57	7283.75
474.75	7248.64
474.93	7449.93
475.12	7220.55
475.30	7475.67
475.48	7197.15
475.66	7494.40
475.84	7440.56
476.02	7698.02
476.20	7527.16
476.38	7641.85
476.56	7866.54
476.74	7653.55
476.92	7892.29
477.10	8002.29
477.28	7899.31
477.46	8016.33
477.64	8145.06
477.82	8182.51
478.00	8222.30
478.18	8514.87
478.36	8257.41
478.54	8479.76
478.72	8355.71
478.90	8507.85
479.08	8720.84
479.26	8650.62
479.44	8842.54
479.62	8795.73
479.80	9039.15
479.98	8821.48
480.16	9085.96
480.34	8910.42
480.52	9130.43
480.70	9153.84
480.88	9118.73
481.06	9254.48
481.24	9294.27
481.41	9270.86
481.59	9462.79
481.77	9643.01
481.95	9511.94
482.13	9661.73
482.31	9685.14
482.49	9820.89
482.67	9804.50
482.85	10120.48
483.03	10078.35
483.21	10289.00
483.39	10326.44
483.57	10232.82
483.74	10462.19
483.92	10473.90
484.10	10525.39
484.28	10553.48
484.46	10768.80
484.64	10820.30
484.82	10665.82
485.00	10911.58
485.18	11239.25
485.35	11068.39
485.53	11152.65
485.71	11351.60
485.89	11386.71
486.07	11185.42
486.25	11454.58
486.43	11463.94
486.61	11676.93
486.78	11503.73
486.96	12044.40
487.14	12060.78
487.32	12020.99
487.50	11939.07
487.68	12205.89
487.85	12552.29
488.03	12439.95
488.21	12564.00
488.39	12805.07
488.57	12652.94
488.75	12643.57
488.92	12959.55
489.10	12844.86
489.28	12982.95
489.46	13221.69
489.64	13355.10
489.81	13762.35
489.99	13500.21
490.17	13444.04
490.35	13699.16
490.53	13848.95
490.70	13748.31
490.88	13933.21
491.06	13947.25
491.24	13958.96
491.41	14118.11
491.59	14310.04
491.77	14525.36
491.95	14244.50
492.13	14504.30
492.30	14450.47
492.48	14476.21
492.66	14494.94
492.84	14878.79
493.01	14745.38
493.19	15110.50
493.37	15049.64
493.54	15283.70
493.72	15272.00
493.90	15538.82
494.08	15332.85
494.25	15627.76
494.43	15857.13
494.61	15735.42
494.79	15896.92
494.96	15798.62
495.14	15817.34
495.32	16116.93
495.49	16042.03
495.67	16011.60
495.85	16201.19
496.02	16472.69
496.20	16154.38
496.38	16346.30
496.55	16318.22
496.73	17032.08
496.91	16826.11
497.09	16980.59
497.26	17235.70
497.44	16830.79
497.62	17123.36
497.79	17242.73
497.97	17057.82
498.14	17743.60
498.32	17572.74
498.50	17752.96
498.67	17572.74
498.85	17635.94
499.03	17577.42
499.20	17839.56
499.38	17493.16
499.56	18097.02
499.73	18377.89
499.91	18188.30
500.08	18424.70
500.26	17837.22
500.44	18298.31
500.61	18623.64
500.79	18417.68
500.97	18534.70
501.14	18618.96
501.32	18609.60
501.49	18792.16
501.67	18656.41
501.84	18911.53
502.02	18895.14
502.20	19309.42
502.37	19260.27
502.55	18740.67
502.72	19201.76
502.90	18916.21
503.07	19208.78
503.25	19283.67
503.43	19204.10
503.60	19391.34
503.78	19765.82
503.95	19723.69
504.13	19412.40
504.30	19424.11
504.48	19728.38
504.65	19924.98
504.83	20032.65
505.01	20077.12
505.18	19875.83
505.36	20418.83
505.53	20177.76
505.71	19716.67
505.88	20446.92
506.06	19929.66
506.23	20423.51
506.41	20388.41
506.58	20430.54
506.76	20430.54
506.93	20563.95
507.11	20475.01
507.28	20744.17
507.46	20870.56
507.63	20985.24
507.81	21289.51
507.98	20896.30
508.16	21352.71
508.33	20961.84
508.50	21252.06
508.68	21326.96
508.85	21603.14
509.03	21502.50
509.20	21247.38
509.38	21771.66
509.55	21598.46
509.73	21626.55
509.90	21729.53
510.08	21687.40
510.25	21867.63
510.42	22050.19
510.60	21886.35
510.77	22181.26
510.95	22190.62
511.12	22054.87
511.30	21958.91
511.47	22501.91
511.64	22263.18
511.82	22237.43
511.99	22387.22
512.17	22785.12
512.34	22902.14
512.51	22534.68
512.69	22396.59
512.86	22820.22
513.04	22918.53
513.21	23098.75
513.38	22951.29
513.56	23126.83
513.73	23197.05
513.90	23108.11
514.08	22829.59
514.25	23094.07
514.43	23337.48
514.60	23625.37
514.77	23618.35
514.95	23440.47
515.12	23541.11
515.29	23417.06
515.47	23786.86
515.64	23735.37
515.81	24210.50
515.99	24065.39
516.16	24390.72
516.33	24023.26
516.51	24266.67
516.68	24084.11
516.85	23978.79
517.03	24271.36
517.20	24056.03
517.37	24149.65
517.54	24320.51
517.72	24308.80
517.89	24364.98
518.06	24245.61
518.24	24395.40
518.41	24140.29
518.58	25085.86
518.75	24627.12
518.93	24952.45
519.10	24568.60
519.27	24961.81
519.45	24622.44
519.62	24903.30
519.79	25167.78
519.96	25137.35
520.14	25301.19
520.31	24847.13
520.48	25352.68
520.65	25348.00
520.83	25453.33
521.00	24760.53
521.17	25256.72
521.34	25497.80
521.52	25647.59
521.69	25766.96
521.86	26054.84
522.03	25844.20
522.20	25563.33
522.38	25979.95
522.55	25834.83
522.72	26284.22
522.89	26019.74
523.07	26230.38
523.24	26195.28
523.41	26157.83
523.58	26108.68
523.75	26412.95
523.92	26206.98
524.10	26352.09
524.27	26438.69
524.44	26431.67
524.61	26764.03
524.78	26883.39
524.96	26707.85
525.13	26892.76
525.30	26677.43
525.47	26979.36
525.64	26782.75
525.81	26757.00
525.98	27470.87
526.16	26883.39
526.33	26787.43
526.50	27068.30
526.67	26965.31
526.84	26965.31
527.01	26972.33
527.18	27447.46
527.36	27241.50
527.53	27159.58
527.70	27520.02
527.87	27365.54
528.04	27522.36
528.21	27555.13
528.38	27433.42
528.55	27758.75
528.72	27920.25
528.89	27929.61
529.07	27693.22
529.24	27646.41
529.41	27807.90
529.58	27903.87
529.75	27981.10
529.92	27803.22
530.09	28086.43
530.26	27615.98
530.43	27894.50
530.60	28084.09
530.77	27903.87
530.94	28126.22
531.11	28238.56
531.28	28119.20
531.46	28151.96
531.63	28198.77
531.80	28631.77
531.97	28432.83
532.14	28498.36
532.31	28004.51
532.48	28418.78
532.65	28657.52
532.82	28308.78
532.99	28575.60
533.16	28472.62
533.33	29104.56
533.50	29158.39
533.67	28835.40
533.84	28725.39
534.01	29085.84
534.18	28912.64
534.35	29261.38
534.52	28545.17
534.69	29434.58
534.86	29369.04
535.03	28790.93
535.20	29373.72
535.37	29326.91
535.54	29074.13
535.71	28671.56
535.88	29160.73
536.05	29153.71
536.22	29364.36
536.38	29607.78
536.55	29514.16
536.72	29465.00
536.89	29516.50
537.06	29312.87
537.23	29490.75
537.40	29563.31
537.57	29638.20
537.74	29635.86
537.91	30010.35
538.08	29970.56
538.25	29628.84
538.42	30237.38
538.59	29909.71
538.75	29902.68
538.92	30038.44
539.09	30326.32
539.26	30281.85
539.43	30237.38
539.60	30169.51
539.77	30274.83
539.94	30611.87
540.11	30410.58
540.28	30352.07
540.44	30338.02
540.61	30410.58
540.78	30747.62
540.95	30785.07
541.12	30700.81
541.29	30969.97
541.46	30906.77
541.62	30817.83
541.79	30813.15
541.96	30771.02
542.13	30848.26
542.30	31105.72
542.47	31267.22
542.63	31150.19
542.80	31051.89
542.97	31833.63
543.14	31178.28
543.31	31339.77
543.48	31112.74
543.64	31590.21
543.81	31800.86
543.98	31440.42
544.15	31859.37
544.32	31606.59
544.48	31772.77
544.65	31519.99
544.82	31166.57
544.99	31365.52
545.16	31522.34
545.32	31630.00
545.49	32030.23
545.66	32732.39
545.83	32694.94
546.00	32840.06
546.16	32063.00
546.33	31562.12
546.50	31529.36
546.67	31749.37
546.83	31475.52
547.00	31763.41
547.17	31824.26
547.34	31702.56
547.50	31931.93
547.67	32549.83
547.84	32320.46
548.00	31777.45
548.17	32479.61
548.34	31704.90
548.51	31847.67
548.67	32240.88
548.84	32357.91
549.01	32240.88
549.18	32320.46
549.34	32151.94
549.51	32177.68
549.68	32275.99
549.84	31796.18
550.01	32388.33
550.18	32016.19
550.34	32261.94
550.51	32245.56
550.68	32507.70
550.84	32297.05
551.01	32301.73
551.18	32140.24
551.34	32123.85
551.51	32247.90
551.68	32336.84
551.84	32432.80
552.01	32297.05
552.18	32830.69
552.34	32500.68
552.51	32275.99
552.68	32065.34
552.84	32587.28
553.01	32680.90
553.18	32435.14
553.34	32566.21
553.51	32896.23
553.67	32535.79
553.84	32940.70
554.01	32826.01
554.17	32842.40
554.34	32889.21
554.51	32753.46
554.67	32905.59
554.84	32826.01
555.00	32741.75
555.17	32891.55
555.33	33242.63
555.50	32896.23
555.67	32690.26
555.83	32905.59
556.00	32631.75
556.16	33240.29
556.33	32622.39
556.50	33027.30
556.66	33127.94
556.83	32924.32
556.99	33214.54
557.16	33039.00
557.32	33153.69
557.49	33242.63
557.65	32687.92
557.82	32907.93
557.98	33057.73
558.15	33092.83
558.32	33092.83
558.48	32961.76
558.65	33525.83
558.81	33273.06
558.98	33074.11
559.14	33102.20
559.31	33149.01
559.47	33043.68
559.64	33479.02
559.80	33102.20
559.97	33223.90
560.13	33776.27
560.30	33076.45
560.46	33635.84
560.63	33282.42
560.79	33331.57
560.96	33273.06
561.12	33233.27
561.29	32994.53
561.45	33574.98
561.61	33537.54
561.78	33347.95
561.94	33741.16
562.11	33237.95
562.27	33376.04
562.44	33158.37
562.60	33179.43
562.77	33872.23
562.93	33237.95
563.10	33521.15
563.26	33457.96
563.42	33799.68
563.59	33853.51
563.75	33771.59
563.92	34302.89
564.08	33364.34
564.24	33628.82
564.41	33668.61
564.57	33659.24
564.74	33420.51
564.90	33483.70
565.07	33654.56
565.23	33785.63
565.39	33404.13
565.56	33617.11
565.72	33537.54
565.88	33523.49
566.05	33701.37
566.21	33221.56
566.38	33369.02
566.54	33518.81
566.70	33539.88
566.87	33710.74
567.03	33502.43
567.19	33902.66
567.36	33626.48
567.52	33706.05
567.68	33680.31
567.85	33551.58
568.01	33806.70
568.17	33441.57
568.34	33921.38
568.50	33921.38
568.66	33654.56
568.83	34085.22
568.99	33841.81
569.15	33607.75
569.32	33640.52
569.48	33331.57
569.64	33586.69
569.81	33830.10
569.97	34045.43
570.13	34103.95
570.30	33879.25
570.46	33902.66
570.62	33790.31
570.78	33385.40
570.95	33713.08
571.11	33996.28
571.27	33727.12
571.43	33579.67
571.60	33820.74
571.76	34223.31
571.92	33731.80
572.09	33883.94
572.25	34153.10
572.41	33551.58
572.57	34026.71
572.74	34185.86
572.90	33780.95
573.06	33947.13
573.22	33902.66
573.38	34316.93
573.55	34033.73
573.71	34150.76
573.87	34052.45
574.03	33631.16
574.20	33610.09
574.36	33923.72
574.52	33769.25
574.68	33766.91
574.84	33998.62
575.01	33703.71
575.17	34103.95
575.33	33844.15
575.49	33680.31
575.65	34270.12
575.82	33790.31
575.98	33752.87
576.14	33806.70
576.30	34143.74
576.46	34080.54
576.62	34202.25
576.79	33949.47
576.95	33717.76
577.11	34469.07
577.27	33893.30
577.43	34071.18
577.59	33600.73
577.75	34038.41
577.92	33921.38
578.08	33780.95
578.24	33872.23
578.40	33897.98
578.56	34352.04
578.72	33954.15
578.88	34220.97
579.04	34101.61
579.21	34232.68
579.37	34286.51
579.53	33989.26
579.69	34038.41
579.85	34082.88
580.01	34375.45
580.17	33797.34
580.33	34211.61
580.49	33872.23
580.65	34391.83
580.82	34448.00
580.98	34120.33
581.14	34230.33
581.30	34230.33
581.46	33956.49
581.62	34197.57
581.78	33905.00
581.94	34335.66
582.10	33907.34
582.26	34080.54
582.42	33881.60
582.58	34298.21
582.74	34078.20
582.90	34216.29
583.06	34384.81
583.22	34174.16
583.38	34185.86
583.54	33745.84
583.70	34139.05
583.86	34171.82
584.02	34223.31
584.18	34272.46
584.34	34265.44
584.50	34581.42
584.66	33935.43
584.82	34176.50
584.98	34064.16
585.14	34183.52
585.30	33631.16
585.46	33972.88
585.62	34113.31
585.78	34157.78
585.94	34082.88
586.10	34183.52
586.26	34515.88
586.42	34181.18
586.58	34618.86
586.74	34015.01
586.90	33764.57
587.06	34040.75
587.22	34206.93
587.38	33755.21
587.54	34499.50
587.70	34597.80
587.86	34651.63
588.02	34085.22
588.18	34410.56
588.34	34314.59
588.49	34192.89
588.65	33883.94
588.81	34108.63
588.97	34122.67
589.13	33921.38
589.29	34127.35
589.45	34029.05
589.61	34614.18
589.77	34597.80
589.93	34235.02
590.08	34410.56
590.24	34139.05
590.40	34843.56
590.56	34731.21
590.72	34309.91
590.88	33701.37
591.04	34370.77
591.20	34309.91
591.35	34754.61
591.51	35166.55
591.67	34394.17
