SpectraSuite Data File
++++++++++++++++++++++++++++++++++++
Date: Fri Oct 04 11:39:50 GMT-05:00 2013
User: price-jones
Dark Spectrum Present: No
Reference Spectrum Present: No
Number of Sampled Component Spectra: 1
Spectrometers: USB2+H05261
Integration Time (usec): 100000 (USB2+H05261)
Spectra Averaged: 1 (USB2+H05261)
Boxcar Smoothing: 0 (USB2+H05261)
Correct for Electrical Dark: No (USB2+H05261)
Strobe/Lamp Enabled: No (USB2+H05261)
Correct for Detector Non-linearity: No (USB2+H05261)
Correct for Stray Light: No (USB2+H05261)
Number of Pixels in Processed Spectrum: 2048
>>>>>Begin Processed Spectral Data<<<<<
365.73	4.68
365.92	4.68
366.12	4.68
366.32	0.00
366.52	0.00
366.72	0.00
366.91	0.00
367.11	0.00
367.31	0.00
367.51	0.00
367.70	0.00
367.90	0.00
368.10	0.00
368.30	0.00
368.49	0.00
368.69	0.00
368.89	0.00
369.09	0.00
369.28	0.00
369.48	0.00
369.68	0.00
369.87	46.81
370.07	0.00
370.27	42.13
370.47	0.00
370.66	72.56
370.86	79.58
371.06	159.16
371.25	173.20
371.45	65.54
371.65	131.07
371.84	42.13
372.04	100.64
372.24	124.05
372.44	142.77
372.63	88.94
372.83	163.84
373.03	114.69
373.22	98.30
373.42	119.37
373.62	131.07
373.81	145.11
374.01	201.29
374.21	156.82
374.40	124.05
374.60	182.56
374.79	112.35
374.99	107.66
375.19	131.07
375.38	182.56
375.58	121.71
375.78	133.41
375.97	142.77
376.17	175.54
376.37	126.39
376.56	159.16
376.76	163.84
376.95	70.22
377.15	93.62
377.35	128.73
377.54	126.39
377.74	159.16
377.93	163.84
378.13	147.45
378.33	117.03
378.52	124.05
378.72	145.11
378.91	152.13
379.11	70.22
379.31	163.84
379.50	84.26
379.70	187.24
379.89	161.50
380.09	187.24
380.28	86.60
380.48	163.84
380.68	65.54
380.87	102.98
381.07	196.60
381.26	159.16
381.46	138.09
381.65	88.94
381.85	93.62
382.04	243.42
382.24	91.28
382.43	182.56
382.63	110.01
382.83	46.81
383.02	149.79
383.22	147.45
383.41	128.73
383.61	84.26
383.80	121.71
384.00	117.03
384.19	203.63
384.39	149.79
384.58	135.75
384.78	187.24
384.97	201.29
385.17	72.56
385.36	93.62
385.56	135.75
385.75	107.66
385.95	159.16
386.14	184.90
386.34	88.94
386.53	107.66
386.72	44.47
386.92	135.75
387.11	128.73
387.31	121.71
387.50	114.69
387.70	189.58
387.89	138.09
388.09	93.62
388.28	46.81
388.48	42.13
388.67	110.01
388.86	156.82
389.06	131.07
389.25	133.41
389.45	124.05
389.64	102.98
389.84	196.60
390.03	126.39
390.22	117.03
390.42	119.37
390.61	133.41
390.81	107.66
391.00	133.41
391.19	189.58
391.39	135.75
391.58	138.09
391.78	79.58
391.97	161.50
392.16	114.69
392.36	166.18
392.55	138.09
392.75	145.11
392.94	86.60
393.13	208.31
393.33	152.13
393.52	138.09
393.71	145.11
393.91	215.33
394.10	135.75
394.29	138.09
394.49	149.79
394.68	126.39
394.88	138.09
395.07	154.48
395.26	77.24
395.46	159.16
395.65	170.86
395.84	74.90
396.04	245.76
396.23	166.18
396.42	166.18
396.62	159.16
396.81	102.98
397.00	112.35
397.19	168.52
397.39	133.41
397.58	189.58
397.77	124.05
397.97	145.11
398.16	140.43
398.35	208.31
398.55	131.07
398.74	170.86
398.93	210.65
399.12	100.64
399.32	102.98
399.51	201.29
399.70	135.75
399.90	117.03
400.09	138.09
400.28	182.56
400.47	124.05
400.67	252.78
400.86	208.31
401.05	198.95
401.24	168.52
401.44	156.82
401.63	156.82
401.82	159.16
402.01	149.79
402.21	212.99
402.40	145.11
402.59	135.75
402.78	173.20
402.97	168.52
403.17	126.39
403.36	170.86
403.55	212.99
403.74	168.52
403.93	194.26
404.13	229.37
404.32	224.69
404.51	140.43
404.70	201.29
404.89	163.84
405.09	196.60
405.28	102.98
405.47	154.48
405.66	124.05
405.85	187.24
406.05	140.43
406.24	189.58
406.43	210.65
406.62	170.86
406.81	337.04
407.00	203.63
407.20	175.54
407.39	248.10
407.58	168.52
407.77	236.39
407.96	259.80
408.15	142.77
408.34	205.97
408.54	177.88
408.73	177.88
408.92	243.42
409.11	180.22
409.30	243.42
409.49	191.92
409.68	189.58
409.87	203.63
410.07	191.92
410.26	283.20
410.45	220.01
410.64	220.01
410.83	257.46
411.02	135.75
411.21	248.10
411.40	205.97
411.59	215.33
411.78	189.58
411.98	238.73
412.17	273.84
412.36	229.37
412.55	238.73
412.74	245.76
412.93	198.95
413.12	227.03
413.31	271.50
413.50	243.42
413.69	243.42
413.88	269.16
414.07	236.39
414.26	187.24
414.45	161.50
414.64	163.84
414.83	238.73
415.02	273.84
415.22	290.23
415.41	290.23
415.60	135.75
415.79	224.69
415.98	252.78
416.17	210.65
416.36	224.69
416.55	212.99
416.74	330.02
416.93	252.78
417.12	262.14
417.31	227.03
417.50	198.95
417.69	341.72
417.88	238.73
418.07	231.71
418.26	184.90
418.45	210.65
418.64	257.46
418.83	271.50
419.02	259.80
419.21	280.86
419.39	198.95
419.58	220.01
419.77	212.99
419.96	337.04
420.15	290.23
420.34	248.10
420.53	285.55
420.72	276.18
420.91	301.93
421.10	262.14
421.29	245.76
421.48	250.44
421.67	222.35
421.86	297.25
422.05	257.46
422.24	196.60
422.43	292.57
422.61	283.20
422.80	227.03
422.99	355.76
423.18	248.10
423.37	351.08
423.56	212.99
423.75	257.46
423.94	224.69
424.13	224.69
424.32	299.59
424.50	301.93
424.69	280.86
424.88	315.97
425.07	264.48
425.26	322.99
425.45	299.59
425.64	252.78
425.83	271.50
426.01	379.17
426.20	322.99
426.39	210.65
426.58	414.27
426.77	257.46
426.96	332.36
427.15	297.25
427.33	280.86
427.52	292.57
427.71	290.23
427.90	346.40
428.09	271.50
428.28	273.84
428.46	332.36
428.65	290.23
428.84	280.86
429.03	266.82
429.22	299.59
429.40	259.80
429.59	266.82
429.78	276.18
429.97	283.20
430.16	259.80
430.34	276.18
430.53	285.55
430.72	327.68
430.91	278.52
431.10	320.65
431.28	299.59
431.47	271.50
431.66	224.69
431.85	325.33
432.03	264.48
432.22	393.21
432.41	337.04
432.60	346.40
432.79	320.65
432.97	348.74
433.16	262.14
433.35	315.97
433.54	297.25
433.72	351.08
433.91	269.16
434.10	318.31
434.28	369.80
434.47	285.55
434.66	358.10
434.85	421.30
435.03	292.57
435.22	463.43
435.41	676.41
435.59	676.41
435.78	557.05
435.97	433.00
436.16	341.72
436.34	262.14
436.53	325.33
436.72	404.91
436.90	327.68
437.09	290.23
437.28	386.19
437.46	416.62
437.65	404.91
437.84	372.15
438.02	365.12
438.21	395.55
438.40	334.70
438.58	285.55
438.77	334.70
438.96	306.61
439.14	337.04
439.33	360.44
439.52	332.36
439.70	238.73
439.89	362.78
440.08	334.70
440.26	367.46
440.45	430.66
440.63	332.36
440.82	332.36
441.01	414.27
441.19	358.10
441.38	297.25
441.57	353.42
441.75	444.70
441.94	367.46
442.12	294.91
442.31	348.74
442.50	332.36
442.68	372.15
442.87	416.62
443.05	386.19
443.24	435.34
443.43	397.89
443.61	416.62
443.80	458.74
443.98	355.76
444.17	393.21
444.35	444.70
444.54	360.44
444.73	379.17
444.91	435.34
445.10	269.16
445.28	339.38
445.47	423.64
445.65	330.02
445.84	330.02
446.02	386.19
446.21	358.10
446.39	353.42
446.58	456.40
446.77	337.04
446.95	358.10
447.14	393.21
447.32	475.13
447.51	425.98
447.69	411.93
447.88	428.32
448.06	519.60
448.25	500.87
448.43	402.57
448.62	388.53
448.80	418.96
448.99	414.27
449.17	383.85
449.36	360.44
449.54	454.06
449.73	379.17
449.91	430.66
450.10	447.04
450.28	447.04
450.46	444.70
450.65	433.00
450.83	454.06
451.02	447.04
451.20	463.43
451.39	458.74
451.57	423.64
451.76	409.59
451.94	402.57
452.13	456.40
452.31	461.09
452.49	430.66
452.68	407.25
452.86	411.93
453.05	442.36
453.23	444.70
453.42	442.36
453.60	418.96
453.78	447.04
453.97	411.93
454.15	489.17
454.34	348.74
454.52	409.59
454.70	477.47
454.89	414.27
455.07	519.60
455.26	440.02
455.44	475.13
455.62	400.23
455.81	416.62
455.99	454.06
456.17	421.30
456.36	351.08
456.54	454.06
456.73	451.72
456.91	421.30
457.09	482.15
457.28	543.00
457.46	407.25
457.64	521.94
457.83	517.26
458.01	449.38
458.19	430.66
458.38	456.40
458.56	470.45
458.74	472.79
458.93	496.19
459.11	463.43
459.29	444.70
459.48	517.26
459.66	514.92
459.84	503.22
460.03	578.11
460.21	449.38
460.39	440.02
460.57	477.47
460.76	493.85
460.94	482.15
461.12	634.29
461.31	521.94
461.49	435.34
461.67	430.66
461.85	484.49
462.04	465.77
462.22	908.13
462.40	505.56
462.59	489.17
462.77	472.79
462.95	531.30
463.13	545.34
463.32	550.03
463.50	564.07
463.68	477.47
463.86	512.58
464.05	514.92
464.23	479.81
464.41	496.19
464.59	521.94
464.78	500.87
464.96	484.49
465.14	456.40
465.32	430.66
465.50	503.22
465.69	479.81
465.87	479.81
466.05	550.03
466.23	423.64
466.41	557.05
466.60	402.57
466.78	512.58
466.96	519.60
467.14	561.73
467.32	535.98
467.51	526.62
467.69	486.83
467.87	580.45
468.05	472.79
468.23	561.73
468.41	519.60
468.60	435.34
468.78	496.19
468.96	538.32
469.14	461.09
469.32	484.49
469.50	500.87
469.69	407.25
469.87	571.09
470.05	535.98
470.23	533.64
470.41	491.51
470.59	538.32
470.77	587.47
470.95	489.17
471.14	493.85
471.32	470.45
471.50	559.39
471.68	535.98
471.86	531.30
472.04	617.90
472.22	592.16
472.40	517.26
472.58	498.53
472.77	543.00
472.95	519.60
473.13	629.60
473.31	580.45
473.49	594.50
473.67	547.69
473.85	589.82
474.03	610.88
474.21	503.22
474.39	599.18
474.57	648.33
474.75	608.54
474.93	566.41
475.12	559.39
475.30	557.05
475.48	564.07
475.66	585.13
475.84	585.13
476.02	631.94
476.20	592.16
476.38	667.05
476.56	615.56
476.74	512.58
476.92	564.07
477.10	552.37
477.28	627.26
477.46	594.50
477.64	641.31
477.82	664.71
478.00	627.26
478.18	624.92
478.36	674.07
478.54	683.44
478.72	585.13
478.90	709.18
479.08	730.25
479.26	557.05
479.44	653.01
479.62	723.23
479.80	634.29
479.98	676.41
480.16	620.24
480.34	660.03
480.52	683.44
480.70	669.39
480.88	697.48
481.06	594.50
481.24	671.73
481.41	723.23
481.59	706.84
481.77	697.48
481.95	674.07
482.13	795.78
482.31	671.73
482.49	685.78
482.67	688.12
482.85	725.57
483.03	720.88
483.21	732.59
483.39	784.08
483.57	802.80
483.74	809.83
483.92	781.74
484.10	704.50
484.28	823.87
484.46	875.36
484.64	748.97
484.82	854.30
485.00	791.10
485.18	868.34
485.35	746.63
485.53	767.70
485.71	830.89
485.89	798.12
486.07	861.32
486.25	884.72
486.43	814.51
486.61	887.06
486.78	978.34
486.96	889.40
487.14	807.48
487.32	940.90
487.50	887.06
487.68	894.08
487.85	833.23
488.03	936.21
488.21	826.21
488.39	917.49
488.57	795.78
488.75	905.79
488.92	1123.46
489.10	990.05
489.28	1053.24
489.46	964.30
489.64	901.11
489.81	959.62
489.99	870.68
490.17	950.26
490.35	957.28
490.53	1053.24
490.70	1015.79
490.88	994.73
491.06	1018.13
491.24	1015.79
491.41	980.68
491.59	936.21
491.77	1041.54
491.95	985.37
492.13	1036.86
492.30	954.94
492.48	1001.75
492.66	1015.79
492.84	964.30
493.01	971.32
493.19	971.32
493.37	1109.41
493.54	1001.75
493.72	1062.60
493.90	1062.60
494.08	1055.58
494.25	1090.69
494.43	1083.67
494.61	1048.56
494.79	1022.81
494.96	1097.71
495.14	1081.33
495.32	1036.86
495.49	1076.65
495.67	1118.78
495.85	1055.58
496.02	1125.80
496.20	1083.67
496.38	1083.67
496.55	1142.18
496.73	1144.52
496.91	1081.33
497.09	1153.88
497.26	1050.90
497.44	1128.14
497.62	1055.58
497.79	1146.86
497.97	1179.63
498.14	1207.72
498.32	1163.25
498.50	1116.44
498.67	1093.03
498.85	1153.88
499.03	1036.86
499.20	1184.31
499.38	1165.59
499.56	1102.39
499.73	1177.29
499.91	1130.48
500.08	1233.46
500.26	1205.38
500.44	1135.16
500.61	1214.74
500.79	1165.59
500.97	1207.72
501.14	1247.51
501.32	1228.78
501.49	1331.76
501.67	1109.41
501.84	1235.80
502.02	1144.52
502.20	1357.51
502.37	1324.74
502.55	1160.91
502.72	1177.29
502.90	1259.21
503.07	1163.25
503.25	1177.29
503.43	1144.52
503.60	1158.57
503.78	1437.09
503.95	1238.14
504.13	1242.82
504.30	1186.65
504.48	1252.19
504.65	1266.23
504.83	1210.06
505.01	1160.91
505.18	1160.91
505.36	1238.14
505.53	1291.98
505.71	1338.79
505.88	1362.19
506.06	1392.62
506.23	1294.32
506.41	1172.61
506.58	1336.45
506.76	1294.32
506.93	1263.89
507.11	1280.27
507.28	1301.34
507.46	1284.95
507.63	1362.19
507.81	1198.35
507.98	1320.06
508.16	1338.79
508.33	1324.74
508.50	1240.48
508.68	1327.08
508.85	1401.98
509.03	1345.81
509.20	1280.27
509.38	1268.57
509.55	1448.79
509.73	1441.77
509.90	1341.13
510.08	1284.95
510.25	1352.83
510.42	1474.54
510.60	1366.87
510.77	1394.96
510.95	1329.42
511.12	1432.41
511.30	1411.34
511.47	1451.13
511.64	1502.62
511.82	1366.87
511.99	1369.21
512.17	1373.89
512.34	1364.53
512.51	1416.02
512.69	1385.60
512.86	1343.47
513.04	1373.89
513.21	1432.41
513.38	1394.96
513.56	1378.58
513.73	1315.38
513.90	1488.58
514.08	1474.54
514.25	1502.62
514.43	1514.33
514.60	1413.68
514.77	1324.74
514.95	1430.07
515.12	1434.75
515.29	1437.09
515.47	1469.86
515.64	1432.41
515.81	1495.60
515.99	1636.03
516.16	1446.45
516.33	1523.69
516.51	1488.58
516.68	1542.41
516.85	1420.71
517.03	1495.60
517.20	1490.92
517.37	1455.81
517.54	1472.20
517.72	1483.90
517.89	1486.24
518.06	1486.24
518.24	1540.07
518.41	1535.39
518.58	1563.48
518.75	1519.01
518.93	1474.54
519.10	1507.30
519.27	1549.43
519.45	1561.14
519.62	1570.50
519.79	1530.71
519.96	1619.65
520.14	1493.26
520.31	1605.61
520.48	1619.65
520.65	1570.50
520.83	1542.41
521.00	1558.80
521.17	1629.01
521.34	1629.01
521.52	1554.12
521.69	1509.65
521.86	1549.43
522.03	1631.35
522.20	1603.27
522.38	1516.67
522.55	1643.06
522.72	1502.62
522.89	1610.29
523.07	1654.76
523.24	1586.88
523.41	1547.09
523.58	1533.05
523.75	1582.20
523.92	1598.59
524.10	1624.33
524.27	1598.59
524.44	1614.97
524.61	1647.74
524.78	1680.50
524.96	1575.18
525.13	1570.50
525.30	1596.25
525.47	1629.01
525.64	1636.03
525.81	1645.40
525.98	1603.27
526.16	1619.65
526.33	1633.69
526.50	1617.31
526.67	1589.22
526.84	1577.52
527.01	1586.88
527.18	1657.10
527.36	1640.72
527.53	1638.38
527.70	1701.57
527.87	1647.74
528.04	1699.23
528.21	1575.18
528.38	1736.68
528.55	1633.69
528.72	1774.13
528.89	1788.17
529.07	1591.56
529.24	1675.82
529.41	1746.04
529.58	1675.82
529.75	1666.46
529.92	1722.63
530.09	1643.06
530.26	1650.08
530.43	1682.85
530.60	1657.10
530.77	1619.65
530.94	1785.83
531.11	1636.03
531.28	1776.47
531.46	1666.46
531.63	1710.93
531.80	1720.29
531.97	1722.63
532.14	1804.55
532.31	1778.81
532.48	1783.49
532.65	1720.29
532.82	1722.63
532.99	1757.74
533.16	1708.59
533.33	1727.32
533.50	1842.00
533.67	1806.89
533.84	1708.59
534.01	1727.32
534.18	1797.53
534.35	1673.48
534.52	1781.15
534.69	1785.83
534.86	1769.44
535.03	1792.85
535.20	1753.06
535.37	1778.81
535.54	1785.83
535.71	1713.27
535.88	1778.81
536.05	1865.41
536.22	1769.44
536.38	1666.46
536.55	1643.06
536.72	1825.62
536.89	1804.55
537.06	1739.02
537.23	1806.89
537.40	1872.43
537.57	1673.48
537.74	1834.98
537.91	1823.28
538.08	1734.34
538.25	1816.26
538.42	1839.66
538.59	1881.79
538.75	1799.87
538.92	1809.23
539.09	1926.26
539.26	1853.70
539.43	1987.11
539.60	1839.66
539.77	1842.00
539.94	1818.60
540.11	1879.45
540.28	1961.37
540.44	1963.71
540.61	1961.37
540.78	2052.65
540.95	2057.33
541.12	2094.78
541.29	1968.39
541.46	2150.95
541.62	2211.81
541.79	2111.16
541.96	2127.55
542.13	1996.48
542.30	2139.25
542.47	2139.25
542.63	2054.99
542.80	2064.35
542.97	2045.63
543.14	2078.40
543.31	2188.40
543.48	2148.61
543.64	2122.87
543.81	2129.89
543.98	2038.61
544.15	2031.58
544.32	2087.76
544.48	2012.86
544.65	2106.48
544.82	2019.88
544.99	2097.12
545.16	2122.87
545.32	2040.95
545.49	2272.66
545.66	2541.82
545.83	2635.44
546.00	2534.80
546.16	2258.62
546.33	2188.40
546.50	2115.84
546.67	2097.12
546.83	1994.14
547.00	1961.37
547.17	1928.60
547.34	1923.92
547.50	1968.39
547.67	2080.74
547.84	1959.03
548.00	1968.39
548.17	2085.42
548.34	1954.35
548.51	2043.29
548.67	1944.99
548.84	1973.07
549.01	2047.97
549.18	2012.86
549.34	2052.65
549.51	2064.35
549.68	1998.82
549.84	1984.77
550.01	1933.28
550.18	2038.61
550.34	2029.24
550.51	1921.58
550.68	1982.43
550.84	1952.01
551.01	1912.22
551.18	1870.09
551.34	1966.05
551.51	1935.62
551.68	1968.39
551.84	1914.56
552.01	1895.83
552.18	1902.86
552.34	1942.64
552.51	1813.92
552.68	1973.07
552.84	1959.03
553.01	2052.65
553.18	1891.15
553.34	1907.54
553.51	1884.13
553.67	1893.49
553.84	2001.16
554.01	1942.64
554.17	1832.64
554.34	1966.05
554.51	1867.75
554.67	1944.99
554.84	1895.83
555.00	1947.33
555.17	1947.33
555.33	1895.83
555.50	1790.51
555.67	1923.92
555.83	1860.73
556.00	1959.03
556.16	2197.76
556.33	1877.11
556.50	2012.86
556.66	1884.13
556.83	2015.20
556.99	1959.03
557.16	1891.15
557.32	1797.53
557.49	1984.77
557.65	1900.52
557.82	1893.49
557.98	1851.36
558.15	1856.04
558.32	1851.36
558.48	1888.81
558.65	1879.45
558.81	1895.83
558.98	1933.28
559.14	1963.71
559.31	1886.47
559.47	1914.56
559.64	1947.33
559.80	1856.04
559.97	1877.11
560.13	1998.82
560.30	1914.56
560.46	1907.54
560.63	1996.48
560.79	1937.96
560.96	1891.15
561.12	1820.94
561.29	1926.26
561.45	2033.93
561.61	1949.67
561.78	2179.04
561.94	1998.82
562.11	2031.58
562.27	1961.37
562.44	1998.82
562.60	1914.56
562.77	1921.58
562.93	1891.15
563.10	2026.90
563.26	1832.64
563.42	1937.96
563.59	2022.22
563.75	1888.81
563.92	1877.11
564.08	1909.88
564.24	1905.20
564.41	1942.64
564.57	1849.02
564.74	1952.01
564.90	1900.52
565.07	1905.20
565.23	1937.96
565.39	1989.46
565.56	1877.11
565.72	1942.64
565.88	1909.88
566.05	1877.11
566.21	1907.54
566.38	1879.45
566.54	1900.52
566.70	1970.73
566.87	1940.30
567.03	1902.86
567.19	1886.47
567.36	1849.02
567.52	1865.41
567.68	1940.30
567.85	1947.33
568.01	1895.83
568.17	1909.88
568.34	1757.74
568.50	1947.33
568.66	1827.96
568.83	1898.17
568.99	1952.01
569.15	1907.54
569.32	1881.79
569.48	1919.24
569.64	1963.71
569.81	1928.60
569.97	1870.09
570.13	1860.73
570.30	1935.62
570.46	1933.28
570.62	1949.67
570.78	1912.22
570.95	1881.79
571.11	1952.01
571.27	1952.01
571.43	1877.11
571.60	1998.82
571.76	1898.17
571.92	1980.09
572.09	1919.24
572.25	1947.33
572.41	2036.27
572.57	1851.36
572.74	1996.48
572.90	1980.09
573.06	1956.69
573.22	1966.05
573.38	1895.83
573.55	1966.05
573.71	2054.99
573.87	1982.43
574.03	1818.60
574.20	1902.86
574.36	1933.28
574.52	1891.15
574.68	1839.66
574.84	1849.02
575.01	1942.64
575.17	1877.11
575.33	1898.17
575.49	1867.75
575.65	1900.52
575.82	1959.03
575.98	1916.90
576.14	1928.60
576.30	2022.22
576.46	2031.58
576.62	2024.56
576.79	2071.37
576.95	1930.94
577.11	1954.35
577.27	1909.88
577.43	1959.03
577.59	2003.50
577.75	1959.03
577.92	1923.92
578.08	1806.89
578.24	1949.67
578.40	2062.01
578.56	2038.61
578.72	2179.04
578.88	2052.65
579.04	2031.58
579.21	1980.09
579.37	1952.01
579.53	1952.01
579.69	2012.86
579.85	1860.73
580.01	1980.09
580.17	1921.58
580.33	2038.61
580.49	1975.41
580.65	2022.22
580.82	2045.63
580.98	2029.24
581.14	1935.62
581.30	1989.46
581.46	1982.43
581.62	1907.54
581.78	1963.71
581.94	1944.99
582.10	2052.65
582.26	2003.50
582.42	2019.88
582.58	2071.37
582.74	1947.33
582.90	1987.11
583.06	1989.46
583.22	2012.86
583.38	1959.03
583.54	1914.56
583.70	2073.71
583.86	2033.93
584.02	1973.07
584.18	2062.01
584.34	2001.16
584.50	2031.58
584.66	1863.07
584.82	1947.33
584.98	1949.67
585.14	1933.28
585.30	2001.16
585.46	1975.41
585.62	1935.62
585.78	1886.47
585.94	2062.01
586.10	1837.32
586.26	1886.47
586.42	2062.01
586.58	2036.27
586.74	1984.77
586.90	1860.73
587.06	2073.71
587.22	2108.82
587.38	1952.01
587.54	1952.01
587.70	1935.62
587.86	2043.29
588.02	1844.34
588.18	1989.46
588.34	1989.46
588.49	1926.26
588.65	1968.39
588.81	1937.96
588.97	1912.22
589.13	1947.33
589.29	1898.17
589.45	1994.14
589.61	1790.51
589.77	2069.03
589.93	1898.17
590.08	1930.94
590.24	1973.07
590.40	2003.50
590.56	2104.14
590.72	1937.96
590.88	1937.96
591.04	1975.41
591.20	1970.73
591.35	1975.41
591.51	2115.84
591.67	1916.90
591.83	1994.14
591.99	1963.71
592.15	1975.41
592.31	1933.28
592.46	1963.71
592.62	2094.78
592.78	2064.35
592.94	1877.11
593.10	2129.89
593.26	2017.54
593.41	2080.74
593.57	2125.21
593.73	1954.35
593.89	1982.43
594.05	1975.41
594.20	1954.35
594.36	1928.60
594.52	1921.58
594.68	1954.35
594.84	1968.39
594.99	2008.18
595.15	1923.92
595.31	1947.33
595.47	2043.29
595.62	2001.16
595.78	1982.43
595.94	1893.49
596.10	1963.71
596.25	1966.05
596.41	1935.62
596.57	1860.73
596.73	1895.83
596.88	1956.69
597.04	1937.96
597.20	1884.13
597.36	1902.86
597.51	2015.20
597.67	1886.47
597.83	1977.75
597.99	1872.43
598.14	1989.46
598.30	1928.60
598.46	1928.60
598.61	1827.96
598.77	1961.37
598.93	1851.36
599.09	1970.73
599.24	2064.35
599.40	2038.61
599.56	1944.99
599.71	1799.87
599.87	2017.54
600.03	1839.66
600.18	1790.51
600.34	1959.03
600.50	1879.45
600.65	1888.81
600.81	2050.31
600.97	1891.15
601.12	2019.88
601.28	1942.64
601.44	1893.49
601.59	1809.23
601.75	1926.26
601.91	2019.88
602.06	1966.05
602.22	2026.90
602.37	1942.64
602.53	1884.13
602.69	1909.88
602.84	1912.22
603.00	1954.35
603.16	1975.41
603.31	1912.22
603.47	1893.49
