SpectraSuite Data File
++++++++++++++++++++++++++++++++++++
Date: Fri Oct 04 11:39:27 GMT-05:00 2013
User: price-jones
Dark Spectrum Present: No
Reference Spectrum Present: No
Number of Sampled Component Spectra: 1
Spectrometers: USB2+H05261
Integration Time (usec): 100000 (USB2+H05261)
Spectra Averaged: 1 (USB2+H05261)
Boxcar Smoothing: 0 (USB2+H05261)
Correct for Electrical Dark: No (USB2+H05261)
Strobe/Lamp Enabled: No (USB2+H05261)
Correct for Detector Non-linearity: No (USB2+H05261)
Correct for Stray Light: No (USB2+H05261)
Number of Pixels in Processed Spectrum: 2048
>>>>>Begin Processed Spectral Data<<<<<
365.73	28.09
365.92	28.09
366.12	28.09
366.32	2.34
366.52	0.00
366.72	28.09
366.91	0.00
367.11	0.00
367.31	0.00
367.51	0.00
367.70	0.00
367.90	0.00
368.10	0.00
368.30	0.00
368.49	0.00
368.69	0.00
368.89	0.00
369.09	0.00
369.28	0.00
369.48	0.00
369.68	0.00
369.87	0.00
370.07	0.00
370.27	0.00
370.47	0.00
370.66	131.07
370.86	152.13
371.06	166.18
371.25	205.97
371.45	201.29
371.65	191.92
371.84	121.71
372.04	170.86
372.24	220.01
372.44	159.16
372.63	243.42
372.83	245.76
373.03	212.99
373.22	140.43
373.42	140.43
373.62	161.50
373.81	203.63
374.01	257.46
374.21	252.78
374.40	196.60
374.60	241.08
374.79	245.76
374.99	227.03
375.19	280.86
375.38	248.10
375.58	156.82
375.78	154.48
375.97	220.01
376.17	266.82
376.37	231.71
376.56	255.12
376.76	149.79
376.95	196.60
377.15	262.14
377.35	250.44
377.54	212.99
377.74	184.90
377.93	196.60
378.13	266.82
378.33	220.01
378.52	269.16
378.72	201.29
378.91	255.12
379.11	205.97
379.31	276.18
379.50	215.33
379.70	259.80
379.89	236.39
380.09	245.76
380.28	227.03
380.48	245.76
380.68	238.73
380.87	255.12
381.07	337.04
381.26	273.84
381.46	220.01
381.65	266.82
381.85	241.08
382.04	259.80
382.24	184.90
382.43	294.91
382.63	287.89
382.83	217.67
383.02	278.52
383.22	325.33
383.41	287.89
383.61	208.31
383.80	227.03
384.00	313.63
384.19	280.86
384.39	318.31
384.58	161.50
384.78	252.78
384.97	248.10
385.17	224.69
385.36	332.36
385.56	245.76
385.75	250.44
385.95	292.57
386.14	262.14
386.34	367.46
386.53	311.29
386.72	252.78
386.92	306.61
387.11	374.49
387.31	308.95
387.50	227.03
387.70	325.33
387.89	369.80
388.09	259.80
388.28	294.91
388.48	334.70
388.67	327.68
388.86	330.02
389.06	297.25
389.25	365.12
389.45	330.02
389.64	332.36
389.84	341.72
390.03	400.23
390.22	330.02
390.42	315.97
390.61	400.23
390.81	262.14
391.00	379.17
391.19	304.27
391.39	397.89
391.58	330.02
391.78	390.87
391.97	322.99
392.16	348.74
392.36	381.51
392.55	404.91
392.75	367.46
392.94	409.59
393.13	503.22
393.33	351.08
393.52	423.64
393.71	400.23
393.91	351.08
394.10	304.27
394.29	447.04
394.49	418.96
394.68	376.83
394.88	423.64
395.07	477.47
395.26	411.93
395.46	374.49
395.65	430.66
395.84	440.02
396.04	477.47
396.23	386.19
396.42	463.43
396.62	458.74
396.81	437.68
397.00	482.15
397.19	517.26
397.39	458.74
397.58	470.45
397.77	451.72
397.97	517.26
398.16	505.56
398.35	505.56
398.55	421.30
398.74	528.96
398.93	435.34
399.12	444.70
399.32	596.84
399.51	578.11
399.70	615.56
399.90	564.07
400.09	552.37
400.28	615.56
400.47	554.71
400.67	592.16
400.86	575.77
401.05	559.39
401.24	629.60
401.44	643.65
401.63	627.26
401.82	578.11
402.01	624.92
402.21	732.59
402.40	674.07
402.59	690.46
402.78	575.77
402.97	793.44
403.17	704.50
403.36	650.67
403.55	713.86
403.74	716.20
403.93	716.20
404.13	767.70
404.32	751.31
404.51	770.04
404.70	779.40
404.89	758.33
405.09	816.85
405.28	763.01
405.47	802.80
405.66	777.06
405.85	830.89
406.05	833.23
406.24	840.25
406.43	840.25
406.62	851.96
406.81	856.64
407.00	945.58
407.20	889.40
407.39	901.11
407.58	891.74
407.77	933.87
407.96	971.32
408.15	919.83
408.34	929.19
408.54	957.28
408.73	940.90
408.92	1034.52
409.11	987.71
409.30	1027.50
409.49	1015.79
409.68	1022.81
409.87	1034.52
410.07	1121.12
410.26	1039.20
410.45	1043.88
410.64	1238.14
410.83	1132.82
411.02	1118.78
411.21	1245.16
411.40	1247.51
411.59	1146.86
411.78	1217.08
411.98	1221.76
412.17	1214.74
412.36	1198.35
412.55	1289.64
412.74	1287.29
412.93	1301.34
413.12	1259.21
413.31	1322.40
413.50	1348.15
413.69	1266.23
413.88	1502.62
414.07	1446.45
414.26	1465.18
414.45	1376.24
414.64	1547.09
414.83	1483.90
415.02	1488.58
415.22	1535.39
415.41	1575.18
415.60	1500.28
415.79	1565.82
415.98	1757.74
416.17	1666.46
416.36	1610.29
416.55	1626.67
416.74	1685.19
416.93	1633.69
417.12	1739.02
417.31	1640.72
417.50	1631.35
417.69	1839.66
417.88	1724.97
418.07	1783.49
418.26	1706.25
418.45	1771.79
418.64	1966.05
418.83	1940.30
419.02	1785.83
419.21	1984.77
419.39	1959.03
419.58	1813.92
419.77	1921.58
419.96	1930.94
420.15	1987.11
420.34	2043.29
420.53	2029.24
420.72	1970.73
420.91	1977.75
421.10	2104.14
421.29	2073.71
421.48	2017.54
421.67	1998.82
421.86	2083.08
422.05	2097.12
422.24	2026.90
422.43	2062.01
422.61	2193.08
422.80	2108.82
422.99	2038.61
423.18	2090.10
423.37	2230.53
423.56	2204.78
423.75	2026.90
423.94	2153.29
424.13	2111.16
424.32	2113.50
424.50	2207.13
424.69	2165.00
424.88	2359.26
425.07	2174.36
425.26	2193.08
425.45	2253.94
425.64	2225.85
425.83	2256.28
426.01	2307.77
426.20	2160.31
426.39	2242.23
426.58	2218.83
426.77	2122.87
426.96	2293.72
427.15	2275.00
427.33	2300.75
427.52	2296.07
427.71	2214.15
427.90	2345.22
428.09	2399.05
428.28	2394.37
428.46	2438.84
428.65	2471.61
428.84	2485.65
429.03	2518.42
429.22	2382.67
429.40	2363.94
429.59	2406.07
429.78	2406.07
429.97	2377.98
430.16	2300.75
430.34	2375.64
430.53	2349.90
430.72	2583.95
430.91	2363.94
431.10	2464.58
431.28	2459.90
431.47	2668.21
431.66	2576.93
431.85	2644.81
432.03	2569.91
432.22	2703.32
432.41	2691.62
432.60	2658.85
432.79	2586.29
432.97	2670.55
433.16	2654.17
433.35	2668.21
433.54	2736.09
433.72	2700.98
433.91	2829.71
434.10	2642.46
434.28	2710.34
434.47	2715.02
434.66	2794.60
434.85	2855.45
435.03	2902.26
435.22	2897.58
435.41	3253.34
435.59	3239.30
435.78	3103.55
435.97	3091.85
436.16	2930.35
436.34	2904.60
436.53	2885.88
436.72	2911.63
436.90	2775.88
437.09	2888.22
437.28	3005.25
437.46	2792.26
437.65	2909.29
437.84	3038.02
438.02	2911.63
438.21	2993.55
438.40	2991.20
438.58	2995.89
438.77	2993.55
438.96	3094.19
439.14	3157.38
439.33	3243.98
439.52	3234.62
439.70	3206.53
439.89	3166.74
440.08	3234.62
440.26	3279.09
440.45	3295.47
440.63	3368.03
440.82	3281.43
441.01	3321.22
441.19	3494.42
441.38	3438.25
441.57	3361.01
441.75	3494.42
441.94	3480.38
442.12	3417.18
442.31	3520.17
442.50	3515.48
442.68	3503.78
442.87	3588.04
443.05	3705.07
443.24	3688.68
443.43	3684.00
443.61	3756.56
443.80	3686.34
443.98	3627.83
444.17	3571.66
444.35	3707.41
444.54	3641.87
444.73	3653.58
444.91	3604.42
445.10	3721.45
445.28	3665.28
445.47	3658.26
445.65	3723.79
445.84	3660.60
446.02	3868.91
446.21	3693.37
446.39	3798.69
446.58	3845.50
446.77	3840.82
446.95	3756.56
447.14	3779.97
447.32	3896.99
447.51	3728.47
447.69	3812.73
447.88	3805.71
448.06	3794.01
448.25	3737.84
448.43	3763.58
448.62	3679.32
448.80	3882.95
448.99	3782.31
449.17	3831.46
449.36	3880.61
449.54	3920.40
449.73	3854.86
449.91	3880.61
450.10	3999.98
450.28	3995.29
450.46	3978.91
450.65	3950.82
450.83	4093.60
451.02	4133.39
451.20	4112.32
451.39	4105.30
451.57	4032.74
451.76	3948.48
451.94	4046.79
452.13	4215.30
452.31	4154.45
452.49	4117.00
452.68	4180.20
452.86	4046.79
453.05	4238.71
453.23	4308.93
453.42	4236.37
453.60	4091.26
453.78	4145.09
453.97	4131.05
454.15	4304.25
454.34	4109.98
454.52	4264.46
454.70	4241.05
454.89	4383.82
455.07	4301.90
455.26	4454.04
455.44	4440.00
455.62	4566.39
455.81	4526.60
455.99	4533.62
456.17	4388.50
456.36	4351.06
456.54	4414.25
456.73	4566.39
456.91	4655.33
457.09	4517.23
457.28	4620.22
457.46	4465.74
457.64	4718.52
457.83	4645.96
458.01	4571.07
458.19	4671.71
458.38	4690.43
458.56	4842.57
458.74	4681.07
458.93	4643.62
459.11	4629.58
459.29	4695.11
459.48	4781.71
459.66	4844.91
459.84	4765.33
460.03	4877.68
460.21	4880.02
460.39	4844.91
460.57	4777.03
460.76	4952.57
460.94	4842.57
461.12	4854.27
461.31	4877.68
461.49	4957.25
461.67	4858.95
461.85	5069.60
462.04	4922.15
462.22	5048.54
462.40	5048.54
462.59	5008.75
462.77	5081.30
462.95	4997.04
463.13	5088.32
463.32	5144.50
463.50	5305.99
463.68	5193.65
463.86	5238.12
464.05	5125.77
464.23	5170.24
464.41	5305.99
464.59	5135.14
464.78	5322.38
464.96	5411.32
465.14	5352.81
465.32	5240.46
465.50	5111.73
465.69	5261.52
465.87	5210.03
466.05	5327.06
466.23	5331.74
466.41	5385.57
466.60	5425.36
466.78	5181.95
466.96	5315.36
467.14	5359.83
467.32	5277.91
467.51	5558.77
467.69	5212.37
467.87	5411.32
468.05	5439.40
468.23	5495.58
468.41	5460.47
468.60	5362.17
468.78	5652.39
468.96	5474.51
469.14	5607.92
469.32	5537.71
469.50	5425.36
469.69	5544.73
469.87	5750.70
470.05	5624.31
470.23	5561.11
470.41	5668.78
470.59	5935.60
470.77	5799.85
470.95	5809.21
471.14	5937.94
471.32	5741.33
471.50	5984.75
471.68	5928.58
471.86	5832.62
472.04	5818.57
472.22	6090.07
472.40	5827.93
472.58	6083.05
472.77	6026.88
472.95	6214.12
473.13	6375.62
473.31	6108.80
473.49	6076.03
473.67	6232.85
473.85	6230.51
474.03	6193.06
474.21	6359.24
474.39	6431.79
474.57	6476.26
474.75	6466.90
474.93	6506.69
475.12	6516.05
475.30	6413.07
475.48	6544.14
475.66	6654.14
475.84	6630.74
476.02	6698.61
476.20	6693.93
476.38	6817.98
476.56	6967.77
476.74	6857.77
476.92	6778.19
477.10	6729.04
477.28	6663.51
477.46	6965.43
477.64	7033.31
477.82	7119.91
478.00	7337.58
478.18	7365.67
478.36	7407.80
478.54	7220.55
478.72	7517.80
478.90	7520.14
479.08	7253.32
479.26	7602.06
479.44	7620.78
479.62	7588.02
479.80	7691.00
479.98	7822.07
480.16	7892.29
480.34	7976.55
480.52	7925.05
480.70	8189.53
480.88	7840.79
481.06	8037.40
481.24	8105.28
481.41	8166.13
481.59	8362.73
481.77	8269.11
481.95	8468.06
482.13	8585.08
482.31	8554.66
482.49	8704.45
482.67	8643.60
482.85	8966.59
483.03	8795.73
483.21	9008.72
483.39	9085.96
483.57	9053.19
483.74	9057.87
483.92	9310.65
484.10	9116.39
484.28	9308.31
484.46	9432.36
484.64	9533.00
484.82	9345.76
485.00	9462.79
485.18	9666.41
485.35	9895.78
485.53	9949.62
485.71	9820.89
485.89	10122.82
486.07	9937.91
486.25	10029.20
486.43	10214.10
486.61	10340.49
486.78	10328.78
486.96	10370.91
487.14	10464.54
487.32	10466.88
487.50	10609.65
487.68	10668.16
487.85	10747.74
488.03	10909.24
488.21	10899.87
488.39	11047.33
488.57	11012.22
488.75	11084.78
488.92	11585.65
489.10	11407.77
489.28	11515.44
489.46	11489.69
489.64	11620.76
489.81	11644.17
489.99	11836.09
490.17	11761.19
490.35	12042.06
490.53	11857.15
490.70	12180.15
490.88	12060.78
491.06	12180.15
491.24	12154.40
491.41	12329.94
491.59	12379.09
491.77	12278.45
491.95	12526.55
492.13	12547.61
492.30	12608.47
492.48	12479.74
492.66	12840.18
492.84	12812.09
493.01	12819.11
493.19	12982.95
493.37	13263.82
493.54	12917.42
493.72	13348.08
493.90	13076.57
494.08	13252.11
494.25	13411.27
494.43	13385.52
494.61	13715.54
494.79	13832.57
494.96	13659.37
495.14	13933.21
495.32	14083.00
495.49	13919.17
495.67	14017.47
495.85	14455.15
496.02	14277.27
496.20	14389.61
496.38	14326.42
496.55	14288.97
496.73	14869.42
496.91	14359.19
497.09	14661.12
497.26	15056.67
497.44	14986.45
497.62	14799.21
497.79	15082.41
497.97	15047.30
498.14	15311.78
498.32	15449.88
498.50	15363.28
498.67	15515.41
498.85	15356.25
499.03	15524.77
499.20	15456.90
499.38	15459.24
499.56	15892.24
499.73	15768.19
499.91	15999.90
500.08	15700.31
500.26	16044.37
500.44	15777.55
500.61	15679.25
500.79	15960.11
500.97	16161.40
501.14	16503.12
501.32	16498.44
501.49	16013.95
501.67	16123.95
501.84	16503.12
502.02	16460.99
502.20	16723.13
502.37	16622.48
502.55	16713.77
502.72	16484.39
502.90	16573.33
503.07	16809.73
503.25	16943.14
503.43	16856.54
503.60	17011.01
503.78	17078.89
503.95	16865.90
504.13	17062.51
504.30	17207.62
504.48	17146.76
504.65	17247.41
504.83	17406.56
505.01	17500.19
505.18	17551.68
505.36	17544.66
505.53	17598.49
505.71	17521.25
505.88	17647.64
506.06	17308.26
506.23	17818.50
506.41	17762.33
506.58	17680.41
506.76	17926.16
506.93	17982.34
507.11	17607.85
507.28	17921.48
507.46	18143.83
507.63	18132.13
507.81	18125.11
507.98	18321.71
508.16	18539.38
508.33	18141.49
508.50	18464.49
508.68	18728.97
508.85	18562.79
509.03	18717.26
509.20	18677.48
509.38	18843.65
509.55	19115.16
509.73	18691.52
509.90	18902.17
510.08	18562.79
510.25	19129.20
510.42	19056.64
510.60	18995.79
510.77	19166.65
510.95	19393.68
511.12	19124.52
511.30	19264.95
511.47	19681.56
511.64	19073.03
511.82	19665.18
511.99	19438.15
512.17	19719.01
512.34	19524.75
512.51	19669.86
512.69	19543.47
512.86	20051.37
513.04	19976.47
513.21	20063.07
513.38	19983.49
513.56	20240.95
513.73	19964.77
513.90	20042.01
514.08	20063.07
514.25	20212.87
514.43	20196.48
514.60	20318.19
514.77	20592.03
514.95	20559.27
515.12	20430.54
515.29	20542.88
515.47	20734.81
515.64	20753.53
515.81	20751.19
515.99	20854.17
516.16	20917.37
516.33	20828.43
516.51	20896.30
516.68	20833.11
516.85	20919.71
517.03	21245.04
517.20	21411.22
517.37	21216.96
517.54	21170.15
517.72	21076.52
517.89	21238.02
518.06	21331.64
518.24	21469.73
518.41	21551.65
518.58	21322.28
518.75	21380.79
518.93	21596.12
519.10	21563.36
519.27	21600.80
519.45	21795.07
519.62	22038.48
519.79	21996.35
519.96	22019.76
520.14	21736.56
520.31	21797.41
520.48	22202.32
520.65	21827.84
520.83	21991.67
521.00	22085.30
521.17	21958.91
521.34	22008.06
521.52	22256.15
521.69	22515.95
521.86	22658.73
522.03	22305.31
522.20	22607.23
522.38	22541.70
522.55	22574.47
522.72	22539.36
522.89	22518.29
523.07	22761.71
523.24	22424.67
523.41	22513.61
523.58	22710.22
523.75	22967.68
523.92	23065.98
524.10	23194.71
524.27	23445.15
524.44	23278.97
524.61	23140.88
524.78	23201.73
524.96	23030.87
525.13	23311.74
525.30	23288.33
525.47	23257.90
525.64	23496.64
525.81	23758.78
525.98	23620.69
526.16	23693.24
526.33	23608.98
526.50	23658.14
526.67	23681.54
526.84	23379.61
527.01	23784.52
527.18	24016.24
527.36	23639.41
527.53	23796.23
527.70	23997.51
527.87	23960.06
528.04	23658.14
528.21	24098.16
528.38	23880.49
528.55	24004.53
528.72	23833.68
528.89	24002.19
529.07	24030.28
529.24	24121.56
529.41	24491.37
529.58	24084.11
529.75	23999.85
529.92	24318.17
530.09	24435.19
530.26	24474.98
530.43	24573.28
530.60	24505.41
530.77	24624.78
530.94	24400.08
531.11	24533.50
531.28	24407.11
531.46	24510.09
531.63	24732.44
531.80	24847.13
531.97	25001.60
532.14	25235.66
532.31	24713.72
532.48	24851.81
532.65	24922.02
532.82	24844.79
532.99	25078.84
533.16	24704.35
533.33	25146.72
533.50	25289.49
533.67	25186.50
533.84	24961.81
534.01	24922.02
534.18	24903.30
534.35	25640.57
534.52	25160.76
534.69	25165.44
534.86	25221.61
535.03	25366.73
535.20	25729.51
535.37	25467.37
535.54	25167.78
535.71	25181.82
535.88	25788.02
536.05	25345.66
536.22	25853.56
536.38	25544.61
536.55	25586.74
536.72	25703.76
536.89	25661.63
537.06	25390.13
537.23	25715.47
537.40	25542.27
537.57	26017.40
537.74	26082.93
537.91	26249.11
538.08	26120.38
538.25	25795.04
538.42	25926.11
538.59	25977.61
538.75	26024.42
538.92	26082.93
539.09	26504.23
539.26	26178.89
539.43	26504.23
539.60	26232.72
539.77	26630.62
539.94	26370.82
540.11	26277.19
540.28	26340.39
540.44	26593.17
540.61	26497.20
540.78	26586.15
540.95	26644.66
541.12	26639.98
541.29	27063.61
541.46	26916.16
541.62	26925.52
541.79	26717.22
541.96	26534.65
542.13	26843.60
542.30	27061.27
542.47	26995.74
542.63	27257.88
542.80	27082.34
542.97	27152.55
543.14	27672.15
543.31	27124.47
543.48	27351.50
543.64	27344.48
543.81	27463.85
543.98	27627.68
544.15	27772.80
544.32	27800.88
544.48	27840.67
544.65	27257.88
544.82	27520.02
544.99	27215.75
545.16	27468.53
545.32	27503.64
545.49	28655.18
545.66	29041.37
545.83	29149.03
546.00	28872.85
546.16	28306.44
546.33	27887.48
546.50	27414.69
546.67	27824.29
546.83	27377.25
547.00	27536.40
547.17	27513.00
547.34	27770.46
547.50	27908.55
547.67	27803.22
547.84	27854.72
548.00	28133.24
548.17	27922.59
548.34	28009.19
548.51	28343.89
548.67	28060.68
548.84	27814.93
549.01	27922.59
549.18	27831.31
549.34	27585.55
549.51	28374.31
549.68	28121.54
549.84	27730.67
550.01	27784.50
550.18	27520.02
550.34	28343.89
550.51	28411.76
550.68	28343.89
550.84	27922.59
551.01	28271.33
551.18	28002.17
551.34	28025.57
551.51	28357.93
551.68	28446.87
551.84	28301.76
552.01	28423.47
552.18	28500.70
552.34	28638.80
552.51	28250.27
552.68	28037.28
552.84	28334.53
553.01	28526.45
553.18	28411.76
553.34	28144.94
553.51	28215.16
553.67	28400.06
553.84	28547.51
554.01	28479.64
554.17	28723.05
554.34	28737.10
554.51	28503.04
554.67	28528.79
554.84	28748.80
555.00	29008.60
555.17	28610.71
555.33	28929.02
555.50	28531.13
555.67	28765.18
555.83	28549.85
556.00	28514.75
556.16	28678.58
556.33	29043.71
556.50	28547.51
556.66	28971.15
556.83	28472.62
556.99	28414.10
557.16	28814.34
557.32	28849.44
557.49	29069.45
557.65	29036.69
557.82	28367.29
557.98	29186.48
558.15	28804.97
558.32	29144.35
558.48	28840.08
558.65	28755.82
558.81	28954.77
558.98	28746.46
559.14	28900.94
559.31	28828.38
559.47	29170.10
559.64	28996.90
559.80	29326.91
559.97	28985.19
560.13	28926.68
560.30	28849.44
560.46	29317.55
560.63	29422.87
560.79	29118.60
560.96	29076.48
561.12	28793.27
561.29	28947.75
561.45	29060.09
561.61	29259.04
561.78	28999.24
561.94	29186.48
562.11	29542.24
562.27	29434.58
562.44	29048.39
562.60	29235.63
562.77	29142.01
562.93	28842.42
563.10	29420.53
563.26	29029.66
563.42	29642.88
563.59	29205.20
563.75	28987.53
563.92	29406.49
564.08	29259.04
564.24	29390.11
564.41	28992.22
564.57	29167.76
564.74	29261.38
564.90	29240.31
565.07	29462.66
565.23	29268.40
565.39	29240.31
565.56	29233.29
565.72	29149.03
565.88	29350.32
566.05	29261.38
566.21	28968.81
566.38	29013.28
566.54	29177.12
566.70	29355.00
566.87	29357.34
567.03	29448.62
567.19	29457.98
567.36	29209.89
567.52	29233.29
567.68	29556.28
567.85	29209.89
568.01	29177.12
568.17	29256.70
568.34	29713.10
568.50	29340.96
568.66	29336.27
568.83	29350.32
568.99	29551.60
569.15	29209.89
569.32	29319.89
569.48	29165.42
569.64	29394.79
569.81	29483.73
569.97	29202.86
570.13	29617.14
570.30	29710.76
570.46	29305.85
570.62	29254.36
570.78	29310.53
570.95	29266.06
571.11	29436.92
571.27	29614.80
571.43	29158.39
571.60	29347.98
571.76	29202.86
571.92	29631.18
572.09	29420.53
572.25	29516.50
572.41	29666.29
572.57	29610.12
572.74	29933.11
572.90	29626.50
573.06	29284.78
573.22	29158.39
573.38	29565.65
573.55	29457.98
573.71	30108.65
573.87	29715.44
574.03	29617.14
574.20	29745.87
574.36	29486.07
574.52	29654.59
574.68	29640.54
574.84	29518.84
575.01	29834.81
575.17	29507.13
575.33	29668.63
575.49	29460.32
575.65	29865.24
575.82	29577.35
575.98	29362.02
576.14	29443.94
576.30	29727.14
576.46	29511.81
576.62	29970.56
576.79	29860.55
576.95	29818.42
577.11	29692.04
577.27	29923.75
577.43	30071.20
577.59	29696.72
577.75	29764.59
577.92	29315.21
578.08	29450.96
578.24	29600.76
578.40	29516.50
578.56	29872.26
578.72	29867.58
578.88	30059.50
579.04	29710.76
579.21	29844.17
579.37	29511.81
579.53	29731.83
579.69	29528.20
579.85	29834.81
580.01	29930.77
580.17	29729.48
580.33	29661.61
580.49	30022.05
580.65	30115.67
580.82	29673.31
580.98	29631.18
581.14	29830.13
581.30	29567.99
581.46	29633.52
581.62	29528.20
581.78	29776.30
581.94	29570.33
582.10	29713.10
582.26	29083.50
582.42	30199.93
582.58	29771.61
582.74	29827.79
582.90	29577.35
583.06	29586.71
583.22	29362.02
583.38	29537.56
583.54	29713.10
583.70	29806.72
583.86	29404.15
584.02	29347.98
584.18	29762.25
584.34	29923.75
584.50	29865.24
584.66	29862.90
584.82	29450.96
584.98	29142.01
585.14	29965.88
585.30	29399.47
585.46	29785.66
585.62	29495.43
585.78	29710.76
585.94	29352.66
586.10	29776.30
586.26	29731.83
586.42	29724.80
586.58	30118.01
586.74	29876.94
586.90	30082.91
587.06	29453.30
587.22	29851.19
587.38	30029.07
587.54	30167.16
587.70	30066.52
587.86	29600.76
588.02	29790.34
588.18	30361.43
588.34	30080.56
588.49	29860.55
588.65	29483.73
588.81	29869.92
588.97	29607.78
589.13	29378.40
589.29	29745.87
589.45	29942.47
589.61	30127.38
589.77	30108.65
589.93	30043.12
590.08	30164.82
590.24	30143.76
590.40	30120.35
590.56	29984.60
590.72	29495.43
590.88	29621.82
591.04	30185.89
591.20	30155.46
591.35	30103.97
591.51	30127.38
591.67	30288.87
591.83	30008.01
591.99	29968.22
