SpectraSuite Data File
++++++++++++++++++++++++++++++++++++
Date: Fri Oct 04 11:39:36 GMT-05:00 2013
User: price-jones
Dark Spectrum Present: No
Reference Spectrum Present: No
Number of Sampled Component Spectra: 1
Spectrometers: USB2+H05261
Integration Time (usec): 100000 (USB2+H05261)
Spectra Averaged: 1 (USB2+H05261)
Boxcar Smoothing: 0 (USB2+H05261)
Correct for Electrical Dark: No (USB2+H05261)
Strobe/Lamp Enabled: No (USB2+H05261)
Correct for Detector Non-linearity: No (USB2+H05261)
Correct for Stray Light: No (USB2+H05261)
Number of Pixels in Processed Spectrum: 2048
>>>>>Begin Processed Spectral Data<<<<<
365.73	16.38
365.92	16.38
366.12	16.38
366.32	18.72
366.52	0.00
366.72	14.04
366.91	0.00
367.11	0.00
367.31	0.00
367.51	0.00
367.70	39.79
367.90	0.00
368.10	0.00
368.30	0.00
368.49	0.00
368.69	0.00
368.89	0.00
369.09	2.34
369.28	0.00
369.48	0.00
369.68	23.41
369.87	0.00
370.07	4.68
370.27	51.49
370.47	18.72
370.66	259.80
370.86	283.20
371.06	395.55
371.25	322.99
371.45	362.78
371.65	327.68
371.84	285.55
372.04	339.38
372.24	381.51
372.44	379.17
372.63	425.98
372.83	365.12
373.03	437.68
373.22	346.40
373.42	365.12
373.62	428.32
373.81	470.45
374.01	341.72
374.21	475.13
374.40	491.51
374.60	505.56
374.79	414.27
374.99	454.06
375.19	531.30
375.38	440.02
375.58	510.24
375.78	486.83
375.97	477.47
376.17	526.62
376.37	512.58
376.56	386.19
376.76	458.74
376.95	444.70
377.15	554.71
377.35	540.66
377.54	498.53
377.74	428.32
377.93	400.23
378.13	540.66
378.33	559.39
378.52	500.87
378.72	477.47
378.91	489.17
379.11	456.40
379.31	479.81
379.50	463.43
379.70	603.86
379.89	559.39
380.09	543.00
380.28	533.64
380.48	475.13
380.68	477.47
380.87	648.33
381.07	535.98
381.26	589.82
381.46	531.30
381.65	571.09
381.85	575.77
382.04	585.13
382.24	587.47
382.43	557.05
382.63	528.96
382.83	505.56
383.02	669.39
383.22	678.76
383.41	519.60
383.61	645.99
383.80	713.86
384.00	636.63
384.19	589.82
384.39	711.52
384.58	638.97
384.78	615.56
384.97	603.86
385.17	655.35
385.36	702.16
385.56	601.52
385.75	575.77
385.95	608.54
386.14	706.84
386.34	575.77
386.53	671.73
386.72	718.54
386.92	741.95
387.11	699.82
387.31	793.44
387.50	660.03
387.70	765.36
387.89	772.38
388.09	674.07
388.28	734.93
388.48	875.36
388.67	770.04
388.86	819.19
389.06	786.42
389.25	744.29
389.45	713.86
389.64	748.97
389.84	777.06
390.03	833.23
390.22	828.55
390.42	767.70
390.61	819.19
390.81	763.01
391.00	861.32
391.19	851.96
391.39	823.87
391.58	840.25
391.78	847.27
391.97	880.04
392.16	922.17
392.36	908.13
392.55	891.74
392.75	821.53
392.94	784.08
393.13	952.60
393.33	926.85
393.52	842.59
393.71	985.37
393.91	971.32
394.10	851.96
394.29	945.58
394.49	936.21
394.68	959.62
394.88	1036.86
395.07	997.07
395.26	945.58
395.46	917.49
395.65	1074.31
395.84	1046.22
396.04	1004.09
396.23	1081.33
396.42	978.34
396.62	1018.13
396.81	1034.52
397.00	1114.10
397.19	1062.60
397.39	1057.92
397.58	1177.29
397.77	1100.05
397.97	1149.20
398.16	1018.13
398.35	1174.95
398.55	1139.84
398.74	1193.67
398.93	1181.97
399.12	1167.93
399.32	1156.22
399.51	1214.74
399.70	1153.88
399.90	1277.93
400.09	1221.76
400.28	1324.74
400.47	1350.49
400.67	1296.66
400.86	1329.42
401.05	1174.95
401.24	1233.46
401.44	1249.85
401.63	1287.29
401.82	1397.30
402.01	1336.45
402.21	1376.24
402.40	1378.58
402.59	1378.58
402.78	1404.32
402.97	1392.62
403.17	1521.35
403.36	1362.19
403.55	1483.90
403.74	1420.71
403.93	1460.49
404.13	1481.56
404.32	1544.75
404.51	1516.67
404.70	1633.69
404.89	1542.41
405.09	1741.36
405.28	1584.54
405.47	1610.29
405.66	1540.07
405.85	1603.27
406.05	1519.01
406.24	1645.40
406.43	1640.72
406.62	1654.76
406.81	1727.32
407.00	1760.08
407.20	1682.85
407.39	1722.63
407.58	1776.47
407.77	1760.08
407.96	1926.26
408.15	1823.28
408.34	1884.13
408.54	1881.79
408.73	1902.86
408.92	1877.11
409.11	1947.33
409.30	1895.83
409.49	1771.79
409.68	1998.82
409.87	1959.03
410.07	1980.09
410.26	1937.96
410.45	2101.80
410.64	2146.27
410.83	2148.61
411.02	2078.40
411.21	2150.95
411.40	2040.95
411.59	2122.87
411.78	2230.53
411.98	2080.74
412.17	2258.62
412.36	2204.78
412.55	2359.26
412.74	2326.49
412.93	2370.96
413.12	2354.58
413.31	2406.07
413.50	2312.45
413.69	2495.01
413.88	2546.50
414.07	2473.95
414.26	2555.86
414.45	2511.39
414.64	2565.23
414.83	2684.59
415.02	2640.12
415.22	2597.99
415.41	2719.70
415.60	2731.41
415.79	2761.83
415.98	2794.60
416.17	2703.32
416.36	2841.41
416.55	2892.90
416.74	2902.26
416.93	2803.96
417.12	2979.50
417.31	2958.44
417.50	2857.79
417.69	3082.49
417.88	3007.59
418.07	2991.20
418.26	2998.23
418.45	3070.78
418.64	3225.26
418.83	3115.25
419.02	3103.55
419.21	3129.30
419.39	3260.37
419.58	3272.07
419.77	3033.33
419.96	3185.47
420.15	3379.73
420.34	3272.07
420.53	3323.56
420.72	3496.76
420.91	3412.50
421.10	3445.27
421.29	3503.78
421.48	3375.05
421.67	3482.72
421.86	3440.59
422.05	3510.80
422.24	3480.38
422.43	3403.14
422.61	3417.18
422.80	3604.42
422.99	3651.24
423.18	3485.06
423.37	3651.24
423.56	3597.40
423.75	3545.91
423.94	3435.91
424.13	3328.24
424.32	3417.18
424.50	3655.92
424.69	3646.55
424.88	3665.28
425.07	3625.49
425.26	3499.10
425.45	3548.25
425.64	3667.62
425.83	3749.54
426.01	3735.50
426.20	3604.42
426.39	3653.58
426.58	3662.94
426.77	3625.49
426.96	3761.24
427.15	3695.71
427.33	3892.31
427.52	3871.25
427.71	3733.15
427.90	3873.59
428.09	3889.97
428.28	3887.63
428.46	3915.72
428.65	3962.53
428.84	4070.19
429.03	4002.32
429.22	3981.25
429.40	3964.87
429.59	4049.13
429.78	3826.78
429.97	3824.44
430.16	3864.22
430.34	4067.85
430.53	4189.56
430.72	4292.54
430.91	4140.41
431.10	4065.51
431.28	4135.73
431.47	4234.03
431.66	4252.75
431.85	4177.86
432.03	4231.69
432.22	4383.82
432.41	4259.78
432.60	4381.48
432.79	4383.82
432.97	4381.48
433.16	4215.30
433.35	4266.80
433.54	4580.43
433.72	4428.29
433.91	4306.59
434.10	4477.44
434.28	4404.89
434.47	4512.55
434.66	4496.17
434.85	4622.56
435.03	4629.58
435.22	4915.12
435.41	5043.85
435.59	5013.43
435.78	5046.20
435.97	4791.08
436.16	4762.99
436.34	4636.60
436.53	4718.52
436.72	4791.08
436.90	4657.67
437.09	4744.27
437.28	4800.44
437.46	4915.12
437.65	4929.17
437.84	4873.00
438.02	4910.44
438.21	4868.31
438.40	4863.63
438.58	5128.11
438.77	5184.29
438.96	5071.94
439.14	5027.47
439.33	5062.58
439.52	5121.09
439.70	5184.29
439.89	5420.68
440.08	5462.81
440.26	5357.49
440.45	5303.65
440.63	5490.90
440.82	5509.62
441.01	5427.70
441.19	5469.83
441.38	5631.33
441.57	5575.16
441.75	5804.53
441.94	5781.12
442.12	5865.38
442.31	5954.32
442.50	5834.96
442.68	5748.36
442.87	5731.97
443.05	5872.40
443.24	6059.65
443.43	5954.32
443.61	6001.13
443.80	6090.07
443.98	5860.70
444.17	5640.69
444.35	6125.18
444.54	6183.70
444.73	6167.31
444.91	6136.88
445.10	6115.82
445.28	6179.01
445.47	6118.16
445.65	6090.07
445.84	6024.54
446.02	6146.25
446.21	6001.13
446.39	6209.44
446.58	6267.95
446.77	6232.85
446.95	6127.52
447.14	6202.42
447.32	6209.44
447.51	6298.38
447.69	6319.45
447.88	6256.25
448.06	6106.46
448.25	6097.10
448.43	6291.36
448.62	6129.86
448.80	6169.65
448.99	6214.12
449.17	6328.81
449.36	6246.89
449.54	6300.72
449.73	6555.84
449.91	6452.86
450.10	6387.32
450.28	6520.73
450.46	6637.76
450.65	6565.20
450.83	6700.95
451.02	6602.65
451.20	6523.07
451.39	6593.29
451.57	6740.74
451.76	6448.18
451.94	6586.27
452.13	6679.89
452.31	6703.29
452.49	6579.25
452.68	6935.01
452.86	6712.66
453.05	6719.68
453.23	6871.81
453.42	6801.60
453.60	6832.02
453.78	6754.79
453.97	6750.10
454.15	6808.62
454.34	6895.22
454.52	7159.70
454.70	7030.97
454.89	6960.75
455.07	7070.76
455.26	6970.12
455.44	7241.62
455.62	7005.22
455.81	7180.76
455.99	7007.56
456.17	7274.38
456.36	7169.06
456.54	7545.89
456.73	7438.22
456.91	7639.51
457.09	7421.84
457.28	7529.50
457.46	7396.09
457.64	7632.49
457.83	7637.17
458.01	7489.71
458.19	7616.10
458.38	7536.52
458.56	7665.25
458.74	7712.07
458.93	7730.79
459.11	7578.65
459.29	7719.09
459.48	7662.91
459.66	7648.87
459.84	7829.09
460.03	7983.57
460.21	7873.56
460.39	7758.88
460.57	7803.35
460.76	8004.63
460.94	7889.95
461.12	7976.55
461.31	7744.83
461.49	8009.31
461.67	8088.89
461.85	8051.44
462.04	8184.85
462.22	8409.54
462.40	8365.07
462.59	8243.37
462.77	8299.54
462.95	8311.24
463.13	8264.43
463.32	8145.06
463.50	8339.33
463.68	8278.47
463.86	8601.47
464.05	8243.37
464.23	8269.11
464.41	8472.74
464.59	8294.86
464.78	8671.68
464.96	8397.84
465.14	8355.71
465.32	8601.47
465.50	8533.59
465.69	8526.57
465.87	8510.19
466.05	8559.34
466.23	8685.73
466.41	8777.01
466.60	8856.59
466.78	8587.43
466.96	8732.54
467.14	8713.81
467.32	8718.50
467.51	8947.87
467.69	8587.43
467.87	8980.64
468.05	8887.01
468.23	8915.10
468.41	8781.69
468.60	8840.20
468.78	9008.72
468.96	8990.00
469.14	8997.02
469.32	9118.73
469.50	8929.14
469.69	9177.24
469.87	9256.82
470.05	9296.61
470.23	9191.28
470.41	9193.62
470.59	9451.08
470.77	9401.93
470.95	9441.72
471.14	9507.26
471.32	9254.48
471.50	9591.52
471.68	9635.99
471.86	9710.88
472.04	9792.80
472.22	9860.68
472.40	9633.64
472.58	9987.07
472.77	9834.93
472.95	9827.91
473.13	10052.60
473.31	9893.44
473.49	10155.58
473.67	10022.17
473.85	10012.81
474.03	10127.50
474.21	10434.11
474.39	10445.81
474.57	10389.64
474.75	10452.83
474.93	10670.50
475.12	10401.34
475.30	10588.58
475.48	10590.92
475.66	10803.91
475.84	10691.57
476.02	11061.37
476.20	10890.51
476.38	11037.97
476.56	11321.17
476.74	11077.76
476.92	11133.93
477.10	11173.72
477.28	11283.72
477.46	11349.26
477.64	11459.26
477.82	11613.74
478.00	11999.93
478.18	11843.11
478.36	11803.32
478.54	12086.53
478.72	12222.28
478.90	12266.75
479.08	12105.25
479.26	12404.84
479.44	12301.86
479.62	12367.39
479.80	12594.42
479.98	12585.06
480.16	12812.09
480.34	12669.32
480.52	12884.65
480.70	12964.23
480.88	12903.37
481.06	13179.56
481.24	13048.49
481.41	13366.80
481.59	13628.94
481.77	13628.94
481.95	13598.51
482.13	13720.22
482.31	13928.53
482.49	14200.03
482.67	14029.17
482.85	14244.50
483.03	14380.25
483.21	14705.59
483.39	14413.02
483.57	14614.30
483.74	14792.19
483.92	14958.36
484.10	14782.82
484.28	15492.01
484.46	15185.40
484.64	15648.82
484.82	15529.45
485.00	15609.03
485.18	15913.30
485.35	16086.50
485.53	16140.33
485.71	16128.63
485.89	16643.55
486.07	16388.43
486.25	16365.03
486.43	16409.50
486.61	16657.59
486.78	16601.42
486.96	17020.38
487.14	17216.98
487.32	17088.25
487.50	17160.81
487.68	17305.92
487.85	17776.37
488.03	17802.11
488.21	17947.23
488.39	18122.77
488.57	18146.17
488.75	18347.46
488.92	18473.85
489.10	18745.35
489.28	18890.46
489.46	18904.51
489.64	18930.25
489.81	19164.31
489.99	19405.38
490.17	19482.62
490.35	19562.20
490.53	19833.70
490.70	20168.40
490.88	19803.27
491.06	19964.77
491.24	20032.65
491.41	20173.08
491.59	20262.02
491.77	20418.83
491.95	20879.92
492.13	20938.43
492.30	20631.82
492.48	21039.08
492.66	20999.29
492.84	20936.09
493.01	21348.03
493.19	21516.54
493.37	21656.98
493.54	21453.35
493.72	21982.31
493.90	21975.29
494.08	21881.67
494.25	22366.16
494.43	22581.49
494.61	22366.16
494.79	22621.28
494.96	22321.69
495.14	22848.31
495.32	22698.52
495.49	23122.15
495.67	23077.68
495.85	23473.23
496.02	23777.50
496.20	23683.88
496.38	23576.22
496.55	23646.43
496.73	24381.36
496.91	23880.49
497.09	24297.10
497.26	24051.34
497.44	24018.58
497.62	24467.96
497.79	24915.00
497.97	24758.19
498.14	25118.63
498.32	25092.88
498.50	25261.40
498.67	25504.82
498.85	25242.68
499.03	25329.28
499.20	25659.29
499.38	25570.35
499.56	25949.52
499.73	25722.49
499.91	26223.36
500.08	26092.29
500.26	25790.36
500.44	25848.88
500.61	26368.48
500.79	26345.07
500.97	26438.69
501.14	26707.85
501.32	27091.70
501.49	26434.01
501.67	26417.63
501.84	27190.00
502.02	27136.17
502.20	27070.64
502.37	27374.91
502.55	27393.63
502.72	27321.07
502.90	27075.32
503.07	27515.34
503.25	27356.18
503.43	27325.75
503.60	27637.05
503.78	27761.09
503.95	27634.71
504.13	28121.54
504.30	28137.92
504.48	28025.57
504.65	28219.84
504.83	28418.78
505.01	28709.01
505.18	28669.22
505.36	28793.27
505.53	28559.22
505.71	28687.95
505.88	28783.91
506.06	28500.70
506.23	29476.71
506.41	29076.48
506.58	29326.91
506.76	28999.24
506.93	29422.87
507.11	29469.69
507.28	29495.43
507.46	29202.86
507.63	29729.48
507.81	30110.99
507.98	29827.79
508.16	30197.59
508.33	30314.62
508.50	30293.55
508.68	29773.95
508.85	30260.79
509.03	30188.23
509.20	30600.16
509.38	30747.62
509.55	30595.48
509.73	31091.68
509.90	30813.15
510.08	30782.73
510.25	30696.13
510.42	31197.00
510.60	31735.32
510.77	31517.65
510.95	31641.70
511.12	31665.11
511.30	31063.59
511.47	31541.06
511.64	31714.26
511.82	31880.44
511.99	31669.79
512.17	32006.83
512.34	32032.57
512.51	32236.20
512.69	32205.77
512.86	32119.17
513.04	32334.50
513.21	32336.84
513.38	32816.65
513.56	32779.20
513.73	32779.20
513.90	32694.94
514.08	32840.06
514.25	32936.02
514.43	33125.60
514.60	33109.22
514.77	33244.97
514.95	33266.03
515.12	33013.26
515.29	33137.30
515.47	33766.91
515.64	33729.46
515.81	33317.53
515.99	33867.55
516.16	34218.63
516.33	34232.68
516.51	34115.65
516.68	33961.17
516.85	34059.48
517.03	33865.21
517.20	34108.63
517.37	34455.03
517.54	34293.53
517.72	34700.78
517.89	34251.40
518.06	34387.15
518.24	34263.10
518.41	34464.39
518.58	34457.37
518.75	34274.80
518.93	35311.66
519.10	35037.82
519.27	35356.13
519.45	35028.46
519.62	34761.64
519.79	35007.39
519.96	35267.19
520.14	35494.22
520.31	35241.45
520.48	35927.22
520.65	35803.17
520.83	35693.17
521.00	35892.12
521.17	35508.27
521.34	35889.77
521.52	36222.13
521.69	36037.23
521.86	36517.04
522.03	36414.05
522.20	36371.92
522.38	36486.61
522.55	36229.15
522.72	36563.85
522.89	36102.76
523.07	37244.94
523.24	36950.04
523.41	36840.03
523.58	36620.02
523.75	36828.33
523.92	36704.28
524.10	36879.82
524.27	37046.00
524.44	36823.65
524.61	37874.55
524.78	37486.02
524.96	37317.50
525.13	37544.53
525.30	37364.31
525.47	37635.81
525.64	37675.60
525.81	37593.68
525.98	37909.66
526.16	37429.85
526.33	37801.99
526.50	38155.41
526.67	37757.52
526.84	37930.72
527.01	37778.59
527.18	38078.18
527.36	38330.95
527.53	38192.86
527.70	38635.22
527.87	38576.71
528.04	38267.76
528.21	38754.59
528.38	38979.28
528.55	38897.36
528.72	39454.41
528.89	38820.13
529.07	38635.22
529.24	38321.59
529.41	38866.94
529.58	38731.18
529.75	38792.04
529.92	39058.86
530.09	39030.77
530.26	39084.61
530.43	39522.29
530.60	39019.07
530.77	39428.66
530.94	39531.65
531.11	39241.42
531.28	39239.08
531.46	39676.76
531.63	39817.19
531.80	39332.70
531.97	40128.48
532.14	39789.11
532.31	39541.01
532.48	39892.09
532.65	39852.30
532.82	40002.10
532.99	40030.18
533.16	39906.13
533.33	40453.82
533.50	40968.74
533.67	40184.66
533.84	40098.06
534.01	40233.81
534.18	40107.42
534.35	40549.78
534.52	40355.52
534.69	40690.21
534.86	40807.24
535.03	40463.18
535.20	40669.15
535.37	40811.92
535.54	40856.39
535.71	40524.04
535.88	40676.17
536.05	40594.25
536.22	41074.06
536.38	40933.63
536.55	41111.51
536.72	40989.80
536.89	41186.41
537.06	40664.47
537.23	41357.27
537.40	41317.48
537.57	41265.99
537.74	41427.48
537.91	41549.19
538.08	41607.70
538.25	41486.00
538.42	41413.44
538.59	41647.49
538.75	41352.58
538.92	41656.85
539.09	41603.02
539.26	41926.02
539.43	42204.54
539.60	42148.37
539.77	41907.29
539.94	42059.43
540.11	42422.21
540.28	42192.84
540.44	42321.57
540.61	42150.71
540.78	42373.06
540.95	42155.39
541.12	42602.43
541.29	42752.23
541.46	42351.99
541.62	42672.65
541.79	43098.62
541.96	42258.37
542.13	42684.35
542.30	42834.14
542.47	42593.07
542.63	43009.68
542.80	42890.32
542.97	43709.50
543.14	43419.28
543.31	43147.78
543.48	43262.46
543.64	43821.85
543.81	43746.95
543.98	43646.31
544.15	43620.56
544.32	43562.05
544.48	43859.30
544.65	43730.57
544.82	43379.49
544.99	43072.88
545.16	43241.40
545.32	43210.97
545.49	44367.20
545.66	44711.25
545.83	44685.51
546.00	44900.84
546.16	44278.25
546.33	44102.71
546.50	43512.90
546.67	43950.58
546.83	43491.83
547.00	43849.94
547.17	44217.40
547.34	44472.52
547.50	44121.44
547.67	44425.71
547.84	43803.13
548.00	44357.83
548.17	44168.25
548.34	44137.82
548.51	44566.14
548.67	44715.93
548.84	44910.20
549.01	44252.51
549.18	44348.47
549.34	44533.37
549.51	44486.56
549.68	44605.93
549.84	44528.69
550.01	44669.12
550.18	44769.77
550.34	44708.91
550.51	44631.68
550.68	44739.34
550.84	44486.56
551.01	45020.20
551.18	44842.32
551.34	44229.10
551.51	44692.53
551.68	44699.55
551.84	44933.60
552.01	44849.35
552.18	44914.88
552.34	45172.34
552.51	45146.59
552.68	44673.81
552.84	44980.42
553.01	45263.62
553.18	44795.51
553.34	44884.45
553.51	44793.17
553.67	45488.31
553.84	45680.24
554.01	45308.09
554.17	45137.23
554.34	45090.42
554.51	45249.58
554.67	45322.13
554.84	45415.76
555.00	45205.11
555.17	45064.67
555.33	45528.10
555.50	45301.07
555.67	45165.32
555.83	45680.24
556.00	45390.01
556.16	45621.72
556.33	45394.69
556.50	45830.03
556.66	45902.59
556.83	45684.92
556.99	45490.65
557.16	45916.63
557.32	45834.71
557.49	45940.04
557.65	45525.76
557.82	45390.01
557.98	45638.11
558.15	45504.70
558.32	45858.12
558.48	45853.44
558.65	45848.75
558.81	45848.75
558.98	45794.92
559.14	45958.76
559.31	45581.93
559.47	45832.37
559.64	46033.66
559.80	46202.18
559.97	45734.07
560.13	45745.77
560.30	45818.33
560.46	46305.16
560.63	46340.27
560.79	46316.86
560.96	46248.99
561.12	46167.07
561.29	45961.10
561.45	45935.35
561.61	46490.06
561.78	46351.97
561.94	46300.48
562.11	46667.94
562.27	45933.01
562.44	46185.79
562.60	46265.37
562.77	46260.69
562.93	46274.73
563.10	46625.81
563.26	46103.87
563.42	46614.11
563.59	46574.32
563.75	46490.06
563.92	46763.90
564.08	46136.64
564.24	46138.98
564.41	45984.51
564.57	46361.33
564.74	46300.48
564.90	46539.21
565.07	46756.88
565.23	46405.80
565.39	46550.91
565.56	46532.19
565.72	46277.07
565.88	46358.99
566.05	46370.69
566.21	46602.41
566.38	46358.99
566.54	46761.56
566.70	46611.77
566.87	46724.11
567.03	46614.11
567.19	47082.22
567.36	46799.01
567.52	46307.50
567.68	46740.50
567.85	46183.45
568.01	46735.82
568.17	46141.32
568.34	46897.31
568.50	46681.98
568.66	46305.16
568.83	46965.19
568.99	46803.69
569.15	46497.08
569.32	46433.89
569.48	46602.41
569.64	46822.42
569.81	46663.26
569.97	46827.10
570.13	46600.07
570.30	46251.33
570.46	46555.60
570.62	46550.91
570.78	46698.37
570.95	46326.22
571.11	46691.35
571.27	46195.15
571.43	46579.00
571.60	46906.68
571.76	46763.90
571.92	46754.54
572.09	46373.03
572.25	46960.51
572.41	46953.49
572.57	47000.30
572.74	47187.54
572.90	46796.67
573.06	46742.84
573.22	46719.43
573.38	47114.98
573.55	46869.23
573.71	47122.01
573.87	47459.04
574.03	46660.92
574.20	46815.40
574.36	46564.96
574.52	46639.86
574.68	46789.65
574.84	46696.03
575.01	46897.31
575.17	46831.78
575.33	46670.28
575.49	46319.20
575.65	47302.23
575.82	47063.49
575.98	46827.10
576.14	46717.09
576.30	46607.09
576.46	46408.14
576.62	46560.28
576.79	46873.91
576.95	46604.75
577.11	46656.24
577.27	47028.38
577.43	46791.99
577.59	46651.56
577.75	46993.28
577.92	46752.20
578.08	46600.07
578.24	46738.16
578.40	46550.91
578.56	46923.06
578.72	46974.55
578.88	47035.41
579.04	47377.12
579.21	46815.40
579.37	46983.91
579.53	46997.96
579.69	46789.65
579.85	46855.18
580.01	46616.45
580.17	46412.82
580.33	47065.83
580.49	46703.05
580.65	47110.30
580.82	47346.70
580.98	46916.04
581.14	46981.57
581.30	47292.86
581.46	46813.05
581.62	46244.30
581.78	46803.69
581.94	46770.93
582.10	46810.71
582.26	46719.43
582.42	47129.03
582.58	47047.11
582.74	46951.15
582.90	47292.86
583.06	47358.40
583.22	46560.28
583.38	46838.80
583.54	46670.28
583.70	46120.26
583.86	47421.59
584.02	46829.44
584.18	47337.33
584.34	46747.52
584.50	47540.96
584.66	47037.75
584.82	46756.88
584.98	46927.74
585.14	46770.93
585.30	46480.70
585.46	46649.22
585.62	46504.10
585.78	47042.43
585.94	46817.74
586.10	47126.69
586.26	47215.63
586.42	47243.71
586.58	47344.36
586.74	46855.18
586.90	46609.43
587.06	46595.38
587.22	47229.67
587.38	46480.70
587.54	47126.69
587.70	47512.88
587.86	47044.77
588.02	47117.32
588.18	47192.22
588.34	46866.89
588.49	46796.67
588.65	46335.59
588.81	47344.36
588.97	47129.03
589.13	46939.44
589.29	46859.87
589.45	47199.24
589.61	46983.91
589.77	47192.22
589.93	47412.23
590.08	47255.42
590.24	47232.01
590.40	47569.05
