SpectraSuite Data File
++++++++++++++++++++++++++++++++++++
Date: Fri Oct 04 11:39:23 GMT-05:00 2013
User: price-jones
Dark Spectrum Present: No
Reference Spectrum Present: No
Number of Sampled Component Spectra: 1
Spectrometers: USB2+H05261
Integration Time (usec): 100000 (USB2+H05261)
Spectra Averaged: 1 (USB2+H05261)
Boxcar Smoothing: 0 (USB2+H05261)
Correct for Electrical Dark: No (USB2+H05261)
Strobe/Lamp Enabled: No (USB2+H05261)
Correct for Detector Non-linearity: No (USB2+H05261)
Correct for Stray Light: No (USB2+H05261)
Number of Pixels in Processed Spectrum: 2048
>>>>>Begin Processed Spectral Data<<<<<
365.73	72.56
365.92	72.56
366.12	72.56
366.32	0.00
366.52	0.00
366.72	0.00
366.91	0.00
367.11	0.00
367.31	0.00
367.51	0.00
367.70	0.00
367.90	0.00
368.10	0.00
368.30	0.00
368.49	0.00
368.69	0.00
368.89	0.00
369.09	0.00
369.28	0.00
369.48	0.00
369.68	0.00
369.87	42.13
370.07	37.45
370.27	39.79
370.47	67.88
370.66	227.03
370.86	217.67
371.06	215.33
371.25	236.39
371.45	220.01
371.65	285.55
371.84	264.48
372.04	292.57
372.24	346.40
372.44	229.37
372.63	299.59
372.83	334.70
373.03	318.31
373.22	306.61
373.42	304.27
373.62	322.99
373.81	351.08
374.01	351.08
374.21	346.40
374.40	376.83
374.60	360.44
374.79	458.74
374.99	365.12
375.19	386.19
375.38	271.50
375.58	362.78
375.78	395.55
375.97	330.02
376.17	418.96
376.37	379.17
376.56	390.87
376.76	330.02
376.95	404.91
377.15	360.44
377.35	318.31
377.54	365.12
377.74	430.66
377.93	379.17
378.13	369.80
378.33	409.59
378.52	353.42
378.72	393.21
378.91	397.89
379.11	369.80
379.31	402.57
379.50	400.23
379.70	395.55
379.89	402.57
380.09	421.30
380.28	416.62
380.48	334.70
380.68	442.36
380.87	411.93
381.07	381.51
381.26	409.59
381.46	517.26
381.65	388.53
381.85	395.55
382.04	390.87
382.24	404.91
382.43	397.89
382.63	416.62
382.83	461.09
383.02	456.40
383.22	477.47
383.41	454.06
383.61	416.62
383.80	428.32
384.00	444.70
384.19	383.85
384.39	475.13
384.58	468.11
384.78	491.51
384.97	468.11
385.17	587.47
385.36	449.38
385.56	540.66
385.75	552.37
385.95	421.30
386.14	505.56
386.34	482.15
386.53	547.69
386.72	564.07
386.92	461.09
387.11	437.68
387.31	526.62
387.50	472.79
387.70	547.69
387.89	510.24
388.09	435.34
388.28	491.51
388.48	493.85
388.67	538.32
388.86	533.64
389.06	564.07
389.25	535.98
389.45	507.90
389.64	580.45
389.84	582.79
390.03	615.56
390.22	599.18
390.42	552.37
390.61	610.88
390.81	547.69
391.00	545.34
391.19	613.22
391.39	559.39
391.58	594.50
391.78	617.90
391.97	603.86
392.16	561.73
392.36	695.14
392.55	692.80
392.75	624.92
392.94	643.65
393.13	641.31
393.33	606.20
393.52	631.94
393.71	620.24
393.91	676.41
394.10	674.07
394.29	706.84
394.49	730.25
394.68	685.78
394.88	690.46
395.07	655.35
395.26	655.35
395.46	723.23
395.65	784.08
395.84	706.84
396.04	814.51
396.23	767.70
396.42	638.97
396.62	725.57
396.81	770.04
397.00	786.42
397.19	793.44
397.39	732.59
397.58	863.66
397.77	730.25
397.97	798.12
398.16	706.84
398.35	819.19
398.55	866.00
398.74	814.51
398.93	777.06
399.12	847.27
399.32	880.04
399.51	823.87
399.70	912.81
399.90	929.19
400.09	926.85
400.28	968.98
400.47	854.30
400.67	954.94
400.86	992.39
401.05	870.68
401.24	1041.54
401.44	999.41
401.63	1078.99
401.82	1011.11
402.01	940.90
402.21	997.07
402.40	1001.75
402.59	1062.60
402.78	1130.48
402.97	966.64
403.17	1032.18
403.36	1111.75
403.55	1097.71
403.74	1198.35
403.93	1240.48
404.13	1289.64
404.32	1179.63
404.51	1163.25
404.70	1249.85
404.89	1137.50
405.09	1231.12
405.28	1196.01
405.47	1184.31
405.66	1228.78
405.85	1284.95
406.05	1282.61
406.24	1291.98
406.43	1322.40
406.62	1394.96
406.81	1394.96
407.00	1418.36
407.20	1219.42
407.39	1277.93
407.58	1432.41
407.77	1313.04
407.96	1472.20
408.15	1432.41
408.34	1432.41
408.54	1357.51
408.73	1439.43
408.92	1432.41
409.11	1504.96
409.30	1547.09
409.49	1483.90
409.68	1598.59
409.87	1486.24
410.07	1631.35
410.26	1612.63
410.45	1600.93
410.64	1570.50
410.83	1605.61
411.02	1631.35
411.21	1727.32
411.40	1666.46
411.59	1755.40
411.78	1785.83
411.98	1870.09
412.17	1806.89
412.36	1736.68
412.55	1802.21
412.74	1935.62
412.93	1771.79
413.12	1942.64
413.31	1982.43
413.50	1944.99
413.69	2001.16
413.88	1989.46
414.07	1919.24
414.26	2090.10
414.45	2136.91
414.64	2045.63
414.83	2153.29
415.02	2214.15
415.22	2230.53
415.41	2193.08
415.60	2139.25
415.79	2190.74
415.98	2300.75
416.17	2286.70
416.36	2324.15
416.55	2345.22
416.74	2221.17
416.93	2354.58
417.12	2377.98
417.31	2377.98
417.50	2368.62
417.69	2558.21
417.88	2436.50
418.07	2499.69
418.26	2413.09
418.45	2473.95
418.64	2675.23
418.83	2574.59
419.02	2539.48
419.21	2497.35
419.39	2686.94
419.58	2642.46
419.77	2637.78
419.96	2663.53
420.15	2607.36
420.34	2644.81
420.53	2813.32
420.72	2712.68
420.91	2766.51
421.10	2846.09
421.29	2946.73
421.48	2871.84
421.67	2813.32
421.86	2822.69
422.05	2867.16
422.24	2944.39
422.43	2963.12
422.61	2780.56
422.80	2867.16
422.99	2946.73
423.18	2878.86
423.37	3054.40
423.56	2935.03
423.75	2974.82
423.94	2979.50
424.13	2708.00
424.32	2846.09
424.50	2902.26
424.69	2967.80
424.88	3091.85
425.07	2946.73
425.26	2974.82
425.45	3089.51
425.64	3056.74
425.83	3096.53
426.01	3075.46
426.20	3126.96
426.39	3019.29
426.58	2993.55
426.77	3089.51
426.96	3129.30
427.15	3131.64
427.33	3136.32
427.52	3101.21
427.71	3220.58
427.90	3344.63
428.09	3297.81
428.28	3370.37
428.46	3302.50
428.65	3204.19
428.84	3269.73
429.03	3452.29
429.22	3272.07
429.40	3307.18
429.59	3300.16
429.78	3222.92
429.97	3222.92
430.16	3152.70
430.34	3384.41
430.53	3461.65
430.72	3328.24
430.91	3375.05
431.10	3290.79
431.28	3531.87
431.47	3578.68
431.66	3611.45
431.85	3517.83
432.03	3606.77
432.22	3700.39
432.41	3653.58
432.60	3751.88
432.79	3707.41
432.97	3681.66
433.16	3606.77
433.35	3655.92
433.54	3644.21
433.72	3627.83
433.91	3538.89
434.10	3754.22
434.28	3679.32
434.47	3702.73
434.66	3808.05
434.85	3843.16
435.03	3992.95
435.22	4079.55
435.41	4351.06
435.59	4241.05
435.78	4159.13
435.97	4100.62
436.16	4002.32
436.34	3915.72
436.53	3908.69
436.72	4081.89
436.90	3880.61
437.09	4128.70
437.28	3920.40
437.46	4152.11
437.65	4063.17
437.84	4051.47
438.02	4187.22
438.21	4044.45
438.40	4142.75
438.58	4311.27
438.77	4215.30
438.96	4236.37
439.14	4334.67
439.33	4477.44
439.52	4229.35
439.70	4311.27
439.89	4461.06
440.08	4318.29
440.26	4629.58
440.45	4573.41
440.63	4447.02
440.82	4587.45
441.01	4606.17
441.19	4767.67
441.38	4713.84
441.57	4746.61
441.75	4702.14
441.94	4842.57
442.12	4697.46
442.31	4912.78
442.50	4961.94
442.68	4947.89
442.87	4823.84
443.05	4898.74
443.24	5128.11
443.43	5048.54
443.61	5008.75
443.80	5055.56
443.98	4990.02
444.17	4917.47
444.35	4926.83
444.54	5104.71
444.73	5181.95
444.91	5130.45
445.10	5004.07
445.28	4997.04
445.47	5083.64
445.65	5025.13
445.84	5252.16
446.02	5132.79
446.21	5020.45
446.39	4997.04
446.58	5149.18
446.77	5102.37
446.95	5036.83
447.14	5008.75
447.32	5135.14
447.51	5287.27
447.69	5121.09
447.88	5109.39
448.06	5107.05
448.25	5289.61
448.43	5404.30
448.62	5121.09
448.80	5221.74
448.99	5273.23
449.17	5242.80
449.36	5453.45
449.54	5387.91
449.73	5324.72
449.91	5441.75
450.10	5500.26
450.28	5565.79
450.46	5275.57
450.65	5593.88
450.83	5535.37
451.02	5699.20
451.20	5650.05
451.39	5591.54
451.57	5495.58
451.76	5469.83
451.94	5568.13
452.13	5694.52
452.31	5657.07
452.49	5493.24
452.68	5547.07
452.86	5631.33
453.05	5687.50
453.23	5727.29
453.42	5614.95
453.60	5703.89
453.78	5706.23
453.97	5884.11
454.15	5792.83
454.34	5870.06
454.52	5863.04
454.70	5799.85
454.89	5790.49
455.07	5905.17
455.26	5975.39
455.44	6176.67
455.62	6026.88
455.81	6216.46
455.99	6085.39
456.17	6202.42
456.36	6047.94
456.54	6207.10
456.73	6211.78
456.91	6331.15
457.09	6263.27
457.28	6480.94
457.46	6256.25
457.64	6340.51
457.83	6324.13
458.01	6478.60
458.19	6506.69
458.38	6380.30
458.56	6602.65
458.74	6469.24
458.93	6417.75
459.11	6546.48
459.29	6434.13
459.48	6534.78
459.66	6523.07
459.84	6656.48
460.03	6778.19
460.21	6663.51
460.39	6607.33
460.57	6443.49
460.76	6743.08
460.94	6822.66
461.12	6820.32
461.31	6860.11
461.49	6733.72
461.67	6771.17
461.85	6953.73
462.04	6918.62
462.22	7122.25
462.40	7136.29
462.59	6923.30
462.77	6960.75
462.95	6963.09
463.13	7105.87
463.32	7096.50
463.50	7026.29
463.68	7103.53
463.86	7066.08
464.05	6986.50
464.23	7077.78
464.41	7246.30
464.59	7131.61
464.78	7297.79
464.96	7222.89
465.14	7255.66
465.32	7440.56
465.50	7473.33
465.69	7302.47
465.87	7206.51
466.05	7325.88
466.23	7485.03
466.41	7325.88
466.60	7454.61
466.78	7508.44
466.96	7356.30
467.14	7309.49
467.32	7400.77
467.51	7660.57
467.69	7433.54
467.87	7557.59
468.05	7768.24
468.23	7513.12
468.41	7588.02
468.60	7705.04
468.78	7683.98
468.96	7538.87
469.14	7653.55
469.32	7595.04
469.50	7714.41
469.69	7786.96
469.87	7815.05
470.05	8173.15
470.23	7903.99
470.41	7967.18
470.59	8119.32
470.77	7889.95
470.95	8035.06
471.14	8217.62
471.32	8063.15
471.50	8318.26
471.68	8269.11
471.86	8037.40
472.04	8276.13
472.22	8517.21
472.40	8414.23
472.58	8423.59
472.77	8603.81
472.95	8491.46
473.13	8652.96
473.31	8418.91
473.49	8564.02
473.67	8601.47
473.85	8769.99
474.03	8659.98
474.21	8830.84
474.39	8875.31
474.57	9060.21
474.75	9001.70
474.93	8938.51
475.12	9018.08
475.30	9151.49
475.48	9067.24
475.66	9071.92
475.84	8982.98
476.02	9308.31
476.20	9193.62
476.38	9495.55
476.56	9703.86
476.74	9558.75
476.92	9664.07
477.10	9460.45
477.28	9741.31
477.46	9579.81
477.64	9863.02
477.82	9994.09
478.00	10118.14
478.18	10171.97
478.36	10104.09
478.54	10221.12
478.72	10251.55
478.90	10478.58
479.08	10422.41
479.26	10525.39
479.44	10862.43
479.62	10714.97
479.80	10780.51
479.98	10909.24
480.16	11049.67
480.34	10995.84
480.52	11070.73
480.70	11056.69
480.88	10967.75
481.06	11384.37
481.24	10937.32
481.41	11489.69
481.59	11728.42
481.77	11683.95
481.95	11892.26
482.13	11604.38
482.31	11770.55
482.49	12219.94
482.67	12037.38
482.85	12030.35
483.03	12533.57
483.21	12833.16
483.39	12451.65
483.57	12547.61
483.74	12666.98
483.92	12952.52
484.10	12915.08
484.28	12940.82
484.46	13160.83
484.64	13507.23
484.82	13064.87
485.00	13303.60
485.18	13827.88
485.35	13591.49
485.53	13734.26
485.71	13603.19
485.89	14050.24
486.07	14001.08
486.25	13994.06
486.43	13963.64
486.61	14317.06
486.78	14377.91
486.96	14544.09
487.14	14780.48
487.32	14871.76
487.50	14686.86
487.68	14909.21
487.85	15241.57
488.03	15204.12
488.21	15379.66
488.39	15197.10
488.57	15644.14
488.75	15531.80
488.92	15768.19
489.10	15967.13
489.28	15800.96
489.46	16250.34
489.64	16198.85
489.81	16573.33
489.99	16699.72
490.17	16720.79
490.35	16896.33
490.53	16901.01
490.70	16996.97
490.88	17184.21
491.06	17198.26
491.24	16959.52
491.41	17392.52
491.59	17308.26
491.77	17558.70
491.95	17762.33
492.13	17937.87
492.30	18417.68
492.48	17902.76
492.66	17980.00
492.84	18043.19
493.01	18216.39
493.19	18204.69
493.37	18450.44
493.54	18569.81
493.72	18597.90
493.90	18944.30
494.08	18836.63
494.25	19360.91
494.43	19098.77
494.61	19236.86
494.79	19667.52
494.96	19389.00
495.14	19520.07
495.32	19562.20
495.49	20013.92
495.67	19864.13
495.85	19857.10
496.02	20208.19
496.20	20046.69
496.38	20273.72
496.55	20524.16
496.73	20786.30
496.91	20739.49
497.09	20961.84
497.26	20910.35
497.44	21163.12
497.62	21317.60
497.79	21160.78
497.97	21266.11
498.14	21331.64
498.32	21706.13
498.50	21535.27
498.67	21724.85
498.85	21635.91
499.03	21825.50
499.20	21898.05
499.38	22001.04
499.56	22038.48
499.73	22375.52
499.91	22242.11
500.08	22574.47
500.26	21888.69
500.44	22464.46
500.61	22782.77
500.79	22347.44
500.97	22860.01
501.14	23002.78
501.32	23335.14
501.49	22965.34
501.67	23033.21
501.84	23508.34
502.02	23370.25
502.20	23288.33
502.37	23260.24
502.55	23489.62
502.72	23314.08
502.90	23594.94
503.07	23513.02
503.25	23517.70
503.43	23608.98
503.60	24175.39
503.78	24084.11
503.95	24266.67
504.13	24037.30
504.30	24280.72
504.48	24414.13
504.65	24411.79
504.83	24446.90
505.01	24828.40
505.18	24762.87
505.36	25041.39
505.53	24615.41
505.71	24863.51
505.88	25151.40
506.06	24783.93
506.23	25135.01
506.41	25287.15
506.58	25404.17
506.76	25186.50
506.93	25064.80
507.11	25678.02
507.28	25579.71
507.46	25324.60
507.63	25865.26
507.81	25905.05
507.98	25652.27
508.16	25933.14
508.33	26078.25
508.50	25785.68
508.68	25879.30
508.85	26511.25
509.03	26590.83
509.20	26417.63
509.38	26745.30
509.55	26780.41
509.73	26614.23
509.90	26796.79
510.08	26609.55
510.25	27133.83
510.42	26843.60
510.60	27552.79
510.77	27204.05
510.95	27122.13
511.12	27232.13
511.30	27440.44
511.47	27276.60
511.64	27585.55
511.82	28004.51
511.99	27606.62
512.17	28166.01
512.34	27505.98
512.51	27946.00
512.69	27983.44
512.86	27800.88
513.04	28559.22
513.21	28320.48
513.38	28348.57
513.56	28788.59
513.73	28294.74
513.90	28397.72
514.08	28510.07
514.25	28863.49
514.43	28884.55
514.60	28577.94
514.77	28835.40
514.95	29067.11
515.12	28828.38
515.29	28936.04
515.47	29064.77
515.64	29572.67
515.81	29453.30
515.99	29544.58
516.16	29575.01
516.33	29741.19
516.51	29495.43
516.68	29645.23
516.85	29242.65
517.03	30171.85
517.20	29869.92
517.37	29933.11
517.54	29977.58
517.72	30391.86
517.89	30005.67
518.06	30103.97
518.24	29972.90
518.41	30368.45
518.58	30705.49
518.75	30199.93
518.93	30419.94
519.10	30305.26
519.27	30623.57
519.45	30412.92
519.62	31012.10
519.79	31234.45
519.96	31014.44
520.14	31124.44
520.31	30890.39
520.48	31227.43
520.65	31129.12
520.83	31161.89
521.00	31412.33
521.17	31321.05
521.34	31522.34
521.52	31702.56
521.69	31817.24
521.86	31777.45
522.03	31803.20
522.20	31676.81
522.38	32016.19
522.55	31812.56
522.72	31779.79
522.89	31477.86
523.07	32133.21
523.24	31854.69
523.41	32025.55
523.58	32051.30
523.75	32353.23
523.92	31999.80
524.10	32219.81
524.27	32517.06
524.44	32385.99
524.61	32870.48
524.78	32528.77
524.96	32690.26
525.13	32858.78
525.30	33448.60
525.47	33062.41
525.64	32989.85
525.81	32957.08
525.98	33457.96
526.16	32961.76
526.33	33022.62
526.50	33254.33
526.67	33024.96
526.84	33062.41
527.01	33212.20
527.18	33757.55
527.36	33680.31
527.53	33886.28
527.70	34136.71
527.87	34375.45
528.04	33731.80
528.21	33970.54
528.38	33706.05
528.55	34061.82
528.72	34129.69
528.89	34305.23
529.07	33926.07
529.24	33991.60
529.41	34150.76
529.58	33881.60
529.75	34115.65
529.92	34855.26
530.09	34359.06
530.26	34539.29
530.43	34506.52
530.60	34260.76
530.77	34541.63
530.94	34775.68
531.11	34405.88
531.28	34726.53
531.46	34843.56
531.63	34911.43
531.80	34960.58
531.97	35508.27
532.14	35063.57
532.31	34827.17
532.48	34780.36
532.65	35086.97
532.82	35131.44
532.99	34836.53
533.16	35166.55
533.33	35211.02
533.50	35285.92
533.67	35583.16
533.84	35269.53
534.01	35477.84
534.18	35229.74
534.35	35232.08
534.52	35751.68
534.69	36435.12
534.86	36102.76
535.03	35796.15
535.20	35969.35
535.37	36254.90
535.54	35819.56
535.71	36051.27
535.88	35749.34
536.05	36311.07
536.22	35959.99
536.38	36687.90
536.55	36322.77
536.72	36313.41
536.89	36334.48
537.06	36659.81
537.23	36378.95
537.40	36271.28
537.57	36243.20
537.74	36306.39
537.91	36842.37
538.08	36514.70
538.25	36343.84
538.42	36919.61
538.59	37151.32
538.75	36664.49
538.92	36739.39
539.09	36952.38
539.26	36926.63
539.43	37769.22
539.60	37179.41
539.77	37090.47
539.94	37951.79
540.11	37308.14
540.28	37493.04
540.44	37570.28
540.61	37502.40
540.78	37134.94
540.95	37654.54
541.12	38038.39
541.29	38265.42
541.46	37647.52
541.62	37830.08
541.79	38094.56
541.96	37467.30
542.13	38045.41
542.30	37923.70
542.47	38490.11
542.63	38139.03
542.80	38022.00
542.97	38501.81
543.14	38326.27
543.31	38562.67
543.48	38398.83
543.64	38590.75
543.81	38859.91
543.98	38487.77
544.15	38962.90
544.32	39009.71
544.48	38871.62
544.65	38333.29
544.82	38838.85
544.99	38785.02
545.16	39056.52
545.32	38583.73
545.49	39651.02
545.66	40182.32
545.83	40402.33
546.00	40165.93
546.16	39246.10
546.33	39173.55
546.50	38885.66
546.67	39049.50
546.83	38550.96
547.00	39112.69
547.17	39590.16
547.34	39040.14
547.50	39213.34
547.67	39285.89
547.84	39533.99
548.00	39690.80
548.17	39370.15
548.34	39077.58
548.51	39739.96
548.67	39538.67
548.84	39627.61
549.01	39620.59
549.18	39636.97
549.34	39700.17
549.51	39763.36
549.68	39538.67
549.84	39409.94
550.01	39384.19
550.18	39800.81
550.34	39496.54
550.51	39651.02
550.68	40205.72
550.84	39840.60
551.01	39845.28
551.18	39777.40
551.34	39732.93
551.51	39739.96
551.68	39941.24
551.84	40100.40
552.01	39763.36
552.18	40416.37
552.34	39868.69
552.51	40032.52
552.68	39894.43
552.84	40011.46
553.01	40191.68
553.18	40479.57
553.34	40002.10
553.51	40037.20
553.67	40652.76
553.84	40767.45
554.01	41078.74
554.17	40364.88
554.34	40568.51
554.51	40130.83
554.67	40383.60
554.84	40357.86
555.00	40371.90
555.17	40144.87
555.33	40486.59
555.50	40240.83
555.67	40432.75
555.83	40463.18
556.00	40311.05
556.16	40800.22
556.33	40739.36
556.50	40584.89
556.66	40968.74
556.83	41099.81
556.99	41406.42
557.16	40629.36
557.32	40879.80
557.49	41270.67
557.65	40500.63
557.82	40685.53
557.98	40823.62
558.15	40914.90
558.32	41539.83
558.48	41212.15
558.65	41312.80
558.81	40952.35
558.98	41090.44
559.14	40699.58
559.31	40390.62
559.47	40830.65
559.64	40877.46
559.80	41251.94
559.97	41256.62
560.13	41413.44
560.30	41399.40
560.46	40938.31
560.63	41507.06
560.79	41507.06
560.96	41443.87
561.12	41071.72
561.29	41263.64
561.45	40994.48
561.61	41326.84
561.78	41933.04
561.94	41537.49
562.11	41813.67
562.27	41478.97
562.44	41715.37
562.60	41228.54
562.77	41715.37
562.93	41743.45
563.10	41677.92
563.26	41621.75
563.42	42113.26
563.59	41553.87
563.75	41287.05
563.92	41118.53
564.08	41460.25
564.24	41654.51
564.41	41373.65
564.57	41626.43
564.74	41902.61
564.90	42059.43
565.07	41429.82
565.23	41771.54
565.39	41528.13
565.56	41792.61
565.72	41415.78
565.88	41895.59
566.05	41401.74
566.21	41596.00
566.38	41605.36
566.54	42010.28
566.70	41633.45
566.87	41806.65
567.03	41965.81
567.19	42045.38
567.36	41977.51
567.52	41801.97
567.68	41858.14
567.85	41429.82
568.01	41869.84
568.17	42089.85
568.34	42080.49
568.50	41954.10
568.66	42071.13
568.83	41727.07
568.99	42185.82
569.15	42068.79
569.32	41783.24
569.48	42164.75
569.64	41593.66
569.81	41926.02
569.97	41879.21
570.13	42328.59
570.30	41853.46
570.46	42099.22
570.62	42256.03
570.78	41965.81
570.95	41965.81
571.11	42265.39
571.27	41219.17
571.43	41916.65
571.60	42197.52
571.76	42026.66
571.92	42518.17
572.09	42124.96
572.25	42611.79
572.41	42103.90
572.57	42012.62
572.74	42319.23
572.90	42073.47
573.06	41652.17
573.22	42052.41
573.38	42241.99
573.55	42188.16
573.71	42279.44
573.87	42471.36
574.03	42415.19
574.20	42340.29
574.36	41928.36
574.52	42050.06
574.68	42408.17
574.84	42014.96
575.01	42328.59
575.17	42478.38
575.33	42424.55
575.49	41731.75
575.65	42665.63
575.82	42405.83
575.98	42396.46
576.14	42122.62
576.30	42052.41
576.46	42010.28
576.62	42895.00
576.79	42937.13
576.95	42223.26
577.11	42534.56
577.27	42515.83
577.43	42394.12
577.59	42686.69
577.75	42005.59
577.92	42113.26
578.08	41956.44
578.24	41413.44
578.40	42576.69
578.56	42380.08
578.72	42415.19
578.88	43000.32
579.04	42806.06
579.21	42443.27
579.37	42541.58
579.53	42600.09
579.69	42045.38
579.85	42511.15
580.01	42742.86
580.17	42323.91
580.33	42403.49
580.49	42232.63
580.65	42808.40
580.82	42532.22
580.98	42541.58
581.14	42721.80
581.30	42930.11
581.46	42160.07
581.62	42195.18
581.78	42150.71
581.94	42462.00
582.10	42300.50
582.26	42473.70
582.42	42801.38
582.58	42593.07
582.74	42618.81
582.90	42710.10
583.06	42426.89
583.22	42438.59
583.38	42328.59
583.54	42586.05
583.70	42412.85
583.86	42204.54
584.02	42396.46
584.18	42426.89
584.34	43047.13
584.50	42810.74
584.66	42635.20
584.82	42312.20
584.98	42518.17
585.14	42141.35
585.30	42185.82
585.46	42637.54
585.62	42536.90
585.78	42689.03
585.94	42829.46
586.10	42784.99
586.26	42707.76
586.42	43150.12
586.58	42965.21
586.74	42667.97
586.90	42366.04
587.06	42490.09
587.22	42761.59
587.38	42380.08
587.54	42698.39
587.70	42752.23
587.86	42686.69
588.02	42670.31
588.18	43328.00
588.34	42714.78
588.49	42789.67
588.65	42017.30
588.81	42794.36
588.97	42941.81
589.13	42653.92
589.29	42712.44
589.45	42719.46
589.61	42806.06
589.77	43093.94
589.93	43323.32
590.08	42871.59
590.24	43086.92
590.40	43288.21
590.56	43028.41
590.72	43042.45
590.88	42682.01
591.04	42852.87
