SpectraSuite Data File
++++++++++++++++++++++++++++++++++++
Date: Fri Oct 04 11:39:13 GMT-05:00 2013
User: price-jones
Dark Spectrum Present: No
Reference Spectrum Present: No
Number of Sampled Component Spectra: 1
Spectrometers: USB2+H05261
Integration Time (usec): 100000 (USB2+H05261)
Spectra Averaged: 1 (USB2+H05261)
Boxcar Smoothing: 0 (USB2+H05261)
Correct for Electrical Dark: No (USB2+H05261)
Strobe/Lamp Enabled: No (USB2+H05261)
Correct for Detector Non-linearity: No (USB2+H05261)
Correct for Stray Light: No (USB2+H05261)
Number of Pixels in Processed Spectrum: 2048
>>>>>Begin Processed Spectral Data<<<<<
365.73	11.70
365.92	11.70
366.12	11.70
366.32	0.00
366.52	0.00
366.72	0.00
366.91	0.00
367.11	0.00
367.31	0.00
367.51	0.00
367.70	0.00
367.90	0.00
368.10	0.00
368.30	0.00
368.49	0.00
368.69	0.00
368.89	0.00
369.09	0.00
369.28	0.00
369.48	0.00
369.68	0.00
369.87	11.70
370.07	0.00
370.27	14.04
370.47	35.11
370.66	105.32
370.86	124.05
371.06	217.67
371.25	168.52
371.45	161.50
371.65	168.52
371.84	248.10
372.04	241.08
372.24	173.20
372.44	234.05
372.63	224.69
372.83	262.14
373.03	201.29
373.22	227.03
373.42	184.90
373.62	161.50
373.81	257.46
374.01	222.35
374.21	227.03
374.40	238.73
374.60	283.20
374.79	212.99
374.99	212.99
375.19	149.79
375.38	292.57
375.58	252.78
375.78	294.91
375.97	227.03
376.17	374.49
376.37	280.86
376.56	238.73
376.76	194.26
376.95	241.08
377.15	229.37
377.35	318.31
377.54	220.01
377.74	276.18
377.93	229.37
378.13	262.14
378.33	285.55
378.52	327.68
378.72	243.42
378.91	306.61
379.11	304.27
379.31	259.80
379.50	306.61
379.70	264.48
379.89	271.50
380.09	266.82
380.28	238.73
380.48	280.86
380.68	262.14
380.87	313.63
381.07	369.80
381.26	301.93
381.46	276.18
381.65	236.39
381.85	278.52
382.04	299.59
382.24	299.59
382.43	351.08
382.63	271.50
382.83	250.44
383.02	266.82
383.22	379.17
383.41	344.06
383.61	308.95
383.80	308.95
384.00	299.59
384.19	407.25
384.39	355.76
384.58	327.68
384.78	353.42
384.97	341.72
385.17	301.93
385.36	285.55
385.56	346.40
385.75	358.10
385.95	383.85
386.14	372.15
386.34	283.20
386.53	348.74
386.72	325.33
386.92	383.85
387.11	390.87
387.31	409.59
387.50	327.68
387.70	308.95
387.89	325.33
388.09	341.72
388.28	390.87
388.48	297.25
388.67	414.27
388.86	386.19
389.06	348.74
389.25	409.59
389.45	362.78
389.64	290.23
389.84	348.74
390.03	339.38
390.22	381.51
390.42	437.68
390.61	393.21
390.81	367.46
391.00	390.87
391.19	437.68
391.39	416.62
391.58	440.02
391.78	367.46
391.97	327.68
392.16	379.17
392.36	407.25
392.55	496.19
392.75	449.38
392.94	402.57
393.13	360.44
393.33	423.64
393.52	498.53
393.71	458.74
393.91	409.59
394.10	470.45
394.29	493.85
394.49	484.49
394.68	465.77
394.88	475.13
395.07	447.04
395.26	425.98
395.46	430.66
395.65	458.74
395.84	456.40
396.04	507.90
396.23	442.36
396.42	435.34
396.62	519.60
396.81	428.32
397.00	528.96
397.19	535.98
397.39	512.58
397.58	486.83
397.77	437.68
397.97	554.71
398.16	486.83
398.35	498.53
398.55	561.73
398.74	547.69
398.93	528.96
399.12	533.64
399.32	540.66
399.51	472.79
399.70	622.58
399.90	550.03
400.09	545.34
400.28	629.60
400.47	568.75
400.67	568.75
400.86	561.73
401.05	575.77
401.24	489.17
401.44	582.79
401.63	578.11
401.82	631.94
402.01	559.39
402.21	688.12
402.40	627.26
402.59	582.79
402.78	620.24
402.97	606.20
403.17	699.82
403.36	592.16
403.55	653.01
403.74	683.44
403.93	737.27
404.13	755.99
404.32	702.16
404.51	727.91
404.70	678.76
404.89	627.26
405.09	723.23
405.28	678.76
405.47	690.46
405.66	748.97
405.85	753.65
406.05	716.20
406.24	706.84
406.43	720.88
406.62	681.10
406.81	791.10
407.00	704.50
407.20	805.14
407.39	709.18
407.58	765.36
407.77	873.02
407.96	711.52
408.15	819.19
408.34	763.01
408.54	732.59
408.73	807.48
408.92	814.51
409.11	767.70
409.30	915.15
409.49	863.66
409.68	861.32
409.87	851.96
410.07	847.27
410.26	912.81
410.45	922.17
410.64	903.45
410.83	842.59
411.02	873.02
411.21	837.91
411.40	990.05
411.59	919.83
411.78	936.21
411.98	905.79
412.17	959.62
412.36	933.87
412.55	971.32
412.74	1057.92
412.93	1011.11
413.12	973.66
413.31	1069.62
413.50	1029.84
413.69	999.41
413.88	1043.88
414.07	997.07
414.26	992.39
414.45	1111.75
414.64	1214.74
414.83	1137.50
415.02	1097.71
415.22	1027.50
415.41	1167.93
415.60	1100.05
415.79	1174.95
415.98	1158.57
416.17	1118.78
416.36	1121.12
416.55	1249.85
416.74	1217.08
416.93	1186.65
417.12	1205.38
417.31	1334.11
417.50	1338.79
417.69	1287.29
417.88	1291.98
418.07	1303.68
418.26	1308.36
418.45	1313.04
418.64	1413.68
418.83	1336.45
419.02	1240.48
419.21	1266.23
419.39	1315.38
419.58	1282.61
419.77	1331.76
419.96	1425.39
420.15	1467.52
420.34	1369.21
420.53	1338.79
420.72	1423.05
420.91	1474.54
421.10	1392.62
421.29	1509.65
421.48	1397.30
421.67	1502.62
421.86	1420.71
422.05	1434.75
422.24	1432.41
422.43	1519.01
422.61	1474.54
422.80	1483.90
422.99	1418.36
423.18	1504.96
423.37	1441.77
423.56	1469.86
423.75	1439.43
423.94	1378.58
424.13	1364.53
424.32	1416.02
424.50	1416.02
424.69	1444.11
424.88	1488.58
425.07	1486.24
425.26	1495.60
425.45	1521.35
425.64	1406.66
425.83	1537.73
426.01	1565.82
426.20	1528.37
426.39	1479.22
426.58	1514.33
426.77	1582.20
426.96	1465.18
427.15	1472.20
427.33	1596.25
427.52	1633.69
427.71	1544.75
427.90	1577.52
428.09	1722.63
428.28	1542.41
428.46	1647.74
428.65	1558.80
428.84	1650.08
429.03	1675.82
429.22	1547.09
429.40	1593.90
429.59	1624.33
429.78	1558.80
429.97	1680.50
430.16	1668.80
430.34	1638.38
430.53	1682.85
430.72	1624.33
430.91	1626.67
431.10	1694.55
431.28	1785.83
431.47	1734.34
431.66	1739.02
431.85	1722.63
432.03	1771.79
432.22	1891.15
432.41	1764.76
432.60	1856.04
432.79	1652.42
432.97	1813.92
433.16	1842.00
433.35	1809.23
433.54	1734.34
433.72	1689.87
433.91	1877.11
434.10	1926.26
434.28	1839.66
434.47	1844.34
434.66	1717.95
434.85	1879.45
435.03	1942.64
435.22	2087.76
435.41	2216.49
435.59	2188.40
435.78	2064.35
435.97	1935.62
436.16	2038.61
436.34	1928.60
436.53	1905.20
436.72	2101.80
436.90	1851.36
437.09	1980.09
437.28	1961.37
437.46	1933.28
437.65	1928.60
437.84	1996.48
438.02	1898.17
438.21	1888.81
438.40	2010.52
438.58	2047.97
438.77	2118.18
438.96	1881.79
439.14	1987.11
439.33	2078.40
439.52	2094.78
439.70	2101.80
439.89	2181.38
440.08	2092.44
440.26	2211.81
440.45	2300.75
440.63	2113.50
440.82	2253.94
441.01	2216.49
441.19	2225.85
441.38	2298.41
441.57	2284.36
441.75	2459.90
441.94	2429.48
442.12	2370.96
442.31	2333.51
442.50	2401.39
442.68	2380.32
442.87	2429.48
443.05	2413.09
443.24	2387.35
443.43	2422.45
443.61	2455.22
443.80	2539.48
443.98	2368.62
444.17	2291.38
444.35	2471.61
444.54	2448.20
444.73	2420.11
444.91	2455.22
445.10	2382.67
445.28	2487.99
445.47	2410.75
445.65	2420.11
445.84	2434.16
446.02	2553.52
446.21	2562.89
446.39	2420.11
446.58	2551.18
446.77	2490.33
446.95	2429.48
447.14	2464.58
447.32	2532.46
447.51	2495.01
447.69	2553.52
447.88	2502.03
448.06	2464.58
448.25	2525.44
448.43	2576.93
448.62	2511.39
448.80	2530.12
448.99	2476.29
449.17	2567.57
449.36	2527.78
449.54	2651.83
449.73	2602.68
449.91	2679.91
450.10	2499.69
450.28	2623.74
450.46	2541.82
450.65	2569.91
450.83	2691.62
451.02	2593.31
451.20	2698.64
451.39	2595.65
451.57	2724.38
451.76	2588.63
451.94	2773.53
452.13	2733.75
452.31	2696.30
452.49	2658.85
452.68	2635.44
452.86	2761.83
453.05	2801.62
453.23	2799.28
453.42	2722.04
453.60	2670.55
453.78	2693.96
453.97	2719.70
454.15	2752.47
454.34	2745.45
454.52	2916.31
454.70	2787.58
454.89	2904.60
455.07	2855.45
455.26	2869.50
455.44	2850.77
455.62	2857.79
455.81	2920.99
455.99	2949.08
456.17	2899.92
456.36	2888.22
456.54	2925.67
456.73	2920.99
456.91	2984.18
457.09	3021.63
457.28	3056.74
457.46	3054.40
457.64	2988.86
457.83	3075.46
458.01	3082.49
458.19	3012.27
458.38	3101.21
458.56	3091.85
458.74	3068.44
458.93	3040.36
459.11	3023.97
459.29	3133.98
459.48	3227.60
459.66	3171.43
459.84	3265.05
460.03	3218.24
460.21	3234.62
460.39	3148.02
460.57	3220.58
460.76	3187.81
460.94	3295.47
461.12	3307.18
461.31	3241.64
461.49	3129.30
461.67	3112.91
461.85	3290.79
462.04	3344.63
462.22	3372.71
462.40	3300.16
462.59	3318.88
462.77	3323.56
462.95	3297.81
463.13	3421.86
463.32	3332.92
463.50	3499.10
463.68	3421.86
463.86	3330.58
464.05	3288.45
464.23	3363.35
464.41	3471.01
464.59	3269.73
464.78	3545.91
464.96	3288.45
465.14	3370.37
465.32	3414.84
465.50	3480.38
465.69	3496.76
465.87	3349.31
466.05	3557.61
466.23	3566.98
466.41	3445.27
466.60	3728.47
466.78	3426.54
466.96	3559.95
467.14	3454.63
467.32	3592.72
467.51	3620.81
467.69	3562.30
467.87	3501.44
468.05	3583.36
468.23	3576.34
468.41	3508.46
468.60	3541.23
468.78	3611.45
468.96	3557.61
469.14	3857.20
469.32	3679.32
469.50	3698.05
469.69	3611.45
469.87	3723.79
470.05	3700.39
470.23	3611.45
470.41	3836.14
470.59	3735.50
470.77	3679.32
470.95	3808.05
471.14	3850.18
471.32	3857.20
471.50	4028.06
471.68	3929.76
471.86	3829.12
472.04	3997.64
472.22	3960.19
472.40	3887.63
472.58	4014.02
472.77	3955.51
472.95	3922.74
473.13	4154.45
473.31	4053.81
473.49	4044.45
473.67	4086.58
473.85	4009.34
474.03	4248.07
474.21	4208.28
474.39	4154.45
474.57	4159.13
474.75	4203.60
474.93	4168.49
475.12	4119.34
475.30	4360.42
475.48	4353.40
475.66	4306.59
475.84	4325.31
476.02	4341.69
476.20	4325.31
476.38	4564.04
476.56	4629.58
476.74	4365.10
476.92	4325.31
477.10	4454.04
477.28	4573.41
477.46	4498.51
477.64	4461.06
477.82	4636.60
478.00	4688.09
478.18	4823.84
478.36	4814.48
478.54	4748.95
478.72	4758.31
478.90	4945.55
479.08	5083.64
479.26	5013.43
479.44	5008.75
479.62	4919.81
479.80	5020.45
479.98	4987.68
480.16	5172.58
480.34	5153.86
480.52	5233.44
480.70	5313.02
480.88	5163.22
481.06	5277.91
481.24	5233.44
481.41	5287.27
481.59	5483.88
481.77	5352.81
481.95	5514.30
482.13	5472.17
482.31	5551.75
482.49	5577.50
482.67	5626.65
482.85	5607.92
483.03	5731.97
483.21	5750.70
483.39	5830.27
483.57	5781.12
483.74	5977.73
483.92	6015.18
484.10	5947.30
484.28	6087.73
484.46	6136.88
484.64	6127.52
484.82	6064.33
485.00	6148.59
485.18	6228.17
485.35	6298.38
485.53	6420.09
485.71	6434.13
485.89	6394.34
486.07	6579.25
486.25	6544.14
486.43	6572.22
486.61	6654.14
486.78	6698.61
486.96	6614.35
487.14	6787.55
487.32	6874.15
487.50	6909.26
487.68	6796.92
487.85	6949.05
488.03	7101.19
488.21	7199.49
488.39	7171.40
488.57	7269.70
488.75	7166.72
488.92	7597.38
489.10	7346.94
489.28	7499.08
489.46	7522.48
489.64	7454.61
489.81	7719.09
489.99	7583.34
490.17	7674.62
490.35	7665.25
490.53	7552.91
490.70	7770.58
490.88	7981.23
491.06	7737.81
491.24	7878.24
491.41	8091.23
491.59	8278.47
491.77	8081.87
491.95	8053.78
492.13	8365.07
492.30	8308.90
492.48	8131.02
492.66	8245.71
492.84	8390.82
493.01	8568.70
493.19	8327.63
493.37	8542.96
493.54	8526.57
493.72	8697.43
493.90	8648.28
494.08	8676.37
494.25	8702.11
494.43	8816.80
494.61	8819.14
494.79	9055.53
494.96	8823.82
495.14	9092.98
495.32	9025.11
495.49	9083.62
495.67	9170.22
495.85	9165.54
496.02	9430.02
496.20	9303.63
496.38	9245.12
496.55	9460.45
496.73	9528.32
496.91	9472.15
497.09	9565.77
497.26	9689.82
497.44	9565.77
497.62	9696.84
497.79	9710.88
497.97	9689.82
498.14	9818.55
498.32	9863.02
498.50	9816.21
498.67	10073.67
498.85	9748.33
499.03	10040.90
499.20	9970.68
499.38	9956.64
499.56	10150.90
499.73	10237.50
499.91	10249.21
500.08	10303.04
500.26	10083.03
500.44	10083.03
500.61	10399.00
500.79	10108.77
500.97	10223.46
501.14	10459.85
501.32	10501.98
501.49	10476.24
501.67	10422.41
501.84	10740.72
502.02	10609.65
502.20	10719.65
502.37	10834.34
502.55	10855.40
502.72	10939.66
502.90	10602.63
503.07	10623.69
503.25	10841.36
503.43	10759.44
503.60	10810.93
503.78	10719.65
503.95	10963.07
504.13	10855.40
504.30	11162.01
504.48	11052.01
504.65	11201.80
504.83	11124.57
505.01	11335.21
505.18	11229.89
505.36	11157.33
505.53	11335.21
505.71	11396.07
505.88	11386.71
506.06	11288.40
506.23	11262.66
506.41	11494.37
506.58	11620.76
506.76	11552.88
506.93	11693.32
507.11	11538.84
507.28	11571.61
507.46	11613.74
507.63	11627.78
507.81	11763.53
507.98	11522.46
508.16	11705.02
508.33	11690.98
508.50	11777.58
508.68	11840.77
508.85	12159.08
509.03	11997.59
509.20	12119.29
509.38	12100.57
509.55	12046.74
509.73	12201.21
509.90	12243.34
510.08	12161.42
510.25	12100.57
510.42	12182.49
510.60	12414.20
510.77	12339.30
510.95	12540.59
511.12	12437.61
511.30	12395.48
511.47	12437.61
511.64	12517.18
511.82	12575.70
511.99	12664.64
512.17	12674.00
512.34	12798.05
512.51	12798.05
512.69	12730.17
512.86	12795.71
513.04	12952.52
513.21	12718.47
513.38	12877.63
513.56	13081.25
513.73	12865.92
513.90	12744.22
514.08	12992.31
514.25	13085.94
514.43	12985.29
514.60	13202.96
514.77	13067.21
514.95	13039.12
515.12	12966.57
515.29	12966.57
515.47	13053.17
515.64	13483.83
515.81	13390.20
515.99	13413.61
516.16	13420.63
516.33	13188.92
516.51	13261.48
516.68	13380.84
516.85	13462.76
517.03	13554.04
517.20	13481.49
517.37	13437.02
517.54	13462.76
517.72	13549.36
517.89	13893.42
518.06	13745.97
518.24	13666.39
518.41	13820.86
518.58	13713.20
518.75	13624.26
518.93	13898.10
519.10	13926.19
519.27	13671.07
519.45	13626.60
519.62	13825.54
519.79	13956.61
519.96	14038.53
520.14	14307.69
520.31	14183.65
520.48	14129.81
520.65	14244.50
520.83	13928.53
521.00	14328.76
521.17	14125.13
521.34	14284.29
521.52	14080.66
521.69	14270.25
521.86	14340.46
522.03	14310.04
522.20	14274.93
522.38	14546.43
522.55	14438.76
522.72	14422.38
522.89	14576.86
523.07	14897.51
523.24	14459.83
523.41	14778.14
523.58	14801.55
523.75	14829.63
523.92	14895.17
524.10	14867.08
524.27	14817.93
524.44	14813.25
524.61	14829.63
524.78	15075.39
524.96	14738.35
525.13	14897.51
525.30	15042.62
525.47	15152.63
525.64	14972.41
525.81	15091.77
525.98	15197.10
526.16	15075.39
526.33	15077.73
526.50	15145.61
526.67	15264.97
526.84	14944.32
527.01	15136.24
527.18	15026.24
527.36	15124.54
527.53	15440.51
527.70	15206.46
527.87	15571.58
528.04	15183.06
528.21	15419.45
528.38	15384.34
528.55	15468.60
528.72	15417.11
528.89	15548.18
529.07	15227.53
529.24	15604.35
529.41	15374.98
529.58	15391.36
529.75	15550.52
529.92	15690.95
530.09	15726.06
530.26	15531.80
530.43	15733.08
530.60	15779.89
530.77	15756.49
530.94	15812.66
531.11	15934.37
531.28	15744.78
531.46	15789.25
531.63	15716.70
531.80	15765.85
531.97	15850.11
532.14	16135.65
532.31	16035.01
532.48	15847.77
532.65	16035.01
532.82	15903.94
532.99	16245.66
533.16	16016.29
533.33	16161.40
533.50	16222.25
533.67	16149.70
533.84	16198.85
534.01	15976.50
534.18	15679.25
534.35	16629.51
534.52	16266.72
534.69	16259.70
534.86	16673.98
535.03	16018.63
535.20	16552.27
535.37	16308.85
535.54	16360.34
535.71	16365.03
535.88	16290.13
536.05	16547.59
536.22	16727.81
536.38	16666.95
536.55	16627.17
536.72	16739.51
536.89	16308.85
537.06	16622.48
537.23	16760.58
537.40	16620.14
537.57	16449.28
537.74	16556.95
537.91	16826.11
538.08	16725.47
538.25	16697.38
538.42	16865.90
538.59	16821.43
538.75	16840.15
538.92	17018.04
539.09	17027.40
539.26	16931.44
539.43	16875.26
539.60	16950.16
539.77	16931.44
539.94	16849.52
540.11	16945.48
540.28	17245.07
540.44	17233.36
540.61	16929.09
540.78	17322.30
540.95	17233.36
541.12	17146.76
541.29	17099.95
541.46	17324.65
541.62	17549.34
541.79	17460.40
541.96	17268.47
542.13	17549.34
542.30	17972.97
542.47	17664.02
542.63	17521.25
542.80	17554.02
542.97	17497.84
543.14	17853.61
543.31	17371.46
543.48	17708.49
543.64	17958.93
543.81	17771.69
543.98	17661.68
544.15	17694.45
544.32	18005.74
544.48	17867.65
544.65	17769.35
544.82	17769.35
544.99	17752.96
545.16	17823.18
545.32	17996.38
545.49	18237.45
545.66	18548.75
545.83	18761.73
546.00	18731.31
546.16	18530.02
546.33	17900.42
546.50	17818.50
546.67	17848.93
546.83	17678.07
547.00	17888.71
547.17	18104.04
547.34	17788.07
547.50	17724.88
547.67	17727.22
547.84	17944.89
548.00	17785.73
548.17	17963.61
548.34	18155.54
548.51	18387.25
548.67	18312.35
548.84	18326.39
549.01	18099.36
549.18	18052.55
549.34	18073.62
549.51	17965.95
549.68	17980.00
549.84	18092.34
550.01	18366.18
550.18	18125.11
550.34	18052.55
550.51	18450.44
550.68	18270.22
550.84	18038.51
551.01	18476.19
551.18	18012.76
551.34	18223.41
551.51	18293.63
551.68	18635.35
551.84	18457.46
552.01	18354.48
552.18	18281.92
552.34	18225.75
552.51	18420.02
552.68	18302.99
552.84	18185.96
553.01	18520.66
553.18	18588.53
553.34	18595.56
553.51	18284.26
553.67	18445.76
553.84	18604.92
554.01	18576.83
554.17	18214.05
554.34	18717.26
554.51	18347.46
554.67	18497.25
554.84	18518.32
555.00	18410.65
555.17	18319.37
555.33	18633.00
555.50	18656.41
555.67	18693.86
555.83	18576.83
556.00	18471.51
556.16	18871.74
556.33	18597.90
556.50	18354.48
556.66	18764.07
556.83	18609.60
556.99	18485.55
557.16	18857.70
557.32	18869.40
557.49	18546.40
557.65	18759.39
557.82	18740.67
557.98	18956.00
558.15	18670.45
558.32	18733.65
558.48	18618.96
558.65	19098.77
558.81	18728.97
558.98	18843.65
559.14	18714.92
559.31	18625.98
559.47	18532.36
559.64	19009.83
559.80	18892.80
559.97	18836.63
560.13	18897.49
560.30	18775.78
560.46	18848.33
560.63	18794.50
560.79	18860.04
560.96	18780.46
561.12	18782.80
561.29	19054.30
561.45	18836.63
561.61	19161.97
561.78	19145.58
561.94	19112.81
562.11	19098.77
562.27	19063.66
562.44	19021.53
562.60	18717.26
562.77	18906.85
562.93	18874.08
563.10	18958.34
563.26	18883.44
563.42	19049.62
563.59	19044.94
563.75	19066.00
563.92	19466.24
564.08	19112.81
564.24	19040.26
564.41	19040.26
564.57	18593.22
564.74	18530.02
564.90	19150.26
565.07	19208.78
565.23	19300.06
565.39	18883.44
565.56	19183.03
565.72	19040.26
565.88	19051.96
566.05	19260.27
566.21	18991.11
566.38	19033.24
566.54	19126.86
566.70	19091.75
566.87	19241.54
567.03	19250.91
567.19	19594.96
567.36	19349.21
567.52	19066.00
567.68	19077.71
567.85	18930.25
568.01	19330.48
568.17	19073.03
568.34	19215.80
568.50	19377.30
568.66	19452.19
568.83	19227.50
568.99	19503.68
569.15	19318.78
569.32	19080.05
569.48	18857.70
569.64	19269.63
569.81	19503.68
569.97	19204.10
570.13	19201.76
570.30	19323.46
570.46	19225.16
570.62	19377.30
570.78	19066.00
570.95	19508.37
571.11	19206.44
571.27	19040.26
571.43	19304.74
571.60	19248.57
571.76	19534.11
571.92	19426.45
572.09	19339.85
572.25	19260.27
572.41	18979.40
572.57	19545.81
572.74	19365.59
572.90	19381.98
573.06	19396.02
573.22	19548.15
573.38	19410.06
573.55	19445.17
573.71	19337.51
573.87	19389.00
574.03	19410.06
574.20	19562.20
574.36	19138.56
574.52	19491.98
574.68	19386.66
574.84	19433.47
575.01	19749.44
575.17	19623.05
575.33	19278.99
575.49	19506.02
575.65	19829.02
575.82	19447.51
575.98	19290.70
576.14	19482.62
576.30	19239.20
576.46	19814.98
576.62	19536.45
576.79	19674.54
576.95	19381.98
577.11	19491.98
577.27	19510.71
577.43	19674.54
577.59	19627.73
577.75	19307.08
577.92	19363.25
578.08	19232.18
578.24	19002.81
578.40	19548.15
578.56	19459.21
578.72	19557.52
578.88	19751.78
579.04	19847.74
579.21	19316.44
579.37	19662.84
579.53	19634.75
579.69	19330.48
579.85	19501.34
580.01	19403.04
580.17	19288.35
580.33	19398.36
580.49	19381.98
580.65	19564.54
580.82	19536.45
580.98	19480.28
581.14	19459.21
581.30	19534.11
581.46	19555.18
581.62	19381.98
581.78	19206.44
581.94	19164.31
582.10	19267.29
582.26	19480.28
582.42	19585.60
582.58	19700.29
582.74	19616.03
582.90	19669.86
583.06	19852.42
583.22	19817.32
583.38	19634.75
583.54	19403.04
583.70	19763.48
583.86	19730.72
584.02	19587.94
584.18	19826.68
584.34	20018.60
584.50	19775.19
584.66	19583.26
584.82	19372.61
584.98	19723.69
585.14	19466.24
585.30	19414.74
585.46	19669.86
585.62	19726.04
585.78	19559.86
585.94	19658.16
586.10	19590.28
586.26	19641.78
586.42	19594.96
586.58	19922.64
586.74	19604.33
586.90	19358.57
587.06	19391.34
587.22	19597.31
587.38	19679.22
587.54	19627.73
587.70	19868.81
587.86	19695.61
588.02	19768.16
588.18	19583.26
588.34	19665.18
588.49	19744.76
588.65	19339.85
588.81	19400.70
588.97	19711.99
589.13	19590.28
589.29	19964.77
589.45	19831.36
589.61	19765.82
589.77	19829.02
589.93	19880.51
590.08	19997.54
590.24	19520.07
590.40	19857.10
590.56	19885.19
590.72	19583.26
590.88	19695.61
591.04	19445.17
591.20	19950.73
591.35	20147.33
591.51	20311.17
591.67	19955.41
591.83	19749.44
591.99	19754.12
592.15	19943.70
592.31	19967.11
592.46	19779.87
592.62	19737.74
592.78	19805.61
