SpectraSuite Data File
++++++++++++++++++++++++++++++++++++
Date: Fri Oct 04 11:39:38 GMT-05:00 2013
User: price-jones
Dark Spectrum Present: No
Reference Spectrum Present: No
Number of Sampled Component Spectra: 1
Spectrometers: USB2+H05261
Integration Time (usec): 100000 (USB2+H05261)
Spectra Averaged: 1 (USB2+H05261)
Boxcar Smoothing: 0 (USB2+H05261)
Correct for Electrical Dark: No (USB2+H05261)
Strobe/Lamp Enabled: No (USB2+H05261)
Correct for Detector Non-linearity: No (USB2+H05261)
Correct for Stray Light: No (USB2+H05261)
Number of Pixels in Processed Spectrum: 2048
>>>>>Begin Processed Spectral Data<<<<<
365.73	81.92
365.92	81.92
366.12	81.92
366.32	0.00
366.52	0.00
366.72	0.00
366.91	0.00
367.11	7.02
367.31	0.00
367.51	0.00
367.70	0.00
367.90	0.00
368.10	0.00
368.30	0.00
368.49	0.00
368.69	9.36
368.89	0.00
369.09	0.00
369.28	0.00
369.48	0.00
369.68	25.75
369.87	44.47
370.07	9.36
370.27	86.60
370.47	100.64
370.66	238.73
370.86	320.65
371.06	365.12
371.25	397.89
371.45	250.44
371.65	362.78
371.84	325.33
372.04	313.63
372.24	402.57
372.44	421.30
372.63	400.23
372.83	421.30
373.03	409.59
373.22	447.04
373.42	475.13
373.62	416.62
373.81	421.30
374.01	521.94
374.21	451.72
374.40	456.40
374.60	428.32
374.79	458.74
374.99	524.28
375.19	428.32
375.38	547.69
375.58	524.28
375.78	477.47
375.97	463.43
376.17	589.82
376.37	524.28
376.56	507.90
376.76	538.32
376.95	514.92
377.15	470.45
377.35	512.58
377.54	552.37
377.74	503.22
377.93	535.98
378.13	503.22
378.33	573.43
378.52	535.98
378.72	631.94
378.91	521.94
379.11	564.07
379.31	524.28
379.50	540.66
379.70	587.47
379.89	510.24
380.09	519.60
380.28	528.96
380.48	571.09
380.68	550.03
380.87	552.37
381.07	535.98
381.26	716.20
381.46	688.12
381.65	603.86
381.85	669.39
382.04	526.62
382.24	610.88
382.43	655.35
382.63	493.85
382.83	648.33
383.02	629.60
383.22	631.94
383.41	629.60
383.61	620.24
383.80	540.66
384.00	678.76
384.19	662.37
384.39	566.41
384.58	807.48
384.78	755.99
384.97	716.20
385.17	674.07
385.36	636.63
385.56	697.48
385.75	683.44
385.95	704.50
386.14	685.78
386.34	727.91
386.53	653.01
386.72	779.40
386.92	765.36
387.11	760.67
387.31	800.46
387.50	774.72
387.70	767.70
387.89	772.38
388.09	786.42
388.28	800.46
388.48	727.91
388.67	812.17
388.86	805.14
389.06	784.08
389.25	795.78
389.45	760.67
389.64	842.59
389.84	844.93
390.03	894.08
390.22	842.59
390.42	770.04
390.61	791.10
390.81	851.96
391.00	912.81
391.19	924.51
391.39	915.15
391.58	924.51
391.78	952.60
391.97	837.91
392.16	924.51
392.36	823.87
392.55	786.42
392.75	830.89
392.94	929.19
393.13	908.13
393.33	896.43
393.52	926.85
393.71	1034.52
393.91	954.94
394.10	882.38
394.29	947.92
394.49	842.59
394.68	1048.56
394.88	901.11
395.07	1029.84
395.26	1053.24
395.46	1032.18
395.65	1088.35
395.84	964.30
396.04	1132.82
396.23	1170.27
396.42	1137.50
396.62	1064.94
396.81	1109.41
397.00	1196.01
397.19	1149.20
397.39	1118.78
397.58	1203.04
397.77	1027.50
397.97	1210.06
398.16	1132.82
398.35	1167.93
398.55	1116.44
398.74	1210.06
398.93	1177.29
399.12	1207.72
399.32	1174.95
399.51	1121.12
399.70	1327.08
399.90	1313.04
400.09	1327.08
400.28	1228.78
400.47	1289.64
400.67	1399.64
400.86	1338.79
401.05	1378.58
401.24	1315.38
401.44	1345.81
401.63	1399.64
401.82	1434.75
402.01	1432.41
402.21	1425.39
402.40	1437.09
402.59	1465.18
402.78	1451.13
402.97	1380.92
403.17	1369.21
403.36	1476.88
403.55	1497.94
403.74	1607.95
403.93	1521.35
404.13	1561.14
404.32	1640.72
404.51	1607.95
404.70	1568.16
404.89	1516.67
405.09	1607.95
405.28	1631.35
405.47	1739.02
405.66	1661.78
405.85	1640.72
406.05	1661.78
406.24	1666.46
406.43	1816.26
406.62	1813.92
406.81	1856.04
407.00	1764.76
407.20	1713.27
407.39	1797.53
407.58	1870.09
407.77	1757.74
407.96	1820.94
408.15	1921.58
408.34	1902.86
408.54	1860.73
408.73	2008.18
408.92	2015.20
409.11	2008.18
409.30	2122.87
409.49	1975.41
409.68	2043.29
409.87	2106.48
410.07	2111.16
410.26	2071.37
410.45	2099.46
410.64	2111.16
410.83	2174.36
411.02	2202.44
411.21	2218.83
411.40	2265.64
411.59	2328.83
411.78	2181.38
411.98	2319.47
412.17	2258.62
412.36	2317.13
412.55	2413.09
412.74	2410.75
412.93	2459.90
413.12	2363.94
413.31	2516.08
413.50	2502.03
413.69	2363.94
413.88	2530.12
414.07	2499.69
414.26	2562.89
414.45	2647.15
414.64	2654.17
414.83	2775.88
415.02	2686.94
415.22	2801.62
415.41	2745.45
415.60	2712.68
415.79	2853.11
415.98	2960.78
416.17	2984.18
416.36	2930.35
416.55	2949.08
416.74	2967.80
416.93	2946.73
417.12	3133.98
417.31	3122.27
417.50	2979.50
417.69	3232.28
417.88	3131.64
418.07	3208.87
418.26	3304.84
418.45	3269.73
418.64	3342.28
418.83	3236.96
419.02	3410.16
419.21	3405.48
419.39	3300.16
419.58	3248.66
419.77	3400.80
419.96	3342.28
420.15	3513.14
420.34	3379.73
420.53	3377.39
420.72	3562.30
420.91	3569.32
421.10	3625.49
421.29	3712.09
421.48	3524.85
421.67	3653.58
421.86	3564.64
422.05	3681.66
422.24	3674.64
422.43	3548.25
422.61	3712.09
422.80	3808.05
422.99	3749.54
423.18	3777.62
423.37	3810.39
423.56	3632.51
423.75	3824.44
423.94	3644.21
424.13	3473.36
424.32	3508.46
424.50	3812.73
424.69	3887.63
424.88	3758.90
425.07	3709.75
425.26	3709.75
425.45	3803.37
425.64	3646.55
425.83	3824.44
426.01	3808.05
426.20	3716.77
426.39	3840.82
426.58	3838.48
426.77	3925.08
426.96	3985.93
427.15	3803.37
427.33	3899.33
427.52	3857.20
427.71	3765.92
427.90	4007.00
428.09	4100.62
428.28	4042.11
428.46	4098.28
428.65	4028.06
428.84	4212.96
429.03	4102.96
429.22	3920.40
429.40	4173.18
429.59	4152.11
429.78	3960.19
429.97	3992.95
430.16	4044.45
430.34	4222.33
430.53	4297.22
430.72	4177.86
430.91	4238.71
431.10	4184.88
431.28	4404.89
431.47	4423.61
431.66	4374.46
431.85	4407.23
432.03	4620.22
432.22	4564.04
432.41	4489.15
432.60	4580.43
432.79	4540.64
432.97	4692.77
433.16	4503.19
433.35	4615.54
433.54	4608.51
433.72	4826.18
433.91	4746.61
434.10	4699.80
434.28	4631.92
434.47	4791.08
434.66	4702.14
434.85	4748.95
435.03	4973.64
435.22	4971.30
435.41	5287.27
435.59	5165.56
435.78	5167.90
435.97	5085.98
436.16	5020.45
436.34	4999.38
436.53	5078.96
436.72	5008.75
436.90	4961.94
437.09	5083.64
437.28	4823.84
437.46	5036.83
437.65	5067.26
437.84	5095.35
438.02	5132.79
438.21	5118.75
438.40	5123.43
438.58	5284.93
438.77	5310.68
438.96	5301.31
439.14	5509.62
439.33	5526.00
439.52	5584.52
439.70	5413.66
439.89	5579.84
440.08	5575.16
440.26	5605.58
440.45	5523.66
440.63	5750.70
440.82	5783.46
441.01	5865.38
441.19	5619.63
441.38	5830.27
441.57	5774.10
441.75	5923.90
441.94	6106.46
442.12	5954.32
442.31	6083.05
442.50	6104.12
442.68	5884.11
442.87	5989.43
443.05	6270.30
443.24	6164.97
443.43	6139.23
443.61	6249.23
443.80	6459.88
443.98	6207.10
444.17	6232.85
444.35	6267.95
444.54	6363.92
444.73	6066.67
444.91	6434.13
445.10	6340.51
445.28	6209.44
445.47	6258.59
445.65	6345.19
445.84	6567.54
446.02	6520.73
446.21	6392.00
446.39	6478.60
446.58	6333.49
446.77	6380.30
446.95	6338.17
447.14	6511.37
447.32	6551.16
447.51	6392.00
447.69	6317.11
447.88	6523.07
448.06	6258.59
448.25	6422.43
448.43	6504.35
448.62	6434.13
448.80	6392.00
448.99	6527.75
449.17	6553.50
449.36	6525.41
449.54	6693.93
449.73	6890.54
449.91	6794.58
450.10	6832.02
450.28	6822.66
450.46	6665.85
450.65	6703.29
450.83	6773.51
451.02	6778.19
451.20	6991.18
451.39	6829.68
451.57	6911.60
451.76	6935.01
451.94	6979.48
452.13	7108.21
452.31	7236.94
452.49	6867.13
452.68	7082.46
452.86	7218.21
453.05	7190.13
453.23	7140.97
453.42	7185.44
453.60	7021.61
453.78	7304.81
453.97	7176.08
454.15	7169.06
454.34	7178.42
454.52	7309.49
454.70	7318.86
454.89	7321.20
455.07	7337.58
455.26	7199.49
455.44	7531.84
455.62	7576.31
455.81	7419.50
455.99	7485.03
456.17	7606.74
456.36	7644.19
456.54	7857.18
456.73	7691.00
456.91	7878.24
457.09	7791.64
457.28	7967.18
457.46	7655.89
457.64	7686.32
457.83	7967.18
458.01	7581.00
458.19	7936.76
458.38	7812.71
458.56	8056.12
458.74	8091.23
458.93	7894.63
459.11	8131.02
459.29	7995.27
459.48	8154.43
459.66	8138.04
459.84	8105.28
460.03	8409.54
460.21	8283.16
460.39	8273.79
460.57	8248.05
460.76	8360.39
460.94	8585.08
461.12	8327.63
461.31	8402.52
461.49	8365.07
461.67	8393.16
461.85	8582.74
462.04	8482.10
462.22	8704.45
462.40	8652.96
462.59	8837.86
462.77	8716.16
462.95	8617.85
463.13	8435.29
463.32	8645.94
463.50	8798.07
463.68	8645.94
463.86	8777.01
464.05	8802.75
464.23	8741.90
464.41	8840.20
464.59	8814.46
464.78	8936.17
464.96	8837.86
465.14	8875.31
465.32	9008.72
465.50	8924.46
465.69	9081.28
465.87	8882.33
466.05	8919.78
466.23	9116.39
466.41	8922.12
466.60	9158.52
466.78	8952.55
466.96	9034.47
467.14	9167.88
467.32	9184.26
467.51	9334.06
467.69	9160.86
467.87	9362.14
468.05	9240.44
468.23	9160.86
468.41	9179.58
468.60	9327.03
468.78	9535.34
468.96	9331.72
469.14	9544.70
469.32	9745.99
469.50	9652.37
469.69	9778.76
469.87	9703.86
470.05	9921.53
470.23	9734.29
470.41	9696.84
470.59	9891.10
470.77	9678.12
470.95	9928.55
471.14	9998.77
471.32	9762.37
471.50	10193.03
471.68	9863.02
471.86	9998.77
472.04	10080.69
472.22	10401.34
472.40	10094.73
472.58	10253.89
472.77	10186.01
472.95	10565.18
473.13	10686.89
473.31	10380.28
473.49	10359.21
473.67	10497.30
473.85	10640.08
474.03	10881.15
474.21	10656.46
474.39	10810.93
474.57	10890.51
474.75	10991.16
474.93	11054.35
475.12	10778.17
475.30	11108.18
475.48	11080.10
475.66	11222.87
475.84	11307.13
476.02	11417.13
476.20	11606.72
476.38	11442.88
476.56	11751.83
476.74	11761.19
476.92	11625.44
477.10	11695.66
477.28	11836.09
477.46	11915.67
477.64	11910.99
477.82	12390.80
478.00	12341.64
478.18	12540.59
478.36	12610.81
478.54	12695.07
478.72	12613.15
478.90	12587.40
479.08	12971.25
479.26	12987.63
479.44	13118.70
479.62	12945.50
479.80	13174.88
479.98	13266.16
480.16	13451.06
480.34	13521.27
480.52	13724.90
480.70	13631.28
480.88	13502.55
481.06	13767.03
481.24	13872.36
481.41	13909.80
481.59	14246.84
481.77	14349.82
481.95	14235.14
482.13	14235.14
482.31	14314.72
482.49	14759.42
482.67	14728.99
482.85	14916.23
483.03	15318.81
483.21	15234.55
483.39	15594.99
483.57	15386.68
483.74	15503.71
483.92	15585.63
484.10	15541.16
484.28	15852.45
484.46	16294.81
484.64	16210.55
484.82	16079.48
485.00	16297.15
485.18	16423.54
485.35	16779.30
485.53	16849.52
485.71	17121.02
485.89	17458.06
486.07	16994.63
486.25	17055.48
486.43	17247.41
486.61	17474.44
486.78	17654.66
486.96	17731.90
487.14	17996.38
487.32	17916.80
487.50	18033.83
487.68	18141.49
487.85	18263.20
488.03	18654.07
488.21	18602.58
488.39	18934.93
488.57	18831.95
488.75	19213.46
488.92	19344.53
489.10	19360.91
489.28	19513.05
489.46	19791.57
489.64	19786.89
489.81	20318.19
489.99	20065.41
490.17	20128.61
490.35	20390.75
490.53	20622.46
490.70	20273.72
490.88	20697.36
491.06	20919.71
491.24	20849.49
491.41	20940.77
491.59	21460.37
491.77	21376.11
491.95	21624.21
492.13	21511.86
492.30	21816.13
492.48	21776.34
492.66	22153.17
492.84	22181.26
493.01	22307.65
493.19	22368.50
493.37	22473.82
493.54	22796.82
493.72	22876.40
493.90	22932.57
494.08	23016.83
494.25	22803.84
494.43	23386.63
494.61	23606.64
494.79	23641.75
494.96	23583.24
495.14	23990.49
495.32	23962.40
495.49	24236.25
495.67	23791.55
495.85	24589.67
496.02	24861.17
496.20	24278.38
496.38	24500.73
496.55	24411.79
496.73	25282.47
496.91	24905.64
497.09	25076.50
497.26	25579.71
497.44	25659.29
497.62	25174.80
497.79	25874.62
497.97	25827.81
498.14	26218.68
498.32	26384.86
498.50	26398.90
498.67	26366.13
498.85	26342.73
499.03	26483.16
499.20	26735.94
499.38	26717.22
499.56	26663.38
499.73	27044.89
499.91	27283.62
500.08	27178.30
500.26	27154.90
500.44	27257.88
500.61	27709.60
500.79	27033.19
500.97	27447.46
501.14	27758.75
501.32	27875.78
501.49	28121.54
501.67	27615.98
501.84	27903.87
502.02	28245.58
502.20	28428.15
502.37	28254.95
502.55	28439.85
502.72	28374.31
502.90	28409.42
503.07	28444.53
503.25	28844.76
503.43	28767.52
503.60	29116.26
503.78	29202.86
503.95	29184.14
504.13	29256.70
504.30	29453.30
504.48	28931.36
504.65	29474.37
504.83	29518.84
505.01	30082.91
505.18	29591.39
505.36	29940.13
505.53	29792.68
505.71	29883.96
505.88	30267.81
506.06	30087.59
506.23	30611.87
506.41	30326.32
506.58	30464.41
506.76	30934.86
506.93	30511.22
507.11	30771.02
507.28	30906.77
507.46	30768.68
507.63	30403.56
507.81	31358.50
507.98	30656.34
508.16	31051.89
508.33	31316.37
508.50	31461.48
508.68	31323.39
508.85	31913.20
509.03	31866.39
509.20	32109.81
509.38	32100.45
509.55	32149.60
509.73	32287.69
509.90	32229.18
510.08	32315.78
510.25	32582.60
510.42	32446.85
510.60	32821.33
510.77	32807.29
510.95	32973.47
511.12	32751.12
511.30	32992.19
511.47	32818.99
511.64	33113.90
511.82	33762.23
511.99	33055.39
512.17	33420.51
512.34	33544.56
512.51	33507.11
512.69	33450.94
512.86	33696.69
513.04	34141.39
513.21	33897.98
513.38	33933.09
513.56	34211.61
513.73	33832.44
513.90	33979.90
514.08	33736.48
514.25	34286.51
514.43	34525.24
514.60	34625.89
514.77	34639.93
514.95	34881.00
515.12	34361.40
515.29	34263.10
515.47	34838.87
515.64	35318.68
515.81	35093.99
515.99	34953.56
516.16	35356.13
516.33	35398.26
516.51	35424.01
516.68	35426.35
516.85	35276.55
517.03	35634.66
517.20	35353.79
517.37	35730.62
517.54	35889.77
517.72	35999.78
517.89	35536.35
518.06	35711.89
518.24	35800.83
518.41	35999.78
518.58	35920.20
518.75	36156.60
518.93	36570.87
519.10	36189.36
519.27	36376.61
519.45	36439.80
519.62	36746.41
519.79	36271.28
519.96	36423.42
520.14	37137.28
520.31	36811.95
520.48	37165.37
520.65	37235.58
520.83	37202.82
521.00	37404.10
521.17	36992.17
521.34	37043.66
521.52	37703.69
521.69	37694.33
521.86	37893.27
522.03	37839.44
522.20	37652.20
522.38	37612.41
522.55	37886.25
522.72	38094.56
522.89	38286.48
523.07	37731.78
523.24	38192.86
523.41	38368.40
523.58	38267.76
523.75	38120.31
523.92	38653.95
524.10	38583.73
524.27	38597.77
524.44	38382.45
524.61	39145.46
524.78	38632.88
524.96	38576.71
525.13	38934.81
525.30	38789.70
525.47	39100.99
525.64	38932.47
525.81	39220.36
525.98	39297.59
526.16	39477.82
526.33	39435.69
526.50	39672.08
526.67	39564.42
526.84	39227.38
527.01	39613.57
527.18	39545.69
527.36	39981.03
527.53	39842.94
527.70	40011.46
527.87	40236.15
528.04	39878.05
528.21	40385.94
528.38	39997.41
528.55	40135.51
528.72	40179.98
528.89	39959.97
529.07	40107.42
529.24	40561.48
529.41	40524.04
529.58	40505.31
529.75	40210.40
529.92	40900.86
530.09	40507.65
530.26	40446.80
530.43	40825.96
530.60	40563.82
530.77	40982.78
530.94	41034.27
531.11	40924.27
531.28	41022.57
531.46	40893.84
531.63	41638.13
531.80	41287.05
531.97	41453.23
532.14	41663.88
532.31	41263.64
532.48	41607.70
532.65	41570.25
532.82	41273.01
532.99	41600.68
533.16	41588.98
533.33	41806.65
533.50	42572.00
533.67	42036.02
533.84	41551.53
534.01	41652.17
534.18	41762.18
534.35	41886.23
534.52	42047.72
534.69	42384.76
534.86	42417.53
535.03	41895.59
535.20	42216.24
535.37	42469.02
535.54	42160.07
535.71	42567.32
535.88	42340.29
536.05	42370.72
536.22	42684.35
536.38	42712.44
536.55	42820.10
536.72	42770.95
536.89	42784.99
537.06	42831.80
537.23	42773.29
537.40	42515.83
537.57	42227.95
537.74	42682.01
537.91	42892.66
538.08	43227.35
538.25	42707.76
538.42	43503.54
538.59	43393.53
538.75	43047.13
538.92	42904.36
539.09	43360.76
539.26	43749.29
539.43	43391.19
539.60	43627.59
539.77	43585.46
539.94	43908.45
540.11	43365.45
540.28	43718.87
540.44	43800.79
540.61	43524.60
540.78	43498.86
540.95	43847.60
541.12	43882.70
541.29	44046.54
541.46	44247.83
541.62	44587.21
541.79	44135.48
541.96	44559.12
542.13	44083.99
542.30	44257.19
542.47	44978.07
542.63	44493.58
542.80	44893.82
542.97	44760.40
543.14	44818.92
543.31	44608.27
543.48	44772.11
543.64	45214.47
543.81	45272.98
543.98	44818.92
544.15	45198.09
544.32	45244.90
544.48	45258.94
544.65	45139.57
544.82	45078.72
544.99	44954.67
545.16	45310.43
545.32	45116.17
545.49	45694.28
545.66	46258.35
545.83	46171.75
546.00	46419.84
546.16	45790.24
546.33	45787.90
546.50	45205.11
546.67	45287.03
546.83	44568.48
547.00	45382.99
547.17	45523.42
547.34	45556.19
547.50	45914.29
547.67	46038.34
547.84	45865.14
548.00	46010.25
548.17	45872.16
548.34	45408.73
548.51	46167.07
548.67	45904.93
548.84	46019.61
549.01	46078.13
549.18	45607.68
549.34	45801.94
549.51	45722.37
549.68	46153.02
549.84	46106.21
550.01	46330.90
550.18	46181.11
550.34	46082.81
550.51	46316.86
550.68	46487.72
550.84	45663.85
551.01	46340.27
551.18	46141.32
551.34	45745.77
551.51	45862.80
551.68	46380.06
551.84	46417.50
552.01	46550.91
552.18	46555.60
552.34	46138.98
552.51	46689.01
552.68	46181.11
552.84	46632.83
553.01	46504.10
553.18	46822.42
553.34	46752.20
553.51	46586.02
553.67	46728.80
553.84	46733.48
554.01	47068.17
554.17	46466.66
554.34	46876.25
554.51	46763.90
554.67	46593.04
554.84	47201.58
555.00	46656.24
555.17	46775.61
555.33	46983.91
555.50	47068.17
555.67	46885.61
555.83	46747.52
556.00	46925.40
556.16	47075.19
556.33	46864.55
556.50	46656.24
556.66	47257.76
556.83	47143.07
556.99	47356.06
557.16	47473.09
557.32	47327.97
557.49	47299.89
557.65	46735.82
557.82	47030.72
557.98	46852.84
558.15	47456.70
558.32	47241.37
558.48	46834.12
558.65	47707.14
558.81	47281.16
558.98	47583.09
559.14	47526.92
559.31	47334.99
559.47	47325.63
559.64	47416.91
559.80	47304.57
559.97	47767.99
560.13	46960.51
560.30	47547.98
560.46	47316.27
560.63	47695.44
560.79	47817.14
560.96	48149.50
561.12	47540.96
561.29	47063.49
561.45	47201.58
561.61	47847.57
561.78	48025.45
561.94	47784.38
562.11	47863.96
562.27	47665.01
562.44	47660.33
562.60	47969.28
562.77	47510.53
562.93	47782.04
563.10	48072.26
563.26	47611.18
563.42	48336.74
563.59	47892.04
563.75	48027.79
563.92	48048.86
564.08	47798.42
564.24	47714.16
564.41	47688.42
564.57	47798.42
564.74	47929.49
564.90	47948.21
565.07	48027.79
565.23	48203.33
565.39	47814.80
565.56	48147.16
565.72	47606.50
565.88	47903.74
566.05	47824.17
566.21	47969.28
566.38	47892.04
566.54	47903.74
566.70	48566.12
566.87	48144.82
567.03	47910.77
567.19	48720.59
567.36	48137.80
567.52	48058.22
567.68	48467.81
567.85	47646.29
568.01	48198.65
568.17	47672.03
568.34	48367.17
568.50	48362.49
568.66	48273.55
568.83	48109.71
568.99	48119.07
569.15	48236.10
569.32	47793.74
569.48	48016.09
569.64	47870.98
569.81	48004.39
569.97	48191.63
570.13	48519.31
570.30	48296.95
570.46	48336.74
570.62	47814.80
570.78	48240.78
570.95	48060.56
571.11	48163.54
571.27	47964.60
571.43	48123.75
571.60	48264.19
571.76	48311.00
571.92	48098.01
572.09	48285.25
572.25	48285.25
572.41	48233.76
572.57	47906.08
572.74	48383.55
572.90	47632.24
573.06	48308.66
573.22	47899.06
573.38	48268.87
573.55	48055.88
573.71	48449.09
573.87	48563.78
574.03	48016.09
574.20	48243.12
574.36	48208.01
574.52	48254.82
574.68	48168.22
574.84	48311.00
575.01	48275.89
575.17	48523.99
575.33	48250.14
575.49	48102.69
575.65	48879.75
575.82	48460.79
575.98	48165.88
576.14	48280.57
576.30	48383.55
576.46	48416.32
576.62	48020.77
576.79	48193.97
576.95	48203.33
577.11	48685.48
577.27	48069.92
577.43	48289.93
577.59	48416.32
577.75	48296.95
577.92	47924.81
578.08	48289.93
578.24	47915.45
578.40	48456.11
578.56	48327.38
578.72	48680.80
578.88	48535.69
579.04	48465.47
579.21	47873.32
579.37	48533.35
579.53	48673.78
579.69	48023.11
579.85	48048.86
580.01	48383.55
580.17	48074.60
580.33	48074.60
580.49	48641.01
580.65	48051.20
580.82	48238.44
580.98	48133.12
581.14	48161.20
581.30	48619.95
581.46	48299.30
581.62	48065.24
581.78	48170.57
581.94	48093.33
582.10	48318.02
582.26	48624.63
582.42	48191.63
582.58	48519.31
582.74	48734.63
582.90	48715.91
583.06	48561.44
583.22	48161.20
583.38	48320.36
583.54	48374.19
583.70	48142.48
583.86	48531.01
584.02	48411.64
584.18	48657.40
584.34	48753.36
584.50	48502.92
584.66	48748.68
584.82	48327.38
584.98	48399.94
585.14	48596.54
585.30	47976.30
585.46	48376.53
585.62	48238.44
585.78	48413.98
585.94	47901.40
586.10	48385.89
586.26	48364.83
586.42	48692.50
586.58	48746.34
586.74	48318.02
586.90	48069.92
587.06	48032.47
587.22	48500.58
587.38	47896.72
587.54	48629.31
587.70	48956.99
587.86	48580.16
588.02	48472.49
588.18	48378.87
588.34	48617.61
588.49	48477.18
588.65	48236.10
588.81	48512.28
588.97	48830.60
589.13	48177.59
589.29	48273.55
589.45	48626.97
589.61	48570.80
589.77	48701.87
589.93	48781.45
590.08	48947.62
590.24	48442.07
590.40	48432.71
