SpectraSuite Data File
++++++++++++++++++++++++++++++++++++
Date: Fri Oct 04 11:39:31 GMT-05:00 2013
User: price-jones
Dark Spectrum Present: No
Reference Spectrum Present: No
Number of Sampled Component Spectra: 1
Spectrometers: USB2+H05261
Integration Time (usec): 100000 (USB2+H05261)
Spectra Averaged: 1 (USB2+H05261)
Boxcar Smoothing: 0 (USB2+H05261)
Correct for Electrical Dark: No (USB2+H05261)
Strobe/Lamp Enabled: No (USB2+H05261)
Correct for Detector Non-linearity: No (USB2+H05261)
Correct for Stray Light: No (USB2+H05261)
Number of Pixels in Processed Spectrum: 2048
>>>>>Begin Processed Spectral Data<<<<<
365.73	72.56
365.92	72.56
366.12	72.56
366.32	0.00
366.52	0.00
366.72	0.00
366.91	9.36
367.11	0.00
367.31	0.00
367.51	0.00
367.70	0.00
367.90	0.00
368.10	7.02
368.30	0.00
368.49	0.00
368.69	0.00
368.89	0.00
369.09	0.00
369.28	0.00
369.48	0.00
369.68	39.79
369.87	0.00
370.07	2.34
370.27	21.06
370.47	117.03
370.66	259.80
370.86	308.95
371.06	222.35
371.25	362.78
371.45	315.97
371.65	318.31
371.84	285.55
372.04	400.23
372.24	381.51
372.44	318.31
372.63	374.49
372.83	409.59
373.03	292.57
373.22	379.17
373.42	407.25
373.62	355.76
373.81	425.98
374.01	449.38
374.21	454.06
374.40	365.12
374.60	505.56
374.79	461.09
374.99	456.40
375.19	486.83
375.38	461.09
375.58	461.09
375.78	454.06
375.97	437.68
376.17	573.43
376.37	524.28
376.56	440.02
376.76	498.53
376.95	458.74
377.15	393.21
377.35	355.76
377.54	486.83
377.74	479.81
377.93	437.68
378.13	514.92
378.33	545.34
378.52	528.96
378.72	552.37
378.91	540.66
379.11	531.30
379.31	512.58
379.50	486.83
379.70	514.92
379.89	521.94
380.09	528.96
380.28	519.60
380.48	533.64
380.68	564.07
380.87	496.19
381.07	601.52
381.26	514.92
381.46	575.77
381.65	622.58
381.85	629.60
382.04	543.00
382.24	624.92
382.43	608.54
382.63	519.60
382.83	524.28
383.02	566.41
383.22	650.67
383.41	496.19
383.61	662.37
383.80	641.31
384.00	585.13
384.19	596.84
384.39	615.56
384.58	678.76
384.78	678.76
384.97	622.58
385.17	566.41
385.36	603.86
385.56	629.60
385.75	575.77
385.95	599.18
386.14	697.48
386.34	641.31
386.53	674.07
386.72	688.12
386.92	727.91
387.11	650.67
387.31	678.76
387.50	653.01
387.70	685.78
387.89	730.25
388.09	725.57
388.28	650.67
388.48	650.67
388.67	727.91
388.86	681.10
389.06	823.87
389.25	720.88
389.45	685.78
389.64	676.41
389.84	807.48
390.03	732.59
390.22	734.93
390.42	699.82
390.61	643.65
390.81	795.78
391.00	751.31
391.19	870.68
391.39	798.12
391.58	770.04
391.78	802.80
391.97	849.61
392.16	807.48
392.36	882.38
392.55	894.08
392.75	889.40
392.94	791.10
393.13	917.49
393.33	917.49
393.52	814.51
393.71	964.30
393.91	952.60
394.10	849.61
394.29	800.46
394.49	882.38
394.68	891.74
394.88	882.38
395.07	917.49
395.26	957.28
395.46	1053.24
395.65	1004.09
395.84	1064.94
396.04	1022.81
396.23	1064.94
396.42	1043.88
396.62	1048.56
396.81	1071.97
397.00	1029.84
397.19	1034.52
397.39	1025.15
397.58	1104.73
397.77	1090.69
397.97	1055.58
398.16	1121.12
398.35	1200.69
398.55	1022.81
398.74	1114.10
398.93	1132.82
399.12	1111.75
399.32	1029.84
399.51	1149.20
399.70	1277.93
399.90	1228.78
400.09	1210.06
400.28	1275.59
400.47	1256.87
400.67	1291.98
400.86	1331.76
401.05	1310.70
401.24	1334.11
401.44	1291.98
401.63	1359.85
401.82	1359.85
402.01	1327.08
402.21	1369.21
402.40	1261.55
402.59	1409.00
402.78	1301.34
402.97	1348.15
403.17	1390.28
403.36	1399.64
403.55	1423.05
403.74	1444.11
403.93	1467.52
404.13	1509.65
404.32	1589.22
404.51	1446.45
404.70	1593.90
404.89	1497.94
405.09	1509.65
405.28	1542.41
405.47	1589.22
405.66	1612.63
405.85	1551.78
406.05	1540.07
406.24	1619.65
406.43	1675.82
406.62	1753.06
406.81	1629.01
407.00	1720.29
407.20	1685.19
407.39	1703.91
407.58	1769.44
407.77	1764.76
407.96	1792.85
408.15	1802.21
408.34	1872.43
408.54	1790.51
408.73	1858.39
408.92	1900.52
409.11	1940.30
409.30	1947.33
409.49	1921.58
409.68	1933.28
409.87	1914.56
410.07	2040.95
410.26	2092.44
410.45	2062.01
410.64	1956.69
410.83	2104.14
411.02	2092.44
411.21	2076.06
411.40	2160.31
411.59	2211.81
411.78	2221.17
411.98	2174.36
412.17	2275.00
412.36	2232.87
412.55	2239.89
412.74	2326.49
412.93	2385.01
413.12	2197.76
413.31	2462.24
413.50	2422.45
413.69	2431.82
413.88	2532.46
414.07	2471.61
414.26	2576.93
414.45	2649.49
414.64	2616.72
414.83	2644.81
415.02	2633.10
415.22	2736.09
415.41	2619.06
415.60	2675.23
415.79	2750.13
415.98	2846.09
416.17	2946.73
416.36	2794.60
416.55	2965.46
416.74	2920.99
416.93	2986.52
417.12	3030.99
417.31	2937.37
417.50	3033.33
417.69	3218.24
417.88	3180.79
418.07	2876.52
418.26	3084.83
418.45	3248.66
418.64	3126.96
418.83	3194.83
419.02	3241.64
419.21	3220.58
419.39	3302.50
419.58	3187.81
419.77	3089.51
419.96	3407.82
420.15	3346.97
420.34	3386.76
420.53	3335.26
420.72	3468.67
420.91	3384.41
421.10	3468.67
421.29	3576.34
421.48	3524.85
421.67	3485.06
421.86	3421.86
422.05	3431.23
422.24	3555.27
422.43	3485.06
422.61	3569.32
422.80	3585.70
422.99	3632.51
423.18	3726.13
423.37	3583.36
423.56	3686.34
423.75	3719.11
423.94	3653.58
424.13	3480.38
424.32	3447.61
424.50	3779.97
424.69	3763.58
424.88	3681.66
425.07	3618.47
425.26	3679.32
425.45	3641.87
425.64	3772.94
425.83	3824.44
426.01	3726.13
426.20	3716.77
426.39	3789.33
426.58	3723.79
426.77	3733.15
426.96	3803.37
427.15	3744.86
427.33	3756.56
427.52	3847.84
427.71	3880.61
427.90	3908.69
428.09	3803.37
428.28	3861.88
428.46	4051.47
428.65	3901.67
428.84	4025.72
429.03	4025.72
429.22	3843.16
429.40	3981.25
429.59	3967.21
429.78	3894.65
429.97	3988.27
430.16	3964.87
430.34	4081.89
430.53	4224.67
430.72	4294.88
430.91	4147.43
431.10	4177.86
431.28	4152.11
431.47	4341.69
431.66	4322.97
431.85	4243.39
432.03	4367.44
432.22	4510.21
432.41	4390.84
432.60	4451.70
432.79	4334.67
432.97	4372.12
433.16	4346.37
433.35	4411.91
433.54	4489.15
433.72	4320.63
433.91	4622.56
434.10	4533.62
434.28	4475.10
434.47	4711.50
434.66	4758.31
434.85	4521.92
435.03	4681.07
435.22	4798.10
435.41	5036.83
435.59	5130.45
435.78	5015.77
435.97	4875.34
436.16	4856.61
436.34	4835.55
436.53	4645.96
436.72	5123.43
436.90	4828.53
437.09	4751.29
437.28	4788.74
437.46	4814.48
437.65	4830.87
437.84	5022.79
438.02	5025.13
438.21	5132.79
438.40	4978.32
438.58	5214.71
438.77	5100.03
438.96	5212.37
439.14	5289.61
439.33	5334.08
439.52	5303.65
439.70	5334.08
439.89	5373.87
440.08	5483.88
440.26	5540.05
440.45	5481.53
440.63	5404.30
440.82	5657.07
441.01	5643.03
441.19	5621.97
441.38	5694.52
441.57	5764.74
441.75	5736.65
441.94	5806.87
442.12	5783.46
442.31	5858.36
442.50	5881.77
442.68	6008.16
442.87	6094.76
443.05	5954.32
443.24	6038.58
443.43	6022.20
443.61	6066.67
443.80	6307.74
443.98	5968.37
444.17	5884.11
444.35	6061.99
444.54	6232.85
444.73	6106.46
444.91	6024.54
445.10	6043.26
445.28	6071.35
445.47	6073.69
445.65	6176.67
445.84	6115.82
446.02	6171.99
446.21	6291.36
446.39	6054.97
446.58	6242.21
446.77	6169.65
446.95	6230.51
447.14	6176.67
447.32	6434.13
447.51	6366.26
447.69	6167.31
447.88	6291.36
448.06	6305.40
448.25	6403.71
448.43	6399.02
448.62	6342.85
448.80	6300.72
448.99	6333.49
449.17	6340.51
449.36	6349.87
449.54	6452.86
449.73	6593.29
449.91	6438.81
450.10	6719.68
450.28	6717.34
450.46	6640.10
450.65	6670.53
450.83	6640.10
451.02	6588.61
451.20	6668.19
451.39	6897.56
451.57	6665.85
451.76	6881.18
451.94	6820.32
452.13	6754.79
452.31	6731.38
452.49	6820.32
452.68	6918.62
452.86	6846.07
453.05	6920.96
453.23	6958.41
453.42	7007.56
453.60	6913.94
453.78	6979.48
453.97	6867.13
454.15	6981.82
454.34	7000.54
454.52	7286.09
454.70	7098.84
454.89	7192.47
455.07	7255.66
455.26	7129.27
455.44	7332.90
455.62	7286.09
455.81	7328.22
455.99	7442.90
456.17	7288.43
456.36	7360.98
456.54	7485.03
456.73	7695.68
456.91	7698.02
457.09	7747.17
457.28	7658.23
457.46	7510.78
457.64	7595.04
457.83	7646.53
458.01	7578.65
458.19	7976.55
458.38	7751.85
458.56	7744.83
458.74	7566.95
458.93	7709.72
459.11	7878.24
459.29	7847.82
459.48	7981.23
459.66	7978.89
459.84	7906.33
460.03	8166.13
460.21	8145.06
460.39	8093.57
460.57	7964.84
460.76	8168.47
460.94	8241.03
461.12	8379.12
461.31	8271.45
461.49	8156.77
461.67	8032.72
461.85	8241.03
462.04	8280.82
462.22	8458.70
462.40	8439.97
462.59	8402.52
462.77	8344.01
462.95	8458.70
463.13	8360.39
463.32	8393.16
463.50	8528.91
463.68	8390.82
463.86	8645.94
464.05	8468.06
464.23	8498.49
464.41	8636.58
464.59	8528.91
464.78	8634.24
464.96	8449.33
465.14	8580.40
465.32	8910.42
465.50	8898.72
465.69	8844.88
465.87	8793.39
466.05	8793.39
466.23	8856.59
466.41	8929.14
466.60	9064.89
466.78	8908.08
466.96	8903.40
467.14	8975.95
467.32	9149.15
467.51	9188.94
467.69	8821.48
467.87	8968.93
468.05	9146.81
468.23	9039.15
468.41	9069.58
468.60	9043.83
468.78	9210.01
468.96	9158.52
469.14	9261.50
469.32	9518.96
469.50	9100.00
469.69	9399.59
469.87	9446.40
470.05	9621.94
470.23	9507.26
470.41	9589.17
470.59	9757.69
470.77	9359.80
470.95	9668.75
471.14	9591.52
471.32	9537.68
471.50	9928.55
471.68	10036.22
471.86	9935.57
472.04	9877.06
472.22	10132.18
472.40	9968.34
472.58	10031.54
472.77	10239.84
472.95	10284.31
473.13	10471.56
473.31	10207.08
473.49	10298.36
473.67	10270.27
473.85	10127.50
474.03	10527.73
474.21	10651.78
474.39	10551.14
474.57	10583.90
474.75	10630.71
474.93	10832.00
475.12	10560.50
475.30	10768.80
475.48	10930.30
475.66	10944.34
475.84	11091.80
476.02	10991.16
476.20	11023.92
476.38	11419.47
476.56	11534.16
476.74	11489.69
476.92	11454.58
477.10	11531.82
477.28	11770.55
477.46	11693.32
477.64	11831.41
477.82	11796.30
478.00	12191.85
478.18	12329.94
478.36	12049.08
478.54	12367.39
478.72	12479.74
478.90	12360.37
479.08	12458.67
479.26	12922.10
479.44	12498.46
479.62	12788.69
479.80	13109.34
479.98	13078.91
480.16	13107.00
480.34	12898.69
480.52	13401.91
480.70	13294.24
480.88	13245.09
481.06	13455.74
481.24	13418.29
481.41	13640.64
481.59	13619.58
481.77	14054.92
481.95	13987.04
482.13	14310.04
482.31	14073.64
482.49	14415.36
482.67	14473.87
482.85	14794.53
483.03	14916.23
483.21	14960.70
483.39	15297.74
483.57	15147.95
483.74	15056.67
483.92	15314.13
484.10	15468.60
484.28	15585.63
484.46	15936.71
484.64	16016.29
484.82	15735.42
485.00	16343.96
485.18	16273.74
485.35	16493.76
485.53	16608.44
485.71	16657.59
485.89	16978.25
486.07	16610.78
486.25	17006.33
486.43	16842.50
486.61	16945.48
486.78	17158.47
486.96	17518.91
487.14	17781.05
487.32	17525.93
487.50	17965.95
487.68	17879.35
487.85	17933.18
488.03	18546.40
488.21	18663.43
488.39	18260.86
488.57	18642.37
488.75	18871.74
488.92	18771.10
489.10	19323.46
489.28	19262.61
489.46	19693.27
489.64	19417.08
489.81	20027.96
489.99	19744.76
490.17	19917.96
490.35	20004.56
490.53	20304.15
490.70	20348.62
490.88	20278.40
491.06	20521.82
491.24	20837.79
491.41	20786.30
491.59	20615.44
491.77	21069.50
491.95	21069.50
492.13	21216.96
492.30	21291.85
492.48	21425.26
492.66	21493.14
492.84	21727.19
493.01	21841.88
493.19	21989.33
493.37	22043.17
493.54	22604.89
493.72	22279.56
493.90	22398.93
494.08	22764.05
494.25	22675.11
494.43	22822.56
494.61	23175.98
494.79	23498.98
494.96	23456.85
495.14	23449.83
495.32	23651.11
495.49	23442.81
495.67	23569.19
495.85	23957.72
496.02	24369.66
496.20	24285.40
496.38	23917.93
496.55	24364.98
496.73	25020.33
496.91	24652.86
497.09	24781.59
497.26	24893.94
497.44	25025.01
497.62	25163.10
497.79	25750.57
497.97	25399.49
498.14	26001.01
498.32	25837.17
498.50	25565.67
498.67	26050.16
498.85	26108.68
499.03	26286.56
499.20	26375.50
499.38	26321.66
499.56	26312.30
499.73	26569.76
499.91	27030.85
500.08	26803.82
500.26	26794.45
500.44	26831.90
500.61	26885.73
500.79	26927.86
500.97	27087.02
501.14	27735.35
501.32	27538.74
501.49	27374.91
501.67	27538.74
501.84	27707.26
502.02	27119.79
502.20	27885.14
502.37	28357.93
502.55	28011.53
502.72	28046.64
502.90	28446.87
503.07	28400.06
503.25	28278.35
503.43	28425.81
503.60	28416.44
503.78	29090.52
503.95	28624.75
504.13	28978.17
504.30	29027.32
504.48	28762.84
504.65	29085.84
504.83	29221.59
505.01	29563.31
505.18	29685.01
505.36	29851.19
505.53	29144.35
505.71	29497.77
505.88	29504.79
506.06	29446.28
506.23	29893.32
506.41	29888.64
506.58	30188.23
506.76	29635.86
506.93	30487.82
507.11	30213.98
507.28	30422.28
507.46	30410.58
507.63	30656.34
507.81	30953.58
507.98	30665.70
508.16	30874.01
508.33	30866.98
508.50	31035.50
508.68	31009.76
508.85	31395.95
509.03	31431.05
509.20	31461.48
509.38	31431.05
509.55	31793.84
509.73	31747.03
509.90	31814.90
510.08	31555.10
510.25	31936.61
510.42	32400.04
510.60	32547.49
510.77	32231.52
510.95	32591.96
511.12	31915.54
511.30	32119.17
511.47	32346.20
511.64	32781.54
511.82	33013.26
511.99	32613.02
512.17	33163.05
512.34	33006.23
512.51	33132.62
512.69	33570.30
512.86	33511.79
513.04	33628.82
513.21	33982.24
513.38	33617.11
513.56	33926.07
513.73	33701.37
513.90	33736.48
514.08	33495.41
514.25	33893.30
514.43	34024.37
514.60	33989.26
514.77	34295.87
514.95	34572.05
515.12	33958.83
515.29	33963.51
515.47	34558.01
515.64	34763.98
515.81	34574.39
515.99	34827.17
516.16	35117.40
516.33	35009.73
516.51	35449.75
516.68	34869.30
516.85	34740.57
517.03	35480.18
517.20	35384.22
517.37	35211.02
517.54	35452.09
517.72	35468.48
517.89	35632.32
518.06	35487.20
518.24	35374.86
518.41	35468.48
518.58	35992.76
518.75	35791.47
518.93	36070.00
519.10	35859.35
519.27	36175.32
519.45	36180.00
519.62	36180.00
519.79	36119.15
519.96	36203.41
520.14	36561.51
520.31	36512.36
520.48	36940.68
520.65	37095.15
520.83	37158.34
521.00	36931.31
521.17	36561.51
521.34	36893.86
521.52	37181.75
521.69	36989.83
521.86	37453.25
522.03	37429.85
522.20	37509.43
522.38	37528.15
522.55	37963.49
522.72	37511.77
522.89	37675.60
523.07	38263.08
523.24	37989.24
523.41	38040.73
523.58	38234.99
523.75	38234.99
523.92	37993.92
524.10	38047.75
524.27	38335.63
524.44	38490.11
524.61	38387.13
524.78	38869.28
524.96	38721.82
525.13	38728.84
525.30	38845.87
525.47	38389.47
525.64	38923.11
525.81	39063.54
525.98	39222.70
526.16	39225.04
526.33	38792.04
526.50	39253.12
526.67	39140.78
526.84	39445.05
527.01	39065.88
527.18	39433.35
527.36	39505.90
527.53	39541.01
527.70	39737.62
527.87	39573.78
528.04	40053.59
528.21	39871.03
528.38	39342.06
528.55	39690.80
528.72	40182.32
528.89	40142.53
529.07	40093.38
529.24	40006.78
529.41	40098.06
529.58	40240.83
529.75	40194.02
529.92	40224.45
530.09	40528.72
530.26	40407.01
530.43	40612.98
530.60	40135.51
530.77	40353.18
530.94	40407.01
531.11	40669.15
531.28	40538.08
531.46	40552.12
531.63	40713.62
531.80	40884.48
531.97	41184.07
532.14	41205.13
532.31	41170.02
532.48	40795.54
532.65	41212.15
532.82	40594.25
532.99	41240.24
533.16	41008.53
533.33	41476.63
533.50	41710.69
533.67	41691.96
533.84	41549.19
534.01	41298.75
534.18	41244.92
534.35	41895.59
534.52	41659.20
534.69	42110.92
534.86	42209.22
535.03	42029.00
535.20	42071.13
535.37	41963.46
535.54	41766.86
535.71	42089.85
535.88	42106.24
536.05	42089.85
536.22	42300.50
536.38	42808.40
536.55	42703.07
536.72	42815.42
536.89	42195.18
537.06	42260.71
537.23	42740.52
537.40	42515.83
537.57	42471.36
537.74	42609.45
537.91	43103.31
538.08	42967.55
538.25	42546.26
538.42	42934.79
538.59	43086.92
538.75	42384.76
538.92	43147.78
539.09	43035.43
539.26	43482.47
539.43	43344.38
539.60	43707.16
539.77	43473.11
539.94	43445.02
540.11	43859.30
540.28	43243.74
540.44	43653.33
540.61	43576.09
540.78	43672.06
540.95	44175.27
541.12	43800.79
541.29	44186.97
541.46	43931.86
541.62	44098.03
541.79	43828.87
541.96	44002.07
542.13	44041.86
542.30	44030.16
542.47	44287.62
542.63	44376.56
542.80	44083.99
542.97	44683.17
543.14	44669.12
543.31	44542.74
543.48	44746.36
543.64	44760.40
543.81	45338.52
543.98	45034.25
544.15	45024.89
544.32	44772.11
544.48	45095.10
544.65	45202.77
544.82	44884.45
544.99	44343.79
545.16	44975.73
545.32	45116.17
545.49	45504.70
545.66	46319.20
545.83	46284.09
546.00	46476.02
546.16	45579.59
546.33	45521.08
546.50	44760.40
546.67	44992.12
546.83	44849.35
547.00	45471.93
547.17	45497.67
547.34	45544.48
547.50	45443.84
547.67	45862.80
547.84	45698.96
548.00	46012.59
548.17	45839.39
548.34	45542.14
548.51	45687.26
548.67	45778.54
548.84	45797.26
549.01	45928.33
549.18	45610.02
549.34	45797.26
549.51	46122.60
549.68	45708.32
549.84	45834.71
550.01	45844.07
550.18	46078.13
550.34	46005.57
550.51	46349.63
550.68	45860.46
550.84	46178.77
551.01	46071.10
551.18	46260.69
551.34	46043.02
551.51	46263.03
551.68	45933.01
551.84	46529.85
552.01	46146.00
552.18	46593.04
552.34	46501.76
552.51	46513.47
552.68	46059.40
552.84	46096.85
553.01	46653.90
553.18	46616.45
553.34	46766.24
553.51	46363.67
553.67	46632.83
553.84	47201.58
554.01	46902.00
554.17	46911.36
554.34	46829.44
554.51	46796.67
554.67	46904.34
554.84	46777.95
555.00	46815.40
555.17	46932.42
555.33	47124.35
555.50	46515.81
555.67	46466.66
555.83	46555.60
556.00	46602.41
556.16	47540.96
556.33	46817.74
556.50	47423.93
556.66	47365.42
556.83	47192.22
556.99	47131.37
557.16	47175.84
557.32	47047.11
557.49	47243.71
557.65	47007.32
557.82	46997.96
557.98	47168.82
558.15	47571.39
558.32	47129.03
558.48	47524.58
558.65	47384.15
558.81	47416.91
558.98	47407.55
559.14	47234.35
559.31	47049.45
559.47	47206.26
559.64	47327.97
559.80	47196.90
559.97	47576.07
560.13	47555.00
560.30	47786.72
560.46	47700.12
560.63	47803.10
560.79	47587.77
560.96	47772.67
561.12	47552.66
561.29	47466.06
561.45	47737.57
561.61	47330.31
561.78	47852.25
561.94	47997.37
562.11	47608.84
562.27	47931.83
562.44	47496.49
562.60	47751.61
562.77	47538.62
562.93	47636.92
563.10	47863.96
563.26	47746.93
563.42	48023.11
563.59	47849.91
563.75	48186.95
563.92	47941.19
564.08	47901.40
564.24	47920.13
564.41	47943.53
564.57	47686.07
564.74	47861.61
564.90	48004.39
565.07	47812.46
565.23	47955.24
565.39	48002.05
565.56	48112.05
565.72	47936.51
565.88	47655.65
566.05	47863.96
566.21	47487.13
566.38	47810.12
566.54	47892.04
566.70	48313.34
566.87	48217.38
567.03	47959.92
567.19	48191.63
567.36	48259.51
567.52	47887.36
567.68	48177.59
567.85	47845.23
568.01	48247.80
568.17	47721.18
568.34	48250.14
568.50	47938.85
568.66	48072.26
568.83	48495.90
568.99	48191.63
569.15	47948.21
569.32	48095.67
569.48	47899.06
569.64	48158.86
569.81	48383.55
569.97	48456.11
570.13	48018.43
570.30	48250.14
570.46	48311.00
570.62	48039.50
570.78	48186.95
570.95	47838.21
571.11	48037.16
571.27	48353.13
571.43	47978.64
571.60	48390.58
571.76	47938.85
571.92	48266.53
572.09	48392.92
572.25	48144.82
572.41	48088.65
572.57	48233.76
572.74	48112.05
572.90	47707.14
573.06	48327.38
573.22	47831.19
573.38	48226.74
573.55	48083.97
573.71	48542.71
573.87	48636.33
574.03	48144.82
574.20	47983.32
574.36	47777.36
574.52	48039.50
574.68	48301.64
574.84	48350.79
575.01	48311.00
575.17	48212.70
575.33	47973.96
575.49	48282.91
575.65	48357.81
575.82	48362.49
575.98	48383.55
576.14	48395.26
576.30	48154.18
576.46	48114.39
576.62	48259.51
576.79	48182.27
576.95	48428.02
577.11	48355.47
577.27	48587.18
577.43	48322.70
577.59	48388.24
577.75	48626.97
577.92	47964.60
578.08	47833.53
578.24	48332.06
578.40	48170.57
578.56	48460.79
578.72	48399.94
578.88	48587.18
579.04	48952.30
579.21	48479.52
579.37	48479.52
579.53	48875.07
579.69	48105.03
579.85	48458.45
580.01	48306.32
580.17	48112.05
580.33	48086.31
580.49	48399.94
580.65	48486.54
580.82	48839.96
580.98	48479.52
581.14	48392.92
581.30	48706.55
581.46	48685.48
581.62	48580.16
581.78	48381.21
581.94	48280.57
582.10	48460.79
582.26	48421.00
582.42	48584.84
582.58	48428.02
582.74	48083.97
582.90	48519.31
583.06	48350.79
583.22	48299.30
583.38	48460.79
583.54	48561.44
583.70	48311.00
583.86	48769.74
584.02	48402.28
584.18	48849.32
584.34	48453.77
584.50	48566.12
584.66	48502.92
584.82	48116.73
584.98	48360.15
585.14	48612.93
585.30	48114.39
585.46	48109.71
585.62	48186.95
585.78	48509.94
585.94	48179.93
586.10	48629.31
586.26	48215.04
586.42	48523.99
586.58	48367.17
586.74	48212.70
586.90	48030.13
587.06	48308.66
587.22	48531.01
587.38	48329.72
587.54	48687.82
587.70	48755.70
587.86	48608.25
588.02	48940.60
588.18	48910.17
588.34	48418.66
588.49	48332.06
588.65	48135.46
588.81	48399.94
588.97	48648.03
589.13	48273.55
589.29	48514.62
589.45	48919.54
589.61	48580.16
589.77	49050.61
589.93	49024.86
590.08	48821.23
590.24	48896.13
590.40	49148.91
