SpectraSuite Data File
++++++++++++++++++++++++++++++++++++
Date: Fri Oct 04 11:39:49 GMT-05:00 2013
User: price-jones
Dark Spectrum Present: No
Reference Spectrum Present: No
Number of Sampled Component Spectra: 1
Spectrometers: USB2+H05261
Integration Time (usec): 100000 (USB2+H05261)
Spectra Averaged: 1 (USB2+H05261)
Boxcar Smoothing: 0 (USB2+H05261)
Correct for Electrical Dark: No (USB2+H05261)
Strobe/Lamp Enabled: No (USB2+H05261)
Correct for Detector Non-linearity: No (USB2+H05261)
Correct for Stray Light: No (USB2+H05261)
Number of Pixels in Processed Spectrum: 2048
>>>>>Begin Processed Spectral Data<<<<<
365.73	0.00
365.92	0.00
366.12	0.00
366.32	58.51
366.52	0.00
366.72	0.00
366.91	0.00
367.11	0.00
367.31	0.00
367.51	0.00
367.70	0.00
367.90	0.00
368.10	0.00
368.30	0.00
368.49	0.00
368.69	0.00
368.89	0.00
369.09	0.00
369.28	0.00
369.48	0.00
369.68	0.00
369.87	18.72
370.07	0.00
370.27	0.00
370.47	42.13
370.66	86.60
370.86	65.54
371.06	126.39
371.25	184.90
371.45	88.94
371.65	102.98
371.84	60.85
372.04	79.58
372.24	133.41
372.44	184.90
372.63	154.48
372.83	220.01
373.03	152.13
373.22	180.22
373.42	182.56
373.62	177.88
373.81	187.24
374.01	217.67
374.21	294.91
374.40	187.24
374.60	231.71
374.79	182.56
374.99	229.37
375.19	159.16
375.38	208.31
375.58	194.26
375.78	243.42
375.97	243.42
376.17	290.23
376.37	227.03
376.56	182.56
376.76	210.65
376.95	182.56
377.15	175.54
377.35	227.03
377.54	245.76
377.74	140.43
377.93	212.99
378.13	203.63
378.33	124.05
378.52	187.24
378.72	163.84
378.91	175.54
379.11	198.95
379.31	189.58
379.50	93.62
379.70	208.31
379.89	163.84
380.09	112.35
380.28	163.84
380.48	184.90
380.68	135.75
380.87	74.90
381.07	292.57
381.26	217.67
381.46	238.73
381.65	229.37
381.85	252.78
382.04	147.45
382.24	196.60
382.43	170.86
382.63	191.92
382.83	222.35
383.02	114.69
383.22	243.42
383.41	208.31
383.61	147.45
383.80	189.58
384.00	189.58
384.19	227.03
384.39	259.80
384.58	159.16
384.78	124.05
384.97	201.29
385.17	196.60
385.36	198.95
385.56	224.69
385.75	166.18
385.95	252.78
386.14	245.76
386.34	238.73
386.53	248.10
386.72	220.01
386.92	257.46
387.11	297.25
387.31	243.42
387.50	154.48
387.70	156.82
387.89	222.35
388.09	212.99
388.28	208.31
388.48	191.92
388.67	248.10
388.86	322.99
389.06	238.73
389.25	229.37
389.45	252.78
389.64	245.76
389.84	255.12
390.03	255.12
390.22	276.18
390.42	210.65
390.61	276.18
390.81	241.08
391.00	278.52
391.19	301.93
391.39	262.14
391.58	259.80
391.78	205.97
391.97	257.46
392.16	227.03
392.36	315.97
392.55	287.89
392.75	208.31
392.94	297.25
393.13	250.44
393.33	348.74
393.52	322.99
393.71	257.46
393.91	217.67
394.10	252.78
394.29	266.82
394.49	245.76
394.68	283.20
394.88	276.18
395.07	231.71
395.26	222.35
395.46	201.29
395.65	337.04
395.84	346.40
396.04	390.87
396.23	196.60
396.42	269.16
396.62	334.70
396.81	402.57
397.00	217.67
397.19	308.95
397.39	376.83
397.58	386.19
397.77	322.99
397.97	220.01
398.16	334.70
398.35	322.99
398.55	245.76
398.74	337.04
398.93	416.62
399.12	360.44
399.32	360.44
399.51	304.27
399.70	365.12
399.90	353.42
400.09	341.72
400.28	358.10
400.47	372.15
400.67	334.70
400.86	325.33
401.05	397.89
401.24	348.74
401.44	348.74
401.63	454.06
401.82	330.02
402.01	440.02
402.21	393.21
402.40	397.89
402.59	353.42
402.78	297.25
402.97	379.17
403.17	386.19
403.36	404.91
403.55	376.83
403.74	430.66
403.93	337.04
404.13	355.76
404.32	517.26
404.51	465.77
404.70	458.74
404.89	423.64
405.09	440.02
405.28	402.57
405.47	414.27
405.66	414.27
405.85	400.23
406.05	428.32
406.24	428.32
406.43	360.44
406.62	468.11
406.81	437.68
407.00	461.09
407.20	526.62
407.39	425.98
407.58	468.11
407.77	498.53
407.96	470.45
408.15	407.25
408.34	566.41
408.54	477.47
408.73	505.56
408.92	463.43
409.11	463.43
409.30	514.92
409.49	472.79
409.68	507.90
409.87	521.94
410.07	575.77
410.26	519.60
410.45	571.09
410.64	498.53
410.83	552.37
411.02	500.87
411.21	575.77
411.40	573.43
411.59	587.47
411.78	568.75
411.98	599.18
412.17	561.73
412.36	606.20
412.55	631.94
412.74	624.92
412.93	634.29
413.12	610.88
413.31	667.05
413.50	667.05
413.69	676.41
413.88	667.05
414.07	587.47
414.26	664.71
414.45	606.20
414.64	653.01
414.83	631.94
415.02	779.40
415.22	676.41
415.41	737.27
415.60	725.57
415.79	641.31
415.98	772.38
416.17	671.73
416.36	704.50
416.55	690.46
416.74	718.54
416.93	748.97
417.12	793.44
417.31	671.73
417.50	753.65
417.69	791.10
417.88	779.40
418.07	741.95
418.26	774.72
418.45	781.74
418.64	772.38
418.83	842.59
419.02	819.19
419.21	795.78
419.39	819.19
419.58	830.89
419.77	868.34
419.96	830.89
420.15	866.00
420.34	830.89
420.53	805.14
420.72	779.40
420.91	842.59
421.10	917.49
421.29	884.72
421.48	821.53
421.67	795.78
421.86	849.61
422.05	933.87
422.24	957.28
422.43	791.10
422.61	856.64
422.80	833.23
422.99	868.34
423.18	908.13
423.37	833.23
423.56	926.85
423.75	929.19
423.94	891.74
424.13	894.08
424.32	828.55
424.50	987.71
424.69	959.62
424.88	880.04
425.07	873.02
425.26	858.98
425.45	887.06
425.64	917.49
425.83	947.92
426.01	968.98
426.20	1004.09
426.39	919.83
426.58	887.06
426.77	938.55
426.96	954.94
427.15	1004.09
427.33	985.37
427.52	985.37
427.71	961.96
427.90	957.28
428.09	910.47
428.28	987.71
428.46	1008.77
428.65	1032.18
428.84	1057.92
429.03	992.39
429.22	973.66
429.40	1001.75
429.59	1018.13
429.78	954.94
429.97	922.17
430.16	980.68
430.34	997.07
430.53	1032.18
430.72	1041.54
430.91	1022.81
431.10	997.07
431.28	1020.47
431.47	1137.50
431.66	1034.52
431.85	1067.28
432.03	1107.07
432.22	1245.16
432.41	1163.25
432.60	1116.44
432.79	1081.33
432.97	1167.93
433.16	1083.67
433.35	1086.01
433.54	1107.07
433.72	1074.31
433.91	1172.61
434.10	1064.94
434.28	1100.05
434.47	1188.99
434.66	1139.84
434.85	1291.98
435.03	1205.38
435.22	1310.70
435.41	1462.83
435.59	1476.88
435.78	1334.11
435.97	1291.98
436.16	1224.10
436.34	987.71
436.53	1144.52
436.72	1184.31
436.90	1142.18
437.09	1212.40
437.28	1210.06
437.46	1177.29
437.65	1198.35
437.84	1228.78
438.02	1130.48
438.21	1210.06
438.40	1151.54
438.58	1277.93
438.77	1221.76
438.96	1240.48
439.14	1320.06
439.33	1217.08
439.52	1317.72
439.70	1303.68
439.89	1320.06
440.08	1303.68
440.26	1348.15
440.45	1268.57
440.63	1348.15
440.82	1359.85
441.01	1359.85
441.19	1427.73
441.38	1329.42
441.57	1362.19
441.75	1392.62
441.94	1413.68
442.12	1383.26
442.31	1371.55
442.50	1380.92
442.68	1490.92
442.87	1376.24
443.05	1394.96
443.24	1479.22
443.43	1439.43
443.61	1439.43
443.80	1409.00
443.98	1329.42
444.17	1341.13
444.35	1474.54
444.54	1444.11
444.73	1446.45
444.91	1481.56
445.10	1427.73
445.28	1502.62
445.47	1392.62
445.65	1413.68
445.84	1409.00
446.02	1444.11
446.21	1390.28
446.39	1476.88
446.58	1488.58
446.77	1526.03
446.95	1418.36
447.14	1432.41
447.32	1650.08
447.51	1507.30
447.69	1486.24
447.88	1441.77
448.06	1476.88
448.25	1572.84
448.43	1462.83
448.62	1439.43
448.80	1535.39
448.99	1455.81
449.17	1521.35
449.36	1423.05
449.54	1528.37
449.73	1495.60
449.91	1472.20
450.10	1523.69
450.28	1586.88
450.46	1629.01
450.65	1593.90
450.83	1509.65
451.02	1537.73
451.20	1614.97
451.39	1551.78
451.57	1579.86
451.76	1596.25
451.94	1528.37
452.13	1624.33
452.31	1621.99
452.49	1467.52
452.68	1584.54
452.86	1617.31
453.05	1715.61
453.23	1650.08
453.42	1593.90
453.60	1448.79
453.78	1575.18
453.97	1582.20
454.15	1614.97
454.34	1451.13
454.52	1647.74
454.70	1696.89
454.89	1666.46
455.07	1589.22
455.26	1668.80
455.44	1802.21
455.62	1689.87
455.81	1685.19
455.99	1884.13
456.17	1788.17
456.36	1717.95
456.54	1692.21
456.73	1753.06
456.91	1771.79
457.09	1797.53
457.28	1853.70
457.46	1839.66
457.64	1863.07
457.83	1739.02
458.01	1722.63
458.19	1809.23
458.38	1717.95
458.56	1984.77
458.74	1790.51
458.93	1804.55
459.11	1968.39
459.29	1830.30
459.48	1893.49
459.66	1895.83
459.84	1783.49
460.03	1898.17
460.21	1884.13
460.39	1867.75
460.57	1839.66
460.76	1937.96
460.94	1874.77
461.12	1879.45
461.31	1984.77
461.49	1935.62
461.67	1802.21
461.85	1973.07
462.04	1942.64
462.22	2483.31
462.40	1952.01
462.59	1916.90
462.77	1905.20
462.95	2005.84
463.13	1994.14
463.32	1912.22
463.50	1891.15
463.68	1994.14
463.86	1944.99
464.05	2019.88
464.23	1902.86
464.41	2054.99
464.59	1952.01
464.78	2087.76
464.96	2015.20
465.14	1973.07
465.32	2015.20
465.50	1998.82
465.69	2097.12
465.87	1966.05
466.05	2054.99
466.23	1942.64
466.41	1937.96
466.60	2141.59
466.78	1928.60
466.96	2064.35
467.14	2040.95
467.32	2106.48
467.51	2064.35
467.69	2146.27
467.87	1977.75
468.05	2031.58
468.23	2162.66
468.41	2106.48
468.60	2038.61
468.78	2120.53
468.96	2094.78
469.14	2134.57
469.32	2043.29
469.50	2129.89
469.69	2165.00
469.87	2143.93
470.05	2214.15
470.23	2218.83
470.41	2223.51
470.59	2181.38
470.77	2223.51
470.95	2279.68
471.14	2246.91
471.32	2167.34
471.50	2335.85
471.68	2186.06
471.86	2143.93
472.04	2172.02
472.22	2282.02
472.40	2340.54
472.58	2275.00
472.77	2361.60
472.95	2223.51
473.13	2415.43
473.31	2333.51
473.49	2286.70
473.67	2380.32
473.85	2347.56
474.03	2408.41
474.21	2410.75
474.39	2401.39
474.57	2462.24
474.75	2455.22
474.93	2345.22
475.12	2476.29
475.30	2361.60
475.48	2394.37
475.66	2478.63
475.84	2471.61
476.02	2567.57
476.20	2581.61
476.38	2572.25
476.56	2619.06
476.74	2562.89
476.92	2574.59
477.10	2668.21
477.28	2558.21
477.46	2555.86
477.64	2719.70
477.82	2691.62
478.00	2665.87
478.18	2651.83
478.36	2644.81
478.54	2665.87
478.72	2764.17
478.90	2796.94
479.08	2778.22
479.26	2775.88
479.44	2815.66
479.62	2768.85
479.80	2890.56
479.98	2911.63
480.16	2729.06
480.34	3005.25
480.52	2972.48
480.70	2874.18
480.88	2953.76
481.06	2944.39
481.24	2986.52
481.41	3082.49
481.59	2995.89
481.77	3101.21
481.95	3169.09
482.13	3117.59
482.31	3038.02
482.49	3155.04
482.67	3260.37
482.85	3126.96
483.03	3227.60
483.21	3239.30
483.39	3288.45
483.57	3393.78
483.74	3438.25
483.92	3485.06
484.10	3318.88
484.28	3351.65
484.46	3599.74
484.64	3534.21
484.82	3454.63
485.00	3571.66
485.18	3574.00
485.35	3637.19
485.53	3597.40
485.71	3676.98
485.89	3618.47
486.07	3826.78
486.25	3609.11
486.43	3660.60
486.61	3819.75
486.78	3889.97
486.96	3719.11
487.14	3794.01
487.32	4011.68
487.50	3854.86
487.68	3995.29
487.85	4009.34
488.03	4046.79
488.21	3845.50
488.39	3939.12
488.57	4039.76
488.75	4063.17
488.92	4337.01
489.10	4161.47
489.28	4072.53
489.46	4332.33
489.64	4191.90
489.81	4168.49
489.99	4269.14
490.17	4388.50
490.35	4414.25
490.53	4161.47
490.70	4428.29
490.88	4425.95
491.06	4496.17
491.24	4503.19
491.41	4475.10
491.59	4540.64
491.77	4447.02
491.95	4381.48
492.13	4472.76
492.30	4620.22
492.48	4592.13
492.66	4706.82
492.84	4603.83
493.01	4617.88
493.19	4629.58
493.37	4706.82
493.54	4856.61
493.72	4770.01
493.90	4800.44
494.08	4695.11
494.25	4858.95
494.43	4975.98
494.61	4952.57
494.79	4898.74
494.96	4896.40
495.14	4997.04
495.32	5039.17
495.49	5144.50
495.67	5095.35
495.85	5165.56
496.02	5053.22
496.20	5263.86
496.38	5163.22
496.55	5048.54
496.73	5303.65
496.91	5298.97
497.09	5357.49
497.26	5341.10
497.44	5378.55
497.62	5305.99
497.79	5352.81
497.97	5177.26
498.14	5174.92
498.32	5249.82
498.50	5387.91
498.67	5444.09
498.85	5479.19
499.03	5610.26
499.20	5614.95
499.38	5596.22
499.56	5542.39
499.73	5579.84
499.91	5596.22
500.08	5430.04
500.26	5682.82
500.44	5603.24
500.61	5799.85
500.79	5549.41
500.97	5767.08
501.14	5870.06
501.32	5802.19
501.49	5858.36
501.67	5898.15
501.84	5879.43
502.02	5760.06
502.20	5881.77
502.37	5942.62
502.55	5902.83
502.72	5834.96
502.90	5951.98
503.07	5923.90
503.25	5804.53
503.43	5928.58
503.60	5963.68
503.78	6115.82
503.95	6022.20
504.13	5987.09
504.30	5975.39
504.48	5944.96
504.65	6167.31
504.83	6253.91
505.01	6202.42
505.18	6141.57
505.36	6134.54
505.53	6274.98
505.71	6092.41
505.88	6174.33
506.06	6167.31
506.23	6286.68
506.41	6195.40
506.58	6139.23
506.76	6291.36
506.93	6436.47
507.11	6352.21
507.28	6363.92
507.46	6406.05
507.63	6471.58
507.81	6457.54
507.98	6438.81
508.16	6422.43
508.33	6361.58
508.50	6562.86
508.68	6473.92
508.85	6401.37
509.03	6583.93
509.20	6604.99
509.38	6656.48
509.55	6574.56
509.73	6558.18
509.90	6658.82
510.08	6537.12
510.25	6750.10
510.42	6766.49
510.60	6729.04
510.77	6726.70
510.95	6733.72
511.12	6782.87
511.30	6780.53
511.47	6883.52
511.64	6930.33
511.82	6977.14
511.99	7023.95
512.17	6782.87
512.34	6808.62
512.51	6754.79
512.69	6815.64
512.86	6988.84
513.04	7040.33
513.21	7002.88
513.38	6918.62
513.56	6874.15
513.73	7150.34
513.90	7124.59
514.08	7056.72
514.25	7026.29
514.43	7040.33
514.60	7002.88
514.77	7157.36
514.95	7248.64
515.12	7023.95
515.29	7091.82
515.47	7239.28
515.64	7445.24
515.81	7194.81
515.99	7276.73
516.16	7293.11
516.33	7358.64
516.51	7218.21
516.68	7442.90
516.85	7400.77
517.03	7297.79
517.20	7335.24
517.37	7463.97
517.54	7489.71
517.72	7428.86
517.89	7162.04
518.06	7260.34
518.24	7492.05
518.41	7513.12
518.58	7475.67
518.75	7494.40
518.93	7478.01
519.10	7360.98
519.27	7403.11
519.45	7473.33
519.62	7646.53
519.79	7503.76
519.96	7557.59
520.14	7747.17
520.31	7492.05
520.48	7552.91
520.65	7625.47
520.83	7871.22
521.00	7648.87
521.17	7606.74
521.34	7683.98
521.52	7679.30
521.69	7819.73
521.86	7829.09
522.03	7831.43
522.20	7981.23
522.38	7985.91
522.55	7992.93
522.72	7756.54
522.89	7810.37
523.07	7971.86
523.24	7808.03
523.41	7796.32
523.58	7786.96
523.75	7882.92
523.92	7873.56
524.10	7854.84
524.27	7932.08
524.44	8016.33
524.61	8156.77
524.78	8159.11
524.96	8011.65
525.13	8081.87
525.30	7974.21
525.47	7932.08
525.64	8112.30
525.81	8145.06
525.98	8149.75
526.16	7918.03
526.33	8166.13
526.50	8107.62
526.67	8046.76
526.84	7976.55
527.01	8217.62
527.18	8163.79
527.36	8095.91
527.53	8107.62
527.70	8243.37
527.87	8016.33
528.04	8229.32
528.21	8084.21
528.38	8056.12
528.55	8320.60
528.72	8411.89
528.89	8299.54
529.07	8393.16
529.24	8327.63
529.41	8222.30
529.58	8189.53
529.75	8273.79
529.92	8264.43
530.09	8168.47
530.26	8320.60
530.43	8418.91
530.60	8514.87
530.77	8315.92
530.94	8493.80
531.11	8491.46
531.28	8376.78
531.46	8386.14
531.63	8418.91
531.80	8681.05
531.97	8545.30
532.14	8535.93
532.31	8461.04
532.48	8367.42
532.65	8325.29
532.82	8505.51
532.99	8549.98
533.16	8629.56
533.33	8601.47
533.50	8535.93
533.67	8643.60
533.84	8648.28
534.01	8631.90
534.18	8688.07
534.35	8690.41
534.52	8709.13
534.69	8596.79
534.86	8657.64
535.03	8681.05
535.20	8805.10
535.37	8844.88
535.54	8669.34
535.71	8821.48
535.88	8521.89
536.05	8800.41
536.22	8751.26
536.38	8753.60
536.55	8903.40
536.72	8863.61
536.89	8739.56
537.06	8734.88
537.23	8868.29
537.40	8741.90
537.57	8727.86
537.74	8718.50
537.91	8931.48
538.08	8912.76
538.25	9018.08
538.42	8933.82
538.59	9085.96
538.75	8791.05
538.92	8961.91
539.09	8938.51
539.26	8978.30
539.43	9123.41
539.60	8994.68
539.77	8940.85
539.94	9011.06
540.11	9156.18
540.28	9212.35
540.44	9130.43
540.61	9078.94
540.78	9266.18
540.95	9282.56
541.12	9427.68
541.29	9385.55
541.46	9404.27
541.62	9170.22
541.79	9310.65
541.96	9156.18
542.13	9378.53
542.30	9392.57
542.47	9322.35
542.63	9603.22
542.80	9502.58
542.97	9589.17
543.14	9523.64
543.31	9640.67
543.48	9474.49
543.64	9565.77
543.81	9579.81
543.98	9584.49
544.15	9514.28
544.32	9685.14
544.48	9589.17
544.65	9631.30
544.82	9408.95
544.99	9380.87
545.16	9673.43
545.32	9514.28
545.49	9912.17
545.66	10134.52
545.83	10328.78
546.00	10092.39
546.16	9970.68
546.33	9769.40
546.50	9680.46
546.67	9493.21
546.83	9338.74
547.00	9486.19
547.17	9563.43
547.34	9415.98
547.50	9516.62
547.67	9535.34
547.84	9486.19
548.00	9453.42
548.17	9645.35
548.34	9671.09
548.51	9579.81
548.67	9820.89
548.84	9710.88
549.01	9621.94
549.18	9839.61
549.34	9565.77
549.51	9511.94
549.68	9607.90
549.84	9509.60
550.01	9696.84
550.18	9661.73
550.34	9673.43
550.51	9668.75
550.68	9820.89
550.84	9385.55
551.01	9568.11
551.18	9678.12
551.34	9596.20
551.51	9341.08
551.68	9603.22
551.84	9874.72
552.01	9589.17
552.18	9640.67
552.34	9472.15
552.51	9558.75
552.68	9486.19
552.84	9547.05
553.01	9500.23
553.18	9785.78
553.34	9638.33
553.51	9575.13
553.67	9717.90
553.84	9708.54
554.01	9633.64
554.17	9635.99
554.34	9544.70
554.51	9493.21
554.67	9558.75
554.84	9745.99
555.00	9783.44
555.17	9614.92
555.33	9696.84
555.50	9591.52
555.67	9570.45
555.83	9633.64
556.00	9509.60
556.16	9778.76
556.33	9659.39
556.50	9586.83
556.66	9762.37
556.83	9547.05
556.99	9778.76
557.16	9685.14
557.32	9804.50
557.49	9722.59
557.65	9596.20
557.82	9472.15
557.98	9760.03
558.15	9837.27
558.32	9811.53
558.48	9439.38
558.65	9572.79
558.81	9750.67
558.98	9582.15
559.14	9816.21
559.31	9451.08
559.47	9778.76
559.64	9643.01
559.80	9947.28
559.97	9745.99
560.13	9727.27
560.30	9813.87
560.46	9741.31
560.63	9720.24
560.79	9675.77
560.96	9799.82
561.12	9778.76
561.29	9825.57
561.45	9661.73
561.61	9827.91
561.78	9813.87
561.94	9839.61
562.11	9827.91
562.27	9949.62
562.44	9776.42
562.60	9790.46
562.77	9991.75
562.93	9678.12
563.10	9678.12
563.26	9816.21
563.42	10003.45
563.59	9966.00
563.75	9624.28
563.92	9935.57
564.08	9678.12
564.24	9799.82
564.41	9825.57
564.57	9619.60
564.74	9638.33
564.90	9802.16
565.07	9944.94
565.23	10024.51
565.39	9820.89
565.56	9905.15
565.72	9645.35
565.88	9652.37
566.05	9806.84
566.21	9694.50
566.38	9853.66
566.54	9741.31
566.70	9907.49
566.87	9893.44
567.03	9848.97
567.19	10092.39
567.36	9687.48
567.52	9645.35
567.68	9687.48
567.85	9984.73
568.01	9811.53
568.17	9769.40
568.34	9867.70
568.50	9748.33
568.66	9954.30
568.83	9961.32
568.99	9853.66
569.15	9797.48
569.32	9706.20
569.48	9741.31
569.64	9966.00
569.81	9879.40
569.97	9645.35
570.13	9839.61
570.30	9753.01
570.46	9949.62
570.62	9912.17
570.78	9987.07
570.95	9734.29
571.11	10059.62
571.27	9778.76
571.43	9863.02
571.60	9778.76
571.76	9858.34
571.92	9619.60
572.09	9769.40
572.25	9731.95
572.41	9830.25
572.57	9949.62
572.74	9998.77
572.90	9895.78
573.06	10040.90
573.22	9961.32
573.38	9825.57
573.55	9785.78
573.71	9870.04
573.87	9858.34
574.03	9795.14
574.20	9951.96
574.36	9900.47
574.52	9837.27
574.68	9851.31
574.84	10045.58
575.01	9886.42
575.17	10127.50
575.33	9865.36
575.49	9977.70
575.65	10019.83
575.82	9989.41
575.98	9898.13
576.14	9851.31
576.30	9951.96
576.46	10012.81
576.62	9909.83
576.79	10101.75
576.95	9893.44
577.11	9991.75
577.27	10045.58
577.43	9968.34
577.59	9921.53
577.75	9839.61
577.92	9933.23
578.08	9872.38
578.24	9809.19
578.40	9973.02
578.56	9914.51
578.72	9980.04
578.88	10186.01
579.04	10052.60
579.21	10015.15
579.37	9956.64
579.53	9970.68
579.69	10036.22
579.85	9895.78
580.01	9848.97
580.17	10045.58
580.33	10010.47
580.49	9846.63
580.65	9781.10
580.82	9841.95
580.98	10017.49
581.14	10015.15
581.30	9827.91
581.46	9837.27
581.62	10043.24
581.78	9863.02
581.94	9818.55
582.10	9879.40
582.26	9837.27
582.42	9921.53
582.58	9977.70
582.74	9757.69
582.90	9832.59
583.06	9940.26
583.22	9886.42
583.38	9731.95
583.54	9947.28
583.70	9865.36
583.86	10038.56
584.02	9792.80
584.18	9958.98
584.34	9797.48
584.50	10033.88
584.66	9893.44
584.82	10083.03
584.98	9776.42
585.14	9989.41
585.30	9870.04
585.46	9788.12
585.62	9846.63
585.78	10054.94
585.94	9797.48
586.10	9963.66
586.26	9982.38
586.42	9982.38
586.58	9891.10
586.74	9823.23
586.90	9916.85
587.06	10054.94
587.22	10003.45
587.38	10040.90
587.54	10003.45
587.70	9966.00
587.86	9804.50
588.02	10073.67
588.18	10090.05
588.34	10008.13
588.49	9853.66
588.65	10043.24
588.81	9820.89
588.97	9963.66
589.13	9874.72
589.29	10031.54
589.45	9923.87
589.61	9886.42
589.77	10120.48
589.93	9973.02
590.08	10136.86
590.24	9926.21
590.40	10155.58
590.56	9916.85
590.72	10008.13
590.88	9919.19
591.04	10031.54
591.20	9788.12
591.35	10057.28
591.51	10066.64
591.67	10164.95
591.83	9926.21
591.99	9877.06
592.15	9951.96
592.31	9839.61
592.46	9973.02
592.62	9792.80
592.78	9788.12
592.94	9804.50
593.10	10078.35
593.26	9907.49
593.41	10005.79
593.57	10169.63
593.73	9994.09
593.89	10010.47
594.05	9699.18
594.20	9589.17
594.36	9987.07
594.52	9701.52
594.68	9736.63
594.84	9926.21
594.99	9891.10
595.15	10017.49
595.31	9942.60
595.47	10113.45
595.62	9900.47
595.78	9886.42
595.94	9804.50
596.10	9907.49
596.25	9914.51
596.41	9657.05
596.57	9792.80
596.73	9860.68
596.88	9926.21
597.04	9926.21
597.20	9837.27
597.36	9963.66
597.51	9827.91
597.67	9881.74
597.83	9858.34
597.99	9933.23
598.14	9778.76
598.30	9834.93
598.46	9884.08
598.61	9991.75
598.77	10005.79
598.93	9923.87
599.09	9788.12
599.24	9893.44
