SpectraSuite Data File
++++++++++++++++++++++++++++++++++++
Date: Fri Oct 04 11:39:55 GMT-05:00 2013
User: price-jones
Dark Spectrum Present: No
Reference Spectrum Present: No
Number of Sampled Component Spectra: 1
Spectrometers: USB2+H05261
Integration Time (usec): 100000 (USB2+H05261)
Spectra Averaged: 1 (USB2+H05261)
Boxcar Smoothing: 0 (USB2+H05261)
Correct for Electrical Dark: No (USB2+H05261)
Strobe/Lamp Enabled: No (USB2+H05261)
Correct for Detector Non-linearity: No (USB2+H05261)
Correct for Stray Light: No (USB2+H05261)
Number of Pixels in Processed Spectrum: 2048
>>>>>Begin Processed Spectral Data<<<<<
365.73	98.30
365.92	98.30
366.12	98.30
366.32	0.00
366.52	0.00
366.72	0.00
366.91	0.00
367.11	0.00
367.31	0.00
367.51	0.00
367.70	0.00
367.90	0.00
368.10	0.00
368.30	0.00
368.49	0.00
368.69	0.00
368.89	0.00
369.09	0.00
369.28	18.72
369.48	0.00
369.68	0.00
369.87	42.13
370.07	0.00
370.27	4.68
370.47	147.45
370.66	227.03
370.86	360.44
371.06	482.15
371.25	521.94
371.45	386.19
371.65	507.90
371.84	444.70
372.04	472.79
372.24	521.94
372.44	517.26
372.63	456.40
372.83	545.34
373.03	599.18
373.22	447.04
373.42	521.94
373.62	592.16
373.81	580.45
374.01	589.82
374.21	526.62
374.40	615.56
374.60	608.54
374.79	526.62
374.99	610.88
375.19	489.17
375.38	617.90
375.58	641.31
375.78	643.65
375.97	674.07
376.17	718.54
376.37	594.50
376.56	648.33
376.76	704.50
376.95	601.52
377.15	641.31
377.35	657.69
377.54	655.35
377.74	653.01
377.93	660.03
378.13	664.71
378.33	711.52
378.52	737.27
378.72	692.80
378.91	741.95
379.11	681.10
379.31	730.25
379.50	655.35
379.70	699.82
379.89	772.38
380.09	784.08
380.28	643.65
380.48	671.73
380.68	695.14
380.87	763.01
381.07	744.29
381.26	767.70
381.46	779.40
381.65	711.52
381.85	741.95
382.04	772.38
382.24	727.91
382.43	753.65
382.63	758.33
382.83	791.10
383.02	774.72
383.22	861.32
383.41	793.44
383.61	802.80
383.80	748.97
384.00	809.83
384.19	795.78
384.39	835.57
384.58	814.51
384.78	802.80
384.97	821.53
385.17	849.61
385.36	854.30
385.56	950.26
385.75	896.43
385.95	875.36
386.14	936.21
386.34	880.04
386.53	866.00
386.72	976.00
386.92	933.87
387.11	854.30
387.31	866.00
387.50	950.26
387.70	1004.09
387.89	1036.86
388.09	1043.88
388.28	1046.22
388.48	1013.45
388.67	1020.47
388.86	980.68
389.06	985.37
389.25	1027.50
389.45	1015.79
389.64	997.07
389.84	1046.22
390.03	1032.18
390.22	978.34
390.42	1142.18
390.61	1041.54
390.81	1053.24
391.00	1090.69
391.19	1137.50
391.39	1144.52
391.58	1214.74
391.78	1025.15
391.97	1144.52
392.16	1142.18
392.36	1280.27
392.55	1078.99
392.75	1125.80
392.94	1184.31
393.13	1181.97
393.33	1057.92
393.52	1254.53
393.71	1179.63
393.91	1156.22
394.10	1210.06
394.29	1179.63
394.49	1198.35
394.68	1320.06
394.88	1317.72
395.07	1331.76
395.26	1348.15
395.46	1256.87
395.65	1378.58
395.84	1289.64
396.04	1420.71
396.23	1380.92
396.42	1343.47
396.62	1446.45
396.81	1334.11
397.00	1446.45
397.19	1397.30
397.39	1401.98
397.58	1441.77
397.77	1451.13
397.97	1404.32
398.16	1458.15
398.35	1488.58
398.55	1448.79
398.74	1572.84
398.93	1570.50
399.12	1516.67
399.32	1469.86
399.51	1509.65
399.70	1652.42
399.90	1521.35
400.09	1675.82
400.28	1671.14
400.47	1582.20
400.67	1577.52
400.86	1568.16
401.05	1645.40
401.24	1748.38
401.44	1694.55
401.63	1699.23
401.82	1694.55
402.01	1659.44
402.21	1732.00
402.40	1839.66
402.59	1879.45
402.78	1687.53
402.97	1795.19
403.17	1729.66
403.36	1919.24
403.55	1863.07
403.74	1839.66
403.93	1914.56
404.13	1956.69
404.32	1947.33
404.51	2040.95
404.70	1954.35
404.89	1928.60
405.09	1994.14
405.28	1994.14
405.47	2136.91
405.66	2045.63
405.85	2026.90
406.05	2003.50
406.24	2169.68
406.43	2106.48
406.62	2069.03
406.81	2260.96
407.00	2050.31
407.20	2127.55
407.39	2267.98
407.58	2253.94
407.77	2326.49
407.96	2232.87
408.15	2193.08
408.34	2275.00
408.54	2338.20
408.73	2319.47
408.92	2326.49
409.11	2373.30
409.30	2321.81
409.49	2389.69
409.68	2476.29
409.87	2525.44
410.07	2455.22
410.26	2513.74
410.45	2630.76
410.64	2490.33
410.83	2616.72
411.02	2476.29
411.21	2703.32
411.40	2525.44
411.59	2644.81
411.78	2700.98
411.98	2614.38
412.17	2710.34
412.36	2644.81
412.55	2855.45
412.74	2782.90
412.93	2768.85
413.12	2813.32
413.31	2979.50
413.50	2904.60
413.69	2876.52
413.88	3014.61
414.07	2953.76
414.26	2970.14
414.45	3159.72
414.64	3101.21
414.83	3220.58
415.02	3110.57
415.22	3300.16
415.41	3274.41
415.60	3349.31
415.79	3080.14
415.98	3267.39
416.17	3375.05
416.36	3346.97
416.55	3361.01
416.74	3438.25
416.93	3396.12
417.12	3478.04
417.31	3571.66
417.50	3616.13
417.69	3644.21
417.88	3660.60
418.07	3744.86
418.26	3660.60
418.45	3637.19
418.64	3805.71
418.83	3845.50
419.02	3826.78
419.21	3747.20
419.39	3929.76
419.58	3847.84
419.77	3791.67
419.96	3882.95
420.15	3805.71
420.34	3847.84
420.53	3861.88
420.72	4014.02
420.91	3934.44
421.10	4004.66
421.29	4009.34
421.48	4100.62
421.67	4124.02
421.86	3960.19
422.05	4236.37
422.24	3953.16
422.43	4138.07
422.61	4205.94
422.80	4205.94
422.99	4198.92
423.18	4205.94
423.37	4341.69
423.56	4124.02
423.75	4100.62
423.94	4166.15
424.13	3969.55
424.32	3955.51
424.50	4365.10
424.69	4191.90
424.88	4400.21
425.07	4245.73
425.26	4252.75
425.45	4147.43
425.64	4329.99
425.83	4353.40
426.01	4234.03
426.20	4203.60
426.39	4458.72
426.58	4379.14
426.77	4388.50
426.96	4243.39
427.15	4269.14
427.33	4351.06
427.52	4535.96
427.71	4379.14
427.90	4484.47
428.09	4493.83
428.28	4461.06
428.46	4645.96
428.65	4507.87
428.84	4744.27
429.03	4891.72
429.22	4695.11
429.40	4664.69
429.59	4711.50
429.78	4505.53
429.97	4596.81
430.16	4535.96
430.34	4732.56
430.53	4884.70
430.72	4826.18
430.91	4730.22
431.10	4765.33
431.28	4870.65
431.47	5039.17
431.66	5020.45
431.85	4929.17
432.03	5027.47
432.22	5130.45
432.41	5029.81
432.60	5224.08
432.79	5149.18
432.97	5193.65
433.16	5102.37
433.35	5144.50
433.54	5301.31
433.72	5060.24
433.91	5268.55
434.10	5270.89
434.28	5317.70
434.47	5273.23
434.66	5448.77
434.85	5446.43
435.03	5561.11
435.22	5610.26
435.41	5949.64
435.59	5825.59
435.78	5940.28
435.97	5579.84
436.16	5638.35
436.34	5495.58
436.53	5603.24
436.72	5542.39
436.90	5598.56
437.09	5680.48
437.28	5652.39
437.46	5668.78
437.65	5888.79
437.84	5956.66
438.02	5685.16
438.21	5753.04
438.40	5706.23
438.58	6047.94
438.77	5973.05
438.96	5832.62
439.14	5959.00
439.33	6211.78
439.52	6279.66
439.70	6270.30
439.89	6370.94
440.08	6342.85
440.26	6265.61
440.45	6431.79
440.63	6576.91
440.82	6457.54
441.01	6541.80
441.19	6700.95
441.38	6780.53
441.57	6722.02
441.75	6848.41
441.94	6731.38
442.12	6927.99
442.31	6988.84
442.50	7077.78
442.68	6876.49
442.87	6895.22
443.05	6930.33
443.24	6972.46
443.43	7119.91
443.61	7255.66
443.80	7288.43
443.98	7045.01
444.17	6881.18
444.35	7124.59
444.54	7133.95
444.73	7187.79
444.91	7126.93
445.10	7265.02
445.28	7227.57
445.47	7070.76
445.65	7276.73
445.84	7250.98
446.02	7283.75
446.21	7314.17
446.39	7192.47
446.58	7459.29
446.77	7419.50
446.95	7073.10
447.14	7286.09
447.32	7473.33
447.51	7463.97
447.69	7204.17
447.88	7433.54
448.06	7346.94
448.25	7300.13
448.43	7356.30
448.62	7199.49
448.80	7339.92
448.99	7421.84
449.17	7522.48
449.36	7447.58
449.54	7627.81
449.73	7707.38
449.91	7592.70
450.10	7812.71
450.28	7641.85
450.46	7784.62
450.65	7981.23
450.83	7976.55
451.02	7918.03
451.20	7985.91
451.39	7880.58
451.57	7882.92
451.76	7967.18
451.94	8023.36
452.13	7953.14
452.31	8116.98
452.49	7861.86
452.68	8060.80
452.86	7976.55
453.05	8236.35
453.23	8393.16
453.42	8147.40
453.60	7999.95
453.78	8259.75
453.97	8159.11
454.15	8332.31
454.34	7983.57
454.52	8306.56
454.70	8446.99
454.89	8332.31
455.07	8393.16
455.26	8470.40
455.44	8470.40
455.62	8629.56
455.81	8514.87
455.99	8755.94
456.17	8833.18
456.36	8557.00
456.54	8854.25
456.73	8872.97
456.91	9020.42
457.09	9015.74
457.28	9186.60
457.46	8816.80
457.64	8968.93
457.83	9088.30
458.01	9018.08
458.19	9217.03
458.38	8997.02
458.56	9266.18
458.74	9235.75
458.93	9411.29
459.11	9357.46
459.29	9301.29
459.48	9394.91
459.66	9362.14
459.84	9549.39
460.03	9607.90
460.21	9500.23
460.39	9387.89
460.57	9315.33
460.76	9455.76
460.94	9750.67
461.12	9547.05
461.31	9514.28
461.49	9783.44
461.67	9575.13
461.85	9916.85
462.04	9755.35
462.22	10200.05
462.40	9874.72
462.59	9898.13
462.77	9951.96
462.95	10026.86
463.13	10059.62
463.32	9930.89
463.50	10153.24
463.68	10352.19
463.86	10101.75
464.05	10155.58
464.23	10136.86
464.41	10125.16
464.59	9930.89
464.78	10256.23
464.96	10352.19
465.14	10253.89
465.32	10384.96
465.50	10558.16
465.69	10490.28
465.87	10441.13
466.05	10403.68
466.23	10626.03
466.41	10443.47
466.60	10815.62
466.78	10630.71
466.96	10413.04
467.14	10471.56
467.32	10548.79
467.51	10780.51
467.69	10588.58
467.87	10832.00
468.05	10871.79
468.23	10642.42
468.41	10696.25
468.60	10771.15
468.78	11056.69
468.96	10787.53
469.14	11112.86
469.32	10972.43
469.50	10832.00
469.69	11171.38
469.87	11332.87
470.05	11370.32
470.23	11229.89
470.41	11440.54
470.59	11379.68
470.77	11190.10
470.95	11384.37
471.14	11634.80
471.32	11267.34
471.50	11576.29
471.68	11775.24
471.86	11829.07
472.04	11613.74
472.22	11953.12
472.40	11843.11
472.58	12070.14
472.77	12079.50
472.95	11934.39
473.13	12461.01
473.31	12133.34
473.49	12077.16
473.67	12423.56
473.85	12409.52
474.03	12500.80
474.21	12482.08
474.39	12879.97
474.57	12659.96
474.75	12849.54
474.93	13034.44
475.12	12779.32
475.30	13167.85
475.48	12966.57
475.66	13060.19
475.84	12987.63
476.02	13228.71
476.20	13266.16
476.38	13490.85
476.56	13778.73
476.74	13673.41
476.92	13668.73
477.10	13881.72
477.28	13905.12
477.46	13980.02
477.64	13991.72
477.82	14326.42
478.00	14747.72
478.18	14469.19
478.36	14731.33
478.54	14654.09
478.72	14785.16
478.90	14775.80
479.08	14974.75
479.26	15077.73
479.44	15449.88
479.62	15396.04
479.80	15564.56
479.98	15786.91
480.16	15929.69
480.34	15625.42
480.52	15978.84
480.70	16205.87
480.88	16126.29
481.06	15953.09
481.24	16114.59
481.41	16353.32
481.59	16535.88
481.77	17039.10
481.95	16826.11
482.13	16870.58
482.31	17050.80
482.49	17350.39
482.67	17394.86
482.85	17514.23
483.03	18033.83
483.21	18214.05
483.39	18295.97
483.57	18162.56
483.74	17898.08
483.92	18370.86
484.10	18253.84
484.28	18862.38
484.46	18829.61
484.64	19248.57
484.82	18890.46
485.00	19208.78
485.18	19477.94
485.35	19974.13
485.53	19559.86
485.71	19749.44
485.89	20542.88
486.07	20098.18
486.25	20231.59
486.43	20435.22
486.61	20599.05
486.78	20688.00
486.96	21132.70
487.14	21319.94
487.32	21074.18
487.50	21472.07
487.68	21640.59
487.85	21977.63
488.03	21975.29
488.21	22190.62
488.39	22230.41
488.57	22391.91
488.75	22331.05
488.92	22733.62
489.10	23098.75
489.28	23183.01
489.46	23421.74
489.64	23468.55
489.81	23758.78
489.99	23901.55
490.17	24027.94
490.35	24276.04
490.53	24364.98
490.70	24631.80
490.88	24472.64
491.06	24720.74
491.24	24950.11
491.41	25406.52
491.59	25160.76
491.77	25123.31
491.95	25827.81
492.13	25986.97
492.30	25802.07
492.48	26316.98
492.66	25841.85
492.84	25907.39
493.01	26422.31
493.19	26654.02
493.37	26824.88
493.54	27152.55
493.72	27292.99
493.90	27417.04
494.08	27503.64
494.25	27585.55
494.43	27779.82
494.61	27892.16
494.79	28027.92
494.96	28306.44
495.14	28180.05
495.32	28615.39
495.49	28655.18
495.67	28753.48
495.85	29090.52
496.02	29020.30
496.20	29598.41
496.38	29277.76
496.55	29523.52
496.73	29860.55
496.91	29736.51
497.09	29912.05
497.26	30433.99
497.44	30017.37
497.62	30370.79
497.79	30532.29
497.97	30703.15
498.14	31061.25
498.32	31309.35
498.50	31154.87
498.67	31388.92
498.85	31388.92
499.03	31566.81
499.20	31676.81
499.38	31887.46
499.56	31967.04
499.73	32446.85
499.91	32430.46
500.08	32643.45
500.26	32503.02
500.44	32854.10
500.61	32673.88
500.79	32720.69
500.97	33200.50
501.14	33635.84
501.32	33392.42
501.49	33486.04
501.67	33380.72
501.84	33240.29
502.02	33467.32
502.20	33511.79
502.37	34045.43
502.55	33930.75
502.72	34164.80
502.90	34040.75
503.07	34094.58
503.25	34813.13
503.43	34745.25
503.60	34742.91
503.78	34614.18
503.95	34593.12
504.13	34993.35
504.30	34810.79
504.48	35108.04
504.65	35103.35
504.83	35594.87
505.01	35777.43
505.18	35667.42
505.36	35896.80
505.53	35831.26
505.71	35889.77
505.88	36348.52
506.06	35629.98
506.23	36437.46
506.41	36346.18
506.58	36657.47
506.76	36343.84
506.93	36425.76
507.11	36634.06
507.28	36830.67
507.46	36924.29
507.63	37303.46
507.81	37406.44
507.98	37099.83
508.16	37266.01
508.33	36891.52
508.50	37413.46
508.68	38024.34
508.85	37961.15
509.03	37830.08
509.20	38169.46
509.38	38164.78
509.55	38487.77
509.73	38565.01
509.90	38370.74
510.08	39037.80
510.25	38684.37
510.42	38873.96
510.60	38895.02
510.77	39531.65
510.95	39779.74
511.12	38904.38
511.30	39005.03
511.47	39632.29
511.64	39517.60
511.82	40217.43
511.99	39873.37
512.17	39889.75
512.34	40287.64
512.51	40282.96
512.69	39917.84
512.86	40261.90
513.04	41038.95
513.21	40573.19
513.38	40509.99
513.56	40980.44
513.73	40685.53
513.90	40957.03
514.08	40683.19
514.25	40952.35
514.43	41216.83
514.60	41214.49
514.77	41270.67
514.95	41397.06
515.12	41560.89
515.29	41394.71
515.47	41684.94
515.64	42047.72
515.81	41853.46
515.99	41926.02
516.16	42632.86
516.33	42417.53
516.51	42504.13
516.68	41727.07
516.85	42405.83
517.03	42291.14
517.20	42941.81
517.37	42525.19
517.54	42883.30
517.72	43423.96
517.89	42707.76
518.06	43241.40
518.24	43136.07
518.41	43234.38
518.58	43103.31
518.75	43601.84
518.93	43997.39
519.10	43402.89
519.27	43468.43
519.45	43365.45
519.62	44158.89
519.79	43768.02
519.96	43735.25
520.14	44460.82
520.31	44107.40
520.48	44055.90
520.65	44093.35
520.83	44327.41
521.00	44554.44
521.17	44435.07
521.34	44509.97
521.52	44701.89
521.69	44879.77
521.86	44758.06
522.03	44975.73
522.20	45303.41
522.38	45230.85
522.55	45010.84
522.72	45118.51
522.89	45064.67
523.07	45825.35
523.24	45495.33
523.41	45804.28
523.58	45303.41
523.75	45815.99
523.92	45947.06
524.10	46014.93
524.27	46092.17
524.44	46314.52
524.61	46829.44
524.78	46618.79
524.96	46375.37
525.13	46382.40
525.30	46527.51
525.47	46539.21
525.64	46745.18
525.81	46939.44
525.98	46969.87
526.16	46934.76
526.33	46871.57
526.50	47040.09
526.67	46843.48
526.84	46845.82
527.01	46925.40
527.18	47248.39
527.36	47573.73
527.53	47564.37
527.70	47924.81
527.87	47648.63
528.04	47562.03
528.21	47536.28
528.38	47320.95
528.55	47711.82
528.72	47906.08
528.89	48112.05
529.07	47899.06
529.24	48109.71
529.41	48552.07
529.58	47709.48
529.75	48039.50
529.92	48369.51
530.09	48598.88
530.26	48210.35
530.43	48327.38
530.60	48385.89
530.77	48119.07
530.94	48573.14
531.11	48917.20
531.28	48580.16
531.46	48863.36
531.63	48694.85
531.80	49153.59
531.97	49247.21
532.14	49389.98
532.31	48828.26
532.48	49090.40
532.65	49277.64
532.82	48896.13
532.99	49394.67
533.16	49258.91
533.33	49696.59
533.50	49722.34
533.67	49464.88
533.84	49352.54
534.01	49429.77
534.18	49261.26
534.35	49897.88
534.52	50117.89
534.69	49916.61
534.86	50279.39
535.03	50153.00
535.20	49918.95
535.37	50267.69
535.54	50286.41
535.71	50061.72
535.88	50124.91
536.05	50525.14
536.22	50377.69
536.38	51105.60
536.55	50436.20
536.72	50543.87
536.89	50153.00
537.06	50796.65
537.23	50543.87
537.40	50621.11
537.57	50546.21
537.74	50759.20
537.91	51082.19
538.08	51138.36
538.25	50841.12
538.42	51058.79
538.59	51091.55
538.75	50871.54
538.92	50923.04
539.09	51292.84
539.26	51187.52
539.43	51026.02
539.60	51192.20
539.77	51412.21
539.94	51697.75
540.11	51557.32
540.28	51391.14
540.44	51239.01
540.61	51299.86
540.78	51571.36
540.95	51833.50
541.12	51915.42
541.29	51934.15
541.46	51899.04
541.62	52261.82
541.79	51608.81
541.96	51854.57
542.13	51604.13
542.30	51978.62
542.47	52175.22
542.63	52177.56
542.80	52203.31
542.97	52472.47
543.14	52680.78
543.31	51948.19
543.48	52360.12
543.64	52765.04
543.81	52807.17
543.98	52683.12
544.15	52718.23
544.32	52844.62
544.48	52720.57
544.65	52755.68
544.82	52788.44
544.99	52554.39
545.16	52818.87
545.32	52659.71
545.49	53420.39
545.66	53499.97
545.83	53600.61
546.00	53712.95
546.16	53462.52
546.33	52788.44
546.50	52652.69
546.67	53212.08
546.83	52949.94
547.00	53188.67
547.17	53364.21
547.34	52961.64
547.50	53352.51
547.67	53333.79
547.84	53387.62
548.00	53350.17
548.17	53385.28
548.34	53570.18
548.51	53518.69
548.67	53642.74
548.84	53560.82
549.01	53666.14
549.18	53469.54
549.34	53661.46
549.51	53516.35
549.68	53790.19
549.84	53600.61
550.01	53748.06
550.18	53408.68
550.34	53645.08
550.51	53979.78
550.68	53867.43
550.84	53429.75
551.01	53736.36
551.18	53567.84
551.34	53839.34
551.51	53694.23
551.68	53911.90
551.84	54087.44
552.01	53708.27
552.18	54190.42
552.34	53806.58
552.51	53998.50
552.68	54096.80
552.84	53872.11
553.01	54031.27
553.18	54164.68
553.34	54410.43
553.51	54330.86
553.67	54178.72
553.84	54590.66
554.01	54326.17
554.17	54272.34
554.34	54206.81
554.51	54174.04
554.67	54293.41
554.84	54733.43
555.00	54192.76
555.17	54466.61
555.33	54454.90
555.50	54485.33
555.67	54314.47
555.83	54506.40
556.00	54405.75
556.16	54873.86
556.33	54588.31
556.50	54789.60
556.66	54571.93
556.83	54887.90
556.99	54698.32
557.16	54562.57
557.32	54988.55
557.49	54663.21
557.65	54454.90
557.82	54646.83
557.98	54564.91
558.15	54838.75
558.32	54911.31
558.48	54915.99
558.65	54997.91
558.81	54831.73
558.98	54583.63
559.14	54770.88
559.31	54670.23
559.47	54925.35
559.64	54869.18
559.80	55133.66
559.97	55082.17
560.13	55093.87
560.30	55044.72
560.46	55096.21
560.63	55217.92
560.79	55112.59
560.96	55283.45
561.12	55025.99
561.29	54997.91
561.45	55236.64
561.61	55072.81
561.78	55295.16
561.94	55423.89
562.11	55414.52
562.27	55220.26
562.44	55220.26
562.60	55269.41
562.77	55559.64
562.93	55341.97
563.10	55473.04
563.26	55330.26
563.42	55475.38
563.59	55437.93
563.75	55351.33
563.92	55358.35
564.08	55325.58
564.24	55444.95
564.41	55288.13
564.57	55339.63
564.74	55611.13
564.90	55550.27
565.07	55601.77
565.23	55578.36
565.39	55543.25
565.56	55435.59
565.72	55444.95
565.88	55494.10
566.05	55487.08
566.21	55384.10
566.38	55519.85
566.54	55435.59
566.70	55770.28
566.87	55606.45
567.03	55463.67
567.19	55779.65
567.36	55744.54
567.52	55423.89
567.68	56072.21
567.85	55620.49
568.01	55576.02
568.17	55526.87
568.34	55742.20
568.50	55751.56
568.66	55721.13
568.83	55749.22
568.99	55842.84
569.15	55798.37
569.32	55559.64
569.48	55657.94
569.64	55938.80
569.81	56016.04
569.97	55613.47
570.13	56069.87
570.30	56027.74
570.46	55901.36
570.62	55777.31
570.78	55767.94
570.95	55585.38
571.11	56109.66
571.27	55681.34
571.43	55756.24
571.60	55847.52
571.76	55760.92
571.92	56161.15
572.09	55765.60
572.25	55971.57
572.41	55840.50
572.57	55784.33
572.74	55990.30
572.90	55992.64
573.06	55664.96
573.22	55835.82
573.38	56067.53
573.55	55920.08
573.71	56418.61
573.87	56104.98
574.03	55889.65
574.20	55889.65
574.36	55938.80
574.52	56172.86
574.68	55835.82
574.84	55976.25
575.01	56247.75
575.17	56383.51
575.33	55994.98
575.49	55962.21
575.65	56301.59
575.82	55990.30
575.98	56172.86
576.14	56191.58
576.30	56104.98
576.46	55810.07
576.62	56051.15
576.79	55908.38
576.95	55955.19
577.11	56044.13
577.27	56313.29
577.43	55936.46
577.59	56058.17
577.75	56198.60
577.92	55770.28
578.08	55887.31
578.24	56151.79
578.40	56081.58
578.56	56332.01
578.72	56193.92
578.88	56605.86
579.04	56484.15
579.21	56158.81
579.37	56254.78
579.53	56287.54
579.69	56074.55
579.85	56142.43
580.01	56212.65
580.17	56053.49
580.33	55973.91
580.49	56364.78
580.65	56119.02
580.82	56203.28
580.98	56196.26
581.14	56231.37
581.30	56193.92
581.46	55966.89
581.62	56112.00
581.78	55985.61
581.94	56170.52
582.10	56222.01
582.26	56168.18
582.42	56222.01
582.58	56402.23
582.74	56193.92
582.90	56069.87
583.06	56247.75
583.22	56100.30
583.38	56069.87
583.54	56182.22
583.70	56238.39
583.86	56346.06
584.02	56200.94
584.18	56423.29
584.34	56549.68
584.50	56439.68
584.66	56512.23
584.82	56090.94
584.98	56097.96
585.14	56259.46
585.30	56128.39
585.46	56147.11
585.62	56329.67
585.78	56404.57
585.94	56069.87
586.10	56437.34
586.26	56261.80
586.42	56306.27
586.58	56439.68
586.74	56552.02
586.90	56271.16
587.06	56020.72
587.22	56409.25
587.38	56051.15
587.54	56296.91
587.70	56711.18
587.86	56437.34
588.02	56493.51
588.18	56481.81
588.34	56409.25
588.49	56170.52
588.65	56362.44
588.81	55985.61
588.97	56385.85
589.13	56334.35
589.29	56369.46
589.45	56596.49
589.61	56765.01
