SpectraSuite Data File
++++++++++++++++++++++++++++++++++++
Date: Fri Oct 04 11:39:57 GMT-05:00 2013
User: price-jones
Dark Spectrum Present: No
Reference Spectrum Present: No
Number of Sampled Component Spectra: 1
Spectrometers: USB2+H05261
Integration Time (usec): 100000 (USB2+H05261)
Spectra Averaged: 1 (USB2+H05261)
Boxcar Smoothing: 0 (USB2+H05261)
Correct for Electrical Dark: No (USB2+H05261)
Strobe/Lamp Enabled: No (USB2+H05261)
Correct for Detector Non-linearity: No (USB2+H05261)
Correct for Stray Light: No (USB2+H05261)
Number of Pixels in Processed Spectrum: 2048
>>>>>Begin Processed Spectral Data<<<<<
365.73	28.09
365.92	28.09
366.12	28.09
366.32	0.00
366.52	0.00
366.72	0.00
366.91	0.00
367.11	0.00
367.31	0.00
367.51	0.00
367.70	0.00
367.90	0.00
368.10	0.00
368.30	0.00
368.49	0.00
368.69	0.00
368.89	0.00
369.09	0.00
369.28	0.00
369.48	0.00
369.68	0.00
369.87	67.88
370.07	0.00
370.27	4.68
370.47	70.22
370.66	63.19
370.86	25.75
371.06	93.62
371.25	215.33
371.45	173.20
371.65	142.77
371.84	28.09
372.04	74.90
372.24	184.90
372.44	170.86
372.63	175.54
372.83	161.50
373.03	126.39
373.22	149.79
373.42	191.92
373.62	166.18
373.81	227.03
374.01	175.54
374.21	126.39
374.40	175.54
374.60	152.13
374.79	215.33
374.99	231.71
375.19	112.35
375.38	177.88
375.58	231.71
375.78	191.92
375.97	203.63
376.17	241.08
376.37	220.01
376.56	175.54
376.76	196.60
376.95	149.79
377.15	187.24
377.35	173.20
377.54	161.50
377.74	95.96
377.93	152.13
378.13	175.54
378.33	210.65
378.52	121.71
378.72	234.05
378.91	168.52
379.11	182.56
379.31	224.69
379.50	191.92
379.70	166.18
379.89	194.26
380.09	154.48
380.28	173.20
380.48	131.07
380.68	187.24
380.87	173.20
381.07	145.11
381.26	149.79
381.46	138.09
381.65	180.22
381.85	138.09
382.04	224.69
382.24	180.22
382.43	243.42
382.63	175.54
382.83	161.50
383.02	91.28
383.22	222.35
383.41	138.09
383.61	220.01
383.80	191.92
384.00	306.61
384.19	255.12
384.39	196.60
384.58	126.39
384.78	236.39
384.97	210.65
385.17	191.92
385.36	142.77
385.56	231.71
385.75	159.16
385.95	212.99
386.14	227.03
386.34	189.58
386.53	252.78
386.72	170.86
386.92	163.84
387.11	184.90
387.31	161.50
387.50	220.01
387.70	203.63
387.89	184.90
388.09	201.29
388.28	184.90
388.48	191.92
388.67	166.18
388.86	201.29
389.06	182.56
389.25	168.52
389.45	203.63
389.64	224.69
389.84	184.90
390.03	196.60
390.22	208.31
390.42	182.56
390.61	238.73
390.81	182.56
391.00	145.11
391.19	241.08
391.39	248.10
391.58	250.44
391.78	322.99
391.97	236.39
392.16	238.73
392.36	297.25
392.55	210.65
392.75	180.22
392.94	304.27
393.13	285.55
393.33	227.03
393.52	210.65
393.71	203.63
393.91	313.63
394.10	294.91
394.29	271.50
394.49	241.08
394.68	259.80
394.88	210.65
395.07	325.33
395.26	297.25
395.46	276.18
395.65	294.91
395.84	292.57
396.04	409.59
396.23	320.65
396.42	299.59
396.62	203.63
396.81	351.08
397.00	276.18
397.19	308.95
397.39	299.59
397.58	327.68
397.77	365.12
397.97	332.36
398.16	292.57
398.35	337.04
398.55	330.02
398.74	369.80
398.93	315.97
399.12	332.36
399.32	283.20
399.51	322.99
399.70	395.55
399.90	346.40
400.09	395.55
400.28	362.78
400.47	395.55
400.67	397.89
400.86	327.68
401.05	346.40
401.24	358.10
401.44	444.70
401.63	351.08
401.82	442.36
402.01	369.80
402.21	475.13
402.40	447.04
402.59	428.32
402.78	449.38
402.97	409.59
403.17	482.15
403.36	531.30
403.55	437.68
403.74	491.51
403.93	442.36
404.13	648.33
404.32	519.60
404.51	458.74
404.70	557.05
404.89	564.07
405.09	557.05
405.28	603.86
405.47	472.79
405.66	634.29
405.85	601.52
406.05	543.00
406.24	599.18
406.43	575.77
406.62	573.43
406.81	580.45
407.00	564.07
407.20	564.07
407.39	713.86
407.58	660.03
407.77	671.73
407.96	585.13
408.15	641.31
408.34	624.92
408.54	648.33
408.73	622.58
408.92	601.52
409.11	692.80
409.30	730.25
409.49	634.29
409.68	695.14
409.87	814.51
410.07	706.84
410.26	720.88
410.45	798.12
410.64	828.55
410.83	809.83
411.02	833.23
411.21	774.72
411.40	727.91
411.59	774.72
411.78	798.12
411.98	882.38
412.17	908.13
412.36	931.53
412.55	943.24
412.74	950.26
412.93	856.64
413.12	870.68
413.31	968.98
413.50	887.06
413.69	898.77
413.88	952.60
414.07	1034.52
414.26	964.30
414.45	987.71
414.64	933.87
414.83	1095.37
415.02	1041.54
415.22	1205.38
415.41	1100.05
415.60	1004.09
415.79	1062.60
415.98	1064.94
416.17	1095.37
416.36	1071.97
416.55	1111.75
416.74	1064.94
416.93	1149.20
417.12	1165.59
417.31	1090.69
417.50	1144.52
417.69	1210.06
417.88	1219.42
418.07	1256.87
418.26	1247.51
418.45	1240.48
418.64	1294.32
418.83	1217.08
419.02	1289.64
419.21	1303.68
419.39	1362.19
419.58	1224.10
419.77	1306.02
419.96	1254.53
420.15	1261.55
420.34	1303.68
420.53	1299.00
420.72	1256.87
420.91	1306.02
421.10	1376.24
421.29	1362.19
421.48	1432.41
421.67	1460.49
421.86	1371.55
422.05	1387.94
422.24	1355.17
422.43	1376.24
422.61	1432.41
422.80	1430.07
422.99	1409.00
423.18	1423.05
423.37	1488.58
423.56	1425.39
423.75	1416.02
423.94	1434.75
424.13	1334.11
424.32	1444.11
424.50	1533.05
424.69	1432.41
424.88	1479.22
425.07	1502.62
425.26	1481.56
425.45	1561.14
425.64	1439.43
425.83	1488.58
426.01	1404.32
426.20	1509.65
426.39	1416.02
426.58	1432.41
426.77	1439.43
426.96	1474.54
427.15	1481.56
427.33	1437.09
427.52	1444.11
427.71	1535.39
427.90	1533.05
428.09	1600.93
428.28	1528.37
428.46	1565.82
428.65	1598.59
428.84	1633.69
429.03	1657.10
429.22	1556.46
429.40	1614.97
429.59	1570.50
429.78	1589.22
429.97	1547.09
430.16	1629.01
430.34	1629.01
430.53	1666.46
430.72	1706.25
430.91	1650.08
431.10	1591.56
431.28	1640.72
431.47	1692.21
431.66	1708.59
431.85	1743.70
432.03	1806.89
432.22	1874.77
432.41	1757.74
432.60	1844.34
432.79	1743.70
432.97	1853.70
433.16	1741.36
433.35	1722.63
433.54	1715.61
433.72	1739.02
433.91	1849.02
434.10	1834.98
434.28	1849.02
434.47	1926.26
434.66	2019.88
434.85	1853.70
435.03	1905.20
435.22	2057.33
435.41	2338.20
435.59	2389.69
435.78	2310.11
435.97	2073.71
436.16	1968.39
436.34	1842.00
436.53	1984.77
436.72	2022.22
436.90	1905.20
437.09	1989.46
437.28	1895.83
437.46	2026.90
437.65	2064.35
437.84	2026.90
438.02	1937.96
438.21	1916.90
438.40	2022.22
438.58	2052.65
438.77	2031.58
438.96	2062.01
439.14	2160.31
439.33	2101.80
439.52	2017.54
439.70	2146.27
439.89	2211.81
440.08	2307.77
440.26	2190.74
440.45	2188.40
440.63	2160.31
440.82	2361.60
441.01	2113.50
441.19	2303.09
441.38	2260.96
441.57	2319.47
441.75	2305.43
441.94	2296.07
442.12	2277.34
442.31	2345.22
442.50	2230.53
442.68	2429.48
442.87	2382.67
443.05	2354.58
443.24	2434.16
443.43	2415.43
443.61	2307.77
443.80	2368.62
443.98	2298.41
444.17	2370.96
444.35	2459.90
444.54	2476.29
444.73	2431.82
444.91	2382.67
445.10	2415.43
445.28	2518.42
445.47	2347.56
445.65	2389.69
445.84	2417.77
446.02	2420.11
446.21	2525.44
446.39	2530.12
446.58	2679.91
446.77	2438.84
446.95	2473.95
447.14	2480.97
447.32	2420.11
447.51	2459.90
447.69	2473.95
447.88	2532.46
448.06	2492.67
448.25	2544.16
448.43	2459.90
448.62	2401.39
448.80	2525.44
448.99	2560.55
449.17	2572.25
449.36	2605.02
449.54	2607.36
449.73	2661.19
449.91	2682.25
450.10	2642.46
450.28	2733.75
450.46	2672.89
450.65	2630.76
450.83	2677.57
451.02	2719.70
451.20	2588.63
451.39	2663.53
451.57	2761.83
451.76	2733.75
451.94	2572.25
452.13	2829.71
452.31	2661.19
452.49	2766.51
452.68	2745.45
452.86	2700.98
453.05	2799.28
453.23	2782.90
453.42	2761.83
453.60	2792.26
453.78	2724.38
453.97	2677.57
454.15	2759.49
454.34	2693.96
454.52	2902.26
454.70	2902.26
454.89	2928.01
455.07	2815.66
455.26	2843.75
455.44	2874.18
455.62	2939.71
455.81	2850.77
455.99	2899.92
456.17	2904.60
456.36	2970.14
456.54	2949.08
456.73	3073.12
456.91	3122.27
457.09	3056.74
457.28	3119.93
457.46	3089.51
457.64	3084.83
457.83	3141.00
458.01	3112.91
458.19	3208.87
458.38	3136.32
458.56	3028.65
458.74	3241.64
458.93	3206.53
459.11	3124.62
459.29	3110.57
459.48	3026.31
459.66	3021.63
459.84	3206.53
460.03	3269.73
460.21	3117.59
460.39	3229.94
460.57	3126.96
460.76	3047.38
460.94	3239.30
461.12	3192.49
461.31	3288.45
461.49	3405.48
461.67	3405.48
461.85	3356.33
462.04	3293.13
462.22	3817.41
462.40	3370.37
462.59	3241.64
462.77	3258.03
462.95	3396.12
463.13	3258.03
463.32	3325.90
463.50	3379.73
463.68	3419.52
463.86	3417.18
464.05	3417.18
464.23	3442.93
464.41	3492.08
464.59	3307.18
464.78	3482.72
464.96	3485.06
465.14	3293.13
465.32	3489.74
465.50	3522.51
465.69	3478.04
465.87	3431.23
466.05	3382.07
466.23	3386.76
466.41	3566.98
466.60	3501.44
466.78	3459.31
466.96	3559.95
467.14	3412.50
467.32	3625.49
467.51	3646.55
467.69	3499.10
467.87	3707.41
468.05	3574.00
468.23	3508.46
468.41	3632.51
468.60	3637.19
468.78	3684.00
468.96	3630.17
469.14	3730.81
469.32	3634.85
469.50	3531.87
469.69	3686.34
469.87	3688.68
470.05	3791.67
470.23	3808.05
470.41	3702.73
470.59	3880.61
470.77	3730.81
470.95	3852.52
471.14	3749.54
471.32	3843.16
471.50	3918.06
471.68	3941.46
471.86	3843.16
472.04	3936.78
472.22	4009.34
472.40	3882.95
472.58	3941.46
472.77	4025.72
472.95	4091.26
473.13	4121.68
473.31	4107.64
473.49	4077.21
473.67	4039.76
473.85	4161.47
474.03	4056.15
474.21	4128.70
474.39	4219.99
474.57	4229.35
474.75	4292.54
474.93	4245.73
475.12	4285.52
475.30	4306.59
475.48	4231.69
475.66	4468.08
475.84	4315.95
476.02	4393.19
476.20	4451.70
476.38	4470.42
476.56	4575.75
476.74	4512.55
476.92	4613.20
477.10	4397.87
477.28	4510.21
477.46	4650.64
477.64	4645.96
477.82	4631.92
478.00	4662.35
478.18	4636.60
478.36	4709.16
478.54	4842.57
478.72	5011.09
478.90	4919.81
479.08	4980.66
479.26	4964.28
479.44	5085.98
479.62	5062.58
479.80	5041.51
479.98	5102.37
480.16	5207.69
480.34	5139.82
480.52	5291.95
480.70	5186.63
480.88	5259.18
481.06	5242.80
481.24	5383.23
481.41	5434.72
481.59	5287.27
481.77	5692.18
481.95	5476.85
482.13	5427.70
482.31	5441.75
482.49	5572.82
482.67	5724.95
482.85	5685.16
483.03	5657.07
483.21	5783.46
483.39	5884.11
483.57	5912.19
483.74	5900.49
483.92	5919.21
484.10	5907.51
484.28	6195.40
484.46	6312.42
484.64	6282.00
484.82	6263.27
485.00	6282.00
485.18	6338.17
485.35	6377.96
485.53	6352.21
485.71	6375.62
485.89	6492.65
486.07	6487.96
486.25	6579.25
486.43	6572.22
486.61	6548.82
486.78	6684.57
486.96	6815.64
487.14	6869.47
487.32	6897.56
487.50	6899.90
487.68	6977.14
487.85	7061.40
488.03	7171.40
488.21	7133.95
488.39	7112.89
488.57	7150.34
488.75	7302.47
488.92	7620.78
489.10	7566.95
489.28	7396.09
489.46	7449.93
489.64	7524.82
489.81	7756.54
489.99	7882.92
490.17	7791.64
490.35	7918.03
490.53	7873.56
490.70	7850.16
490.88	7943.78
491.06	7967.18
491.24	7892.29
491.41	8042.08
491.59	8131.02
491.77	7967.18
491.95	8161.45
492.13	8280.82
492.30	8152.09
492.48	8280.82
492.66	8325.29
492.84	8224.64
493.01	8505.51
493.19	8564.02
493.37	8676.37
493.54	8622.53
493.72	8849.57
493.90	8505.51
494.08	8755.94
494.25	8762.97
494.43	8917.44
494.61	8713.81
494.79	9149.15
494.96	8968.93
495.14	8968.93
495.32	9149.15
495.49	9139.79
495.67	9191.28
495.85	9202.99
496.02	9406.61
496.20	9287.25
496.38	9275.54
496.55	9334.06
496.73	9650.03
496.91	9638.33
497.09	9621.94
497.26	9696.84
497.44	9589.17
497.62	9696.84
497.79	9687.48
497.97	9544.70
498.14	9832.59
498.32	9851.31
498.50	9902.81
498.67	10118.14
498.85	10155.58
499.03	9989.41
499.20	10071.33
499.38	10080.69
499.56	10040.90
499.73	10099.41
499.91	10143.88
500.08	10326.44
500.26	10197.71
500.44	10413.04
500.61	10153.24
500.79	10190.69
500.97	10441.13
501.14	10609.65
501.32	10471.56
501.49	10541.77
501.67	10621.35
501.84	10764.12
502.02	10635.39
502.20	10827.32
502.37	10909.24
502.55	10717.31
502.72	10953.71
502.90	10757.10
503.07	10899.87
503.25	10967.75
503.43	11037.97
503.60	10906.90
503.78	11089.46
503.95	11133.93
504.13	11000.52
504.30	11112.86
504.48	11119.89
504.65	11220.53
504.83	11227.55
505.01	11548.20
505.18	11393.73
505.36	11583.31
505.53	11590.33
505.71	11375.00
505.88	11201.80
506.06	11089.46
506.23	11496.71
506.41	11513.10
506.58	11538.84
506.76	11503.73
506.93	11618.42
507.11	11524.80
507.28	11789.28
507.46	11936.73
507.63	11808.00
507.81	11906.31
507.98	11922.69
508.16	11653.53
508.33	11922.69
508.50	12042.06
508.68	12131.00
508.85	11932.05
509.03	12184.83
509.20	11871.20
509.38	12348.67
509.55	12243.34
509.73	12236.32
509.90	12329.94
510.08	12187.17
510.25	12231.64
510.42	12280.79
510.60	12386.12
510.77	12676.34
510.95	12465.69
511.12	12353.35
511.30	12547.61
511.47	12786.35
511.64	12533.57
511.82	12617.83
511.99	12624.85
512.17	12889.33
512.34	12489.10
512.51	12594.42
512.69	12903.37
512.86	12702.09
513.04	12879.97
513.21	13034.44
513.38	12847.20
513.56	12884.65
513.73	13048.49
513.90	13121.04
514.08	12994.65
514.25	13352.76
514.43	13228.71
514.60	13291.90
514.77	13118.70
514.95	13390.20
515.12	12872.95
515.29	13088.28
515.47	13301.26
515.64	13572.77
515.81	13547.02
515.99	13610.22
516.16	13509.57
516.33	13748.31
516.51	13575.11
516.68	13331.69
516.85	13383.18
517.03	13575.11
517.20	13862.99
517.37	13549.36
517.54	13987.04
517.72	13752.99
517.89	13682.77
518.06	13621.92
518.24	13774.05
518.41	13893.42
518.58	13984.70
518.75	13860.65
518.93	13951.93
519.10	13987.04
519.27	14101.73
519.45	13919.17
519.62	14080.66
519.79	13961.30
519.96	13944.91
520.14	14066.62
520.31	13989.38
520.48	14071.30
520.65	14218.75
520.83	14146.20
521.00	14183.65
521.17	14354.51
521.34	14312.38
521.52	14565.15
521.69	14328.76
521.86	14394.29
522.03	14740.69
522.20	14628.35
522.38	14864.74
522.55	14583.88
522.72	14520.68
522.89	14684.52
523.07	14803.89
523.24	14925.60
523.41	14747.72
523.58	14792.19
523.75	15068.37
523.92	14810.91
524.10	14827.29
524.27	14860.06
524.44	15080.07
524.61	14972.41
524.78	15215.82
524.96	14939.64
525.13	14857.72
525.30	15286.04
525.47	15012.20
525.64	15201.78
525.81	15066.03
525.98	15438.17
526.16	15176.03
526.33	15239.23
526.50	15227.53
526.67	15105.82
526.84	15508.39
527.01	15360.94
527.18	15344.55
527.36	15492.01
527.53	15440.51
527.70	15382.00
527.87	15667.55
528.04	15531.80
528.21	15599.67
528.38	15484.98
528.55	15613.71
528.72	15566.90
528.89	15700.31
529.07	15351.57
529.24	15545.84
529.41	15597.33
529.58	15314.13
529.75	15653.50
529.92	15754.15
530.09	15974.16
530.26	15882.88
530.43	15901.60
530.60	15700.31
530.77	15697.97
530.94	15868.83
531.11	15765.85
531.28	15529.45
531.46	15929.69
531.63	16046.71
531.80	15868.83
531.97	15969.48
532.14	16236.30
532.31	16056.08
532.48	16102.89
532.65	16369.71
532.82	16060.76
532.99	16273.74
533.16	16093.52
533.33	16390.77
533.50	16451.63
533.67	16489.07
533.84	16126.29
534.01	16142.67
534.18	16184.80
534.35	16514.82
534.52	16093.52
534.69	16678.66
534.86	16664.61
535.03	16563.97
535.20	16542.91
535.37	16592.06
535.54	16486.73
535.71	16556.95
535.88	16304.17
536.05	16521.84
536.22	16833.13
536.38	16528.86
536.55	16657.59
536.72	16720.79
536.89	16634.19
537.06	16659.93
537.23	16737.17
537.40	16606.10
537.57	16779.30
537.74	16926.75
537.91	16709.08
538.08	16924.41
538.25	16940.80
538.42	17041.44
538.59	16929.09
538.75	16863.56
538.92	17032.08
539.09	17188.89
539.26	17380.82
539.43	17074.21
539.60	17078.89
539.77	17294.22
539.94	17132.72
540.11	16992.29
540.28	17415.93
540.44	17268.47
540.61	17088.25
540.78	17483.80
540.95	17617.21
541.12	17692.11
541.29	17551.68
541.46	17495.50
541.62	17696.79
541.79	17755.30
541.96	17678.07
542.13	17664.02
542.30	17685.09
542.47	17877.01
542.63	18012.76
542.80	17752.96
542.97	18090.00
543.14	18178.94
543.31	18033.83
543.48	17930.84
543.64	18216.39
543.81	17893.40
543.98	18218.73
544.15	17572.74
544.32	17989.36
544.48	17944.89
544.65	18024.47
544.82	18209.37
544.99	17961.27
545.16	18106.38
545.32	17877.01
545.49	18429.38
545.66	19117.50
545.83	19077.71
546.00	19033.24
546.16	18604.92
546.33	18200.01
546.50	18108.72
546.67	18008.08
546.83	17853.61
547.00	18310.01
547.17	18157.88
547.34	18115.75
547.50	18022.12
547.67	18244.48
547.84	17916.80
548.00	18256.18
548.17	18045.53
548.34	18202.35
548.51	18029.15
548.67	18171.92
548.84	18302.99
549.01	18314.69
549.18	18293.63
549.34	18059.57
549.51	18169.58
549.68	18148.51
549.84	18176.60
550.01	18485.55
550.18	18478.53
550.34	18363.84
550.51	18157.88
550.68	18438.74
550.84	18068.94
551.01	18134.47
551.18	18537.04
551.34	17977.65
551.51	18361.50
551.68	18604.92
551.84	18324.05
552.01	18555.77
552.18	18359.16
552.34	18274.90
552.51	18506.62
552.68	18286.61
552.84	18398.95
553.01	18366.18
553.18	18403.63
553.34	18452.78
553.51	18403.63
553.67	18480.87
553.84	18604.92
554.01	18670.45
554.17	18408.31
554.34	18232.77
554.51	18429.38
554.67	18274.90
554.84	18661.09
555.00	18492.57
555.17	18291.29
555.33	18541.72
555.50	18602.58
555.67	18644.71
555.83	18401.29
556.00	18513.64
556.16	18789.82
556.33	18408.31
556.50	18530.02
556.66	18876.42
556.83	18244.48
556.99	18817.91
557.16	18920.89
557.32	18995.79
557.49	19131.54
557.65	18382.57
557.82	18637.69
557.98	18623.64
558.15	18677.48
558.32	18583.85
558.48	18609.60
558.65	19033.24
558.81	18506.62
558.98	18506.62
559.14	18504.28
559.31	18595.56
559.47	18682.16
559.64	19047.28
559.80	18541.72
559.97	18700.88
560.13	18735.99
560.30	18567.47
560.46	18911.53
560.63	18771.10
560.79	18956.00
560.96	18946.64
561.12	18764.07
561.29	18743.01
561.45	18661.09
561.61	18707.90
561.78	19002.81
561.94	18768.76
562.11	19122.18
562.27	18757.05
562.44	18853.02
562.60	18766.42
562.77	18654.07
562.93	18724.29
563.10	18946.64
563.26	18794.50
563.42	18984.09
563.59	18895.14
563.75	18848.33
563.92	18848.33
564.08	18916.21
564.24	18766.42
564.41	18970.04
564.57	19012.17
564.74	19009.83
564.90	18733.65
565.07	19075.37
565.23	19012.17
565.39	19068.34
565.56	19002.81
565.72	18918.55
565.88	18977.06
566.05	19073.03
566.21	19002.81
566.38	18712.58
566.54	18923.23
566.70	18864.72
566.87	18970.04
567.03	18750.03
567.19	19241.54
567.36	19012.17
567.52	18707.90
567.68	18850.67
567.85	18836.63
568.01	18867.06
568.17	18785.14
568.34	19103.45
568.50	18972.38
568.66	19269.63
568.83	19187.71
568.99	18953.66
569.15	19321.12
569.32	19098.77
569.48	19173.67
569.64	18836.63
569.81	19227.50
569.97	18864.72
570.13	18970.04
570.30	19056.64
570.46	19014.51
570.62	18841.31
570.78	18726.63
570.95	19021.53
571.11	19288.35
571.27	19066.00
571.43	18871.74
571.60	19124.52
571.76	18967.70
571.92	19363.25
572.09	19187.71
572.25	19316.44
572.41	19136.22
572.57	19227.50
572.74	19573.90
572.90	19115.16
573.06	19201.76
573.22	19314.10
573.38	19070.68
573.55	19007.49
573.71	19314.10
573.87	19049.62
574.03	19372.61
574.20	18963.02
574.36	19112.81
574.52	18981.74
574.68	18927.91
574.84	19047.28
575.01	18970.04
575.17	19246.23
575.33	19344.53
575.49	19033.24
575.65	19527.09
575.82	19309.42
575.98	18948.98
576.14	19290.70
576.30	19030.90
576.46	19470.92
576.62	19400.70
576.79	19318.78
576.95	19440.49
577.11	19143.24
577.27	18970.04
577.43	19393.68
577.59	19176.01
577.75	19428.79
577.92	19117.50
578.08	19115.16
578.24	19234.52
578.40	19138.56
578.56	19264.95
578.72	19466.24
578.88	19714.33
579.04	19489.64
579.21	19288.35
579.37	19590.28
579.53	19323.46
579.69	19131.54
579.85	19122.18
580.01	19410.06
580.17	19122.18
580.33	19005.15
580.49	19293.04
580.65	18918.55
580.82	19206.44
580.98	18995.79
581.14	19166.65
581.30	19316.44
581.46	19351.55
581.62	19044.94
581.78	19047.28
581.94	19138.56
582.10	18951.32
582.26	19234.52
582.42	19206.44
582.58	19557.52
582.74	19283.67
582.90	19103.45
583.06	19503.68
583.22	19473.26
583.38	19374.95
583.54	19407.72
583.70	19278.99
583.86	19372.61
584.02	19609.01
584.18	19365.59
584.34	19463.90
584.50	19754.12
584.66	19339.85
584.82	19194.73
584.98	19234.52
585.14	19419.42
585.30	19276.65
585.46	19201.76
585.62	19293.04
585.78	19316.44
585.94	19176.01
586.10	19426.45
586.26	19494.32
586.42	19798.59
586.58	19367.93
586.74	19433.47
586.90	19239.20
587.06	19051.96
587.22	19276.65
587.38	19227.50
587.54	19300.06
587.70	19321.12
587.86	19435.81
588.02	19531.77
588.18	19213.46
588.34	19662.84
588.49	19271.97
588.65	19063.66
588.81	19484.96
588.97	19227.50
589.13	19377.30
589.29	19241.54
589.45	19314.10
589.61	19407.72
589.77	19583.26
589.93	19271.97
590.08	19632.41
590.24	19372.61
590.40	19510.71
590.56	19417.08
590.72	19370.27
590.88	19089.41
591.04	19129.20
591.20	19150.26
591.35	19559.86
591.51	19473.26
591.67	19655.82
591.83	19604.33
591.99	19414.74
592.15	19543.47
592.31	19484.96
592.46	19637.09
592.62	19491.98
592.78	19300.06
592.94	19452.19
