SpectraSuite Data File
++++++++++++++++++++++++++++++++++++
Date: Fri Oct 04 11:39:41 GMT-05:00 2013
User: price-jones
Dark Spectrum Present: No
Reference Spectrum Present: No
Number of Sampled Component Spectra: 1
Spectrometers: USB2+H05261
Integration Time (usec): 100000 (USB2+H05261)
Spectra Averaged: 1 (USB2+H05261)
Boxcar Smoothing: 0 (USB2+H05261)
Correct for Electrical Dark: No (USB2+H05261)
Strobe/Lamp Enabled: No (USB2+H05261)
Correct for Detector Non-linearity: No (USB2+H05261)
Correct for Stray Light: No (USB2+H05261)
Number of Pixels in Processed Spectrum: 2048
>>>>>Begin Processed Spectral Data<<<<<
365.73	44.47
365.92	44.47
366.12	44.47
366.32	0.00
366.52	0.00
366.72	0.00
366.91	0.00
367.11	0.00
367.31	0.00
367.51	0.00
367.70	2.34
367.90	0.00
368.10	0.00
368.30	0.00
368.49	0.00
368.69	0.00
368.89	0.00
369.09	11.70
369.28	0.00
369.48	0.00
369.68	0.00
369.87	42.13
370.07	4.68
370.27	110.01
370.47	102.98
370.66	222.35
370.86	294.91
371.06	201.29
371.25	332.36
371.45	341.72
371.65	334.70
371.84	283.20
372.04	252.78
372.24	308.95
372.44	325.33
372.63	351.08
372.83	444.70
373.03	365.12
373.22	362.78
373.42	367.46
373.62	334.70
373.81	428.32
374.01	367.46
374.21	390.87
374.40	358.10
374.60	442.36
374.79	475.13
374.99	346.40
375.19	433.00
375.38	395.55
375.58	353.42
375.78	479.81
375.97	425.98
376.17	500.87
376.37	463.43
376.56	491.51
376.76	435.34
376.95	468.11
377.15	472.79
377.35	486.83
377.54	456.40
377.74	383.85
377.93	444.70
378.13	489.17
378.33	444.70
378.52	416.62
378.72	475.13
378.91	449.38
379.11	461.09
379.31	397.89
379.50	451.72
379.70	517.26
379.89	461.09
380.09	528.96
380.28	451.72
380.48	489.17
380.68	465.77
380.87	440.02
381.07	475.13
381.26	531.30
381.46	580.45
381.65	540.66
381.85	512.58
382.04	571.09
382.24	543.00
382.43	552.37
382.63	510.24
382.83	594.50
383.02	533.64
383.22	550.03
383.41	486.83
383.61	578.11
383.80	489.17
384.00	627.26
384.19	550.03
384.39	624.92
384.58	552.37
384.78	538.32
384.97	507.90
385.17	606.20
385.36	545.34
385.56	599.18
385.75	589.82
385.95	554.71
386.14	631.94
386.34	601.52
386.53	589.82
386.72	540.66
386.92	641.31
387.11	601.52
387.31	613.22
387.50	660.03
387.70	550.03
387.89	620.24
388.09	538.32
388.28	582.79
388.48	634.29
388.67	737.27
388.86	641.31
389.06	709.18
389.25	683.44
389.45	709.18
389.64	704.50
389.84	695.14
390.03	737.27
390.22	690.46
390.42	720.88
390.61	718.54
390.81	718.54
391.00	723.23
391.19	725.57
391.39	713.86
391.58	779.40
391.78	702.16
391.97	826.21
392.16	781.74
392.36	751.31
392.55	798.12
392.75	716.20
392.94	781.74
393.13	809.83
393.33	767.70
393.52	760.67
393.71	849.61
393.91	835.57
394.10	823.87
394.29	777.06
394.49	861.32
394.68	866.00
394.88	847.27
395.07	798.12
395.26	896.43
395.46	947.92
395.65	819.19
395.84	940.90
396.04	950.26
396.23	910.47
396.42	882.38
396.62	959.62
396.81	1057.92
397.00	1001.75
397.19	978.34
397.39	1001.75
397.58	990.05
397.77	954.94
397.97	1081.33
398.16	1116.44
398.35	1020.47
398.55	1100.05
398.74	1165.59
398.93	1102.39
399.12	1034.52
399.32	1041.54
399.51	1057.92
399.70	1167.93
399.90	1039.20
400.09	1050.90
400.28	1090.69
400.47	1081.33
400.67	1177.29
400.86	1156.22
401.05	1163.25
401.24	1214.74
401.44	1158.57
401.63	1331.76
401.82	1205.38
402.01	1231.12
402.21	1193.67
402.40	1345.81
402.59	1200.69
402.78	1289.64
402.97	1341.13
403.17	1275.59
403.36	1284.95
403.55	1387.94
403.74	1380.92
403.93	1444.11
404.13	1462.83
404.32	1495.60
404.51	1444.11
404.70	1486.24
404.89	1383.26
405.09	1591.56
405.28	1561.14
405.47	1516.67
405.66	1472.20
405.85	1568.16
406.05	1469.86
406.24	1420.71
406.43	1582.20
406.62	1621.99
406.81	1631.35
407.00	1652.42
407.20	1617.31
407.39	1661.78
407.58	1607.95
407.77	1668.80
407.96	1802.21
408.15	1636.03
408.34	1720.29
408.54	1626.67
408.73	1776.47
408.92	1799.87
409.11	1830.30
409.30	1827.96
409.49	1750.72
409.68	1823.28
409.87	1872.43
410.07	1893.49
410.26	2012.86
410.45	1935.62
410.64	1952.01
410.83	1968.39
411.02	1966.05
411.21	2139.25
411.40	2064.35
411.59	1994.14
411.78	2022.22
411.98	2062.01
412.17	2115.84
412.36	2172.02
412.55	2235.21
412.74	2293.72
412.93	2275.00
413.12	2183.72
413.31	2335.85
413.50	2352.24
413.69	2356.92
413.88	2312.45
414.07	2445.86
414.26	2392.03
414.45	2427.14
414.64	2345.22
414.83	2537.14
415.02	2586.29
415.22	2661.19
415.41	2658.85
415.60	2682.25
415.79	2647.15
415.98	2719.70
416.17	2766.51
416.36	2801.62
416.55	2689.28
416.74	2825.03
416.93	2764.17
417.12	2764.17
417.31	2902.26
417.50	2925.67
417.69	2881.20
417.88	3028.65
418.07	2963.12
418.26	2888.22
418.45	2928.01
418.64	3098.87
418.83	3145.68
419.02	3073.12
419.21	3133.98
419.39	3112.91
419.58	3187.81
419.77	3171.43
419.96	3243.98
420.15	3255.69
420.34	3112.91
420.53	3157.38
420.72	3241.64
420.91	3307.18
421.10	3363.35
421.29	3368.03
421.48	3199.51
421.67	3384.41
421.86	3358.67
422.05	3506.12
422.24	3307.18
422.43	3375.05
422.61	3412.50
422.80	3515.48
422.99	3480.38
423.18	3452.29
423.37	3520.17
423.56	3616.13
423.75	3438.25
423.94	3489.74
424.13	3197.17
424.32	3332.92
424.50	3559.95
424.69	3583.36
424.88	3702.73
425.07	3494.42
425.26	3557.61
425.45	3592.72
425.64	3672.30
425.83	3494.42
426.01	3667.62
426.20	3641.87
426.39	3590.38
426.58	3625.49
426.77	3510.80
426.96	3597.40
427.15	3557.61
427.33	3620.81
427.52	3747.20
427.71	3705.07
427.90	3798.69
428.09	3779.97
428.28	3817.41
428.46	3794.01
428.65	3791.67
428.84	3960.19
429.03	3817.41
429.22	3784.65
429.40	3967.21
429.59	3836.14
429.78	3765.92
429.97	3756.56
430.16	3847.84
430.34	3983.59
430.53	4025.72
430.72	3990.61
430.91	4032.74
431.10	3906.35
431.28	4079.55
431.47	4065.51
431.66	4210.62
431.85	4126.36
432.03	4299.56
432.22	4379.14
432.41	4203.60
432.60	4243.39
432.79	4285.52
432.97	4227.01
433.16	4257.43
433.35	4224.67
433.54	4252.75
433.72	4447.02
433.91	4493.83
434.10	4376.80
434.28	4372.12
434.47	4638.94
434.66	4500.85
434.85	4629.58
435.03	4564.04
435.22	4631.92
435.41	4830.87
435.59	4851.93
435.78	4662.35
435.97	4702.14
436.16	4650.64
436.34	4622.56
436.53	4681.07
436.72	4821.50
436.90	4575.75
437.09	4676.39
437.28	4744.27
437.46	4723.20
437.65	4847.25
437.84	4744.27
438.02	4854.27
438.21	4889.38
438.40	4835.55
438.58	5144.50
438.77	5060.24
438.96	5111.73
439.14	5048.54
439.33	5165.56
439.52	5102.37
439.70	5090.67
439.89	5177.26
440.08	5151.52
440.26	5221.74
440.45	5172.58
440.63	5455.79
440.82	5413.66
441.01	5371.53
441.19	5598.56
441.38	5582.18
441.57	5490.90
441.75	5591.54
441.94	5589.20
442.12	5640.69
442.31	5799.85
442.50	5692.18
442.68	5860.70
442.87	5785.80
443.05	5750.70
443.24	5902.83
443.43	5802.19
443.61	5865.38
443.80	5963.68
443.98	5657.07
444.17	5736.65
444.35	5921.56
444.54	6012.84
444.73	5914.53
444.91	5923.90
445.10	5968.37
445.28	5914.53
445.47	5771.76
445.65	5788.14
445.84	6127.52
446.02	6085.39
446.21	5921.56
446.39	5874.74
446.58	6003.47
446.77	6026.88
446.95	5898.15
447.14	6017.52
447.32	6186.04
447.51	6015.18
447.69	6221.14
447.88	6157.95
448.06	6083.05
448.25	6113.48
448.43	6193.06
448.62	5909.85
448.80	6015.18
448.99	6085.39
449.17	6289.02
449.36	6085.39
449.54	6225.82
449.73	6375.62
449.91	6363.92
450.10	6366.26
450.28	6310.08
450.46	6370.94
450.65	6459.88
450.83	6471.58
451.02	6408.39
451.20	6579.25
451.39	6705.63
451.57	6513.71
451.76	6420.09
451.94	6452.86
452.13	6801.60
452.31	6628.40
452.49	6612.01
452.68	6827.34
452.86	6789.89
453.05	6829.68
453.23	6736.06
453.42	6595.63
453.60	6637.76
453.78	6773.51
453.97	6604.99
454.15	6724.36
454.34	6717.34
454.52	6899.90
454.70	6918.62
454.89	6853.09
455.07	6841.39
455.26	6937.35
455.44	6963.09
455.62	6897.56
455.81	6904.58
455.99	7080.12
456.17	7398.43
456.36	7199.49
456.54	7206.51
456.73	7215.87
456.91	7431.20
457.09	7309.49
457.28	7468.65
457.46	7424.18
457.64	7433.54
457.83	7227.57
458.01	7372.69
458.19	7475.67
458.38	7342.26
458.56	7510.78
458.74	7562.27
458.93	7445.24
459.11	7473.33
459.29	7482.69
459.48	7552.91
459.66	7683.98
459.84	7709.72
460.03	7691.00
460.21	7840.79
460.39	7859.52
460.57	7702.70
460.76	7819.73
460.94	7953.14
461.12	7829.09
461.31	7836.11
461.49	7875.90
461.67	7859.52
461.85	7992.93
462.04	8145.06
462.22	8592.11
462.40	8152.09
462.59	8215.28
462.77	7990.59
462.95	8077.19
463.13	8184.85
463.32	8299.54
463.50	8290.18
463.68	8161.45
463.86	8273.79
464.05	8252.73
464.23	8154.43
464.41	8292.52
464.59	8318.26
464.78	8458.70
464.96	8287.84
465.14	8166.13
465.32	8393.16
465.50	8524.23
465.69	8414.23
465.87	8341.67
466.05	8547.64
466.23	8505.51
466.41	8664.66
466.60	9041.49
466.78	8519.55
466.96	8702.11
467.14	8564.02
467.32	8690.41
467.51	8997.02
467.69	8641.26
467.87	8723.18
468.05	8697.43
468.23	8704.45
468.41	8727.86
468.60	8786.37
468.78	9118.73
468.96	8898.72
469.14	9050.85
469.32	8901.06
469.50	8856.59
469.69	9254.48
469.87	9114.05
470.05	9238.09
470.23	9312.99
470.41	8994.68
470.59	9476.83
470.77	9177.24
470.95	9238.09
471.14	9221.71
471.32	9249.80
471.50	9635.99
471.68	9521.30
471.86	9561.09
472.04	9774.08
472.22	9856.00
472.40	9427.68
472.58	9774.08
472.77	9671.09
472.95	9809.19
473.13	10052.60
473.31	9884.08
473.49	9937.91
473.67	9900.47
473.85	9926.21
474.03	10101.75
474.21	10005.79
474.39	10300.70
474.57	10017.49
474.75	10406.02
474.93	10527.73
475.12	10125.16
475.30	10443.47
475.48	10438.79
475.66	10569.86
475.84	10635.39
476.02	10817.96
476.20	10846.04
476.38	10993.50
476.56	10913.92
476.74	11073.07
476.92	11159.67
477.10	10946.69
477.28	11356.28
477.46	11005.20
477.64	11236.91
477.82	11339.90
478.00	11651.19
478.18	11721.40
478.36	11550.54
478.54	11892.26
478.72	11960.14
478.90	12023.33
479.08	12226.96
479.26	12358.03
479.44	12461.01
479.62	12217.60
479.80	12376.75
479.98	12458.67
480.16	12725.49
480.34	12627.19
480.52	12566.34
480.70	12681.02
480.88	12692.73
481.06	12936.14
481.24	13076.57
481.41	13366.80
481.59	13165.51
481.77	13593.83
481.95	13582.13
482.13	13612.56
482.31	13727.24
482.49	13937.89
482.67	13982.36
482.85	14204.71
483.03	14396.64
483.21	14530.05
483.39	14750.06
483.57	14314.72
483.74	14511.32
483.92	14848.36
484.10	14757.08
484.28	15080.07
484.46	15232.21
484.64	15445.20
484.82	15084.75
485.00	15321.15
485.18	15737.76
485.35	15714.36
485.53	15903.94
485.71	15571.58
485.89	16397.79
486.07	16229.27
486.25	16058.42
486.43	16353.32
486.61	16549.93
486.78	16884.62
486.96	16669.30
487.14	17296.56
487.32	17003.99
487.50	17076.55
487.68	17151.45
487.85	17420.61
488.03	17582.10
488.21	17579.76
488.39	17954.25
488.57	17729.56
488.75	17987.02
488.92	18450.44
489.10	18356.82
489.28	18480.87
489.46	18431.72
489.64	18396.61
489.81	18911.53
489.99	19091.75
490.17	18946.64
490.35	19126.86
490.53	19431.13
490.70	19702.63
490.88	19290.70
491.06	19644.12
491.24	19510.71
491.41	19630.07
491.59	20187.12
491.77	19922.64
491.95	20423.51
492.13	20645.87
492.30	20561.61
492.48	20428.20
492.66	20549.90
492.84	20805.02
493.01	21027.37
493.19	21184.19
493.37	21025.03
493.54	21268.45
493.72	21429.94
493.90	21565.70
494.08	21748.26
494.25	21858.26
494.43	22207.00
494.61	22235.09
494.79	22405.95
494.96	22422.33
495.14	22352.12
495.32	22773.41
495.49	22513.61
495.67	22635.32
495.85	22967.68
496.02	23208.75
496.20	23283.65
496.38	23316.42
496.55	23068.32
496.73	23838.36
496.91	23452.17
497.09	23800.91
497.26	24107.52
497.44	23826.65
497.62	24161.35
497.79	24435.19
497.97	24489.03
498.14	24559.24
498.32	24737.12
498.50	24842.45
498.67	24999.26
498.85	25025.01
499.03	25338.64
499.20	24924.36
499.38	25118.63
499.56	25366.73
499.73	25591.42
499.91	25355.02
500.08	25579.71
500.26	25429.92
500.44	25846.54
500.61	25731.85
500.79	25998.67
500.97	26118.04
501.14	26204.64
501.32	25991.65
501.49	26499.55
501.67	26455.08
501.84	26551.04
502.02	26396.56
502.20	26778.07
502.37	27080.00
502.55	27054.25
502.72	27187.66
502.90	27021.48
503.07	26998.08
503.25	27089.36
503.43	27199.37
503.60	27185.32
503.78	27683.86
503.95	27391.29
504.13	27505.98
504.30	27901.53
504.48	27388.95
504.65	27793.86
504.83	28166.01
505.01	28217.50
505.18	28240.90
505.36	28439.85
505.53	28280.69
505.71	28250.27
505.88	28388.36
506.06	28320.48
506.23	28556.88
506.41	28533.47
506.58	28826.04
506.76	28760.50
506.93	28924.34
507.11	28786.25
507.28	28968.81
507.46	29106.90
507.63	29429.90
507.81	29663.95
507.98	29310.53
508.16	29427.56
508.33	29563.31
508.50	29553.94
508.68	29710.76
508.85	30148.44
509.03	29888.64
509.20	29788.00
509.38	30485.48
509.55	30579.10
509.73	30183.55
509.90	30333.34
510.08	30621.23
510.25	30408.24
510.42	30646.97
510.60	30941.88
510.77	31021.46
510.95	30937.20
511.12	30773.36
511.30	30958.27
511.47	31023.80
511.64	31192.32
511.82	31747.03
511.99	31133.81
512.17	31550.42
512.34	31597.23
512.51	31945.97
512.69	31583.19
512.86	31449.78
513.04	32215.13
513.21	32137.90
513.38	31945.97
513.56	32308.76
513.73	32079.38
513.90	32266.63
514.08	32325.14
514.25	32563.87
514.43	32699.62
514.60	32439.82
514.77	32584.94
514.95	32622.39
515.12	32610.68
515.29	32510.04
515.47	32807.29
515.64	33481.36
515.81	33085.81
515.99	33577.33
516.16	33497.75
516.33	33773.93
516.51	33811.38
516.68	33436.89
516.85	33626.48
517.03	33979.90
517.20	33928.41
517.37	33944.79
517.54	33865.21
517.72	33874.57
517.89	33642.86
518.06	33937.77
518.24	34148.42
518.41	34183.52
518.58	34080.54
518.75	34220.97
518.93	34295.87
519.10	34630.57
519.27	34684.40
519.45	34597.80
519.62	34677.38
519.79	34548.65
519.96	34515.88
520.14	35079.95
520.31	34827.17
520.48	35449.75
520.65	35204.00
520.83	35229.74
521.00	35297.62
521.17	34951.22
521.34	35243.79
521.52	35196.98
521.69	35360.81
521.86	35828.92
522.03	36435.12
522.20	35952.97
522.38	35475.50
522.55	35686.15
522.72	35915.52
522.89	35920.20
523.07	36432.78
523.24	36048.93
523.41	36514.70
523.58	35807.86
523.75	36540.44
523.92	36779.18
524.10	36608.32
524.27	36788.54
524.44	36650.45
524.61	37043.66
524.78	36886.84
524.96	36875.14
525.13	37034.30
525.30	37104.51
525.47	36914.93
525.64	37177.07
525.81	36931.31
525.98	37530.49
526.16	37691.99
526.33	37383.04
526.50	37385.38
526.67	37046.00
526.84	37310.48
527.01	37757.52
527.18	37202.82
527.36	38068.81
527.53	37944.76
527.70	38309.89
527.87	38061.79
528.04	37589.00
528.21	38300.53
528.38	37949.45
528.55	38146.05
528.72	38146.05
528.89	38092.22
529.07	38754.59
529.24	38384.79
529.41	38239.67
529.58	38218.61
529.75	38270.10
529.92	38656.29
530.09	38672.67
530.26	38527.56
530.43	38501.81
530.60	38281.80
530.77	38738.21
530.94	38955.88
531.11	38845.87
531.28	38696.08
531.46	39159.50
531.63	39168.87
531.80	38993.32
531.97	39475.48
532.14	39306.96
532.31	39222.70
532.48	39367.81
532.65	39154.82
532.82	38937.15
532.99	39257.81
533.16	39477.82
533.33	39580.80
533.50	39931.88
533.67	39770.38
533.84	39466.11
534.01	39714.21
534.18	39290.57
534.35	40067.63
534.52	39667.40
534.69	40439.78
534.86	40175.30
535.03	39880.39
535.20	39934.22
535.37	40273.60
535.54	40187.00
535.71	40521.69
535.88	40369.56
536.05	40444.46
536.22	40629.36
536.38	40926.61
536.55	40753.41
536.72	40474.88
536.89	40542.76
537.06	40957.03
537.23	40797.88
537.40	41062.36
537.57	40800.22
537.74	40872.78
537.91	41298.75
538.08	40610.64
538.25	40732.34
538.42	40938.31
538.59	41071.72
538.75	41263.64
538.92	41308.11
539.09	41577.28
539.26	41420.46
539.43	40847.03
539.60	41715.37
539.77	41677.92
539.94	41738.77
540.11	41525.78
540.28	41670.90
540.44	41584.30
540.61	41848.78
540.78	41888.57
540.95	41956.44
541.12	41420.46
541.29	42384.76
541.46	42148.37
541.62	42113.26
541.79	42162.41
541.96	41900.27
542.13	41928.36
542.30	41993.89
542.47	42499.45
542.63	42389.44
542.80	42801.38
542.97	42658.60
543.14	42850.53
543.31	42878.61
543.48	42387.10
543.64	43297.57
543.81	43414.60
543.98	43124.37
544.15	43016.71
544.32	43510.56
544.48	43606.52
544.65	42948.83
544.82	43201.61
544.99	42866.91
545.16	43145.44
545.32	43199.27
545.49	43746.95
545.66	43997.39
545.83	44268.89
546.00	44299.32
546.16	43571.41
546.33	43540.99
546.50	42649.24
546.67	43737.59
546.83	43220.33
547.00	43473.11
547.17	43360.76
547.34	43583.12
547.50	43629.93
547.67	43854.62
547.84	43723.55
548.00	43629.93
548.17	43761.00
548.34	43777.38
548.51	44100.37
548.67	43917.81
548.84	43655.67
549.01	43831.21
549.18	43938.88
549.34	43573.75
549.51	43817.17
549.68	44065.27
549.84	43770.36
550.01	44355.49
550.18	44201.02
550.34	44044.20
550.51	44306.34
550.68	44079.31
550.84	44058.24
551.01	44500.61
551.18	44126.12
551.34	43854.62
551.51	44147.18
551.68	44088.67
551.84	44516.99
552.01	44140.16
552.18	44484.22
552.34	44282.94
552.51	44247.83
552.68	44215.06
552.84	44465.50
553.01	44395.28
553.18	44568.48
553.34	44353.15
553.51	44479.54
553.67	44685.51
553.84	44966.37
554.01	44678.49
554.17	44505.29
554.34	44465.50
554.51	44257.19
554.67	45106.80
554.84	45024.89
555.00	45148.93
555.17	44587.21
555.33	44795.51
555.50	44774.45
555.67	44790.83
555.83	45244.90
556.00	45069.36
556.16	44959.35
556.33	44666.78
556.50	44793.17
556.66	45036.59
556.83	45008.50
556.99	45577.25
557.16	45368.94
557.32	45113.83
557.49	44935.95
557.65	44994.46
557.82	44811.90
557.98	45422.78
558.15	44711.25
558.32	45612.36
558.48	45340.86
558.65	45244.90
558.81	45612.36
558.98	45069.36
559.14	45717.68
559.31	45081.06
559.47	45432.14
559.64	45415.76
559.80	45249.58
559.97	45790.24
560.13	45432.14
560.30	45464.91
560.46	45254.26
560.63	45689.60
560.79	44987.44
560.96	45818.33
561.12	45289.37
561.29	45247.24
561.45	45455.54
561.61	45872.16
561.78	45425.12
561.94	45649.81
562.11	45621.72
562.27	45886.20
562.44	45413.41
562.60	45343.20
562.77	46019.61
562.93	45687.26
563.10	45722.37
563.26	45724.71
563.42	46167.07
563.59	45567.89
563.75	45848.75
563.92	45907.27
564.08	45949.40
564.24	45654.49
564.41	45420.44
564.57	45701.30
564.74	45598.32
564.90	45546.82
565.07	45579.59
565.23	45652.15
565.39	45823.01
565.56	45675.55
565.72	45708.32
565.88	45684.92
566.05	45839.39
566.21	45624.06
566.38	45713.00
566.54	46305.16
566.70	46202.18
566.87	46190.47
567.03	45422.78
567.19	46422.19
567.36	45766.84
567.52	45804.28
567.68	45977.48
567.85	45762.15
568.01	45851.09
568.17	45752.79
568.34	46068.76
568.50	46443.25
568.66	46075.79
568.83	46452.61
568.99	45581.93
569.15	45792.58
569.32	45851.09
569.48	45741.09
569.64	45921.31
569.81	45890.88
569.97	46080.47
570.13	45911.95
570.30	45860.46
570.46	46522.83
570.62	45942.38
570.78	45933.01
570.95	45942.38
571.11	45813.65
571.27	45869.82
571.43	46045.36
571.60	46057.06
571.76	46021.95
571.92	46366.01
572.09	46225.58
572.25	46043.02
572.41	46225.58
572.57	45893.22
572.74	46110.89
572.90	46218.56
573.06	45965.78
573.22	45848.75
573.38	45970.46
573.55	46176.43
573.71	46274.73
573.87	46342.61
574.03	46277.07
574.20	46220.90
574.36	46146.00
574.52	46000.89
574.68	45862.80
574.84	46155.36
575.01	46410.48
575.17	46333.24
575.33	45865.14
575.49	45755.13
575.65	46513.47
575.82	46358.99
575.98	45993.87
576.14	46050.04
576.30	46181.11
576.46	46136.64
576.62	45893.22
576.79	46141.32
576.95	46117.92
577.11	46160.05
577.27	46162.39
577.43	45883.86
577.59	46270.05
577.75	46174.09
577.92	45787.90
578.08	45996.21
578.24	45935.35
578.40	46415.16
578.56	46071.10
578.72	46284.09
578.88	46515.81
579.04	46639.86
579.21	46333.24
579.37	46351.97
579.53	46127.28
579.69	46103.87
579.85	46141.32
580.01	46490.06
580.17	46174.09
580.33	46141.32
580.49	46024.29
580.65	46375.37
580.82	46405.80
580.98	46153.02
581.14	46181.11
581.30	46564.96
581.46	46169.41
581.62	46171.75
581.78	46127.28
581.94	46323.88
582.10	45958.76
582.26	46108.55
582.42	46199.83
582.58	46497.08
582.74	46038.34
582.90	46033.66
583.06	46412.82
583.22	46412.82
583.38	46487.72
583.54	46267.71
583.70	46181.11
583.86	46340.27
584.02	46185.79
584.18	46377.72
584.34	46543.89
584.50	46302.82
584.66	46426.87
584.82	46019.61
584.98	46424.53
585.14	46007.91
585.30	45935.35
585.46	46213.88
585.62	46040.68
585.78	46309.84
585.94	45832.37
586.10	46586.02
586.26	46403.46
586.42	46653.90
586.58	46595.38
586.74	46244.30
586.90	45855.78
587.06	46110.89
587.22	46803.69
587.38	46347.29
587.54	46480.70
587.70	46164.73
587.86	46780.29
588.02	46483.04
588.18	46916.04
588.34	46639.86
588.49	46630.49
588.65	46085.15
588.81	46574.32
588.97	46003.23
589.13	46405.80
589.29	46101.53
589.45	46569.64
589.61	46146.00
589.77	46714.75
589.93	46485.38
590.08	46707.73
590.24	46733.48
590.40	46553.26
590.56	47019.02
