SpectraSuite Data File
++++++++++++++++++++++++++++++++++++
Date: Fri Oct 04 11:39:13 GMT-05:00 2013
User: price-jones
Dark Spectrum Present: No
Reference Spectrum Present: No
Number of Sampled Component Spectra: 1
Spectrometers: USB2+H05261
Integration Time (usec): 100000 (USB2+H05261)
Spectra Averaged: 1 (USB2+H05261)
Boxcar Smoothing: 0 (USB2+H05261)
Correct for Electrical Dark: No (USB2+H05261)
Strobe/Lamp Enabled: No (USB2+H05261)
Correct for Detector Non-linearity: No (USB2+H05261)
Correct for Stray Light: No (USB2+H05261)
Number of Pixels in Processed Spectrum: 2048
>>>>>Begin Processed Spectral Data<<<<<
365.73	72.56
365.92	72.56
366.12	72.56
366.32	0.00
366.52	0.00
366.72	67.88
366.91	0.00
367.11	16.38
367.31	0.00
367.51	0.00
367.70	0.00
367.90	2.34
368.10	0.00
368.30	0.00
368.49	0.00
368.69	0.00
368.89	35.11
369.09	0.00
369.28	4.68
369.48	0.00
369.68	0.00
369.87	0.00
370.07	0.00
370.27	32.77
370.47	30.43
370.66	110.01
370.86	124.05
371.06	191.92
371.25	301.93
371.45	187.24
371.65	182.56
371.84	201.29
372.04	238.73
372.24	138.09
372.44	189.58
372.63	264.48
372.83	231.71
373.03	220.01
373.22	168.52
373.42	210.65
373.62	212.99
373.81	187.24
374.01	182.56
374.21	313.63
374.40	236.39
374.60	325.33
374.79	217.67
374.99	339.38
375.19	318.31
375.38	238.73
375.58	341.72
375.78	266.82
375.97	280.86
376.17	252.78
376.37	283.20
376.56	252.78
376.76	266.82
376.95	205.97
377.15	220.01
377.35	222.35
377.54	236.39
377.74	245.76
377.93	271.50
378.13	280.86
378.33	285.55
378.52	245.76
378.72	252.78
378.91	308.95
379.11	290.23
379.31	264.48
379.50	294.91
379.70	318.31
379.89	299.59
380.09	264.48
380.28	337.04
380.48	369.80
380.68	346.40
380.87	276.18
381.07	320.65
381.26	381.51
381.46	280.86
381.65	280.86
381.85	297.25
382.04	248.10
382.24	332.36
382.43	304.27
382.63	177.88
382.83	301.93
383.02	259.80
383.22	341.72
383.41	339.38
383.61	248.10
383.80	351.08
384.00	252.78
384.19	388.53
384.39	280.86
384.58	322.99
384.78	341.72
384.97	386.19
385.17	416.62
385.36	341.72
385.56	367.46
385.75	306.61
385.95	318.31
386.14	355.76
386.34	301.93
386.53	376.83
386.72	327.68
386.92	327.68
387.11	330.02
387.31	283.20
387.50	360.44
387.70	339.38
387.89	330.02
388.09	362.78
388.28	327.68
388.48	367.46
388.67	461.09
388.86	348.74
389.06	425.98
389.25	372.15
389.45	402.57
389.64	304.27
389.84	397.89
390.03	381.51
390.22	454.06
390.42	386.19
390.61	351.08
390.81	283.20
391.00	423.64
391.19	388.53
391.39	416.62
391.58	374.49
391.78	409.59
391.97	397.89
392.16	423.64
392.36	447.04
392.55	407.25
392.75	433.00
392.94	372.15
393.13	421.30
393.33	383.85
393.52	402.57
393.71	407.25
393.91	409.59
394.10	383.85
394.29	503.22
394.49	444.70
394.68	374.49
394.88	428.32
395.07	479.81
395.26	430.66
395.46	533.64
395.65	484.49
395.84	425.98
396.04	545.34
396.23	463.43
396.42	482.15
396.62	493.85
396.81	475.13
397.00	575.77
397.19	514.92
397.39	528.96
397.58	503.22
397.77	496.19
397.97	447.04
398.16	496.19
398.35	510.24
398.55	524.28
398.74	587.47
398.93	564.07
399.12	540.66
399.32	524.28
399.51	608.54
399.70	580.45
399.90	564.07
400.09	645.99
400.28	547.69
400.47	514.92
400.67	575.77
400.86	589.82
401.05	650.67
401.24	613.22
401.44	650.67
401.63	531.30
401.82	606.20
402.01	582.79
402.21	622.58
402.40	655.35
402.59	667.05
402.78	615.56
402.97	624.92
403.17	716.20
403.36	631.94
403.55	711.52
403.74	669.39
403.93	711.52
404.13	767.70
404.32	690.46
404.51	657.69
404.70	753.65
404.89	751.31
405.09	774.72
405.28	727.91
405.47	692.80
405.66	781.74
405.85	734.93
406.05	594.50
406.24	674.07
406.43	723.23
406.62	737.27
406.81	732.59
407.00	760.67
407.20	798.12
407.39	741.95
407.58	812.17
407.77	758.33
407.96	809.83
408.15	805.14
408.34	784.08
408.54	837.91
408.73	826.21
408.92	802.80
409.11	924.51
409.30	887.06
409.49	830.89
409.68	828.55
409.87	833.23
410.07	866.00
410.26	912.81
410.45	931.53
410.64	896.43
410.83	919.83
411.02	866.00
411.21	830.89
411.40	898.77
411.59	947.92
411.78	912.81
411.98	945.58
412.17	1008.77
412.36	1001.75
412.55	987.71
412.74	985.37
412.93	994.73
413.12	983.02
413.31	1027.50
413.50	1109.41
413.69	1060.26
413.88	1088.35
414.07	1008.77
414.26	1160.91
414.45	1111.75
414.64	1067.28
414.83	1163.25
415.02	1111.75
415.22	1158.57
415.41	1123.46
415.60	1118.78
415.79	1142.18
415.98	1172.61
416.17	1186.65
416.36	1207.72
416.55	1233.46
416.74	1284.95
416.93	1203.04
417.12	1270.91
417.31	1224.10
417.50	1235.80
417.69	1334.11
417.88	1324.74
418.07	1196.01
418.26	1287.29
418.45	1338.79
418.64	1390.28
418.83	1348.15
419.02	1413.68
419.21	1350.49
419.39	1425.39
419.58	1362.19
419.77	1420.71
419.96	1373.89
420.15	1366.87
420.34	1338.79
420.53	1441.77
420.72	1430.07
420.91	1432.41
421.10	1472.20
421.29	1446.45
421.48	1451.13
421.67	1486.24
421.86	1483.90
422.05	1514.33
422.24	1437.09
422.43	1488.58
422.61	1579.86
422.80	1542.41
422.99	1542.41
423.18	1540.07
423.37	1504.96
423.56	1575.18
423.75	1533.05
423.94	1373.89
424.13	1451.13
424.32	1418.36
424.50	1537.73
424.69	1549.43
424.88	1540.07
425.07	1448.79
425.26	1481.56
425.45	1502.62
425.64	1460.49
425.83	1526.03
426.01	1533.05
426.20	1427.73
426.39	1439.43
426.58	1540.07
426.77	1619.65
426.96	1652.42
427.15	1509.65
427.33	1647.74
427.52	1516.67
427.71	1526.03
427.90	1584.54
428.09	1561.14
428.28	1600.93
428.46	1652.42
428.65	1636.03
428.84	1659.44
429.03	1685.19
429.22	1607.95
429.40	1652.42
429.59	1657.10
429.78	1617.31
429.97	1612.63
430.16	1586.88
430.34	1739.02
430.53	1664.12
430.72	1659.44
430.91	1643.06
431.10	1657.10
431.28	1750.72
431.47	1790.51
431.66	1837.32
431.85	1750.72
432.03	1797.53
432.22	1959.03
432.41	1849.02
432.60	1825.62
432.79	1860.73
432.97	1781.15
433.16	1652.42
433.35	1788.17
433.54	1863.07
433.72	1830.30
433.91	1863.07
434.10	1771.79
434.28	1888.81
434.47	1926.26
434.66	1947.33
434.85	1886.47
435.03	1926.26
435.22	2036.27
435.41	2314.79
435.59	2155.63
435.78	2169.68
435.97	2115.84
436.16	2005.84
436.34	1987.11
436.53	2036.27
436.72	2071.37
436.90	2024.56
437.09	2008.18
437.28	1902.86
437.46	2031.58
437.65	2106.48
437.84	2057.33
438.02	2059.67
438.21	2097.12
438.40	2087.76
438.58	2071.37
438.77	2080.74
438.96	2218.83
439.14	2214.15
439.33	2134.57
439.52	2172.02
439.70	2221.17
439.89	2249.25
440.08	2225.85
440.26	2165.00
440.45	2167.34
440.63	2129.89
440.82	2256.28
441.01	2333.51
441.19	2270.32
441.38	2284.36
441.57	2303.09
441.75	2223.51
441.94	2448.20
442.12	2368.62
442.31	2483.31
442.50	2455.22
442.68	2263.30
442.87	2406.07
443.05	2420.11
443.24	2558.21
443.43	2401.39
443.61	2485.65
443.80	2490.33
443.98	2373.30
444.17	2436.50
444.35	2487.99
444.54	2480.97
444.73	2520.76
444.91	2429.48
445.10	2420.11
445.28	2464.58
445.47	2516.08
445.65	2464.58
445.84	2466.92
446.02	2431.82
446.21	2518.42
446.39	2597.99
446.58	2462.24
446.77	2502.03
446.95	2354.58
447.14	2548.84
447.32	2527.78
447.51	2492.67
447.69	2644.81
447.88	2469.27
448.06	2682.25
448.25	2450.54
448.43	2516.08
448.62	2518.42
448.80	2693.96
448.99	2775.88
449.17	2630.76
449.36	2630.76
449.54	2593.31
449.73	2600.34
449.91	2712.68
450.10	2644.81
450.28	2841.41
450.46	2722.04
450.65	2747.79
450.83	2621.40
451.02	2733.75
451.20	2773.53
451.39	2710.34
451.57	2693.96
451.76	2686.94
451.94	2787.58
452.13	2782.90
452.31	2764.17
452.49	2684.59
452.68	2761.83
452.86	2757.15
453.05	2829.71
453.23	2846.09
453.42	2846.09
453.60	2796.94
453.78	2698.64
453.97	2745.45
454.15	2906.95
454.34	2853.11
454.52	2808.64
454.70	2885.88
454.89	2930.35
455.07	2874.18
455.26	2953.76
455.44	2864.82
455.62	3030.99
455.81	2918.65
455.99	3005.25
456.17	3023.97
456.36	2916.31
456.54	3035.67
456.73	2974.82
456.91	3070.78
457.09	3110.57
457.28	3176.11
457.46	3014.61
457.64	3091.85
457.83	3138.66
458.01	3124.62
458.19	3152.70
458.38	3108.23
458.56	3243.98
458.74	3232.28
458.93	3213.56
459.11	3169.09
459.29	3084.83
459.48	3218.24
459.66	3304.84
459.84	3372.71
460.03	3251.00
460.21	3243.98
460.39	3192.49
460.57	3267.39
460.76	3229.94
460.94	3337.60
461.12	3222.92
461.31	3353.99
461.49	3213.56
461.67	3267.39
461.85	3330.58
462.04	3337.60
462.22	3466.33
462.40	3337.60
462.59	3386.76
462.77	3412.50
462.95	3295.47
463.13	3384.41
463.32	3452.29
463.50	3375.05
463.68	3473.36
463.86	3349.31
464.05	3386.76
464.23	3482.72
464.41	3536.55
464.59	3426.54
464.78	3684.00
464.96	3447.61
465.14	3370.37
465.32	3435.91
465.50	3609.11
465.69	3595.06
465.87	3471.01
466.05	3599.74
466.23	3478.04
466.41	3606.77
466.60	3475.70
466.78	3431.23
466.96	3662.94
467.14	3604.42
467.32	3578.68
467.51	3620.81
467.69	3644.21
467.87	3758.90
468.05	3681.66
468.23	3487.40
468.41	3569.32
468.60	3557.61
468.78	3665.28
468.96	3651.24
469.14	3744.86
469.32	3803.37
469.50	3597.40
469.69	3850.18
469.87	3772.94
470.05	3796.35
470.23	3875.93
470.41	3831.46
470.59	3894.65
470.77	3854.86
470.95	3808.05
471.14	3927.42
471.32	3875.93
471.50	3899.33
471.68	4002.32
471.86	3932.10
472.04	3985.93
472.22	4175.52
472.40	3936.78
472.58	4156.79
472.77	4039.76
472.95	4184.88
473.13	4119.34
473.31	4021.04
473.49	4112.32
473.67	4114.66
473.85	4124.02
474.03	4283.18
474.21	4060.83
474.39	4126.36
474.57	4196.58
474.75	4109.98
474.93	4189.56
475.12	4365.10
475.30	4355.74
475.48	4222.33
475.66	4461.06
475.84	4332.33
476.02	4430.63
476.20	4505.53
476.38	4470.42
476.56	4622.56
476.74	4542.98
476.92	4624.90
477.10	4683.41
477.28	4826.18
477.46	4674.05
477.64	4741.93
477.82	4915.12
478.00	4844.91
478.18	4950.23
478.36	4877.68
478.54	4908.10
478.72	5039.17
478.90	4842.57
479.08	5032.15
479.26	4992.36
479.44	5104.71
479.62	5069.60
479.80	5111.73
479.98	5093.01
480.16	5373.87
480.34	5153.86
480.52	5341.10
480.70	5256.84
480.88	5254.50
481.06	5256.84
481.24	5472.17
481.41	5425.36
481.59	5624.31
481.77	5565.79
481.95	5600.90
482.13	5547.07
482.31	5561.11
482.49	5856.02
482.67	5727.29
482.85	5886.45
483.03	5891.13
483.21	5949.64
483.39	5970.71
483.57	6061.99
483.74	6104.12
483.92	6057.31
484.10	6183.70
484.28	6171.99
484.46	6246.89
484.64	6452.86
484.82	6370.94
485.00	6328.81
485.18	6441.15
485.35	6642.44
485.53	6574.56
485.71	6637.76
485.89	6546.48
486.07	6377.96
486.25	6551.16
486.43	6768.83
486.61	6867.13
486.78	6956.07
486.96	6881.18
487.14	7218.21
487.32	6939.69
487.50	6927.99
487.68	7122.25
487.85	7232.26
488.03	7215.87
488.21	7529.50
488.39	7091.82
488.57	7344.60
488.75	7349.28
488.92	7637.17
489.10	7595.04
489.28	7709.72
489.46	7763.56
489.64	7414.82
489.81	7836.11
489.99	7700.36
490.17	7538.87
490.35	8051.44
490.53	7948.46
490.70	7960.16
490.88	8079.53
491.06	7976.55
491.24	8402.52
491.41	8182.51
491.59	8140.38
491.77	8306.56
491.95	8388.48
492.13	8437.63
492.30	8365.07
492.48	8325.29
492.66	8273.79
492.84	8484.44
493.01	8812.12
493.19	8631.90
493.37	8842.54
493.54	8769.99
493.72	8936.17
493.90	8732.54
494.08	8802.75
494.25	9057.87
494.43	9100.00
494.61	9064.89
494.79	9165.54
494.96	9029.79
495.14	9170.22
495.32	9327.03
495.49	9322.35
495.67	9423.00
495.85	9273.20
496.02	9476.83
496.20	9806.84
496.38	9645.35
496.55	9689.82
496.73	9703.86
496.91	9727.27
497.09	9755.35
497.26	9767.06
497.44	9858.34
497.62	9778.76
497.79	9760.03
497.97	9781.10
498.14	9893.44
498.32	10022.17
498.50	10160.27
498.67	10052.60
498.85	10340.49
499.03	10071.33
499.20	10310.06
499.38	10146.22
499.56	10274.95
499.73	10331.12
499.91	10391.98
500.08	10633.05
500.26	10328.78
500.44	10370.91
500.61	10705.61
500.79	10443.47
500.97	10745.40
501.14	10871.79
501.32	10677.52
501.49	10555.82
501.67	10614.33
501.84	10846.04
502.02	10661.14
502.20	10759.44
502.37	11159.67
502.55	10867.11
502.72	10843.70
502.90	11000.52
503.07	10801.57
503.25	11042.65
503.43	10850.72
503.60	11033.29
503.78	11059.03
503.95	11166.70
504.13	11370.32
504.30	11281.38
504.48	11190.10
504.65	11442.88
504.83	11517.78
505.01	11485.01
505.18	11426.50
505.36	11461.60
505.53	11562.25
505.71	11609.06
505.88	11779.92
506.06	11758.85
506.23	11630.12
506.41	11599.70
506.58	11889.92
506.76	11859.49
506.93	11960.14
507.11	11777.58
507.28	11880.56
507.46	11985.88
507.63	11822.05
507.81	11918.01
507.98	12016.31
508.16	11995.25
508.33	11850.13
508.50	12257.39
508.68	12257.39
508.85	12655.28
509.03	12060.78
509.20	12264.41
509.38	12713.79
509.55	12489.10
509.73	12432.93
509.90	12737.20
510.08	12283.13
510.25	12533.57
510.42	12627.19
510.60	12748.90
510.77	12741.88
510.95	12762.94
511.12	12592.08
511.30	12554.63
511.47	12924.44
511.64	12784.01
511.82	12886.99
511.99	13015.72
512.17	13064.87
512.34	12868.27
512.51	12865.92
512.69	13146.79
512.86	13121.04
513.04	13249.77
513.21	13195.94
513.38	13193.60
513.56	13390.20
513.73	13137.43
513.90	13301.26
514.08	13032.10
514.25	13497.87
514.43	13205.30
514.60	13359.78
514.77	13516.59
514.95	13481.49
515.12	13160.83
515.29	13659.37
515.47	13671.07
515.64	13692.13
515.81	13884.06
515.99	13586.81
516.16	13703.84
516.33	13675.75
516.51	13764.69
516.68	13525.96
516.85	13598.51
517.03	13706.18
517.20	13895.76
517.37	13926.19
517.54	14008.11
517.72	14087.68
517.89	13872.36
518.06	13987.04
518.24	13982.36
518.41	13816.18
518.58	14005.77
518.75	13825.54
518.93	14340.46
519.10	14064.28
519.27	14216.41
519.45	14370.89
519.62	14214.07
519.79	14340.46
519.96	14305.35
520.14	14305.35
520.31	14300.67
520.48	14267.91
520.65	14508.98
520.83	14363.87
521.00	14565.15
521.17	14541.75
521.34	14298.33
521.52	14499.62
521.69	14511.32
521.86	14661.12
522.03	14871.76
522.20	14956.02
522.38	14773.46
522.55	14923.26
522.72	14785.16
522.89	14799.21
523.07	15136.24
523.24	14782.82
523.41	15070.71
523.58	14633.03
523.75	15136.24
523.92	15005.17
524.10	15133.90
524.27	15082.41
524.44	15087.09
524.61	15297.74
524.78	14956.02
524.96	15295.40
525.13	15330.51
525.30	15384.34
525.47	15309.44
525.64	15370.30
525.81	15351.57
525.98	15571.58
526.16	15374.98
526.33	15374.98
526.50	15543.50
526.67	15190.08
526.84	15630.10
527.01	15517.75
527.18	15358.60
527.36	15281.36
527.53	15660.52
527.70	15751.81
527.87	15817.34
528.04	15885.22
528.21	15819.68
528.38	15339.87
528.55	15805.64
528.72	15559.88
528.89	16058.42
529.07	15719.04
529.24	16030.33
529.41	15983.52
529.58	15777.55
529.75	16217.57
529.92	15878.19
530.09	15927.35
530.26	16196.51
530.43	16088.84
530.60	15756.49
530.77	15873.51
530.94	16105.23
531.11	16189.49
531.28	16046.71
531.46	15950.75
531.63	16388.43
531.80	16468.01
531.97	16500.78
532.14	16205.87
532.31	16084.16
532.48	16329.92
532.65	16491.41
532.82	16369.71
532.99	16304.17
533.16	16418.86
533.33	16418.86
533.50	16294.81
533.67	16491.41
533.84	16608.44
534.01	16634.19
534.18	16219.91
534.35	16589.72
534.52	16252.68
534.69	16982.93
534.86	16507.80
535.03	16545.25
535.20	16655.25
535.37	16662.27
535.54	16809.73
535.71	16940.80
535.88	16774.62
536.05	16833.13
536.22	17069.53
536.38	17076.55
536.55	17235.70
536.72	17142.08
536.89	16774.62
537.06	16961.86
537.23	17287.20
537.40	16823.77
537.57	17053.14
537.74	17109.32
537.91	16982.93
538.08	16849.52
538.25	17121.02
538.42	17184.21
538.59	17383.16
538.75	17130.38
538.92	17158.47
539.09	17380.82
539.26	17509.55
539.43	17535.29
539.60	17479.12
539.77	17209.96
539.94	17191.23
540.11	17392.52
540.28	17532.95
540.44	17493.16
540.61	17591.47
540.78	17544.66
540.95	17668.70
541.12	17759.98
541.29	17495.50
541.46	17977.65
541.62	17813.82
541.79	17909.78
541.96	17465.08
542.13	18113.41
542.30	17839.56
542.47	18026.81
542.63	17935.53
542.80	18106.38
542.97	18176.60
543.14	18246.82
543.31	17848.93
543.48	18101.70
543.64	18293.63
543.81	18310.01
543.98	18211.71
544.15	18317.03
544.32	18300.65
544.48	18148.51
544.65	18319.37
544.82	18057.23
544.99	18104.04
545.16	18572.15
545.32	18452.78
545.49	18450.44
545.66	19051.96
545.83	18913.87
546.00	18796.84
546.16	18497.25
546.33	18410.65
546.50	18169.58
546.67	18420.02
546.83	18267.88
547.00	18188.30
547.17	18335.76
547.34	18485.55
547.50	18803.86
547.67	18410.65
547.84	18827.27
548.00	18567.47
548.17	18576.83
548.34	18420.02
548.51	18548.75
548.67	18508.96
548.84	18822.59
549.01	18272.56
549.18	18824.93
549.34	18368.52
549.51	18389.59
549.68	18232.77
549.84	18506.62
550.01	18537.04
550.18	18611.94
550.34	18417.68
550.51	18459.81
550.68	18548.75
550.84	18422.36
551.01	18757.05
551.18	18501.93
551.34	18595.56
551.51	18799.18
551.68	18857.70
551.84	18712.58
552.01	18654.07
552.18	18878.76
552.34	18623.64
552.51	18656.41
552.68	18614.28
552.84	18647.05
553.01	19183.03
553.18	18827.27
553.34	18705.56
553.51	18728.97
553.67	18794.50
553.84	18963.02
554.01	18927.91
554.17	18857.70
554.34	18892.80
554.51	19000.47
554.67	19105.79
554.84	18939.62
555.00	18836.63
555.17	18682.16
555.33	19105.79
555.50	18869.40
555.67	18944.30
555.83	18719.60
556.00	19087.07
556.16	19084.73
556.33	19007.49
556.50	18787.48
556.66	19007.49
556.83	19145.58
556.99	19234.52
557.16	19185.37
557.32	18757.05
557.49	19234.52
557.65	18939.62
557.82	19105.79
557.98	19098.77
558.15	19293.04
558.32	19218.14
558.48	19470.92
558.65	19358.57
558.81	19398.36
558.98	19176.01
559.14	19421.77
559.31	19197.07
559.47	19178.35
559.64	19616.03
559.80	19590.28
559.97	19264.95
560.13	19307.08
560.30	19367.93
560.46	19208.78
560.63	19499.00
560.79	19325.80
560.96	19625.39
561.12	19482.62
561.29	19339.85
561.45	19243.88
561.61	19496.66
561.78	19454.53
561.94	19435.81
562.11	19297.72
562.27	19386.66
562.44	19295.38
562.60	19372.61
562.77	19496.66
562.93	19332.82
563.10	19452.19
563.26	19765.82
563.42	19627.73
563.59	19346.87
563.75	19456.87
563.92	19655.82
564.08	19751.78
564.24	19286.01
564.41	19499.00
564.57	19627.73
564.74	19613.69
564.90	19410.06
565.07	19583.26
565.23	19604.33
565.39	19424.11
565.56	19672.20
565.72	19365.59
565.88	19487.30
566.05	19206.44
566.21	19531.77
566.38	19751.78
566.54	19658.16
566.70	19983.49
566.87	19475.60
567.03	19590.28
567.19	19548.15
567.36	19632.41
567.52	19585.60
567.68	19646.46
567.85	19555.18
568.01	19590.28
568.17	19515.39
568.34	19431.13
568.50	19852.42
568.66	19302.40
568.83	19997.54
568.99	19550.49
569.15	20016.26
569.32	19545.81
569.48	19534.11
569.64	19487.30
569.81	19885.19
569.97	19499.00
570.13	20032.65
570.30	19587.94
570.46	19894.55
570.62	19997.54
570.78	19499.00
570.95	19751.78
571.11	19613.69
571.27	19601.99
571.43	19789.23
571.60	19590.28
571.76	19618.37
571.92	19903.92
572.09	19765.82
572.25	19459.21
572.41	19576.24
572.57	19988.18
572.74	19941.36
572.90	19927.32
573.06	20011.58
573.22	19726.04
573.38	19749.44
573.55	19831.36
573.71	19901.58
573.87	19988.18
574.03	20084.14
574.20	19796.25
574.36	19899.23
574.52	20058.39
574.68	19843.06
574.84	20271.38
575.01	20074.77
575.17	19892.21
575.33	20046.69
575.49	19894.55
575.65	20102.86
575.82	19859.45
575.98	19653.48
576.14	19913.28
576.30	19627.73
576.46	19957.75
576.62	19845.40
576.79	19847.74
576.95	19964.77
577.11	19775.19
577.27	20107.54
577.43	19772.85
577.59	19779.87
577.75	20102.86
577.92	19779.87
578.08	19826.68
578.24	19887.53
578.40	20240.95
578.56	20067.75
578.72	20067.75
578.88	20091.16
579.04	20121.59
579.21	19831.36
579.37	20006.90
579.53	19859.45
579.69	20042.01
579.85	19829.02
580.01	20046.69
580.17	19800.93
580.33	20105.20
580.49	19662.84
580.65	20011.58
580.82	20084.14
580.98	20002.22
581.14	20063.07
581.30	20292.44
581.46	19894.55
581.62	19857.10
581.78	19592.62
581.94	20037.33
582.10	19913.28
582.26	19800.93
582.42	19812.63
582.58	20318.19
582.74	19950.73
582.90	19847.74
583.06	20257.34
583.22	20196.48
583.38	20105.20
583.54	19990.52
583.70	20163.72
583.86	20210.53
584.02	20210.53
584.18	20514.80
584.34	20411.81
584.50	20201.16
584.66	20053.71
584.82	20386.07
584.98	20243.29
585.14	20203.50
585.30	19964.77
585.46	20023.28
585.62	20056.05
585.78	20257.34
585.94	19754.12
586.10	19999.88
586.26	19878.17
586.42	20107.54
586.58	20053.71
586.74	20205.84
586.90	20269.04
587.06	20121.59
587.22	19974.13
587.38	20128.61
587.54	20444.58
587.70	20152.01
587.86	20205.84
588.02	20205.84
588.18	20243.29
588.34	20280.74
588.49	20238.61
588.65	20409.47
588.81	20100.52
588.97	20133.29
589.13	20252.66
589.29	19953.07
589.45	20152.01
589.61	20191.80
589.77	20484.37
589.93	20147.33
590.08	20081.80
590.24	20369.68
590.40	20233.93
590.56	20547.56
590.72	20023.28
590.88	20037.33
591.04	19934.34
591.20	20444.58
591.35	20259.68
591.51	20819.07
591.67	20411.81
591.83	20505.43
591.99	20505.43
592.15	20727.78
592.31	20521.82
592.46	20341.60
592.62	20182.44
592.78	20177.76
