SpectraSuite Data File
++++++++++++++++++++++++++++++++++++
Date: Fri Oct 04 11:39:40 GMT-05:00 2013
User: price-jones
Dark Spectrum Present: No
Reference Spectrum Present: No
Number of Sampled Component Spectra: 1
Spectrometers: USB2+H05261
Integration Time (usec): 100000 (USB2+H05261)
Spectra Averaged: 1 (USB2+H05261)
Boxcar Smoothing: 0 (USB2+H05261)
Correct for Electrical Dark: No (USB2+H05261)
Strobe/Lamp Enabled: No (USB2+H05261)
Correct for Detector Non-linearity: No (USB2+H05261)
Correct for Stray Light: No (USB2+H05261)
Number of Pixels in Processed Spectrum: 2048
>>>>>Begin Processed Spectral Data<<<<<
365.73	49.15
365.92	49.15
366.12	49.15
366.32	0.00
366.52	0.00
366.72	0.00
366.91	0.00
367.11	11.70
367.31	0.00
367.51	0.00
367.70	0.00
367.90	0.00
368.10	0.00
368.30	0.00
368.49	0.00
368.69	0.00
368.89	25.75
369.09	0.00
369.28	53.83
369.48	0.00
369.68	0.00
369.87	21.06
370.07	44.47
370.27	28.09
370.47	98.30
370.66	278.52
370.86	290.23
371.06	271.50
371.25	400.23
371.45	269.16
371.65	386.19
371.84	278.52
372.04	276.18
372.24	404.91
372.44	315.97
372.63	320.65
372.83	409.59
373.03	395.55
373.22	393.21
373.42	362.78
373.62	416.62
373.81	402.57
374.01	498.53
374.21	493.85
374.40	521.94
374.60	526.62
374.79	425.98
374.99	482.15
375.19	416.62
375.38	489.17
375.58	519.60
375.78	524.28
375.97	496.19
376.17	535.98
376.37	517.26
376.56	550.03
376.76	498.53
376.95	458.74
377.15	540.66
377.35	425.98
377.54	428.32
377.74	437.68
377.93	493.85
378.13	468.11
378.33	592.16
378.52	451.72
378.72	535.98
378.91	564.07
379.11	524.28
379.31	573.43
379.50	456.40
379.70	624.92
379.89	578.11
380.09	545.34
380.28	500.87
380.48	559.39
380.68	643.65
380.87	561.73
381.07	615.56
381.26	631.94
381.46	573.43
381.65	629.60
381.85	636.63
382.04	624.92
382.24	606.20
382.43	676.41
382.63	641.31
382.83	627.26
383.02	559.39
383.22	617.90
383.41	669.39
383.61	648.33
383.80	638.97
384.00	608.54
384.19	678.76
384.39	718.54
384.58	603.86
384.78	678.76
384.97	718.54
385.17	732.59
385.36	613.22
385.56	753.65
385.75	737.27
385.95	697.48
386.14	741.95
386.34	751.31
386.53	727.91
386.72	725.57
386.92	793.44
387.11	760.67
387.31	772.38
387.50	809.83
387.70	727.91
387.89	772.38
388.09	772.38
388.28	833.23
388.48	821.53
388.67	795.78
388.86	725.57
389.06	772.38
389.25	844.93
389.45	856.64
389.64	760.67
389.84	861.32
390.03	800.46
390.22	720.88
390.42	791.10
390.61	770.04
390.81	814.51
391.00	870.68
391.19	887.06
391.39	807.48
391.58	924.51
391.78	917.49
391.97	887.06
392.16	933.87
392.36	990.05
392.55	959.62
392.75	929.19
392.94	933.87
393.13	997.07
393.33	992.39
393.52	1015.79
393.71	1013.45
393.91	919.83
394.10	990.05
394.29	997.07
394.49	1076.65
394.68	1039.20
394.88	1015.79
395.07	1018.13
395.26	1107.07
395.46	1036.86
395.65	1076.65
395.84	1053.24
396.04	1193.67
396.23	1165.59
396.42	1083.67
396.62	1177.29
396.81	1146.86
397.00	1078.99
397.19	1125.80
397.39	1132.82
397.58	1226.44
397.77	1121.12
397.97	1156.22
398.16	1062.60
398.35	1144.52
398.55	1261.55
398.74	1177.29
398.93	1249.85
399.12	1240.48
399.32	1121.12
399.51	1196.01
399.70	1266.23
399.90	1263.89
400.09	1324.74
400.28	1345.81
400.47	1385.60
400.67	1406.66
400.86	1284.95
401.05	1397.30
401.24	1369.21
401.44	1411.34
401.63	1392.62
401.82	1336.45
402.01	1294.32
402.21	1392.62
402.40	1427.73
402.59	1455.81
402.78	1416.02
402.97	1451.13
403.17	1474.54
403.36	1411.34
403.55	1434.75
403.74	1465.18
403.93	1568.16
404.13	1673.48
404.32	1645.40
404.51	1654.76
404.70	1556.46
404.89	1621.99
405.09	1727.32
405.28	1710.93
405.47	1657.10
405.66	1664.12
405.85	1643.06
406.05	1678.16
406.24	1732.00
406.43	1621.99
406.62	1715.61
406.81	1783.49
407.00	1771.79
407.20	1802.21
407.39	1844.34
407.58	1867.75
407.77	1886.47
407.96	1863.07
408.15	1895.83
408.34	1867.75
408.54	1886.47
408.73	1884.13
408.92	1874.77
409.11	2015.20
409.30	2083.08
409.49	2026.90
409.68	2026.90
409.87	2001.16
410.07	2064.35
410.26	2017.54
410.45	2026.90
410.64	2176.70
410.83	2085.42
411.02	2253.94
411.21	2349.90
411.40	2223.51
411.59	2352.24
411.78	2298.41
411.98	2277.34
412.17	2420.11
412.36	2272.66
412.55	2483.31
412.74	2408.41
412.93	2415.43
413.12	2345.22
413.31	2523.10
413.50	2420.11
413.69	2569.91
413.88	2504.37
414.07	2551.18
414.26	2497.35
414.45	2708.00
414.64	2647.15
414.83	2715.02
415.02	2651.83
415.22	2658.85
415.41	2787.58
415.60	2850.77
415.79	2862.48
415.98	2871.84
416.17	2956.10
416.36	2860.13
416.55	2904.60
416.74	2977.16
416.93	3068.44
417.12	2963.12
417.31	3094.19
417.50	2974.82
417.69	3164.40
417.88	3206.53
418.07	3169.09
418.26	3187.81
418.45	3101.21
418.64	3339.94
418.83	3328.24
419.02	3323.56
419.21	3328.24
419.39	3342.28
419.58	3300.16
419.77	3410.16
419.96	3389.10
420.15	3445.27
420.34	3449.95
420.53	3337.60
420.72	3609.11
420.91	3510.80
421.10	3461.65
421.29	3695.71
421.48	3531.87
421.67	3749.54
421.86	3482.72
422.05	3653.58
422.24	3557.61
422.43	3557.61
422.61	3599.74
422.80	3676.98
422.99	3648.90
423.18	3698.05
423.37	3756.56
423.56	3782.31
423.75	3679.32
423.94	3581.02
424.13	3440.59
424.32	3536.55
424.50	3789.33
424.69	3779.97
424.88	3747.20
425.07	3492.08
425.26	3658.26
425.45	3796.35
425.64	3789.33
425.83	3798.69
426.01	3880.61
426.20	3922.74
426.39	3770.60
426.58	3754.22
426.77	3756.56
426.96	3861.88
427.15	3791.67
427.33	3946.14
427.52	3882.95
427.71	3983.59
427.90	3852.52
428.09	3999.98
428.28	3950.82
428.46	3983.59
428.65	4065.51
428.84	4203.60
429.03	4056.15
429.22	4025.72
429.40	4154.45
429.59	4168.49
429.78	3974.23
429.97	3875.93
430.16	4037.42
430.34	4079.55
430.53	4299.56
430.72	4227.01
430.91	4203.60
431.10	4102.96
431.28	4320.63
431.47	4257.43
431.66	4418.93
431.85	4306.59
432.03	4493.83
432.22	4430.63
432.41	4615.54
432.60	4547.66
432.79	4362.76
432.97	4535.96
433.16	4538.30
433.35	4463.40
433.54	4683.41
433.72	4601.49
433.91	4472.76
434.10	4496.17
434.28	4662.35
434.47	4643.62
434.66	4762.99
434.85	4737.24
435.03	4894.06
435.22	4936.19
435.41	5266.21
435.59	5069.60
435.78	4952.57
435.97	5020.45
436.16	4908.10
436.34	4957.25
436.53	4753.63
436.72	5160.88
436.90	4929.17
437.09	4875.34
437.28	4908.10
437.46	5006.41
437.65	4978.32
437.84	5130.45
438.02	5116.41
438.21	5027.47
438.40	5064.92
438.58	5249.82
438.77	5160.88
438.96	5275.57
439.14	5284.93
439.33	5200.67
439.52	5591.54
439.70	5462.81
439.89	5577.50
440.08	5500.26
440.26	5460.47
440.45	5720.27
440.63	5638.35
440.82	5701.54
441.01	5619.63
441.19	5661.76
441.38	5774.10
441.57	5820.91
441.75	5797.51
441.94	5944.96
442.12	6094.76
442.31	6052.63
442.50	5963.68
442.68	6057.31
442.87	6026.88
443.05	5947.30
443.24	6120.50
443.43	6132.20
443.61	6289.02
443.80	6251.57
443.98	6047.94
444.17	5926.24
444.35	6387.32
444.54	6186.04
444.73	6228.17
444.91	6349.87
445.10	6244.55
445.28	6303.06
445.47	6324.13
445.65	6246.89
445.84	6258.59
446.02	6413.07
446.21	6293.70
446.39	6417.75
446.58	6406.05
446.77	6197.74
446.95	6345.19
447.14	6443.49
447.32	6384.98
447.51	6370.94
447.69	6424.77
447.88	6373.28
448.06	6406.05
448.25	6356.90
448.43	6244.55
448.62	6417.75
448.80	6347.53
448.99	6370.94
449.17	6530.09
449.36	6410.73
449.54	6534.78
449.73	6665.85
449.91	6803.94
450.10	6684.57
450.28	6780.53
450.46	6689.25
450.65	6813.30
450.83	6876.49
451.02	6778.19
451.20	6810.96
451.39	6773.51
451.57	6848.41
451.76	6850.75
451.94	6794.58
452.13	7026.29
452.31	6876.49
452.49	6874.15
452.68	6988.84
452.86	6977.14
453.05	7073.10
453.23	7096.50
453.42	6963.09
453.60	6932.67
453.78	7063.74
453.97	7052.03
454.15	7211.19
454.34	7220.55
454.52	7227.57
454.70	7335.24
454.89	7222.89
455.07	7213.53
455.26	7232.26
455.44	7459.29
455.62	7337.58
455.81	7358.64
455.99	7655.89
456.17	7407.80
456.36	7559.93
456.54	7426.52
456.73	7630.15
456.91	7726.11
457.09	7819.73
457.28	7845.48
457.46	7606.74
457.64	7882.92
457.83	7826.75
458.01	7756.54
458.19	7985.91
458.38	7887.61
458.56	7936.76
458.74	7899.31
458.93	7803.35
459.11	8042.08
459.29	7761.22
459.48	8072.51
459.66	8138.04
459.84	8074.85
460.03	8173.15
460.21	8128.68
460.39	8208.26
460.57	8112.30
460.76	8056.12
460.94	8292.52
461.12	8194.22
461.31	8159.11
461.49	8032.72
461.67	8196.56
461.85	8496.14
462.04	8411.89
462.22	8695.09
462.40	8674.03
462.59	8561.68
462.77	8585.08
462.95	8596.79
463.13	8571.04
463.32	8531.25
463.50	8599.13
463.68	8697.43
463.86	8606.15
464.05	8479.76
464.23	8482.10
464.41	8858.93
464.59	8456.36
464.78	8849.57
464.96	8716.16
465.14	8622.53
465.32	9029.79
465.50	8922.12
465.69	8919.78
465.87	8879.99
466.05	8889.35
466.23	9039.15
466.41	9132.77
466.60	9085.96
466.78	8931.48
466.96	8891.70
467.14	8990.00
467.32	9139.79
467.51	9268.52
467.69	8973.61
467.87	9259.16
468.05	9214.69
468.23	9121.07
468.41	8959.57
468.60	9165.54
468.78	9338.74
468.96	9387.89
469.14	9460.45
469.32	9483.85
469.50	9195.96
469.69	9628.96
469.87	9643.01
470.05	9769.40
470.23	9514.28
470.41	9652.37
470.59	9617.26
470.77	9678.12
470.95	9771.74
471.14	9947.28
471.32	9804.50
471.50	10115.80
471.68	9853.66
471.86	10003.45
472.04	10083.03
472.22	10249.21
472.40	10012.81
472.58	10225.80
472.77	10031.54
472.95	10251.55
473.13	10516.03
473.31	10279.63
473.49	10448.15
473.67	10403.68
473.85	10478.58
474.03	10574.54
474.21	10696.25
474.39	10836.68
474.57	10703.27
474.75	10789.87
474.93	11101.16
475.12	10787.53
475.30	10878.81
475.48	10895.19
475.66	11044.99
475.84	11159.67
476.02	11318.83
476.20	11314.15
476.38	11379.68
476.56	11571.61
476.74	11349.26
476.92	11566.93
477.10	11557.57
477.28	11646.51
477.46	11702.68
477.64	11829.07
477.82	11915.67
478.00	12077.16
478.18	12161.42
478.36	12479.74
478.54	12519.53
478.72	12299.52
478.90	12671.66
479.08	12828.48
479.26	12685.70
479.44	12695.07
479.62	12901.03
479.80	13069.55
479.98	13195.94
480.16	13270.84
480.34	13088.28
480.52	13413.61
480.70	13502.55
480.88	13399.57
481.06	13540.00
481.24	13331.69
481.41	14043.21
481.59	14022.15
481.77	14083.00
481.95	14054.92
482.13	14263.22
482.31	14333.44
482.49	14490.26
482.67	14539.41
482.85	14658.78
483.03	14850.70
483.21	15309.44
483.39	15047.30
483.57	15246.25
483.74	15351.57
483.92	15733.08
484.10	15349.23
484.28	15683.93
484.46	16133.31
484.64	16184.80
484.82	16027.99
485.00	15983.52
485.18	16348.64
485.35	16489.07
485.53	16514.82
485.71	16503.12
485.89	17062.51
486.07	16791.00
486.25	16908.03
486.43	16791.00
486.61	16868.24
486.78	17572.74
486.96	17659.34
487.14	17778.71
487.32	17628.92
487.50	18012.76
487.68	18087.66
487.85	18302.99
488.03	18427.04
488.21	18661.09
488.39	18649.39
488.57	18934.93
488.75	18972.38
488.92	19410.06
489.10	19522.41
489.28	19161.97
489.46	19672.20
489.64	19454.53
489.81	19985.83
489.99	19906.26
490.17	20095.84
490.35	20159.03
490.53	20105.20
490.70	20561.61
490.88	20559.27
491.06	20685.65
491.24	20833.11
491.41	20650.55
491.59	20957.16
491.77	21188.87
491.95	21324.62
492.13	21336.32
492.30	21624.21
492.48	21685.06
492.66	21586.76
492.84	21762.30
493.01	21940.18
493.19	21841.88
493.37	22160.19
493.54	22593.19
493.72	22527.66
493.90	22375.52
494.08	22972.36
494.25	22799.16
494.43	23133.86
494.61	23325.78
494.79	23187.69
494.96	23428.76
495.14	23566.85
495.32	23749.42
495.49	23606.64
495.67	24196.46
495.85	23985.81
496.02	24315.83
496.20	24346.25
496.38	24369.66
496.55	24512.43
496.73	25130.33
496.91	25022.67
497.09	25106.93
497.26	25099.90
497.44	24886.92
497.62	25165.44
497.79	25221.61
497.97	25350.34
498.14	25883.98
498.32	25947.18
498.50	26045.48
498.67	26424.65
498.85	25893.35
499.03	26129.74
499.20	26242.09
499.38	26541.68
499.56	26539.33
499.73	26700.83
499.91	26939.57
500.08	26796.79
500.26	26932.54
500.44	27070.64
500.61	27112.77
500.79	27070.64
500.97	27344.48
501.14	27531.72
501.32	27367.88
501.49	27489.59
501.67	27264.90
501.84	27651.09
502.02	27428.74
502.20	28353.25
502.37	28273.67
502.55	28205.80
502.72	28568.58
502.90	28320.48
503.07	27496.61
503.25	28446.87
503.43	28570.92
503.60	28781.57
503.78	29006.26
503.95	28889.23
504.13	28943.06
504.30	29198.18
504.48	28823.70
504.65	29167.76
504.83	29188.82
505.01	29216.91
505.18	29317.55
505.36	29825.45
505.53	29352.66
505.71	29481.39
505.88	29521.18
506.06	29699.06
506.23	30221.00
506.41	30251.42
506.58	30258.45
506.76	30242.06
506.93	30309.94
507.11	30295.89
507.28	30654.00
507.46	30352.07
507.63	30808.47
507.81	30962.95
507.98	30518.25
508.16	30817.83
508.33	31126.78
508.50	30808.47
508.68	31180.62
508.85	31112.74
509.03	31063.59
509.20	31590.21
509.38	31367.86
509.55	31835.97
509.73	31761.07
509.90	31995.12
510.08	31496.59
510.25	32032.57
510.42	32388.33
510.60	32231.52
510.77	32470.25
510.95	32407.06
511.12	31887.46
511.30	32201.09
511.47	32818.99
511.64	32533.45
511.82	32683.24
511.99	32645.79
512.17	32720.69
512.34	33022.62
512.51	33085.81
512.69	33113.90
512.86	33376.04
513.04	33584.35
513.21	33895.64
513.38	33647.54
513.56	34218.63
513.73	33722.44
513.90	33369.02
514.08	33661.58
514.25	34078.20
514.43	33954.15
514.60	34087.56
514.77	34389.49
514.95	34206.93
515.12	34139.05
515.29	34132.03
515.47	34216.29
515.64	34649.29
515.81	34621.20
515.99	34787.38
516.16	35014.41
516.33	34586.10
516.51	35122.08
516.68	34817.81
516.85	34473.75
517.03	34962.92
517.20	35519.97
517.37	35143.14
517.54	35510.61
517.72	35407.62
517.89	35386.56
518.06	35765.73
518.24	35491.88
518.41	35576.14
518.58	35861.69
518.75	35842.96
518.93	36390.65
519.10	35754.02
519.27	36238.51
519.45	36350.86
519.62	36371.92
519.79	35840.62
519.96	36311.07
520.14	36629.38
520.31	36172.98
520.48	36882.16
520.65	36535.76
520.83	37006.21
521.00	36772.16
521.17	36917.27
521.34	36968.76
521.52	36809.61
521.69	37013.23
521.86	37207.50
522.03	37584.32
522.20	37392.40
522.38	37486.02
522.55	37368.99
522.72	37809.01
522.89	37251.97
523.07	37872.21
523.24	37397.08
523.41	37797.31
523.58	37804.33
523.75	38047.75
523.92	37481.34
524.10	38370.74
524.27	38300.53
524.44	38590.75
524.61	38476.07
524.78	38546.28
524.96	38522.88
525.13	38438.62
525.30	38642.24
525.47	38770.97
525.64	38546.28
525.81	38607.14
525.98	39061.20
526.16	39278.87
526.33	38824.81
526.50	39236.74
526.67	38904.38
526.84	38885.66
527.01	38693.74
527.18	39222.70
527.36	39421.64
527.53	39381.85
527.70	39253.12
527.87	39856.98
528.04	39697.83
528.21	39878.05
528.38	39709.53
528.55	39374.83
528.72	39936.56
528.89	39966.99
529.07	40069.97
529.24	39772.72
529.41	40215.08
529.58	39948.26
529.75	39761.02
529.92	40140.19
530.09	40151.89
530.26	40072.31
530.43	40807.24
530.60	40219.77
530.77	40680.85
530.94	40509.99
531.11	40769.79
531.28	40584.89
531.46	40484.25
531.63	40711.28
531.80	40720.64
531.97	41254.28
532.14	40811.92
532.31	40697.24
532.48	40872.78
532.65	41001.50
532.82	40945.33
532.99	41563.23
533.16	41174.70
533.33	41759.84
533.50	41324.50
533.67	41282.37
533.84	41315.14
534.01	41233.22
534.18	41186.41
534.35	41640.47
534.52	41294.07
534.69	41874.52
534.86	41869.84
535.03	41443.87
535.20	41429.82
535.37	41888.57
535.54	42087.51
535.71	41373.65
535.88	41996.23
536.05	42057.09
536.22	42543.92
536.38	42321.57
536.55	42029.00
536.72	42417.53
536.89	41720.05
537.06	41993.89
537.23	42340.29
537.40	41979.85
537.57	42000.91
537.74	42501.79
537.91	42672.65
538.08	42808.40
538.25	42424.55
538.42	42234.97
538.59	42937.13
538.75	42351.99
538.92	42829.46
539.09	42969.90
539.26	42937.13
539.43	43201.61
539.60	43194.59
539.77	43117.35
539.94	43508.22
540.11	43100.97
540.28	43234.38
540.44	43533.96
540.61	43824.19
540.78	43412.26
540.95	43899.09
541.12	43356.08
541.29	44128.46
541.46	43828.87
541.62	43533.96
541.79	43683.76
541.96	43339.70
542.13	43505.88
542.30	43849.94
542.47	44458.48
542.63	44582.52
542.80	44311.02
542.97	44619.97
543.14	44722.96
543.31	44336.77
543.48	44547.42
543.64	44215.06
543.81	44886.79
543.98	44676.15
544.15	44744.02
544.32	44989.78
544.48	45165.32
544.65	44765.09
544.82	44828.28
544.99	44591.89
545.16	44758.06
545.32	45097.44
545.49	45509.38
545.66	45708.32
545.83	46153.02
546.00	46349.63
546.16	45258.94
546.33	44945.31
546.50	44896.16
546.67	44949.99
546.83	45036.59
547.00	45055.31
547.17	45216.81
547.34	45062.33
547.50	45752.79
547.67	45382.99
547.84	44996.80
548.00	45432.14
548.17	45514.06
548.34	45621.72
548.51	45490.65
548.67	45537.46
548.84	45720.02
549.01	45588.95
549.18	45137.23
549.34	45532.78
549.51	45429.80
549.68	45230.85
549.84	45642.79
550.01	46213.88
550.18	45736.41
550.34	45535.12
550.51	45577.25
550.68	45916.63
550.84	45495.33
551.01	45715.34
551.18	45581.93
551.34	45581.93
551.51	45970.46
551.68	45979.82
551.84	45813.65
552.01	45708.32
552.18	46080.47
552.34	46021.95
552.51	46571.98
552.68	45947.06
552.84	46248.99
553.01	46281.75
553.18	46101.53
553.34	46192.81
553.51	46239.62
553.67	46401.12
553.84	46618.79
554.01	46419.84
554.17	46663.26
554.34	46674.96
554.51	45902.59
554.67	46738.16
554.84	46354.31
555.00	46614.11
555.17	46106.21
555.33	46801.35
555.50	46597.73
555.67	46548.57
555.83	46665.60
556.00	46553.26
556.16	46740.50
556.33	46316.86
556.50	46979.23
556.66	47122.01
556.83	46527.51
556.99	47192.22
557.16	46759.22
557.32	46681.98
557.49	46904.34
557.65	46204.52
557.82	46485.38
557.98	46733.48
558.15	46815.40
558.32	46948.81
558.48	46820.08
558.65	46913.70
558.81	47133.71
558.98	46728.80
559.14	47143.07
559.31	46937.10
559.47	46918.38
559.64	46815.40
559.80	47056.47
559.97	47316.27
560.13	47201.58
560.30	47077.54
560.46	47040.09
560.63	46969.87
560.79	47019.02
560.96	47543.30
561.12	46843.48
561.29	47098.60
561.45	47112.64
561.61	47131.37
561.78	47028.38
561.94	47234.35
562.11	47440.32
562.27	47269.46
562.44	47477.77
562.60	47103.28
562.77	47398.19
562.93	47122.01
563.10	47576.07
563.26	47054.13
563.42	47449.68
563.59	47367.76
563.75	47714.16
563.92	47573.73
564.08	47091.58
564.24	47540.96
564.41	47578.41
564.57	47295.21
564.74	47323.29
564.90	47533.94
565.07	47545.64
565.23	47756.29
565.39	47732.89
565.56	47885.02
565.72	47625.22
565.88	47641.60
566.05	47227.33
566.21	47215.63
566.38	47227.33
566.54	47650.97
566.70	47756.29
566.87	47863.96
567.03	47538.62
567.19	47833.53
567.36	47508.19
567.52	47665.01
567.68	47800.76
567.85	47250.74
568.01	47489.47
568.17	47545.64
568.34	47683.73
568.50	47697.78
568.66	47906.08
568.83	47756.29
568.99	47494.15
569.15	47360.74
569.32	47508.19
569.48	47318.61
569.64	47519.90
569.81	47812.46
569.97	47744.59
570.13	47732.89
570.30	47777.36
570.46	47859.27
570.62	47522.24
570.78	47531.60
570.95	47540.96
571.11	47772.67
571.27	47597.13
571.43	46911.36
571.60	47608.84
571.76	47775.02
571.92	47571.39
572.09	48147.16
572.25	48013.75
572.41	47854.59
572.57	48154.18
572.74	47828.85
572.90	47533.94
573.06	47709.48
573.22	47913.11
573.38	48013.75
573.55	47632.24
573.71	48292.27
573.87	47690.76
574.03	48023.11
574.20	47938.85
574.36	47503.51
574.52	48147.16
574.68	47604.16
574.84	47632.24
575.01	48245.46
575.17	47988.00
575.33	48018.43
575.49	47971.62
575.65	48519.31
575.82	48044.18
575.98	48151.84
576.14	47695.44
576.30	48009.07
576.46	47585.43
576.62	47964.60
576.79	47873.32
576.95	47971.62
577.11	47714.16
577.27	47793.74
577.43	47653.31
577.59	48121.41
577.75	47791.40
577.92	47931.83
578.08	47496.49
578.24	48109.71
578.40	48186.95
578.56	47861.61
578.72	48147.16
578.88	48259.51
579.04	48137.80
579.21	47980.98
579.37	47995.03
579.53	47913.11
579.69	47459.04
579.85	47707.14
580.01	47784.38
580.17	47463.72
580.33	47718.84
580.49	47835.87
580.65	48114.39
580.82	48196.31
580.98	48140.14
581.14	47969.28
581.30	48175.25
581.46	47885.02
581.62	47739.91
581.78	47505.85
581.94	48009.07
582.10	47606.50
582.26	47796.08
582.42	48083.97
582.58	48212.70
582.74	48088.65
582.90	48212.70
583.06	48406.96
583.22	47852.25
583.38	47737.57
583.54	47629.90
583.70	47744.59
583.86	48074.60
584.02	47725.86
584.18	48069.92
584.34	48205.67
584.50	48224.40
584.66	48011.41
584.82	47756.29
584.98	48186.95
585.14	47906.08
585.30	47868.64
585.46	47915.45
585.62	47381.80
585.78	47753.95
585.94	47585.43
586.10	48058.22
586.26	47880.34
586.42	48062.90
586.58	48198.65
586.74	48002.05
586.90	48100.35
587.06	47840.55
587.22	48287.59
587.38	47906.08
587.54	48390.58
587.70	48193.97
587.86	48481.86
588.02	48313.34
588.18	48065.24
588.34	48034.81
588.49	48343.77
588.65	47854.59
588.81	47732.89
588.97	48083.97
589.13	48011.41
589.29	48109.71
589.45	47772.67
589.61	47964.60
589.77	48346.11
589.93	48399.94
590.08	48350.79
590.24	48208.01
