SpectraSuite Data File
++++++++++++++++++++++++++++++++++++
Date: Fri Oct 04 11:39:34 GMT-05:00 2013
User: price-jones
Dark Spectrum Present: No
Reference Spectrum Present: No
Number of Sampled Component Spectra: 1
Spectrometers: USB2+H05261
Integration Time (usec): 100000 (USB2+H05261)
Spectra Averaged: 1 (USB2+H05261)
Boxcar Smoothing: 0 (USB2+H05261)
Correct for Electrical Dark: No (USB2+H05261)
Strobe/Lamp Enabled: No (USB2+H05261)
Correct for Detector Non-linearity: No (USB2+H05261)
Correct for Stray Light: No (USB2+H05261)
Number of Pixels in Processed Spectrum: 2048
>>>>>Begin Processed Spectral Data<<<<<
365.73	18.72
365.92	18.72
366.12	18.72
366.32	11.70
366.52	0.00
366.72	0.00
366.91	0.00
367.11	0.00
367.31	0.00
367.51	0.00
367.70	0.00
367.90	0.00
368.10	0.00
368.30	0.00
368.49	0.00
368.69	0.00
368.89	0.00
369.09	0.00
369.28	0.00
369.48	0.00
369.68	37.45
369.87	0.00
370.07	0.00
370.27	4.68
370.47	58.51
370.66	161.50
370.86	74.90
371.06	128.73
371.25	163.84
371.45	110.01
371.65	126.39
371.84	166.18
372.04	262.14
372.24	217.67
372.44	138.09
372.63	140.43
372.83	229.37
373.03	191.92
373.22	140.43
373.42	191.92
373.62	187.24
373.81	208.31
374.01	229.37
374.21	301.93
374.40	180.22
374.60	238.73
374.79	203.63
374.99	229.37
375.19	215.33
375.38	278.52
375.58	252.78
375.78	212.99
375.97	212.99
376.17	271.50
376.37	203.63
376.56	283.20
376.76	255.12
376.95	175.54
377.15	210.65
377.35	283.20
377.54	166.18
377.74	222.35
377.93	217.67
378.13	273.84
378.33	255.12
378.52	280.86
378.72	266.82
378.91	212.99
379.11	201.29
379.31	191.92
379.50	196.60
379.70	198.95
379.89	238.73
380.09	220.01
380.28	299.59
380.48	241.08
380.68	250.44
380.87	266.82
381.07	292.57
381.26	292.57
381.46	308.95
381.65	229.37
381.85	229.37
382.04	182.56
382.24	182.56
382.43	208.31
382.63	196.60
382.83	182.56
383.02	241.08
383.22	297.25
383.41	292.57
383.61	245.76
383.80	238.73
384.00	238.73
384.19	271.50
384.39	351.08
384.58	283.20
384.78	294.91
384.97	360.44
385.17	259.80
385.36	339.38
385.56	280.86
385.75	250.44
385.95	273.84
386.14	351.08
386.34	330.02
386.53	287.89
386.72	299.59
386.92	327.68
387.11	358.10
387.31	334.70
387.50	271.50
387.70	264.48
387.89	369.80
388.09	337.04
388.28	365.12
388.48	290.23
388.67	318.31
388.86	315.97
389.06	411.93
389.25	280.86
389.45	362.78
389.64	327.68
389.84	313.63
390.03	355.76
390.22	313.63
390.42	348.74
390.61	358.10
390.81	390.87
391.00	379.17
391.19	365.12
391.39	365.12
391.58	383.85
391.78	390.87
391.97	381.51
392.16	341.72
392.36	369.80
392.55	411.93
392.75	386.19
392.94	404.91
393.13	456.40
393.33	358.10
393.52	395.55
393.71	463.43
393.91	386.19
394.10	400.23
394.29	341.72
394.49	440.02
394.68	479.81
394.88	479.81
395.07	369.80
395.26	428.32
395.46	479.81
395.65	447.04
395.84	482.15
396.04	479.81
396.23	479.81
396.42	411.93
396.62	472.79
396.81	578.11
397.00	440.02
397.19	477.47
397.39	491.51
397.58	489.17
397.77	507.90
397.97	545.34
398.16	505.56
398.35	540.66
398.55	559.39
398.74	538.32
398.93	601.52
399.12	624.92
399.32	575.77
399.51	676.41
399.70	575.77
399.90	514.92
400.09	622.58
400.28	606.20
400.47	620.24
400.67	697.48
400.86	669.39
401.05	688.12
401.24	681.10
401.44	716.20
401.63	711.52
401.82	683.44
402.01	624.92
402.21	660.03
402.40	674.07
402.59	774.72
402.78	720.88
402.97	737.27
403.17	887.06
403.36	765.36
403.55	774.72
403.74	816.85
403.93	814.51
404.13	889.40
404.32	779.40
404.51	868.34
404.70	873.02
404.89	854.30
405.09	898.77
405.28	919.83
405.47	844.93
405.66	971.32
405.85	929.19
406.05	936.21
406.24	889.40
406.43	978.34
406.62	1006.43
406.81	1048.56
407.00	994.73
407.20	919.83
407.39	1046.22
407.58	1043.88
407.77	1135.16
407.96	1188.99
408.15	1086.01
408.34	1029.84
408.54	1235.80
408.73	1149.20
408.92	1053.24
409.11	1177.29
409.30	1193.67
409.49	1184.31
409.68	1214.74
409.87	1263.89
410.07	1303.68
410.26	1233.46
410.45	1425.39
410.64	1280.27
410.83	1287.29
411.02	1380.92
411.21	1413.68
411.40	1455.81
411.59	1446.45
411.78	1409.00
411.98	1481.56
412.17	1460.49
412.36	1446.45
412.55	1537.73
412.74	1540.07
412.93	1486.24
413.12	1444.11
413.31	1610.29
413.50	1561.14
413.69	1629.01
413.88	1696.89
414.07	1685.19
414.26	1856.04
414.45	1823.28
414.64	1769.44
414.83	1750.72
415.02	1795.19
415.22	1856.04
415.41	1844.34
415.60	1823.28
415.79	2005.84
415.98	1930.94
416.17	1947.33
416.36	1891.15
416.55	1970.73
416.74	2087.76
416.93	2026.90
417.12	2017.54
417.31	2071.37
417.50	2090.10
417.69	2289.04
417.88	2113.50
418.07	2160.31
418.26	2155.63
418.45	2113.50
418.64	2155.63
418.83	2251.60
419.02	2169.68
419.21	2370.96
419.39	2282.02
419.58	2399.05
419.77	2303.09
419.96	2267.98
420.15	2380.32
420.34	2352.24
420.53	2324.15
420.72	2438.84
420.91	2455.22
421.10	2541.82
421.29	2516.08
421.48	2413.09
421.67	2541.82
421.86	2427.14
422.05	2527.78
422.24	2579.27
422.43	2551.18
422.61	2429.48
422.80	2546.50
422.99	2633.10
423.18	2642.46
423.37	2558.21
423.56	2637.78
423.75	2588.63
423.94	2483.31
424.13	2506.71
424.32	2590.97
424.50	2630.76
424.69	2766.51
424.88	2644.81
425.07	2602.68
425.26	2605.02
425.45	2656.51
425.64	2691.62
425.83	2708.00
426.01	2703.32
426.20	2724.38
426.39	2752.47
426.58	2691.62
426.77	2733.75
426.96	2799.28
427.15	2733.75
427.33	2698.64
427.52	2773.53
427.71	2885.88
427.90	2801.62
428.09	2775.88
428.28	2813.32
428.46	2843.75
428.65	2958.44
428.84	2963.12
429.03	2974.82
429.22	2881.20
429.40	2963.12
429.59	2935.03
429.78	2885.88
429.97	2829.71
430.16	2953.76
430.34	3052.06
430.53	2970.14
430.72	3026.31
430.91	2981.84
431.10	3030.99
431.28	2998.23
431.47	2998.23
431.66	3073.12
431.85	3187.81
432.03	3148.02
432.22	3208.87
432.41	3000.57
432.60	3311.86
432.79	3173.77
432.97	3218.24
433.16	3232.28
433.35	3075.46
433.54	3283.77
433.72	3293.13
433.91	3335.26
434.10	3297.81
434.28	3342.28
434.47	3325.90
434.66	3513.14
434.85	3365.69
435.03	3485.06
435.22	3648.90
435.41	3735.50
435.59	3728.47
435.78	3604.42
435.97	3592.72
436.16	3681.66
436.34	3489.74
436.53	3632.51
436.72	3728.47
436.90	3534.21
437.09	3618.47
437.28	3679.32
437.46	3644.21
437.65	3592.72
437.84	3627.83
438.02	3578.68
438.21	3679.32
438.40	3669.96
438.58	3740.18
438.77	3882.95
438.96	3707.41
439.14	3929.76
439.33	3948.48
439.52	3913.38
439.70	4044.45
439.89	3990.61
440.08	3957.85
440.26	3995.29
440.45	3953.16
440.63	4063.17
440.82	4131.05
441.01	3948.48
441.19	3985.93
441.38	4318.29
441.57	4334.67
441.75	4285.52
441.94	4339.35
442.12	4287.86
442.31	4400.21
442.50	4322.97
442.68	4418.93
442.87	4318.29
443.05	4416.59
443.24	4524.26
443.43	4580.43
443.61	4533.62
443.80	4685.75
443.98	4521.92
444.17	4470.42
444.35	4468.08
444.54	4465.74
444.73	4697.46
444.91	4582.77
445.10	4552.34
445.28	4521.92
445.47	4528.94
445.65	4580.43
445.84	4613.20
446.02	4568.73
446.21	4561.70
446.39	4617.88
446.58	4631.92
446.77	4676.39
446.95	4521.92
447.14	4695.11
447.32	4650.64
447.51	4589.79
447.69	4629.58
447.88	4671.71
448.06	4545.32
448.25	4528.94
448.43	4741.93
448.62	4720.86
448.80	4882.36
448.99	4741.93
449.17	4760.65
449.36	4615.54
449.54	4868.31
449.73	4784.06
449.91	4858.95
450.10	4870.65
450.28	4997.04
450.46	5050.88
450.65	4947.89
450.83	4863.63
451.02	4985.34
451.20	5064.92
451.39	4973.64
451.57	4985.34
451.76	5001.72
451.94	5039.17
452.13	5142.16
452.31	5210.03
452.49	5116.41
452.68	5228.76
452.86	5165.56
453.05	5025.13
453.23	5210.03
453.42	5228.76
453.60	5104.71
453.78	5163.22
453.97	5170.24
454.15	5170.24
454.34	5081.30
454.52	5387.91
454.70	5287.27
454.89	5430.04
455.07	5371.53
455.26	5385.57
455.44	5301.31
455.62	5383.23
455.81	5455.79
455.99	5547.07
456.17	5406.64
456.36	5593.88
456.54	5514.30
456.73	5570.48
456.91	5643.03
457.09	5561.11
457.28	5640.69
457.46	5511.96
457.64	5760.06
457.83	5851.34
458.01	5554.09
458.19	5783.46
458.38	5769.42
458.56	5933.26
458.74	5818.57
458.93	5858.36
459.11	5802.19
459.29	5706.23
459.48	5818.57
459.66	5884.11
459.84	6193.06
460.03	5867.72
460.21	6003.47
460.39	5937.94
460.57	5926.24
460.76	6069.01
460.94	6076.03
461.12	5987.09
461.31	6132.20
461.49	6115.82
461.67	6076.03
461.85	6225.82
462.04	6277.32
462.22	6324.13
462.40	6155.61
462.59	6239.87
462.77	6164.97
462.95	6305.40
463.13	6380.30
463.32	6289.02
463.50	6394.34
463.68	6307.74
463.86	6289.02
464.05	6314.77
464.23	6361.58
464.41	6675.21
464.59	6300.72
464.78	6342.85
464.96	6389.66
465.14	6548.82
465.32	6483.28
465.50	6604.99
465.69	6633.08
465.87	6497.33
466.05	6527.75
466.23	6539.46
466.41	6609.67
466.60	6778.19
466.78	6590.95
466.96	6574.56
467.14	6502.01
467.32	6846.07
467.51	6764.15
467.69	6530.09
467.87	6843.73
468.05	6726.70
468.23	6621.38
468.41	6937.35
468.60	6733.72
468.78	6862.45
468.96	6878.83
469.14	6848.41
469.32	7014.59
469.50	6707.98
469.69	6970.12
469.87	7122.25
470.05	7052.03
470.23	7045.01
470.41	7052.03
470.59	7150.34
470.77	7215.87
470.95	7077.78
471.14	7211.19
471.32	7258.00
471.50	7332.90
471.68	7201.83
471.86	7173.74
472.04	7438.22
472.22	7613.76
472.40	7377.37
472.58	7494.40
472.77	7492.05
472.95	7604.40
473.13	7815.05
473.31	7716.75
473.49	7578.65
473.67	7625.47
473.85	7489.71
474.03	7747.17
474.21	7908.67
474.39	7922.71
474.57	7957.82
474.75	7983.57
474.93	7925.05
475.12	7974.21
475.30	8053.78
475.48	7854.84
475.66	8077.19
475.84	8072.51
476.02	8236.35
476.20	8067.83
476.38	8262.09
476.56	8599.13
476.74	8526.57
476.92	8561.68
477.10	8585.08
477.28	8748.92
477.46	8568.70
477.64	8842.54
477.82	8720.84
478.00	8987.66
478.18	9156.18
478.36	9088.30
478.54	9186.60
478.72	9088.30
478.90	9432.36
479.08	9352.78
479.26	9303.63
479.44	9507.26
479.62	9479.17
479.80	9525.98
479.98	9753.01
480.16	9753.01
480.34	9753.01
480.52	9893.44
480.70	9933.23
480.88	9605.56
481.06	9888.76
481.24	10054.94
481.41	10073.67
481.59	10239.84
481.77	10340.49
481.95	10413.04
482.13	10401.34
482.31	10445.81
482.49	10546.45
482.67	10785.19
482.85	10796.89
483.03	10881.15
483.21	11208.83
483.39	11143.29
483.57	11087.12
483.74	11131.59
483.92	11353.94
484.10	11365.64
484.28	11440.54
484.46	11723.74
484.64	11997.59
484.82	11758.85
485.00	11756.51
485.18	12011.63
485.35	12297.17
485.53	11943.75
485.71	12131.00
485.89	12250.36
486.07	12287.81
486.25	12224.62
486.43	12411.86
486.61	12676.34
486.78	12655.28
486.96	12814.43
487.14	13004.02
487.32	12945.50
487.50	13132.75
487.68	13308.29
487.85	13549.36
488.03	13397.23
488.21	13493.19
488.39	13598.51
488.57	13549.36
488.75	13968.32
488.92	13905.12
489.10	14478.55
489.28	14022.15
489.46	14352.16
489.64	14260.88
489.81	14466.85
489.99	14504.30
490.17	14494.94
490.35	14794.53
490.53	14831.97
490.70	14930.28
490.88	14958.36
491.06	15171.35
491.24	15122.20
491.41	15407.75
491.59	15452.22
491.77	15424.13
491.95	15609.03
492.13	15660.52
492.30	15850.11
492.48	15880.53
492.66	15763.51
492.84	16072.46
493.01	16482.05
493.19	16283.11
493.37	16449.28
493.54	16393.11
493.72	16444.60
493.90	16449.28
494.08	16659.93
494.25	17018.04
494.43	16926.75
494.61	17116.34
494.79	16886.97
494.96	17102.29
495.14	17303.58
495.32	17390.18
495.49	17434.65
495.67	17547.00
495.85	17673.39
496.02	17900.42
496.20	17951.91
496.38	17900.42
496.55	17926.16
496.73	18471.51
496.91	18295.97
497.09	18588.53
497.26	18490.23
497.44	18462.15
497.62	18661.09
497.79	18757.05
497.97	18401.29
498.14	18768.76
498.32	18824.93
498.50	19136.22
498.67	19096.43
498.85	19138.56
499.03	19190.05
499.20	19339.85
499.38	19316.44
499.56	19161.97
499.73	19318.78
499.91	19513.05
500.08	19754.12
500.26	19625.39
500.44	19803.27
500.61	20210.53
500.79	20016.26
500.97	20100.52
501.14	20250.32
501.32	20463.30
501.49	20404.79
501.67	20313.51
501.84	20304.15
502.02	20442.24
502.20	20540.54
502.37	20987.58
502.55	20872.90
502.72	21050.78
502.90	20751.19
503.07	20608.42
503.25	21027.37
503.43	21076.52
503.60	21132.70
503.78	21315.26
503.95	21212.28
504.13	21245.04
504.30	21378.45
504.48	21144.40
504.65	21556.33
504.83	21701.45
505.01	21563.36
505.18	21640.59
505.36	21942.52
505.53	21954.22
505.71	21963.59
505.88	22155.51
506.06	21706.13
506.23	22265.52
506.41	21956.57
506.58	22225.73
506.76	22045.51
506.93	22176.58
507.11	22345.09
507.28	22658.73
507.46	22382.54
507.63	22939.59
507.81	22677.45
507.98	22740.64
508.16	22640.00
508.33	23014.49
508.50	22768.73
508.68	23129.17
508.85	22895.12
509.03	23276.63
509.20	23068.32
509.38	23510.68
509.55	23660.48
509.73	23419.40
509.90	23644.09
510.08	23627.71
510.25	23501.32
510.42	23758.78
510.60	23812.61
510.77	23854.74
510.95	24067.73
511.12	23910.91
511.30	24194.12
511.47	24196.46
511.64	24491.37
511.82	24278.38
511.99	24393.06
512.17	24730.10
512.34	24372.00
512.51	24582.65
512.69	24730.10
512.86	24753.51
513.04	24971.18
513.21	25144.38
513.38	24788.61
513.56	25055.43
513.73	24886.92
513.90	25191.19
514.08	25106.93
514.25	25170.12
514.43	25277.79
514.60	25448.64
514.77	25331.62
514.95	25617.16
515.12	25301.19
515.29	25303.53
515.47	25685.04
515.64	26050.16
515.81	25788.02
515.99	26225.70
516.16	25991.65
516.33	26005.69
516.51	25752.91
516.68	26043.14
516.85	25825.47
517.03	26146.12
517.20	26665.72
517.37	26068.89
517.54	26663.38
517.72	26588.49
517.89	26422.31
518.06	26583.80
518.24	26775.73
518.41	26749.98
518.58	26792.11
518.75	26438.69
518.93	26803.82
519.10	26946.59
519.27	27190.00
519.45	27007.44
519.62	26902.12
519.79	27122.13
519.96	27103.40
520.14	27545.76
520.31	27117.45
520.48	27360.86
520.65	27110.43
520.83	27374.91
521.00	27185.32
521.17	27733.01
521.34	27775.14
521.52	27728.33
521.69	27660.45
521.86	28048.98
522.03	27831.31
522.20	28259.63
522.38	28142.60
522.55	28041.96
522.72	28217.50
522.89	28210.48
523.07	28467.94
523.24	28233.88
523.41	28435.17
523.58	28353.25
523.75	28521.77
523.92	29039.03
524.10	28659.86
524.27	28404.74
524.44	28804.97
524.61	29165.42
524.78	29062.43
524.96	28257.29
525.13	28847.10
525.30	29020.30
525.47	29366.70
525.64	29186.48
525.81	29076.48
525.98	29369.04
526.16	29254.36
526.33	29376.06
526.50	29603.10
526.67	29193.50
526.84	29078.82
527.01	28896.25
527.18	29376.06
527.36	29778.64
527.53	29745.87
527.70	29790.34
527.87	29439.26
528.04	29619.48
528.21	29427.56
528.38	29811.40
528.55	29741.19
528.72	30148.44
528.89	29912.05
529.07	30127.38
529.24	30216.32
529.41	30235.04
529.58	30031.41
529.75	29795.02
529.92	30169.51
530.09	30398.88
530.26	30043.12
530.43	30347.39
530.60	30293.55
530.77	30302.92
530.94	30363.77
531.11	30373.13
531.28	30553.35
531.46	30551.01
531.63	30852.94
531.80	30745.28
531.97	31239.13
532.14	31147.85
532.31	31082.31
532.48	30806.13
532.65	30932.52
532.82	30927.84
532.99	30644.63
533.16	31084.65
533.33	31122.10
533.50	31527.02
533.67	31395.95
533.84	31529.36
534.01	31136.15
534.18	31145.51
534.35	31409.99
534.52	31550.42
534.69	31693.19
534.86	32165.98
535.03	31419.35
535.20	31573.83
535.37	31639.36
535.54	31810.22
535.71	31711.92
535.88	31971.72
536.05	32135.56
536.22	31571.49
536.38	31943.63
536.55	32109.81
536.72	32332.16
536.89	31796.18
537.06	31732.98
537.23	32252.58
537.40	32142.58
537.57	32182.37
537.74	32187.05
537.91	32570.90
538.08	32587.28
538.25	31791.50
538.42	32318.12
538.59	32292.37
538.75	32280.67
538.92	32500.68
539.09	32549.83
539.26	33001.55
539.43	32332.16
539.60	32769.84
539.77	32849.42
539.94	32844.74
540.11	32512.38
540.28	32737.07
540.44	32854.10
540.61	33001.55
540.78	32929.00
540.95	33036.66
541.12	33092.83
541.29	33582.01
541.46	33460.30
541.62	33392.42
541.79	33387.74
541.96	33111.56
542.13	33362.00
542.30	33413.49
542.47	34089.90
542.63	33642.86
542.80	33467.32
542.97	34167.14
543.14	33912.02
543.31	33787.97
543.48	33802.02
543.64	34237.36
543.81	34141.39
543.98	34036.07
544.15	33926.07
544.32	34326.30
544.48	34258.42
544.65	33729.46
544.82	33986.92
544.99	33759.89
545.16	34370.77
545.32	34330.98
545.49	34918.45
545.66	35473.16
545.83	35232.08
546.00	35009.73
546.16	34649.29
546.33	34735.89
546.50	33944.79
546.67	34485.45
546.83	34279.49
547.00	34637.59
547.17	34555.67
547.34	34139.05
547.50	34384.81
547.67	34691.42
547.84	34225.65
548.00	34220.97
548.17	34628.23
548.34	34527.58
548.51	35065.91
548.67	35084.63
548.84	34981.65
549.01	34721.85
549.18	34466.73
549.34	35007.39
549.51	34646.95
549.68	34726.53
549.84	34501.84
550.01	34672.70
550.18	34602.48
550.34	34897.39
550.51	35206.34
550.68	35058.88
550.84	34831.85
551.01	34838.87
551.18	34869.30
551.34	34948.88
551.51	35131.44
551.68	35075.27
551.84	35061.22
552.01	34721.85
552.18	35161.87
552.34	34958.24
552.51	35009.73
552.68	35182.93
552.84	35079.95
553.01	35821.90
553.18	35131.44
553.34	35126.76
553.51	35297.62
553.67	35697.85
553.84	35662.74
554.01	35531.67
554.17	35679.13
554.34	35625.29
554.51	35262.51
554.67	35262.51
554.84	35498.91
555.00	35454.44
555.17	35454.44
555.33	35672.10
555.50	35550.40
555.67	35739.98
555.83	35105.70
556.00	35604.23
556.16	35859.35
556.33	35761.05
556.50	36114.47
556.66	35744.66
556.83	35442.73
556.99	35950.63
557.16	35644.02
557.32	35927.22
557.49	35562.10
557.65	36055.95
557.82	35594.87
557.98	35599.55
558.15	35716.58
558.32	35728.28
558.48	36016.16
558.65	35945.95
558.81	36172.98
558.98	36360.22
559.14	36133.19
559.31	35732.96
559.47	36055.95
559.64	35995.10
559.80	35992.76
559.97	36013.82
560.13	35896.80
560.30	35709.55
560.46	35938.93
560.63	36238.51
560.79	36273.62
560.96	36549.81
561.12	36034.89
561.29	36292.35
561.45	35962.33
561.61	35955.31
561.78	35990.42
561.94	36088.72
562.11	36046.59
562.27	35969.35
562.44	36163.62
562.60	36107.44
562.77	35934.24
562.93	35826.58
563.10	36765.14
563.26	36133.19
563.42	36407.03
563.59	35913.18
563.75	36477.25
563.92	35866.37
564.08	35985.74
564.24	36229.15
564.41	36697.26
564.57	36474.91
564.74	36175.32
564.90	36584.91
565.07	36519.38
565.23	36627.04
565.39	36137.87
565.56	36615.34
565.72	36119.15
565.88	36327.45
566.05	36517.04
566.21	35934.24
566.38	36315.75
566.54	36531.08
566.70	36320.43
566.87	37226.22
567.03	36311.07
567.19	36898.55
567.36	36566.19
567.52	36238.51
567.68	36566.19
567.85	36343.84
568.01	36498.31
568.17	36348.52
568.34	36823.65
568.50	36627.04
568.66	36294.69
568.83	36479.59
568.99	36364.90
569.15	36175.32
569.32	36437.46
569.48	36187.02
569.64	36332.14
569.81	36877.48
569.97	36364.90
570.13	37064.72
570.30	36322.77
570.46	36505.34
570.62	36519.38
570.78	36297.03
570.95	36299.37
571.11	36568.53
571.27	36304.05
571.43	36224.47
571.60	36156.60
571.76	36865.78
571.92	37074.09
572.09	36692.58
572.25	36861.10
572.41	36732.37
572.57	36194.04
572.74	36973.44
572.90	36273.62
573.06	36236.17
573.22	36613.00
573.38	36900.89
573.55	36444.48
573.71	36692.58
573.87	36491.29
574.03	36797.90
574.20	36842.37
574.36	36554.49
574.52	36648.11
574.68	36627.04
574.84	36495.97
575.01	36783.86
575.17	36961.74
575.33	36444.48
575.49	36666.83
575.65	36842.37
575.82	37249.63
575.98	36613.00
576.14	36814.29
576.30	36807.26
576.46	36877.48
576.62	36708.96
576.79	36828.33
576.95	36533.42
577.11	36685.56
577.27	36996.85
577.43	36751.09
577.59	36898.55
577.75	36521.72
577.92	36535.76
578.08	36320.43
578.24	36367.24
578.40	36215.11
578.56	37179.41
578.72	36772.16
578.88	37216.86
579.04	37156.00
579.21	36498.31
579.37	36830.67
579.53	36505.34
579.69	36425.76
579.85	36980.46
580.01	36982.80
580.17	36549.81
580.33	36935.99
580.49	37118.56
580.65	37153.66
580.82	36959.40
580.98	36804.92
581.14	36549.81
581.30	37074.09
581.46	36804.92
581.62	36233.83
581.78	36629.38
581.94	36889.18
582.10	36999.19
582.26	36879.82
582.42	37055.36
582.58	36971.10
582.74	36751.09
582.90	37156.00
583.06	37163.03
583.22	36697.26
583.38	37284.73
583.54	36655.13
583.70	36507.68
583.86	36692.58
584.02	36369.58
584.18	36725.35
584.34	37062.38
584.50	37408.78
584.66	36844.71
584.82	36428.10
584.98	36645.77
585.14	36692.58
585.30	36706.62
585.46	37289.42
585.62	36528.74
585.78	36765.14
585.94	36952.38
586.10	36713.64
586.26	36917.27
586.42	37418.14
586.58	36830.67
586.74	37235.58
586.90	37118.56
587.06	36788.54
587.22	36776.84
587.38	36720.66
587.54	37158.34
587.70	37191.11
587.86	37165.37
588.02	37001.53
588.18	37565.60
588.34	37249.63
588.49	36921.95
588.65	36613.00
588.81	37212.18
588.97	36924.29
589.13	36919.61
589.29	37043.66
589.45	37111.53
589.61	36935.99
589.77	37244.94
589.93	37172.39
590.08	37057.70
590.24	37170.05
590.40	37366.65
590.56	37163.03
590.72	37050.68
590.88	36631.72
591.04	37347.93
591.20	37565.60
591.35	37312.82
591.51	38071.15
