SpectraSuite Data File
++++++++++++++++++++++++++++++++++++
Date: Fri Oct 04 11:39:22 GMT-05:00 2013
User: price-jones
Dark Spectrum Present: No
Reference Spectrum Present: No
Number of Sampled Component Spectra: 1
Spectrometers: USB2+H05261
Integration Time (usec): 100000 (USB2+H05261)
Spectra Averaged: 1 (USB2+H05261)
Boxcar Smoothing: 0 (USB2+H05261)
Correct for Electrical Dark: No (USB2+H05261)
Strobe/Lamp Enabled: No (USB2+H05261)
Correct for Detector Non-linearity: No (USB2+H05261)
Correct for Stray Light: No (USB2+H05261)
Number of Pixels in Processed Spectrum: 2048
>>>>>Begin Processed Spectral Data<<<<<
365.73	135.75
365.92	135.75
366.12	135.75
366.32	0.00
366.52	0.00
366.72	4.68
366.91	0.00
367.11	0.00
367.31	0.00
367.51	0.00
367.70	0.00
367.90	25.75
368.10	0.00
368.30	0.00
368.49	0.00
368.69	32.77
368.89	0.00
369.09	0.00
369.28	0.00
369.48	0.00
369.68	2.34
369.87	30.43
370.07	0.00
370.27	67.88
370.47	46.81
370.66	215.33
370.86	283.20
371.06	273.84
371.25	222.35
371.45	290.23
371.65	252.78
371.84	280.86
372.04	313.63
372.24	290.23
372.44	271.50
372.63	292.57
372.83	304.27
373.03	301.93
373.22	344.06
373.42	315.97
373.62	337.04
373.81	351.08
374.01	404.91
374.21	332.36
374.40	353.42
374.60	351.08
374.79	299.59
374.99	418.96
375.19	355.76
375.38	388.53
375.58	374.49
375.78	402.57
375.97	346.40
376.17	376.83
376.37	341.72
376.56	421.30
376.76	358.10
376.95	299.59
377.15	393.21
377.35	433.00
377.54	383.85
377.74	404.91
377.93	358.10
378.13	404.91
378.33	493.85
378.52	482.15
378.72	332.36
378.91	369.80
379.11	423.64
379.31	379.17
379.50	390.87
379.70	435.34
379.89	458.74
380.09	416.62
380.28	341.72
380.48	461.09
380.68	365.12
380.87	414.27
381.07	454.06
381.26	433.00
381.46	447.04
381.65	489.17
381.85	418.96
382.04	447.04
382.24	468.11
382.43	437.68
382.63	451.72
382.83	440.02
383.02	486.83
383.22	526.62
383.41	433.00
383.61	484.49
383.80	550.03
384.00	442.36
384.19	414.27
384.39	430.66
384.58	486.83
384.78	500.87
384.97	482.15
385.17	484.49
385.36	458.74
385.56	524.28
385.75	475.13
385.95	547.69
386.14	528.96
386.34	517.26
386.53	524.28
386.72	442.36
386.92	566.41
387.11	561.73
387.31	540.66
387.50	550.03
387.70	468.11
387.89	526.62
388.09	582.79
388.28	519.60
388.48	505.56
388.67	561.73
388.86	535.98
389.06	484.49
389.25	601.52
389.45	552.37
389.64	636.63
389.84	589.82
390.03	582.79
390.22	631.94
390.42	671.73
390.61	531.30
390.81	585.13
391.00	587.47
391.19	667.05
391.39	566.41
391.58	535.98
391.78	617.90
391.97	692.80
392.16	713.86
392.36	676.41
392.55	711.52
392.75	660.03
392.94	688.12
393.13	683.44
393.33	744.29
393.52	741.95
393.71	732.59
393.91	648.33
394.10	702.16
394.29	681.10
394.49	706.84
394.68	777.06
394.88	763.01
395.07	777.06
395.26	805.14
395.46	746.63
395.65	718.54
395.84	837.91
396.04	877.70
396.23	858.98
396.42	737.27
396.62	802.80
396.81	812.17
397.00	856.64
397.19	910.47
397.39	891.74
397.58	770.04
397.77	849.61
397.97	847.27
398.16	858.98
398.35	814.51
398.55	840.25
398.74	992.39
398.93	964.30
399.12	915.15
399.32	973.66
399.51	924.51
399.70	999.41
399.90	954.94
400.09	940.90
400.28	1046.22
400.47	945.58
400.67	1022.81
400.86	987.71
401.05	1015.79
401.24	980.68
401.44	1050.90
401.63	1006.43
401.82	1097.71
402.01	1055.58
402.21	1111.75
402.40	1055.58
402.59	1041.54
402.78	1032.18
402.97	1064.94
403.17	1128.14
403.36	1137.50
403.55	1123.46
403.74	1055.58
403.93	1177.29
404.13	1203.04
404.32	1273.25
404.51	1203.04
404.70	1259.21
404.89	1193.67
405.09	1350.49
405.28	1242.82
405.47	1186.65
405.66	1303.68
405.85	1289.64
406.05	1287.29
406.24	1352.83
406.43	1376.24
406.62	1376.24
406.81	1369.21
407.00	1299.00
407.20	1266.23
407.39	1376.24
407.58	1376.24
407.77	1460.49
407.96	1511.99
408.15	1509.65
408.34	1558.80
408.54	1600.93
408.73	1558.80
408.92	1577.52
409.11	1540.07
409.30	1535.39
409.49	1537.73
409.68	1633.69
409.87	1643.06
410.07	1619.65
410.26	1668.80
410.45	1624.33
410.64	1675.82
410.83	1708.59
411.02	1605.61
411.21	1785.83
411.40	1823.28
411.59	1717.95
411.78	1785.83
411.98	1748.38
412.17	1830.30
412.36	1834.98
412.55	1933.28
412.74	1849.02
412.93	1942.64
413.12	1893.49
413.31	2057.33
413.50	1987.11
413.69	1996.48
413.88	2047.97
414.07	2062.01
414.26	2057.33
414.45	2186.06
414.64	2092.44
414.83	2260.96
415.02	2064.35
415.22	2303.09
415.41	2216.49
415.60	2300.75
415.79	2256.28
415.98	2422.45
416.17	2328.83
416.36	2363.94
416.55	2399.05
416.74	2525.44
416.93	2312.45
417.12	2272.66
417.31	2509.05
417.50	2422.45
417.69	2637.78
417.88	2523.10
418.07	2530.12
418.26	2555.86
418.45	2511.39
418.64	2696.30
418.83	2670.55
419.02	2677.57
419.21	2708.00
419.39	2644.81
419.58	2708.00
419.77	2726.72
419.96	2717.36
420.15	2834.39
420.34	2724.38
420.53	2780.56
420.72	2862.48
420.91	2853.11
421.10	2827.37
421.29	2951.42
421.48	2825.03
421.67	2836.73
421.86	2813.32
422.05	2986.52
422.24	2736.09
422.43	2839.07
422.61	2932.69
422.80	2878.86
422.99	2972.48
423.18	3091.85
423.37	3054.40
423.56	2986.52
423.75	2928.01
423.94	2832.05
424.13	2700.98
424.32	2963.12
424.50	2911.63
424.69	3005.25
424.88	3082.49
425.07	3105.89
425.26	3075.46
425.45	2953.76
425.64	3101.21
425.83	3197.17
426.01	3159.72
426.20	3040.36
426.39	3063.76
426.58	3084.83
426.77	3138.66
426.96	3187.81
427.15	3094.19
427.33	3068.44
427.52	3241.64
427.71	3220.58
427.90	3316.54
428.09	3337.60
428.28	3332.92
428.46	3346.97
428.65	3265.05
428.84	3424.20
429.03	3302.50
429.22	3201.85
429.40	3353.99
429.59	3389.10
429.78	3243.98
429.97	3405.48
430.16	3372.71
430.34	3466.33
430.53	3506.12
430.72	3391.44
430.91	3480.38
431.10	3468.67
431.28	3485.06
431.47	3592.72
431.66	3620.81
431.85	3492.08
432.03	3641.87
432.22	3740.18
432.41	3765.92
432.60	3674.64
432.79	3630.17
432.97	3611.45
433.16	3545.91
433.35	3662.94
433.54	3700.39
433.72	3796.35
433.91	3843.16
434.10	3815.07
434.28	3880.61
434.47	3822.09
434.66	3735.50
434.85	3911.04
435.03	4042.11
435.22	4049.13
435.41	4477.44
435.59	4407.23
435.78	4145.09
435.97	4102.96
436.16	4114.66
436.34	3913.38
436.53	3981.25
436.72	3983.59
436.90	4023.38
437.09	3943.80
437.28	3803.37
437.46	4065.51
437.65	4086.58
437.84	4227.01
438.02	4194.24
438.21	4159.13
438.40	4114.66
438.58	4287.86
438.77	4411.91
438.96	4280.84
439.14	4358.08
439.33	4383.82
439.52	4451.70
439.70	4414.25
439.89	4491.49
440.08	4657.67
440.26	4407.23
440.45	4589.79
440.63	4613.20
440.82	4709.16
441.01	4699.80
441.19	4645.96
441.38	4772.35
441.57	4578.09
441.75	4896.40
441.94	4961.94
442.12	5067.26
442.31	5013.43
442.50	4823.84
442.68	4987.68
442.87	5107.05
443.05	4919.81
443.24	5104.71
443.43	5085.98
443.61	5128.11
443.80	5296.63
443.98	5060.24
444.17	4908.10
444.35	5062.58
444.54	5006.41
444.73	5078.96
444.91	5156.20
445.10	5118.75
445.28	5111.73
445.47	5170.24
445.65	5088.32
445.84	5142.16
446.02	5254.50
446.21	5160.88
446.39	5252.16
446.58	5294.29
446.77	5596.22
446.95	5184.29
447.14	5284.93
447.32	5305.99
447.51	5350.46
447.69	5242.80
447.88	5242.80
448.06	5355.15
448.25	5329.40
448.43	5418.34
448.62	5310.68
448.80	5207.69
448.99	5451.11
449.17	5341.10
449.36	5310.68
449.54	5371.53
449.73	5362.17
449.91	5579.84
450.10	5598.56
450.28	5631.33
450.46	5720.27
450.65	5565.79
450.83	5610.26
451.02	5472.17
451.20	5783.46
451.39	5680.48
451.57	5628.99
451.76	5619.63
451.94	5701.54
452.13	5926.24
452.31	5818.57
452.49	5598.56
452.68	5856.02
452.86	5799.85
453.05	5823.25
453.23	5785.80
453.42	5863.04
453.60	5746.02
453.78	5816.23
453.97	5802.19
454.15	6022.20
454.34	5851.34
454.52	5940.28
454.70	5954.32
454.89	5968.37
455.07	6010.50
455.26	5928.58
455.44	6235.19
455.62	6099.44
455.81	6066.67
455.99	6150.93
456.17	6076.03
456.36	6303.06
456.54	6384.98
456.73	6307.74
456.91	6356.90
457.09	6387.32
457.28	6588.61
457.46	6352.21
457.64	6576.91
457.83	6693.93
458.01	6499.67
458.19	6649.46
458.38	6754.79
458.56	6569.88
458.74	6541.80
458.93	6588.61
459.11	6731.38
459.29	6520.73
459.48	6628.40
459.66	6558.18
459.84	6644.78
460.03	6759.47
460.21	6729.04
460.39	6736.06
460.57	6745.42
460.76	6759.47
460.94	6909.26
461.12	6932.67
461.31	6988.84
461.49	6916.28
461.67	6740.74
461.85	7129.27
462.04	6843.73
462.22	7548.23
462.40	6979.48
462.59	6995.86
462.77	7288.43
462.95	7304.81
463.13	7267.36
463.32	6984.16
463.50	7405.46
463.68	7110.55
463.86	7229.91
464.05	7047.35
464.23	7290.77
464.41	7222.89
464.59	7211.19
464.78	7410.14
464.96	7288.43
465.14	7229.91
465.32	7447.58
465.50	7562.27
465.69	7557.59
465.87	7314.17
466.05	7534.18
466.23	7307.15
466.41	7520.14
466.60	7742.49
466.78	7482.69
466.96	7459.29
467.14	7597.38
467.32	7681.64
467.51	7683.98
467.69	7454.61
467.87	7644.19
468.05	7786.96
468.23	7761.22
468.41	7583.34
468.60	7735.47
468.78	7997.61
468.96	7730.79
469.14	7934.42
469.32	7997.61
469.50	7772.92
469.69	8098.25
469.87	8121.66
470.05	8065.49
470.23	8154.43
470.41	8294.86
470.59	8156.77
470.77	8278.47
470.95	8112.30
471.14	8257.41
471.32	8189.53
471.50	8294.86
471.68	8308.90
471.86	8461.04
472.04	8414.23
472.22	8601.47
472.40	8308.90
472.58	8697.43
472.77	8575.72
472.95	8781.69
473.13	8779.35
473.31	8528.91
473.49	8760.63
473.67	8631.90
473.85	8760.63
474.03	8908.08
474.21	8608.49
474.39	8952.55
474.57	9090.64
474.75	9121.07
474.93	9193.62
475.12	9167.88
475.30	9167.88
475.48	9305.97
475.66	9240.44
475.84	9235.75
476.02	9259.16
476.20	9355.12
476.38	9430.02
476.56	9788.12
476.74	9713.22
476.92	9635.99
477.10	9598.54
477.28	9699.18
477.46	9811.53
477.64	10064.30
477.82	9944.94
478.00	10181.33
478.18	10272.61
478.36	10396.66
478.54	10579.22
478.72	10558.16
478.90	10586.24
479.08	10298.36
479.26	10815.62
479.44	10684.55
479.62	11005.20
479.80	11108.18
479.98	11152.65
480.16	11342.24
480.34	11108.18
480.52	11510.75
480.70	11442.88
480.88	11232.23
481.06	11562.25
481.24	11173.72
481.41	11653.53
481.59	11836.09
481.77	11824.39
481.95	11805.66
482.13	11943.75
482.31	12100.57
482.49	12301.86
482.67	12453.99
482.85	12306.54
483.03	12458.67
483.21	12964.23
483.39	12898.69
483.57	12744.22
483.74	12940.82
483.92	12975.93
484.10	13039.12
484.28	13228.71
484.46	13547.02
484.64	13589.15
484.82	13404.25
485.00	13549.36
485.18	13715.54
485.35	14113.43
485.53	13769.37
485.71	14218.75
485.89	14410.68
486.07	14054.92
486.25	14260.88
486.43	14380.25
486.61	14628.35
486.78	14789.85
486.96	14869.42
487.14	14867.08
487.32	15077.73
487.50	14937.30
487.68	15059.01
487.85	15328.17
488.03	15330.51
488.21	15571.58
488.39	15604.35
488.57	15763.51
488.75	16039.69
488.92	16154.38
489.10	16472.69
489.28	16168.42
489.46	16346.30
489.64	16435.24
489.81	16938.46
489.99	16589.72
490.17	16816.75
490.35	17062.51
490.53	17011.01
490.70	17085.91
490.88	17198.26
491.06	17242.73
491.24	17642.96
491.41	17392.52
491.59	17687.43
491.77	17846.58
491.95	18050.21
492.13	18202.35
492.30	18281.92
492.48	18228.09
492.66	18087.66
492.84	18448.10
493.01	18810.89
493.19	18750.03
493.37	19281.33
493.54	18738.33
493.72	19304.74
493.90	19363.25
494.08	19253.25
494.25	19379.64
494.43	19323.46
494.61	19910.94
494.79	19894.55
494.96	19758.80
495.14	19988.18
495.32	19917.96
495.49	20388.41
495.67	20205.84
495.85	20294.79
496.02	20418.83
496.20	20680.97
496.38	20414.15
496.55	20601.40
496.73	20919.71
496.91	20732.47
497.09	21039.08
497.26	21460.37
497.44	21350.37
497.62	21757.62
497.79	21397.18
497.97	21326.96
498.14	21926.14
498.32	22129.77
498.50	22139.13
498.67	22235.09
498.85	22352.12
499.03	22141.47
499.20	22157.85
499.38	22387.22
499.56	22225.73
499.73	22361.48
499.91	22794.48
500.08	23089.38
500.26	22682.13
500.44	22794.48
500.61	22841.29
500.79	23051.94
500.97	23122.15
501.14	23084.70
501.32	23330.46
501.49	23379.61
501.67	23377.27
501.84	23604.30
502.02	23229.82
502.20	23623.03
502.37	23819.63
502.55	23714.31
502.72	23789.20
502.90	24023.26
503.07	23880.49
503.25	23924.96
503.43	24151.99
503.60	24592.01
503.78	24287.74
503.95	24191.78
504.13	24247.95
504.30	24294.76
504.48	24659.88
504.65	24929.05
504.83	24989.90
505.01	24797.98
505.18	24943.09
505.36	25436.94
505.53	25226.29
505.71	25069.48
505.88	25209.91
506.06	25202.89
506.23	25322.26
506.41	25223.95
506.58	25645.25
506.76	25469.71
506.93	25841.85
507.11	25977.61
507.28	25879.30
507.46	26153.15
507.63	25839.51
507.81	26122.72
507.98	26230.38
508.16	26195.28
508.33	26019.74
508.50	26494.86
508.68	26698.49
508.85	26710.19
509.03	26647.00
509.20	27035.53
509.38	26885.73
509.55	26977.01
509.73	26946.59
509.90	27044.89
510.08	27187.66
510.25	27063.61
510.42	27360.86
510.60	27461.51
510.77	27587.89
510.95	27653.43
511.12	27524.70
511.30	27665.13
511.47	27899.19
511.64	27938.97
511.82	28203.46
511.99	28231.54
512.17	28540.49
512.34	27974.08
512.51	28332.18
512.69	28238.56
512.86	28409.42
513.04	28753.48
513.21	28882.21
513.38	28425.81
513.56	29039.03
513.73	28634.11
513.90	28943.06
514.08	28425.81
514.25	28907.96
514.43	29261.38
514.60	29282.44
514.77	29315.21
514.95	29528.20
515.12	29165.42
515.29	29619.48
515.47	29921.41
515.64	29734.17
515.81	29104.56
515.99	29872.26
516.16	30115.67
516.33	29888.64
516.51	30279.51
516.68	30047.80
516.85	29837.15
517.03	29989.28
517.20	30539.31
517.37	30033.75
517.54	30260.79
517.72	30424.62
517.89	30092.27
518.06	30361.43
518.24	30717.19
518.41	30511.22
518.58	30771.02
518.75	30810.81
518.93	30993.37
519.10	31044.87
519.27	31173.60
519.45	30916.14
519.62	31192.32
519.79	31159.55
519.96	31133.81
520.14	31477.86
520.31	31487.23
520.48	31541.06
520.65	31854.69
520.83	31468.50
521.00	31751.71
521.17	31477.86
521.34	31857.03
521.52	31945.97
521.69	31908.52
521.86	32100.45
522.03	32217.47
522.20	32587.28
522.38	32561.53
522.55	32488.98
522.72	32222.16
522.89	32275.99
523.07	32704.31
523.24	32233.86
523.41	32491.32
523.58	32610.68
523.75	32921.98
523.92	32652.81
524.10	32833.04
524.27	33010.92
524.44	33041.34
524.61	33284.76
524.78	32964.10
524.96	33195.82
525.13	33577.33
525.30	33816.06
525.47	33383.06
525.64	33603.07
525.81	33310.50
525.98	33876.91
526.16	33640.52
526.33	33684.99
526.50	33832.44
526.67	33567.96
526.84	33832.44
527.01	33677.97
527.18	33991.60
527.36	33968.19
527.53	33834.78
527.70	34223.31
527.87	34218.63
528.04	34377.79
528.21	34134.37
528.38	34302.89
528.55	34632.91
528.72	34637.59
528.89	34202.25
529.07	34651.63
529.24	34623.54
529.41	35030.80
529.58	34518.22
529.75	34455.03
529.92	34686.74
530.09	35007.39
530.26	35040.16
530.43	34920.79
530.60	34677.38
530.77	34756.96
530.94	35283.58
531.11	34773.34
531.28	34932.50
531.46	34948.88
531.63	35314.00
531.80	35943.61
531.97	35578.48
532.14	35974.03
532.31	35456.78
532.48	35316.34
532.65	35501.25
532.82	35229.74
532.99	35618.27
533.16	35501.25
533.33	35676.79
533.50	36308.73
533.67	36100.42
533.84	35639.34
534.01	35854.67
534.18	35814.88
534.35	36147.23
534.52	35725.94
534.69	36442.14
534.86	36290.01
535.03	36545.12
535.20	36201.07
535.37	36378.95
535.54	36517.04
535.71	36217.45
535.88	36552.15
536.05	36081.70
536.22	36910.25
536.38	36896.20
536.55	36893.86
536.72	36676.19
536.89	36924.29
537.06	36692.58
537.23	36704.28
537.40	37109.19
537.57	36971.10
537.74	36861.10
537.91	37280.05
538.08	37078.77
538.25	36800.24
538.42	37200.47
538.59	37195.79
538.75	37249.63
538.92	37102.17
539.09	37486.02
539.26	37460.27
539.43	37757.52
539.60	37797.31
539.77	37799.65
539.94	38080.52
540.11	38181.16
540.28	37734.12
540.44	37881.57
540.61	37734.12
540.78	38003.28
540.95	38316.91
541.12	38309.89
541.29	38667.99
541.46	37968.17
541.62	38373.08
541.79	38637.56
541.96	37865.19
542.13	38146.05
542.30	38962.90
542.47	38836.51
542.63	38803.74
542.80	38667.99
542.97	39054.18
543.14	39196.95
543.31	38892.68
543.48	38754.59
543.64	39187.59
543.81	39400.58
543.98	39208.65
544.15	39587.82
544.32	39222.70
544.48	39765.70
544.65	39517.60
544.82	39079.92
544.99	39021.41
545.16	39688.46
545.32	39175.89
545.49	40313.39
545.66	40570.85
545.83	40570.85
546.00	40875.12
546.16	39997.41
546.33	39674.42
546.50	39304.62
546.67	39669.74
546.83	39056.52
547.00	39681.44
547.17	39704.85
547.34	39943.58
547.50	40374.24
547.67	40456.16
547.84	39730.59
548.00	40051.25
548.17	40254.87
548.34	40004.44
548.51	40175.30
548.67	40184.66
548.84	40018.48
549.01	39824.22
549.18	40187.00
549.34	40154.23
549.51	39798.47
549.68	39878.05
549.84	40194.02
550.01	40037.20
550.18	39864.00
550.34	40374.24
550.51	40713.62
550.68	40526.38
550.84	40388.28
551.01	40437.44
551.18	40306.37
551.34	40046.57
551.51	40315.73
551.68	40519.35
551.84	40620.00
552.01	40416.37
552.18	40868.09
552.34	40451.48
552.51	40694.89
552.68	40444.46
552.84	40804.90
553.01	40631.70
553.18	41013.21
553.34	40467.86
553.51	40917.25
553.67	41055.34
553.84	41228.54
554.01	41139.60
554.17	40928.95
554.34	40779.15
554.51	40821.28
554.67	40549.78
554.84	40966.40
555.00	40865.75
555.17	41228.54
555.33	40524.04
555.50	40872.78
555.67	41090.44
555.83	41324.50
556.00	40999.16
556.16	41460.25
556.33	41177.04
556.50	41406.42
556.66	41766.86
556.83	41570.25
556.99	41663.88
557.16	41422.80
557.32	41488.34
557.49	41226.20
557.65	41457.91
557.82	41574.94
557.98	41310.46
558.15	41371.31
558.32	41801.97
558.48	41174.70
558.65	41813.67
558.81	41820.69
558.98	41808.99
559.14	42085.17
559.31	41663.88
559.47	41390.03
559.64	41750.48
559.80	41727.07
559.97	42171.77
560.13	41762.18
560.30	41691.96
560.46	41888.57
560.63	42029.00
560.79	42052.41
560.96	42139.00
561.12	41645.15
561.29	41844.10
561.45	42256.03
561.61	42101.56
561.78	42110.92
561.94	41951.76
562.11	41979.85
562.27	41986.87
562.44	41841.76
562.60	41668.56
562.77	42227.95
562.93	42120.28
563.10	42658.60
563.26	42234.97
563.42	42417.53
563.59	42038.36
563.75	42043.04
563.92	42096.88
564.08	41855.80
564.24	42124.96
564.41	41928.36
564.57	42113.26
564.74	42361.36
564.90	42333.27
565.07	42387.10
565.23	42377.74
565.39	42508.81
565.56	42232.63
565.72	42029.00
565.88	42192.84
566.05	42143.69
566.21	42323.91
566.38	42525.19
566.54	42169.43
566.70	42321.57
566.87	42412.85
567.03	42628.18
567.19	42953.51
567.36	42115.60
567.52	42281.78
567.68	42747.54
567.85	42555.62
568.01	42457.32
568.17	42529.87
568.34	42281.78
568.50	42176.45
568.66	42403.49
568.83	43093.94
568.99	42333.27
569.15	42504.13
569.32	42335.61
569.48	42684.35
569.64	42801.38
569.81	42263.05
569.97	42520.51
570.13	42717.12
570.30	42866.91
570.46	42862.23
570.62	42630.52
570.78	42260.71
570.95	42260.71
571.11	42653.92
571.27	42251.35
571.43	42113.26
571.60	42831.80
571.76	42766.27
571.92	42541.58
572.09	42621.16
572.25	42682.01
572.41	42440.93
572.57	42188.16
572.74	42698.39
572.90	42845.85
573.06	42527.53
573.22	42541.58
573.38	42808.40
573.55	42705.41
573.71	42967.55
573.87	43391.19
574.03	42941.81
574.20	42672.65
574.36	42927.77
574.52	42632.86
574.68	42738.18
574.84	42932.45
575.01	43225.01
575.17	43089.26
575.33	42417.53
575.49	42604.77
575.65	43283.53
575.82	42918.40
575.98	43145.44
576.14	43065.86
576.30	42469.02
576.46	43037.77
576.62	43086.92
576.79	42951.17
576.95	42733.50
577.11	43232.04
577.27	43086.92
577.43	42810.74
577.59	42890.32
577.75	42906.70
577.92	42717.12
578.08	42536.90
578.24	42625.84
578.40	43007.34
578.56	43517.58
578.72	43112.67
578.88	43690.78
579.04	43239.06
579.21	43253.10
579.37	42852.87
579.53	43063.52
579.69	42927.77
579.85	42880.95
580.01	43157.14
580.17	43185.22
580.33	43091.60
580.49	43548.01
580.65	43168.84
580.82	43571.41
580.98	43217.99
581.14	42845.85
581.30	42988.62
581.46	42686.69
581.62	42848.19
581.78	43026.07
581.94	43763.34
582.10	42698.39
582.26	43161.82
582.42	43356.08
582.58	43213.31
582.74	43278.85
582.90	43171.18
583.06	43210.97
583.22	43519.92
583.38	43302.25
583.54	43194.59
583.70	42742.86
583.86	42815.42
584.02	43005.00
584.18	43676.74
584.34	43391.19
584.50	43161.82
584.66	43297.57
584.82	42913.72
584.98	43037.77
585.14	43068.20
585.30	42747.54
585.46	43079.90
585.62	43316.29
585.78	43442.68
585.94	42845.85
586.10	43540.99
586.26	43037.77
586.42	43735.25
586.58	43625.25
586.74	43445.02
586.90	43423.96
587.06	43552.69
587.22	43395.87
587.38	43173.52
587.54	43250.76
587.70	43639.29
587.86	43285.87
588.02	43072.88
588.18	43629.93
588.34	43295.23
588.49	43398.21
588.65	43316.29
588.81	43379.49
588.97	43164.16
589.13	43423.96
589.29	43021.39
589.45	43157.14
589.61	43393.53
589.77	44018.46
589.93	43669.72
590.08	43536.30
590.24	43693.12
590.40	43611.20
590.56	43576.09
590.72	43402.89
590.88	42808.40
591.04	43264.80
