SpectraSuite Data File
++++++++++++++++++++++++++++++++++++
Date: Fri Oct 04 11:39:35 GMT-05:00 2013
User: price-jones
Dark Spectrum Present: No
Reference Spectrum Present: No
Number of Sampled Component Spectra: 1
Spectrometers: USB2+H05261
Integration Time (usec): 100000 (USB2+H05261)
Spectra Averaged: 1 (USB2+H05261)
Boxcar Smoothing: 0 (USB2+H05261)
Correct for Electrical Dark: No (USB2+H05261)
Strobe/Lamp Enabled: No (USB2+H05261)
Correct for Detector Non-linearity: No (USB2+H05261)
Correct for Stray Light: No (USB2+H05261)
Number of Pixels in Processed Spectrum: 2048
>>>>>Begin Processed Spectral Data<<<<<
365.73	21.06
365.92	21.06
366.12	21.06
366.32	0.00
366.52	0.00
366.72	16.38
366.91	0.00
367.11	0.00
367.31	0.00
367.51	0.00
367.70	0.00
367.90	39.79
368.10	0.00
368.30	42.13
368.49	0.00
368.69	0.00
368.89	0.00
369.09	0.00
369.28	0.00
369.48	0.00
369.68	0.00
369.87	14.04
370.07	39.79
370.27	91.28
370.47	100.64
370.66	187.24
370.86	203.63
371.06	217.67
371.25	294.91
371.45	180.22
371.65	177.88
371.84	229.37
372.04	135.75
372.24	201.29
372.44	215.33
372.63	266.82
372.83	346.40
373.03	351.08
373.22	201.29
373.42	315.97
373.62	184.90
373.81	306.61
374.01	283.20
374.21	358.10
374.40	245.76
374.60	339.38
374.79	339.38
374.99	381.51
375.19	285.55
375.38	351.08
375.58	346.40
375.78	320.65
375.97	311.29
376.17	425.98
376.37	248.10
376.56	339.38
376.76	325.33
376.95	299.59
377.15	351.08
377.35	308.95
377.54	278.52
377.74	304.27
377.93	292.57
378.13	304.27
378.33	292.57
378.52	306.61
378.72	341.72
378.91	278.52
379.11	320.65
379.31	390.87
379.50	400.23
379.70	423.64
379.89	318.31
380.09	390.87
380.28	358.10
380.48	290.23
380.68	337.04
380.87	365.12
381.07	330.02
381.26	397.89
381.46	365.12
381.65	376.83
381.85	276.18
382.04	297.25
382.24	381.51
382.43	365.12
382.63	435.34
382.83	332.36
383.02	383.85
383.22	386.19
383.41	315.97
383.61	355.76
383.80	358.10
384.00	339.38
384.19	304.27
384.39	369.80
384.58	386.19
384.78	381.51
384.97	383.85
385.17	346.40
385.36	472.79
385.56	381.51
385.75	461.09
385.95	416.62
386.14	454.06
386.34	348.74
386.53	461.09
386.72	332.36
386.92	482.15
387.11	351.08
387.31	409.59
387.50	475.13
387.70	400.23
387.89	458.74
388.09	435.34
388.28	376.83
388.48	402.57
388.67	454.06
388.86	477.47
389.06	444.70
389.25	479.81
389.45	463.43
389.64	358.10
389.84	547.69
390.03	468.11
390.22	468.11
390.42	496.19
390.61	533.64
390.81	468.11
391.00	587.47
391.19	517.26
391.39	526.62
391.58	550.03
391.78	498.53
391.97	559.39
392.16	507.90
392.36	451.72
392.55	580.45
392.75	603.86
392.94	517.26
393.13	554.71
393.33	458.74
393.52	528.96
393.71	552.37
393.91	596.84
394.10	531.30
394.29	608.54
394.49	561.73
394.68	566.41
394.88	557.05
395.07	676.41
395.26	585.13
395.46	676.41
395.65	603.86
395.84	716.20
396.04	664.71
396.23	575.77
396.42	638.97
396.62	650.67
396.81	720.88
397.00	550.03
397.19	734.93
397.39	657.69
397.58	737.27
397.77	718.54
397.97	777.06
398.16	702.16
398.35	802.80
398.55	711.52
398.74	805.14
398.93	873.02
399.12	746.63
399.32	741.95
399.51	805.14
399.70	800.46
399.90	835.57
400.09	844.93
400.28	856.64
400.47	844.93
400.67	936.21
400.86	807.48
401.05	924.51
401.24	945.58
401.44	870.68
401.63	978.34
401.82	940.90
402.01	875.36
402.21	875.36
402.40	945.58
402.59	910.47
402.78	999.41
402.97	950.26
403.17	992.39
403.36	1006.43
403.55	1046.22
403.74	1069.62
403.93	1055.58
404.13	1081.33
404.32	1081.33
404.51	1090.69
404.70	1064.94
404.89	1086.01
405.09	1123.46
405.28	1135.16
405.47	1245.16
405.66	1217.08
405.85	1266.23
406.05	1144.52
406.24	1275.59
406.43	1207.72
406.62	1266.23
406.81	1275.59
407.00	1242.82
407.20	1350.49
407.39	1308.36
407.58	1364.53
407.77	1320.06
407.96	1416.02
408.15	1446.45
408.34	1432.41
408.54	1458.15
408.73	1434.75
408.92	1451.13
409.11	1488.58
409.30	1430.07
409.49	1486.24
409.68	1533.05
409.87	1521.35
410.07	1533.05
410.26	1542.41
410.45	1572.84
410.64	1650.08
410.83	1652.42
411.02	1547.09
411.21	1647.74
411.40	1739.02
411.59	1736.68
411.78	1767.10
411.98	1715.61
412.17	1771.79
412.36	1689.87
412.55	1909.88
412.74	1872.43
412.93	1867.75
413.12	1741.36
413.31	1954.35
413.50	2022.22
413.69	1973.07
413.88	1977.75
414.07	2059.67
414.26	2022.22
414.45	2052.65
414.64	2122.87
414.83	2129.89
415.02	2143.93
415.22	2155.63
415.41	2260.96
415.60	2174.36
415.79	2282.02
415.98	2277.34
416.17	2361.60
416.36	2272.66
416.55	2396.71
416.74	2452.88
416.93	2303.09
417.12	2366.28
417.31	2525.44
417.50	2541.82
417.69	2586.29
417.88	2523.10
418.07	2513.74
418.26	2637.78
418.45	2675.23
418.64	2696.30
418.83	2651.83
419.02	2738.43
419.21	2719.70
419.39	2576.93
419.58	2499.69
419.77	2722.04
419.96	2724.38
420.15	2773.53
420.34	2799.28
420.53	2794.60
420.72	2902.26
420.91	2794.60
421.10	3005.25
421.29	2939.71
421.48	2895.24
421.67	2906.95
421.86	2986.52
422.05	3014.61
422.24	2944.39
422.43	3016.95
422.61	2993.55
422.80	3033.33
422.99	2949.08
423.18	3087.17
423.37	3157.38
423.56	3087.17
423.75	2986.52
423.94	3052.06
424.13	2930.35
424.32	2977.16
424.50	3185.47
424.69	3169.09
424.88	3103.55
425.07	3166.74
425.26	3101.21
425.45	3194.83
425.64	3103.55
425.83	3112.91
426.01	3166.74
426.20	3225.26
426.39	3215.90
426.58	3141.00
426.77	3281.43
426.96	3204.19
427.15	3262.71
427.33	3143.34
427.52	3279.09
427.71	3220.58
427.90	3323.56
428.09	3267.39
428.28	3323.56
428.46	3349.31
428.65	3365.69
428.84	3487.40
429.03	3393.78
429.22	3286.11
429.40	3475.70
429.59	3323.56
429.78	3412.50
429.97	3342.28
430.16	3372.71
430.34	3501.44
430.53	3651.24
430.72	3623.15
430.91	3438.25
431.10	3531.87
431.28	3660.60
431.47	3693.37
431.66	3688.68
431.85	3688.68
432.03	3742.52
432.22	3833.80
432.41	3754.22
432.60	3794.01
432.79	3712.09
432.97	3822.09
433.16	3829.12
433.35	3779.97
433.54	3850.18
433.72	3852.52
433.91	3775.28
434.10	3791.67
434.28	3934.44
434.47	3796.35
434.66	4117.00
434.85	4032.74
435.03	4044.45
435.22	4203.60
435.41	4493.83
435.59	4400.21
435.78	4215.30
435.97	4351.06
436.16	4203.60
436.34	4065.51
436.53	4227.01
436.72	4234.03
436.90	4035.08
437.09	4208.28
437.28	4072.53
437.46	4072.53
437.65	4278.50
437.84	4397.87
438.02	4327.65
438.21	4271.48
438.40	4393.19
438.58	4461.06
438.77	4489.15
438.96	4542.98
439.14	4503.19
439.33	4690.43
439.52	4671.71
439.70	4690.43
439.89	4704.48
440.08	4608.51
440.26	4601.49
440.45	4667.03
440.63	4737.24
440.82	4671.71
441.01	4795.76
441.19	4711.50
441.38	4755.97
441.57	4877.68
441.75	5006.41
441.94	5006.41
442.12	4961.94
442.31	5338.76
442.50	4973.64
442.68	5170.24
442.87	5163.22
443.05	5135.14
443.24	5210.03
443.43	5327.06
443.61	5181.95
443.80	5359.83
443.98	5144.50
444.17	5071.94
444.35	5242.80
444.54	5240.46
444.73	5188.97
444.91	5249.82
445.10	5139.82
445.28	5170.24
445.47	5303.65
445.65	5305.99
445.84	5359.83
446.02	5392.59
446.21	5203.01
446.39	5313.02
446.58	5336.42
446.77	5408.98
446.95	5268.55
447.14	5394.93
447.32	5434.72
447.51	5500.26
447.69	5448.77
447.88	5373.87
448.06	5514.30
448.25	5474.51
448.43	5385.57
448.62	5394.93
448.80	5298.97
448.99	5483.88
449.17	5575.16
449.36	5423.02
449.54	5736.65
449.73	5668.78
449.91	5769.42
450.10	5823.25
450.28	5638.35
450.46	5788.14
450.65	5724.95
450.83	5867.72
451.02	5820.91
451.20	5809.21
451.39	5790.49
451.57	5575.16
451.76	5874.74
451.94	5879.43
452.13	5874.74
452.31	5783.46
452.49	5856.02
452.68	5858.36
452.86	5893.47
453.05	6101.78
453.23	5951.98
453.42	6005.81
453.60	5788.14
453.78	5987.09
453.97	5921.56
454.15	5980.07
454.34	5987.09
454.52	6197.74
454.70	6050.28
454.89	6141.57
455.07	5991.77
455.26	6143.91
455.44	6328.81
455.62	6443.49
455.81	6359.24
455.99	6361.58
456.17	6342.85
456.36	6450.52
456.54	6270.30
456.73	6565.20
456.91	6612.01
457.09	6457.54
457.28	6604.99
457.46	6382.64
457.64	6609.67
457.83	6471.58
458.01	6502.01
458.19	6729.04
458.38	6565.20
458.56	6745.42
458.74	6757.13
458.93	6825.00
459.11	6942.03
459.29	6703.29
459.48	6965.43
459.66	6848.41
459.84	6799.26
460.03	7021.61
460.21	6963.09
460.39	6916.28
460.57	6883.52
460.76	7124.59
460.94	7021.61
461.12	7152.68
461.31	6932.67
461.49	6892.88
461.67	6998.20
461.85	7297.79
462.04	7073.10
462.22	7463.97
462.40	7082.46
462.59	7194.81
462.77	7288.43
462.95	7346.94
463.13	7332.90
463.32	7272.04
463.50	7211.19
463.68	7339.92
463.86	7353.96
464.05	7311.83
464.23	7379.71
464.41	7515.46
464.59	7307.15
464.78	7557.59
464.96	7222.89
465.14	7419.50
465.32	7510.78
465.50	7641.85
465.69	7705.04
465.87	7590.36
466.05	7625.47
466.23	7683.98
466.41	7754.19
466.60	8088.89
466.78	7555.25
466.96	7705.04
467.14	7527.16
467.32	7681.64
467.51	7651.21
467.69	7562.27
467.87	7770.58
468.05	7674.62
468.23	7864.20
468.41	7913.35
468.60	7857.18
468.78	8147.40
468.96	7784.62
469.14	8140.38
469.32	8081.87
469.50	7843.14
469.69	8154.43
469.87	8266.77
470.05	8229.32
470.23	8009.31
470.41	8224.64
470.59	8308.90
470.77	8086.55
470.95	8175.49
471.14	8760.63
471.32	8297.20
471.50	8353.37
471.68	8493.80
471.86	8641.26
472.04	8545.30
472.22	8561.68
472.40	8606.15
472.58	8568.70
472.77	8706.79
472.95	8828.50
473.13	9004.04
473.31	8912.76
473.49	8449.33
473.67	8933.82
473.85	8861.27
474.03	8931.48
474.21	9156.18
474.39	9041.49
474.57	9305.97
474.75	9547.05
474.93	9383.21
475.12	9252.14
475.30	9172.56
475.48	9437.04
475.66	9455.76
475.84	9451.08
476.02	9617.26
476.20	9624.28
476.38	9654.71
476.56	9956.64
476.74	9888.76
476.92	9893.44
477.10	9879.40
477.28	10038.56
477.46	10012.81
477.64	10181.33
477.82	10368.57
478.00	10345.17
478.18	10270.27
478.36	10548.79
478.54	10424.75
478.72	10546.45
478.90	10768.80
479.08	10979.45
479.26	10829.66
479.44	10740.72
479.62	11026.26
479.80	11096.48
479.98	11358.62
480.16	11140.95
480.34	11293.08
480.52	11384.37
480.70	11433.52
480.88	11389.05
481.06	11609.06
481.24	11833.75
481.41	11644.17
481.59	11960.14
481.77	12093.55
481.95	11978.86
482.13	12189.51
482.31	12170.79
482.49	12219.94
482.67	12184.83
482.85	12559.31
483.03	12650.60
483.21	12847.20
483.39	13055.51
483.57	12968.91
483.74	13177.22
483.92	13144.45
484.10	13008.70
484.28	13401.91
484.46	13476.80
484.64	13659.37
484.82	13490.85
485.00	13802.14
485.18	13956.61
485.35	14277.27
485.53	14005.77
485.71	14101.73
485.89	14647.07
486.07	14532.39
486.25	14347.48
486.43	14314.72
486.61	14721.97
486.78	14995.81
486.96	14754.74
487.14	14885.81
487.32	15082.41
487.50	15218.16
487.68	15419.45
487.85	15653.50
488.03	15737.76
488.21	16149.70
488.39	15847.77
488.57	15917.98
488.75	16023.31
488.92	16514.82
489.10	16549.93
489.28	16669.30
489.46	16816.75
489.64	16578.01
489.81	16884.62
489.99	17062.51
490.17	16931.44
490.35	17357.41
490.53	17341.03
490.70	17341.03
490.88	17174.85
491.06	17542.32
491.24	17612.53
491.41	17816.16
491.59	17724.88
491.77	18003.40
491.95	18068.94
492.13	18010.42
492.30	18164.90
492.48	18614.28
492.66	18450.44
492.84	18611.94
493.01	18745.35
493.19	18878.76
493.37	19089.41
493.54	19257.93
493.72	19426.45
493.90	19150.26
494.08	19260.27
494.25	19580.92
494.43	19726.04
494.61	19896.89
494.79	19758.80
494.96	19960.09
495.14	20123.93
495.32	20027.96
495.49	20512.46
495.67	20482.03
495.85	20432.88
496.02	20919.71
496.20	20870.56
496.38	20753.53
496.55	20842.47
496.73	21493.14
496.91	20975.88
497.09	21336.32
497.26	21439.31
497.44	21254.40
497.62	21378.45
497.79	21764.64
497.97	21926.14
498.14	22050.19
498.32	22066.57
498.50	22143.81
498.67	22225.73
498.85	22403.61
499.03	22518.29
499.20	22333.39
499.38	22462.12
499.56	22581.49
499.73	22766.39
499.91	23147.90
500.08	22628.30
500.26	22628.30
500.44	23105.77
500.61	23239.18
500.79	23178.33
500.97	23183.01
501.14	23365.57
501.32	23489.62
501.49	23447.49
501.67	23412.38
501.84	23702.61
502.02	23805.59
502.20	23857.08
502.37	24355.61
502.55	23817.29
502.72	23894.53
502.90	24304.12
503.07	24245.61
503.25	24276.04
503.43	24212.84
503.60	24449.24
503.78	24720.74
503.95	24423.49
504.13	24430.51
504.30	24589.67
504.48	24367.32
504.65	25158.42
504.83	25130.33
505.01	25275.45
505.18	25273.10
505.36	25333.96
505.53	25191.19
505.71	25238.00
505.88	25469.71
506.06	25352.68
506.23	25668.66
506.41	25820.79
506.58	25741.21
506.76	25685.04
506.93	25954.20
507.11	25933.14
507.28	26375.50
507.46	26284.22
507.63	26267.83
507.81	26536.99
507.98	26506.57
508.16	26031.44
508.33	26361.45
508.50	26597.85
508.68	26581.46
508.85	27175.96
509.03	27051.91
509.20	26700.83
509.38	27424.06
509.55	26986.38
509.73	27026.17
509.90	27419.38
510.08	27222.77
510.25	27379.59
510.42	27405.33
510.60	28158.99
510.77	28004.51
510.95	27875.78
511.12	27641.73
511.30	27943.66
511.47	27955.36
511.64	28510.07
511.82	28023.23
511.99	28020.89
512.17	28144.94
512.34	28533.47
512.51	28704.33
512.69	28444.53
512.86	28823.70
513.04	28844.76
513.21	28833.06
513.38	28975.83
513.56	29244.99
513.73	28587.30
513.90	29113.92
514.08	29116.26
514.25	29156.05
514.43	29570.33
514.60	29205.20
514.77	29160.73
514.95	29582.03
515.12	29401.81
515.29	29254.36
515.47	29500.11
515.64	29661.61
515.81	29738.85
515.99	30082.91
516.16	30312.28
516.33	30080.56
516.51	30368.45
516.68	29996.31
516.85	29949.50
517.03	30436.33
517.20	30366.11
517.37	30558.03
517.54	31005.08
517.72	30422.28
517.89	30281.85
518.06	30478.46
518.24	30927.84
518.41	30644.63
518.58	30670.38
518.75	31159.55
518.93	31164.23
519.10	31473.18
519.27	31281.26
519.45	31047.21
519.62	30946.56
519.79	31267.22
519.96	31318.71
520.14	31477.86
520.31	31835.97
520.48	31641.70
520.65	31622.98
520.83	31611.28
521.00	31796.18
521.17	31583.19
521.34	31845.33
521.52	31943.63
521.69	32128.53
521.86	32519.40
522.03	32212.79
522.20	32364.93
522.38	32285.35
522.55	32421.10
522.72	32306.41
522.89	32601.32
523.07	32914.95
523.24	32418.76
523.41	33172.41
523.58	32456.21
523.75	32968.79
523.92	32643.45
524.10	33013.26
524.27	32917.29
524.44	33422.85
524.61	33376.04
524.78	33453.28
524.96	33460.30
525.13	33436.89
525.30	33551.58
525.47	33329.23
525.64	33649.88
525.81	33647.54
525.98	34092.24
526.16	33556.26
526.33	33701.37
526.50	34293.53
526.67	34054.79
526.84	33956.49
527.01	33883.94
527.18	34150.76
527.36	34443.32
527.53	34192.89
527.70	34532.26
527.87	34345.02
528.04	34513.54
528.21	34653.97
528.38	34169.48
528.55	34295.87
528.72	34703.12
528.89	34883.34
529.07	34632.91
529.24	34251.40
529.41	34808.45
529.58	34719.51
529.75	34644.61
529.92	34976.97
530.09	35054.20
530.26	35171.23
530.43	35009.73
530.60	34881.00
530.77	35126.76
530.94	35290.60
531.11	35164.21
531.28	34586.10
531.46	35648.70
531.63	35356.13
531.80	35714.23
531.97	35777.43
532.14	35864.03
532.31	35159.53
532.48	36088.72
532.65	35742.32
532.82	35700.19
532.99	35744.66
533.16	35690.83
533.33	36423.42
533.50	35962.33
533.67	36233.83
533.84	35906.16
534.01	35777.43
534.18	35648.70
534.35	36341.50
534.52	36240.86
534.69	36451.50
534.86	36219.79
535.03	36339.16
535.20	36467.89
535.37	36091.06
535.54	36390.65
535.71	36161.28
535.88	36430.44
536.05	36861.10
536.22	36818.97
536.38	36802.58
536.55	37031.96
536.72	37338.57
536.89	36961.74
537.06	36842.37
537.23	36889.18
537.40	36666.83
537.57	36662.15
537.74	37373.67
537.91	37518.79
538.08	37263.67
538.25	37027.28
538.42	37378.36
538.59	37670.92
538.75	36982.80
538.92	37191.11
539.09	37652.20
539.26	37670.92
539.43	37696.67
539.60	37640.50
539.77	37628.79
539.94	37682.62
540.11	37876.89
540.28	37933.06
540.44	37727.10
540.61	37919.02
540.78	37811.35
540.95	37846.46
541.12	38216.27
541.29	38087.54
541.46	38227.97
541.62	38579.05
541.79	38586.07
541.96	38050.09
542.13	37879.23
542.30	38225.63
542.47	38679.69
542.63	38656.29
542.80	38520.54
542.97	38731.18
543.14	38993.32
543.31	38632.88
543.48	38974.60
543.64	39512.92
543.81	39510.58
543.98	39124.40
544.15	39299.94
544.32	39524.63
544.48	39199.29
544.65	39063.54
544.82	39093.97
544.99	39086.95
545.16	39171.21
545.32	39360.79
545.49	39810.17
545.66	40479.57
545.83	40175.30
546.00	40325.09
546.16	40133.17
546.33	39372.49
546.50	38871.62
546.67	39372.49
546.83	38962.90
547.00	39379.51
547.17	39672.08
547.34	39519.95
547.50	39824.22
547.67	40016.14
547.84	39669.74
548.00	39718.89
548.17	39910.82
548.34	39487.18
548.51	39959.97
548.67	39566.76
548.84	40046.57
549.01	40088.70
549.18	40109.76
549.34	39849.96
549.51	39913.16
549.68	39838.26
549.84	40119.12
550.01	40311.05
550.18	39856.98
550.34	39938.90
550.51	40105.08
550.68	40023.16
550.84	39889.75
551.01	39709.53
551.18	40144.87
551.34	39622.93
551.51	39936.56
551.68	40292.32
551.84	40507.65
552.01	40102.74
552.18	40250.19
552.34	40245.51
552.51	40304.02
552.68	40278.28
552.84	40058.27
553.01	40385.94
553.18	40474.88
553.34	40416.37
553.51	40184.66
553.67	40470.20
553.84	40769.79
554.01	40938.31
554.17	40910.22
554.34	40369.56
554.51	40205.72
554.67	40713.62
554.84	40437.44
555.00	40835.33
555.17	40477.22
555.33	40898.52
555.50	40552.12
555.67	40402.33
555.83	40631.70
556.00	41174.70
556.16	41045.97
556.33	41120.87
556.50	40851.71
556.66	41205.13
556.83	40271.26
556.99	40982.78
557.16	41064.70
557.32	41219.17
557.49	41113.85
557.65	40814.26
557.82	40739.36
557.98	41378.33
558.15	41336.20
558.32	41148.96
558.48	40870.43
558.65	41027.25
558.81	41205.13
558.98	41385.35
559.14	40914.90
559.31	40877.46
559.47	40730.00
559.64	41120.87
559.80	41085.76
559.97	41586.64
560.13	41350.24
560.30	41071.72
560.46	41406.42
560.63	41502.38
560.79	41331.52
560.96	41640.47
561.12	41106.83
561.29	42000.91
561.45	41144.28
561.61	41567.91
561.78	41181.73
561.94	41743.45
562.11	41670.90
562.27	41350.24
562.44	41649.83
562.60	41476.63
562.77	41579.62
562.93	41633.45
563.10	41670.90
563.26	41769.20
563.42	41579.62
563.59	41607.70
563.75	41862.82
563.92	41570.25
564.08	41670.90
564.24	41935.38
564.41	41240.24
564.57	41436.84
564.74	41017.89
564.90	41647.49
565.07	41729.41
565.23	41926.02
565.39	41315.14
565.56	41539.83
565.72	41448.55
565.88	41706.01
566.05	41851.12
566.21	41097.47
566.38	41418.12
566.54	41794.95
566.70	41701.32
566.87	41989.21
567.03	41827.71
567.19	42387.10
567.36	42080.49
567.52	41818.35
567.68	41921.34
567.85	41717.71
568.01	41858.14
568.17	41706.01
568.34	42052.41
568.50	41865.16
568.66	42012.62
568.83	41888.57
568.99	41621.75
569.15	41684.94
569.32	41624.09
569.48	41612.38
569.64	42190.50
569.81	41841.76
569.97	41645.15
570.13	42274.76
570.30	42174.11
570.46	42415.19
570.62	41612.38
570.78	41921.34
570.95	41729.41
571.11	41862.82
571.27	41696.64
571.43	41965.81
571.60	41977.51
571.76	41853.46
571.92	41965.81
572.09	41787.92
572.25	42096.88
572.41	42007.94
572.57	41689.62
572.74	42424.55
572.90	41680.26
573.06	41904.95
573.22	41724.73
573.38	42108.58
573.55	42029.00
573.71	41818.35
573.87	42127.30
574.03	42230.29
574.20	41888.57
574.36	41701.32
574.52	42136.66
574.68	41825.37
574.84	41542.17
575.01	41982.19
575.17	42244.33
575.33	41778.56
575.49	42000.91
575.65	42340.29
575.82	41888.57
575.98	42000.91
576.14	42373.06
576.30	42143.69
576.46	42316.89
576.62	41755.16
576.79	42260.71
576.95	41965.81
577.11	42454.98
577.27	42204.54
577.43	42192.84
577.59	42033.68
577.75	42136.66
577.92	41481.31
578.08	41670.90
578.24	41977.51
578.40	42270.08
578.56	41989.21
578.72	42178.79
578.88	42670.31
579.04	42342.63
579.21	42253.69
579.37	42263.05
579.53	42328.59
579.69	41659.20
579.85	42241.99
580.01	42330.93
580.17	41841.76
580.33	41998.57
580.49	42066.45
580.65	42270.08
580.82	42169.43
580.98	42225.60
581.14	42190.50
581.30	42454.98
581.46	41834.74
581.62	41844.10
581.78	41804.31
581.94	42270.08
582.10	41933.04
582.26	42398.80
582.42	41958.78
582.58	42164.75
582.74	42181.13
582.90	42347.31
583.06	42237.31
583.22	42115.60
583.38	41935.38
583.54	42033.68
583.70	42183.48
583.86	42403.49
584.02	42052.41
584.18	42593.07
584.34	42822.44
584.50	42398.80
584.66	42087.51
584.82	42192.84
584.98	42347.31
585.14	42398.80
585.30	42167.09
585.46	42134.32
585.62	42164.75
585.78	42251.35
585.94	41773.88
586.10	42405.83
586.26	42300.50
586.42	42122.62
586.58	42419.87
586.74	42560.30
586.90	42263.05
587.06	42241.99
587.22	42206.88
587.38	42080.49
587.54	42396.46
587.70	42485.40
587.86	42424.55
588.02	42359.02
588.18	42777.97
588.34	42398.80
588.49	42586.05
588.65	42021.98
588.81	42258.37
588.97	42590.73
589.13	42127.30
589.29	42321.57
589.45	42546.26
589.61	42604.77
589.77	42787.33
589.93	42541.58
590.08	42717.12
590.24	42939.47
590.40	42253.69
590.56	42707.76
590.72	42263.05
590.88	42007.94
591.04	42190.50
