SpectraSuite Data File
++++++++++++++++++++++++++++++++++++
Date: Fri Oct 04 11:39:23 GMT-05:00 2013
User: price-jones
Dark Spectrum Present: No
Reference Spectrum Present: No
Number of Sampled Component Spectra: 1
Spectrometers: USB2+H05261
Integration Time (usec): 100000 (USB2+H05261)
Spectra Averaged: 1 (USB2+H05261)
Boxcar Smoothing: 0 (USB2+H05261)
Correct for Electrical Dark: No (USB2+H05261)
Strobe/Lamp Enabled: No (USB2+H05261)
Correct for Detector Non-linearity: No (USB2+H05261)
Correct for Stray Light: No (USB2+H05261)
Number of Pixels in Processed Spectrum: 2048
>>>>>Begin Processed Spectral Data<<<<<
365.73	131.07
365.92	131.07
366.12	131.07
366.32	21.06
366.52	0.00
366.72	0.00
366.91	0.00
367.11	14.04
367.31	0.00
367.51	0.00
367.70	0.00
367.90	0.00
368.10	0.00
368.30	0.00
368.49	0.00
368.69	0.00
368.89	0.00
369.09	0.00
369.28	0.00
369.48	0.00
369.68	0.00
369.87	0.00
370.07	0.00
370.27	58.51
370.47	95.96
370.66	205.97
370.86	236.39
371.06	269.16
371.25	252.78
371.45	255.12
371.65	299.59
371.84	189.58
372.04	306.61
372.24	273.84
372.44	301.93
372.63	365.12
372.83	339.38
373.03	269.16
373.22	278.52
373.42	334.70
373.62	339.38
373.81	351.08
374.01	393.21
374.21	355.76
374.40	346.40
374.60	379.17
374.79	451.72
374.99	322.99
375.19	313.63
375.38	379.17
375.58	334.70
375.78	416.62
375.97	360.44
376.17	369.80
376.37	315.97
376.56	390.87
376.76	365.12
376.95	365.12
377.15	351.08
377.35	383.85
377.54	454.06
377.74	440.02
377.93	369.80
378.13	318.31
378.33	386.19
378.52	374.49
378.72	390.87
378.91	402.57
379.11	351.08
379.31	348.74
379.50	339.38
379.70	414.27
379.89	386.19
380.09	351.08
380.28	362.78
380.48	379.17
380.68	388.53
380.87	334.70
381.07	454.06
381.26	503.22
381.46	465.77
381.65	386.19
381.85	393.21
382.04	409.59
382.24	470.45
382.43	360.44
382.63	442.36
382.83	390.87
383.02	365.12
383.22	451.72
383.41	414.27
383.61	477.47
383.80	479.81
384.00	493.85
384.19	521.94
384.39	479.81
384.58	402.57
384.78	430.66
384.97	423.64
385.17	559.39
385.36	447.04
385.56	491.51
385.75	461.09
385.95	447.04
386.14	517.26
386.34	423.64
386.53	496.19
386.72	458.74
386.92	545.34
387.11	484.49
387.31	465.77
387.50	528.96
387.70	500.87
387.89	519.60
388.09	498.53
388.28	601.52
388.48	596.84
388.67	540.66
388.86	585.13
389.06	528.96
389.25	545.34
389.45	571.09
389.64	575.77
389.84	557.05
390.03	489.17
390.22	528.96
390.42	554.71
390.61	561.73
390.81	608.54
391.00	531.30
391.19	669.39
391.39	617.90
391.58	575.77
391.78	615.56
391.97	554.71
392.16	561.73
392.36	606.20
392.55	734.93
392.75	589.82
392.94	730.25
393.13	585.13
393.33	674.07
393.52	622.58
393.71	683.44
393.91	596.84
394.10	704.50
394.29	657.69
394.49	671.73
394.68	730.25
394.88	779.40
395.07	725.57
395.26	713.86
395.46	685.78
395.65	709.18
395.84	690.46
396.04	753.65
396.23	814.51
396.42	720.88
396.62	814.51
396.81	730.25
397.00	770.04
397.19	716.20
397.39	737.27
397.58	779.40
397.77	812.17
397.97	809.83
398.16	858.98
398.35	786.42
398.55	777.06
398.74	798.12
398.93	891.74
399.12	819.19
399.32	868.34
399.51	802.80
399.70	929.19
399.90	905.79
400.09	922.17
400.28	978.34
400.47	950.26
400.67	1034.52
400.86	840.25
401.05	910.47
401.24	947.92
401.44	961.96
401.63	943.24
401.82	961.96
402.01	983.02
402.21	968.98
402.40	1081.33
402.59	1043.88
402.78	1008.77
402.97	1083.67
403.17	1093.03
403.36	980.68
403.55	1123.46
403.74	1165.59
403.93	1217.08
404.13	1174.95
404.32	1177.29
404.51	1205.38
404.70	1245.16
404.89	1188.99
405.09	1261.55
405.28	1228.78
405.47	1308.36
405.66	1259.21
405.85	1282.61
406.05	1226.44
406.24	1296.66
406.43	1369.21
406.62	1303.68
406.81	1322.40
407.00	1380.92
407.20	1357.51
407.39	1357.51
407.58	1359.85
407.77	1430.07
407.96	1446.45
408.15	1472.20
408.34	1413.68
408.54	1430.07
408.73	1493.26
408.92	1511.99
409.11	1486.24
409.30	1511.99
409.49	1586.88
409.68	1493.26
409.87	1549.43
410.07	1645.40
410.26	1554.12
410.45	1614.97
410.64	1668.80
410.83	1647.74
411.02	1675.82
411.21	1748.38
411.40	1671.14
411.59	1732.00
411.78	1715.61
411.98	1757.74
412.17	1774.13
412.36	1846.68
412.55	1877.11
412.74	1860.73
412.93	1991.80
413.12	1818.60
413.31	1961.37
413.50	1968.39
413.69	1956.69
413.88	1973.07
414.07	1994.14
414.26	1989.46
414.45	2008.18
414.64	2188.40
414.83	2218.83
415.02	2143.93
415.22	2186.06
415.41	2150.95
415.60	2127.55
415.79	2230.53
415.98	2279.68
416.17	2223.51
416.36	2326.49
416.55	2317.13
416.74	2445.86
416.93	2354.58
417.12	2382.67
417.31	2380.32
417.50	2562.89
417.69	2429.48
417.88	2436.50
418.07	2525.44
418.26	2523.10
418.45	2539.48
418.64	2509.05
418.83	2609.70
419.02	2628.42
419.21	2672.89
419.39	2689.28
419.58	2612.04
419.77	2537.14
419.96	2619.06
420.15	2693.96
420.34	2717.36
420.53	2689.28
420.72	2750.13
420.91	2754.81
421.10	2754.81
421.29	2979.50
421.48	2754.81
421.67	2972.48
421.86	2789.92
422.05	2869.50
422.24	2799.28
422.43	2869.50
422.61	3059.08
422.80	2888.22
422.99	2956.10
423.18	2920.99
423.37	3021.63
423.56	2946.73
423.75	2937.37
423.94	2888.22
424.13	2775.88
424.32	2869.50
424.50	3035.67
424.69	2995.89
424.88	3164.40
425.07	2928.01
425.26	3145.68
425.45	3028.65
425.64	3089.51
425.83	3117.59
426.01	3087.17
426.20	3028.65
426.39	2977.16
426.58	3159.72
426.77	3124.62
426.96	3068.44
427.15	3169.09
427.33	3012.27
427.52	3136.32
427.71	3152.70
427.90	3171.43
428.09	3117.59
428.28	3157.38
428.46	3260.37
428.65	3176.11
428.84	3307.18
429.03	3325.90
429.22	3169.09
429.40	3293.13
429.59	3307.18
429.78	3220.58
429.97	3194.83
430.16	3297.81
430.34	3480.38
430.53	3468.67
430.72	3342.28
430.91	3274.41
431.10	3199.51
431.28	3517.83
431.47	3548.25
431.66	3433.57
431.85	3489.74
432.03	3700.39
432.22	3541.23
432.41	3604.42
432.60	3660.60
432.79	3557.61
432.97	3672.30
433.16	3655.92
433.35	3688.68
433.54	3765.92
433.72	3819.75
433.91	3634.85
434.10	3794.01
434.28	3686.34
434.47	3581.02
434.66	3887.63
434.85	3786.99
435.03	3824.44
435.22	4112.32
435.41	4227.01
435.59	4168.49
435.78	4037.42
435.97	4086.58
436.16	4039.76
436.34	3920.40
436.53	3967.21
436.72	4198.92
436.90	3887.63
437.09	3992.95
437.28	4051.47
437.46	3983.59
437.65	4109.98
437.84	3943.80
438.02	4121.68
438.21	4208.28
438.40	4070.19
438.58	4248.07
438.77	4231.69
438.96	4283.18
439.14	4318.29
439.33	4402.55
439.52	4388.50
439.70	4472.76
439.89	4470.42
440.08	4435.32
440.26	4344.03
440.45	4339.35
440.63	4486.81
440.82	4685.75
441.01	4519.57
441.19	4732.56
441.38	4620.22
441.57	4816.82
441.75	4730.22
441.94	4765.33
442.12	4793.42
442.31	4889.38
442.50	4826.18
442.68	4833.21
442.87	4929.17
443.05	4978.32
443.24	5102.37
443.43	4938.53
443.61	4940.87
443.80	5121.09
443.98	5020.45
444.17	4727.88
444.35	5069.60
444.54	5069.60
444.73	4997.04
444.91	5128.11
445.10	4931.51
445.28	4952.57
445.47	5013.43
445.65	5008.75
445.84	5291.95
446.02	5231.10
446.21	5107.05
446.39	5095.35
446.58	5160.88
446.77	5270.89
446.95	5151.52
447.14	5240.46
447.32	5373.87
447.51	5104.71
447.69	5221.74
447.88	5298.97
448.06	5186.63
448.25	5100.03
448.43	5137.48
448.62	5203.01
448.80	5291.95
448.99	5294.29
449.17	5338.76
449.36	5118.75
449.54	5451.11
449.73	5310.68
449.91	5282.59
450.10	5540.05
450.28	5495.58
450.46	5776.44
450.65	5516.64
450.83	5537.71
451.02	5444.09
451.20	5441.75
451.39	5624.31
451.57	5762.40
451.76	5636.01
451.94	5614.95
452.13	5577.50
452.31	5720.27
452.49	5701.54
452.68	5558.77
452.86	5734.31
453.05	5827.93
453.23	5839.64
453.42	5703.89
453.60	5788.14
453.78	5724.95
453.97	5809.21
454.15	5834.96
454.34	5767.08
454.52	5790.49
454.70	5884.11
454.89	6022.20
455.07	5975.39
455.26	5963.68
455.44	6171.99
455.62	6033.90
455.81	6043.26
455.99	6113.48
456.17	6054.97
456.36	6078.37
456.54	6174.33
456.73	6242.21
456.91	6296.04
457.09	6338.17
457.28	6443.49
457.46	6403.71
457.64	6368.60
457.83	6469.24
458.01	6384.98
458.19	6630.74
458.38	6291.36
458.56	6576.91
458.74	6487.96
458.93	6328.81
459.11	6544.14
459.29	6492.65
459.48	6658.82
459.66	6525.41
459.84	6658.82
460.03	6759.47
460.21	6600.31
460.39	6665.85
460.57	6672.87
460.76	6553.50
460.94	6715.00
461.12	6918.62
461.31	6689.25
461.49	6878.83
461.67	6757.13
461.85	6740.74
462.04	7033.31
462.22	7110.55
462.40	6984.16
462.59	7063.74
462.77	7077.78
462.95	7126.93
463.13	6801.60
463.32	7019.27
463.50	7021.61
463.68	7187.79
463.86	7187.79
464.05	6906.92
464.23	7021.61
464.41	7169.06
464.59	7045.01
464.78	7052.03
464.96	7166.72
465.14	7068.42
465.32	7370.35
465.50	7496.74
465.69	7250.98
465.87	7384.39
466.05	7236.94
466.23	7323.54
466.41	7178.42
466.60	7461.63
466.78	7349.28
466.96	7466.31
467.14	7339.92
467.32	7449.93
467.51	7611.42
467.69	7517.80
467.87	7337.58
468.05	7433.54
468.23	7440.56
468.41	7407.80
468.60	7779.94
468.78	7712.07
468.96	7655.89
469.14	7985.91
469.32	7754.19
469.50	7700.36
469.69	7941.44
469.87	7747.17
470.05	7969.52
470.23	7698.02
470.41	7843.14
470.59	7911.01
470.77	7899.31
470.95	8201.24
471.14	8163.79
471.32	7953.14
471.50	8318.26
471.68	8067.83
471.86	8126.34
472.04	8306.56
472.22	8339.33
472.40	8325.29
472.58	8344.01
472.77	8299.54
472.95	8505.51
473.13	8767.65
473.31	8386.14
473.49	8638.92
473.67	8568.70
473.85	8760.63
474.03	8889.35
474.21	9018.08
474.39	8854.25
474.57	8917.44
474.75	8964.25
474.93	9022.77
475.12	8884.67
475.30	9252.14
475.48	9048.51
475.66	9254.48
475.84	9041.49
476.02	9238.09
476.20	9123.41
476.38	9516.62
476.56	9366.82
476.74	9446.40
476.92	9411.29
477.10	9366.82
477.28	9694.50
477.46	9685.14
477.64	9724.93
477.82	9951.96
478.00	10139.20
478.18	9886.42
478.36	10083.03
478.54	10239.84
478.72	10417.72
478.90	10635.39
479.08	10450.49
479.26	10726.68
479.44	10717.31
479.62	10808.59
479.80	10860.09
479.98	10892.85
480.16	10981.79
480.34	11052.01
480.52	11187.76
480.70	11178.40
480.88	11370.32
481.06	11208.83
481.24	11414.79
481.41	11489.69
481.59	11595.01
481.77	11789.28
481.95	11800.98
482.13	11899.28
482.31	12056.10
482.49	12013.97
482.67	12372.07
482.85	12243.34
483.03	12336.96
483.21	12765.28
483.39	12617.83
483.57	12528.89
483.74	12751.24
483.92	12781.67
484.10	12802.73
484.28	13132.75
484.46	13123.38
484.64	13495.53
484.82	13146.79
485.00	13406.59
485.18	13579.79
485.35	13722.56
485.53	13607.87
485.71	13867.67
485.89	13968.32
486.07	13998.74
486.25	13977.68
486.43	13984.70
486.61	14293.65
486.78	14321.74
486.96	14214.07
487.14	14726.65
487.32	14768.78
487.50	14782.82
487.68	15117.52
487.85	15176.03
488.03	15358.60
488.21	15360.94
488.39	15405.41
488.57	15477.96
488.75	15810.32
488.92	16013.95
489.10	16142.67
489.28	15807.98
489.46	16135.65
489.64	16477.37
489.81	16545.25
489.99	16861.22
490.17	16252.68
490.35	17097.61
490.53	16783.98
490.70	16861.22
490.88	16805.05
491.06	17064.85
491.24	17041.44
491.41	17284.86
491.59	17465.08
491.77	17589.13
491.95	17841.90
492.13	17940.21
492.30	17947.23
492.48	18090.00
492.66	18073.62
492.84	18185.96
493.01	18200.01
493.19	18420.02
493.37	18464.49
493.54	18448.10
493.72	18705.56
493.90	18799.18
494.08	19030.90
494.25	18775.78
494.43	19145.58
494.61	19417.08
494.79	19323.46
494.96	19316.44
495.14	19784.55
495.32	19871.15
495.49	19499.00
495.67	19962.43
495.85	20112.22
496.02	19906.26
496.20	20187.12
496.38	20093.50
496.55	20400.11
496.73	20585.01
496.91	20765.23
497.09	20786.30
497.26	20821.41
497.44	20704.38
497.62	20851.83
497.79	20989.92
497.97	21022.69
498.14	21553.99
498.32	21614.85
498.50	21722.51
498.67	21790.39
498.85	21783.37
499.03	21724.85
499.20	21750.60
499.38	22071.25
499.56	22017.42
499.73	22499.57
499.91	22242.11
500.08	22618.94
500.26	22356.80
500.44	22508.93
500.61	22654.05
500.79	22583.83
500.97	22525.32
501.14	22963.00
501.32	23033.21
501.49	22785.12
501.67	23213.43
501.84	23033.21
502.02	22951.29
502.20	23295.35
502.37	23456.85
502.55	23606.64
502.72	23625.37
502.90	23697.92
503.07	23623.03
503.25	23566.85
503.43	23910.91
503.60	23814.95
503.78	24301.78
503.95	23831.33
504.13	24287.74
504.30	23988.15
504.48	23960.06
504.65	24215.18
504.83	24283.06
505.01	24720.74
505.18	24458.60
505.36	24823.72
505.53	24844.79
505.71	24919.68
505.88	24720.74
506.06	24720.74
506.23	25083.52
506.41	25252.04
506.58	24919.68
506.76	25399.49
506.93	25280.13
507.11	25350.34
507.28	25390.13
507.46	25891.01
507.63	25656.95
507.81	26242.09
507.98	25738.87
508.16	25886.32
508.33	25680.36
508.50	26218.68
508.68	26223.36
508.85	26260.81
509.03	26366.13
509.20	26492.52
509.38	26764.03
509.55	26370.82
509.73	26757.00
509.90	26693.81
510.08	27136.17
510.25	26803.82
510.42	27000.42
510.60	27157.24
510.77	27309.37
510.95	27599.60
511.12	26773.39
511.30	27393.63
511.47	27421.72
511.64	27175.96
511.82	27569.17
511.99	27730.67
512.17	27634.71
512.34	27992.81
512.51	27934.29
512.69	28027.92
512.86	28091.11
513.04	28041.96
513.21	28613.05
513.38	28147.28
513.56	28423.47
513.73	28409.42
513.90	28203.46
514.08	28245.58
514.25	28610.71
514.43	28697.31
514.60	28496.02
514.77	28608.37
514.95	29015.62
515.12	28856.46
515.29	28694.97
515.47	29242.65
515.64	29596.07
515.81	29450.96
515.99	29422.87
516.16	29453.30
516.33	29715.44
516.51	29783.32
516.68	29294.14
516.85	29610.12
517.03	29443.94
517.20	29851.19
517.37	29649.91
517.54	30059.50
517.72	29682.67
517.89	30316.96
518.06	30480.80
518.24	30246.74
518.41	30347.39
518.58	30426.96
518.75	30333.34
518.93	30677.40
519.10	30623.57
519.27	30754.64
519.45	30471.43
519.62	30937.20
519.79	30579.10
519.96	30506.54
520.14	31065.93
520.31	30745.28
520.48	30677.40
520.65	31096.36
520.83	31421.69
521.00	31304.67
521.17	31267.22
521.34	31323.39
521.52	31365.52
521.69	31803.20
521.86	31606.59
522.03	32025.55
522.20	32060.66
522.38	31983.42
522.55	31894.48
522.72	31688.51
522.89	32109.81
523.07	32385.99
523.24	32271.31
523.41	32357.91
523.58	32196.41
523.75	32016.19
523.92	32369.61
524.10	32196.41
524.27	32575.58
524.44	32294.71
524.61	32830.69
524.78	32474.93
524.96	32818.99
525.13	32779.20
525.30	32734.73
525.47	32954.74
525.64	32678.56
525.81	33179.43
525.98	33127.94
526.16	33125.60
526.33	32790.91
526.50	33464.98
526.67	33280.08
526.84	33191.14
527.01	32877.51
527.18	33589.03
527.36	33532.86
527.53	33734.14
527.70	33895.64
527.87	33584.35
528.04	33977.56
528.21	34305.23
528.38	33893.30
528.55	33991.60
528.72	33944.79
528.89	34071.18
529.07	34139.05
529.24	33338.59
529.41	34302.89
529.58	34139.05
529.75	33986.92
529.92	34354.38
530.09	34412.90
530.26	34459.71
530.43	34520.56
530.60	34370.77
530.77	34408.22
530.94	34740.57
531.11	34452.69
531.28	34370.77
531.46	34501.84
531.63	34820.15
531.80	34763.98
531.97	34974.63
532.14	35421.67
532.31	34817.81
532.48	35211.02
532.65	34920.79
532.82	34920.79
532.99	35173.57
533.16	35101.01
533.33	35784.45
533.50	35562.10
533.67	35651.04
533.84	35381.88
534.01	34920.79
534.18	35463.80
534.35	35679.13
534.52	35803.17
534.69	35761.05
534.86	36002.12
535.03	35871.05
535.20	35948.29
535.37	36055.95
535.54	35723.60
535.71	36009.14
535.88	36055.95
536.05	35838.28
536.22	36533.42
536.38	36510.02
536.55	36613.00
536.72	36692.58
536.89	36259.58
537.06	36374.27
537.23	36282.98
537.40	36189.36
537.57	36484.27
537.74	36400.01
537.91	36898.55
538.08	36957.06
538.25	36453.84
538.42	36591.94
538.59	37111.53
538.75	36353.20
538.92	36804.92
539.09	37092.81
539.26	37549.21
539.43	37151.32
539.60	37022.59
539.77	37151.32
539.94	37141.96
540.11	37153.66
540.28	37464.96
540.44	37376.01
540.61	37567.94
540.78	37163.03
540.95	37479.00
541.12	37904.98
541.29	37867.53
541.46	37631.13
541.62	38213.93
541.79	37865.19
541.96	37471.98
542.13	37720.07
542.30	37809.01
542.47	38213.93
542.63	38232.65
542.80	38440.96
542.97	38260.74
543.14	38469.04
543.31	38155.41
543.48	38759.27
543.64	38597.77
543.81	38998.01
543.98	38960.56
544.15	38880.98
544.32	38724.16
544.48	38932.47
544.65	38827.15
544.82	38934.81
544.99	38724.16
545.16	38501.81
545.32	38785.02
545.49	39959.97
545.66	40198.70
545.83	39732.93
546.00	40306.37
546.16	39496.54
546.33	38962.90
546.50	38298.19
546.67	39091.63
546.83	39068.22
547.00	39295.25
547.17	39306.96
547.34	39407.60
547.50	39285.89
547.67	39796.13
547.84	38955.88
548.00	39232.06
548.17	39559.73
548.34	39402.92
548.51	39407.60
548.67	39505.90
548.84	39571.44
549.01	39620.59
549.18	39564.42
549.34	39756.34
549.51	39480.16
549.68	39529.31
549.84	39342.06
550.01	39629.95
550.18	39597.18
550.34	39398.24
550.51	40107.42
550.68	40098.06
550.84	39981.03
551.01	39859.32
551.18	39737.62
551.34	39363.13
551.51	40088.70
551.68	39849.96
551.84	39957.63
552.01	40060.61
552.18	40362.54
552.34	39962.31
552.51	40154.23
552.68	39716.55
552.84	39817.19
553.01	40327.43
553.18	40158.91
553.34	39992.73
553.51	40259.55
553.67	40795.54
553.84	40790.86
554.01	40053.59
554.17	40519.35
554.34	40631.70
554.51	40526.38
554.67	40552.12
554.84	40154.23
555.00	40655.11
555.17	40350.84
555.33	41111.51
555.50	40388.28
555.67	40753.41
555.83	40605.95
556.00	40187.00
556.16	40968.74
556.33	40598.93
556.50	41144.28
556.66	40570.85
556.83	40659.79
556.99	41181.73
557.16	41067.04
557.32	40828.30
557.49	40954.69
557.65	40744.05
557.82	40954.69
557.98	41071.72
558.15	41127.89
558.32	41497.70
558.48	41015.55
558.65	41233.22
558.81	41060.02
558.98	40980.44
559.14	41195.77
559.31	40624.68
559.47	40917.25
559.64	40840.01
559.80	41078.74
559.97	41397.06
560.13	41155.98
560.30	41083.42
560.46	41631.11
560.63	41303.43
560.79	41418.12
560.96	41474.29
561.12	41113.85
561.29	41116.19
561.45	41317.48
561.61	41638.13
561.78	41322.16
561.94	41214.49
562.11	41324.50
562.27	41242.58
562.44	41289.39
562.60	41579.62
562.77	41270.67
562.93	41507.06
563.10	41308.11
563.26	41523.44
563.42	42033.68
563.59	41773.88
563.75	41450.89
563.92	41633.45
564.08	41296.41
564.24	41495.36
564.41	41160.66
564.57	40985.12
564.74	41626.43
564.90	41546.85
565.07	42110.92
565.23	41581.96
565.39	41560.89
565.56	41577.28
565.72	41329.18
565.88	42075.81
566.05	41970.49
566.21	41947.08
566.38	41794.95
566.54	41593.66
566.70	41944.74
566.87	42043.04
567.03	42225.60
567.19	41879.21
567.36	42031.34
567.52	41507.06
567.68	41801.97
567.85	41668.56
568.01	41600.68
568.17	41757.50
568.34	42438.59
568.50	42164.75
568.66	41605.36
568.83	42279.44
568.99	41818.35
569.15	41708.35
569.32	41965.81
569.48	41972.83
569.64	41942.40
569.81	41743.45
569.97	42047.72
570.13	41965.81
570.30	41780.90
570.46	42131.98
570.62	41914.31
570.78	41907.29
570.95	41897.93
571.11	41963.46
571.27	41696.64
571.43	41502.38
571.60	42033.68
571.76	41790.27
571.92	42780.31
572.09	42202.20
572.25	42174.11
572.41	42185.82
572.57	42106.24
572.74	42501.79
572.90	42529.87
573.06	42265.39
573.22	42323.91
573.38	42546.26
573.55	42167.09
573.71	42459.66
573.87	42557.96
574.03	42223.26
574.20	42539.24
574.36	42377.74
574.52	42033.68
574.68	42192.84
574.84	42398.80
575.01	42307.52
575.17	42464.34
575.33	41989.21
575.49	42483.06
575.65	42143.69
575.82	42085.17
575.98	42127.30
576.14	42286.46
576.30	42483.06
576.46	42529.87
576.62	42139.00
576.79	42869.25
576.95	42256.03
577.11	42089.85
577.27	42178.79
577.43	42462.00
577.59	42326.25
577.75	42171.77
577.92	41614.72
578.08	42419.87
578.24	42131.98
578.40	42115.60
578.56	42476.04
578.72	42492.43
578.88	42703.07
579.04	42803.72
579.21	42408.17
579.37	42429.23
579.53	42513.49
579.69	42181.13
579.85	42382.42
580.01	42089.85
580.17	42113.26
580.33	42630.52
580.49	42366.04
580.65	42806.06
580.82	43040.11
580.98	42307.52
581.14	42293.48
581.30	42569.66
581.46	42375.40
581.62	42431.57
581.78	41860.48
581.94	42923.08
582.10	42373.06
582.26	42714.78
582.42	42728.82
582.58	42721.80
582.74	42614.13
582.90	43016.71
583.06	42684.35
583.22	42279.44
583.38	42351.99
583.54	42375.40
583.70	42424.55
583.86	42801.38
584.02	42312.20
584.18	42607.11
584.34	42684.35
584.50	42562.64
584.66	42667.97
584.82	42452.64
584.98	42731.16
585.14	42487.74
585.30	42337.95
585.46	42663.28
585.62	42171.77
585.78	42651.58
585.94	42312.20
586.10	42731.16
586.26	42724.14
586.42	42632.86
586.58	42808.40
586.74	42731.16
586.90	42581.37
587.06	42541.58
587.22	42515.83
587.38	42623.50
587.54	42604.77
587.70	42789.67
587.86	42438.59
588.02	42731.16
588.18	42614.13
588.34	42616.47
588.49	42656.26
588.65	42382.42
588.81	42895.00
588.97	42721.80
589.13	42321.57
589.29	42653.92
589.45	42904.36
589.61	42768.61
589.77	43306.93
589.93	42677.33
590.08	43115.01
590.24	42927.77
590.40	43215.65
590.56	43297.57
590.72	43005.00
590.88	42553.28
591.04	43166.50
