SpectraSuite Data File
++++++++++++++++++++++++++++++++++++
Date: Fri Oct 04 11:39:46 GMT-05:00 2013
User: price-jones
Dark Spectrum Present: No
Reference Spectrum Present: No
Number of Sampled Component Spectra: 1
Spectrometers: USB2+H05261
Integration Time (usec): 100000 (USB2+H05261)
Spectra Averaged: 1 (USB2+H05261)
Boxcar Smoothing: 0 (USB2+H05261)
Correct for Electrical Dark: No (USB2+H05261)
Strobe/Lamp Enabled: No (USB2+H05261)
Correct for Detector Non-linearity: No (USB2+H05261)
Correct for Stray Light: No (USB2+H05261)
Number of Pixels in Processed Spectrum: 2048
>>>>>Begin Processed Spectral Data<<<<<
365.73	0.00
365.92	0.00
366.12	0.00
366.32	0.00
366.52	0.00
366.72	0.00
366.91	0.00
367.11	28.09
367.31	25.75
367.51	0.00
367.70	0.00
367.90	0.00
368.10	0.00
368.30	0.00
368.49	0.00
368.69	0.00
368.89	0.00
369.09	0.00
369.28	0.00
369.48	0.00
369.68	0.00
369.87	0.00
370.07	65.54
370.27	93.62
370.47	163.84
370.66	393.21
370.86	592.16
371.06	510.24
371.25	552.37
371.45	477.47
371.65	561.73
371.84	507.90
372.04	543.00
372.24	613.22
372.44	592.16
372.63	629.60
372.83	671.73
373.03	653.01
373.22	643.65
373.42	617.90
373.62	645.99
373.81	692.80
374.01	685.78
374.21	704.50
374.40	669.39
374.60	760.67
374.79	760.67
374.99	716.20
375.19	800.46
375.38	737.27
375.58	786.42
375.78	751.31
375.97	772.38
376.17	814.51
376.37	667.05
376.56	692.80
376.76	716.20
376.95	676.41
377.15	716.20
377.35	716.20
377.54	814.51
377.74	786.42
377.93	751.31
378.13	798.12
378.33	884.72
378.52	870.68
378.72	814.51
378.91	826.21
379.11	821.53
379.31	891.74
379.50	903.45
379.70	898.77
379.89	943.24
380.09	898.77
380.28	837.91
380.48	950.26
380.68	943.24
380.87	903.45
381.07	898.77
381.26	1043.88
381.46	896.43
381.65	814.51
381.85	973.66
382.04	954.94
382.24	997.07
382.43	1029.84
382.63	926.85
382.83	966.64
383.02	1018.13
383.22	1123.46
383.41	997.07
383.61	940.90
383.80	1055.58
384.00	1090.69
384.19	1022.81
384.39	1076.65
384.58	1076.65
384.78	1050.90
384.97	1043.88
385.17	1060.26
385.36	990.05
385.56	1111.75
385.75	1097.71
385.95	1107.07
386.14	1093.03
386.34	1163.25
386.53	1132.82
386.72	1083.67
386.92	1235.80
387.11	1144.52
387.31	1156.22
387.50	1149.20
387.70	1322.40
387.89	1233.46
388.09	1266.23
388.28	1256.87
388.48	1301.34
388.67	1296.66
388.86	1235.80
389.06	1254.53
389.25	1327.08
389.45	1235.80
389.64	1301.34
389.84	1336.45
390.03	1352.83
390.22	1394.96
390.42	1401.98
390.61	1406.66
390.81	1352.83
391.00	1418.36
391.19	1458.15
391.39	1441.77
391.58	1444.11
391.78	1427.73
391.97	1451.13
392.16	1455.81
392.36	1523.69
392.55	1561.14
392.75	1561.14
392.94	1516.67
393.13	1605.61
393.33	1451.13
393.52	1509.65
393.71	1586.88
393.91	1493.26
394.10	1624.33
394.29	1659.44
394.49	1502.62
394.68	1612.63
394.88	1685.19
395.07	1572.84
395.26	1661.78
395.46	1708.59
395.65	1701.57
395.84	1699.23
396.04	1788.17
396.23	1729.66
396.42	1827.96
396.62	1703.91
396.81	1769.44
397.00	1799.87
397.19	1732.00
397.39	1881.79
397.58	1834.98
397.77	1837.32
397.97	1963.71
398.16	1980.09
398.35	1928.60
398.55	2036.27
398.74	1982.43
398.93	2062.01
399.12	2040.95
399.32	1935.62
399.51	1961.37
399.70	2078.40
399.90	2003.50
400.09	2120.53
400.28	2146.27
400.47	2099.46
400.67	2172.02
400.86	2101.80
401.05	2211.81
401.24	2153.29
401.44	2197.76
401.63	2249.25
401.82	2237.55
402.01	2305.43
402.21	2230.53
402.40	2349.90
402.59	2389.69
402.78	2403.73
402.97	2380.32
403.17	2401.39
403.36	2448.20
403.55	2370.96
403.74	2452.88
403.93	2443.52
404.13	2495.01
404.32	2525.44
404.51	2541.82
404.70	2623.74
404.89	2576.93
405.09	2768.85
405.28	2555.86
405.47	2619.06
405.66	2651.83
405.85	2747.79
406.05	2675.23
406.24	2609.70
406.43	2836.73
406.62	2832.05
406.81	2843.75
407.00	2745.45
407.20	2846.09
407.39	2775.88
407.58	3019.29
407.77	2986.52
407.96	2913.97
408.15	2899.92
408.34	2963.12
408.54	3005.25
408.73	3021.63
408.92	3005.25
409.11	3124.62
409.30	3040.36
409.49	3131.64
409.68	3077.80
409.87	3169.09
410.07	3234.62
410.26	3112.91
410.45	3225.26
410.64	3162.06
410.83	3328.24
411.02	3389.10
411.21	3344.63
411.40	3513.14
411.59	3433.57
411.78	3548.25
411.98	3424.20
412.17	3590.38
412.36	3599.74
412.55	3770.60
412.74	3674.64
412.93	3616.13
413.12	3574.00
413.31	3950.82
413.50	3768.26
413.69	3840.82
413.88	3948.48
414.07	3892.31
414.26	3946.14
414.45	4166.15
414.64	3992.95
414.83	4074.87
415.02	4117.00
415.22	4112.32
415.41	4215.30
415.60	4163.81
415.79	4308.93
415.98	4287.86
416.17	4285.52
416.36	4175.52
416.55	4493.83
416.74	4606.17
416.93	4477.44
417.12	4613.20
417.31	4664.69
417.50	4519.57
417.69	4638.94
417.88	4774.69
418.07	4730.22
418.26	4751.29
418.45	4835.55
418.64	4901.08
418.83	4936.19
419.02	4786.40
419.21	4903.42
419.39	5046.20
419.58	4975.98
419.77	4936.19
419.96	5074.28
420.15	5102.37
420.34	5008.75
420.53	5139.82
420.72	5296.63
420.91	5174.92
421.10	5158.54
421.29	5397.28
421.48	5324.72
421.67	5317.70
421.86	5380.89
422.05	5427.70
422.24	5305.99
422.43	5408.98
422.61	5296.63
422.80	5528.35
422.99	5397.28
423.18	5507.28
423.37	5497.92
423.56	5481.53
423.75	5467.49
423.94	5467.49
424.13	5170.24
424.32	5146.84
424.50	5486.22
424.69	5703.89
424.88	5673.46
425.07	5427.70
425.26	5584.52
425.45	5600.90
425.64	5621.97
425.83	5432.38
426.01	5617.29
426.20	5476.85
426.39	5715.59
426.58	5715.59
426.77	5724.95
426.96	5785.80
427.15	5724.95
427.33	5678.14
427.52	5724.95
427.71	5940.28
427.90	5942.62
428.09	6008.16
428.28	6059.65
428.46	5991.77
428.65	6008.16
428.84	6122.84
429.03	6251.57
429.22	5994.11
429.40	6246.89
429.59	6246.89
429.78	6076.03
429.97	6036.24
430.16	5940.28
430.34	6314.77
430.53	6574.56
430.72	6324.13
430.91	6251.57
431.10	6438.81
431.28	6438.81
431.47	6469.24
431.66	6464.56
431.85	6469.24
432.03	6796.92
432.22	6686.91
432.41	6703.29
432.60	6796.92
432.79	6583.93
432.97	6644.78
433.16	6850.75
433.35	6672.87
433.54	6829.68
433.72	6913.94
433.91	6832.02
434.10	6984.16
434.28	6815.64
434.47	7019.27
434.66	7028.63
434.85	7066.08
435.03	7073.10
435.22	7279.07
435.41	7735.47
435.59	7693.34
435.78	7527.16
435.97	7585.68
436.16	7482.69
436.34	7335.24
436.53	7473.33
436.72	7604.40
436.90	7447.58
437.09	7520.14
437.28	7494.40
437.46	7492.05
437.65	7625.47
437.84	7707.38
438.02	7513.12
438.21	7501.42
438.40	7700.36
438.58	7922.71
438.77	8131.02
438.96	7941.44
439.14	8039.74
439.33	8217.62
439.52	8114.64
439.70	8315.92
439.89	8346.35
440.08	8294.86
440.26	8456.36
440.45	8491.46
440.63	8418.91
440.82	8622.53
441.01	8636.58
441.19	8374.44
441.38	8933.82
441.57	8765.31
441.75	8922.12
441.94	8978.30
442.12	9057.87
442.31	9107.02
442.50	9181.92
442.68	9088.30
442.87	9090.64
443.05	9341.08
443.24	9298.95
443.43	9259.16
443.61	9420.66
443.80	9806.84
443.98	9266.18
444.17	8959.57
444.35	9455.76
444.54	9565.77
444.73	9678.12
444.91	9317.67
445.10	9593.86
445.28	9399.59
445.47	9556.41
445.65	9308.31
445.84	9706.20
446.02	9635.99
446.21	9584.49
446.39	9497.89
446.58	9745.99
446.77	9764.72
446.95	9563.43
447.14	9605.56
447.32	9680.46
447.51	9643.01
447.69	9863.02
447.88	9671.09
448.06	9902.81
448.25	9654.71
448.43	9912.17
448.62	9834.93
448.80	9872.38
448.99	10040.90
449.17	10153.24
449.36	9895.78
449.54	10211.76
449.73	10251.55
449.91	10476.24
450.10	10384.96
450.28	10422.41
450.46	10317.08
450.65	10391.98
450.83	10597.95
451.02	10487.94
451.20	10499.64
451.39	10614.33
451.57	10469.22
451.76	10647.10
451.94	10485.60
452.13	10780.51
452.31	10759.44
452.49	10595.61
452.68	10778.17
452.86	10822.64
453.05	10775.83
453.23	10897.53
453.42	10743.06
453.60	10827.32
453.78	11070.73
453.97	10621.35
454.15	10855.40
454.34	10843.70
454.52	10991.16
454.70	11166.70
454.89	11290.74
455.07	11260.32
455.26	11405.43
455.44	11363.30
455.62	11157.33
455.81	11241.59
455.99	11489.69
456.17	11485.01
456.36	11545.86
456.54	11831.41
456.73	11946.09
456.91	12002.27
457.09	12205.89
457.28	12081.85
457.46	11887.58
457.64	12100.57
457.83	12044.40
458.01	11948.43
458.19	12278.45
458.38	12004.61
458.56	12458.67
458.74	12533.57
458.93	12233.98
459.11	12498.46
459.29	12587.40
459.48	12355.69
459.66	12280.79
459.84	12629.53
460.03	12739.54
460.21	12559.31
460.39	12758.26
460.57	12456.33
460.76	12961.89
460.94	12833.16
461.12	12837.84
461.31	12842.52
461.49	12996.99
461.67	13055.51
461.85	13240.41
462.04	13132.75
462.22	13703.84
462.40	13193.60
462.59	13235.73
462.77	13345.73
462.95	13334.03
463.13	13331.69
463.32	13497.87
463.50	13528.30
463.68	13638.30
463.86	13736.60
464.05	13455.74
464.23	13654.69
464.41	13776.39
464.59	13675.75
464.78	13816.18
464.96	13720.22
465.14	13647.66
465.32	14015.13
465.50	14045.55
465.69	13975.34
465.87	13743.63
466.05	13811.50
466.23	13982.36
466.41	14061.94
466.60	14675.16
466.78	13884.06
466.96	14075.98
467.14	13865.33
467.32	14183.65
467.51	14499.62
467.69	13600.85
467.87	14520.68
468.05	14455.15
468.23	14153.22
468.41	14478.55
468.60	14878.79
468.78	14920.92
468.96	14532.39
469.14	14525.36
469.32	15225.18
469.50	14572.18
469.69	15084.75
469.87	14958.36
470.05	15250.93
470.23	14953.68
470.41	15215.82
470.59	15351.57
470.77	14895.17
470.95	15506.05
471.14	15370.30
471.32	15316.47
471.50	15737.76
471.68	15653.50
471.86	15646.48
472.04	15988.20
472.22	16128.63
472.40	15910.96
472.58	15826.70
472.77	16004.58
472.95	16187.14
473.13	16678.66
473.31	16210.55
473.49	16327.58
473.67	16755.90
473.85	16622.48
474.03	17135.06
474.21	16816.75
474.39	17097.61
474.57	16929.09
474.75	17146.76
474.93	17479.12
475.12	17268.47
475.30	17455.72
475.48	17577.42
475.66	17584.44
475.84	17521.25
476.02	17855.95
476.20	17884.03
476.38	18090.00
476.56	18249.16
476.74	18237.45
476.92	18525.34
477.10	18473.85
477.28	18642.37
477.46	18607.26
477.64	18998.13
477.82	19049.62
478.00	19520.07
478.18	19924.98
478.36	19763.48
478.54	20159.03
478.72	20100.52
478.90	19812.63
479.08	20280.74
479.26	20402.45
479.44	20505.43
479.62	20613.10
479.80	20830.77
479.98	21352.71
480.16	21408.88
480.34	21661.66
480.52	21509.52
480.70	21647.61
480.88	21570.38
481.06	21755.28
481.24	21823.16
481.41	22485.53
481.59	22382.54
481.77	22417.65
481.95	22546.38
482.13	22986.40
482.31	22712.56
482.49	23426.42
482.67	23580.90
482.85	23613.66
483.03	24212.84
483.21	24271.36
483.39	24428.17
483.57	24493.71
483.74	24781.59
483.92	24952.45
484.10	24638.82
484.28	25174.80
484.46	25652.27
484.64	26122.72
484.82	25687.38
485.00	25986.97
485.18	26272.51
485.35	26607.21
485.53	26359.11
485.71	26721.90
485.89	27255.54
486.07	27190.00
486.25	27332.78
486.43	27723.65
486.61	27262.56
486.78	27988.13
486.96	28496.02
487.14	28877.53
487.32	28992.22
487.50	29167.76
487.68	29134.99
487.85	29668.63
488.03	29769.27
488.21	30108.65
488.39	30038.44
488.57	30078.22
488.75	30668.04
488.92	31227.43
489.10	30656.34
489.28	31302.32
489.46	31669.79
489.64	31185.30
489.81	32409.40
489.99	32245.56
490.17	32531.11
490.35	32779.20
490.53	33134.96
490.70	33083.47
490.88	33319.87
491.06	33813.72
491.24	33528.17
491.41	33701.37
491.59	34293.53
491.77	34340.34
491.95	34906.75
492.13	34799.08
492.30	35157.19
492.48	34972.28
492.66	35314.00
492.84	35583.16
493.01	35672.10
493.19	36098.08
493.37	36828.33
493.54	36446.82
493.72	36617.68
493.90	36538.10
494.08	37261.33
494.25	37371.33
494.43	37022.59
494.61	38141.37
494.79	38230.31
494.96	38094.56
495.14	37933.06
495.32	38719.48
495.49	38485.43
495.67	38728.84
495.85	39150.14
496.02	39529.31
496.20	38934.81
496.38	39388.88
496.55	39618.25
496.73	40479.57
496.91	40182.32
497.09	40432.75
497.26	40905.54
497.44	40535.74
497.62	41155.98
497.79	41127.89
497.97	41053.00
498.14	41696.64
498.32	42038.36
498.50	42204.54
498.67	42887.98
498.85	42398.80
499.03	42288.80
499.20	42752.23
499.38	43194.59
499.56	43030.75
499.73	42679.67
499.91	43702.48
500.08	43761.00
500.26	43463.75
500.44	43615.88
500.61	43868.66
500.79	43950.58
500.97	44378.90
501.14	44994.46
501.32	44495.92
501.49	44477.20
501.67	44608.27
501.84	44999.14
502.02	45069.36
502.20	45177.02
502.37	45663.85
502.55	45607.68
502.72	46087.49
502.90	45226.17
503.07	45567.89
503.25	45790.24
503.43	46031.32
503.60	46071.10
503.78	46417.50
503.95	46740.50
504.13	46527.51
504.30	46611.77
504.48	46689.01
504.65	46927.74
504.83	47175.84
505.01	47346.70
505.18	47306.91
505.36	47674.37
505.53	47569.05
505.71	48004.39
505.88	47487.13
506.06	47533.94
506.23	48533.35
506.41	48184.61
506.58	48257.17
506.76	48533.35
506.93	48875.07
507.11	48332.06
507.28	48956.99
507.46	48858.68
507.63	49050.61
507.81	49698.94
507.98	49247.21
508.16	49111.46
508.33	49373.60
508.50	49439.14
508.68	49485.95
508.85	50078.10
509.03	49790.22
509.20	50342.58
509.38	50188.11
509.55	50557.91
509.73	50600.04
509.90	50351.94
510.08	50817.71
510.25	50576.64
510.42	50813.03
510.60	51501.15
510.77	51325.61
510.95	51143.05
511.12	50930.06
511.30	51330.29
511.47	51180.49
511.64	51636.90
511.82	51657.96
511.99	51707.12
512.17	51859.25
512.34	51962.23
512.51	51803.08
512.69	52016.07
512.86	52172.88
513.04	52301.61
513.21	52530.98
513.38	52533.32
513.56	52278.21
513.73	52280.55
513.90	52498.22
514.08	52673.76
514.25	52914.83
514.43	53160.59
514.60	53148.88
514.77	52825.89
514.95	53137.18
515.12	52912.49
515.29	53151.23
515.47	53528.05
515.64	53329.11
515.81	53525.71
515.99	53549.12
516.16	53593.59
516.33	54026.59
516.51	54042.97
516.68	54122.55
516.85	53982.12
517.03	54040.63
517.20	54262.98
517.37	54230.21
517.54	54466.61
517.72	54213.83
517.89	54087.44
518.06	54333.20
518.24	54335.54
518.41	54227.87
518.58	54417.46
518.75	54623.42
518.93	55105.57
519.10	55011.95
519.27	54906.63
519.45	54693.64
519.62	54948.76
519.79	54948.76
519.96	55325.58
520.14	55150.04
520.31	55168.77
520.48	55234.30
520.65	55309.20
520.83	55281.11
521.00	55510.49
521.17	55550.27
521.34	55707.09
521.52	55384.10
521.69	55725.81
521.86	55882.63
522.03	55920.08
522.20	56114.34
522.38	56114.34
522.55	56086.26
522.72	55997.32
522.89	56324.99
523.07	56418.61
523.24	56175.20
523.41	56158.81
523.58	56112.00
523.75	56458.40
523.92	56530.96
524.10	56313.29
524.27	56718.20
524.44	56849.27
524.61	56994.39
524.78	56598.83
524.96	56973.32
525.13	56940.55
525.30	57078.64
525.47	57088.01
525.64	56980.34
525.81	57205.03
525.98	57422.70
526.16	57233.12
526.33	57310.36
526.50	57361.85
526.67	57155.88
526.84	57462.49
527.01	57338.44
527.18	57373.55
527.36	57659.10
527.53	57708.25
527.70	58033.58
527.87	57745.70
528.04	57776.12
528.21	58000.82
528.38	57797.19
528.55	57888.47
528.72	57876.77
528.89	58045.29
529.07	57982.09
529.24	57958.69
529.41	58248.91
529.58	58185.72
529.75	57935.28
529.92	58012.52
530.09	58389.34
530.26	58356.58
530.43	58464.24
530.60	58384.66
530.77	58368.28
530.94	58607.01
531.11	58408.07
531.28	58279.34
531.46	58602.33
531.63	58604.67
531.80	58915.96
531.97	59047.04
532.14	58965.12
532.31	58866.81
532.48	59077.46
532.65	59040.01
532.82	58775.53
532.99	58922.99
533.16	58899.58
533.33	59217.89
533.50	59435.56
533.67	59210.87
533.84	59224.92
534.01	59175.76
534.18	58944.05
534.35	59339.60
534.52	59248.32
534.69	59470.67
534.86	59477.69
535.03	59147.68
535.20	59304.49
535.37	59550.25
535.54	59716.43
535.71	59245.98
535.88	59512.80
536.05	59700.04
536.22	59735.15
536.38	59906.01
536.55	59777.28
536.72	59732.81
536.89	59817.07
537.06	59728.13
537.23	59969.21
537.40	59671.96
537.57	59842.82
537.74	59948.14
537.91	60196.24
538.08	60261.77
538.25	60086.23
538.42	60111.98
538.59	60034.74
538.75	59936.44
538.92	60088.57
539.09	60250.07
539.26	60282.84
539.43	60519.23
539.60	60437.31
539.77	60315.61
539.94	60507.53
540.11	60512.21
540.28	60446.68
540.44	60652.64
540.61	60486.46
540.78	60339.01
540.95	60828.18
541.12	60711.16
541.29	60814.14
541.46	60732.22
541.62	60530.93
541.79	60867.97
541.96	60676.05
542.13	60764.99
542.30	60856.27
542.47	61073.94
542.63	61209.69
542.80	61031.81
542.97	61221.39
543.14	61151.18
543.31	61102.03
543.48	61228.41
543.64	61261.18
543.81	61373.53
543.98	61488.21
544.15	61537.36
544.32	61614.60
544.48	61691.84
544.65	61469.49
544.82	61556.09
544.99	61153.52
545.16	61420.34
545.32	61558.43
545.49	61869.72
545.66	61944.62
545.83	61972.70
546.00	62225.48
546.16	61911.85
546.33	61635.67
546.50	61418.00
546.67	61687.16
546.83	61343.10
547.00	61726.95
547.17	61944.62
547.34	61984.41
547.50	61930.58
547.67	62089.73
547.84	61694.18
548.00	62052.28
548.17	62014.83
548.34	62012.49
548.51	62134.20
548.67	62113.14
548.84	62188.03
549.01	62230.16
549.18	62115.48
549.34	61996.11
549.51	62059.30
549.68	62234.84
549.84	61993.77
550.01	62094.41
550.18	62218.46
550.34	62246.55
550.51	62309.74
550.68	62457.20
550.84	62068.67
551.01	62457.20
551.18	62223.14
551.34	62237.19
551.51	62328.47
551.68	62482.94
551.84	62475.92
552.01	62494.64
552.18	62630.40
552.34	62461.88
552.51	62628.05
552.68	62386.98
552.84	62555.50
553.01	62653.80
553.18	62527.41
553.34	62691.25
553.51	62709.97
553.67	62812.96
553.84	62892.54
554.01	62915.94
554.17	62770.83
554.34	62906.58
554.51	62815.30
554.67	63037.65
554.84	62911.26
555.00	62871.47
555.17	62841.04
555.33	63002.54
555.50	63004.88
555.67	63142.97
555.83	62885.51
556.00	62869.13
556.16	63100.84
556.33	63037.65
556.50	63021.26
556.66	63194.46
556.83	62908.92
556.99	63252.98
557.16	63262.34
557.32	63168.72
557.49	63339.58
557.65	63072.76
557.82	63068.08
557.98	63196.80
558.15	63103.18
558.32	63430.86
558.48	63426.18
558.65	63566.61
558.81	63491.71
558.98	63428.52
559.14	63260.00
559.31	63278.72
559.47	63381.71
559.64	63557.25
559.80	63454.26
559.97	63594.70
560.13	63449.58
560.30	63494.05
560.46	63648.53
560.63	63522.14
560.79	63416.82
560.96	63655.55
561.12	63587.67
561.29	63568.95
561.45	63650.87
561.61	63627.46
561.78	63819.39
561.94	63695.34
562.11	63847.47
562.27	63812.37
562.44	63657.89
562.60	63643.85
562.77	63688.32
562.93	63690.66
563.10	63774.92
563.26	63669.59
563.42	64020.67
563.59	63922.37
563.75	63910.67
563.92	63908.33
564.08	63824.07
564.24	63564.27
564.41	63723.43
564.57	63833.43
564.74	63980.88
564.90	63859.18
565.07	63957.48
565.23	63985.57
565.39	63938.75
565.56	64198.55
565.72	63917.69
565.88	63880.24
566.05	63826.41
566.21	63814.71
566.38	63936.41
566.54	63889.60
566.70	64079.19
566.87	64104.93
567.03	64090.89
567.19	64053.44
567.36	64135.36
567.52	63894.28
567.68	64023.01
567.85	63945.78
568.01	64118.98
568.17	63976.20
568.34	64097.91
568.50	64170.47
568.66	64212.60
568.83	64095.57
568.99	63957.48
569.15	64018.33
569.32	63990.25
569.48	63927.05
569.64	64214.94
569.81	64156.42
569.97	64161.11
570.13	64205.58
570.30	64142.38
570.46	64170.47
570.62	64392.82
570.78	64081.53
570.95	64058.12
571.11	64240.68
571.27	64140.04
571.43	64044.08
571.60	64158.76
571.76	64184.51
571.92	64357.71
572.09	64376.43
572.25	64425.59
572.41	64219.62
572.57	64425.59
572.74	64444.31
572.90	64282.81
573.06	64179.83
573.22	64217.28
573.38	64477.08
573.55	64413.88
573.71	64474.74
573.87	64669.00
574.03	64334.31
574.20	64491.12
574.36	64456.01
574.52	64282.81
574.68	64388.14
574.84	64458.35
575.01	64596.45
575.17	64456.01
575.33	64252.39
575.49	64395.16
575.65	64463.03
575.82	64617.51
575.98	64533.25
576.14	64493.46
576.30	64584.74
576.46	64505.16
576.62	64493.46
576.79	64612.83
576.95	64596.45
577.11	64519.21
577.27	64743.90
577.43	64797.73
577.59	64439.63
577.75	64566.02
577.92	64381.12
578.08	64409.20
578.24	64425.59
578.40	64460.69
578.56	64643.26
578.72	64512.19
578.88	64809.43
579.04	64851.56
579.21	64690.07
579.37	64711.13
579.53	64884.33
579.69	64404.52
579.85	64556.66
580.01	64500.48
580.17	64460.69
580.33	64706.45
580.49	64624.53
580.65	64879.65
580.82	64779.01
580.98	64736.88
581.14	64739.22
581.30	64743.90
581.46	64612.83
581.62	64666.66
581.78	64441.97
581.94	64640.92
582.10	64444.31
582.26	64790.71
582.42	64793.05
582.58	64881.99
582.74	64776.67
582.90	64725.17
583.06	64748.58
583.22	64636.23
583.38	64645.60
583.54	64575.38
583.70	64788.37
583.86	64603.47
584.02	64713.47
584.18	64905.40
584.34	64837.52
584.50	64797.73
584.66	64736.88
584.82	64748.58
584.98	64617.51
585.14	64577.72
585.30	64392.82
585.46	64598.79
585.62	64640.92
585.78	64755.60
585.94	64687.73
586.10	64860.93
586.26	64860.93
586.42	65024.76
586.58	64844.54
586.74	64858.59
586.90	64870.29
587.06	64762.62
587.22	64945.18
587.38	64647.94
587.54	65034.13
587.70	64942.84
587.86	64938.16
588.02	65078.60
588.18	65141.79
588.34	64851.56
588.49	64952.21
