SpectraSuite Data File
++++++++++++++++++++++++++++++++++++
Date: Fri Oct 04 11:40:06 GMT-05:00 2013
User: price-jones
Dark Spectrum Present: No
Reference Spectrum Present: No
Number of Sampled Component Spectra: 1
Spectrometers: USB2+H05261
Integration Time (usec): 100000 (USB2+H05261)
Spectra Averaged: 1 (USB2+H05261)
Boxcar Smoothing: 0 (USB2+H05261)
Correct for Electrical Dark: No (USB2+H05261)
Strobe/Lamp Enabled: No (USB2+H05261)
Correct for Detector Non-linearity: No (USB2+H05261)
Correct for Stray Light: No (USB2+H05261)
Number of Pixels in Processed Spectrum: 2048
>>>>>Begin Processed Spectral Data<<<<<
365.73	112.35
365.92	112.35
366.12	112.35
366.32	0.00
366.52	0.00
366.72	32.77
366.91	0.00
367.11	0.00
367.31	0.00
367.51	0.00
367.70	21.06
367.90	0.00
368.10	0.00
368.30	0.00
368.49	0.00
368.69	0.00
368.89	0.00
369.09	0.00
369.28	0.00
369.48	0.00
369.68	4.68
369.87	0.00
370.07	0.00
370.27	0.00
370.47	67.88
370.66	365.12
370.86	557.05
371.06	514.92
371.25	578.11
371.45	543.00
371.65	479.81
371.84	421.30
372.04	484.49
372.24	519.60
372.44	521.94
372.63	561.73
372.83	629.60
373.03	479.81
373.22	456.40
373.42	486.83
373.62	507.90
373.81	601.52
374.01	580.45
374.21	547.69
374.40	559.39
374.60	545.34
374.79	540.66
374.99	620.24
375.19	650.67
375.38	627.26
375.58	718.54
375.78	713.86
375.97	622.58
376.17	615.56
376.37	601.52
376.56	709.18
376.76	641.31
376.95	610.88
377.15	746.63
377.35	795.78
377.54	861.32
377.74	847.27
377.93	828.55
378.13	894.08
378.33	851.96
378.52	833.23
378.72	755.99
378.91	737.27
379.11	683.44
379.31	704.50
379.50	641.31
379.70	704.50
379.89	812.17
380.09	718.54
380.28	723.23
380.48	884.72
380.68	748.97
380.87	760.67
381.07	683.44
381.26	631.94
381.46	685.78
381.65	608.54
381.85	624.92
382.04	629.60
382.24	653.01
382.43	531.30
382.63	512.58
382.83	543.00
383.02	589.82
383.22	507.90
383.41	564.07
383.61	561.73
383.80	650.67
384.00	718.54
384.19	744.29
384.39	779.40
384.58	800.46
384.78	777.06
384.97	734.93
385.17	671.73
385.36	711.52
385.56	683.44
385.75	669.39
385.95	816.85
386.14	807.48
386.34	774.72
386.53	793.44
386.72	826.21
386.92	734.93
387.11	760.67
387.31	863.66
387.50	816.85
387.70	718.54
387.89	751.31
388.09	819.19
388.28	699.82
388.48	802.80
388.67	894.08
388.86	901.11
389.06	940.90
389.25	1018.13
389.45	980.68
389.64	866.00
389.84	950.26
390.03	1116.44
390.22	1090.69
390.42	1001.75
390.61	1060.26
390.81	1165.59
391.00	1111.75
391.19	1184.31
391.39	1153.88
391.58	1020.47
391.78	999.41
391.97	987.71
392.16	945.58
392.36	929.19
392.55	737.27
392.75	594.50
392.94	528.96
393.13	594.50
393.33	528.96
393.52	711.52
393.71	795.78
393.91	910.47
394.10	1015.79
394.29	1029.84
394.49	1069.62
394.68	1212.40
394.88	1226.44
395.07	1210.06
395.26	1240.48
395.46	1181.97
395.65	1217.08
395.84	940.90
396.04	940.90
396.23	720.88
396.42	585.13
396.62	650.67
396.81	627.26
397.00	873.02
397.19	1114.10
397.39	1172.61
397.58	1390.28
397.77	1409.00
397.97	1387.94
398.16	1448.79
398.35	1472.20
398.55	1579.86
398.74	1647.74
398.93	1706.25
399.12	1610.29
399.32	1600.93
399.51	1596.25
399.70	1643.06
399.90	1687.53
400.09	1750.72
400.28	1687.53
400.47	1717.95
400.67	1799.87
400.86	1820.94
401.05	1811.57
401.24	1762.42
401.44	1806.89
401.63	1980.09
401.82	1902.86
402.01	1813.92
402.21	1975.41
402.40	1762.42
402.59	1853.70
402.78	1788.17
402.97	1706.25
403.17	1757.74
403.36	1816.26
403.55	1858.39
403.74	1921.58
403.93	1811.57
404.13	1863.07
404.32	1671.14
404.51	1703.91
404.70	1907.54
404.89	1888.81
405.09	1926.26
405.28	1783.49
405.47	1823.28
405.66	1846.68
405.85	1671.14
406.05	1790.51
406.24	1736.68
406.43	1678.16
406.62	1888.81
406.81	1827.96
407.00	1816.26
407.20	1774.13
407.39	1863.07
407.58	1827.96
407.77	1877.11
407.96	1961.37
408.15	1952.01
408.34	2015.20
408.54	1994.14
408.73	2071.37
408.92	2024.56
409.11	1947.33
409.30	2026.90
409.49	1832.64
409.68	1703.91
409.87	1652.42
410.07	1710.93
410.26	1860.73
410.45	1902.86
410.64	2104.14
410.83	2080.74
411.02	2108.82
411.21	2216.49
411.40	2195.42
411.59	2263.30
411.78	2120.53
411.98	2186.06
412.17	2289.04
412.36	2120.53
412.55	2101.80
412.74	2078.40
412.93	2080.74
413.12	1998.82
413.31	2272.66
413.50	2258.62
413.69	2256.28
413.88	2188.40
414.07	2221.17
414.26	2174.36
414.45	2256.28
414.64	2380.32
414.83	2232.87
415.02	2256.28
415.22	2265.64
415.41	2263.30
415.60	2368.62
415.79	2406.07
415.98	2422.45
416.17	2520.76
416.36	2487.99
416.55	2328.83
416.74	2289.04
416.93	2204.78
417.12	2380.32
417.31	2434.16
417.50	2277.34
417.69	2340.54
417.88	2389.69
418.07	2434.16
418.26	2373.30
418.45	2370.96
418.64	2504.37
418.83	2586.29
419.02	2450.54
419.21	2368.62
419.39	2389.69
419.58	2286.70
419.77	2279.68
419.96	2279.68
420.15	2403.73
420.34	2537.14
420.53	2682.25
420.72	2768.85
420.91	2637.78
421.10	2640.12
421.29	2525.44
421.48	2532.46
421.67	2527.78
421.86	2448.20
422.05	2548.84
422.24	2286.70
422.43	2338.20
422.61	2317.13
422.80	2495.01
422.99	2551.18
423.18	2445.86
423.37	2403.73
423.56	2495.01
423.75	2539.48
423.94	2513.74
424.13	2319.47
424.32	2335.85
424.50	2333.51
424.69	2429.48
424.88	2377.98
425.07	2307.77
425.26	2420.11
425.45	2415.43
425.64	2242.23
425.83	2286.70
426.01	2420.11
426.20	2560.55
426.39	2483.31
426.58	2370.96
426.77	2223.51
426.96	2127.55
427.15	2148.61
427.33	2415.43
427.52	2389.69
427.71	2415.43
427.90	2382.67
428.09	2324.15
428.28	2406.07
428.46	2298.41
428.65	2186.06
428.84	2246.91
429.03	2275.00
429.22	2108.82
429.40	2050.31
429.59	1923.92
429.78	1710.93
429.97	1724.97
430.16	1724.97
430.34	1771.79
430.53	1802.21
430.72	1842.00
430.91	1982.43
431.10	2193.08
431.28	2579.27
431.47	2815.66
431.66	2878.86
431.85	2469.27
432.03	2385.01
432.22	2218.83
432.41	2413.09
432.60	2581.61
432.79	2719.70
432.97	2708.00
433.16	2668.21
433.35	2576.93
433.54	2307.77
433.72	2289.04
433.91	2218.83
434.10	2366.28
434.28	2492.67
434.47	2647.15
434.66	2693.96
434.85	2614.38
435.03	2621.40
435.22	2712.68
435.41	3075.46
435.59	2916.31
435.78	2972.48
435.97	2846.09
436.16	2855.45
436.34	2892.90
436.53	2764.17
436.72	2792.26
436.90	2663.53
437.09	2658.85
437.28	2492.67
437.46	2597.99
437.65	2775.88
437.84	2567.57
438.02	2492.67
438.21	2228.19
438.40	2422.45
438.58	2612.04
438.77	2750.13
438.96	2743.11
439.14	2906.95
439.33	2972.48
439.52	2991.20
439.70	2991.20
439.89	2787.58
440.08	2745.45
440.26	2855.45
440.45	2782.90
440.63	2953.76
440.82	3073.12
441.01	3122.27
441.19	2967.80
441.38	3220.58
441.57	3255.69
441.75	3283.77
441.94	3358.67
442.12	3297.81
442.31	3361.01
442.50	3211.22
442.68	3311.86
442.87	3222.92
443.05	3213.56
443.24	3337.60
443.43	3384.41
443.61	3325.90
443.80	3382.07
443.98	3150.36
444.17	3185.47
444.35	3361.01
444.54	3356.33
444.73	3342.28
444.91	3229.94
445.10	3251.00
445.28	3000.57
445.47	2986.52
445.65	2953.76
445.84	3047.38
446.02	3272.07
446.21	3325.90
446.39	3236.96
446.58	3321.22
446.77	3417.18
446.95	3279.09
447.14	3410.16
447.32	3393.78
447.51	3447.61
447.69	3344.63
447.88	3251.00
448.06	3323.56
448.25	3398.46
448.43	3239.30
448.62	3255.69
448.80	3300.16
448.99	3297.81
449.17	3407.82
449.36	3356.33
449.54	3503.78
449.73	3620.81
449.91	3571.66
450.10	3574.00
450.28	3751.88
450.46	3705.07
450.65	3756.56
450.83	3543.57
451.02	3665.28
451.20	3756.56
451.39	3508.46
451.57	3510.80
451.76	3506.12
451.94	3623.15
452.13	3541.23
452.31	3309.52
452.49	3246.32
452.68	3157.38
452.86	3204.19
453.05	3353.99
453.23	3400.80
453.42	3363.35
453.60	3468.67
453.78	3517.83
453.97	3478.04
454.15	3466.33
454.34	3461.65
454.52	3487.40
454.70	3302.50
454.89	3487.40
455.07	3438.25
455.26	3323.56
455.44	3473.36
455.62	3578.68
455.81	3655.92
455.99	3751.88
456.17	3541.23
456.36	3543.57
456.54	3688.68
456.73	3625.49
456.91	3754.22
457.09	3712.09
457.28	3822.09
457.46	3674.64
457.64	3566.98
457.83	3510.80
458.01	3550.59
458.19	3623.15
458.38	3637.19
458.56	3700.39
458.74	3686.34
458.93	3480.38
459.11	3581.02
459.29	3623.15
459.48	3695.71
459.66	3627.83
459.84	3588.04
460.03	3684.00
460.21	3653.58
460.39	3737.84
460.57	3775.28
460.76	3768.26
460.94	3803.37
461.12	3946.14
461.31	3889.97
461.49	3676.98
461.67	3700.39
461.85	3913.38
462.04	3819.75
462.22	4308.93
462.40	3866.56
462.59	3885.29
462.77	3805.71
462.95	3829.12
463.13	3796.35
463.32	3772.94
463.50	3686.34
463.68	3805.71
463.86	3686.34
464.05	3630.17
464.23	3634.85
464.41	3681.66
464.59	3611.45
464.78	3702.73
464.96	3674.64
465.14	3723.79
465.32	3796.35
465.50	3859.54
465.69	3957.85
465.87	3599.74
466.05	3805.71
466.23	3454.63
466.41	3466.33
466.60	3492.08
466.78	3632.51
466.96	3744.86
467.14	3740.18
467.32	3894.65
467.51	3801.03
467.69	3641.87
467.87	3660.60
468.05	3892.31
468.23	3634.85
468.41	3772.94
468.60	3634.85
468.78	3850.18
468.96	3779.97
469.14	3861.88
469.32	3896.99
469.50	3665.28
469.69	3625.49
469.87	3618.47
470.05	3480.38
470.23	3566.98
470.41	3545.91
470.59	3641.87
470.77	3676.98
470.95	3801.03
471.14	3758.90
471.32	3644.21
471.50	3859.54
471.68	3861.88
471.86	4107.64
472.04	3974.23
472.22	4100.62
472.40	3908.69
472.58	3789.33
472.77	3604.42
472.95	3744.86
473.13	3962.53
473.31	3808.05
473.49	3824.44
473.67	3873.59
473.85	3978.91
474.03	4168.49
474.21	4035.08
474.39	4086.58
474.57	4126.36
474.75	4191.90
474.93	4088.92
475.12	3962.53
475.30	4053.81
475.48	4044.45
475.66	4093.60
475.84	4100.62
476.02	3997.64
476.20	4007.00
476.38	3978.91
476.56	4147.43
476.74	4126.36
476.92	4306.59
477.10	4231.69
477.28	4381.48
477.46	4348.72
477.64	4367.44
477.82	4521.92
478.00	4451.70
478.18	4444.68
478.36	4411.91
478.54	4430.63
478.72	4596.81
478.90	4337.01
479.08	4517.23
479.26	4660.01
479.44	4601.49
479.62	4753.63
479.80	4610.86
479.98	4751.29
480.16	4723.20
480.34	4573.41
480.52	4674.05
480.70	4723.20
480.88	4760.65
481.06	4793.42
481.24	4875.34
481.41	5057.90
481.59	5210.03
481.77	5013.43
481.95	4961.94
482.13	4980.66
482.31	4999.38
482.49	5210.03
482.67	5170.24
482.85	5074.28
483.03	5205.35
483.21	5139.82
483.39	5210.03
483.57	5149.18
483.74	5111.73
483.92	4992.36
484.10	5018.11
484.28	5083.64
484.46	5284.93
484.64	5378.55
484.82	5078.96
485.00	5076.62
485.18	4807.46
485.35	4901.08
485.53	4472.76
485.71	4367.44
485.89	4098.28
486.07	4454.04
486.25	4695.11
486.43	4922.15
486.61	4997.04
486.78	4856.61
486.96	4910.44
487.14	5233.44
487.32	5486.22
487.50	5486.22
487.68	5523.66
487.85	5809.21
488.03	5680.48
488.21	5727.29
488.39	5502.60
488.57	5472.17
488.75	5411.32
488.92	5678.14
489.10	5834.96
489.28	6005.81
489.46	6319.45
489.64	6223.48
489.81	6298.38
489.99	6251.57
490.17	6345.19
490.35	6274.98
490.53	6223.48
490.70	6225.82
490.88	6076.03
491.06	6214.12
491.24	6197.74
491.41	6132.20
491.59	5839.64
491.77	5628.99
491.95	5804.53
492.13	6073.69
492.30	6214.12
492.48	6562.86
492.66	6675.21
492.84	6541.80
493.01	6525.41
493.19	6380.30
493.37	6342.85
493.54	6134.54
493.72	6267.95
493.90	6502.01
494.08	6707.98
494.25	6817.98
494.43	6878.83
494.61	6942.03
494.79	6944.37
494.96	6909.26
495.14	6766.49
495.32	6729.04
495.49	6525.41
495.67	6785.21
495.85	7052.03
496.02	6916.28
496.20	7040.33
496.38	7037.99
496.55	7007.56
496.73	7021.61
496.91	7105.87
497.09	7148.00
497.26	7250.98
497.44	7157.36
497.62	6974.80
497.79	6951.39
497.97	6733.72
498.14	6513.71
498.32	6619.04
498.50	6960.75
498.67	6979.48
498.85	7194.81
499.03	7066.08
499.20	7339.92
499.38	7159.70
499.56	7194.81
499.73	7187.79
499.91	7005.22
500.08	6974.80
500.26	6712.66
500.44	6794.58
500.61	6848.41
500.79	6841.39
500.97	6927.99
501.14	6822.66
501.32	6895.22
501.49	6663.51
501.67	6509.03
501.84	6958.41
502.02	7059.06
502.20	6979.48
502.37	7023.95
502.55	7084.80
502.72	7166.72
502.90	7192.47
503.07	7070.76
503.25	6967.77
503.43	6862.45
503.60	6679.89
503.78	6232.85
503.95	6534.78
504.13	6869.47
504.30	7169.06
504.48	7164.38
504.65	7194.81
504.83	7075.44
505.01	7314.17
505.18	7290.77
505.36	7501.42
505.53	7428.86
505.71	7419.50
505.88	7688.66
506.06	7281.41
506.23	7358.64
506.41	7279.07
506.58	7199.49
506.76	7396.09
506.93	7218.21
507.11	7169.06
507.28	7258.00
507.46	7150.34
507.63	7056.72
507.81	6972.46
507.98	7105.87
508.16	7101.19
508.33	7302.47
508.50	7609.08
508.68	7424.18
508.85	7578.65
509.03	7765.90
509.20	7655.89
509.38	7548.23
509.55	7351.62
509.73	7344.60
509.90	7412.48
510.08	7346.94
510.25	7506.10
510.42	7421.84
510.60	7548.23
510.77	7414.82
510.95	7480.35
511.12	7786.96
511.30	7786.96
511.47	7751.85
511.64	7887.61
511.82	7871.22
511.99	7424.18
512.17	7478.01
512.34	7407.80
512.51	7480.35
512.69	7426.52
512.86	7602.06
513.04	7419.50
513.21	7782.28
513.38	7400.77
513.56	7337.58
513.73	7297.79
513.90	7143.32
514.08	7339.92
514.25	7377.37
514.43	7197.15
514.60	7272.04
514.77	7389.07
514.95	7529.50
515.12	7592.70
515.29	7613.76
515.47	7775.26
515.64	7688.66
515.81	7681.64
515.99	7578.65
516.16	7220.55
516.33	6703.29
516.51	6260.93
516.68	6272.64
516.85	6232.85
517.03	5884.11
517.20	6499.67
517.37	7119.91
517.54	7503.76
517.72	7297.79
517.89	7052.03
518.06	6525.41
518.24	6310.08
518.41	6726.70
518.58	7204.17
518.75	7204.17
518.93	7155.02
519.10	7260.34
519.27	7389.07
519.45	7330.56
519.62	7470.99
519.79	7880.58
519.96	7779.94
520.14	7506.10
520.31	7323.54
520.48	7655.89
520.65	7255.66
520.83	7712.07
521.00	7882.92
521.17	7611.42
521.34	7644.19
521.52	7566.95
521.69	7925.05
521.86	7875.90
522.03	7833.77
522.20	7655.89
522.38	7353.96
522.55	7218.21
522.72	7482.69
522.89	7681.64
523.07	7480.35
523.24	7494.40
523.41	7749.51
523.58	7691.00
523.75	7901.65
523.92	7903.99
524.10	7983.57
524.27	7943.78
524.44	7974.21
524.61	7728.45
524.78	7723.77
524.96	7616.10
525.13	7765.90
525.30	7985.91
525.47	8067.83
525.64	8060.80
525.81	7948.46
525.98	7433.54
526.16	7152.68
526.33	6825.00
526.50	6871.81
526.67	6684.57
526.84	6759.47
527.01	7070.76
527.18	7103.53
527.36	7384.39
527.53	7744.83
527.70	7768.24
527.87	7749.51
528.04	7478.01
528.21	7522.48
528.38	8006.97
528.55	8028.04
528.72	8163.79
528.89	8149.75
529.07	8229.32
529.24	8051.44
529.41	7941.44
529.58	7592.70
529.75	7569.29
529.92	7641.85
530.09	7768.24
530.26	7960.16
530.43	7833.77
530.60	7957.82
530.77	8124.00
530.94	8205.92
531.11	7882.92
531.28	7953.14
531.46	7847.82
531.63	7770.58
531.80	7716.75
531.97	7864.20
532.14	7515.46
532.31	7494.40
532.48	7171.40
532.65	7178.42
532.82	7194.81
532.99	7562.27
533.16	7691.00
533.33	7934.42
533.50	7744.83
533.67	7768.24
533.84	7442.90
534.01	7613.76
534.18	7639.51
534.35	7723.77
534.52	7728.45
534.69	8065.49
534.86	7721.43
535.03	7779.94
535.20	8030.38
535.37	7906.33
535.54	8259.75
535.71	8002.29
535.88	8032.72
536.05	7808.03
536.22	7674.62
536.38	7859.52
536.55	7529.50
536.72	7405.46
536.89	7346.94
537.06	7368.01
537.23	7655.89
537.40	7812.71
537.57	7777.60
537.74	7887.61
537.91	7950.80
538.08	7602.06
538.25	7714.41
538.42	7878.24
538.59	7854.84
538.75	7569.29
538.92	7632.49
539.09	7487.37
539.26	7662.91
539.43	7365.67
539.60	7407.80
539.77	7463.97
539.94	7473.33
540.11	7316.51
540.28	7133.95
540.44	7342.26
540.61	7190.13
540.78	7281.41
540.95	7407.80
541.12	7730.79
541.29	7599.72
541.46	7592.70
541.62	7850.16
541.79	7880.58
541.96	7590.36
542.13	7391.41
542.30	7541.21
542.47	7957.82
542.63	7761.22
542.80	7559.93
542.97	7613.76
543.14	7445.24
543.31	7363.33
543.48	7585.68
543.64	7861.86
543.81	8037.40
543.98	7971.86
544.15	7730.79
544.32	7606.74
544.48	7529.50
544.65	7555.25
544.82	7726.11
544.99	7719.09
545.16	7571.63
545.32	7606.74
545.49	7880.58
545.66	8397.84
545.83	8486.78
546.00	8030.38
546.16	7850.16
546.33	7597.38
546.50	7506.10
546.67	7637.17
546.83	7763.56
547.00	7609.08
547.17	7552.91
547.34	7309.49
547.50	7213.53
547.67	7236.94
547.84	7234.60
548.00	7349.28
548.17	7466.31
548.34	7700.36
548.51	7545.89
548.67	7730.79
548.84	7688.66
549.01	7733.13
549.18	7548.23
549.34	7562.27
549.51	7592.70
549.68	7569.29
549.84	7573.97
550.01	7431.20
550.18	7449.93
550.34	7583.34
550.51	7501.42
550.68	7609.08
550.84	7424.18
551.01	7442.90
551.18	7365.67
551.34	7459.29
551.51	7375.03
551.68	7719.09
551.84	7665.25
552.01	7548.23
552.18	7297.79
552.34	7358.64
552.51	7335.24
552.68	7178.42
552.84	7180.76
553.01	7335.24
553.18	7204.17
553.34	7400.77
553.51	7300.13
553.67	7447.58
553.84	7428.86
554.01	7562.27
554.17	7431.20
554.34	7302.47
554.51	7487.37
554.67	7585.68
554.84	7517.80
555.00	7382.05
555.17	7506.10
555.33	7304.81
555.50	7253.32
555.67	7239.28
555.83	7358.64
556.00	7087.14
556.16	7391.41
556.33	7150.34
556.50	7201.83
556.66	7229.91
556.83	6998.20
556.99	6988.84
557.16	7103.53
557.32	7108.21
557.49	7110.55
557.65	7023.95
557.82	7262.68
557.98	7143.32
558.15	6965.43
558.32	6836.70
558.48	6740.74
558.65	6583.93
558.81	6775.85
558.98	6862.45
559.14	6815.64
559.31	6939.69
559.47	6960.75
559.64	6771.17
559.80	6946.71
559.97	6689.25
560.13	6885.86
560.30	7131.61
560.46	7122.25
560.63	7274.38
560.79	7112.89
560.96	7066.08
561.12	6949.05
561.29	7012.24
561.45	6794.58
561.61	6808.62
561.78	6792.23
561.94	6897.56
562.11	6874.15
562.27	6834.36
562.44	7035.65
562.60	6832.02
562.77	7159.70
562.93	7208.85
563.10	6984.16
563.26	6883.52
563.42	6867.13
563.59	6904.58
563.75	6810.96
563.92	6715.00
564.08	6682.23
564.24	6729.04
564.41	6698.61
564.57	6953.73
564.74	6736.06
564.90	6712.66
565.07	6867.13
565.23	6700.95
565.39	6525.41
565.56	6513.71
565.72	6436.47
565.88	6487.96
566.05	6448.18
566.21	6588.61
566.38	6726.70
566.54	6743.08
566.70	6771.17
566.87	6857.77
567.03	6796.92
567.19	6810.96
567.36	6719.68
567.52	6698.61
567.68	6740.74
567.85	6509.03
568.01	6293.70
568.17	6258.59
568.34	6181.35
568.50	5959.00
568.66	5961.34
568.83	6352.21
568.99	6375.62
569.15	6263.27
569.32	6499.67
569.48	6340.51
569.64	6225.82
569.81	6164.97
569.97	6155.61
570.13	6253.91
570.30	6317.11
570.46	6256.25
570.62	5902.83
570.78	6146.25
570.95	5954.32
571.11	6087.73
571.27	6314.77
571.43	6216.46
571.60	6314.77
571.76	6380.30
571.92	6270.30
572.09	6480.94
572.25	6434.13
572.41	6260.93
572.57	6298.38
572.74	6396.68
572.90	6155.61
573.06	6223.48
573.22	6211.78
573.38	6345.19
573.55	6235.19
573.71	6340.51
573.87	6277.32
574.03	6113.48
574.20	6104.12
574.36	6083.05
574.52	6118.16
574.68	6012.84
574.84	6127.52
575.01	6010.50
575.17	5788.14
575.33	6129.86
575.49	6010.50
575.65	5937.94
575.82	6087.73
575.98	6064.33
576.14	6038.58
576.30	6059.65
576.46	6129.86
576.62	6057.31
576.79	6246.89
576.95	6202.42
577.11	6167.31
577.27	6291.36
577.43	6239.87
577.59	6054.97
577.75	5926.24
577.92	5933.26
578.08	5912.19
578.24	5650.05
578.40	5891.13
578.56	6015.18
578.72	5886.45
578.88	6148.59
579.04	6125.18
579.21	6080.71
579.37	6043.26
579.53	6211.78
579.69	6167.31
579.85	6279.66
580.01	6099.44
580.17	6122.84
580.33	5961.34
580.49	5951.98
580.65	6057.31
580.82	6101.78
580.98	5975.39
581.14	5933.26
581.30	6047.94
581.46	6033.90
581.62	6078.37
581.78	6090.07
581.94	6047.94
582.10	6143.91
582.26	6251.57
582.42	6232.85
582.58	6141.57
582.74	6115.82
582.90	6026.88
583.06	6162.63
583.22	5954.32
583.38	6127.52
583.54	6211.78
583.70	6080.71
583.86	6064.33
584.02	6066.67
584.18	6015.18
584.34	6003.47
584.50	6024.54
584.66	6008.16
584.82	6132.20
584.98	6012.84
585.14	5926.24
585.30	6001.13
585.46	5621.97
585.62	5708.57
585.78	5717.93
585.94	5675.80
586.10	5902.83
586.26	5872.40
586.42	5771.76
586.58	5893.47
586.74	5738.99
586.90	5764.74
587.06	5809.21
587.22	5769.42
587.38	5678.14
587.54	5680.48
587.70	5516.64
587.86	5275.57
588.02	5198.33
588.18	5144.50
588.34	4870.65
588.49	4615.54
588.65	4468.08
588.81	4138.07
588.97	4170.83
589.13	4245.73
589.29	4269.14
589.45	4369.78
589.61	4355.74
589.77	4482.13
589.93	4791.08
590.08	4915.12
590.24	5018.11
590.40	4964.28
590.56	5078.96
590.72	4901.08
590.88	4884.70
591.04	4915.12
591.20	4926.83
591.35	4961.94
591.51	4870.65
591.67	4943.21
591.83	4816.82
591.99	4788.74
592.15	4954.91
592.31	4865.97
592.46	5041.51
592.62	4997.04
592.78	5128.11
592.94	4964.28
593.10	5125.77
593.26	5303.65
593.41	5369.19
593.57	5352.81
593.73	5022.79
593.89	4767.67
594.05	4638.94
594.20	4767.67
594.36	4547.66
594.52	4592.13
594.68	4599.15
594.84	4620.22
594.99	4915.12
595.15	4926.83
595.31	5090.67
595.47	5001.72
595.62	4931.51
595.78	5006.41
595.94	5226.42
596.10	5275.57
596.25	5245.14
596.41	4823.84
596.57	4926.83
596.73	4898.74
596.88	4975.98
597.04	5102.37
597.20	5149.18
597.36	4919.81
597.51	5004.07
597.67	5055.56
