SpectraSuite Data File
++++++++++++++++++++++++++++++++++++
Date: Fri Oct 04 11:39:15 GMT-05:00 2013
User: price-jones
Dark Spectrum Present: No
Reference Spectrum Present: No
Number of Sampled Component Spectra: 1
Spectrometers: USB2+H05261
Integration Time (usec): 100000 (USB2+H05261)
Spectra Averaged: 1 (USB2+H05261)
Boxcar Smoothing: 0 (USB2+H05261)
Correct for Electrical Dark: No (USB2+H05261)
Strobe/Lamp Enabled: No (USB2+H05261)
Correct for Detector Non-linearity: No (USB2+H05261)
Correct for Stray Light: No (USB2+H05261)
Number of Pixels in Processed Spectrum: 2048
>>>>>Begin Processed Spectral Data<<<<<
365.73	67.88
365.92	67.88
366.12	67.88
366.32	0.00
366.52	0.00
366.72	0.00
366.91	0.00
367.11	0.00
367.31	0.00
367.51	0.00
367.70	0.00
367.90	0.00
368.10	0.00
368.30	0.00
368.49	23.41
368.69	0.00
368.89	0.00
369.09	0.00
369.28	0.00
369.48	0.00
369.68	32.77
369.87	0.00
370.07	0.00
370.27	100.64
370.47	4.68
370.66	227.03
370.86	105.32
371.06	203.63
371.25	292.57
371.45	222.35
371.65	250.44
371.84	250.44
372.04	231.71
372.24	287.89
372.44	220.01
372.63	238.73
372.83	278.52
373.03	339.38
373.22	255.12
373.42	276.18
373.62	322.99
373.81	259.80
374.01	409.59
374.21	346.40
374.40	297.25
374.60	355.76
374.79	325.33
374.99	369.80
375.19	355.76
375.38	322.99
375.58	355.76
375.78	362.78
375.97	283.20
376.17	313.63
376.37	315.97
376.56	449.38
376.76	339.38
376.95	264.48
377.15	374.49
377.35	393.21
377.54	390.87
377.74	367.46
377.93	320.65
378.13	376.83
378.33	315.97
378.52	367.46
378.72	390.87
378.91	367.46
379.11	355.76
379.31	393.21
379.50	322.99
379.70	402.57
379.89	404.91
380.09	355.76
380.28	395.55
380.48	407.25
380.68	435.34
380.87	430.66
381.07	428.32
381.26	463.43
381.46	400.23
381.65	418.96
381.85	393.21
382.04	374.49
382.24	451.72
382.43	454.06
382.63	395.55
382.83	379.17
383.02	386.19
383.22	442.36
383.41	416.62
383.61	409.59
383.80	472.79
384.00	416.62
384.19	358.10
384.39	468.11
384.58	416.62
384.78	444.70
384.97	458.74
385.17	416.62
385.36	351.08
385.56	440.02
385.75	505.56
385.95	411.93
386.14	557.05
386.34	322.99
386.53	442.36
386.72	402.57
386.92	519.60
387.11	416.62
387.31	491.51
387.50	421.30
387.70	477.47
387.89	512.58
388.09	442.36
388.28	458.74
388.48	454.06
388.67	465.77
388.86	545.34
389.06	414.27
389.25	526.62
389.45	498.53
389.64	482.15
389.84	514.92
390.03	517.26
390.22	538.32
390.42	568.75
390.61	493.85
390.81	550.03
391.00	538.32
391.19	552.37
391.39	627.26
391.58	615.56
391.78	512.58
391.97	601.52
392.16	479.81
392.36	585.13
392.55	528.96
392.75	631.94
392.94	596.84
393.13	613.22
393.33	582.79
393.52	634.29
393.71	648.33
393.91	575.77
394.10	552.37
394.29	521.94
394.49	636.63
394.68	629.60
394.88	643.65
395.07	676.41
395.26	620.24
395.46	657.69
395.65	683.44
395.84	627.26
396.04	671.73
396.23	681.10
396.42	629.60
396.62	711.52
396.81	657.69
397.00	681.10
397.19	627.26
397.39	699.82
397.58	791.10
397.77	702.16
397.97	763.01
398.16	683.44
398.35	800.46
398.55	763.01
398.74	709.18
398.93	788.76
399.12	809.83
399.32	739.61
399.51	713.86
399.70	854.30
399.90	844.93
400.09	767.70
400.28	809.83
400.47	734.93
400.67	772.38
400.86	837.91
401.05	814.51
401.24	844.93
401.44	882.38
401.63	870.68
401.82	891.74
402.01	903.45
402.21	840.25
402.40	912.81
402.59	842.59
402.78	898.77
402.97	915.15
403.17	999.41
403.36	929.19
403.55	983.02
403.74	959.62
403.93	896.43
404.13	1083.67
404.32	961.96
404.51	980.68
404.70	1036.86
404.89	971.32
405.09	1029.84
405.28	999.41
405.47	1050.90
405.66	1048.56
405.85	976.00
406.05	1043.88
406.24	1008.77
406.43	1128.14
406.62	1125.80
406.81	1167.93
407.00	1102.39
407.20	1050.90
407.39	1088.35
407.58	1165.59
407.77	1121.12
407.96	1181.97
408.15	1170.27
408.34	1217.08
408.54	1181.97
408.73	1284.95
408.92	1214.74
409.11	1212.40
409.30	1301.34
409.49	1277.93
409.68	1203.04
409.87	1170.27
410.07	1310.70
410.26	1256.87
410.45	1378.58
410.64	1224.10
410.83	1301.34
411.02	1315.38
411.21	1427.73
411.40	1392.62
411.59	1500.28
411.78	1439.43
411.98	1446.45
412.17	1467.52
412.36	1458.15
412.55	1465.18
412.74	1481.56
412.93	1497.94
413.12	1453.47
413.31	1558.80
413.50	1561.14
413.69	1556.46
413.88	1593.90
414.07	1614.97
414.26	1605.61
414.45	1572.84
414.64	1666.46
414.83	1685.19
415.02	1631.35
415.22	1769.44
415.41	1832.64
415.60	1771.79
415.79	1774.13
415.98	1734.34
416.17	1753.06
416.36	1764.76
416.55	1811.57
416.74	1834.98
416.93	1825.62
417.12	1849.02
417.31	1949.67
417.50	1830.30
417.69	2001.16
417.88	1916.90
418.07	1839.66
418.26	1888.81
418.45	1963.71
418.64	2005.84
418.83	2073.71
419.02	1937.96
419.21	2019.88
419.39	1996.48
419.58	1954.35
419.77	2059.67
419.96	2010.52
420.15	2209.47
420.34	1959.03
420.53	2069.03
420.72	2120.53
420.91	2157.97
421.10	2183.72
421.29	2115.84
421.48	2155.63
421.67	2242.23
421.86	2143.93
422.05	2286.70
422.24	2211.81
422.43	2118.18
422.61	2090.10
422.80	2267.98
422.99	2237.55
423.18	2289.04
423.37	2321.81
423.56	2289.04
423.75	2317.13
423.94	2263.30
424.13	2069.03
424.32	2293.72
424.50	2328.83
424.69	2558.21
424.88	2338.20
425.07	2307.77
425.26	2270.32
425.45	2291.38
425.64	2333.51
425.83	2284.36
426.01	2277.34
426.20	2389.69
426.39	2375.64
426.58	2331.17
426.77	2326.49
426.96	2258.62
427.15	2352.24
427.33	2279.68
427.52	2349.90
427.71	2417.77
427.90	2455.22
428.09	2424.80
428.28	2377.98
428.46	2511.39
428.65	2523.10
428.84	2506.71
429.03	2476.29
429.22	2434.16
429.40	2548.84
429.59	2495.01
429.78	2438.84
429.97	2455.22
430.16	2410.75
430.34	2597.99
430.53	2635.44
430.72	2525.44
430.91	2609.70
431.10	2546.50
431.28	2712.68
431.47	2668.21
431.66	2773.53
431.85	2757.15
432.03	2670.55
432.22	2813.32
432.41	2731.41
432.60	2775.88
432.79	2771.19
432.97	2773.53
433.16	2754.81
433.35	2881.20
433.54	2724.38
433.72	2883.54
433.91	2726.72
434.10	2782.90
434.28	2897.58
434.47	2946.73
434.66	2822.69
434.85	2963.12
435.03	2956.10
435.22	3112.91
435.41	3335.26
435.59	3234.62
435.78	3199.51
435.97	2979.50
436.16	2998.23
436.34	3014.61
436.53	2986.52
436.72	3023.97
436.90	2984.18
437.09	3126.96
437.28	3155.04
437.46	2979.50
437.65	3047.38
437.84	3190.15
438.02	3152.70
438.21	3108.23
438.40	3042.70
438.58	3288.45
438.77	3321.22
438.96	3136.32
439.14	3262.71
439.33	3255.69
439.52	3314.20
439.70	3316.54
439.89	3442.93
440.08	3281.43
440.26	3365.69
440.45	3487.40
440.63	3468.67
440.82	3431.23
441.01	3445.27
441.19	3531.87
441.38	3536.55
441.57	3613.79
441.75	3545.91
441.94	3616.13
442.12	3702.73
442.31	3702.73
442.50	3808.05
442.68	3653.58
442.87	3660.60
443.05	3679.32
443.24	3810.39
443.43	3761.24
443.61	3861.88
443.80	3850.18
443.98	3707.41
444.17	3588.04
444.35	3866.56
444.54	3953.16
444.73	3721.45
444.91	3751.88
445.10	3709.75
445.28	3850.18
445.47	3885.29
445.65	3733.15
445.84	3770.60
446.02	3794.01
446.21	3770.60
446.39	3885.29
446.58	3875.93
446.77	3957.85
446.95	3833.80
447.14	3908.69
447.32	3985.93
447.51	3920.40
447.69	3904.01
447.88	3939.12
448.06	3941.46
448.25	3845.50
448.43	3974.23
448.62	3789.33
448.80	3896.99
448.99	4074.87
449.17	4091.26
449.36	4023.38
449.54	4032.74
449.73	4049.13
449.91	4077.21
450.10	4234.03
450.28	4271.48
450.46	4290.20
450.65	4187.22
450.83	4301.90
451.02	4079.55
451.20	4166.15
451.39	4219.99
451.57	4166.15
451.76	4205.94
451.94	4187.22
452.13	4236.37
452.31	4217.65
452.49	4304.25
452.68	4308.93
452.86	4135.73
453.05	4187.22
453.23	4475.10
453.42	4124.02
453.60	4215.30
453.78	4355.74
453.97	4404.89
454.15	4273.82
454.34	4264.46
454.52	4409.57
454.70	4671.71
454.89	4432.97
455.07	4421.27
455.26	4507.87
455.44	4613.20
455.62	4599.15
455.81	4498.51
455.99	4638.94
456.17	4594.47
456.36	4781.71
456.54	4753.63
456.73	4784.06
456.91	4863.63
457.09	4880.02
457.28	4868.31
457.46	4709.16
457.64	4856.61
457.83	4856.61
458.01	4652.98
458.19	4851.93
458.38	4753.63
458.56	4903.42
458.74	4847.25
458.93	4940.87
459.11	4880.02
459.29	4924.49
459.48	5062.58
459.66	4819.16
459.84	4943.21
460.03	5163.22
460.21	4840.23
460.39	5074.28
460.57	5067.26
460.76	5160.88
460.94	5100.03
461.12	5132.79
461.31	5085.98
461.49	5100.03
461.67	5093.01
461.85	5060.24
462.04	5121.09
462.22	5460.47
462.40	5294.29
462.59	5277.91
462.77	5240.46
462.95	5322.38
463.13	5308.34
463.32	5362.17
463.50	5341.10
463.68	5296.63
463.86	5275.57
464.05	5376.21
464.23	5500.26
464.41	5518.98
464.59	5352.81
464.78	5591.54
464.96	5420.68
465.14	5310.68
465.32	5441.75
465.50	5444.09
465.69	5624.31
465.87	5397.28
466.05	5348.12
466.23	5500.26
466.41	5481.53
466.60	5558.77
466.78	5703.89
466.96	5472.17
467.14	5680.48
467.32	5736.65
467.51	5668.78
467.69	5586.86
467.87	5668.78
468.05	5785.80
468.23	5619.63
468.41	5769.42
468.60	5750.70
468.78	5748.36
468.96	5671.12
469.14	5715.59
469.32	5949.64
469.50	5710.91
469.69	5933.26
469.87	5982.41
470.05	5987.09
470.23	5909.85
470.41	5991.77
470.59	6057.31
470.77	6148.59
470.95	5982.41
471.14	5909.85
471.32	5959.00
471.50	6155.61
471.68	5973.05
471.86	6157.95
472.04	6071.35
472.22	6380.30
472.40	6363.92
472.58	6326.47
472.77	6345.19
472.95	6422.43
473.13	6651.80
473.31	6380.30
473.49	6518.39
473.67	6408.39
473.85	6637.76
474.03	6516.05
474.21	6530.09
474.39	6738.40
474.57	6825.00
474.75	6724.36
474.93	6958.41
475.12	6799.26
475.30	6930.33
475.48	6787.55
475.66	6906.92
475.84	7007.56
476.02	6993.52
476.20	7045.01
476.38	7091.82
476.56	7417.16
476.74	7037.99
476.92	7166.72
477.10	7232.26
477.28	7372.69
477.46	7089.48
477.64	7391.41
477.82	7258.00
478.00	7618.44
478.18	7719.09
478.36	7702.70
478.54	7604.40
478.72	7456.95
478.90	7896.97
479.08	8060.80
479.26	7913.35
479.44	8205.92
479.62	8095.91
479.80	8154.43
479.98	8156.77
480.16	8493.80
480.34	8238.69
480.52	8507.85
480.70	8322.94
480.88	8339.33
481.06	8559.34
481.24	8379.12
481.41	8575.72
481.59	8622.53
481.77	8734.88
481.95	8753.60
482.13	8915.10
482.31	8688.07
482.49	8924.46
482.67	8992.34
482.85	9254.48
483.03	9235.75
483.21	9320.01
483.39	9502.58
483.57	9348.10
483.74	9493.21
483.92	9577.47
484.10	9547.05
484.28	10022.17
484.46	9888.76
484.64	9958.98
484.82	9776.42
485.00	10001.11
485.18	10139.20
485.35	10441.13
485.53	10150.90
485.71	10448.15
485.89	10473.90
486.07	10733.70
486.25	10448.15
486.43	10600.29
486.61	10686.89
486.78	11028.60
486.96	10958.39
487.14	11178.40
487.32	11169.04
487.50	11112.86
487.68	11234.57
487.85	11274.36
488.03	11365.64
488.21	11555.22
488.39	11625.44
488.57	11625.44
488.75	11618.42
488.92	12231.64
489.10	11868.86
489.28	12100.57
489.46	12166.10
489.64	12095.89
489.81	12421.22
489.99	12404.84
490.17	12638.89
490.35	12765.28
490.53	12592.08
490.70	12643.57
490.88	12807.41
491.06	12884.65
491.24	12657.62
491.41	12973.59
491.59	13205.30
491.77	13198.28
491.95	13385.52
492.13	13359.78
492.30	13331.69
492.48	13458.08
492.66	13355.10
492.84	13626.60
493.01	13687.45
493.19	13832.57
493.37	13928.53
493.54	14019.81
493.72	13947.25
493.90	14019.81
494.08	14396.64
494.25	14534.73
494.43	14249.18
494.61	14506.64
494.79	14768.78
494.96	14466.85
495.14	14773.46
495.32	14981.77
495.49	14869.42
495.67	14803.89
495.85	15075.39
496.02	15211.14
496.20	15030.92
496.38	14956.02
496.55	15199.44
496.73	15531.80
496.91	15672.23
497.09	15400.72
497.26	15817.34
497.44	15538.82
497.62	15840.75
497.79	16067.78
497.97	15782.23
498.14	16145.02
498.32	16081.82
498.50	16163.74
498.67	16360.34
498.85	16177.78
499.03	16182.46
499.20	16402.47
499.38	16360.34
499.56	16510.14
499.73	16542.91
499.91	16833.13
500.08	16842.50
500.26	16430.56
500.44	16589.72
500.61	17018.04
500.79	16971.22
500.97	16870.58
501.14	17530.61
501.32	17390.18
501.49	17352.73
501.67	17352.73
501.84	17422.95
502.02	17418.27
502.20	17493.16
502.37	18080.64
502.55	17802.11
502.72	17633.60
502.90	17872.33
503.07	17474.44
503.25	17872.33
503.43	17598.49
503.60	17895.74
503.78	18087.66
503.95	17809.14
504.13	17968.29
504.30	18230.43
504.48	17926.16
504.65	18485.55
504.83	18270.22
505.01	18710.24
505.18	18588.53
505.36	18864.72
505.53	18581.51
505.71	18672.79
505.88	18853.02
506.06	18799.18
506.23	18501.93
506.41	18654.07
506.58	19005.15
506.76	19274.31
506.93	18808.54
507.11	18869.40
507.28	19321.12
507.46	18951.32
507.63	19349.21
507.81	19634.75
507.98	19005.15
508.16	19424.11
508.33	19201.76
508.50	19690.93
508.68	19798.59
508.85	19803.27
509.03	19634.75
509.20	19601.99
509.38	20163.72
509.55	20070.09
509.73	20126.27
509.90	20470.33
510.08	20037.33
510.25	19894.55
510.42	20067.75
510.60	20339.26
510.77	20592.03
510.95	20755.87
511.12	20395.43
511.30	20580.33
511.47	20561.61
511.64	20872.90
511.82	20802.68
511.99	20772.25
512.17	20629.48
512.34	21060.14
512.51	21120.99
512.69	21010.99
512.86	21163.12
513.04	21245.04
513.21	21315.26
513.38	21455.69
513.56	21633.57
513.73	21188.87
513.90	21439.31
514.08	21394.84
514.25	21778.68
514.43	21319.94
514.60	21671.02
514.77	21647.61
514.95	21638.25
515.12	21785.71
515.29	21289.51
515.47	21855.92
515.64	21696.77
515.81	22216.36
515.99	22153.17
516.16	22295.94
516.33	22281.90
516.51	22204.66
516.68	21778.68
516.85	22235.09
517.03	22305.31
517.20	22382.54
517.37	22422.33
517.54	22530.00
517.72	22345.09
517.89	22530.00
518.06	22497.23
518.24	22677.45
518.41	22377.86
518.58	22860.01
518.75	22522.98
518.93	23016.83
519.10	23335.14
519.27	22864.69
519.45	23140.88
519.62	23178.33
519.79	22885.76
519.96	23159.60
520.14	23290.67
520.31	23152.58
520.48	23211.09
520.65	23620.69
520.83	23482.59
521.00	23660.48
521.17	23468.55
521.34	23480.25
521.52	23564.51
521.69	23606.64
521.86	23700.26
522.03	24229.23
522.20	23599.62
522.38	24058.37
522.55	23744.73
522.72	23786.86
522.89	23922.62
523.07	24425.83
523.24	24151.99
523.41	24247.95
523.58	24191.78
523.75	24620.10
523.92	24081.77
524.10	23981.13
524.27	24416.47
524.44	24393.06
524.61	24741.80
524.78	24762.87
524.96	24692.65
525.13	24493.71
525.30	24837.76
525.47	24748.82
525.64	24994.58
525.81	25158.42
525.98	24994.58
526.16	24903.30
526.33	24971.18
526.50	25202.89
526.67	25078.84
526.84	25144.38
527.01	24744.14
527.18	25476.73
527.36	25200.55
527.53	25277.79
527.70	25315.23
527.87	25570.35
528.04	25504.82
528.21	25338.64
528.38	25476.73
528.55	25324.60
528.72	25443.96
528.89	25401.83
529.07	25656.95
529.24	25607.80
529.41	25834.83
529.58	25603.12
529.75	25397.15
529.92	25738.87
530.09	25937.82
530.26	25701.42
530.43	26169.53
530.60	25898.03
530.77	26103.99
530.94	26356.77
531.11	26239.75
531.28	25958.88
531.46	26108.68
531.63	26546.36
531.80	26256.13
531.97	26295.92
532.14	26522.95
532.31	26499.55
532.48	26450.39
532.65	26504.23
532.82	26171.87
532.99	26466.78
533.16	26352.09
533.33	26810.84
533.50	26995.74
533.67	26684.45
533.84	26904.46
534.01	26600.19
534.18	26675.09
534.35	27103.40
534.52	26913.82
534.69	27033.19
534.86	27033.19
535.03	26822.54
535.20	27304.69
535.37	27241.50
535.54	27381.93
535.71	27054.25
535.88	27023.83
536.05	27166.60
536.22	27157.24
536.38	27178.30
536.55	27875.78
536.72	27222.77
536.89	26977.01
537.06	27597.26
537.23	27646.41
537.40	27426.40
537.57	27583.21
537.74	27700.24
537.91	27594.92
538.08	27779.82
538.25	27847.69
538.42	27777.48
538.59	28025.57
538.75	27845.35
538.92	27697.90
539.09	27908.55
539.26	28032.60
539.43	27889.82
539.60	28034.94
539.77	28407.08
539.94	28158.99
540.11	28093.45
540.28	28212.82
540.44	28079.41
540.61	28041.96
540.78	28109.83
540.95	28697.31
541.12	28465.60
541.29	28645.82
541.46	28905.62
541.62	28919.66
541.79	28699.65
541.96	28182.39
542.13	28444.53
542.30	28819.02
542.47	28971.15
542.63	28975.83
542.80	29116.26
542.97	29064.77
543.14	29233.29
543.31	29275.42
543.48	29252.02
543.64	29589.05
543.81	29017.96
543.98	29565.65
544.15	29757.57
544.32	29771.61
544.48	29647.57
544.65	29244.99
544.82	29420.53
544.99	28858.81
545.16	29443.94
545.32	28912.64
545.49	30115.67
545.66	30546.33
545.83	30663.36
546.00	30118.01
546.16	30026.73
546.33	29773.95
546.50	29647.57
546.67	29692.04
546.83	29088.18
547.00	29598.41
547.17	29591.39
547.34	29869.92
547.50	29677.99
547.67	29993.97
547.84	29883.96
548.00	29748.21
548.17	29556.28
548.34	30120.35
548.51	30181.21
548.67	30176.53
548.84	29937.79
549.01	30022.05
549.18	30122.69
549.34	29750.55
549.51	29713.10
549.68	30052.48
549.84	30419.94
550.01	30258.45
550.18	30181.21
550.34	30253.76
550.51	30366.11
550.68	30391.86
550.84	30183.55
551.01	30380.15
551.18	29799.70
551.34	30073.54
551.51	30148.44
551.68	30003.33
551.84	30192.91
552.01	30228.02
552.18	30689.10
552.34	30452.71
552.51	30403.56
552.68	30167.16
552.84	30703.15
553.01	30494.84
553.18	30377.81
553.34	30862.30
553.51	30476.12
553.67	30773.36
553.84	31646.38
554.01	30962.95
554.17	30637.61
554.34	31007.42
554.51	30473.78
554.67	31152.53
554.84	30497.18
555.00	30670.38
555.17	30981.67
555.33	30843.58
555.50	30644.63
555.67	31225.09
555.83	31332.75
556.00	30874.01
556.16	31445.10
556.33	31028.48
556.50	31283.60
556.66	31094.02
556.83	30778.04
556.99	31117.42
557.16	31730.64
557.32	31276.58
557.49	31611.28
557.65	31201.68
557.82	31197.00
557.98	30927.84
558.15	31241.47
558.32	31576.17
558.48	31239.13
558.65	31257.85
558.81	31494.25
558.98	31517.65
559.14	31091.68
559.31	30635.27
559.47	31033.16
559.64	31498.93
559.80	31372.54
559.97	31690.85
560.13	31353.82
560.30	31597.23
560.46	31388.92
560.63	31662.77
560.79	31934.27
560.96	31433.39
561.12	31365.52
561.29	31651.06
561.45	31384.24
561.61	31929.59
561.78	31992.78
561.94	32006.83
562.11	31775.11
562.27	31735.32
562.44	31501.27
562.60	31538.72
562.77	31498.93
562.93	31400.63
563.10	32002.14
563.26	31690.85
563.42	32109.81
563.59	31943.63
563.75	31777.45
563.92	32053.64
564.08	31716.60
564.24	31648.72
564.41	31487.23
564.57	32070.02
564.74	31512.97
564.90	31826.60
565.07	31859.37
565.23	31859.37
565.39	31864.05
565.56	32039.59
565.72	31997.46
565.88	31873.42
566.05	32084.06
566.21	31604.25
566.38	31920.23
566.54	32004.49
566.70	32044.27
566.87	32098.11
567.03	31552.76
567.19	32390.67
567.36	31910.86
567.52	32065.34
567.68	32107.47
567.85	31906.18
568.01	32126.19
568.17	32077.04
568.34	32655.15
568.50	32411.74
568.66	32376.63
568.83	32568.55
568.99	32657.49
569.15	32254.92
569.32	32421.10
569.48	32144.92
569.64	32212.79
569.81	31999.80
569.97	31936.61
570.13	32608.34
570.30	32072.36
570.46	31931.93
570.62	32465.57
570.78	32130.87
570.95	31889.80
571.11	32266.63
571.27	31878.10
571.43	32144.92
571.60	32236.20
571.76	32119.17
571.92	32657.49
572.09	32465.57
572.25	32886.87
572.41	32233.86
572.57	32432.80
572.74	32446.85
572.90	31751.71
573.06	32142.58
573.22	32093.43
573.38	32683.24
573.55	32327.48
573.71	32910.27
573.87	32638.77
574.03	32669.20
574.20	32723.03
574.36	32315.78
574.52	32669.20
574.68	32261.94
574.84	32737.07
575.01	32414.08
575.17	32601.32
575.33	32500.68
575.49	32367.27
575.65	33177.09
575.82	32816.65
575.98	32638.77
576.14	32713.67
576.30	32907.93
576.46	32631.75
576.62	32362.59
576.79	32404.72
576.95	32591.96
577.11	32507.70
577.27	32479.61
577.43	32919.63
577.59	32582.60
577.75	32931.34
577.92	31927.25
578.08	32292.37
578.24	32177.68
578.40	33254.33
578.56	32748.78
578.72	32912.61
578.88	32924.32
579.04	32723.03
579.21	32645.79
579.37	32945.38
579.53	32746.44
579.69	32444.51
579.85	32786.22
580.01	32889.21
580.17	32512.38
580.33	32488.98
580.49	32716.01
580.65	33280.08
580.82	33289.44
580.98	32753.46
581.14	32790.91
581.30	33006.23
581.46	32589.62
581.62	32774.52
581.78	32259.60
581.94	32706.65
582.10	33165.39
582.26	32711.33
582.42	32903.25
582.58	32929.00
582.74	32636.43
582.90	32823.67
583.06	33212.20
583.22	32725.37
583.38	32973.47
583.54	33191.14
583.70	32348.54
583.86	32896.23
584.02	33006.23
584.18	32741.75
584.34	33336.25
584.50	32671.54
584.66	32978.15
584.82	32542.81
584.98	33294.12
585.14	32872.82
585.30	33064.75
585.46	32861.12
585.62	32762.82
585.78	32685.58
585.94	32563.87
586.10	33015.60
586.26	32907.93
586.42	32680.90
586.58	32739.41
586.74	32643.45
586.90	32629.41
587.06	32758.14
587.22	33277.74
587.38	32409.40
587.54	32933.68
587.70	33273.06
587.86	32865.80
588.02	33223.90
588.18	33081.13
588.34	32659.84
588.49	32627.07
588.65	33149.01
588.81	33151.35
588.97	33364.34
589.13	32919.63
589.29	33174.75
589.45	33008.58
589.61	33305.82
589.77	33029.64
589.93	32931.34
590.08	33462.64
590.24	33296.46
590.40	33256.67
590.56	33088.15
590.72	33202.84
590.88	33043.68
591.04	33537.54
591.20	33163.05
591.35	33502.43
591.51	34019.69
591.67	33848.83
