SpectraSuite Data File
++++++++++++++++++++++++++++++++++++
Date: Fri Oct 04 11:39:27 GMT-05:00 2013
User: price-jones
Dark Spectrum Present: No
Reference Spectrum Present: No
Number of Sampled Component Spectra: 1
Spectrometers: USB2+H05261
Integration Time (usec): 100000 (USB2+H05261)
Spectra Averaged: 1 (USB2+H05261)
Boxcar Smoothing: 0 (USB2+H05261)
Correct for Electrical Dark: No (USB2+H05261)
Strobe/Lamp Enabled: No (USB2+H05261)
Correct for Detector Non-linearity: No (USB2+H05261)
Correct for Stray Light: No (USB2+H05261)
Number of Pixels in Processed Spectrum: 2048
>>>>>Begin Processed Spectral Data<<<<<
365.73	46.81
365.92	46.81
366.12	46.81
366.32	0.00
366.52	0.00
366.72	18.72
366.91	0.00
367.11	0.00
367.31	0.00
367.51	0.00
367.70	0.00
367.90	0.00
368.10	0.00
368.30	0.00
368.49	0.00
368.69	0.00
368.89	7.02
369.09	0.00
369.28	0.00
369.48	0.00
369.68	14.04
369.87	56.17
370.07	14.04
370.27	74.90
370.47	72.56
370.66	95.96
370.86	114.69
371.06	191.92
371.25	133.41
371.45	224.69
371.65	259.80
371.84	161.50
372.04	175.54
372.24	257.46
372.44	119.37
372.63	297.25
372.83	205.97
373.03	175.54
373.22	308.95
373.42	227.03
373.62	236.39
373.81	231.71
374.01	234.05
374.21	271.50
374.40	255.12
374.60	360.44
374.79	358.10
374.99	278.52
375.19	238.73
375.38	271.50
375.58	313.63
375.78	285.55
375.97	341.72
376.17	250.44
376.37	220.01
376.56	318.31
376.76	278.52
376.95	229.37
377.15	315.97
377.35	191.92
377.54	257.46
377.74	255.12
377.93	234.05
378.13	308.95
378.33	337.04
378.52	304.27
378.72	276.18
378.91	353.42
379.11	278.52
379.31	243.42
379.50	217.67
379.70	262.14
379.89	395.55
380.09	365.12
380.28	255.12
380.48	285.55
380.68	322.99
380.87	355.76
381.07	311.29
381.26	292.57
381.46	294.91
381.65	334.70
381.85	360.44
382.04	266.82
382.24	315.97
382.43	353.42
382.63	330.02
382.83	266.82
383.02	360.44
383.22	334.70
383.41	238.73
383.61	409.59
383.80	346.40
384.00	383.85
384.19	285.55
384.39	369.80
384.58	252.78
384.78	248.10
384.97	365.12
385.17	372.15
385.36	339.38
385.56	287.89
385.75	337.04
385.95	318.31
386.14	407.25
386.34	339.38
386.53	313.63
386.72	315.97
386.92	290.23
387.11	381.51
387.31	332.36
387.50	283.20
387.70	299.59
387.89	367.46
388.09	374.49
388.28	428.32
388.48	362.78
388.67	393.21
388.86	322.99
389.06	379.17
389.25	411.93
389.45	341.72
389.64	454.06
389.84	395.55
390.03	517.26
390.22	421.30
390.42	376.83
390.61	421.30
390.81	388.53
391.00	369.80
391.19	414.27
391.39	330.02
391.58	442.36
391.78	505.56
391.97	430.66
392.16	409.59
392.36	447.04
392.55	430.66
392.75	475.13
392.94	531.30
393.13	421.30
393.33	421.30
393.52	444.70
393.71	510.24
393.91	440.02
394.10	449.38
394.29	491.51
394.49	514.92
394.68	458.74
394.88	484.49
395.07	528.96
395.26	519.60
395.46	430.66
395.65	573.43
395.84	514.92
396.04	627.26
396.23	566.41
396.42	575.77
396.62	564.07
396.81	599.18
397.00	557.05
397.19	533.64
397.39	535.98
397.58	615.56
397.77	552.37
397.97	599.18
398.16	669.39
398.35	580.45
398.55	636.63
398.74	648.33
398.93	636.63
399.12	690.46
399.32	657.69
399.51	685.78
399.70	718.54
399.90	758.33
400.09	676.41
400.28	716.20
400.47	716.20
400.67	758.33
400.86	709.18
401.05	711.52
401.24	688.12
401.44	741.95
401.63	734.93
401.82	812.17
402.01	699.82
402.21	690.46
402.40	774.72
402.59	821.53
402.78	802.80
402.97	793.44
403.17	873.02
403.36	851.96
403.55	807.48
403.74	940.90
403.93	880.04
404.13	868.34
404.32	884.72
404.51	903.45
404.70	943.24
404.89	912.81
405.09	917.49
405.28	837.91
405.47	992.39
405.66	999.41
405.85	990.05
406.05	971.32
406.24	1011.11
406.43	1032.18
406.62	990.05
406.81	1097.71
407.00	1064.94
407.20	1172.61
407.39	1039.20
407.58	1057.92
407.77	1046.22
407.96	1102.39
408.15	1149.20
408.34	1142.18
408.54	1156.22
408.73	1132.82
408.92	1259.21
409.11	1188.99
409.30	1210.06
409.49	1212.40
409.68	1158.57
409.87	1212.40
410.07	1270.91
410.26	1261.55
410.45	1322.40
410.64	1320.06
410.83	1324.74
411.02	1322.40
411.21	1362.19
411.40	1439.43
411.59	1348.15
411.78	1334.11
411.98	1392.62
412.17	1462.83
412.36	1397.30
412.55	1486.24
412.74	1486.24
412.93	1549.43
413.12	1474.54
413.31	1572.84
413.50	1563.48
413.69	1643.06
413.88	1687.53
414.07	1657.10
414.26	1612.63
414.45	1638.38
414.64	1732.00
414.83	1783.49
415.02	1760.08
415.22	1746.04
415.41	1781.15
415.60	1809.23
415.79	1881.79
415.98	1891.15
416.17	1905.20
416.36	1856.04
416.55	1956.69
416.74	1970.73
416.93	1921.58
417.12	1970.73
417.31	2092.44
417.50	2029.24
417.69	2125.21
417.88	2087.76
418.07	1949.67
418.26	2017.54
418.45	2087.76
418.64	2059.67
418.83	2141.59
419.02	2062.01
419.21	2207.13
419.39	2120.53
419.58	2176.70
419.77	2141.59
419.96	2321.81
420.15	2263.30
420.34	2298.41
420.53	2354.58
420.72	2289.04
420.91	2342.88
421.10	2319.47
421.29	2342.88
421.48	2267.98
421.67	2490.33
421.86	2363.94
422.05	2373.30
422.24	2303.09
422.43	2368.62
422.61	2485.65
422.80	2333.51
422.99	2370.96
423.18	2436.50
423.37	2469.27
423.56	2312.45
423.75	2333.51
423.94	2293.72
424.13	2298.41
424.32	2354.58
424.50	2370.96
424.69	2471.61
424.88	2595.65
425.07	2403.73
425.26	2455.22
425.45	2387.35
425.64	2429.48
425.83	2459.90
426.01	2504.37
426.20	2335.85
426.39	2555.86
426.58	2574.59
426.77	2499.69
426.96	2558.21
427.15	2473.95
427.33	2544.16
427.52	2602.68
427.71	2614.38
427.90	2630.76
428.09	2637.78
428.28	2693.96
428.46	2661.19
428.65	2588.63
428.84	2827.37
429.03	2768.85
429.22	2626.08
429.40	2654.17
429.59	2745.45
429.78	2679.91
429.97	2609.70
430.16	2761.83
430.34	2874.18
430.53	2878.86
430.72	2743.11
430.91	2743.11
431.10	2836.73
431.28	2855.45
431.47	2963.12
431.66	3023.97
431.85	2841.41
432.03	2888.22
432.22	3096.53
432.41	2974.82
432.60	2913.97
432.79	2785.24
432.97	2906.95
433.16	3047.38
433.35	3070.78
433.54	3075.46
433.72	3026.31
433.91	3038.02
434.10	3126.96
434.28	3073.12
434.47	3180.79
434.66	3047.38
434.85	3159.72
435.03	3164.40
435.22	3337.60
435.41	3513.14
435.59	3515.48
435.78	3667.62
435.97	3272.07
436.16	3307.18
436.34	3424.20
436.53	3187.81
436.72	3445.27
436.90	3241.64
437.09	3440.59
437.28	3208.87
437.46	3220.58
437.65	3419.52
437.84	3384.41
438.02	3466.33
438.21	3342.28
438.40	3407.82
438.58	3634.85
438.77	3693.37
438.96	3574.00
439.14	3447.61
439.33	3651.24
439.52	3798.69
439.70	3609.11
439.89	3604.42
440.08	3758.90
440.26	3709.75
440.45	3728.47
440.63	3686.34
440.82	3850.18
441.01	3747.20
441.19	3929.76
441.38	3826.78
441.57	3946.14
441.75	3875.93
441.94	4014.02
442.12	4016.36
442.31	4070.19
442.50	4077.21
442.68	3934.44
442.87	3981.25
443.05	4063.17
443.24	4072.53
443.43	4086.58
443.61	4189.56
443.80	4313.61
443.98	4070.19
444.17	3936.78
444.35	4280.84
444.54	4311.27
444.73	4074.87
444.91	4166.15
445.10	4051.47
445.28	4131.05
445.47	4037.42
445.65	4248.07
445.84	4278.50
446.02	4224.67
446.21	4255.09
446.39	4182.54
446.58	4229.35
446.77	4339.35
446.95	4217.65
447.14	4243.39
447.32	4196.58
447.51	4210.62
447.69	4299.56
447.88	4435.32
448.06	4238.71
448.25	4219.99
448.43	4215.30
448.62	4334.67
448.80	4297.22
448.99	4259.78
449.17	4435.32
449.36	4306.59
449.54	4418.93
449.73	4428.29
449.91	4596.81
450.10	4414.25
450.28	4568.73
450.46	4599.15
450.65	4681.07
450.83	4627.24
451.02	4550.00
451.20	4720.86
451.39	4627.24
451.57	4606.17
451.76	4650.64
451.94	4615.54
452.13	4791.08
452.31	4566.39
452.49	4564.04
452.68	4655.33
452.86	4660.01
453.05	4622.56
453.23	4849.59
453.42	4816.82
453.60	4620.22
453.78	4704.48
453.97	4667.03
454.15	4748.95
454.34	4681.07
454.52	4753.63
454.70	4725.54
454.89	4819.16
455.07	4849.59
455.26	4973.64
455.44	4966.62
455.62	4903.42
455.81	4784.06
455.99	5053.22
456.17	4891.72
456.36	5083.64
456.54	5186.63
456.73	5093.01
456.91	5130.45
457.09	5135.14
457.28	5376.21
457.46	5081.30
457.64	5259.18
457.83	5203.01
458.01	5144.50
458.19	5170.24
458.38	5310.68
458.56	5324.72
458.74	5392.59
458.93	5362.17
459.11	5263.86
459.29	5313.02
459.48	5399.62
459.66	5479.19
459.84	5467.49
460.03	5626.65
460.21	5479.19
460.39	5493.24
460.57	5540.05
460.76	5350.46
460.94	5689.84
461.12	5486.22
461.31	5628.99
461.49	5584.52
461.67	5369.19
461.85	5694.52
462.04	5813.89
462.22	5928.58
462.40	5905.17
462.59	5738.99
462.77	5738.99
462.95	5809.21
463.13	5832.62
463.32	5830.27
463.50	5748.36
463.68	5680.48
463.86	5804.53
464.05	5921.56
464.23	5680.48
464.41	5886.45
464.59	5799.85
464.78	5877.09
464.96	5818.57
465.14	5851.34
465.32	6001.13
465.50	6106.46
465.69	6237.53
465.87	6010.50
466.05	5973.05
466.23	5837.30
466.41	6104.12
466.60	6324.13
466.78	6022.20
466.96	6040.92
467.14	6099.44
467.32	6249.23
467.51	6251.57
467.69	5998.79
467.87	6181.35
468.05	6225.82
468.23	6230.51
468.41	6417.75
468.60	6132.20
468.78	6305.40
468.96	6134.54
469.14	6296.04
469.32	6260.93
469.50	6183.70
469.69	6345.19
469.87	6483.28
470.05	6462.22
470.23	6623.72
470.41	6502.01
470.59	6487.96
470.77	6663.51
470.95	6726.70
471.14	6537.12
471.32	6415.41
471.50	6675.21
471.68	6689.25
471.86	6803.94
472.04	6918.62
472.22	6878.83
472.40	6689.25
472.58	6895.22
472.77	6787.55
472.95	6960.75
473.13	7019.27
473.31	6920.96
473.49	6906.92
473.67	6970.12
473.85	7019.27
474.03	7016.93
474.21	7204.17
474.39	7248.64
474.57	7426.52
474.75	7080.12
474.93	7400.77
475.12	7316.51
475.30	7396.09
475.48	7433.54
475.66	7569.29
475.84	7592.70
476.02	7555.25
476.20	7522.48
476.38	7672.28
476.56	7810.37
476.74	7880.58
476.92	7801.01
477.10	7817.39
477.28	7796.32
477.46	7941.44
477.64	7988.25
477.82	8250.39
478.00	8116.98
478.18	8142.72
478.36	8390.82
478.54	8124.00
478.72	8320.60
478.90	8571.04
479.08	8613.17
479.26	8573.38
479.44	8650.62
479.62	8767.65
479.80	8753.60
479.98	8655.30
480.16	8999.36
480.34	8748.92
480.52	8950.21
480.70	9085.96
480.88	9039.15
481.06	9102.34
481.24	9177.24
481.41	9366.82
481.59	9476.83
481.77	9399.59
481.95	9533.00
482.13	9479.17
482.31	9441.72
482.49	9799.82
482.67	9947.28
482.85	9687.48
483.03	9930.89
483.21	10143.88
483.39	10225.80
483.57	10235.16
483.74	10080.69
483.92	10303.04
484.10	10391.98
484.28	10567.52
484.46	10651.78
484.64	11080.10
484.82	10733.70
485.00	10747.74
485.18	10906.90
485.35	11236.91
485.53	10979.45
485.71	11178.40
485.89	11262.66
486.07	11346.92
486.25	11456.92
486.43	11541.18
486.61	11421.81
486.78	11763.53
486.96	11793.96
487.14	11721.40
487.32	11765.87
487.50	12067.80
487.68	12004.61
487.85	12222.28
488.03	12306.54
488.21	12381.43
488.39	12465.69
488.57	12493.78
488.75	12826.14
488.92	13013.38
489.10	13022.74
489.28	13078.91
489.46	13067.21
489.64	12910.40
489.81	13291.90
489.99	13263.82
490.17	13252.11
490.35	13469.78
490.53	13589.15
490.70	13680.43
490.88	13362.12
491.06	13881.72
491.24	13547.02
491.41	13877.04
491.59	14129.81
491.77	14026.83
491.95	14235.14
492.13	14326.42
492.30	14469.19
492.48	14417.70
492.66	14642.39
492.84	14597.92
493.01	14881.13
493.19	14864.74
493.37	14853.04
493.54	14834.32
493.72	15140.93
493.90	14974.75
494.08	15421.79
494.25	15527.11
494.43	15386.68
494.61	15374.98
494.79	15506.05
494.96	15445.20
495.14	15639.46
495.32	15871.17
495.49	15840.75
495.67	15730.74
495.85	16114.59
496.02	16147.36
496.20	16240.98
496.38	16287.79
496.55	16285.45
496.73	16500.78
496.91	16362.69
497.09	16657.59
497.26	16840.15
497.44	16669.30
497.62	16725.47
497.79	17228.68
497.97	17212.30
498.14	17074.21
498.32	17301.24
498.50	17022.72
498.67	17436.99
498.85	17446.35
499.03	17736.58
499.20	17479.12
499.38	17935.53
499.56	17991.70
499.73	17664.02
499.91	18136.81
500.08	18078.30
500.26	17935.53
500.44	18188.30
500.61	17813.82
500.79	17935.53
500.97	18422.36
501.14	18539.38
501.32	18384.91
501.49	18244.48
501.67	18403.63
501.84	18567.47
502.02	18752.37
502.20	18750.03
502.37	18719.60
502.55	18799.18
502.72	18810.89
502.90	18881.10
503.07	18778.12
503.25	18981.74
503.43	18939.62
503.60	19311.76
503.78	19583.26
503.95	19033.24
504.13	19269.63
504.30	19400.70
504.48	19414.74
504.65	19438.15
504.83	19950.73
505.01	20123.93
505.18	19880.51
505.36	19707.31
505.53	19686.25
505.71	19590.28
505.88	19978.81
506.06	19971.79
506.23	20042.01
506.41	20177.76
506.58	20318.19
506.76	20144.99
506.93	20439.90
507.11	20514.80
507.28	20702.04
507.46	19939.02
507.63	20563.95
507.81	20617.78
507.98	20460.96
508.16	20545.22
508.33	20826.09
508.50	20819.07
508.68	20924.39
508.85	21130.36
509.03	21120.99
509.20	21256.75
509.38	21252.06
509.55	21366.75
509.73	21266.11
509.90	21411.22
510.08	21429.94
510.25	21656.98
510.42	21722.51
510.60	21844.22
510.77	21876.99
510.95	21708.47
511.12	21575.06
511.30	21675.70
511.47	21919.12
511.64	21743.58
511.82	22356.80
511.99	21790.39
512.17	22204.66
512.34	22176.58
512.51	22593.19
512.69	22691.49
512.86	22373.18
513.04	22761.71
513.21	22794.48
513.38	22490.21
513.56	22878.74
513.73	22611.92
513.90	22750.01
514.08	22960.66
514.25	23185.35
514.43	22934.91
514.60	23307.05
514.77	23131.51
514.95	23470.89
515.12	22878.74
515.29	23117.47
515.47	23618.35
515.64	23683.88
515.81	23590.26
515.99	23714.31
516.16	23922.62
516.33	23805.59
516.51	23936.66
516.68	23733.03
516.85	23927.30
517.03	23616.01
517.20	24252.63
517.37	23754.10
517.54	23995.17
517.72	23971.77
517.89	24219.86
518.06	23789.20
518.24	24194.12
518.41	24348.59
518.58	24306.46
518.75	24229.23
518.93	24418.81
519.10	24285.40
519.27	24552.22
519.45	24608.39
519.62	24535.84
519.79	24496.05
519.96	24400.08
520.14	24861.17
520.31	24472.64
520.48	24945.43
520.65	24669.25
520.83	24821.38
521.00	24922.02
521.17	24776.91
521.34	25102.25
521.52	25205.23
521.69	25458.01
521.86	25532.90
522.03	25406.52
522.20	25202.89
522.38	25544.61
522.55	25565.67
522.72	25582.06
522.89	25315.23
523.07	25977.61
523.24	25685.04
523.41	25715.47
523.58	25675.68
523.75	25912.07
523.92	25678.02
524.10	25963.56
524.27	26139.10
524.44	26230.38
524.61	26359.11
524.78	26192.94
524.96	26214.00
525.13	26225.70
525.30	26462.10
525.47	26354.43
525.64	26183.57
525.81	26703.17
525.98	26604.87
526.16	26597.85
526.33	26560.40
526.50	26614.23
526.67	26244.43
526.84	26410.60
527.01	26438.69
527.18	26497.20
527.36	26946.59
527.53	27213.41
527.70	27367.88
527.87	27274.26
528.04	27314.05
528.21	26906.80
528.38	26993.40
528.55	27358.52
528.72	27377.25
528.89	26995.74
529.07	27292.99
529.24	27084.68
529.41	27227.45
529.58	27386.61
529.75	27171.28
529.92	27147.87
530.09	27307.03
530.26	27555.13
530.43	27225.11
530.60	27438.10
530.77	27470.87
530.94	27625.34
531.11	27510.66
531.28	27498.95
531.46	27791.52
531.63	27857.06
531.80	28123.88
531.97	28060.68
532.14	28126.22
532.31	27821.95
532.48	27960.04
532.65	28184.73
532.82	28123.88
532.99	28519.43
533.16	27805.56
533.33	28360.27
533.50	28531.13
533.67	28484.32
533.84	27798.54
534.01	27784.50
534.18	28212.82
534.35	28854.12
534.52	28355.59
534.69	28500.70
534.86	28704.33
535.03	28683.27
535.20	28575.60
535.37	28978.17
535.54	28533.47
535.71	28617.73
535.88	28709.01
536.05	28568.58
536.22	28837.74
536.38	29142.01
536.55	28797.95
536.72	28968.81
536.89	29219.25
537.06	28753.48
537.23	29006.26
537.40	29010.94
537.57	29170.10
537.74	29263.72
537.91	29397.13
538.08	29565.65
538.25	29359.68
538.42	29170.10
538.59	29528.20
538.75	29216.91
538.92	29022.64
539.09	29434.58
539.26	29247.33
539.43	29605.44
539.60	29614.80
539.77	29582.03
539.94	29790.34
540.11	29703.74
540.28	30213.98
540.44	29710.76
540.61	29748.21
540.78	29795.02
540.95	30089.93
541.12	30197.59
541.29	30221.00
541.46	30190.57
541.62	30228.02
541.79	30202.27
541.96	29780.98
542.13	30370.79
542.30	30693.79
542.47	30258.45
542.63	30717.19
542.80	30668.04
542.97	30934.86
543.14	30843.58
543.31	30635.27
543.48	30628.25
543.64	31012.10
543.81	30953.58
543.98	30984.01
544.15	30803.79
544.32	31016.78
544.48	31159.55
544.65	30525.27
544.82	30934.86
544.99	30698.47
545.16	31007.42
545.32	31344.45
545.49	31807.88
545.66	32072.36
545.83	32212.79
546.00	32229.18
546.16	31599.57
546.33	31168.91
546.50	30969.97
546.67	30845.92
546.83	31023.80
547.00	31016.78
547.17	31517.65
547.34	31431.05
547.50	31335.09
547.67	31377.22
547.84	31496.59
548.00	31262.54
548.17	31805.54
548.34	30916.14
548.51	31878.10
548.67	31477.86
548.84	31426.37
549.01	31468.50
549.18	31592.55
549.34	31496.59
549.51	31747.03
549.68	31367.86
549.84	31257.85
550.01	31651.06
550.18	31550.42
550.34	31845.33
550.51	31976.40
550.68	31828.95
550.84	31573.83
551.01	31751.71
551.18	31950.65
551.34	31477.86
551.51	31527.02
551.68	32018.53
551.84	31751.71
552.01	31707.24
552.18	32135.56
552.34	31597.23
552.51	32203.43
552.68	31847.67
552.84	31990.44
553.01	31878.10
553.18	31943.63
553.34	32168.32
553.51	31976.40
553.67	31854.69
553.84	32079.38
554.01	32327.48
554.17	31964.70
554.34	31824.26
554.51	31910.86
554.67	32343.86
554.84	32280.67
555.00	32470.25
555.17	32601.32
555.33	32063.00
555.50	32030.23
555.67	32226.84
555.83	31992.78
556.00	32032.57
556.16	32453.87
556.33	32430.46
556.50	32245.56
556.66	32350.88
556.83	32596.64
556.99	32671.54
557.16	32449.19
557.32	32425.78
557.49	32503.02
557.65	32278.33
557.82	32606.00
557.98	32151.94
558.15	32507.70
558.32	32531.11
558.48	32261.94
558.65	32690.26
558.81	32510.04
558.98	32371.95
559.14	32346.20
559.31	32486.64
559.47	32634.09
559.64	32545.15
559.80	32828.35
559.97	32793.25
560.13	32772.18
560.30	32385.99
560.46	32631.75
560.63	32769.84
560.79	32725.37
560.96	32692.60
561.12	32620.05
561.29	32919.63
561.45	32692.60
561.61	32884.53
561.78	32591.96
561.94	32903.25
562.11	32821.33
562.27	32748.78
562.44	32500.68
562.60	32807.29
562.77	32481.95
562.93	32737.07
563.10	32912.61
563.26	32732.39
563.42	33003.89
563.59	33247.31
563.75	33137.30
563.92	33179.43
564.08	32903.25
564.24	33090.49
564.41	32828.35
564.57	32744.09
564.74	33024.96
564.90	33308.16
565.07	32711.33
565.23	32828.35
565.39	32875.16
565.56	32917.29
565.72	32889.21
565.88	32875.16
566.05	32961.76
566.21	32968.79
566.38	32823.67
566.54	32865.80
566.70	33420.51
566.87	33205.18
567.03	33310.50
567.19	33118.58
567.36	33146.67
567.52	33106.88
567.68	32814.31
567.85	33291.78
568.01	33308.16
568.17	33006.23
568.34	33511.79
568.50	33380.72
568.66	33251.99
568.83	33373.70
568.99	32896.23
569.15	32966.45
569.32	32849.42
569.48	32858.78
569.64	33062.41
569.81	32863.46
569.97	32999.21
570.13	33462.64
570.30	33060.07
570.46	33322.21
570.62	33170.07
570.78	33259.01
570.95	32959.42
571.11	33031.98
571.27	32645.79
571.43	32755.80
571.60	32737.07
571.76	32985.17
571.92	33006.23
572.09	33420.51
572.25	32844.74
572.41	33062.41
572.57	33202.84
572.74	33741.16
572.90	33528.17
573.06	32884.53
573.22	33415.83
573.38	33207.52
573.55	33287.10
573.71	33429.87
573.87	33680.31
574.03	33228.59
574.20	33212.20
574.36	32783.88
574.52	33275.40
574.68	33687.33
574.84	33268.37
575.01	33584.35
575.17	33598.39
575.33	32931.34
575.49	33549.24
575.65	33490.73
575.82	33481.36
575.98	33268.37
576.14	33516.47
576.30	33259.01
576.46	33518.81
576.62	33399.44
576.79	33301.14
576.95	33390.08
577.11	33488.38
577.27	33450.94
577.43	33415.83
577.59	33514.13
577.75	33039.00
577.92	33158.37
578.08	33394.76
578.24	33289.44
578.40	33326.89
578.56	33504.77
578.72	33577.33
578.88	33738.82
579.04	33565.62
579.21	33415.83
579.37	33369.02
579.53	33841.81
579.69	33413.49
579.85	33476.68
580.01	33441.57
580.17	33343.27
580.33	33376.04
580.49	33373.70
580.65	33308.16
580.82	33748.18
580.98	33912.02
581.14	33369.02
581.30	33525.83
581.46	33406.47
581.62	33347.95
581.78	33027.30
581.94	33867.55
582.10	33579.67
582.26	33610.09
582.42	33593.71
582.58	33446.26
582.74	33504.77
582.90	33591.37
583.06	33734.14
583.22	33116.24
583.38	33567.96
583.54	33240.29
583.70	33181.77
583.86	33434.55
584.02	32957.08
584.18	33317.53
584.34	33413.49
584.50	33392.42
584.66	33006.23
584.82	33202.84
584.98	33394.76
585.14	33333.91
585.30	33263.69
585.46	33116.24
585.62	33228.59
585.78	33560.94
585.94	33139.65
586.10	33446.26
586.26	33413.49
586.42	33771.59
586.58	34012.66
586.74	33570.30
586.90	33193.48
587.06	33345.61
587.22	33951.81
587.38	33486.04
587.54	33202.84
587.70	33331.57
587.86	33750.52
588.02	33825.42
588.18	33434.55
588.34	33544.56
588.49	33462.64
588.65	33315.19
588.81	33567.96
588.97	33464.98
589.13	33497.75
589.29	33390.08
589.45	33443.91
589.61	33787.97
589.77	33680.31
589.93	34061.82
590.08	33804.36
590.24	33631.16
590.40	33769.25
590.56	33865.21
590.72	33881.60
590.88	33593.71
591.04	33645.20
591.20	33572.64
591.35	33717.76
591.51	34431.62
