SpectraSuite Data File
++++++++++++++++++++++++++++++++++++
Date: Fri Oct 04 11:39:21 GMT-05:00 2013
User: price-jones
Dark Spectrum Present: No
Reference Spectrum Present: No
Number of Sampled Component Spectra: 1
Spectrometers: USB2+H05261
Integration Time (usec): 100000 (USB2+H05261)
Spectra Averaged: 1 (USB2+H05261)
Boxcar Smoothing: 0 (USB2+H05261)
Correct for Electrical Dark: No (USB2+H05261)
Strobe/Lamp Enabled: No (USB2+H05261)
Correct for Detector Non-linearity: No (USB2+H05261)
Correct for Stray Light: No (USB2+H05261)
Number of Pixels in Processed Spectrum: 2048
>>>>>Begin Processed Spectral Data<<<<<
365.73	51.49
365.92	51.49
366.12	51.49
366.32	0.00
366.52	0.00
366.72	2.34
366.91	0.00
367.11	0.00
367.31	0.00
367.51	0.00
367.70	0.00
367.90	0.00
368.10	0.00
368.30	0.00
368.49	0.00
368.69	0.00
368.89	11.70
369.09	0.00
369.28	0.00
369.48	16.38
369.68	0.00
369.87	0.00
370.07	42.13
370.27	107.66
370.47	88.94
370.66	224.69
370.86	182.56
371.06	255.12
371.25	266.82
371.45	259.80
371.65	245.76
371.84	210.65
372.04	355.76
372.24	334.70
372.44	320.65
372.63	273.84
372.83	351.08
373.03	273.84
373.22	355.76
373.42	271.50
373.62	362.78
373.81	400.23
374.01	425.98
374.21	393.21
374.40	327.68
374.60	344.06
374.79	374.49
374.99	367.46
375.19	437.68
375.38	458.74
375.58	393.21
375.78	379.17
375.97	383.85
376.17	468.11
376.37	369.80
376.56	514.92
376.76	442.36
376.95	423.64
377.15	411.93
377.35	435.34
377.54	390.87
377.74	470.45
377.93	442.36
378.13	449.38
378.33	418.96
378.52	374.49
378.72	402.57
378.91	477.47
379.11	435.34
379.31	430.66
379.50	433.00
379.70	407.25
379.89	454.06
380.09	458.74
380.28	505.56
380.48	468.11
380.68	440.02
380.87	437.68
381.07	493.85
381.26	437.68
381.46	524.28
381.65	440.02
381.85	484.49
382.04	449.38
382.24	475.13
382.43	468.11
382.63	489.17
382.83	468.11
383.02	533.64
383.22	601.52
383.41	524.28
383.61	578.11
383.80	507.90
384.00	538.32
384.19	580.45
384.39	580.45
384.58	526.62
384.78	540.66
384.97	456.40
385.17	440.02
385.36	470.45
385.56	540.66
385.75	510.24
385.95	559.39
386.14	578.11
386.34	596.84
386.53	585.13
386.72	585.13
386.92	510.24
387.11	683.44
387.31	561.73
387.50	510.24
387.70	638.97
387.89	526.62
388.09	664.71
388.28	575.77
388.48	655.35
388.67	608.54
388.86	662.37
389.06	683.44
389.25	641.31
389.45	613.22
389.64	667.05
389.84	748.97
390.03	636.63
390.22	657.69
390.42	592.16
390.61	603.86
390.81	596.84
391.00	763.01
391.19	671.73
391.39	676.41
391.58	779.40
391.78	730.25
391.97	620.24
392.16	629.60
392.36	716.20
392.55	760.67
392.75	702.16
392.94	767.70
393.13	866.00
393.33	819.19
393.52	744.29
393.71	805.14
393.91	781.74
394.10	765.36
394.29	791.10
394.49	734.93
394.68	823.87
394.88	877.70
395.07	894.08
395.26	833.23
395.46	894.08
395.65	896.43
395.84	805.14
396.04	929.19
396.23	858.98
396.42	931.53
396.62	922.17
396.81	957.28
397.00	781.74
397.19	830.89
397.39	894.08
397.58	891.74
397.77	849.61
397.97	1008.77
398.16	933.87
398.35	1053.24
398.55	1008.77
398.74	940.90
398.93	997.07
399.12	1008.77
399.32	943.24
399.51	978.34
399.70	1046.22
399.90	980.68
400.09	1060.26
400.28	1039.20
400.47	1086.01
400.67	1022.81
400.86	1088.35
401.05	1109.41
401.24	1177.29
401.44	1179.63
401.63	1167.93
401.82	1228.78
402.01	1174.95
402.21	1135.16
402.40	1203.04
402.59	1081.33
402.78	1158.57
402.97	1121.12
403.17	1163.25
403.36	1240.48
403.55	1158.57
403.74	1299.00
403.93	1284.95
404.13	1308.36
404.32	1306.02
404.51	1350.49
404.70	1378.58
404.89	1294.32
405.09	1303.68
405.28	1308.36
405.47	1371.55
405.66	1324.74
405.85	1383.26
406.05	1401.98
406.24	1378.58
406.43	1380.92
406.62	1437.09
406.81	1537.73
407.00	1486.24
407.20	1537.73
407.39	1448.79
407.58	1558.80
407.77	1507.30
407.96	1614.97
408.15	1643.06
408.34	1568.16
408.54	1586.88
408.73	1652.42
408.92	1598.59
409.11	1694.55
409.30	1582.20
409.49	1732.00
409.68	1680.50
409.87	1722.63
410.07	1795.19
410.26	1790.51
410.45	1785.83
410.64	1825.62
410.83	1884.13
411.02	1811.57
411.21	1949.67
411.40	1877.11
411.59	1975.41
411.78	1930.94
411.98	1996.48
412.17	1949.67
412.36	2033.93
412.55	1984.77
412.74	2033.93
412.93	2101.80
413.12	2097.12
413.31	2146.27
413.50	2115.84
413.69	2207.13
413.88	2223.51
414.07	2157.97
414.26	2202.44
414.45	2256.28
414.64	2377.98
414.83	2214.15
415.02	2324.15
415.22	2340.54
415.41	2457.56
415.60	2504.37
415.79	2567.57
415.98	2366.28
416.17	2448.20
416.36	2532.46
416.55	2626.08
416.74	2572.25
416.93	2541.82
417.12	2637.78
417.31	2619.06
417.50	2621.40
417.69	2827.37
417.88	2689.28
418.07	2663.53
418.26	2647.15
418.45	2818.00
418.64	2747.79
418.83	2775.88
419.02	2813.32
419.21	2864.82
419.39	2899.92
419.58	2839.07
419.77	2846.09
419.96	2895.24
420.15	2991.20
420.34	2904.60
420.53	2935.03
420.72	3073.12
420.91	3162.06
421.10	3108.23
421.29	3091.85
421.48	3033.33
421.67	3110.57
421.86	3066.10
422.05	3213.56
422.24	3063.76
422.43	3021.63
422.61	3206.53
422.80	3229.94
422.99	3164.40
423.18	3119.93
423.37	3260.37
423.56	3260.37
423.75	3178.45
423.94	3232.28
424.13	2902.26
424.32	3068.44
424.50	3262.71
424.69	3342.28
424.88	3288.45
425.07	3190.15
425.26	3187.81
425.45	3157.38
425.64	3035.67
425.83	3283.77
426.01	3288.45
426.20	3339.94
426.39	3368.03
426.58	3300.16
426.77	3379.73
426.96	3290.79
427.15	3262.71
427.33	3225.26
427.52	3293.13
427.71	3421.86
427.90	3452.29
428.09	3377.39
428.28	3452.29
428.46	3428.88
428.65	3559.95
428.84	3562.30
429.03	3700.39
429.22	3684.00
429.40	3571.66
429.59	3803.37
429.78	3442.93
429.97	3545.91
430.16	3428.88
430.34	3627.83
430.53	3627.83
430.72	3723.79
430.91	3581.02
431.10	3634.85
431.28	3679.32
431.47	3709.75
431.66	3812.73
431.85	3721.45
432.03	3920.40
432.22	4060.83
432.41	3782.31
432.60	4007.00
432.79	3786.99
432.97	3899.33
433.16	4023.38
433.35	3957.85
433.54	3997.64
433.72	3978.91
433.91	3983.59
434.10	3948.48
434.28	3943.80
434.47	4154.45
434.66	3929.76
434.85	4081.89
435.03	4128.70
435.22	4329.99
435.41	4641.28
435.59	4578.09
435.78	4507.87
435.97	4383.82
436.16	4400.21
436.34	4231.69
436.53	4374.46
436.72	4397.87
436.90	4461.06
437.09	4407.23
437.28	4320.63
437.46	4507.87
437.65	4348.72
437.84	4461.06
438.02	4524.26
438.21	4454.04
438.40	4507.87
438.58	4648.30
438.77	4678.73
438.96	4454.04
439.14	4657.67
439.33	4723.20
439.52	4725.54
439.70	4753.63
439.89	4713.84
440.08	4690.43
440.26	4849.59
440.45	4894.06
440.63	4884.70
440.82	5046.20
441.01	5067.26
441.19	4919.81
441.38	5032.15
441.57	5132.79
441.75	5210.03
441.94	5282.59
442.12	5221.74
442.31	5322.38
442.50	5280.25
442.68	5296.63
442.87	5397.28
443.05	5291.95
443.24	5486.22
443.43	5406.64
443.61	5401.96
443.80	5582.18
443.98	5245.14
444.17	5284.93
444.35	5488.56
444.54	5439.40
444.73	5334.08
444.91	5504.94
445.10	5535.37
445.28	5308.34
445.47	5411.32
445.65	5481.53
445.84	5483.88
446.02	5455.79
446.21	5446.43
446.39	5458.13
446.58	5568.13
446.77	5514.30
446.95	5444.09
447.14	5764.74
447.32	5472.17
447.51	5659.42
447.69	5514.30
447.88	5664.10
448.06	5528.35
448.25	5722.61
448.43	5596.22
448.62	5605.58
448.80	5535.37
448.99	5689.84
449.17	5743.67
449.36	5715.59
449.54	5851.34
449.73	5973.05
449.91	5884.11
450.10	6125.18
450.28	6054.97
450.46	5870.06
450.65	5900.49
450.83	5818.57
451.02	5853.68
451.20	6005.81
451.39	6263.27
451.57	6038.58
451.76	5987.09
451.94	6078.37
452.13	6136.88
452.31	6260.93
452.49	6073.69
452.68	6279.66
452.86	6061.99
453.05	6263.27
453.23	6242.21
453.42	6403.71
453.60	6214.12
453.78	6026.88
453.97	6232.85
454.15	6267.95
454.34	6223.48
454.52	6511.37
454.70	6396.68
454.89	6485.62
455.07	6476.26
455.26	6504.35
455.44	6640.10
455.62	6509.03
455.81	6544.14
455.99	6497.33
456.17	6581.59
456.36	6602.65
456.54	6612.01
456.73	6614.35
456.91	6750.10
457.09	6780.53
457.28	7126.93
457.46	6850.75
457.64	7014.59
457.83	6834.36
458.01	6750.10
458.19	6881.18
458.38	6899.90
458.56	7061.40
458.74	7075.44
458.93	6871.81
459.11	7115.23
459.29	7068.42
459.48	7049.69
459.66	7180.76
459.84	7213.53
460.03	7339.92
460.21	7173.74
460.39	7211.19
460.57	7246.30
460.76	7115.23
460.94	7529.50
461.12	7372.69
461.31	7445.24
461.49	7250.98
461.67	7468.65
461.85	7470.99
462.04	7515.46
462.22	7939.10
462.40	7494.40
462.59	7487.37
462.77	7307.15
462.95	7571.63
463.13	7531.84
463.32	7648.87
463.50	7548.23
463.68	7606.74
463.86	7597.38
464.05	7716.75
464.23	7744.83
464.41	7857.18
464.59	7662.91
464.78	7847.82
464.96	7815.05
465.14	7707.38
465.32	7845.48
465.50	7950.80
465.69	7871.22
465.87	7875.90
466.05	7985.91
466.23	8074.85
466.41	8105.28
466.60	8191.88
466.78	7992.93
466.96	8135.70
467.14	8046.76
467.32	8262.09
467.51	8304.22
467.69	7964.84
467.87	8208.26
468.05	8126.34
468.23	8187.19
468.41	7964.84
468.60	8170.81
468.78	8393.16
468.96	8109.96
469.14	8348.69
469.32	8503.17
469.50	8346.35
469.69	8594.45
469.87	8496.14
470.05	8695.09
470.23	8479.76
470.41	8491.46
470.59	8711.47
470.77	8645.94
470.95	8681.05
471.14	8830.84
471.32	8557.00
471.50	9027.45
471.68	8851.91
471.86	8924.46
472.04	8856.59
472.22	9172.56
472.40	8947.87
472.58	9231.07
472.77	8987.66
472.95	9270.86
473.13	9383.21
473.31	9214.69
473.49	9165.54
473.67	9219.37
473.85	9528.32
474.03	9437.04
474.21	9270.86
474.39	9666.41
474.57	9699.18
474.75	9694.50
474.93	9804.50
475.12	9696.84
475.30	9734.29
475.48	9579.81
475.66	9790.46
475.84	9851.31
476.02	10108.77
476.20	10101.75
476.38	10129.84
476.56	10326.44
476.74	10118.14
476.92	10452.83
477.10	10328.78
477.28	10494.96
477.46	10644.76
477.64	10857.75
477.82	10913.92
478.00	10981.79
478.18	10930.30
478.36	11157.33
478.54	11234.57
478.72	11068.39
478.90	11206.48
479.08	11342.24
479.26	11529.48
479.44	11520.12
479.62	11590.33
479.80	11798.64
479.98	11866.52
480.16	12105.25
480.34	11983.54
480.52	12035.03
480.70	12280.79
480.88	12084.19
481.06	12255.04
481.24	12182.49
481.41	12458.67
481.59	12849.54
481.77	12596.76
481.95	12795.71
482.13	12732.51
482.31	12720.81
482.49	12926.78
482.67	13177.22
482.85	13036.78
483.03	13467.44
483.21	13420.63
483.39	13827.88
483.57	13549.36
483.74	13713.20
483.92	13743.63
484.10	13682.77
484.28	14146.20
484.46	14207.05
484.64	14724.31
484.82	14244.50
485.00	14745.38
485.18	14766.44
485.35	14848.36
485.53	14698.56
485.71	15267.31
485.89	15253.27
486.07	15279.02
486.25	15206.46
486.43	15374.98
486.61	15494.35
486.78	15651.16
486.96	15602.01
487.14	16025.65
487.32	16056.08
487.50	15906.28
487.68	16215.23
487.85	16589.72
488.03	16423.54
488.21	16662.27
488.39	16657.59
488.57	16865.90
488.75	17212.30
488.92	17254.43
489.10	17563.38
489.28	17298.90
489.46	17476.78
489.64	17387.84
489.81	17935.53
489.99	18293.63
490.17	17951.91
490.35	18331.08
490.53	18293.63
490.70	18548.75
490.88	18670.45
491.06	18633.00
491.24	18735.99
491.41	18663.43
491.59	18925.57
491.77	18934.93
491.95	19208.78
492.13	19414.74
492.30	19564.54
492.48	19332.82
492.66	19396.02
492.84	19564.54
493.01	19962.43
493.19	20259.68
493.37	20489.05
493.54	20678.63
493.72	20453.94
493.90	20215.21
494.08	20388.41
494.25	20922.05
494.43	20783.96
494.61	21020.35
494.79	21343.35
494.96	20886.94
495.14	21266.11
495.32	21708.47
495.49	21652.30
495.67	21385.47
495.85	22029.12
496.02	22113.38
496.20	21799.75
496.38	22139.13
496.55	22298.28
496.73	22742.99
496.91	22656.39
497.09	22864.69
497.26	22848.31
497.44	22759.37
497.62	23049.60
497.79	23082.36
497.97	22932.57
498.14	23452.17
498.32	23386.63
498.50	23360.89
498.67	23747.08
498.85	23833.68
499.03	23814.95
499.20	23667.50
499.38	23885.17
499.56	24229.23
499.73	24245.61
499.91	24343.91
500.08	24580.31
500.26	24079.43
500.44	24577.97
500.61	24524.13
500.79	24725.42
500.97	25039.05
501.14	24978.20
501.32	25378.43
501.49	25156.08
501.67	24999.26
501.84	25069.48
502.02	25511.84
502.20	25539.93
502.37	25741.21
502.55	25818.45
502.72	25708.44
502.90	25675.68
503.07	25628.87
503.25	26066.55
503.43	25968.24
503.60	26108.68
503.78	26171.87
503.95	26022.08
504.13	26314.64
504.30	26696.15
504.48	26129.74
504.65	26492.52
504.83	26995.74
505.01	26632.96
505.18	26794.45
505.36	27026.17
505.53	27126.81
505.71	27002.76
505.88	27255.54
506.06	27068.30
506.23	27566.83
506.41	27466.19
506.58	27711.94
506.76	27730.67
506.93	27501.29
507.11	27721.30
507.28	27730.67
507.46	27941.32
507.63	28273.67
507.81	28046.64
507.98	27831.31
508.16	27864.08
508.33	28194.09
508.50	28718.37
508.68	28268.99
508.85	28685.61
509.03	28769.86
509.20	28774.55
509.38	28837.74
509.55	29041.37
509.73	28919.66
509.90	29366.70
510.08	29347.98
510.25	29450.96
510.42	29537.56
510.60	29567.99
510.77	29631.18
510.95	29642.88
511.12	29212.23
511.30	29483.73
511.47	29661.61
511.64	29788.00
511.82	30316.96
511.99	30087.59
512.17	30295.89
512.34	30405.90
512.51	30609.53
512.69	30455.05
512.86	30604.84
513.04	30693.79
513.21	30995.71
513.38	30881.03
513.56	31058.91
513.73	30614.21
513.90	30794.43
514.08	30815.49
514.25	31061.25
514.43	31316.37
514.60	31386.58
514.77	31412.33
514.95	31417.01
515.12	31585.53
515.29	31426.37
515.47	31683.83
515.64	32048.96
515.81	32105.13
515.99	32002.14
516.16	31803.20
516.33	32449.19
516.51	32198.75
516.68	32219.81
516.85	32388.33
517.03	32126.19
517.20	32273.65
517.37	32566.21
517.54	32325.14
517.72	32685.58
517.89	32648.13
518.06	32280.67
518.24	32584.94
518.41	32797.93
518.58	32697.28
518.75	32573.24
518.93	33041.34
519.10	33347.95
519.27	33331.57
519.45	33223.90
519.62	33228.59
519.79	33656.90
519.96	33818.40
520.14	33399.44
520.31	33724.78
520.48	34073.52
520.65	33558.60
520.83	34185.86
521.00	34448.00
521.17	33860.53
521.34	33750.52
521.52	34366.09
521.69	34473.75
521.86	34602.48
522.03	34565.03
522.20	34359.06
522.38	34745.25
522.55	34300.55
522.72	34387.15
522.89	34663.33
523.07	34972.28
523.24	35042.50
523.41	34937.18
523.58	35138.46
523.75	35225.06
523.92	34808.45
524.10	35164.21
524.27	35412.31
524.44	35615.93
524.61	35688.49
524.78	35737.64
524.96	35620.61
525.13	36009.14
525.30	35899.14
525.47	35978.72
525.64	35798.49
525.81	36297.03
525.98	35828.92
526.16	35838.28
526.33	36205.75
526.50	36470.23
526.67	36531.08
526.84	35927.22
527.01	36285.33
527.18	36657.47
527.36	36151.91
527.53	36423.42
527.70	36816.63
527.87	36706.62
528.04	36526.40
528.21	36587.25
528.38	36811.95
528.55	37137.28
528.72	36903.23
528.89	36685.56
529.07	37301.12
529.24	37319.84
529.41	37046.00
529.58	37301.12
529.75	37003.87
529.92	37104.51
530.09	37490.70
530.26	37558.58
530.43	37703.69
530.60	37064.72
530.77	37291.76
530.94	37748.16
531.11	37586.66
531.28	37294.10
531.46	37607.73
531.63	37872.21
531.80	38005.62
531.97	38272.44
532.14	38066.47
532.31	37804.33
532.48	37813.70
532.65	38323.93
532.82	37944.76
532.99	37942.42
533.16	38195.20
533.33	38462.02
533.50	38850.55
533.67	38295.85
533.84	38405.85
534.01	38480.75
534.18	38492.45
534.35	38541.60
534.52	38691.40
534.69	39009.71
534.86	39339.72
535.03	39100.99
535.20	38965.24
535.37	39225.04
535.54	39227.38
535.71	38583.73
535.88	39005.03
536.05	39119.71
536.22	39339.72
536.38	39639.31
536.55	39393.56
536.72	39398.24
536.89	38960.56
537.06	39243.76
537.23	39611.23
537.40	39526.97
537.57	39627.61
537.74	40044.23
537.91	39906.13
538.08	40210.40
538.25	39896.77
538.42	39849.96
538.59	40219.77
538.75	39751.66
538.92	40013.80
539.09	40069.97
539.26	39936.56
539.43	40411.69
539.60	40339.13
539.77	40409.35
539.94	40500.63
540.11	40458.50
540.28	40507.65
540.44	40374.24
540.61	40282.96
540.78	40713.62
540.95	41104.49
541.12	40903.20
541.29	41160.66
541.46	40690.21
541.62	40769.79
541.79	41071.72
541.96	40666.81
542.13	41233.22
542.30	41233.22
542.47	41581.96
542.63	41584.30
542.80	41471.95
542.97	41682.60
543.14	41769.20
543.31	41832.39
543.48	41546.85
543.64	41979.85
543.81	42216.24
543.98	42263.05
544.15	42103.90
544.32	41947.08
544.48	42394.12
544.65	41691.96
544.82	42391.78
544.99	42033.68
545.16	42550.94
545.32	41825.37
545.49	42951.17
545.66	43964.62
545.83	43732.91
546.00	43702.48
546.16	43086.92
546.33	42040.70
546.50	41984.53
546.67	42459.66
546.83	42141.35
547.00	42429.23
547.17	42618.81
547.34	42302.84
547.50	43014.37
547.67	42726.48
547.84	42602.43
548.00	42782.65
548.17	42852.87
548.34	42536.90
548.51	42930.11
548.67	42508.81
548.84	43164.16
549.01	42637.54
549.18	42869.25
549.34	43215.65
549.51	42857.55
549.68	43026.07
549.84	42873.93
550.01	43040.11
550.18	42653.92
550.34	43044.79
550.51	43454.39
550.68	43494.18
550.84	43021.39
551.01	43161.82
551.18	42583.71
551.34	43014.37
551.51	43742.27
551.68	43501.20
551.84	43030.75
552.01	42946.49
552.18	43606.52
552.34	43154.80
552.51	43426.30
552.68	43220.33
552.84	43068.20
553.01	44203.36
553.18	43552.69
553.34	43562.05
553.51	43775.04
553.67	43812.49
553.84	43702.48
554.01	44095.69
554.17	44287.62
554.34	43711.84
554.51	43707.16
554.67	43868.66
554.84	43983.35
555.00	43753.97
555.17	43735.25
555.33	43985.69
555.50	44318.04
555.67	44217.40
555.83	43906.11
556.00	44151.87
556.16	44268.89
556.33	43758.66
556.50	44151.87
556.66	44739.34
556.83	43917.81
556.99	44570.82
557.16	44484.22
557.32	44559.12
557.49	44538.05
557.65	44018.46
557.82	44395.28
557.98	44306.34
558.15	44233.78
558.32	44811.90
558.48	44783.81
558.65	44727.64
558.81	44491.24
558.98	44732.32
559.14	44556.78
559.31	44821.26
559.47	44549.76
559.64	44903.18
559.80	44507.63
559.97	44673.81
560.13	44587.21
560.30	44622.31
560.46	44973.39
560.63	44861.05
560.79	44594.23
560.96	45038.93
561.12	44917.22
561.29	44989.78
561.45	44957.01
561.61	44954.67
561.78	45052.97
561.94	45081.06
562.11	44877.43
562.27	45003.82
562.44	45031.91
562.60	45263.62
562.77	44875.09
562.93	45008.50
563.10	45085.74
563.26	44949.99
563.42	45270.64
563.59	45249.58
563.75	45127.87
563.92	45074.04
564.08	45155.96
564.24	45385.33
564.41	44865.73
564.57	45022.54
564.74	44935.95
564.90	45345.54
565.07	45280.00
565.23	45340.86
565.39	45272.98
565.56	45797.26
565.72	45139.57
565.88	45132.55
566.05	45272.98
566.21	45127.87
566.38	45546.82
566.54	45572.57
566.70	45619.38
566.87	45645.13
567.03	45350.22
567.19	45811.31
567.36	45268.30
567.52	45478.95
567.68	45514.06
567.85	45303.41
568.01	45598.32
568.17	45392.35
568.34	46129.62
568.50	45324.47
568.66	45567.89
568.83	45825.35
568.99	45607.68
569.15	45425.12
569.32	45441.50
569.48	45212.13
569.64	45729.39
569.81	45579.59
569.97	45181.70
570.13	46270.05
570.30	45696.62
570.46	45724.71
570.62	45794.92
570.78	45944.72
570.95	45385.33
571.11	45940.04
571.27	45485.97
571.43	45408.73
571.60	46017.27
571.76	45490.65
571.92	45743.43
572.09	45823.01
572.25	45975.14
572.41	45965.78
572.57	45689.60
572.74	45991.53
572.90	45750.45
573.06	45272.98
573.22	45483.63
573.38	45799.60
573.55	45963.44
573.71	46909.02
573.87	46134.30
574.03	45989.19
574.20	46515.81
574.36	45471.93
574.52	45598.32
574.68	45841.73
574.84	45986.85
575.01	46134.30
575.17	46043.02
575.33	45773.86
575.49	45991.53
575.65	45698.96
575.82	46057.06
575.98	45626.40
576.14	46237.28
576.30	45947.06
576.46	45687.26
576.62	46211.54
576.79	46375.37
576.95	46043.02
577.11	46202.18
577.27	46188.13
577.43	46653.90
577.59	45874.50
577.75	46274.73
577.92	45689.60
578.08	45780.88
578.24	45572.57
578.40	46043.02
578.56	45806.62
578.72	46148.34
578.88	46576.66
579.04	46904.34
579.21	46246.65
579.37	46085.15
579.53	46527.51
579.69	45834.71
579.85	46075.79
580.01	46241.96
580.17	46021.95
580.33	45792.58
580.49	46382.40
580.65	46232.60
580.82	46415.16
580.98	46232.60
581.14	45998.55
581.30	46534.53
581.46	46314.52
581.62	46274.73
581.78	45944.72
581.94	46227.92
582.10	45918.97
582.26	46150.68
582.42	45965.78
582.58	46674.96
582.74	46232.60
582.90	46356.65
583.06	46213.88
583.22	46375.37
583.38	46293.46
583.54	46124.94
583.70	46337.93
583.86	46174.09
584.02	45942.38
584.18	46330.90
584.34	46300.48
584.50	46340.27
584.66	46307.50
584.82	45722.37
584.98	46483.04
585.14	46328.56
585.30	46120.26
585.46	46209.20
585.62	46082.81
585.78	46361.33
585.94	45806.62
586.10	46663.26
586.26	46300.48
586.42	46574.32
586.58	46370.69
586.74	45958.76
586.90	46176.43
587.06	46239.62
587.22	46344.95
587.38	46485.38
587.54	46855.18
587.70	46632.83
587.86	46136.64
588.02	46644.54
588.18	46574.32
588.34	46511.13
588.49	46590.70
588.65	45930.67
588.81	46024.29
588.97	46784.97
589.13	46302.82
589.29	46480.70
589.45	46330.90
589.61	46588.36
589.77	47030.72
589.93	47107.96
590.08	46866.89
590.24	46553.26
590.40	46700.71
590.56	47236.69
590.72	46782.63
