SpectraSuite Data File
++++++++++++++++++++++++++++++++++++
Date: Fri Oct 04 11:40:00 GMT-05:00 2013
User: price-jones
Dark Spectrum Present: No
Reference Spectrum Present: No
Number of Sampled Component Spectra: 1
Spectrometers: USB2+H05261
Integration Time (usec): 100000 (USB2+H05261)
Spectra Averaged: 1 (USB2+H05261)
Boxcar Smoothing: 0 (USB2+H05261)
Correct for Electrical Dark: No (USB2+H05261)
Strobe/Lamp Enabled: No (USB2+H05261)
Correct for Detector Non-linearity: No (USB2+H05261)
Correct for Stray Light: No (USB2+H05261)
Number of Pixels in Processed Spectrum: 2048
>>>>>Begin Processed Spectral Data<<<<<
365.73	56.17
365.92	56.17
366.12	56.17
366.32	0.00
366.52	0.00
366.72	46.81
366.91	35.11
367.11	37.45
367.31	0.00
367.51	7.02
367.70	0.00
367.90	0.00
368.10	0.00
368.30	0.00
368.49	0.00
368.69	0.00
368.89	0.00
369.09	0.00
369.28	0.00
369.48	0.00
369.68	30.43
369.87	7.02
370.07	77.24
370.27	16.38
370.47	212.99
370.66	596.84
370.86	681.10
371.06	613.22
371.25	713.86
371.45	685.78
371.65	676.41
371.84	739.61
372.04	760.67
372.24	777.06
372.44	760.67
372.63	755.99
372.83	898.77
373.03	758.33
373.22	786.42
373.42	819.19
373.62	816.85
373.81	936.21
374.01	901.11
374.21	821.53
374.40	938.55
374.60	854.30
374.79	964.30
374.99	908.13
375.19	968.98
375.38	912.81
375.58	1004.09
375.78	917.49
375.97	945.58
376.17	1036.86
376.37	990.05
376.56	943.24
376.76	968.98
376.95	1109.41
377.15	1027.50
377.35	1064.94
377.54	1116.44
377.74	1078.99
377.93	997.07
378.13	1114.10
378.33	1151.54
378.52	1093.03
378.72	1090.69
378.91	1137.50
379.11	1256.87
379.31	1100.05
379.50	1142.18
379.70	1158.57
379.89	1172.61
380.09	1093.03
380.28	1135.16
380.48	1181.97
380.68	1191.33
380.87	1186.65
381.07	1287.29
381.26	1327.08
381.46	1212.40
381.65	1296.66
381.85	1296.66
382.04	1284.95
382.24	1315.38
382.43	1249.85
382.63	1313.04
382.83	1320.06
383.02	1355.17
383.22	1404.32
383.41	1327.08
383.61	1362.19
383.80	1392.62
384.00	1427.73
384.19	1336.45
384.39	1427.73
384.58	1465.18
384.78	1448.79
384.97	1376.24
385.17	1448.79
385.36	1469.86
385.56	1474.54
385.75	1366.87
385.95	1537.73
386.14	1549.43
386.34	1432.41
386.53	1540.07
386.72	1523.69
386.92	1610.29
387.11	1619.65
387.31	1577.52
387.50	1572.84
387.70	1511.99
387.89	1591.56
388.09	1624.33
388.28	1617.31
388.48	1687.53
388.67	1727.32
388.86	1685.19
389.06	1750.72
389.25	1671.14
389.45	1746.04
389.64	1724.97
389.84	1769.44
390.03	1856.04
390.22	1856.04
390.42	1832.64
390.61	1781.15
390.81	1788.17
391.00	1858.39
391.19	1863.07
391.39	1900.52
391.58	1865.41
391.78	1907.54
391.97	1928.60
392.16	1949.67
392.36	1949.67
392.55	2010.52
392.75	2022.22
392.94	1919.24
393.13	2160.31
393.33	2045.63
393.52	2069.03
393.71	2160.31
393.91	2136.91
394.10	2090.10
394.29	2146.27
394.49	2083.08
394.68	2242.23
394.88	2300.75
395.07	2221.17
395.26	2160.31
395.46	2148.61
395.65	2211.81
395.84	2359.26
396.04	2347.56
396.23	2368.62
396.42	2246.91
396.62	2293.72
396.81	2317.13
397.00	2438.84
397.19	2338.20
397.39	2385.01
397.58	2394.37
397.77	2434.16
397.97	2588.63
398.16	2532.46
398.35	2394.37
398.55	2480.97
398.74	2647.15
398.93	2614.38
399.12	2621.40
399.32	2600.34
399.51	2541.82
399.70	2733.75
399.90	2565.23
400.09	2733.75
400.28	2759.49
400.47	2944.39
400.67	2733.75
400.86	2836.73
401.05	2813.32
401.24	2935.03
401.44	2848.43
401.63	2888.22
401.82	2979.50
402.01	2862.48
402.21	2935.03
402.40	3023.97
402.59	2944.39
402.78	3002.91
402.97	2998.23
403.17	3119.93
403.36	3211.22
403.55	3176.11
403.74	3295.47
403.93	3131.64
404.13	3323.56
404.32	3267.39
404.51	3260.37
404.70	3260.37
404.89	3314.20
405.09	3344.63
405.28	3258.03
405.47	3410.16
405.66	3241.64
405.85	3548.25
406.05	3403.14
406.24	3531.87
406.43	3571.66
406.62	3595.06
406.81	3747.20
407.00	3693.37
407.20	3440.59
407.39	3651.24
407.58	3686.34
407.77	3693.37
407.96	3662.94
408.15	3761.24
408.34	3770.60
408.54	3836.14
408.73	3864.22
408.92	3925.08
409.11	3859.54
409.30	3992.95
409.49	3934.44
409.68	4018.70
409.87	3889.97
410.07	3913.38
410.26	4159.13
410.45	4135.73
410.64	4180.20
410.83	4278.50
411.02	4252.75
411.21	4458.72
411.40	4360.42
411.59	4411.91
411.78	4425.95
411.98	4418.93
412.17	4671.71
412.36	4688.09
412.55	4568.73
412.74	4524.26
412.93	4587.45
413.12	4631.92
413.31	4849.59
413.50	4723.20
413.69	4833.21
413.88	4870.65
414.07	5001.72
414.26	5004.07
414.45	4873.00
414.64	5046.20
414.83	5195.99
415.02	5102.37
415.22	5217.05
415.41	5259.18
415.60	5357.49
415.79	5486.22
415.98	5446.43
416.17	5533.03
416.36	5500.26
416.55	5626.65
416.74	5610.26
416.93	5668.78
417.12	5776.44
417.31	5816.23
417.50	5788.14
417.69	5811.55
417.88	5813.89
418.07	5888.79
418.26	5907.51
418.45	5989.43
418.64	6186.04
418.83	6090.07
419.02	5951.98
419.21	6260.93
419.39	6324.13
419.58	6331.15
419.77	6094.76
419.96	6228.17
420.15	6579.25
420.34	6197.74
420.53	6523.07
420.72	6413.07
420.91	6445.84
421.10	6707.98
421.29	6679.89
421.48	6424.77
421.67	6808.62
421.86	6836.70
422.05	6590.95
422.24	6534.78
422.43	6679.89
422.61	6902.24
422.80	6707.98
422.99	6986.50
423.18	6862.45
423.37	6963.09
423.56	6937.35
423.75	6848.41
423.94	6682.23
424.13	6480.94
424.32	6551.16
424.50	6829.68
424.69	7117.57
424.88	6993.52
425.07	6906.92
425.26	6771.17
425.45	6960.75
425.64	6843.73
425.83	7028.63
426.01	7061.40
426.20	6942.03
426.39	7061.40
426.58	7105.87
426.77	6937.35
426.96	7194.81
427.15	7164.38
427.33	7269.70
427.52	7269.70
427.71	7372.69
427.90	7379.71
428.09	7552.91
428.28	7543.55
428.46	7555.25
428.65	7658.23
428.84	7805.69
429.03	7644.19
429.22	7557.59
429.40	7740.15
429.59	7627.81
429.78	7372.69
429.97	7276.73
430.16	7606.74
430.34	7880.58
430.53	7896.97
430.72	7946.12
430.91	7911.01
431.10	7955.48
431.28	7901.65
431.47	8070.17
431.66	8280.82
431.85	8079.53
432.03	8280.82
432.22	8397.84
432.41	8339.33
432.60	8306.56
432.79	8397.84
432.97	8423.59
433.16	8498.49
433.35	8423.59
433.54	8617.85
433.72	8451.67
433.91	8505.51
434.10	8695.09
434.28	8622.53
434.47	8828.50
434.66	8870.63
434.85	8926.80
435.03	8816.80
435.22	9177.24
435.41	9312.99
435.59	9359.80
435.78	9287.25
435.97	9057.87
436.16	9020.42
436.34	9277.88
436.53	9224.05
436.72	9448.74
436.90	9191.28
437.09	9301.29
437.28	9121.07
437.46	9322.35
437.65	9324.69
437.84	9486.19
438.02	9591.52
438.21	9437.04
438.40	9514.28
438.58	9928.55
438.77	9853.66
438.96	10040.90
439.14	10001.11
439.33	10178.99
439.52	10265.59
439.70	10157.92
439.89	10391.98
440.08	10497.30
440.26	10377.94
440.45	10436.45
440.63	10628.37
440.82	10876.47
441.01	10892.85
441.19	10944.34
441.38	11082.44
441.57	11049.67
441.75	11105.84
441.94	11255.64
442.12	11260.32
442.31	11538.84
442.50	11438.20
442.68	11461.60
442.87	11531.82
443.05	11639.48
443.24	12025.67
443.43	11751.83
443.61	11698.00
443.80	12138.02
443.98	11480.33
444.17	11218.19
444.35	11723.74
444.54	11990.56
444.73	11857.15
444.91	11964.82
445.10	11847.79
445.28	12016.31
445.47	11655.87
445.65	11866.52
445.84	12201.21
446.02	12166.10
446.21	11969.50
446.39	11868.86
446.58	12194.19
446.77	12343.99
446.95	11861.84
447.14	11983.54
447.32	12112.27
447.51	12077.16
447.69	12152.06
447.88	12393.14
448.06	12140.36
448.25	12037.38
448.43	12388.46
448.62	12187.17
448.80	12329.94
448.99	12650.60
449.17	12629.53
449.36	12608.47
449.54	12919.76
449.73	12769.96
449.91	12500.80
450.10	12943.16
450.28	13275.52
450.46	13015.72
450.65	13217.01
450.83	13050.83
451.02	12954.87
451.20	13060.19
451.39	13078.91
451.57	12992.31
451.76	12926.78
451.94	13369.14
452.13	13359.78
452.31	13277.86
452.49	13165.51
452.68	13404.25
452.86	13479.15
453.05	13600.85
453.23	13846.61
453.42	13465.10
453.60	13376.16
453.78	13867.67
453.97	13422.97
454.15	13762.35
454.34	13909.80
454.52	13886.40
454.70	13881.72
454.89	14029.17
455.07	13884.06
455.26	14218.75
455.44	14441.11
455.62	14417.70
455.81	14225.78
455.99	14602.60
456.17	14693.88
456.36	14476.21
456.54	14525.36
456.73	14785.16
456.91	15456.90
457.09	15056.67
457.28	15290.72
457.46	14820.27
457.64	15021.56
457.83	15166.67
458.01	15108.16
458.19	15482.64
458.38	15302.42
458.56	15625.42
458.74	15358.60
458.93	15566.90
459.11	15613.71
459.29	15583.29
459.48	15536.48
459.66	15646.48
459.84	15632.44
460.03	16009.26
460.21	15889.90
460.39	15892.24
460.57	15843.09
460.76	16161.40
460.94	16152.04
461.12	16081.82
461.31	16248.00
461.49	16058.42
461.67	16451.63
461.85	16678.66
462.04	16252.68
462.22	16964.20
462.40	16912.71
462.59	16734.83
462.77	16814.41
462.95	17046.12
463.13	16809.73
463.32	16975.91
463.50	16903.35
463.68	17142.08
463.86	17191.23
464.05	16830.79
464.23	16908.03
464.41	17589.13
464.59	16950.16
464.78	17748.28
464.96	17317.62
465.14	17352.73
465.32	17451.03
465.50	17944.89
465.69	17774.03
465.87	17502.53
466.05	17429.97
466.23	17586.79
466.41	17792.75
466.60	18068.94
466.78	17759.98
466.96	17827.86
467.14	17687.43
467.32	18038.51
467.51	18363.84
467.69	18204.69
467.87	18085.32
468.05	18340.44
468.23	18064.25
468.41	18104.04
468.60	18178.94
468.78	18462.15
468.96	18405.97
469.14	18427.04
469.32	18918.55
469.50	18267.88
469.69	18719.60
469.87	19075.37
470.05	19061.32
470.23	19248.57
470.41	19112.81
470.59	19456.87
470.77	19140.90
470.95	19419.42
471.14	19604.33
471.32	19400.70
471.50	19789.23
471.68	19817.32
471.86	19929.66
472.04	20294.79
472.22	20297.13
472.40	20042.01
472.58	20386.07
472.77	20414.15
472.95	20638.84
473.13	21275.47
473.31	20538.20
473.49	20910.35
473.67	20748.85
473.85	20854.17
474.03	21383.13
474.21	21111.63
474.39	21579.74
474.57	21678.04
474.75	21951.88
474.93	22040.82
475.12	22160.19
475.30	22398.93
475.48	22216.36
475.66	22302.96
475.84	22324.03
476.02	22787.46
476.20	22747.67
476.38	23222.80
476.56	23473.23
476.74	23288.33
476.92	23126.83
477.10	23309.40
477.28	23777.50
477.46	23674.52
477.64	23885.17
477.82	24135.60
478.00	24945.43
478.18	24758.19
478.36	25230.98
478.54	25048.41
478.72	25289.49
478.90	25603.12
479.08	25486.09
479.26	26068.89
479.44	26206.98
479.62	26331.03
479.80	26333.37
479.98	26356.77
480.16	26876.37
480.34	26616.57
480.52	27473.21
480.70	27594.92
480.88	27421.72
481.06	27690.88
481.24	27782.16
481.41	27889.82
481.59	28496.02
481.77	28896.25
481.95	28744.12
482.13	29074.13
482.31	28844.76
482.49	29649.91
482.67	29841.83
482.85	30209.29
483.03	30518.25
483.21	30670.38
483.39	31281.26
483.57	30820.17
483.74	31072.95
483.92	31496.59
484.10	31512.97
484.28	32030.23
484.46	32601.32
484.64	33249.65
484.82	32835.38
485.00	32830.69
485.18	33441.57
485.35	33921.38
485.53	33832.44
485.71	34068.84
485.89	34614.18
486.07	34745.25
486.25	34080.54
486.43	35012.07
486.61	35159.53
486.78	35590.19
486.96	35421.67
487.14	36084.04
487.32	36376.61
487.50	36814.29
487.68	37041.32
487.85	37759.86
488.03	37858.17
488.21	37841.78
488.39	38543.94
488.57	38150.73
488.75	38731.18
488.92	39316.32
489.10	39306.96
489.28	39239.08
489.46	39531.65
489.64	39943.58
489.81	40652.76
489.99	40631.70
490.17	40964.06
490.35	41511.74
490.53	41879.21
490.70	41886.23
490.88	41888.57
491.06	42784.99
491.24	42256.03
491.41	42508.81
491.59	43517.58
491.77	43299.91
491.95	43498.86
492.13	43866.32
492.30	44212.72
492.48	44498.26
492.66	44285.28
492.84	44130.80
493.01	44589.55
493.19	45272.98
493.37	45439.16
493.54	45600.66
493.72	46291.12
493.90	46314.52
494.08	46490.06
494.25	46813.05
494.43	46988.60
494.61	47253.08
494.79	47302.23
494.96	47412.23
495.14	47510.53
495.32	48203.33
495.49	48285.25
495.67	48170.57
495.85	48535.69
496.02	49066.99
496.20	48966.35
496.38	49186.36
496.55	48942.94
496.73	49724.68
496.91	49799.58
497.09	49916.61
497.26	50478.33
497.44	50330.88
497.62	50541.53
497.79	50759.20
497.97	50773.24
498.14	51292.84
498.32	51480.08
498.50	51229.65
498.67	51915.42
498.85	51702.43
499.03	52147.14
499.20	51971.60
499.38	51704.77
499.56	52301.61
499.73	52516.94
499.91	52657.37
500.08	52861.00
500.26	52601.20
500.44	53024.84
500.61	52891.43
500.79	53024.84
500.97	53345.49
501.14	53294.00
501.32	53553.80
501.49	53635.72
501.67	53481.24
501.84	53748.06
502.02	53968.07
502.20	53965.73
502.37	54295.75
502.55	54279.36
502.72	54314.47
502.90	54532.14
503.07	54272.34
503.25	54588.31
503.43	54705.34
503.60	55075.15
503.78	55100.89
503.95	55196.85
504.13	55290.48
504.30	55182.81
504.48	55222.60
504.65	55327.92
504.83	55686.03
505.01	55664.96
505.18	55690.71
505.36	56229.03
505.53	55760.92
505.71	55896.67
505.88	55791.35
506.06	55927.10
506.23	56402.23
506.41	56322.65
506.58	56559.05
506.76	56388.19
506.93	56708.84
507.11	56610.54
507.28	56580.11
507.46	56706.50
507.63	56896.08
507.81	57233.12
507.98	56921.83
508.16	57167.58
508.33	57038.86
508.50	57066.94
508.68	57277.59
508.85	57703.57
509.03	57546.75
509.20	57757.40
509.38	57925.92
509.55	57939.96
509.73	57752.72
509.90	57968.05
510.08	57881.45
510.25	58026.56
510.42	58188.06
510.60	58468.92
510.77	58560.20
510.95	58740.42
511.12	58269.98
511.30	58733.40
511.47	58639.78
511.64	58628.08
511.82	58983.84
511.99	58773.19
512.17	58930.01
512.34	58822.34
512.51	59201.51
512.69	59011.93
512.86	59079.80
513.04	59458.97
513.21	59451.95
513.38	59643.87
513.56	59547.91
513.73	59372.37
513.90	59505.78
514.08	59451.95
514.25	59744.51
514.43	60018.36
514.60	59824.09
514.77	59856.86
514.95	60170.49
515.12	59894.31
515.29	59945.80
515.47	60133.04
515.64	60315.61
515.81	60261.77
515.99	60481.78
516.16	60594.13
516.33	60404.55
516.51	60591.79
516.68	60453.70
516.85	60678.39
517.03	60640.94
517.20	60664.35
517.37	60779.03
517.54	60870.31
517.72	60910.10
517.89	60963.93
518.06	61181.60
518.24	60935.85
518.41	60973.30
518.58	61146.50
518.75	61059.90
518.93	61399.27
519.10	61326.72
519.27	61427.36
519.45	61338.42
519.62	61563.11
519.79	61640.35
519.96	61675.46
520.14	61743.33
520.31	61619.28
520.48	61888.45
520.65	61946.96
520.83	61939.94
521.00	61909.51
521.17	61914.19
521.34	62120.16
521.52	62178.67
521.69	62319.10
521.86	62288.68
522.03	62342.51
522.20	62389.32
522.38	62321.44
522.55	62358.89
522.72	62365.91
522.89	62326.13
523.07	62719.34
523.24	62693.59
523.41	62869.13
523.58	62595.29
523.75	62733.38
523.92	62726.36
524.10	63051.69
524.27	63093.82
524.44	62913.60
524.61	63126.59
524.78	63210.85
524.96	63089.14
525.13	63142.97
525.30	63114.89
525.47	63407.45
525.64	63388.73
525.81	63550.23
525.98	63700.02
526.16	63428.52
526.33	63309.15
526.50	63770.24
526.67	63526.82
526.84	63365.32
527.01	63400.43
527.18	63777.26
527.36	63908.33
527.53	63875.56
527.70	64252.39
527.87	64015.99
528.04	63999.61
528.21	64027.70
528.38	64144.72
528.55	64156.42
528.72	63901.31
528.89	64399.84
529.07	64161.11
529.24	64126.00
529.41	64259.41
529.58	64287.49
529.75	64243.02
529.92	64409.20
530.09	64507.50
530.26	64425.59
530.43	64535.59
530.60	64268.77
530.77	64472.40
530.94	64617.51
531.11	64610.49
531.28	64526.23
531.46	64757.94
531.63	64743.90
531.80	64776.67
531.97	64912.42
532.14	65038.81
532.31	64910.08
532.48	64907.74
532.65	65123.07
532.82	64821.14
532.99	65090.30
533.16	64898.37
533.33	65179.24
533.50	65279.88
533.67	65167.54
533.84	65221.37
534.01	65167.54
534.18	65214.35
534.35	65378.18
534.52	65382.87
534.69	65420.31
534.86	65535.00
535.03	65483.51
535.20	65446.06
535.37	65535.00
535.54	65535.00
535.71	65535.00
535.88	65535.00
536.05	65535.00
536.22	65535.00
536.38	65535.00
536.55	65535.00
536.72	65535.00
536.89	65535.00
537.06	65535.00
537.23	65535.00
537.40	65535.00
537.57	65535.00
537.74	65535.00
537.91	65535.00
538.08	65535.00
538.25	65535.00
538.42	65535.00
538.59	65535.00
538.75	65535.00
538.92	65535.00
539.09	65535.00
539.26	65535.00
539.43	65535.00
539.60	65535.00
539.77	65535.00
539.94	65535.00
540.11	65535.00
540.28	65535.00
540.44	65535.00
540.61	65535.00
540.78	65535.00
540.95	65535.00
541.12	65535.00
541.29	65535.00
541.46	65535.00
541.62	65535.00
541.79	65535.00
541.96	65535.00
542.13	65535.00
542.30	65535.00
542.47	65535.00
542.63	65535.00
542.80	65535.00
542.97	65535.00
543.14	65535.00
543.31	65535.00
543.48	65535.00
543.64	65535.00
543.81	65535.00
543.98	65535.00
544.15	65535.00
544.32	65535.00
544.48	65535.00
544.65	65535.00
544.82	65535.00
544.99	65535.00
545.16	65535.00
545.32	65535.00
545.49	65535.00
545.66	65535.00
545.83	65535.00
546.00	65535.00
546.16	65535.00
546.33	65535.00
546.50	65535.00
546.67	65535.00
546.83	65535.00
547.00	65535.00
547.17	65535.00
547.34	65535.00
547.50	65535.00
547.67	65535.00
547.84	65535.00
548.00	65535.00
548.17	65535.00
548.34	65535.00
548.51	65535.00
548.67	65535.00
548.84	65535.00
549.01	65535.00
549.18	65535.00
549.34	65535.00
549.51	65535.00
549.68	65535.00
549.84	65535.00
550.01	65535.00
550.18	65535.00
550.34	65535.00
550.51	65535.00
550.68	65535.00
550.84	65535.00
551.01	65535.00
551.18	65535.00
551.34	65535.00
551.51	65535.00
551.68	65535.00
551.84	65535.00
552.01	65535.00
552.18	65535.00
552.34	65535.00
552.51	65535.00
552.68	65535.00
552.84	65535.00
553.01	65535.00
553.18	65535.00
553.34	65535.00
553.51	65535.00
553.67	65535.00
553.84	65535.00
554.01	65535.00
554.17	65535.00
554.34	65535.00
554.51	65535.00
554.67	65535.00
554.84	65535.00
555.00	65535.00
555.17	65535.00
555.33	65535.00
555.50	65535.00
555.67	65535.00
555.83	65535.00
556.00	65535.00
556.16	65535.00
556.33	65535.00
556.50	65535.00
556.66	65535.00
556.83	65535.00
556.99	65535.00
557.16	65535.00
557.32	65535.00
557.49	65535.00
557.65	65535.00
557.82	65535.00
557.98	65535.00
558.15	65535.00
558.32	65535.00
558.48	65535.00
558.65	65535.00
558.81	65535.00
558.98	65535.00
559.14	65535.00
559.31	65535.00
559.47	65535.00
559.64	65535.00
559.80	65535.00
559.97	65535.00
560.13	65535.00
560.30	65535.00
560.46	65535.00
560.63	65535.00
560.79	65535.00
560.96	65535.00
561.12	65535.00
561.29	65535.00
561.45	65535.00
561.61	65535.00
561.78	65535.00
561.94	65535.00
562.11	65535.00
562.27	65535.00
562.44	65535.00
562.60	65535.00
562.77	65535.00
562.93	65535.00
563.10	65535.00
563.26	65535.00
563.42	65535.00
563.59	65535.00
563.75	65535.00
563.92	65535.00
564.08	65535.00
564.24	65535.00
564.41	65535.00
564.57	65535.00
564.74	65535.00
564.90	65535.00
565.07	65535.00
565.23	65535.00
565.39	65535.00
565.56	65535.00
565.72	65535.00
565.88	65535.00
566.05	65535.00
566.21	65535.00
566.38	65535.00
566.54	65535.00
566.70	65535.00
566.87	65535.00
567.03	65535.00
567.19	65535.00
567.36	65535.00
567.52	65535.00
567.68	65535.00
567.85	65535.00
568.01	65535.00
568.17	65535.00
568.34	65535.00
568.50	65535.00
568.66	65535.00
568.83	65535.00
568.99	65535.00
569.15	65535.00
569.32	65535.00
569.48	65535.00
569.64	65535.00
569.81	65535.00
569.97	65535.00
570.13	65535.00
570.30	65535.00
570.46	65535.00
570.62	65535.00
570.78	65535.00
570.95	65535.00
571.11	65535.00
571.27	65535.00
571.43	65535.00
571.60	65535.00
571.76	65535.00
571.92	65535.00
572.09	65535.00
572.25	65535.00
572.41	65535.00
572.57	65535.00
572.74	65535.00
572.90	65535.00
573.06	65535.00
573.22	65535.00
573.38	65535.00
573.55	65535.00
573.71	65535.00
573.87	65535.00
574.03	65535.00
574.20	65535.00
574.36	65535.00
574.52	65535.00
574.68	65535.00
574.84	65535.00
575.01	65535.00
575.17	65535.00
575.33	65535.00
575.49	65535.00
575.65	65535.00
575.82	65535.00
575.98	65535.00
576.14	65535.00
576.30	65535.00
576.46	65535.00
576.62	65535.00
576.79	65535.00
576.95	65535.00
577.11	65535.00
577.27	65535.00
577.43	65535.00
577.59	65535.00
577.75	65535.00
577.92	65535.00
578.08	65535.00
578.24	65535.00
578.40	65535.00
578.56	65535.00
578.72	65535.00
578.88	65535.00
579.04	65535.00
579.21	65535.00
579.37	65535.00
579.53	65535.00
579.69	65535.00
579.85	65535.00
580.01	65535.00
580.17	65535.00
580.33	65535.00
580.49	65535.00
580.65	65535.00
580.82	65535.00
580.98	65535.00
581.14	65535.00
581.30	65535.00
581.46	65535.00
581.62	65535.00
581.78	65535.00
581.94	65535.00
582.10	65535.00
582.26	65535.00
582.42	65535.00
582.58	65535.00
582.74	65535.00
582.90	65535.00
583.06	65535.00
583.22	65535.00
583.38	65535.00
583.54	65535.00
583.70	65535.00
583.86	65535.00
584.02	65535.00
584.18	65535.00
584.34	65535.00
584.50	65535.00
584.66	65535.00
584.82	65535.00
584.98	65535.00
585.14	65535.00
585.30	65535.00
585.46	65535.00
585.62	65535.00
585.78	65535.00
585.94	65535.00
586.10	65535.00
586.26	65535.00
586.42	65535.00
586.58	65535.00
586.74	65535.00
586.90	65535.00
587.06	65535.00
587.22	65535.00
587.38	65535.00
587.54	65535.00
587.70	65535.00
