SpectraSuite Data File
++++++++++++++++++++++++++++++++++++
Date: Fri Oct 04 11:39:32 GMT-05:00 2013
User: price-jones
Dark Spectrum Present: No
Reference Spectrum Present: No
Number of Sampled Component Spectra: 1
Spectrometers: USB2+H05261
Integration Time (usec): 100000 (USB2+H05261)
Spectra Averaged: 1 (USB2+H05261)
Boxcar Smoothing: 0 (USB2+H05261)
Correct for Electrical Dark: No (USB2+H05261)
Strobe/Lamp Enabled: No (USB2+H05261)
Correct for Detector Non-linearity: No (USB2+H05261)
Correct for Stray Light: No (USB2+H05261)
Number of Pixels in Processed Spectrum: 2048
>>>>>Begin Processed Spectral Data<<<<<
365.73	21.06
365.92	21.06
366.12	21.06
366.32	0.00
366.52	0.00
366.72	0.00
366.91	0.00
367.11	0.00
367.31	0.00
367.51	0.00
367.70	0.00
367.90	0.00
368.10	0.00
368.30	0.00
368.49	0.00
368.69	0.00
368.89	0.00
369.09	0.00
369.28	0.00
369.48	0.00
369.68	0.00
369.87	0.00
370.07	0.00
370.27	0.00
370.47	93.62
370.66	201.29
370.86	163.84
371.06	229.37
371.25	234.05
371.45	180.22
371.65	142.77
371.84	182.56
372.04	140.43
372.24	208.31
372.44	278.52
372.63	259.80
372.83	259.80
373.03	149.79
373.22	337.04
373.42	273.84
373.62	243.42
373.81	229.37
374.01	276.18
374.21	306.61
374.40	259.80
374.60	283.20
374.79	294.91
374.99	294.91
375.19	344.06
375.38	358.10
375.58	271.50
375.78	322.99
375.97	334.70
376.17	358.10
376.37	290.23
376.56	266.82
376.76	257.46
376.95	259.80
377.15	332.36
377.35	341.72
377.54	297.25
377.74	283.20
377.93	259.80
378.13	285.55
378.33	224.69
378.52	292.57
378.72	271.50
378.91	266.82
379.11	320.65
379.31	294.91
379.50	308.95
379.70	304.27
379.89	320.65
380.09	262.14
380.28	273.84
380.48	278.52
380.68	212.99
380.87	287.89
381.07	266.82
381.26	278.52
381.46	301.93
381.65	341.72
381.85	308.95
382.04	290.23
382.24	318.31
382.43	379.17
382.63	313.63
382.83	358.10
383.02	285.55
383.22	374.49
383.41	393.21
383.61	365.12
383.80	376.83
384.00	348.74
384.19	248.10
384.39	374.49
384.58	301.93
384.78	365.12
384.97	301.93
385.17	379.17
385.36	358.10
385.56	351.08
385.75	355.76
385.95	351.08
386.14	372.15
386.34	353.42
386.53	315.97
386.72	397.89
386.92	414.27
387.11	290.23
387.31	374.49
387.50	360.44
387.70	348.74
387.89	386.19
388.09	313.63
388.28	409.59
388.48	376.83
388.67	416.62
388.86	330.02
389.06	397.89
389.25	369.80
389.45	447.04
389.64	369.80
389.84	425.98
390.03	491.51
390.22	404.91
390.42	435.34
390.61	435.34
390.81	365.12
391.00	425.98
391.19	404.91
391.39	440.02
391.58	458.74
391.78	444.70
391.97	442.36
392.16	447.04
392.36	512.58
392.55	486.83
392.75	512.58
392.94	456.40
393.13	458.74
393.33	393.21
393.52	486.83
393.71	524.28
393.91	489.17
394.10	601.52
394.29	482.15
394.49	582.79
394.68	540.66
394.88	531.30
395.07	493.85
395.26	559.39
395.46	543.00
395.65	578.11
395.84	603.86
396.04	575.77
396.23	578.11
396.42	578.11
396.62	578.11
396.81	634.29
397.00	638.97
397.19	662.37
397.39	610.88
397.58	648.33
397.77	638.97
397.97	643.65
398.16	613.22
398.35	643.65
398.55	641.31
398.74	713.86
398.93	683.44
399.12	669.39
399.32	587.47
399.51	695.14
399.70	711.52
399.90	674.07
400.09	671.73
400.28	702.16
400.47	655.35
400.67	791.10
400.86	711.52
401.05	737.27
401.24	748.97
401.44	779.40
401.63	814.51
401.82	819.19
402.01	690.46
402.21	774.72
402.40	840.25
402.59	798.12
402.78	840.25
402.97	819.19
403.17	779.40
403.36	828.55
403.55	835.57
403.74	880.04
403.93	952.60
404.13	987.71
404.32	1039.20
404.51	936.21
404.70	1041.54
404.89	978.34
405.09	1025.15
405.28	1020.47
405.47	1018.13
405.66	1029.84
405.85	1076.65
406.05	1001.75
406.24	1060.26
406.43	1203.04
406.62	1233.46
406.81	1179.63
407.00	1100.05
407.20	1167.93
407.39	1179.63
407.58	1231.12
407.77	1174.95
407.96	1219.42
408.15	1231.12
408.34	1181.97
408.54	1210.06
408.73	1294.32
408.92	1231.12
409.11	1331.76
409.30	1275.59
409.49	1266.23
409.68	1401.98
409.87	1362.19
410.07	1348.15
410.26	1378.58
410.45	1345.81
410.64	1504.96
410.83	1479.22
411.02	1453.47
411.21	1465.18
411.40	1490.92
411.59	1547.09
411.78	1535.39
411.98	1565.82
412.17	1596.25
412.36	1610.29
412.55	1640.72
412.74	1722.63
412.93	1717.95
413.12	1816.26
413.31	1811.57
413.50	1762.42
413.69	1760.08
413.88	1893.49
414.07	1713.27
414.26	1764.76
414.45	1966.05
414.64	1935.62
414.83	1902.86
415.02	1905.20
415.22	1977.75
415.41	2054.99
415.60	2052.65
415.79	2031.58
415.98	2038.61
416.17	2062.01
416.36	2078.40
416.55	2073.71
416.74	2204.78
416.93	2155.63
417.12	2193.08
417.31	2223.51
417.50	2286.70
417.69	2361.60
417.88	2188.40
418.07	2312.45
418.26	2267.98
418.45	2335.85
418.64	2429.48
418.83	2455.22
419.02	2347.56
419.21	2551.18
419.39	2495.01
419.58	2459.90
419.77	2506.71
419.96	2469.27
420.15	2502.03
420.34	2448.20
420.53	2588.63
420.72	2649.49
420.91	2509.05
421.10	2651.83
421.29	2663.53
421.48	2581.61
421.67	2722.04
421.86	2754.81
422.05	2682.25
422.24	2722.04
422.43	2612.04
422.61	2658.85
422.80	2766.51
422.99	2764.17
423.18	2775.88
423.37	2799.28
423.56	2712.68
423.75	2794.60
423.94	2672.89
424.13	2544.16
424.32	2656.51
424.50	2785.24
424.69	2839.07
424.88	2832.05
425.07	2846.09
425.26	2850.77
425.45	2815.66
425.64	2864.82
425.83	2733.75
426.01	2944.39
426.20	2935.03
426.39	2846.09
426.58	2740.77
426.77	2794.60
426.96	2920.99
427.15	2902.26
427.33	2932.69
427.52	2963.12
427.71	2902.26
427.90	2848.43
428.09	3056.74
428.28	3148.02
428.46	3007.59
428.65	2981.84
428.84	3105.89
429.03	3159.72
429.22	2937.37
429.40	3131.64
429.59	3077.80
429.78	3023.97
429.97	3049.72
430.16	2998.23
430.34	3178.45
430.53	3222.92
430.72	3234.62
430.91	3136.32
431.10	3239.30
431.28	3141.00
431.47	3335.26
431.66	3300.16
431.85	3251.00
432.03	3452.29
432.22	3440.59
432.41	3363.35
432.60	3475.70
432.79	3400.80
432.97	3389.10
433.16	3442.93
433.35	3419.52
433.54	3468.67
433.72	3454.63
433.91	3403.14
434.10	3471.01
434.28	3499.10
434.47	3585.70
434.66	3562.30
434.85	3658.26
435.03	3763.58
435.22	3946.14
435.41	3960.19
435.59	4056.15
435.78	3896.99
435.97	3789.33
436.16	3754.22
436.34	3630.17
436.53	3824.44
436.72	3838.48
436.90	3740.18
437.09	3857.20
437.28	3749.54
437.46	3815.07
437.65	3754.22
437.84	3868.91
438.02	3920.40
438.21	4021.04
438.40	3880.61
438.58	4032.74
438.77	3941.46
438.96	3997.64
439.14	4030.40
439.33	4243.39
439.52	4238.71
439.70	4121.68
439.89	4208.28
440.08	4161.47
440.26	4208.28
440.45	4217.65
440.63	4215.30
440.82	4477.44
441.01	4355.74
441.19	4418.93
441.38	4493.83
441.57	4402.55
441.75	4493.83
441.94	4622.56
442.12	4465.74
442.31	4564.04
442.50	4608.51
442.68	4622.56
442.87	4709.16
443.05	4585.11
443.24	4835.55
443.43	4615.54
443.61	4699.80
443.80	4856.61
443.98	4697.46
444.17	4554.68
444.35	4667.03
444.54	4711.50
444.73	4835.55
444.91	4798.10
445.10	4636.60
445.28	4685.75
445.47	4748.95
445.65	4709.16
445.84	4727.88
446.02	4762.99
446.21	4875.34
446.39	4919.81
446.58	4945.55
446.77	4833.21
446.95	4887.04
447.14	4945.55
447.32	4968.96
447.51	4847.25
447.69	4798.10
447.88	4826.18
448.06	5039.17
448.25	4887.04
448.43	4990.02
448.62	5013.43
448.80	5011.09
448.99	4915.12
449.17	4919.81
449.36	5036.83
449.54	5195.99
449.73	5212.37
449.91	5263.86
450.10	5135.14
450.28	5275.57
450.46	5364.51
450.65	5275.57
450.83	5214.71
451.02	5277.91
451.20	5252.16
451.39	5263.86
451.57	5135.14
451.76	5165.56
451.94	5296.63
452.13	5369.19
452.31	5329.40
452.49	5219.39
452.68	5579.84
452.86	5336.42
453.05	5467.49
453.23	5242.80
453.42	5467.49
453.60	5336.42
453.78	5467.49
453.97	5518.98
454.15	5420.68
454.34	5458.13
454.52	5659.42
454.70	5558.77
454.89	5701.54
455.07	5453.45
455.26	5778.78
455.44	5610.26
455.62	5614.95
455.81	5614.95
455.99	5760.06
456.17	5750.70
456.36	5909.85
456.54	5933.26
456.73	5984.75
456.91	5968.37
457.09	5991.77
457.28	5973.05
457.46	5820.91
457.64	6193.06
457.83	5951.98
458.01	6085.39
458.19	6066.67
458.38	5806.87
458.56	6031.56
458.74	6157.95
458.93	6022.20
459.11	5937.94
459.29	5970.71
459.48	6047.94
459.66	5860.70
459.84	6284.34
460.03	6258.59
460.21	6202.42
460.39	6420.09
460.57	6195.40
460.76	6497.33
460.94	6537.12
461.12	6335.83
461.31	6384.98
461.49	6312.42
461.67	6349.87
461.85	6485.62
462.04	6303.06
462.22	6567.54
462.40	6628.40
462.59	6499.67
462.77	6586.27
462.95	6527.75
463.13	6464.56
463.32	6576.91
463.50	6663.51
463.68	6707.98
463.86	6700.95
464.05	6612.01
464.23	6642.44
464.41	6750.10
464.59	6588.61
464.78	6986.50
464.96	6782.87
465.14	6665.85
465.32	6792.23
465.50	7021.61
465.69	7023.95
465.87	7007.56
466.05	6717.34
466.23	6848.41
466.41	6970.12
466.60	7028.63
466.78	6890.54
466.96	6825.00
467.14	6974.80
467.32	7014.59
467.51	7066.08
467.69	6965.43
467.87	7033.31
468.05	7157.36
468.23	6913.94
468.41	7040.33
468.60	7122.25
468.78	7286.09
468.96	7190.13
469.14	7260.34
469.32	7302.47
469.50	7045.01
469.69	7155.02
469.87	7426.52
470.05	7318.86
470.23	7419.50
470.41	7372.69
470.59	7503.76
470.77	7391.41
470.95	7414.82
471.14	7573.97
471.32	7410.14
471.50	7714.41
471.68	7595.04
471.86	7850.16
472.04	7623.12
472.22	7861.86
472.40	7817.39
472.58	7768.24
472.77	7955.48
472.95	8074.85
473.13	8215.28
473.31	7955.48
473.49	7981.23
473.67	7985.91
473.85	7953.14
474.03	8032.72
474.21	8219.96
474.39	8269.11
474.57	8454.02
474.75	8379.12
474.93	8468.06
475.12	8362.73
475.30	8486.78
475.48	8587.43
475.66	8580.40
475.84	8615.51
476.02	8681.05
476.20	8744.24
476.38	8910.42
476.56	9036.81
476.74	8823.82
476.92	9048.51
477.10	9053.19
477.28	9001.70
477.46	9001.70
477.64	9006.38
477.82	9181.92
478.00	9528.32
478.18	9380.87
478.36	9668.75
478.54	9504.92
478.72	9666.41
478.90	9678.12
479.08	9914.51
479.26	9820.89
479.44	10092.39
479.62	9930.89
479.80	10085.37
479.98	10228.14
480.16	10078.35
480.34	10331.12
480.52	10476.24
480.70	10448.15
480.88	10424.75
481.06	10108.77
481.24	10349.85
481.41	10370.91
481.59	10534.75
481.77	10803.91
481.95	10874.13
482.13	10965.41
482.31	11185.42
482.49	11098.82
482.67	11176.06
482.85	11379.68
483.03	11358.62
483.21	11468.62
483.39	11637.14
483.57	11482.67
483.74	11894.60
483.92	12025.67
484.10	11606.72
484.28	12084.19
484.46	12287.81
484.64	12582.72
484.82	12156.74
485.00	12559.31
485.18	12650.60
485.35	12641.23
485.53	12746.56
485.71	12851.88
485.89	12999.34
486.07	12769.96
486.25	13144.45
486.43	12957.21
486.61	13172.54
486.78	13364.46
486.96	13441.70
487.14	13642.98
487.32	13483.83
487.50	13551.70
487.68	13951.93
487.85	14052.58
488.03	14148.54
488.21	14033.85
488.39	14317.06
488.57	14530.05
488.75	14504.30
488.92	14972.41
489.10	14902.19
489.28	14796.87
489.46	15150.29
489.64	15037.94
489.81	15503.71
489.99	15197.10
490.17	15461.58
490.35	15599.67
490.53	15754.15
490.70	16100.55
490.88	15641.80
491.06	15885.22
491.24	15878.19
491.41	16203.53
491.59	16308.85
491.77	16112.25
491.95	16524.18
492.13	16507.80
492.30	16613.12
492.48	16648.23
492.66	16805.05
492.84	16870.58
493.01	16919.73
493.19	17125.70
493.37	17020.38
493.54	16957.18
493.72	17238.05
493.90	17474.44
494.08	17549.34
494.25	17605.51
494.43	17514.23
494.61	17862.97
494.79	17823.18
494.96	18209.37
495.14	18129.79
495.32	18185.96
495.49	18113.41
495.67	18349.80
495.85	18546.40
496.02	18394.27
496.20	18719.60
496.38	18686.84
496.55	18796.84
496.73	19117.50
496.91	19066.00
497.09	19206.44
497.26	19506.02
497.44	19178.35
497.62	19199.41
497.79	19597.31
497.97	19552.84
498.14	19679.22
498.32	19571.56
498.50	19768.16
498.67	20362.66
498.85	20327.55
499.03	20418.83
499.20	20100.52
499.38	20201.16
499.56	20226.91
499.73	20805.02
499.91	20765.23
500.08	20814.38
500.26	20879.92
500.44	20903.32
500.61	21050.78
500.79	20966.52
500.97	21151.42
501.14	21443.99
501.32	21549.31
501.49	21383.13
501.67	21326.96
501.84	21385.47
502.02	21518.89
502.20	21518.89
502.37	22104.02
502.55	21675.70
502.72	21923.80
502.90	21631.23
503.07	21994.01
503.25	21841.88
503.43	21764.64
503.60	22108.70
503.78	22279.56
503.95	22389.56
504.13	22302.96
504.30	22277.22
504.48	22431.69
504.65	22497.23
504.83	23056.62
505.01	23185.35
505.18	22747.67
505.36	23229.82
505.53	23080.02
505.71	22995.76
505.88	23140.88
506.06	23054.28
506.23	23061.30
506.41	23344.50
506.58	23482.59
506.76	23187.69
506.93	23297.69
507.11	23157.26
507.28	23168.96
507.46	23693.24
507.63	23899.21
507.81	23889.85
507.98	23688.56
508.16	23922.62
508.33	23821.97
508.50	24187.10
508.68	24372.00
508.85	23974.11
509.03	24418.81
509.20	24542.86
509.38	24437.53
509.55	24737.12
509.73	24442.21
509.90	24758.19
510.08	24617.75
510.25	25123.31
510.42	25153.74
510.60	25102.25
510.77	25252.04
510.95	25418.22
511.12	25165.44
511.30	25303.53
511.47	25315.23
511.64	25425.24
511.82	25666.31
511.99	25404.17
512.17	25991.65
512.34	25668.66
512.51	25900.37
512.69	25865.26
512.86	26073.57
513.04	26160.17
513.21	26412.95
513.38	26363.79
513.56	25954.20
513.73	26052.50
513.90	26314.64
514.08	26202.30
514.25	26487.84
514.43	27026.17
514.60	26618.91
514.77	26426.99
514.95	26539.33
515.12	26665.72
515.29	26925.52
515.47	27014.46
515.64	26745.30
515.81	27033.19
515.99	27484.91
516.16	27426.40
516.33	27243.84
516.51	27208.73
516.68	26984.04
516.85	27159.58
517.03	27157.24
517.20	27459.16
517.37	27786.84
517.54	27714.28
517.72	27676.83
517.89	27630.02
518.06	27637.05
518.24	27805.56
518.41	27580.87
518.58	28060.68
518.75	27896.85
518.93	28353.25
519.10	28297.08
519.27	28109.83
519.45	28011.53
519.62	28123.88
519.79	28549.85
519.96	28418.78
520.14	28416.44
520.31	28423.47
520.48	28371.97
520.65	28671.56
520.83	28671.56
521.00	29106.90
521.17	28484.32
521.34	29085.84
521.52	29078.82
521.69	29174.78
521.86	29200.52
522.03	29219.25
522.20	29500.11
522.38	29226.27
522.55	29385.43
522.72	29497.77
522.89	29291.80
523.07	29792.68
523.24	29233.29
523.41	29820.77
523.58	29516.50
523.75	30169.51
523.92	29696.72
524.10	30164.82
524.27	30085.25
524.44	29989.28
524.61	30361.43
524.78	30260.79
524.96	29890.98
525.13	30235.04
525.30	30490.16
525.47	30485.48
525.64	30331.00
525.81	30820.17
525.98	30625.91
526.16	30661.02
526.33	30459.73
526.50	30848.26
526.67	30302.92
526.84	30808.47
527.01	30616.55
527.18	30939.54
527.36	31152.53
527.53	30862.30
527.70	31440.42
527.87	31578.51
528.04	30731.23
528.21	31735.32
528.38	30967.63
528.55	31475.52
528.72	31257.85
528.89	31625.32
529.07	31328.07
529.24	31765.75
529.41	31931.93
529.58	31835.97
529.75	31033.16
529.92	31821.92
530.09	31487.23
530.26	31618.30
530.43	32030.23
530.60	31803.20
530.77	31737.66
530.94	32055.98
531.11	31360.84
531.28	31264.88
531.46	32142.58
531.63	32088.74
531.80	32027.89
531.97	32512.38
532.14	32409.40
532.31	32301.73
532.48	32261.94
532.65	32477.27
532.82	32091.09
532.99	32378.97
533.16	32360.25
533.33	32491.32
533.50	32737.07
533.67	32407.06
533.84	32606.00
534.01	32498.34
534.18	32212.79
534.35	32528.77
534.52	32680.90
534.69	32776.86
534.86	33109.22
535.03	32809.63
535.20	33074.11
535.37	33083.47
535.54	32994.53
535.71	32914.95
535.88	33223.90
536.05	33022.62
536.22	33411.15
536.38	33675.63
536.55	33282.42
536.72	33462.64
536.89	32910.27
537.06	33158.37
537.23	33516.47
537.40	33860.53
537.57	33652.22
537.74	33661.58
537.91	33780.95
538.08	33996.28
538.25	33729.46
538.42	33736.48
538.59	33968.19
538.75	33493.07
538.92	33626.48
539.09	34202.25
539.26	33986.92
539.43	34178.84
539.60	34181.18
539.77	34286.51
539.94	34483.11
540.11	34239.70
540.28	34323.96
540.44	34305.23
540.61	34223.31
540.78	34373.11
540.95	34581.42
541.12	34703.12
541.29	34829.51
541.46	34710.14
541.62	34660.99
541.79	34707.80
541.96	34300.55
542.13	34785.04
542.30	34733.55
542.47	35290.60
542.63	35384.22
542.80	35590.19
542.97	35405.28
543.14	35314.00
543.31	35714.23
543.48	35068.25
543.64	35564.44
543.81	35637.00
543.98	35857.01
544.15	35828.92
544.32	35824.24
544.48	35852.33
544.65	35697.85
544.82	35211.02
544.99	35262.51
545.16	35302.30
545.32	35817.22
545.49	36428.10
545.66	36931.31
545.83	36758.11
546.00	36575.55
546.16	36460.87
546.33	36053.61
546.50	35707.21
546.67	35864.03
546.83	35674.45
547.00	35945.95
547.17	36041.91
547.34	35959.99
547.50	35798.49
547.67	36343.84
547.84	36126.17
548.00	36154.26
548.17	36657.47
548.34	36402.35
548.51	36163.62
548.67	36524.06
548.84	36472.57
549.01	36168.30
549.18	36538.10
549.34	35852.33
549.51	36030.21
549.68	36388.31
549.84	36044.25
550.01	36430.44
550.18	36416.40
550.34	36421.08
550.51	36428.10
550.68	36524.06
550.84	36172.98
551.01	36708.96
551.18	36737.05
551.34	36205.75
551.51	36318.09
551.68	36362.56
551.84	36802.58
552.01	36533.42
552.18	36697.26
552.34	36610.66
552.51	36650.45
552.68	36980.46
552.84	36542.78
553.01	36847.05
553.18	36692.58
553.34	36786.20
553.51	36713.64
553.67	37258.99
553.84	37476.66
554.01	37249.63
554.17	36903.23
554.34	36643.43
554.51	37141.96
554.67	37090.47
554.84	37195.79
555.00	37083.45
555.17	37319.84
555.33	37256.65
555.50	37041.32
555.67	36863.44
555.83	37493.04
556.00	37024.93
556.16	37156.00
556.33	37123.24
556.50	36914.93
556.66	37235.58
556.83	37170.05
556.99	37677.94
557.16	37668.58
557.32	37605.39
557.49	36917.27
557.65	37156.00
557.82	37324.52
557.98	37008.55
558.15	37471.98
558.32	37432.19
558.48	37425.17
558.65	37940.08
558.81	37347.93
558.98	37457.93
559.14	37860.51
559.31	36914.93
559.47	37544.53
559.64	37689.65
559.80	37731.78
559.97	37656.88
560.13	37584.32
560.30	37853.48
560.46	37708.37
560.63	37551.56
560.79	37844.12
560.96	37839.44
561.12	38087.54
561.29	37680.28
561.45	37839.44
561.61	37947.11
561.78	37659.22
561.94	38265.42
562.11	37834.76
562.27	37979.87
562.44	37710.71
562.60	37748.16
562.77	37415.80
562.93	37682.62
563.10	38148.39
563.26	37493.04
563.42	38447.98
563.59	37968.17
563.75	37661.56
563.92	37947.11
564.08	37504.74
564.24	37890.93
564.41	37544.53
564.57	37633.47
564.74	37776.25
564.90	37991.58
565.07	37970.51
565.23	38412.87
565.39	37780.93
565.56	37869.87
565.72	37511.77
565.88	37865.19
566.05	38043.07
566.21	37783.27
566.38	37476.66
566.54	38026.68
566.70	38412.87
566.87	38347.34
567.03	38059.45
567.19	38216.27
567.36	38281.80
567.52	38185.84
567.68	37827.74
567.85	37654.54
568.01	38291.16
568.17	37792.63
568.34	38141.37
568.50	37809.01
568.66	37993.92
568.83	38305.21
568.99	37837.10
569.15	37912.00
569.32	37820.72
569.48	38043.07
569.64	38345.00
569.81	37968.17
569.97	37773.91
570.13	38696.08
570.30	38064.13
570.46	38178.82
570.62	38057.11
570.78	37839.44
570.95	37809.01
571.11	38059.45
571.27	38263.08
571.43	37825.40
571.60	38022.00
571.76	37841.78
571.92	37820.72
572.09	37942.42
572.25	38359.04
572.41	38384.79
572.57	38445.64
572.74	38492.45
572.90	37972.85
573.06	38183.50
573.22	37680.28
573.38	38518.20
573.55	38389.47
573.71	38567.35
573.87	38625.86
574.03	38234.99
574.20	38653.95
574.36	38649.27
574.52	38206.90
574.68	38410.53
574.84	38309.89
575.01	38593.09
575.17	38052.43
575.33	38270.10
575.49	38054.77
575.65	38265.42
575.82	38164.78
575.98	37923.70
576.14	38354.36
576.30	38476.07
576.46	38199.88
576.62	38349.68
576.79	38663.31
576.95	38148.39
577.11	38611.82
577.27	38721.82
577.43	38380.10
577.59	38471.39
577.75	38377.76
577.92	38405.85
578.08	38274.78
578.24	38211.59
578.40	38405.85
578.56	38291.16
578.72	38300.53
578.88	38579.05
579.04	38679.69
579.21	38553.30
579.37	38756.93
579.53	38918.43
579.69	38206.90
579.85	38361.38
580.01	38277.12
580.17	38014.98
580.33	38251.38
580.49	38541.60
580.65	38717.14
580.82	38094.56
580.98	38745.23
581.14	38543.94
581.30	38410.53
581.46	38213.93
581.62	38160.09
581.78	38431.60
581.94	38581.39
582.10	38242.01
582.26	38600.12
582.42	38520.54
582.58	38670.33
582.74	38431.60
582.90	38277.12
583.06	38595.43
583.22	38132.01
583.38	38532.24
583.54	38513.52
583.70	38279.46
583.86	38593.09
584.02	38054.77
584.18	38775.66
584.34	38550.96
584.50	38436.28
584.66	38342.66
584.82	38532.24
584.98	38405.85
585.14	38698.42
585.30	38260.74
585.46	37970.51
585.62	38298.19
585.78	38548.62
585.94	38178.82
586.10	38703.10
586.26	38431.60
586.42	38712.46
586.58	38469.04
586.74	38515.86
586.90	38494.79
587.06	38588.41
587.22	38464.36
587.38	38574.37
587.54	38696.08
587.70	39126.74
587.86	38522.88
588.02	38490.11
588.18	38705.44
588.34	38450.32
588.49	38227.97
588.65	38230.31
588.81	38352.02
588.97	38883.32
589.13	38415.21
589.29	38590.75
589.45	38370.74
589.61	38705.44
589.77	38677.35
589.93	39077.58
590.08	38632.88
590.24	38976.94
590.40	38937.15
590.56	38572.03
590.72	38536.92
590.88	38539.26
591.04	38394.15
591.20	38808.42
591.35	38939.49
