SpectraSuite Data File
++++++++++++++++++++++++++++++++++++
Date: Fri Oct 04 11:39:19 GMT-05:00 2013
User: price-jones
Dark Spectrum Present: No
Reference Spectrum Present: No
Number of Sampled Component Spectra: 1
Spectrometers: USB2+H05261
Integration Time (usec): 100000 (USB2+H05261)
Spectra Averaged: 1 (USB2+H05261)
Boxcar Smoothing: 0 (USB2+H05261)
Correct for Electrical Dark: No (USB2+H05261)
Strobe/Lamp Enabled: No (USB2+H05261)
Correct for Detector Non-linearity: No (USB2+H05261)
Correct for Stray Light: No (USB2+H05261)
Number of Pixels in Processed Spectrum: 2048
>>>>>Begin Processed Spectral Data<<<<<
365.73	53.83
365.92	53.83
366.12	53.83
366.32	0.00
366.52	0.00
366.72	0.00
366.91	0.00
367.11	0.00
367.31	0.00
367.51	0.00
367.70	0.00
367.90	0.00
368.10	0.00
368.30	0.00
368.49	0.00
368.69	0.00
368.89	51.49
369.09	0.00
369.28	0.00
369.48	0.00
369.68	49.15
369.87	11.70
370.07	0.00
370.27	0.00
370.47	4.68
370.66	175.54
370.86	250.44
371.06	341.72
371.25	220.01
371.45	208.31
371.65	308.95
371.84	308.95
372.04	287.89
372.24	287.89
372.44	294.91
372.63	280.86
372.83	402.57
373.03	311.29
373.22	372.15
373.42	257.46
373.62	344.06
373.81	395.55
374.01	358.10
374.21	437.68
374.40	369.80
374.60	365.12
374.79	369.80
374.99	397.89
375.19	470.45
375.38	437.68
375.58	430.66
375.78	383.85
375.97	313.63
376.17	416.62
376.37	386.19
376.56	386.19
376.76	404.91
376.95	376.83
377.15	440.02
377.35	404.91
377.54	334.70
377.74	402.57
377.93	362.78
378.13	421.30
378.33	470.45
378.52	435.34
378.72	442.36
378.91	421.30
379.11	435.34
379.31	393.21
379.50	376.83
379.70	517.26
379.89	503.22
380.09	442.36
380.28	449.38
380.48	454.06
380.68	397.89
380.87	465.77
381.07	404.91
381.26	442.36
381.46	437.68
381.65	496.19
381.85	489.17
382.04	449.38
382.24	435.34
382.43	421.30
382.63	482.15
382.83	433.00
383.02	461.09
383.22	458.74
383.41	472.79
383.61	477.47
383.80	447.04
384.00	535.98
384.19	493.85
384.39	507.90
384.58	491.51
384.78	482.15
384.97	575.77
385.17	550.03
385.36	531.30
385.56	615.56
385.75	587.47
385.95	505.56
386.14	510.24
386.34	517.26
386.53	547.69
386.72	496.19
386.92	589.82
387.11	498.53
387.31	580.45
387.50	603.86
387.70	559.39
387.89	585.13
388.09	601.52
388.28	594.50
388.48	547.69
388.67	596.84
388.86	507.90
389.06	645.99
389.25	627.26
389.45	592.16
389.64	613.22
389.84	650.67
390.03	601.52
390.22	662.37
390.42	622.58
390.61	594.50
390.81	699.82
391.00	601.52
391.19	620.24
391.39	657.69
391.58	657.69
391.78	653.01
391.97	695.14
392.16	657.69
392.36	697.48
392.55	741.95
392.75	704.50
392.94	681.10
393.13	683.44
393.33	704.50
393.52	629.60
393.71	723.23
393.91	641.31
394.10	699.82
394.29	798.12
394.49	713.86
394.68	779.40
394.88	711.52
395.07	807.48
395.26	772.38
395.46	821.53
395.65	798.12
395.84	837.91
396.04	901.11
396.23	805.14
396.42	856.64
396.62	851.96
396.81	746.63
397.00	807.48
397.19	823.87
397.39	814.51
397.58	861.32
397.77	870.68
397.97	877.70
398.16	809.83
398.35	875.36
398.55	938.55
398.74	882.38
398.93	959.62
399.12	938.55
399.32	866.00
399.51	964.30
399.70	957.28
399.90	985.37
400.09	973.66
400.28	954.94
400.47	1022.81
400.67	973.66
400.86	994.73
401.05	1008.77
401.24	929.19
401.44	983.02
401.63	1165.59
401.82	1088.35
402.01	1022.81
402.21	1135.16
402.40	1011.11
402.59	1093.03
402.78	1114.10
402.97	1118.78
403.17	1081.33
403.36	1163.25
403.55	1174.95
403.74	1156.22
403.93	1160.91
404.13	1172.61
404.32	1242.82
404.51	1177.29
404.70	1191.33
404.89	1254.53
405.09	1317.72
405.28	1268.57
405.47	1214.74
405.66	1266.23
405.85	1233.46
406.05	1301.34
406.24	1387.94
406.43	1287.29
406.62	1364.53
406.81	1322.40
407.00	1416.02
407.20	1378.58
407.39	1369.21
407.58	1460.49
407.77	1516.67
407.96	1416.02
408.15	1568.16
408.34	1476.88
408.54	1568.16
408.73	1530.71
408.92	1460.49
409.11	1577.52
409.30	1504.96
409.49	1481.56
409.68	1558.80
409.87	1563.48
410.07	1577.52
410.26	1671.14
410.45	1713.27
410.64	1645.40
410.83	1689.87
411.02	1673.48
411.21	1771.79
411.40	1743.70
411.59	1837.32
411.78	1696.89
411.98	1706.25
412.17	1842.00
412.36	1813.92
412.55	1881.79
412.74	1832.64
412.93	1881.79
413.12	1877.11
413.31	1970.73
413.50	1940.30
413.69	1973.07
413.88	1980.09
414.07	1914.56
414.26	2022.22
414.45	2155.63
414.64	2062.01
414.83	2038.61
415.02	2097.12
415.22	2195.42
415.41	2256.28
415.60	2225.85
415.79	2167.34
415.98	2176.70
416.17	2167.34
416.36	2242.23
416.55	2232.87
416.74	2403.73
416.93	2321.81
417.12	2387.35
417.31	2495.01
417.50	2389.69
417.69	2427.14
417.88	2445.86
418.07	2413.09
418.26	2546.50
418.45	2562.89
418.64	2583.95
418.83	2495.01
419.02	2445.86
419.21	2562.89
419.39	2642.46
419.58	2588.63
419.77	2513.74
419.96	2605.02
420.15	2661.19
420.34	2583.95
420.53	2733.75
420.72	2684.59
420.91	2670.55
421.10	2803.96
421.29	2829.71
421.48	2794.60
421.67	2822.69
421.86	2832.05
422.05	2677.57
422.24	2717.36
422.43	2754.81
422.61	2787.58
422.80	2963.12
422.99	2888.22
423.18	2906.95
423.37	3061.42
423.56	2874.18
423.75	2930.35
423.94	2768.85
424.13	2628.42
424.32	2747.79
424.50	2942.05
424.69	3007.59
424.88	2958.44
425.07	2860.13
425.26	2766.51
425.45	2825.03
425.64	2902.26
425.83	2906.95
426.01	3040.36
426.20	2899.92
426.39	2771.19
426.58	3021.63
426.77	3007.59
426.96	3103.55
427.15	2951.42
427.33	2977.16
427.52	3136.32
427.71	3028.65
427.90	3056.74
428.09	3143.34
428.28	3199.51
428.46	3267.39
428.65	3199.51
428.84	3215.90
429.03	3311.86
429.22	3094.19
429.40	3290.79
429.59	3311.86
429.78	3180.79
429.97	3052.06
430.16	3173.77
430.34	3353.99
430.53	3389.10
430.72	3276.75
430.91	3281.43
431.10	3241.64
431.28	3375.05
431.47	3529.53
431.66	3421.86
431.85	3307.18
432.03	3609.11
432.22	3646.55
432.41	3510.80
432.60	3471.01
432.79	3426.54
432.97	3545.91
433.16	3534.21
433.35	3559.95
433.54	3599.74
433.72	3571.66
433.91	3541.23
434.10	3618.47
434.28	3606.77
434.47	3730.81
434.66	3714.43
434.85	3721.45
435.03	3768.26
435.22	4025.72
435.41	4147.43
435.59	4051.47
435.78	3997.64
435.97	3964.87
436.16	3840.82
436.34	3784.65
436.53	3843.16
436.72	3925.08
436.90	3768.26
437.09	3936.78
437.28	3985.93
437.46	3941.46
437.65	4007.00
437.84	3999.98
438.02	4018.70
438.21	3953.16
438.40	3936.78
438.58	4140.41
438.77	4133.39
438.96	4095.94
439.14	4222.33
439.33	4266.80
439.52	4194.24
439.70	4152.11
439.89	4313.61
440.08	4266.80
440.26	4315.95
440.45	4308.93
440.63	4472.76
440.82	4465.74
441.01	4456.38
441.19	4503.19
441.38	4479.79
441.57	4676.39
441.75	4622.56
441.94	4690.43
442.12	4678.73
442.31	4791.08
442.50	4713.84
442.68	4720.86
442.87	4706.82
443.05	4657.67
443.24	5053.22
443.43	4837.89
443.61	4922.15
443.80	5114.07
443.98	4837.89
444.17	4770.01
444.35	4830.87
444.54	4992.36
444.73	4903.42
444.91	4915.12
445.10	4990.02
445.28	4985.34
445.47	4894.06
445.65	4924.49
445.84	4898.74
446.02	5020.45
446.21	5076.62
446.39	4943.21
446.58	4905.76
446.77	5137.48
446.95	4891.72
447.14	4877.68
447.32	5043.85
447.51	5114.07
447.69	5046.20
447.88	4961.94
448.06	5093.01
448.25	5029.81
448.43	5104.71
448.62	4929.17
448.80	5011.09
448.99	5224.08
449.17	5212.37
449.36	5191.31
449.54	5322.38
449.73	5146.84
449.91	5481.53
450.10	5399.62
450.28	5399.62
450.46	5416.00
450.65	5364.51
450.83	5366.85
451.02	5373.87
451.20	5270.89
451.39	5408.98
451.57	5430.04
451.76	5231.10
451.94	5549.41
452.13	5427.70
452.31	5497.92
452.49	5437.06
452.68	5748.36
452.86	5624.31
453.05	5675.80
453.23	5607.92
453.42	5469.83
453.60	5556.43
453.78	5685.16
453.97	5610.26
454.15	5636.01
454.34	5710.91
454.52	5582.18
454.70	5689.84
454.89	5799.85
455.07	5769.42
455.26	5760.06
455.44	5884.11
455.62	5717.93
455.81	5884.11
455.99	5846.66
456.17	5823.25
456.36	5886.45
456.54	5907.51
456.73	6076.03
456.91	6073.69
457.09	6150.93
457.28	6146.25
457.46	5984.75
457.64	6190.72
457.83	6160.29
458.01	6146.25
458.19	6164.97
458.38	6071.35
458.56	6338.17
458.74	6370.94
458.93	6338.17
459.11	6312.42
459.29	6293.70
459.48	6473.92
459.66	6242.21
459.84	6408.39
460.03	6441.15
460.21	6305.40
460.39	6466.90
460.57	6438.81
460.76	6506.69
460.94	6562.86
461.12	6597.97
461.31	6490.31
461.49	6733.72
461.67	6656.48
461.85	6867.13
462.04	6710.32
462.22	7330.56
462.40	6927.99
462.59	6825.00
462.77	6892.88
462.95	6782.87
463.13	6754.79
463.32	7016.93
463.50	6892.88
463.68	6808.62
463.86	6792.23
464.05	6780.53
464.23	6977.14
464.41	7082.46
464.59	6799.26
464.78	7101.19
464.96	7159.70
465.14	6822.66
465.32	7105.87
465.50	7199.49
465.69	7007.56
465.87	7042.67
466.05	7138.63
466.23	7152.68
466.41	7176.08
466.60	7538.87
466.78	7197.15
466.96	7208.85
467.14	7094.16
467.32	7222.89
467.51	7536.52
467.69	7197.15
467.87	7248.64
468.05	7379.71
468.23	7407.80
468.41	7405.46
468.60	7370.35
468.78	7564.61
468.96	7302.47
469.14	7492.05
469.32	7480.35
469.50	7330.56
469.69	7756.54
469.87	7803.35
470.05	7721.43
470.23	7775.26
470.41	7719.09
470.59	7929.74
470.77	7573.97
470.95	7789.30
471.14	7831.43
471.32	7761.22
471.50	8030.38
471.68	7976.55
471.86	8091.23
472.04	7889.95
472.22	8124.00
472.40	8112.30
472.58	8056.12
472.77	8236.35
472.95	8245.71
473.13	8397.84
473.31	8131.02
473.49	8255.07
473.67	8470.40
473.85	8533.59
474.03	8461.04
474.21	8468.06
474.39	8795.73
474.57	8585.08
474.75	8851.91
474.93	8823.82
475.12	8524.23
475.30	8751.26
475.48	8931.48
475.66	8957.23
475.84	8830.84
476.02	8922.12
476.20	8943.19
476.38	9418.32
476.56	9455.76
476.74	9102.34
476.92	9329.38
477.10	9371.50
477.28	9460.45
477.46	9481.51
477.64	9453.42
477.82	9692.16
478.00	9802.16
478.18	9799.82
478.36	9795.14
478.54	10022.17
478.72	9865.36
478.90	10099.41
479.08	10216.44
479.26	10249.21
479.44	10429.43
479.62	10221.12
479.80	10354.53
479.98	10565.18
480.16	10796.89
480.34	10759.44
480.52	10902.22
480.70	10958.39
480.88	10721.99
481.06	10977.11
481.24	11033.29
481.41	10991.16
481.59	11335.21
481.77	11239.25
481.95	11417.13
482.13	11405.43
482.31	11447.56
482.49	11698.00
482.67	11737.79
482.85	12013.97
483.03	12348.67
483.21	12231.64
483.39	12154.40
483.57	11988.22
483.74	12163.76
483.92	12449.31
484.10	12252.70
484.28	12809.75
484.46	12706.77
484.64	13008.70
484.82	12620.17
485.00	12896.35
485.18	13121.04
485.35	13118.70
485.53	13359.78
485.71	13554.04
485.89	13774.05
486.07	13530.64
486.25	13584.47
486.43	13846.61
486.61	14097.05
486.78	14061.94
486.96	13963.64
487.14	14518.34
487.32	14462.17
487.50	14541.75
487.68	14567.49
487.85	14782.82
488.03	14782.82
488.21	14820.27
488.39	15248.59
488.57	15119.86
488.75	15281.36
488.92	15576.27
489.10	15522.43
489.28	15487.32
489.46	15805.64
489.64	15681.59
489.81	16156.72
489.99	16189.49
490.17	16013.95
490.35	16393.11
490.53	16381.41
490.70	16449.28
490.88	16688.02
491.06	16540.57
491.24	16711.42
491.41	17111.66
491.59	16779.30
491.77	16711.42
491.95	17301.24
492.13	17373.80
492.30	17312.94
492.48	17603.17
492.66	17596.15
492.84	17577.42
493.01	17811.48
493.19	18097.02
493.37	18099.36
493.54	18272.56
493.72	18523.00
493.90	18153.20
494.08	18616.62
494.25	18806.20
494.43	18761.73
494.61	18586.19
494.79	18953.66
494.96	19035.58
495.14	19159.63
495.32	19438.15
495.49	19091.75
495.67	19218.14
495.85	19601.99
496.02	19407.72
496.20	19711.99
496.38	19903.92
496.55	19569.22
496.73	20091.16
496.91	19997.54
497.09	20224.57
497.26	20636.50
497.44	20592.03
497.62	20589.69
497.79	20561.61
497.97	20727.78
498.14	20769.91
498.32	21151.42
498.50	21102.27
498.67	21228.66
498.85	21310.58
499.03	21181.85
499.20	21425.26
499.38	21188.87
499.56	21509.52
499.73	21640.59
499.91	21998.70
500.08	21680.38
500.26	21809.11
500.44	22010.40
500.61	21930.82
500.79	21928.48
500.97	22045.51
501.14	22562.76
501.32	22417.65
501.49	22464.46
501.67	22314.67
501.84	22394.25
502.02	22735.96
502.20	23183.01
502.37	23047.26
502.55	23150.24
502.72	22820.22
502.90	22838.95
503.07	22780.43
503.25	23115.13
503.43	22895.12
503.60	23325.78
503.78	23690.90
503.95	23330.46
504.13	23536.43
504.30	23768.14
504.48	23438.12
504.65	23985.81
504.83	23885.17
505.01	24381.36
505.18	23948.36
505.36	24367.32
505.53	24109.86
505.71	24381.36
505.88	24381.36
506.06	24306.46
506.23	24484.34
506.41	24386.04
506.58	24751.17
506.76	24620.10
506.93	24849.47
507.11	24617.75
507.28	24900.96
507.46	24816.70
507.63	25425.24
507.81	25455.67
507.98	25006.28
508.16	25296.51
508.33	25357.36
508.50	25685.04
508.68	25575.03
508.85	25661.63
509.03	25497.80
509.20	26089.95
509.38	25935.48
509.55	26078.25
509.73	26108.68
509.90	26279.54
510.08	26024.42
510.25	26387.20
510.42	26417.63
510.60	26434.01
510.77	27014.46
510.95	26515.93
511.12	26569.76
511.30	26574.44
511.47	26855.31
511.64	26874.03
511.82	26932.54
511.99	27236.81
512.17	27590.24
512.34	26771.05
512.51	27197.02
512.69	27601.94
512.86	27166.60
513.04	27445.12
513.21	27704.92
513.38	27782.16
513.56	27917.91
513.73	27861.74
513.90	27733.01
514.08	27714.28
514.25	28053.66
514.43	28173.03
514.60	28411.76
514.77	28236.22
514.95	28210.48
515.12	28158.99
515.29	28547.51
515.47	28428.15
515.64	28655.18
515.81	28175.37
515.99	28849.44
516.16	28865.83
516.33	28631.77
516.51	29275.42
516.68	28535.81
516.85	28636.45
517.03	29221.59
517.20	29193.50
517.37	29600.76
517.54	29570.33
517.72	29518.84
517.89	29343.30
518.06	29472.03
518.24	29081.16
518.41	29055.41
518.58	29633.52
518.75	29450.96
518.93	29921.41
519.10	30087.59
519.27	29895.66
519.45	30132.06
519.62	29993.97
519.79	30181.21
519.96	30139.08
520.14	30291.21
520.31	30398.88
520.48	30555.69
520.65	30235.04
520.83	30600.16
521.00	30319.30
521.17	30616.55
521.34	30525.27
521.52	30551.01
521.69	30567.40
521.86	30834.22
522.03	31311.69
522.20	31143.17
522.38	31164.23
522.55	30995.71
522.72	31278.92
522.89	31243.81
523.07	31632.34
523.24	31087.00
523.41	31632.34
523.58	31243.81
523.75	31505.95
523.92	31725.96
524.10	31435.74
524.27	31910.86
524.44	31637.02
524.61	32142.58
524.78	31957.67
524.96	32287.69
525.13	32088.74
525.30	32308.76
525.47	32290.03
525.64	32100.45
525.81	32245.56
525.98	32208.11
526.16	32554.51
526.33	32163.64
526.50	32549.83
526.67	32086.40
526.84	32591.96
527.01	32840.06
527.18	32456.21
527.36	32341.52
527.53	32957.08
527.70	33118.58
527.87	33270.72
528.04	33104.54
528.21	32753.46
528.38	32900.91
528.55	33060.07
528.72	32877.51
528.89	33607.75
529.07	33354.97
529.24	33347.95
529.41	33312.84
529.58	33261.35
529.75	33479.02
529.92	33680.31
530.09	33493.07
530.26	33357.32
530.43	33591.37
530.60	33809.04
530.77	33872.23
530.94	33947.13
531.11	33745.84
531.28	33369.02
531.46	33890.96
531.63	34593.12
531.80	34295.87
531.97	34368.43
532.14	34384.81
532.31	34588.44
532.48	33942.45
532.65	34153.10
532.82	34300.55
532.99	34822.49
533.16	34108.63
533.33	34852.92
533.50	34794.40
533.67	34794.40
533.84	34579.07
534.01	34466.73
534.18	34469.07
534.35	34707.80
534.52	34864.62
534.69	35372.52
534.86	34747.59
535.03	34817.81
535.20	35665.08
535.37	35491.88
535.54	35541.03
535.71	34925.47
535.88	35873.39
536.05	35370.18
536.22	35566.78
536.38	35253.15
536.55	35526.99
536.72	35845.30
536.89	35749.34
537.06	35592.53
537.23	35548.06
537.40	35536.35
537.57	35885.09
537.74	35845.30
537.91	36287.67
538.08	36119.15
538.25	35852.33
538.42	35632.32
538.59	35971.69
538.75	36006.80
538.92	36011.48
539.09	36238.51
539.26	36025.53
539.43	36547.47
539.60	36163.62
539.77	36734.71
539.94	36556.83
540.11	36879.82
540.28	36519.38
540.44	37064.72
540.61	37053.02
540.78	37003.87
540.95	36687.90
541.12	36758.11
541.29	37235.58
541.46	36985.15
541.62	36861.10
541.79	36842.37
541.96	36807.26
542.13	36978.12
542.30	37553.90
542.47	37579.64
542.63	37479.00
542.80	37724.75
542.97	38043.07
543.14	37673.26
543.31	38010.30
543.48	37708.37
543.64	38117.96
543.81	38300.53
543.98	37851.14
544.15	38183.50
544.32	38424.57
544.48	38698.42
544.65	38022.00
544.82	37940.08
544.99	37998.60
545.16	37792.63
545.32	38113.28
545.49	38923.11
545.66	39393.56
545.83	39360.79
546.00	39842.94
546.16	38759.27
546.33	38373.08
546.50	38340.32
546.67	38525.22
546.83	38281.80
547.00	38698.42
547.17	38347.34
547.34	38293.50
547.50	38567.35
547.67	39012.05
547.84	38754.59
548.00	38820.13
548.17	38773.31
548.34	38923.11
548.51	39056.52
548.67	38866.94
548.84	39239.08
549.01	38878.64
549.18	39098.65
549.34	38831.83
549.51	38850.55
549.68	38969.92
549.84	39030.77
550.01	39508.24
550.18	38852.89
550.34	38567.35
550.51	38541.60
550.68	38939.49
550.84	38590.75
551.01	39147.80
551.18	39082.27
551.34	39119.71
551.51	39082.27
551.68	39260.15
551.84	39625.27
552.01	39316.32
552.18	39477.82
552.34	39529.31
552.51	39295.25
552.68	39264.83
552.84	39421.64
553.01	39756.34
553.18	39318.66
553.34	39463.77
553.51	39229.72
553.67	39555.05
553.84	40030.18
554.01	39899.11
554.17	39833.58
554.34	39641.65
554.51	39475.48
554.67	40009.12
554.84	39938.90
555.00	39594.84
555.17	39852.30
555.33	39981.03
555.50	39882.73
555.67	40062.95
555.83	39910.82
556.00	39934.22
556.16	40353.18
556.33	40144.87
556.50	40009.12
556.66	40095.72
556.83	39976.35
556.99	40275.94
557.16	40402.33
557.32	40219.77
557.49	40704.26
557.65	39903.79
557.82	40371.90
557.98	40238.49
558.15	40285.30
558.32	40208.06
558.48	40390.62
558.65	40385.94
558.81	40601.27
558.98	40357.86
559.14	40266.58
559.31	40547.44
559.47	40114.44
559.64	40425.73
559.80	40584.89
559.97	40678.51
560.13	39978.69
560.30	40807.24
560.46	41209.81
560.63	41289.39
560.79	40872.78
560.96	41104.49
561.12	40882.14
561.29	40617.66
561.45	40655.11
561.61	40938.31
561.78	41027.25
561.94	40912.56
562.11	40690.21
562.27	41364.29
562.44	41340.88
562.60	41188.75
562.77	40849.37
562.93	41057.68
563.10	41221.52
563.26	40692.55
563.42	41579.62
563.59	41612.38
563.75	40992.14
563.92	40889.16
564.08	41092.79
564.24	40919.59
564.41	40889.16
564.57	41331.52
564.74	40994.48
564.90	41546.85
565.07	41467.27
565.23	41474.29
565.39	41104.49
565.56	41359.61
565.72	41205.13
565.88	41322.16
566.05	40741.71
566.21	40898.52
566.38	41127.89
566.54	41326.84
566.70	41495.36
566.87	41783.24
567.03	41273.01
567.19	41926.02
567.36	41525.78
567.52	40999.16
567.68	41558.55
567.85	41415.78
568.01	41486.00
568.17	41273.01
568.34	41937.72
568.50	41567.91
568.66	41315.14
568.83	41846.44
568.99	41841.76
569.15	41684.94
569.32	40896.18
569.48	40830.65
569.64	41244.92
569.81	41434.50
569.97	41347.90
570.13	41617.07
570.30	41345.56
570.46	41865.16
570.62	41130.23
570.78	41839.42
570.95	40999.16
571.11	41556.21
571.27	41462.59
571.43	41572.60
571.60	41345.56
571.76	41708.35
571.92	41801.97
572.09	42103.90
572.25	41743.45
572.41	41911.97
572.57	41923.68
572.74	41666.22
572.90	41607.70
573.06	41668.56
573.22	41603.02
573.38	41207.47
573.55	41963.46
573.71	42483.06
573.87	42110.92
574.03	41523.44
574.20	41851.12
574.36	41652.17
574.52	41654.51
574.68	41621.75
574.84	42239.65
575.01	41738.77
575.17	41486.00
575.33	41759.84
575.49	41846.44
575.65	42183.48
575.82	41893.25
575.98	42019.64
576.14	41663.88
576.30	41935.38
576.46	41982.19
576.62	41907.29
576.79	42094.53
576.95	42000.91
577.11	42452.64
577.27	42380.08
577.43	41832.39
577.59	41675.58
577.75	41916.65
577.92	42010.28
578.08	41691.96
578.24	41645.15
578.40	42204.54
578.56	41897.93
578.72	41984.53
578.88	42497.11
579.04	42740.52
579.21	42139.00
579.37	41998.57
579.53	42518.17
579.69	42150.71
579.85	42045.38
580.01	41916.65
580.17	42150.71
580.33	42412.85
580.49	42185.82
580.65	42438.59
580.82	42274.76
580.98	42316.89
581.14	41935.38
581.30	41759.84
581.46	41820.69
581.62	42157.73
581.78	41689.62
581.94	42536.90
582.10	42316.89
582.26	42490.09
582.42	42464.34
582.58	42616.47
582.74	42293.48
582.90	42419.87
583.06	42375.40
583.22	42265.39
583.38	42113.26
583.54	42054.75
583.70	42246.67
583.86	42431.57
584.02	41879.21
584.18	42593.07
584.34	42597.75
584.50	42536.90
584.66	42059.43
584.82	41984.53
584.98	42078.15
585.14	42031.34
585.30	41820.69
585.46	42328.59
585.62	42300.50
585.78	42653.92
585.94	42012.62
586.10	42333.27
586.26	42326.25
586.42	42618.81
586.58	42476.04
586.74	42265.39
586.90	41851.12
587.06	42340.29
587.22	42562.64
587.38	42110.92
587.54	42426.89
587.70	42658.60
587.86	43026.07
588.02	42700.73
588.18	43033.09
588.34	42607.11
588.49	42286.46
588.65	42359.02
588.81	42454.98
588.97	42340.29
589.13	42396.46
589.29	42309.86
589.45	42515.83
589.61	42707.76
589.77	42658.60
589.93	42408.17
590.08	42974.58
590.24	42646.90
590.40	42990.96
590.56	42602.43
590.72	42684.35
590.88	42333.27
591.04	42263.05
