SpectraSuite Data File
++++++++++++++++++++++++++++++++++++
Date: Fri Oct 04 11:40:05 GMT-05:00 2013
User: price-jones
Dark Spectrum Present: No
Reference Spectrum Present: No
Number of Sampled Component Spectra: 1
Spectrometers: USB2+H05261
Integration Time (usec): 100000 (USB2+H05261)
Spectra Averaged: 1 (USB2+H05261)
Boxcar Smoothing: 0 (USB2+H05261)
Correct for Electrical Dark: No (USB2+H05261)
Strobe/Lamp Enabled: No (USB2+H05261)
Correct for Detector Non-linearity: No (USB2+H05261)
Correct for Stray Light: No (USB2+H05261)
Number of Pixels in Processed Spectrum: 2048
>>>>>Begin Processed Spectral Data<<<<<
365.73	88.94
365.92	88.94
366.12	88.94
366.32	0.00
366.52	0.00
366.72	0.00
366.91	0.00
367.11	0.00
367.31	0.00
367.51	14.04
367.70	0.00
367.90	0.00
368.10	0.00
368.30	0.00
368.49	0.00
368.69	0.00
368.89	0.00
369.09	0.00
369.28	0.00
369.48	0.00
369.68	35.11
369.87	0.00
370.07	0.00
370.27	91.28
370.47	35.11
370.66	60.85
370.86	91.28
371.06	128.73
371.25	81.92
371.45	86.60
371.65	88.94
371.84	51.49
372.04	93.62
372.24	81.92
372.44	131.07
372.63	112.35
372.83	102.98
373.03	119.37
373.22	74.90
373.42	107.66
373.62	95.96
373.81	154.48
374.01	105.32
374.21	142.77
374.40	124.05
374.60	163.84
374.79	147.45
374.99	93.62
375.19	102.98
375.38	112.35
375.58	234.05
375.78	220.01
375.97	121.71
376.17	222.35
376.37	145.11
376.56	149.79
376.76	119.37
376.95	117.03
377.15	149.79
377.35	173.20
377.54	126.39
377.74	166.18
377.93	79.58
378.13	147.45
378.33	189.58
378.52	184.90
378.72	140.43
378.91	124.05
379.11	166.18
379.31	131.07
379.50	4.68
379.70	198.95
379.89	177.88
380.09	156.82
380.28	156.82
380.48	110.01
380.68	65.54
380.87	112.35
381.07	205.97
381.26	194.26
381.46	205.97
381.65	126.39
381.85	210.65
382.04	187.24
382.24	168.52
382.43	124.05
382.63	88.94
382.83	126.39
383.02	124.05
383.22	170.86
383.41	102.98
383.61	105.32
383.80	147.45
384.00	145.11
384.19	100.64
384.39	180.22
384.58	56.17
384.78	107.66
384.97	212.99
385.17	175.54
385.36	102.98
385.56	142.77
385.75	142.77
385.95	105.32
386.14	173.20
386.34	170.86
386.53	93.62
386.72	168.52
386.92	145.11
387.11	88.94
387.31	187.24
387.50	117.03
387.70	56.17
387.89	168.52
388.09	110.01
388.28	175.54
388.48	154.48
388.67	191.92
388.86	119.37
389.06	107.66
389.25	201.29
389.45	159.16
389.64	140.43
389.84	112.35
390.03	161.50
390.22	147.45
390.42	128.73
390.61	74.90
390.81	163.84
391.00	110.01
391.19	194.26
391.39	161.50
391.58	175.54
391.78	119.37
391.97	133.41
392.16	63.19
392.36	154.48
392.55	175.54
392.75	159.16
392.94	147.45
393.13	168.52
393.33	196.60
393.52	88.94
393.71	194.26
393.91	166.18
394.10	175.54
394.29	163.84
394.49	140.43
394.68	212.99
394.88	149.79
395.07	154.48
395.26	234.05
395.46	142.77
395.65	170.86
395.84	196.60
396.04	271.50
396.23	147.45
396.42	182.56
396.62	124.05
396.81	210.65
397.00	194.26
397.19	201.29
397.39	210.65
397.58	238.73
397.77	180.22
397.97	222.35
398.16	201.29
398.35	149.79
398.55	175.54
398.74	220.01
398.93	224.69
399.12	194.26
399.32	152.13
399.51	184.90
399.70	264.48
399.90	191.92
400.09	208.31
400.28	217.67
400.47	271.50
400.67	252.78
400.86	201.29
401.05	229.37
401.24	187.24
401.44	227.03
401.63	217.67
401.82	297.25
402.01	220.01
402.21	217.67
402.40	191.92
402.59	273.84
402.78	241.08
402.97	259.80
403.17	278.52
403.36	264.48
403.55	285.55
403.74	238.73
403.93	271.50
404.13	304.27
404.32	294.91
404.51	327.68
404.70	304.27
404.89	229.37
405.09	379.17
405.28	255.12
405.47	294.91
405.66	252.78
405.85	217.67
406.05	266.82
406.24	243.42
406.43	301.93
406.62	271.50
406.81	301.93
407.00	311.29
407.20	341.72
407.39	372.15
407.58	355.76
407.77	404.91
407.96	325.33
408.15	231.71
408.34	271.50
408.54	290.23
408.73	283.20
408.92	313.63
409.11	397.89
409.30	376.83
409.49	346.40
409.68	334.70
409.87	315.97
410.07	285.55
410.26	348.74
410.45	365.12
410.64	330.02
410.83	341.72
411.02	388.53
411.21	395.55
411.40	465.77
411.59	386.19
411.78	367.46
411.98	421.30
412.17	393.21
412.36	479.81
412.55	465.77
412.74	496.19
412.93	451.72
413.12	367.46
413.31	407.25
413.50	346.40
413.69	435.34
413.88	428.32
414.07	510.24
414.26	430.66
414.45	465.77
414.64	514.92
414.83	498.53
415.02	484.49
415.22	514.92
415.41	519.60
415.60	463.43
415.79	376.83
415.98	531.30
416.17	505.56
416.36	496.19
416.55	531.30
416.74	540.66
416.93	554.71
417.12	580.45
417.31	482.15
417.50	575.77
417.69	622.58
417.88	543.00
418.07	507.90
418.26	482.15
418.45	557.05
418.64	573.43
418.83	610.88
419.02	592.16
419.21	517.26
419.39	547.69
419.58	496.19
419.77	582.79
419.96	594.50
420.15	648.33
420.34	627.26
420.53	571.09
420.72	627.26
420.91	631.94
421.10	606.20
421.29	608.54
421.48	573.43
421.67	533.64
421.86	571.09
422.05	606.20
422.24	648.33
422.43	575.77
422.61	526.62
422.80	676.41
422.99	571.09
423.18	603.86
423.37	662.37
423.56	678.76
423.75	657.69
423.94	566.41
424.13	573.43
424.32	648.33
424.50	657.69
424.69	660.03
424.88	669.39
425.07	571.09
425.26	596.84
425.45	599.18
425.64	610.88
425.83	702.16
426.01	697.48
426.20	648.33
426.39	603.86
426.58	744.29
426.77	629.60
426.96	535.98
427.15	683.44
427.33	660.03
427.52	667.05
427.71	770.04
427.90	676.41
428.09	685.78
428.28	648.33
428.46	622.58
428.65	716.20
428.84	702.16
429.03	723.23
429.22	685.78
429.40	692.80
429.59	741.95
429.78	692.80
429.97	664.71
430.16	645.99
430.34	739.61
430.53	692.80
430.72	657.69
430.91	755.99
431.10	681.10
431.28	760.67
431.47	751.31
431.66	718.54
431.85	653.01
432.03	791.10
432.22	772.38
432.41	732.59
432.60	758.33
432.79	781.74
432.97	781.74
433.16	772.38
433.35	767.70
433.54	781.74
433.72	788.76
433.91	809.83
434.10	716.20
434.28	812.17
434.47	816.85
434.66	901.11
434.85	791.10
435.03	985.37
435.22	1226.44
435.41	1523.69
435.59	1535.39
435.78	1317.72
435.97	1097.71
436.16	959.62
436.34	866.00
436.53	894.08
436.72	894.08
436.90	854.30
437.09	840.25
437.28	861.32
437.46	802.80
437.65	821.53
437.84	926.85
438.02	816.85
438.21	842.59
438.40	835.57
438.58	887.06
438.77	910.47
438.96	866.00
439.14	868.34
439.33	828.55
439.52	940.90
439.70	873.02
439.89	922.17
440.08	896.43
440.26	910.47
440.45	938.55
440.63	973.66
440.82	901.11
441.01	957.28
441.19	915.15
441.38	929.19
441.57	910.47
441.75	959.62
441.94	1057.92
442.12	1048.56
442.31	1050.90
442.50	894.08
442.68	1055.58
442.87	994.73
443.05	1022.81
443.24	1076.65
443.43	1107.07
443.61	1076.65
443.80	1083.67
443.98	1062.60
444.17	1048.56
444.35	1053.24
444.54	1008.77
444.73	1095.37
444.91	1057.92
445.10	1048.56
445.28	1123.46
445.47	1043.88
445.65	966.64
445.84	1135.16
446.02	1071.97
446.21	973.66
446.39	990.05
446.58	1060.26
446.77	1001.75
446.95	1048.56
447.14	1060.26
447.32	1137.50
447.51	964.30
447.69	1198.35
447.88	1050.90
448.06	1095.37
448.25	957.28
448.43	1020.47
448.62	1018.13
448.80	1114.10
448.99	1174.95
449.17	1062.60
449.36	1060.26
449.54	1128.14
449.73	1146.86
449.91	1163.25
450.10	1076.65
450.28	1041.54
450.46	1193.67
450.65	1057.92
450.83	1123.46
451.02	1102.39
451.20	1118.78
451.39	1184.31
451.57	1076.65
451.76	1200.69
451.94	1200.69
452.13	1174.95
452.31	1238.14
452.49	1111.75
452.68	1088.35
452.86	1083.67
453.05	1181.97
453.23	1181.97
453.42	1177.29
453.60	1163.25
453.78	1303.68
453.97	1132.82
454.15	1181.97
454.34	1111.75
454.52	1214.74
454.70	1200.69
454.89	1170.27
455.07	1219.42
455.26	1158.57
455.44	1331.76
455.62	1170.27
455.81	1240.48
455.99	1228.78
456.17	1151.54
456.36	1207.72
456.54	1254.53
456.73	1165.59
456.91	1219.42
457.09	1266.23
457.28	1308.36
457.46	1242.82
457.64	1369.21
457.83	1310.70
458.01	1242.82
458.19	1334.11
458.38	1233.46
458.56	1294.32
458.74	1355.17
458.93	1336.45
459.11	1242.82
459.29	1259.21
459.48	1303.68
459.66	1273.25
459.84	1341.13
460.03	1373.89
460.21	1310.70
460.39	1308.36
460.57	1345.81
460.76	1341.13
460.94	1338.79
461.12	1411.34
461.31	1434.75
461.49	1324.74
461.67	1364.53
461.85	1299.00
462.04	1341.13
462.22	1825.62
462.40	1465.18
462.59	1350.49
462.77	1394.96
462.95	1490.92
463.13	1369.21
463.32	1476.88
463.50	1455.81
463.68	1430.07
463.86	1315.38
464.05	1376.24
464.23	1397.30
464.41	1425.39
464.59	1448.79
464.78	1488.58
464.96	1404.32
465.14	1439.43
465.32	1483.90
465.50	1427.73
465.69	1479.22
465.87	1490.92
466.05	1476.88
466.23	1497.94
466.41	1418.36
466.60	1420.71
466.78	1530.71
466.96	1519.01
467.14	1437.09
467.32	1507.30
467.51	1427.73
467.69	1533.05
467.87	1547.09
468.05	1453.47
468.23	1540.07
468.41	1504.96
468.60	1497.94
468.78	1469.86
468.96	1561.14
469.14	1572.84
469.32	1500.28
469.50	1483.90
469.69	1563.48
469.87	1533.05
470.05	1530.71
470.23	1577.52
470.41	1610.29
470.59	1577.52
470.77	1563.48
470.95	1645.40
471.14	1598.59
471.32	1575.18
471.50	1629.01
471.68	1645.40
471.86	1610.29
472.04	1589.22
472.22	1626.67
472.40	1610.29
472.58	1650.08
472.77	1680.50
472.95	1645.40
473.13	1626.67
473.31	1605.61
473.49	1591.56
473.67	1605.61
473.85	1664.12
474.03	1755.40
474.21	1792.85
474.39	1720.29
474.57	1781.15
474.75	1771.79
474.93	1764.76
475.12	1753.06
475.30	1748.38
475.48	1795.19
475.66	1739.02
475.84	1727.32
476.02	1771.79
476.20	1856.04
476.38	1842.00
476.56	1928.60
476.74	1832.64
476.92	1877.11
477.10	1781.15
477.28	1795.19
477.46	1867.75
477.64	1952.01
477.82	1942.64
478.00	1888.81
478.18	1881.79
478.36	1739.02
478.54	1980.09
478.72	1884.13
478.90	2052.65
479.08	2108.82
479.26	1959.03
479.44	2010.52
479.62	2076.06
479.80	2150.95
479.98	1930.94
480.16	2099.46
480.34	2078.40
480.52	2064.35
480.70	2139.25
480.88	2134.57
481.06	2031.58
481.24	2176.70
481.41	2188.40
481.59	2216.49
481.77	2314.79
481.95	2249.25
482.13	2331.17
482.31	2321.81
482.49	2340.54
482.67	2417.77
482.85	2385.01
483.03	2385.01
483.21	2356.92
483.39	2410.75
483.57	2366.28
483.74	2443.52
483.92	2450.54
484.10	2443.52
484.28	2525.44
484.46	2605.02
484.64	2609.70
484.82	2487.99
485.00	2586.29
485.18	2614.38
485.35	2614.38
485.53	2642.46
485.71	2647.15
485.89	2684.59
486.07	2803.96
486.25	2738.43
486.43	2715.02
486.61	2724.38
486.78	2869.50
486.96	2745.45
487.14	2822.69
487.32	2780.56
487.50	2869.50
487.68	2841.41
487.85	2846.09
488.03	3045.04
488.21	3045.04
488.39	2902.26
488.57	2935.03
488.75	2972.48
488.92	3185.47
489.10	2974.82
489.28	3183.13
489.46	3143.34
489.64	3066.10
489.81	3148.02
489.99	3021.63
490.17	3033.33
490.35	3213.56
490.53	3185.47
490.70	3084.83
490.88	3262.71
491.06	3251.00
491.24	3344.63
491.41	3328.24
491.59	3344.63
491.77	3281.43
491.95	3431.23
492.13	3389.10
492.30	3332.92
492.48	3335.26
492.66	3440.59
492.84	3309.52
493.01	3463.99
493.19	3499.10
493.37	3588.04
493.54	3492.08
493.72	3499.10
493.90	3548.25
494.08	3466.33
494.25	3536.55
494.43	3637.19
494.61	3548.25
494.79	3742.52
494.96	3538.89
495.14	3674.64
495.32	3613.79
495.49	3644.21
495.67	3709.75
495.85	3721.45
496.02	3618.47
496.20	3733.15
496.38	3786.99
496.55	3758.90
496.73	3840.82
496.91	3955.51
497.09	3763.58
497.26	3904.01
497.44	3960.19
497.62	3868.91
497.79	3957.85
497.97	3885.29
498.14	3915.72
498.32	3955.51
498.50	3981.25
498.67	3929.76
498.85	3948.48
499.03	3950.82
499.20	4021.04
499.38	3911.04
499.56	4107.64
499.73	4112.32
499.91	4086.58
500.08	4100.62
500.26	4107.64
500.44	4095.94
500.61	4109.98
500.79	4131.05
500.97	4152.11
501.14	4177.86
501.32	4184.88
501.49	4217.65
501.67	4124.02
501.84	4297.22
502.02	4262.12
502.20	4301.90
502.37	4292.54
502.55	4308.93
502.72	4381.48
502.90	4182.54
503.07	4152.11
503.25	4390.84
503.43	4161.47
503.60	4360.42
503.78	4409.57
503.95	4301.90
504.13	4482.13
504.30	4425.95
504.48	4468.08
504.65	4442.34
504.83	4503.19
505.01	4613.20
505.18	4315.95
505.36	4589.79
505.53	4388.50
505.71	4484.47
505.88	4486.81
506.06	4519.57
506.23	4561.70
506.41	4440.00
506.58	4561.70
506.76	4601.49
506.93	4636.60
507.11	4477.44
507.28	4564.04
507.46	4610.86
507.63	4725.54
507.81	4587.45
507.98	4521.92
508.16	4622.56
508.33	4599.15
508.50	4753.63
508.68	4660.01
508.85	4858.95
509.03	4709.16
509.20	4858.95
509.38	4828.53
509.55	5008.75
509.73	4791.08
509.90	4777.03
510.08	4788.74
510.25	4889.38
510.42	4877.68
510.60	4812.14
510.77	5004.07
510.95	4985.34
511.12	4877.68
511.30	4954.91
511.47	5085.98
511.64	5060.24
511.82	4983.00
511.99	4961.94
512.17	4903.42
512.34	4957.25
512.51	4903.42
512.69	5013.43
512.86	4985.34
513.04	5085.98
513.21	4957.25
513.38	5018.11
513.56	5093.01
513.73	5109.39
513.90	5032.15
514.08	5226.42
514.25	5172.58
514.43	5153.86
514.60	5081.30
514.77	5252.16
514.95	5249.82
515.12	5172.58
515.29	5219.39
515.47	5186.63
515.64	5200.67
515.81	5392.59
515.99	5397.28
516.16	5186.63
516.33	5350.46
516.51	5242.80
516.68	5418.34
516.85	5238.12
517.03	5273.23
517.20	5404.30
517.37	5371.53
517.54	5310.68
517.72	5317.70
517.89	5249.82
518.06	5336.42
518.24	5455.79
518.41	5399.62
518.58	5434.72
518.75	5472.17
518.93	5572.82
519.10	5537.71
519.27	5392.59
519.45	5575.16
519.62	5310.68
519.79	5495.58
519.96	5397.28
520.14	5617.29
520.31	5511.96
520.48	5664.10
520.65	5568.13
520.83	5650.05
521.00	5605.58
521.17	5500.26
521.34	5563.45
521.52	5692.18
521.69	5621.97
521.86	5575.16
522.03	5666.44
522.20	5598.56
522.38	5530.69
522.55	5837.30
522.72	5579.84
522.89	5776.44
523.07	5582.18
523.24	5743.67
523.41	5659.42
523.58	5776.44
523.75	5776.44
523.92	5734.31
524.10	5706.23
524.27	5947.30
524.44	5849.00
524.61	5926.24
524.78	5898.15
524.96	5846.66
525.13	5860.70
525.30	5973.05
525.47	5837.30
525.64	5970.71
525.81	5947.30
525.98	5849.00
526.16	6010.50
526.33	5858.36
526.50	6003.47
526.67	5944.96
526.84	5877.09
527.01	5980.07
527.18	6059.65
527.36	6047.94
527.53	6094.76
527.70	6050.28
527.87	6125.18
528.04	6069.01
528.21	6050.28
528.38	6211.78
528.55	6167.31
528.72	6230.51
528.89	5982.41
529.07	6118.16
529.24	6169.65
529.41	6289.02
529.58	6169.65
529.75	6026.88
529.92	6237.53
530.09	6015.18
530.26	6167.31
530.43	6169.65
530.60	5954.32
530.77	6314.77
530.94	6471.58
531.11	6179.01
531.28	6061.99
531.46	6108.80
531.63	6228.17
531.80	6120.50
531.97	6303.06
532.14	6230.51
532.31	6277.32
532.48	6300.72
532.65	6265.61
532.82	6216.46
532.99	6249.23
533.16	6244.55
533.33	6296.04
533.50	6581.59
533.67	6354.55
533.84	6429.45
534.01	6459.88
534.18	6279.66
534.35	6274.98
534.52	6340.51
534.69	6553.50
534.86	6396.68
535.03	6581.59
535.20	6392.00
535.37	6511.37
535.54	6473.92
535.71	6420.09
535.88	6436.47
536.05	6239.87
536.22	6471.58
536.38	6572.22
536.55	6565.20
536.72	6600.31
536.89	6347.53
537.06	6773.51
537.23	6679.89
537.40	6656.48
537.57	6537.12
537.74	6633.08
537.91	6679.89
538.08	6670.53
538.25	6736.06
538.42	6569.88
538.59	6841.39
538.75	6736.06
538.92	6462.22
539.09	6782.87
539.26	6665.85
539.43	6857.77
539.60	6799.26
539.77	6846.07
539.94	6892.88
540.11	6949.05
540.28	7087.14
540.44	6925.65
540.61	7056.72
540.78	7056.72
540.95	7171.40
541.12	7358.64
541.29	7508.44
541.46	7632.49
541.62	7520.14
541.79	7332.90
541.96	7604.40
542.13	7506.10
542.30	7433.54
542.47	7583.34
542.63	7466.31
542.80	7435.88
542.97	7655.89
543.14	7473.33
543.31	7515.46
543.48	7389.07
543.64	7487.37
543.81	7485.03
543.98	7435.88
544.15	7681.64
544.32	7428.86
544.48	7623.12
544.65	7414.82
544.82	7342.26
544.99	7438.22
545.16	7456.95
545.32	7562.27
545.49	8084.21
545.66	8887.01
545.83	9226.39
546.00	8985.32
546.16	8329.97
546.33	7850.16
546.50	7494.40
546.67	7496.74
546.83	7248.64
547.00	7288.43
547.17	7234.60
547.34	7321.20
547.50	7398.43
547.67	7236.94
547.84	7459.29
548.00	7339.92
548.17	7405.46
548.34	7241.62
548.51	7232.26
548.67	7393.75
548.84	7344.60
549.01	7199.49
549.18	7314.17
549.34	7197.15
549.51	7267.36
549.68	7281.41
549.84	7187.79
550.01	7236.94
550.18	7339.92
550.34	7344.60
550.51	7227.57
550.68	7300.13
550.84	7091.82
551.01	7265.02
551.18	7173.74
551.34	7272.04
551.51	7049.69
551.68	7173.74
551.84	7208.85
552.01	7300.13
552.18	7246.30
552.34	6995.86
552.51	7159.70
552.68	7204.17
552.84	7007.56
553.01	7157.36
553.18	7276.73
553.34	7300.13
553.51	7173.74
553.67	7253.32
553.84	7440.56
554.01	7215.87
554.17	7150.34
554.34	7346.94
554.51	7084.80
554.67	7307.15
554.84	7227.57
555.00	7119.91
555.17	7110.55
555.33	7215.87
555.50	7155.02
555.67	7009.90
555.83	7171.40
556.00	7297.79
556.16	7325.88
556.33	7119.91
556.50	7089.48
556.66	7234.60
556.83	7220.55
556.99	7187.79
557.16	7391.41
557.32	7229.91
557.49	7222.89
557.65	7077.78
557.82	7126.93
557.98	7185.44
558.15	7232.26
558.32	7199.49
558.48	7295.45
558.65	7307.15
558.81	7281.41
558.98	7260.34
559.14	7260.34
559.31	7126.93
559.47	7199.49
559.64	7133.95
559.80	7316.51
559.97	7241.62
560.13	7171.40
560.30	7229.91
560.46	7293.11
560.63	7227.57
560.79	7337.58
560.96	7243.96
561.12	7428.86
561.29	7349.28
561.45	7143.32
561.61	7164.38
561.78	7393.75
561.94	7293.11
562.11	7148.00
562.27	7302.47
562.44	7229.91
562.60	7260.34
562.77	7070.76
562.93	7204.17
563.10	7506.10
563.26	7295.45
563.42	7398.43
563.59	7396.09
563.75	7339.92
563.92	7222.89
564.08	7199.49
564.24	7330.56
564.41	7325.88
564.57	7246.30
564.74	7379.71
564.90	7267.36
565.07	7382.05
565.23	7068.42
565.39	7091.82
565.56	7250.98
565.72	7258.00
565.88	7192.47
566.05	7370.35
566.21	7297.79
566.38	7321.20
566.54	7243.96
566.70	7595.04
566.87	7337.58
567.03	7358.64
567.19	7276.73
567.36	7389.07
567.52	7218.21
567.68	7400.77
567.85	7234.60
568.01	7407.80
568.17	7353.96
568.34	7265.02
568.50	7438.22
568.66	7332.90
568.83	7412.48
568.99	7255.66
569.15	7412.48
569.32	7248.64
569.48	7379.71
569.64	7431.20
569.81	7372.69
569.97	7325.88
570.13	7302.47
570.30	7309.49
570.46	7243.96
570.62	7379.71
570.78	7243.96
570.95	7122.25
571.11	7330.56
571.27	7433.54
571.43	7101.19
571.60	7513.12
571.76	7335.24
571.92	7510.78
572.09	7459.29
572.25	7581.00
572.41	7365.67
572.57	7286.09
572.74	7382.05
572.90	7353.96
573.06	7339.92
573.22	7630.15
573.38	7400.77
573.55	7337.58
573.71	7653.55
573.87	7459.29
574.03	7236.94
574.20	7379.71
574.36	7332.90
574.52	7412.48
574.68	7473.33
574.84	7283.75
575.01	7468.65
575.17	7426.52
575.33	7470.99
575.49	7365.67
575.65	7328.22
575.82	7487.37
575.98	7405.46
576.14	7351.62
576.30	7548.23
576.46	7510.78
576.62	7641.85
576.79	7801.01
576.95	7761.22
577.11	7529.50
577.27	7470.99
577.43	7569.29
577.59	7337.58
577.75	7389.07
577.92	7386.73
578.08	7412.48
578.24	7246.30
578.40	7541.21
578.56	7683.98
578.72	7850.16
578.88	7714.41
579.04	7770.58
579.21	7548.23
579.37	7641.85
579.53	7438.22
579.69	7339.92
579.85	7571.63
580.01	7506.10
580.17	7627.81
580.33	7424.18
580.49	7637.17
580.65	7606.74
580.82	7562.27
580.98	7433.54
581.14	7634.83
581.30	7564.61
581.46	7321.20
581.62	7583.34
581.78	7735.47
581.94	7595.04
582.10	7473.33
582.26	7452.27
582.42	7515.46
582.58	7737.81
582.74	7466.31
582.90	7517.80
583.06	7768.24
583.22	7470.99
583.38	7578.65
583.54	7365.67
583.70	7536.52
583.86	7646.53
584.02	7478.01
584.18	7623.12
584.34	7527.16
584.50	7475.67
584.66	7585.68
584.82	7487.37
584.98	7513.12
585.14	7552.91
585.30	7592.70
585.46	7449.93
585.62	7353.96
585.78	7646.53
585.94	7573.97
586.10	7400.77
586.26	7585.68
586.42	7583.34
586.58	7356.30
586.74	7538.87
586.90	7758.88
587.06	7648.87
587.22	7775.26
587.38	7723.77
587.54	7812.71
587.70	7566.95
587.86	7676.96
588.02	7538.87
588.18	7463.97
588.34	7421.84
588.49	7489.71
588.65	7403.11
588.81	7564.61
588.97	7562.27
589.13	7564.61
589.29	7470.99
589.45	7604.40
589.61	7485.03
589.77	7599.72
589.93	7468.65
590.08	7442.90
590.24	7581.00
590.40	7655.89
590.56	7398.43
590.72	7452.27
590.88	7391.41
591.04	7391.41
591.20	7588.02
591.35	7485.03
591.51	7634.83
591.67	7559.93
591.83	7604.40
591.99	7616.10
592.15	7611.42
592.31	7524.82
592.46	7721.43
592.62	7637.17
592.78	7637.17
592.94	7733.13
593.10	7756.54
593.26	7655.89
593.41	7564.61
593.57	7632.49
593.73	7683.98
593.89	7562.27
594.05	7552.91
594.20	7365.67
594.36	7403.11
594.52	7321.20
594.68	7468.65
594.84	7478.01
594.99	7410.14
595.15	7510.78
595.31	7503.76
595.47	7676.96
595.62	7698.02
595.78	7452.27
595.94	7356.30
596.10	7756.54
596.25	7449.93
596.41	7627.81
596.57	7438.22
596.73	7557.59
596.88	7440.56
597.04	7606.74
597.20	7578.65
597.36	7424.18
597.51	7510.78
597.67	7550.57
597.83	7543.55
597.99	7681.64
598.14	7431.20
598.30	7566.95
598.46	7515.46
598.61	7796.32
598.77	7522.48
598.93	7569.29
599.09	7487.37
599.24	7662.91
599.40	7393.75
599.56	7630.15
599.71	7625.47
599.87	7688.66
600.03	7321.20
600.18	7559.93
600.34	7543.55
600.50	7623.12
600.65	7557.59
