SpectraSuite Data File
++++++++++++++++++++++++++++++++++++
Date: Fri Oct 04 11:40:05 GMT-05:00 2013
User: price-jones
Dark Spectrum Present: No
Reference Spectrum Present: No
Number of Sampled Component Spectra: 1
Spectrometers: USB2+H05261
Integration Time (usec): 100000 (USB2+H05261)
Spectra Averaged: 1 (USB2+H05261)
Boxcar Smoothing: 0 (USB2+H05261)
Correct for Electrical Dark: No (USB2+H05261)
Strobe/Lamp Enabled: No (USB2+H05261)
Correct for Detector Non-linearity: No (USB2+H05261)
Correct for Stray Light: No (USB2+H05261)
Number of Pixels in Processed Spectrum: 2048
>>>>>Begin Processed Spectral Data<<<<<
365.73	86.60
365.92	86.60
366.12	86.60
366.32	0.00
366.52	0.00
366.72	0.00
366.91	0.00
367.11	0.00
367.31	0.00
367.51	2.34
367.70	0.00
367.90	0.00
368.10	0.00
368.30	0.00
368.49	0.00
368.69	0.00
368.89	0.00
369.09	0.00
369.28	0.00
369.48	0.00
369.68	0.00
369.87	0.00
370.07	65.54
370.27	0.00
370.47	177.88
370.66	510.24
370.86	472.79
371.06	603.86
371.25	667.05
371.45	507.90
371.65	559.39
371.84	528.96
372.04	538.32
372.24	664.71
372.44	601.52
372.63	585.13
372.83	582.79
373.03	575.77
373.22	425.98
373.42	486.83
373.62	547.69
373.81	720.88
374.01	692.80
374.21	573.43
374.40	550.03
374.60	608.54
374.79	627.26
374.99	718.54
375.19	793.44
375.38	847.27
375.58	683.44
375.78	645.99
375.97	711.52
376.17	779.40
376.37	718.54
376.56	751.31
376.76	887.06
376.95	905.79
377.15	870.68
377.35	926.85
377.54	891.74
377.74	891.74
377.93	945.58
378.13	926.85
378.33	983.02
378.52	781.74
378.72	868.34
378.91	772.38
379.11	840.25
379.31	741.95
379.50	718.54
379.70	844.93
379.89	856.64
380.09	947.92
380.28	922.17
380.48	873.02
380.68	837.91
380.87	938.55
381.07	807.48
381.26	711.52
381.46	674.07
381.65	704.50
381.85	713.86
382.04	615.56
382.24	690.46
382.43	671.73
382.63	587.47
382.83	655.35
383.02	571.09
383.22	554.71
383.41	608.54
383.61	657.69
383.80	608.54
384.00	741.95
384.19	779.40
384.39	929.19
384.58	882.38
384.78	875.36
384.97	835.57
385.17	847.27
385.36	823.87
385.56	788.76
385.75	844.93
385.95	954.94
386.14	903.45
386.34	945.58
386.53	882.38
386.72	889.40
386.92	779.40
387.11	891.74
387.31	954.94
387.50	884.72
387.70	842.59
387.89	926.85
388.09	898.77
388.28	835.57
388.48	971.32
388.67	987.71
388.86	1100.05
389.06	1064.94
389.25	1200.69
389.45	1163.25
389.64	1191.33
389.84	1203.04
390.03	1160.91
390.22	1144.52
390.42	1172.61
390.61	1266.23
390.81	1287.29
391.00	1313.04
391.19	1226.44
391.39	1252.19
391.58	1301.34
391.78	1083.67
391.97	1137.50
392.16	1025.15
392.36	961.96
392.55	826.21
392.75	727.91
392.94	566.41
393.13	568.75
393.33	629.60
393.52	662.37
393.71	950.26
393.91	1069.62
394.10	1034.52
394.29	1043.88
394.49	1299.00
394.68	1390.28
394.88	1313.04
395.07	1418.36
395.26	1324.74
395.46	1369.21
395.65	1214.74
395.84	1214.74
396.04	1069.62
396.23	842.59
396.42	681.10
396.62	650.67
396.81	828.55
397.00	987.71
397.19	1135.16
397.39	1301.34
397.58	1486.24
397.77	1533.05
397.97	1661.78
398.16	1689.87
398.35	1654.76
398.55	1802.21
398.74	1778.81
398.93	1799.87
399.12	1799.87
399.32	1741.36
399.51	1713.27
399.70	1856.04
399.90	1874.77
400.09	1863.07
400.28	1877.11
400.47	1729.66
400.67	1952.01
400.86	1961.37
401.05	1987.11
401.24	2064.35
401.44	2050.31
401.63	1928.60
401.82	2071.37
402.01	2019.88
402.21	2097.12
402.40	2052.65
402.59	2097.12
402.78	2003.50
402.97	1888.81
403.17	1944.99
403.36	2054.99
403.55	2113.50
403.74	2160.31
403.93	2291.38
404.13	2380.32
404.32	2642.46
404.51	2724.38
404.70	2502.03
404.89	2155.63
405.09	2167.34
405.28	2087.76
405.47	1937.96
405.66	1937.96
405.85	2040.95
406.05	1940.30
406.24	1959.03
406.43	2017.54
406.62	2115.84
406.81	2078.40
407.00	1991.80
407.20	2005.84
407.39	2024.56
407.58	2188.40
407.77	2214.15
407.96	2186.06
408.15	2214.15
408.34	2143.93
408.54	2312.45
408.73	2314.79
408.92	2251.60
409.11	2291.38
409.30	2115.84
409.49	2045.63
409.68	1996.48
409.87	1937.96
410.07	1940.30
410.26	2019.88
410.45	2186.06
410.64	2363.94
410.83	2289.04
411.02	2380.32
411.21	2417.77
411.40	2492.67
411.59	2443.52
411.78	2429.48
411.98	2389.69
412.17	2377.98
412.36	2293.72
412.55	2347.56
412.74	2352.24
412.93	2340.54
413.12	2303.09
413.31	2466.92
413.50	2445.86
413.69	2583.95
413.88	2471.61
414.07	2490.33
414.26	2408.41
414.45	2385.01
414.64	2560.55
414.83	2555.86
415.02	2429.48
415.22	2455.22
415.41	2457.56
415.60	2607.36
415.79	2644.81
415.98	2733.75
416.17	2785.24
416.36	2670.55
416.55	2597.99
416.74	2600.34
416.93	2516.08
417.12	2548.84
417.31	2532.46
417.50	2551.18
417.69	2658.85
417.88	2516.08
418.07	2654.17
418.26	2658.85
418.45	2520.76
418.64	2583.95
418.83	2715.02
419.02	2778.22
419.21	2640.12
419.39	2672.89
419.58	2424.80
419.77	2441.18
419.96	2607.36
420.15	2724.38
420.34	2792.26
420.53	2771.19
420.72	2993.55
420.91	2909.29
421.10	2888.22
421.29	2951.42
421.48	2700.98
421.67	2904.60
421.86	2794.60
422.05	2583.95
422.24	2356.92
422.43	2511.39
422.61	2558.21
422.80	2726.72
422.99	2775.88
423.18	2649.49
423.37	2609.70
423.56	2640.12
423.75	2651.83
423.94	2665.87
424.13	2534.80
424.32	2637.78
424.50	2668.21
424.69	2574.59
424.88	2684.59
425.07	2476.29
425.26	2640.12
425.45	2539.48
425.64	2448.20
425.83	2544.16
426.01	2506.71
426.20	2616.72
426.39	2588.63
426.58	2544.16
426.77	2401.39
426.96	2275.00
427.15	2429.48
427.33	2546.50
427.52	2593.31
427.71	2602.68
427.90	2630.76
428.09	2750.13
428.28	2518.42
428.46	2499.69
428.65	2431.82
428.84	2555.86
429.03	2583.95
429.22	2347.56
429.40	2237.55
429.59	2188.40
429.78	1984.77
429.97	1851.36
430.16	1914.56
430.34	2029.24
430.53	2022.22
430.72	2052.65
430.91	2162.66
431.10	2342.88
431.28	2860.13
431.47	3040.36
431.66	3115.25
431.85	2848.43
432.03	2745.45
432.22	2656.51
432.41	2597.99
432.60	2771.19
432.79	2986.52
432.97	3133.98
433.16	2995.89
433.35	2850.77
433.54	2548.84
433.72	2424.80
433.91	2495.01
434.10	2717.36
434.28	2853.11
434.47	2988.86
434.66	3007.59
434.85	2972.48
435.03	3204.19
435.22	4159.13
435.41	5984.75
435.59	6656.48
435.78	5659.42
435.97	4503.19
436.16	3669.96
436.34	3398.46
436.53	3265.05
436.72	3173.77
436.90	2911.63
437.09	3059.08
437.28	2972.48
437.46	3054.40
437.65	3068.44
437.84	2979.50
438.02	2644.81
438.21	2637.78
438.40	2656.51
438.58	2857.79
438.77	3023.97
438.96	3038.02
439.14	3098.87
439.33	3208.87
439.52	3084.83
439.70	3157.38
439.89	3075.46
440.08	3014.61
440.26	3005.25
440.45	3164.40
440.63	3302.50
440.82	3407.82
441.01	3529.53
441.19	3452.29
441.38	3463.99
441.57	3475.70
441.75	3501.44
441.94	3758.90
442.12	3562.30
442.31	3466.33
442.50	3625.49
442.68	3403.14
442.87	3449.95
443.05	3555.27
443.24	3576.34
443.43	3684.00
443.61	3698.05
443.80	3758.90
443.98	3550.59
444.17	3501.44
444.35	3889.97
444.54	3812.73
444.73	3789.33
444.91	3737.84
445.10	3438.25
445.28	3323.56
445.47	3368.03
445.65	3300.16
445.84	3288.45
446.02	3531.87
446.21	3503.78
446.39	3400.80
446.58	3646.55
446.77	3543.57
446.95	3590.38
447.14	3737.84
447.32	3817.41
447.51	3693.37
447.69	3655.92
447.88	3604.42
448.06	3674.64
448.25	3475.70
448.43	3740.18
448.62	3604.42
448.80	3595.06
448.99	3606.77
449.17	3740.18
449.36	3681.66
449.54	3852.52
449.73	3911.04
449.91	4007.00
450.10	4011.68
450.28	4121.68
450.46	4072.53
450.65	4079.55
450.83	3946.14
451.02	3922.74
451.20	3655.92
451.39	3892.31
451.57	3878.27
451.76	3920.40
451.94	3953.16
452.13	3789.33
452.31	3665.28
452.49	3417.18
452.68	3435.91
452.86	3503.78
453.05	3599.74
453.23	3604.42
453.42	3679.32
453.60	3602.08
453.78	3768.26
453.97	3934.44
454.15	3716.77
454.34	3808.05
454.52	3751.88
454.70	3676.98
454.89	3791.67
455.07	3634.85
455.26	3768.26
455.44	3906.35
455.62	4016.36
455.81	3997.64
455.99	3871.25
456.17	3871.25
456.36	3873.59
456.54	4098.28
456.73	3976.57
456.91	4056.15
457.09	4198.92
457.28	4205.94
457.46	3999.98
457.64	4095.94
457.83	3913.38
458.01	3796.35
458.19	3925.08
458.38	3896.99
458.56	4070.19
458.74	4138.07
458.93	3976.57
459.11	3981.25
459.29	3885.29
459.48	4100.62
459.66	3960.19
459.84	4021.04
460.03	4269.14
460.21	4119.34
460.39	4049.13
460.57	4168.49
460.76	4154.45
460.94	4121.68
461.12	4215.30
461.31	4079.55
461.49	4056.15
461.67	4102.96
461.85	4208.28
462.04	4152.11
462.22	4648.30
462.40	4081.89
462.59	4198.92
462.77	4201.26
462.95	4290.20
463.13	4084.23
463.32	4152.11
463.50	4007.00
463.68	4191.90
463.86	4044.45
464.05	3981.25
464.23	3960.19
464.41	3817.41
464.59	3990.61
464.78	4060.83
464.96	4177.86
465.14	3936.78
465.32	3995.29
465.50	4077.21
465.69	4222.33
465.87	4124.02
466.05	4138.07
466.23	3929.76
466.41	3726.13
466.60	3922.74
466.78	3946.14
466.96	3978.91
467.14	3983.59
467.32	4051.47
467.51	4156.79
467.69	3995.29
467.87	3981.25
468.05	3911.04
468.23	4086.58
468.41	3960.19
468.60	3864.22
468.78	4039.76
468.96	3999.98
469.14	4065.51
469.32	4194.24
469.50	3967.21
469.69	4018.70
469.87	3866.56
470.05	3976.57
470.23	3772.94
470.41	4009.34
470.59	3988.27
470.77	3920.40
470.95	4102.96
471.14	4025.72
471.32	4091.26
471.50	4425.95
471.68	4301.90
471.86	4400.21
472.04	4346.37
472.22	4477.44
472.40	4166.15
472.58	4175.52
472.77	4119.34
472.95	4269.14
473.13	4418.93
473.31	4205.94
473.49	4257.43
473.67	4409.57
473.85	4386.16
474.03	4437.66
474.21	4484.47
474.39	4575.75
474.57	4547.66
474.75	4587.45
474.93	4451.70
475.12	4264.46
475.30	4266.80
475.48	4313.61
475.66	4463.40
475.84	4381.48
476.02	4259.78
476.20	4245.73
476.38	4444.68
476.56	4454.04
476.74	4606.17
476.92	4486.81
477.10	4599.15
477.28	4770.01
477.46	4758.31
477.64	4819.16
477.82	4945.55
478.00	4910.44
478.18	4858.95
478.36	4734.90
478.54	4781.71
478.72	4807.46
478.90	4922.15
479.08	4978.32
479.26	5060.24
479.44	5078.96
479.62	5114.07
479.80	4990.02
479.98	5083.64
480.16	4901.08
480.34	5170.24
480.52	4994.70
480.70	5203.01
480.88	5060.24
481.06	5289.61
481.24	5240.46
481.41	5547.07
481.59	5453.45
481.77	5444.09
481.95	5366.85
482.13	5418.34
482.31	5401.96
482.49	5411.32
482.67	5542.39
482.85	5568.13
483.03	5722.61
483.21	5565.79
483.39	5748.36
483.57	5689.84
483.74	5598.56
483.92	5586.86
484.10	5706.23
484.28	5891.13
484.46	5839.64
484.64	6136.88
484.82	5818.57
485.00	5888.79
485.18	5710.91
485.35	5638.35
485.53	5210.03
485.71	4795.76
485.89	4777.03
486.07	4833.21
486.25	5275.57
486.43	5600.90
486.61	5636.01
486.78	5685.16
486.96	5839.64
487.14	5947.30
487.32	5984.75
487.50	6282.00
487.68	6429.45
487.85	6494.99
488.03	6576.91
488.21	6473.92
488.39	6314.77
488.57	6104.12
488.75	6141.57
488.92	6462.22
489.10	6644.78
489.28	6984.16
489.46	7119.91
489.64	7000.54
489.81	7035.65
489.99	6864.79
490.17	7080.12
490.35	7215.87
490.53	7033.31
490.70	6729.04
490.88	6792.23
491.06	6885.86
491.24	6775.85
491.41	6871.81
491.59	6597.97
491.77	6221.14
491.95	6389.66
492.13	6780.53
492.30	6876.49
492.48	7068.42
492.66	7194.81
492.84	7293.11
493.01	7206.51
493.19	7206.51
493.37	7103.53
493.54	6904.58
493.72	6995.86
493.90	7393.75
494.08	7321.20
494.25	7442.90
494.43	7672.28
494.61	7438.22
494.79	7932.08
494.96	7616.10
495.14	7522.48
495.32	7190.13
495.49	7225.23
495.67	7297.79
495.85	7726.11
496.02	7566.95
496.20	7700.36
496.38	7742.49
496.55	7651.21
496.73	7592.70
496.91	7744.83
497.09	7761.22
497.26	7918.03
497.44	7707.38
497.62	7588.02
497.79	7513.12
497.97	7119.91
498.14	7351.62
498.32	7218.21
498.50	7683.98
498.67	7892.29
498.85	7665.25
499.03	7918.03
499.20	7882.92
499.38	7756.54
499.56	7971.86
499.73	7826.75
499.91	7651.21
500.08	7506.10
500.26	7272.04
500.44	7358.64
500.61	7564.61
500.79	7604.40
500.97	7435.88
501.14	7307.15
501.32	7105.87
501.49	7290.77
501.67	7311.83
501.84	7470.99
502.02	7616.10
502.20	7777.60
502.37	7648.87
502.55	7510.78
502.72	7536.52
502.90	7695.68
503.07	7691.00
503.25	7543.55
503.43	7225.23
503.60	7056.72
503.78	7066.08
503.95	7204.17
504.13	7400.77
504.30	7786.96
504.48	7819.73
504.65	7655.89
504.83	7744.83
505.01	7976.55
505.18	7960.16
505.36	8074.85
505.53	8231.66
505.71	8093.57
505.88	8131.02
506.06	8011.65
506.23	7810.37
506.41	7616.10
506.58	7908.67
506.76	7791.64
506.93	7730.79
507.11	7576.31
507.28	7786.96
507.46	7653.55
507.63	7810.37
507.81	7590.36
507.98	7421.84
508.16	7749.51
508.33	7880.58
508.50	7962.50
508.68	8147.40
508.85	8135.70
509.03	8280.82
509.20	8149.75
509.38	8128.68
509.55	7948.46
509.73	7798.66
509.90	8109.96
510.08	8262.09
510.25	8231.66
510.42	8025.70
510.60	7988.25
510.77	8301.88
510.95	8170.81
511.12	8252.73
511.30	8297.20
511.47	8400.18
511.64	8552.32
511.82	8201.24
511.99	8180.17
512.17	7969.52
512.34	8002.29
512.51	7817.39
512.69	7960.16
512.86	8131.02
513.04	8049.10
513.21	8198.90
513.38	8191.88
513.56	7913.35
513.73	7616.10
513.90	7796.32
514.08	7925.05
514.25	7784.62
514.43	7960.16
514.60	8182.51
514.77	8028.04
514.95	7873.56
515.12	8184.85
515.29	8051.44
515.47	8152.09
515.64	8161.45
515.81	8245.71
515.99	8138.04
516.16	7751.85
516.33	7204.17
516.51	6740.74
516.68	6558.18
516.85	6490.31
517.03	6642.44
517.20	7150.34
517.37	7660.57
517.54	7953.14
517.72	8074.85
517.89	7646.53
518.06	6677.55
518.24	6808.62
518.41	7225.23
518.58	7552.91
518.75	7573.97
518.93	7843.14
519.10	7730.79
519.27	7791.64
519.45	7838.45
519.62	8257.41
519.79	8411.89
519.96	8154.43
520.14	8035.06
520.31	7976.55
520.48	7765.90
520.65	7824.41
520.83	8156.77
521.00	8294.86
521.17	8404.86
521.34	8154.43
521.52	8142.72
521.69	8299.54
521.86	8442.31
522.03	8362.73
522.20	8072.51
522.38	7878.24
522.55	7651.21
522.72	7840.79
522.89	7906.33
523.07	7999.95
523.24	8154.43
523.41	8219.96
523.58	8243.37
523.75	8587.43
523.92	8411.89
524.10	8603.81
524.27	8571.04
524.44	8409.54
524.61	8425.93
524.78	8222.30
524.96	8140.38
525.13	8416.57
525.30	8365.07
525.47	8561.68
525.64	8493.80
525.81	8369.76
525.98	7932.08
526.16	7599.72
526.33	7255.66
526.50	7194.81
526.67	6935.01
526.84	7171.40
527.01	7524.82
527.18	7772.92
527.36	8044.42
527.53	8231.66
527.70	8423.59
527.87	8203.58
528.04	8051.44
528.21	8283.16
528.38	8423.59
528.55	8554.66
528.72	8711.47
528.89	8734.88
529.07	8781.69
529.24	8486.78
529.41	8409.54
529.58	8091.23
529.75	8004.63
529.92	8301.88
530.09	8311.24
530.26	8655.30
530.43	8667.00
530.60	8737.22
530.77	8641.26
530.94	8723.18
531.11	8503.17
531.28	8376.78
531.46	8416.57
531.63	8437.63
531.80	8482.10
531.97	8243.37
532.14	8304.22
532.31	7845.48
532.48	7735.47
532.65	7658.23
532.82	8058.46
532.99	8107.62
533.16	8463.38
533.33	8655.30
533.50	8571.04
533.67	8423.59
533.84	8163.79
534.01	8198.90
534.18	8212.94
534.35	8372.10
534.52	8231.66
534.69	8325.29
534.86	8468.06
535.03	8423.59
535.20	8699.77
535.37	8641.26
535.54	8683.39
535.71	8854.25
535.88	8737.22
536.05	8461.04
536.22	8189.53
536.38	8362.73
536.55	8299.54
536.72	8145.06
536.89	8072.51
537.06	8332.31
537.23	8498.49
537.40	8638.92
537.57	8772.33
537.74	8875.31
537.91	8697.43
538.08	8833.18
538.25	8830.84
538.42	8847.22
538.59	8669.34
538.75	8769.99
538.92	8549.98
539.09	8477.42
539.26	8800.41
539.43	8725.52
539.60	8627.21
539.77	8901.06
539.94	8882.33
540.11	8954.89
540.28	8837.86
540.44	9071.92
540.61	9210.01
540.78	9413.63
540.95	9902.81
541.12	10228.14
541.29	10750.08
541.46	11096.48
541.62	11164.36
541.79	10909.24
541.96	10633.05
542.13	10204.74
542.30	10326.44
542.47	10389.64
542.63	10080.69
542.80	9811.53
542.97	9919.19
543.14	9818.55
543.31	9792.80
543.48	9893.44
543.64	10373.25
543.81	10487.94
543.98	10326.44
544.15	10286.65
544.32	10101.75
544.48	10001.11
544.65	10076.01
544.82	10108.77
544.99	10061.96
545.16	10368.57
545.32	10024.51
545.49	11613.74
545.66	14113.43
545.83	16987.61
546.00	15775.21
546.16	12945.50
546.33	11660.55
546.50	10670.50
546.67	10312.40
546.83	9980.04
547.00	9680.46
547.17	9493.21
547.34	9427.68
547.50	9345.76
547.67	9160.86
547.84	9078.94
548.00	9259.16
548.17	9177.24
548.34	9263.84
548.51	9259.16
548.67	9383.21
548.84	9153.84
549.01	8858.93
549.18	9020.42
549.34	9050.85
549.51	8924.46
549.68	8844.88
549.84	8826.16
550.01	8638.92
550.18	8819.14
550.34	8674.03
550.51	8664.66
550.68	8592.11
550.84	8226.98
551.01	8341.67
551.18	8374.44
551.34	8236.35
551.51	8374.44
551.68	8615.51
551.84	8777.01
552.01	8365.07
552.18	8346.35
552.34	8051.44
552.51	8236.35
552.68	7793.98
552.84	8046.76
553.01	8184.85
553.18	8067.83
553.34	8212.94
553.51	8072.51
553.67	8210.60
553.84	8336.99
554.01	8219.96
554.17	7894.63
554.34	8053.78
554.51	8241.03
554.67	8332.31
554.84	7969.52
555.00	7976.55
555.17	8039.74
555.33	8074.85
555.50	7805.69
555.67	8084.21
555.83	7903.99
556.00	7742.49
556.16	7681.64
556.33	7672.28
556.50	7686.32
556.66	7632.49
556.83	7639.51
556.99	7447.58
557.16	7454.61
557.32	7662.91
557.49	7726.11
557.65	7920.37
557.82	7630.15
557.98	7777.60
558.15	7566.95
558.32	7332.90
558.48	7295.45
558.65	7243.96
558.81	7276.73
558.98	7267.36
559.14	7258.00
559.31	7473.33
559.47	7337.58
559.64	7499.08
559.80	7433.54
559.97	7468.65
560.13	7302.47
560.30	7440.56
560.46	7665.25
560.63	7688.66
560.79	7719.09
560.96	7566.95
561.12	7463.97
561.29	7187.79
561.45	7215.87
561.61	7265.02
561.78	7398.43
561.94	7576.31
562.11	7328.22
562.27	7274.38
562.44	7316.51
562.60	7508.44
562.77	7545.89
562.93	7548.23
563.10	7639.51
563.26	7564.61
563.42	7360.98
563.59	7323.54
563.75	7459.29
563.92	7389.07
564.08	7145.66
564.24	7360.98
564.41	7248.64
564.57	7379.71
564.74	7307.15
564.90	7117.57
565.07	7204.17
565.23	7243.96
565.39	6967.77
565.56	7002.88
565.72	6787.55
565.88	6906.92
566.05	7005.22
566.21	7014.59
566.38	7094.16
566.54	7206.51
566.70	7318.86
566.87	7335.24
567.03	7391.41
567.19	7286.09
567.36	7162.04
567.52	6991.18
567.68	7122.25
567.85	6853.09
568.01	6832.02
568.17	6712.66
568.34	6626.06
568.50	6759.47
568.66	6612.01
568.83	6731.38
568.99	6544.14
569.15	6911.60
569.32	6738.40
569.48	6712.66
569.64	6663.51
569.81	6658.82
569.97	6707.98
570.13	6630.74
570.30	6675.21
570.46	6576.91
570.62	6590.95
570.78	6408.39
570.95	6593.29
571.11	6600.31
571.27	6539.46
571.43	6637.76
571.60	6782.87
571.76	6647.12
571.92	6647.12
572.09	6864.79
572.25	6806.28
572.41	6850.75
572.57	6841.39
572.74	6995.86
572.90	6766.49
573.06	6817.98
573.22	6796.92
573.38	6925.65
573.55	6717.34
573.71	6930.33
573.87	6799.26
574.03	6633.08
574.20	6642.44
574.36	6452.86
574.52	6513.71
574.68	6539.46
574.84	6457.54
575.01	6401.37
575.17	6363.92
575.33	6375.62
575.49	6656.48
575.65	6677.55
575.82	6572.22
575.98	6380.30
576.14	6485.62
576.30	6705.63
576.46	7407.80
576.62	7707.38
576.79	8131.02
576.95	7417.16
577.11	7070.76
577.27	6932.67
577.43	6825.00
577.59	6607.33
577.75	6684.57
577.92	6263.27
578.08	6356.90
578.24	6319.45
578.40	6544.14
578.56	7133.95
578.72	7494.40
578.88	7896.97
579.04	7412.48
579.21	7110.55
579.37	6846.07
579.53	6794.58
579.69	6906.92
579.85	6913.94
580.01	7169.06
580.17	6970.12
580.33	6888.20
580.49	6867.13
580.65	6773.51
580.82	6857.77
580.98	6743.08
581.14	6813.30
581.30	6972.46
581.46	6789.89
581.62	6960.75
581.78	7000.54
581.94	6998.20
582.10	6874.15
582.26	6993.52
582.42	7117.57
582.58	6981.82
582.74	7042.67
582.90	7169.06
583.06	7119.91
583.22	6881.18
583.38	6998.20
583.54	7019.27
583.70	6888.20
583.86	7119.91
584.02	6972.46
584.18	6930.33
584.34	6930.33
584.50	6850.75
584.66	6885.86
584.82	6780.53
584.98	6670.53
585.14	6738.40
585.30	6817.98
585.46	6551.16
585.62	6497.33
585.78	6537.12
585.94	6602.65
586.10	6487.96
586.26	6579.25
586.42	6750.10
586.58	6951.39
586.74	6937.35
586.90	7126.93
587.06	7052.03
587.22	7225.23
587.38	7002.88
587.54	6710.32
587.70	6436.47
587.86	6331.15
588.02	6230.51
588.18	5853.68
588.34	5640.69
588.49	5336.42
588.65	5085.98
588.81	4891.72
588.97	4929.17
589.13	4809.80
589.29	4933.85
589.45	5013.43
589.61	4945.55
589.77	5078.96
589.93	5303.65
590.08	5275.57
590.24	5537.71
590.40	5844.32
590.56	5717.93
590.72	5584.52
590.88	5753.04
591.04	5734.31
591.20	5724.95
591.35	5568.13
591.51	5497.92
591.67	5572.82
591.83	5542.39
591.99	5479.19
592.15	5767.08
592.31	5973.05
592.46	6209.44
592.62	6129.86
592.78	6094.76
592.94	6157.95
593.10	6047.94
593.26	6174.33
593.41	6286.68
593.57	6080.71
593.73	5788.14
593.89	5598.56
594.05	5366.85
594.20	5385.57
594.36	5331.74
594.52	5181.95
594.68	5153.86
594.84	5289.61
594.99	5469.83
595.15	5636.01
595.31	5598.56
595.47	5556.43
595.62	5551.75
595.78	5633.67
595.94	5694.52
596.10	5724.95
596.25	5722.61
596.41	5542.39
596.57	5427.70
596.73	5668.78
596.88	5561.11
597.04	5666.44
597.20	5603.24
