SpectraSuite Data File
++++++++++++++++++++++++++++++++++++
Date: Fri Oct 04 11:39:58 GMT-05:00 2013
User: price-jones
Dark Spectrum Present: No
Reference Spectrum Present: No
Number of Sampled Component Spectra: 1
Spectrometers: USB2+H05261
Integration Time (usec): 100000 (USB2+H05261)
Spectra Averaged: 1 (USB2+H05261)
Boxcar Smoothing: 0 (USB2+H05261)
Correct for Electrical Dark: No (USB2+H05261)
Strobe/Lamp Enabled: No (USB2+H05261)
Correct for Detector Non-linearity: No (USB2+H05261)
Correct for Stray Light: No (USB2+H05261)
Number of Pixels in Processed Spectrum: 2048
>>>>>Begin Processed Spectral Data<<<<<
365.73	7.02
365.92	7.02
366.12	7.02
366.32	0.00
366.52	7.02
366.72	0.00
366.91	0.00
367.11	0.00
367.31	0.00
367.51	0.00
367.70	0.00
367.90	0.00
368.10	14.04
368.30	0.00
368.49	0.00
368.69	0.00
368.89	0.00
369.09	0.00
369.28	0.00
369.48	0.00
369.68	0.00
369.87	4.68
370.07	0.00
370.27	58.51
370.47	21.06
370.66	72.56
370.86	93.62
371.06	88.94
371.25	149.79
371.45	156.82
371.65	161.50
371.84	72.56
372.04	93.62
372.24	133.41
372.44	131.07
372.63	124.05
372.83	152.13
373.03	180.22
373.22	159.16
373.42	191.92
373.62	182.56
373.81	201.29
374.01	212.99
374.21	238.73
374.40	198.95
374.60	210.65
374.79	248.10
374.99	180.22
375.19	205.97
375.38	180.22
375.58	243.42
375.78	163.84
375.97	194.26
376.17	224.69
376.37	187.24
376.56	187.24
376.76	161.50
376.95	159.16
377.15	173.20
377.35	208.31
377.54	198.95
377.74	126.39
377.93	147.45
378.13	177.88
378.33	215.33
378.52	166.18
378.72	252.78
378.91	182.56
379.11	198.95
379.31	177.88
379.50	205.97
379.70	187.24
379.89	194.26
380.09	170.86
380.28	91.28
380.48	138.09
380.68	224.69
380.87	124.05
381.07	215.33
381.26	257.46
381.46	149.79
381.65	161.50
381.85	252.78
382.04	212.99
382.24	191.92
382.43	191.92
382.63	273.84
382.83	149.79
383.02	266.82
383.22	191.92
383.41	189.58
383.61	180.22
383.80	276.18
384.00	173.20
384.19	140.43
384.39	140.43
384.58	205.97
384.78	159.16
384.97	280.86
385.17	229.37
385.36	182.56
385.56	238.73
385.75	170.86
385.95	248.10
386.14	278.52
386.34	231.71
386.53	191.92
386.72	128.73
386.92	276.18
387.11	203.63
387.31	173.20
387.50	205.97
387.70	135.75
387.89	208.31
388.09	259.80
388.28	138.09
388.48	259.80
388.67	166.18
388.86	252.78
389.06	182.56
389.25	241.08
389.45	264.48
389.64	264.48
389.84	224.69
390.03	205.97
390.22	236.39
390.42	231.71
390.61	231.71
390.81	229.37
391.00	234.05
391.19	306.61
391.39	241.08
391.58	264.48
391.78	220.01
391.97	243.42
392.16	280.86
392.36	304.27
392.55	283.20
392.75	290.23
392.94	306.61
393.13	304.27
393.33	229.37
393.52	348.74
393.71	236.39
393.91	308.95
394.10	180.22
394.29	334.70
394.49	241.08
394.68	287.89
394.88	346.40
395.07	318.31
395.26	287.89
395.46	322.99
395.65	388.53
395.84	273.84
396.04	351.08
396.23	220.01
396.42	292.57
396.62	297.25
396.81	262.14
397.00	334.70
397.19	276.18
397.39	205.97
397.58	353.42
397.77	346.40
397.97	344.06
398.16	304.27
398.35	339.38
398.55	414.27
398.74	393.21
398.93	418.96
399.12	388.53
399.32	320.65
399.51	393.21
399.70	372.15
399.90	369.80
400.09	407.25
400.28	456.40
400.47	367.46
400.67	397.89
400.86	393.21
401.05	486.83
401.24	407.25
401.44	484.49
401.63	456.40
401.82	362.78
402.01	486.83
402.21	397.89
402.40	458.74
402.59	433.00
402.78	458.74
402.97	484.49
403.17	472.79
403.36	550.03
403.55	479.81
403.74	566.41
403.93	503.22
404.13	613.22
404.32	538.32
404.51	575.77
404.70	624.92
404.89	561.73
405.09	592.16
405.28	561.73
405.47	664.71
405.66	547.69
405.85	559.39
406.05	634.29
406.24	599.18
406.43	592.16
406.62	655.35
406.81	660.03
407.00	681.10
407.20	596.84
407.39	662.37
407.58	734.93
407.77	603.86
407.96	645.99
408.15	753.65
408.34	725.57
408.54	662.37
408.73	741.95
408.92	774.72
409.11	718.54
409.30	828.55
409.49	685.78
409.68	744.29
409.87	725.57
410.07	809.83
410.26	819.19
410.45	812.17
410.64	795.78
410.83	870.68
411.02	819.19
411.21	866.00
411.40	908.13
411.59	875.36
411.78	901.11
411.98	903.45
412.17	861.32
412.36	926.85
412.55	929.19
412.74	961.96
412.93	945.58
413.12	905.79
413.31	1100.05
413.50	997.07
413.69	1006.43
413.88	987.71
414.07	1046.22
414.26	1071.97
414.45	1043.88
414.64	1078.99
414.83	1048.56
415.02	1128.14
415.22	1078.99
415.41	1196.01
415.60	1060.26
415.79	1121.12
415.98	1205.38
416.17	1181.97
416.36	1226.44
416.55	1174.95
416.74	1254.53
416.93	1261.55
417.12	1268.57
417.31	1186.65
417.50	1275.59
417.69	1345.81
417.88	1296.66
418.07	1217.08
418.26	1310.70
418.45	1273.25
418.64	1369.21
418.83	1364.53
419.02	1453.47
419.21	1301.34
419.39	1455.81
419.58	1275.59
419.77	1345.81
419.96	1366.87
420.15	1481.56
420.34	1401.98
420.53	1420.71
420.72	1565.82
420.91	1509.65
421.10	1514.33
421.29	1469.86
421.48	1497.94
421.67	1544.75
421.86	1598.59
422.05	1535.39
422.24	1542.41
422.43	1465.18
422.61	1565.82
422.80	1558.80
422.99	1528.37
423.18	1582.20
423.37	1575.18
423.56	1612.63
423.75	1507.30
423.94	1547.09
424.13	1526.03
424.32	1542.41
424.50	1638.38
424.69	1582.20
424.88	1549.43
425.07	1554.12
425.26	1605.61
425.45	1638.38
425.64	1682.85
425.83	1661.78
426.01	1703.91
426.20	1572.84
426.39	1568.16
426.58	1600.93
426.77	1605.61
426.96	1673.48
427.15	1582.20
427.33	1720.29
427.52	1732.00
427.71	1715.61
427.90	1727.32
428.09	1722.63
428.28	1781.15
428.46	1750.72
428.65	1788.17
428.84	1790.51
429.03	1750.72
429.22	1621.99
429.40	1732.00
429.59	1746.04
429.78	1788.17
429.97	1764.76
430.16	1760.08
430.34	1748.38
430.53	1764.76
430.72	1818.60
430.91	1823.28
431.10	1816.26
431.28	1996.48
431.47	1900.52
431.66	1795.19
431.85	1741.36
432.03	1830.30
432.22	1879.45
432.41	2010.52
432.60	1813.92
432.79	1902.86
432.97	1881.79
433.16	1905.20
433.35	1942.64
433.54	1954.35
433.72	1973.07
433.91	1860.73
434.10	1921.58
434.28	1909.88
434.47	1942.64
434.66	2045.63
434.85	2047.97
435.03	2207.13
435.22	2289.04
435.41	2523.10
435.59	2506.71
435.78	2373.30
435.97	2207.13
436.16	2275.00
436.34	2165.00
436.53	2169.68
436.72	2153.29
436.90	2106.48
437.09	2113.50
437.28	2078.40
437.46	2139.25
437.65	2092.44
437.84	2174.36
438.02	2169.68
438.21	2228.19
438.40	2167.34
438.58	2275.00
438.77	2230.53
438.96	2249.25
439.14	2277.34
439.33	2228.19
439.52	2408.41
439.70	2331.17
439.89	2373.30
440.08	2434.16
440.26	2410.75
440.45	2466.92
440.63	2387.35
440.82	2483.31
441.01	2410.75
441.19	2471.61
441.38	2434.16
441.57	2450.54
441.75	2579.27
441.94	2600.34
442.12	2502.03
442.31	2628.42
442.50	2569.91
442.68	2478.63
442.87	2609.70
443.05	2675.23
443.24	2518.42
443.43	2635.44
443.61	2754.81
443.80	2846.09
443.98	2551.18
444.17	2602.68
444.35	2794.60
444.54	2710.34
444.73	2658.85
444.91	2670.55
445.10	2736.09
445.28	2658.85
445.47	2677.57
445.65	2773.53
445.84	2691.62
446.02	2736.09
446.21	2684.59
446.39	2590.97
446.58	2710.34
446.77	2649.49
446.95	2724.38
447.14	2789.92
447.32	2787.58
447.51	2649.49
447.69	2731.41
447.88	2649.49
448.06	2715.02
448.25	2782.90
448.43	2750.13
448.62	2703.32
448.80	2637.78
448.99	2806.30
449.17	2689.28
449.36	2778.22
449.54	2853.11
449.73	2909.29
449.91	2939.71
450.10	2897.58
450.28	2956.10
450.46	2942.05
450.65	2904.60
450.83	2981.84
451.02	2860.13
451.20	2937.37
451.39	2918.65
451.57	2967.80
451.76	2977.16
451.94	2925.67
452.13	3040.36
452.31	2949.08
452.49	3061.42
452.68	2951.42
452.86	3016.95
453.05	3145.68
453.23	3021.63
453.42	2906.95
453.60	3023.97
453.78	3056.74
453.97	2944.39
454.15	3026.31
454.34	2970.14
454.52	3028.65
454.70	3080.14
454.89	3082.49
455.07	3045.04
455.26	3262.71
455.44	3138.66
455.62	3052.06
455.81	3192.49
455.99	3215.90
456.17	3335.26
456.36	3206.53
456.54	3190.15
456.73	3276.75
456.91	3222.92
457.09	3260.37
457.28	3363.35
457.46	3403.14
457.64	3487.40
457.83	3330.58
458.01	3309.52
458.19	3426.54
458.38	3384.41
458.56	3414.84
458.74	3433.57
458.93	3555.27
459.11	3466.33
459.29	3431.23
459.48	3391.44
459.66	3412.50
459.84	3442.93
460.03	3609.11
460.21	3522.51
460.39	3545.91
460.57	3480.38
460.76	3431.23
460.94	3602.08
461.12	3421.86
461.31	3592.72
461.49	3524.85
461.67	3541.23
461.85	3686.34
462.04	3611.45
462.22	4098.28
462.40	3667.62
462.59	3648.90
462.77	3578.68
462.95	3599.74
463.13	3688.68
463.32	3768.26
463.50	3686.34
463.68	3676.98
463.86	3702.73
464.05	3801.03
464.23	3716.77
464.41	3843.16
464.59	3740.18
464.78	3772.94
464.96	3751.88
465.14	3625.49
465.32	3864.22
465.50	3840.82
465.69	3873.59
465.87	3695.71
466.05	3812.73
466.23	3887.63
466.41	3810.39
466.60	3981.25
466.78	3875.93
466.96	3798.69
467.14	3658.26
467.32	3801.03
467.51	3911.04
467.69	4058.49
467.87	3971.89
468.05	3808.05
468.23	3974.23
468.41	3822.09
468.60	3894.65
468.78	4014.02
468.96	4002.32
469.14	3894.65
469.32	3978.91
469.50	3929.76
469.69	4121.68
469.87	3999.98
470.05	4119.34
470.23	4002.32
470.41	4100.62
470.59	4299.56
470.77	4084.23
470.95	4212.96
471.14	4166.15
471.32	4135.73
471.50	4273.82
471.68	4283.18
471.86	4212.96
472.04	4210.62
472.22	4409.57
472.40	4255.09
472.58	4346.37
472.77	4463.40
472.95	4465.74
473.13	4599.15
473.31	4372.12
473.49	4360.42
473.67	4461.06
473.85	4498.51
474.03	4566.39
474.21	4709.16
474.39	4624.90
474.57	4746.61
474.75	4676.39
474.93	4613.20
475.12	4634.26
475.30	4641.28
475.48	4683.41
475.66	4746.61
475.84	4798.10
476.02	4784.06
476.20	4894.06
476.38	4931.51
476.56	5025.13
476.74	4919.81
476.92	4896.40
477.10	5025.13
477.28	4926.83
477.46	5015.77
477.64	4997.04
477.82	5228.76
478.00	5259.18
478.18	5294.29
478.36	5240.46
478.54	5266.21
478.72	5238.12
478.90	5331.74
479.08	5371.53
479.26	5497.92
479.44	5425.36
479.62	5526.00
479.80	5535.37
479.98	5636.01
480.16	5621.97
480.34	5720.27
480.52	5682.82
480.70	5743.67
480.88	5783.46
481.06	5872.40
481.24	5757.72
481.41	5832.62
481.59	5837.30
481.77	5942.62
481.95	6169.65
482.13	6085.39
482.31	5984.75
482.49	6118.16
482.67	6207.10
482.85	6251.57
483.03	6452.86
483.21	6392.00
483.39	6420.09
483.57	6370.94
483.74	6539.46
483.92	6691.59
484.10	6469.24
484.28	6576.91
484.46	6743.08
484.64	6899.90
484.82	6787.55
485.00	6752.45
485.18	6822.66
485.35	7028.63
485.53	7021.61
485.71	7138.63
485.89	7119.91
486.07	7145.66
486.25	7250.98
486.43	7286.09
486.61	7391.41
486.78	7487.37
486.96	7276.73
487.14	7557.59
487.32	7606.74
487.50	7660.57
487.68	7761.22
487.85	7714.41
488.03	7747.17
488.21	7866.54
488.39	7978.89
488.57	8128.68
488.75	8095.91
488.92	8336.99
489.10	8177.83
489.28	8187.19
489.46	8379.12
489.64	8238.69
489.81	8510.19
489.99	8336.99
490.17	8571.04
490.35	8432.95
490.53	8568.70
490.70	8777.01
490.88	8720.84
491.06	8769.99
491.24	8652.96
491.41	8718.50
491.59	8889.35
491.77	8903.40
491.95	8997.02
492.13	9109.36
492.30	9050.85
492.48	9167.88
492.66	9212.35
492.84	9186.60
493.01	9415.98
493.19	9312.99
493.37	9352.78
493.54	9743.65
493.72	9432.36
493.90	9509.60
494.08	9825.57
494.25	9764.72
494.43	9741.31
494.61	9820.89
494.79	9949.62
494.96	9767.06
495.14	9820.89
495.32	9954.30
495.49	9919.19
495.67	9956.64
495.85	10090.05
496.02	10188.35
496.20	10251.55
496.38	10272.61
496.55	10242.18
496.73	10462.19
496.91	10462.19
497.09	10326.44
497.26	10670.50
497.44	10459.85
497.62	10637.73
497.79	10611.99
497.97	10846.04
498.14	10855.40
498.32	10764.12
498.50	10895.19
498.67	10916.26
498.85	10939.66
499.03	10892.85
499.20	11044.99
499.38	10848.38
499.56	11267.34
499.73	11279.04
499.91	11290.74
500.08	11435.86
500.26	11098.82
500.44	11220.53
500.61	11276.70
500.79	11197.12
500.97	11438.20
501.14	11702.68
501.32	11580.97
501.49	11445.22
501.67	11606.72
501.84	11489.69
502.02	11695.66
502.20	11887.58
502.37	11838.43
502.55	11772.89
502.72	12133.34
502.90	11679.27
503.07	11850.13
503.25	11985.88
503.43	11880.56
503.60	11936.73
503.78	12035.03
503.95	12304.20
504.13	12212.92
504.30	12023.33
504.48	12063.12
504.65	12327.60
504.83	12365.05
505.01	12468.03
505.18	12334.62
505.36	12535.91
505.53	12453.99
505.71	12439.95
505.88	12446.97
506.06	12561.66
506.23	12304.20
506.41	12788.69
506.58	12758.26
506.76	12765.28
506.93	12751.24
507.11	12999.34
507.28	12800.39
507.46	12865.92
507.63	12809.75
507.81	12849.54
507.98	13048.49
508.16	13064.87
508.33	13312.97
508.50	12954.87
508.68	13348.08
508.85	13310.63
509.03	13104.66
509.20	13334.03
509.38	13432.33
509.55	13628.94
509.73	13331.69
509.90	13406.59
510.08	13219.35
510.25	13441.70
510.42	13422.97
510.60	13717.88
510.77	13715.54
510.95	13694.47
511.12	13575.11
511.30	13631.28
511.47	13745.97
511.64	13628.94
511.82	13865.33
511.99	13844.27
512.17	13919.17
512.34	13994.06
512.51	14141.52
512.69	14115.77
512.86	14237.48
513.04	14389.61
513.21	14602.60
513.38	14160.24
513.56	14251.52
513.73	14394.29
513.90	14209.39
514.08	14188.33
514.25	14368.55
514.43	14443.45
514.60	14427.06
514.77	14499.62
514.95	14487.92
515.12	14427.06
515.29	14583.88
515.47	14979.43
515.64	14897.51
515.81	14848.36
515.99	14956.02
516.16	14829.63
516.33	14773.46
516.51	14920.92
516.68	14881.13
516.85	14871.76
517.03	15007.52
517.20	15318.81
517.37	15021.56
517.54	15159.65
517.72	15098.80
517.89	14857.72
518.06	15272.00
518.24	15051.99
518.41	15328.17
518.58	15164.33
518.75	15154.97
518.93	15372.64
519.10	15454.56
519.27	15487.32
519.45	15213.48
519.62	15349.23
519.79	15398.38
519.96	15499.03
520.14	15447.54
520.31	15768.19
520.48	15974.16
520.65	15712.02
520.83	15534.14
521.00	15765.85
521.17	15894.58
521.34	15545.84
521.52	15894.58
521.69	15714.36
521.86	15803.30
522.03	16205.87
522.20	16107.57
522.38	16006.92
522.55	16147.36
522.72	15700.31
522.89	16020.97
523.07	16273.74
523.24	16416.52
523.41	16343.96
523.58	16236.30
523.75	15988.20
523.92	16177.78
524.10	16329.92
524.27	16013.95
524.44	16381.41
524.61	16432.90
524.78	16526.52
524.96	16634.19
525.13	16524.18
525.30	16762.92
525.47	16510.14
525.64	16615.46
525.81	16517.16
525.98	16917.39
526.16	16596.74
526.33	16994.63
526.50	16774.62
526.67	16840.15
526.84	16737.17
527.01	16730.15
527.18	17064.85
527.36	16753.55
527.53	17104.64
527.70	17055.48
527.87	17132.72
528.04	17266.13
528.21	17090.59
528.38	17308.26
528.55	17186.55
528.72	17020.38
528.89	17315.28
529.07	17025.06
529.24	17310.60
529.41	17186.55
529.58	17015.69
529.75	17092.93
529.92	17411.25
530.09	17282.52
530.26	17329.33
530.43	17530.61
530.60	17584.44
530.77	17479.12
530.94	17572.74
531.11	17207.62
531.28	17088.25
531.46	17453.37
531.63	17694.45
531.80	17404.22
531.97	17668.70
532.14	17654.66
532.31	17701.47
532.48	17584.44
532.65	17961.27
532.82	17769.35
532.99	17755.30
533.16	17825.52
533.33	18176.60
533.50	17909.78
533.67	17839.56
533.84	18242.14
534.01	17701.47
534.18	17778.71
534.35	17972.97
534.52	17951.91
534.69	18111.07
534.86	17961.27
535.03	18080.64
535.20	17898.08
535.37	18377.89
535.54	17958.93
535.71	17912.12
535.88	18031.49
536.05	18148.51
536.22	18066.60
536.38	18075.96
536.55	18270.22
536.72	18471.51
536.89	18324.05
537.06	18314.69
537.23	18485.55
537.40	18370.86
537.57	18534.70
537.74	18551.09
537.91	18251.50
538.08	18635.35
538.25	18347.46
538.42	18511.30
538.59	18768.76
538.75	18200.01
538.92	18354.48
539.09	18712.58
539.26	18679.82
539.43	18670.45
539.60	19009.83
539.77	18761.73
539.94	19077.71
540.11	19129.20
540.28	18794.50
540.44	19075.37
540.61	19112.81
540.78	19194.73
540.95	19260.27
541.12	19321.12
541.29	19730.72
541.46	19264.95
541.62	19487.30
541.79	19147.92
541.96	19087.07
542.13	19091.75
542.30	19590.28
542.47	19377.30
542.63	19632.41
542.80	19627.73
542.97	19765.82
543.14	20027.96
543.31	19660.50
543.48	19702.63
543.64	19690.93
543.81	19847.74
543.98	19992.86
544.15	19929.66
544.32	19812.63
544.48	19817.32
544.65	19803.27
544.82	19758.80
544.99	19597.31
545.16	19555.18
545.32	19630.07
545.49	20421.17
545.66	20582.67
545.83	21151.42
546.00	20538.20
546.16	20301.81
546.33	19910.94
546.50	19571.56
546.67	19941.36
546.83	19662.84
547.00	19995.20
547.17	19690.93
547.34	19854.76
547.50	20109.88
547.67	20107.54
547.84	19646.46
548.00	19939.02
548.17	19974.13
548.34	20170.74
548.51	20098.18
548.67	19995.20
548.84	19885.19
549.01	19913.28
549.18	20095.84
549.34	19985.83
549.51	20025.62
549.68	20105.20
549.84	19852.42
550.01	20238.61
550.18	20144.99
550.34	19906.26
550.51	19817.32
550.68	20126.27
550.84	19920.30
551.01	19887.53
551.18	20018.60
551.34	19784.55
551.51	19887.53
551.68	20081.80
551.84	19936.68
552.01	20044.35
552.18	20231.59
552.34	20011.58
552.51	20339.26
552.68	20212.87
552.84	20194.14
553.01	20133.29
553.18	20018.60
553.34	20535.86
553.51	20280.74
553.67	20680.97
553.84	20259.68
554.01	20559.27
554.17	20435.22
554.34	20112.22
554.51	20226.91
554.67	20233.93
554.84	20327.55
555.00	20137.97
555.17	20388.41
555.33	20470.33
555.50	20470.33
555.67	20617.78
555.83	20336.91
556.00	20390.75
556.16	20407.13
556.33	20386.07
556.50	20842.47
556.66	20620.12
556.83	20290.10
556.99	20414.15
557.16	20507.77
557.32	20610.76
557.49	20348.62
557.65	20264.36
557.82	20404.79
557.98	20519.48
558.15	20704.38
558.32	20758.21
558.48	20535.86
558.65	20573.31
558.81	20376.70
558.98	20470.33
559.14	20641.18
559.31	20568.63
559.47	20683.31
559.64	20582.67
559.80	20964.18
559.97	20631.82
560.13	20400.11
560.30	20465.64
560.46	20573.31
560.63	20496.07
560.79	20727.78
560.96	20786.30
561.12	20587.35
561.29	20809.70
561.45	20592.03
561.61	20875.24
561.78	20292.44
561.94	20695.02
562.11	20772.25
562.27	20575.65
562.44	20608.42
562.60	20645.87
562.77	20592.03
562.93	20634.16
563.10	20936.09
563.26	20566.29
563.42	20980.56
563.59	20723.10
563.75	20711.40
563.92	20933.75
564.08	20793.32
564.24	20900.98
564.41	20664.59
564.57	20620.12
564.74	20423.51
564.90	20889.28
565.07	20688.00
565.23	20851.83
565.39	20695.02
565.56	20847.15
565.72	21003.97
565.88	20926.73
566.05	21013.33
566.21	20772.25
566.38	20606.08
566.54	20634.16
566.70	20905.66
566.87	20664.59
567.03	20961.84
567.19	20851.83
567.36	20842.47
567.52	20767.57
567.68	20978.22
567.85	21125.68
568.01	20922.05
568.17	20758.21
568.34	20779.28
568.50	20814.38
568.66	20844.81
568.83	20889.28
568.99	21104.61
569.15	21034.39
569.32	20996.95
569.48	20807.36
569.64	21081.21
569.81	21020.35
569.97	21055.46
570.13	20828.43
570.30	21095.25
570.46	20999.29
570.62	21057.80
570.78	20819.07
570.95	20556.93
571.11	21242.70
571.27	21027.37
571.43	20929.07
571.60	20814.38
571.76	20966.52
571.92	21074.18
572.09	20924.39
572.25	20868.22
572.41	20903.32
572.57	21003.97
572.74	21135.04
572.90	20931.41
573.06	21095.25
573.22	20961.84
573.38	21071.84
573.55	21298.88
573.71	21165.46
573.87	21223.98
574.03	20819.07
574.20	21132.70
574.36	20961.84
574.52	20996.95
574.68	21329.30
574.84	21441.65
575.01	21231.00
575.17	21273.13
575.33	20884.60
575.49	21001.63
575.65	21177.17
575.82	21191.21
575.98	21048.44
576.14	21305.90
576.30	21235.68
576.46	21015.67
576.62	21144.40
576.79	21179.51
576.95	21228.66
577.11	20769.91
577.27	21177.17
577.43	21172.49
577.59	20950.14
577.75	21064.82
577.92	21165.46
578.08	20774.60
578.24	20940.77
578.40	21319.94
578.56	21254.40
578.72	21149.08
578.88	21418.24
579.04	21577.40
579.21	21231.00
579.37	21422.92
579.53	21336.32
579.69	21113.97
579.85	21401.86
580.01	21095.25
580.17	20886.94
580.33	21083.55
580.49	21034.39
580.65	21123.33
580.82	21280.15
580.98	21401.86
581.14	21184.19
581.30	21062.48
581.46	20950.14
581.62	21146.74
581.78	21174.83
581.94	21296.53
582.10	20985.24
582.26	21294.19
582.42	21479.10
582.58	20971.20
582.74	21439.31
582.90	21200.57
583.06	21207.59
583.22	21441.65
583.38	21413.56
583.54	21193.55
583.70	21118.65
583.86	21156.10
584.02	21252.06
584.18	21198.23
584.34	21322.28
584.50	21479.10
584.66	21308.24
584.82	21369.09
584.98	21142.06
585.14	21247.38
585.30	21401.86
585.46	21336.32
585.62	21198.23
585.78	21235.68
585.94	21095.25
586.10	21535.27
586.26	21418.24
586.42	21624.21
586.58	21436.97
586.74	21231.00
586.90	21041.42
587.06	21357.39
587.22	21387.82
587.38	21097.59
587.54	21551.65
587.70	21352.71
587.86	21371.43
588.02	21240.36
588.18	21453.35
588.34	21378.45
588.49	21542.29
588.65	21025.03
588.81	21261.43
588.97	21235.68
589.13	21357.39
589.29	21214.62
589.45	21333.98
589.61	21076.52
589.77	21525.91
589.93	21774.00
590.08	21202.91
590.24	21509.52
590.40	21130.36
590.56	21282.49
590.72	21268.45
590.88	21074.18
591.04	21097.59
591.20	21460.37
591.35	21132.70
591.51	21914.44
591.67	21507.18
591.83	21411.22
591.99	21586.76
592.15	21284.83
592.31	21516.54
592.46	21348.03
592.62	21443.99
592.78	21584.42
