SpectraSuite Data File
++++++++++++++++++++++++++++++++++++
Date: Fri Oct 04 11:39:47 GMT-05:00 2013
User: price-jones
Dark Spectrum Present: No
Reference Spectrum Present: No
Number of Sampled Component Spectra: 1
Spectrometers: USB2+H05261
Integration Time (usec): 100000 (USB2+H05261)
Spectra Averaged: 1 (USB2+H05261)
Boxcar Smoothing: 0 (USB2+H05261)
Correct for Electrical Dark: No (USB2+H05261)
Strobe/Lamp Enabled: No (USB2+H05261)
Correct for Detector Non-linearity: No (USB2+H05261)
Correct for Stray Light: No (USB2+H05261)
Number of Pixels in Processed Spectrum: 2048
>>>>>Begin Processed Spectral Data<<<<<
365.73	86.60
365.92	86.60
366.12	86.60
366.32	2.34
366.52	0.00
366.72	0.00
366.91	0.00
367.11	0.00
367.31	0.00
367.51	0.00
367.70	0.00
367.90	0.00
368.10	14.04
368.30	0.00
368.49	0.00
368.69	0.00
368.89	0.00
369.09	0.00
369.28	0.00
369.48	0.00
369.68	0.00
369.87	0.00
370.07	30.43
370.27	37.45
370.47	147.45
370.66	552.37
370.86	498.53
371.06	538.32
371.25	683.44
371.45	547.69
371.65	636.63
371.84	692.80
372.04	650.67
372.24	636.63
372.44	723.23
372.63	660.03
372.83	704.50
373.03	667.05
373.22	603.86
373.42	739.61
373.62	711.52
373.81	692.80
374.01	692.80
374.21	788.76
374.40	760.67
374.60	805.14
374.79	795.78
374.99	772.38
375.19	858.98
375.38	833.23
375.58	755.99
375.78	873.02
375.97	800.46
376.17	840.25
376.37	887.06
376.56	758.33
376.76	866.00
376.95	884.72
377.15	943.24
377.35	915.15
377.54	840.25
377.74	866.00
377.93	898.77
378.13	961.96
378.33	814.51
378.52	880.04
378.72	959.62
378.91	917.49
379.11	940.90
379.31	894.08
379.50	933.87
379.70	1020.47
379.89	976.00
380.09	1001.75
380.28	966.64
380.48	933.87
380.68	945.58
380.87	1001.75
381.07	997.07
381.26	1027.50
381.46	1001.75
381.65	1069.62
381.85	1107.07
382.04	1142.18
382.24	1118.78
382.43	1090.69
382.63	1008.77
382.83	1130.48
383.02	1186.65
383.22	1165.59
383.41	1125.80
383.61	1074.31
383.80	1137.50
384.00	1102.39
384.19	1130.48
384.39	1254.53
384.58	1188.99
384.78	1252.19
384.97	1245.16
385.17	1277.93
385.36	1214.74
385.56	1217.08
385.75	1310.70
385.95	1287.29
386.14	1273.25
386.34	1233.46
386.53	1233.46
386.72	1383.26
386.92	1343.47
387.11	1245.16
387.31	1322.40
387.50	1371.55
387.70	1416.02
387.89	1378.58
388.09	1320.06
388.28	1359.85
388.48	1348.15
388.67	1533.05
388.86	1526.03
389.06	1488.58
389.25	1483.90
389.45	1385.60
389.64	1369.21
389.84	1448.79
390.03	1444.11
390.22	1481.56
390.42	1467.52
390.61	1586.88
390.81	1476.88
391.00	1554.12
391.19	1542.41
391.39	1519.01
391.58	1654.76
391.78	1696.89
391.97	1607.95
392.16	1675.82
392.36	1680.50
392.55	1645.40
392.75	1727.32
392.94	1626.67
393.13	1699.23
393.33	1668.80
393.52	1762.42
393.71	1753.06
393.91	1771.79
394.10	1739.02
394.29	1853.70
394.49	1694.55
394.68	1809.23
394.88	1816.26
395.07	1844.34
395.26	1804.55
395.46	1853.70
395.65	1959.03
395.84	1994.14
396.04	1933.28
396.23	1930.94
396.42	1982.43
396.62	1975.41
396.81	2038.61
397.00	1916.90
397.19	2069.03
397.39	2045.63
397.58	2071.37
397.77	2040.95
397.97	2143.93
398.16	2134.57
398.35	2062.01
398.55	2143.93
398.74	2087.76
398.93	2146.27
399.12	2106.48
399.32	2228.19
399.51	2150.95
399.70	2293.72
399.90	2209.47
400.09	2359.26
400.28	2427.14
400.47	2368.62
400.67	2429.48
400.86	2366.28
401.05	2382.67
401.24	2277.34
401.44	2340.54
401.63	2469.27
401.82	2373.30
402.01	2370.96
402.21	2595.65
402.40	2502.03
402.59	2633.10
402.78	2621.40
402.97	2679.91
403.17	2565.23
403.36	2658.85
403.55	2504.37
403.74	2717.36
403.93	2759.49
404.13	2803.96
404.32	2745.45
404.51	2700.98
404.70	2918.65
404.89	2825.03
405.09	2822.69
405.28	2806.30
405.47	2862.48
405.66	2810.98
405.85	2881.20
406.05	2960.78
406.24	3000.57
406.43	3005.25
406.62	3005.25
406.81	3204.19
407.00	3124.62
407.20	3052.06
407.39	3094.19
407.58	3262.71
407.77	3180.79
407.96	3215.90
408.15	3342.28
408.34	3169.09
408.54	3239.30
408.73	3372.71
408.92	3419.52
409.11	3372.71
409.30	3396.12
409.49	3349.31
409.68	3463.99
409.87	3328.24
410.07	3485.06
410.26	3435.91
410.45	3695.71
410.64	3489.74
410.83	3625.49
411.02	3646.55
411.21	3873.59
411.40	3653.58
411.59	3630.17
411.78	3754.22
411.98	3794.01
412.17	3906.35
412.36	3861.88
412.55	3962.53
412.74	3920.40
412.93	4074.87
413.12	3960.19
413.31	4109.98
413.50	3974.23
413.69	4252.75
413.88	4278.50
414.07	4248.07
414.26	4285.52
414.45	4358.08
414.64	4264.46
414.83	4507.87
415.02	4390.84
415.22	4519.57
415.41	4561.70
415.60	4650.64
415.79	4580.43
415.98	4847.25
416.17	4809.80
416.36	4739.58
416.55	5039.17
416.74	4880.02
416.93	4812.14
417.12	4908.10
417.31	5100.03
417.50	5041.51
417.69	5123.43
417.88	5191.31
418.07	5078.96
418.26	5043.85
418.45	5184.29
418.64	5362.17
418.83	5338.76
419.02	5401.96
419.21	5399.62
419.39	5420.68
419.58	5406.64
419.77	5416.00
419.96	5441.75
420.15	5563.45
420.34	5540.05
420.53	5621.97
420.72	5621.97
420.91	5914.53
421.10	5762.40
421.29	5968.37
421.48	5535.37
421.67	5643.03
421.86	5664.10
422.05	5914.53
422.24	5891.13
422.43	5942.62
422.61	5926.24
422.80	5841.98
422.99	5949.64
423.18	6022.20
423.37	6033.90
423.56	5984.75
423.75	6076.03
423.94	5818.57
424.13	5488.56
424.32	5708.57
424.50	6101.78
424.69	6169.65
424.88	6153.27
425.07	5879.43
425.26	5895.81
425.45	5916.87
425.64	5968.37
425.83	5921.56
426.01	6162.63
426.20	6108.80
426.39	6071.35
426.58	5937.94
426.77	6216.46
426.96	6153.27
427.15	6150.93
427.33	6333.49
427.52	6354.55
427.71	6342.85
427.90	6331.15
428.09	6349.87
428.28	6483.28
428.46	6445.84
428.65	6497.33
428.84	6647.12
429.03	6637.76
429.22	6420.09
429.40	6710.32
429.59	6839.05
429.78	6614.35
429.97	6354.55
430.16	6724.36
430.34	6691.59
430.53	7096.50
430.72	7042.67
430.91	6722.02
431.10	7023.95
431.28	7000.54
431.47	6963.09
431.66	7150.34
431.85	7089.48
432.03	7375.03
432.22	7274.38
432.41	7180.76
432.60	7197.15
432.79	7178.42
432.97	7391.41
433.16	7318.86
433.35	7269.70
433.54	7494.40
433.72	7351.62
433.91	7492.05
434.10	7555.25
434.28	7349.28
434.47	7627.81
434.66	7590.36
434.85	7688.66
435.03	7721.43
435.22	7602.06
435.41	8196.56
435.59	8173.15
435.78	8105.28
435.97	7894.63
436.16	7971.86
436.34	7749.51
436.53	8039.74
436.72	8236.35
436.90	7843.14
437.09	7960.16
437.28	8077.19
437.46	8184.85
437.65	8074.85
437.84	8252.73
438.02	8362.73
438.21	8348.69
438.40	8088.89
438.58	8617.85
438.77	8601.47
438.96	8540.61
439.14	8678.71
439.33	8739.56
439.52	8926.80
439.70	8844.88
439.89	9032.13
440.08	8795.73
440.26	8891.70
440.45	9004.04
440.63	9071.92
440.82	9240.44
441.01	9275.54
441.19	9291.93
441.38	9645.35
441.57	9610.24
441.75	9633.64
441.94	9661.73
442.12	9621.94
442.31	9958.98
442.50	9783.44
442.68	9830.25
442.87	9544.70
443.05	9956.64
443.24	10139.20
443.43	9958.98
443.61	10064.30
443.80	10410.70
443.98	9956.64
444.17	9804.50
444.35	10143.88
444.54	10380.28
444.73	10324.10
444.91	10202.40
445.10	10286.65
445.28	10391.98
445.47	10232.82
445.65	10155.58
445.84	10384.96
446.02	10420.06
446.21	10209.42
446.39	10347.51
446.58	10509.01
446.77	10696.25
446.95	10342.83
447.14	10614.33
447.32	10766.46
447.51	10349.85
447.69	10361.55
447.88	10731.36
448.06	10497.30
448.25	10399.00
448.43	10527.73
448.62	10579.22
448.80	10607.31
448.99	10649.44
449.17	10752.42
449.36	10644.76
449.54	11012.22
449.73	11190.10
449.91	10949.03
450.10	11204.14
450.28	11316.49
450.46	10927.96
450.65	11150.31
450.83	11283.72
451.02	11253.30
451.20	11370.32
451.39	11494.37
451.57	11077.76
451.76	11112.86
451.94	11496.71
452.13	11569.27
452.31	11742.47
452.49	11506.07
452.68	11630.12
452.86	11578.63
453.05	11735.45
453.23	11709.70
453.42	11599.70
453.60	11513.10
453.78	11770.55
453.97	11847.79
454.15	11513.10
454.34	11768.21
454.52	11925.03
454.70	11964.82
454.89	12009.29
455.07	12168.45
455.26	12294.83
455.44	12669.32
455.62	12133.34
455.81	12461.01
455.99	12233.98
456.17	12622.51
456.36	12475.06
456.54	12652.94
456.73	12744.22
456.91	12924.44
457.09	13015.72
457.28	12982.95
457.46	12954.87
457.64	13132.75
457.83	12901.03
458.01	12975.93
458.19	13521.27
458.38	12898.69
458.56	13366.80
458.74	13327.01
458.93	13289.56
459.11	13439.36
459.29	13415.95
459.48	13631.28
459.66	13528.30
459.84	13561.06
460.03	13841.93
460.21	13657.03
460.39	13788.10
460.57	13575.11
460.76	13989.38
460.94	14059.60
461.12	13853.63
461.31	13872.36
461.49	13858.31
461.67	13806.82
461.85	14604.94
462.04	14136.84
462.22	14637.71
462.40	14225.78
462.59	14324.08
462.77	14354.51
462.95	14684.52
463.13	14546.43
463.32	14644.73
463.50	14565.15
463.68	14726.65
463.86	14824.95
464.05	14642.39
464.23	14408.34
464.41	14850.70
464.59	14422.38
464.78	15075.39
464.96	14778.14
465.14	14850.70
465.32	15084.75
465.50	15501.37
465.69	15250.93
465.87	15096.46
466.05	15101.14
466.23	15101.14
466.41	15213.48
466.60	15683.93
466.78	15101.14
466.96	15187.74
467.14	15389.02
467.32	15597.33
467.51	15681.59
467.69	15321.15
467.87	15314.13
468.05	15644.14
468.23	15590.31
468.41	15555.20
468.60	15829.04
468.78	15690.95
468.96	15714.36
469.14	15747.12
469.32	16098.20
469.50	15770.53
469.69	16472.69
469.87	16402.47
470.05	16346.30
470.23	16294.81
470.41	16329.92
470.59	16751.21
470.77	16594.40
470.95	16524.18
471.14	17048.46
471.32	16486.73
471.50	17123.36
471.68	17020.38
471.86	16947.82
472.04	17158.47
472.22	17586.79
472.40	17109.32
472.58	17575.08
472.77	17467.42
472.95	17640.62
473.13	18202.35
473.31	17652.32
473.49	17539.97
473.67	17963.61
473.85	18214.05
474.03	18331.08
474.21	18001.06
474.39	18506.62
474.57	18523.00
474.75	18757.05
474.93	19075.37
475.12	18845.99
475.30	18738.33
475.48	18916.21
475.66	19164.31
475.84	19009.83
476.02	19372.61
476.20	19140.90
476.38	19927.32
476.56	20034.99
476.74	19852.42
476.92	19983.49
477.10	20088.82
477.28	20252.66
477.46	20357.98
477.64	20748.85
477.82	20666.93
478.00	21291.85
478.18	21092.91
478.36	21315.26
478.54	21366.75
478.72	21944.86
478.90	21996.35
479.08	21991.67
479.26	22162.53
479.44	22464.46
479.62	22607.23
479.80	22340.41
479.98	22834.27
480.16	23332.80
480.34	23178.33
480.52	23714.31
480.70	23599.62
480.88	23522.38
481.06	23665.16
481.24	23821.97
481.41	24149.65
481.59	24318.17
481.77	24496.05
481.95	24648.18
482.13	25160.76
482.31	25291.83
482.49	25502.48
482.67	25057.78
482.85	25621.84
483.03	26103.99
483.21	26499.55
483.39	26668.06
483.57	26235.06
483.74	26274.85
483.92	26925.52
484.10	26794.45
484.28	27442.78
484.46	27988.13
484.64	28072.39
484.82	27583.21
485.00	28121.54
485.18	28524.11
485.35	28959.45
485.53	28898.59
485.71	29228.61
485.89	29717.78
486.07	29797.36
486.25	29427.56
486.43	29748.21
486.61	30064.18
486.78	30436.33
486.96	30485.48
487.14	31002.74
487.32	31168.91
487.50	31627.66
487.68	31419.35
487.85	32041.93
488.03	32226.84
488.21	32374.29
488.39	32390.67
488.57	33146.67
488.75	33062.41
488.92	33600.73
489.10	33553.92
489.28	33947.13
489.46	34155.44
489.64	33951.81
489.81	34998.03
489.99	34986.33
490.17	35236.77
490.35	35510.61
490.53	35534.01
490.70	36163.62
490.88	35747.00
491.06	36456.18
491.24	36451.50
491.41	36481.93
491.59	36847.05
491.77	36774.50
491.95	37579.64
492.13	37682.62
492.30	37801.99
492.48	38160.09
492.66	37776.25
492.84	38012.64
493.01	38742.89
493.19	38658.63
493.37	39164.18
493.54	39433.35
493.72	39908.47
493.90	39590.16
494.08	39995.07
494.25	40439.78
494.43	40399.99
494.61	41008.53
494.79	40692.55
494.96	41078.74
495.14	41078.74
495.32	41982.19
495.49	41696.64
495.67	42382.42
495.85	42485.40
496.02	42344.97
496.20	43009.68
496.38	42665.63
496.55	42873.93
496.73	43489.49
496.91	43100.97
497.09	44062.93
497.26	44023.14
497.44	44275.91
497.62	44285.28
497.79	45144.25
497.97	44428.05
498.14	45137.23
498.32	45310.43
498.50	45359.58
498.67	45659.17
498.85	45284.68
499.03	45694.28
499.20	45918.97
499.38	46082.81
499.56	46253.67
499.73	46520.49
499.91	46752.20
500.08	46941.78
500.26	46478.36
500.44	46752.20
500.61	46876.25
500.79	46859.87
500.97	47683.73
501.14	48296.95
501.32	48041.84
501.49	48315.68
501.67	47927.15
501.84	48470.15
502.02	48058.22
502.20	48428.02
502.37	48636.33
502.55	48793.15
502.72	49139.55
502.90	48947.62
503.07	48912.52
503.25	49251.89
503.43	49029.54
503.60	49404.03
503.78	49626.38
503.95	49682.55
504.13	49839.37
504.30	49925.97
504.48	49820.64
504.65	50082.78
504.83	50169.38
505.01	50473.65
505.18	50529.83
505.36	50728.77
505.53	50464.29
505.71	51068.15
505.88	50824.73
506.06	50443.23
506.23	51426.25
506.41	51044.74
506.58	51489.45
506.76	51250.71
506.93	51569.02
507.11	51510.51
507.28	51849.89
507.46	51611.15
507.63	51828.82
507.81	52233.74
507.98	51805.42
508.16	52390.55
508.33	52147.14
508.50	52348.42
508.68	52226.71
508.85	52863.34
509.03	52676.10
509.20	53020.16
509.38	53209.74
509.55	53345.49
509.73	53275.27
509.90	53146.54
510.08	53109.10
510.25	53268.25
510.42	53717.64
510.60	53588.91
510.77	53956.37
510.95	53827.64
511.12	53698.91
511.30	54012.54
511.47	54061.69
511.64	54160.00
511.82	54508.74
511.99	54494.69
512.17	54518.10
512.34	54431.50
512.51	55065.78
512.69	54815.35
512.86	54665.55
513.04	54855.14
513.21	54920.67
513.38	55222.60
513.56	54925.35
513.73	55002.59
513.90	55133.66
514.08	55229.62
514.25	55344.31
514.43	55608.79
514.60	55426.23
514.77	55213.24
514.95	55679.00
515.12	55540.91
515.29	55468.36
515.47	55870.93
515.64	55922.42
515.81	55833.48
515.99	56058.17
516.16	56233.71
516.33	56303.93
516.51	56470.11
516.68	56243.07
516.85	56395.21
517.03	56470.11
517.20	56690.12
517.37	56605.86
517.54	56652.67
517.72	56678.41
517.89	56624.58
518.06	56615.22
518.24	56699.48
518.41	56940.55
518.58	56949.92
518.75	56968.64
518.93	57174.61
519.10	56774.37
519.27	57258.87
519.45	57195.67
519.62	57382.91
519.79	57214.40
519.96	57499.94
520.14	57616.97
520.31	57733.99
520.48	57715.27
520.65	57530.37
520.83	57731.65
521.00	57848.68
521.17	57890.81
521.34	57675.48
521.52	58019.54
521.69	58220.83
521.86	58127.20
522.03	58277.00
522.20	58377.64
522.38	58047.63
522.55	58382.32
522.72	58195.08
522.89	58401.05
523.07	58628.08
523.24	58557.86
523.41	58735.74
523.58	58501.69
523.75	58506.37
523.92	58639.78
524.10	58728.72
524.27	58939.37
524.44	58937.03
524.61	59112.57
524.78	59145.34
524.96	59297.47
525.13	58979.16
525.30	59203.85
525.47	59241.30
525.64	59152.36
525.81	59330.24
525.98	59463.65
526.16	59538.55
526.33	59526.84
526.50	59629.83
526.67	59344.28
526.84	59473.01
527.01	59482.37
527.18	59599.40
527.36	59636.85
527.53	59763.24
527.70	60062.83
527.87	59898.99
528.04	59831.11
528.21	60165.81
528.38	59845.16
528.55	59884.95
528.72	60093.25
528.89	60149.43
529.07	60179.85
529.24	60233.69
529.41	60388.16
529.58	60210.28
529.75	60200.92
529.92	60175.17
530.09	60348.37
530.26	60320.29
530.43	60357.74
530.60	60528.59
530.77	60437.31
530.94	60650.30
531.11	60441.99
531.28	60411.57
531.46	60743.92
531.63	60793.07
531.80	60910.10
531.97	60757.97
532.14	61006.06
532.31	60879.67
532.48	60921.80
532.65	61003.72
532.82	60853.93
532.99	61109.05
533.16	61125.43
533.33	61233.10
533.50	61176.92
533.67	61305.65
533.84	61141.81
534.01	61293.95
534.18	61230.75
534.35	61296.29
534.52	61422.68
534.69	61539.71
534.86	61488.21
535.03	61270.54
535.20	61661.41
535.37	61766.74
535.54	61659.07
535.71	61675.46
535.88	61560.77
536.05	61717.59
536.22	61848.66
536.38	61918.87
536.55	61736.31
536.72	61724.61
536.89	61951.64
537.06	61806.53
537.23	61965.68
537.40	61764.40
537.57	61773.76
537.74	62010.15
537.91	62162.29
538.08	62192.72
538.25	61951.64
538.42	62223.14
538.59	62347.19
538.75	61958.66
538.92	62155.27
539.09	62349.53
539.26	62384.64
539.43	62450.17
539.60	62307.40
539.77	62405.70
539.94	62461.88
540.11	62440.81
540.28	62621.03
540.44	62663.16
540.61	62518.05
540.78	62560.18
540.95	62724.02
541.12	62674.87
541.29	62796.57
541.46	62787.21
541.62	62754.44
541.79	62834.02
541.96	62471.24
542.13	62815.30
542.30	62766.15
542.47	63135.95
542.63	63175.74
542.80	63245.96
542.97	63421.50
543.14	63213.19
543.31	63316.17
543.48	63283.40
543.64	63358.30
543.81	63402.77
543.98	63554.91
544.15	63540.86
544.32	63561.93
544.48	63648.53
544.65	63669.59
544.82	63484.69
544.99	63173.40
545.16	63587.67
545.32	63580.65
545.49	63803.00
545.66	63931.73
545.83	64147.06
546.00	64233.66
546.16	63873.22
546.33	63707.04
546.50	63557.25
546.67	63721.08
546.83	63416.82
547.00	63728.11
547.17	63903.65
547.34	63845.13
547.50	64126.00
547.67	64126.00
547.84	63931.73
548.00	64128.34
548.17	64088.55
548.34	64015.99
548.51	64104.93
548.67	64243.02
548.84	64264.09
549.01	64041.74
549.18	64322.60
549.34	63880.24
549.51	64062.80
549.68	64224.30
549.84	63948.12
550.01	64224.30
550.18	64109.61
550.34	64282.81
550.51	64369.41
550.68	64355.37
550.84	64198.55
551.01	64453.67
551.18	64296.86
551.34	64245.36
551.51	64250.05
551.68	64371.75
551.84	64463.03
552.01	64465.38
552.18	64736.88
552.34	64498.14
552.51	64636.23
552.68	64561.34
552.84	64699.43
553.01	64680.70
553.18	64615.17
553.34	64753.26
553.51	64654.96
553.67	64823.48
553.84	64987.31
554.01	64884.33
554.17	64910.08
554.34	64844.54
554.51	64750.92
554.67	64994.34
554.84	65038.81
555.00	64832.84
555.17	64931.14
555.33	64928.80
555.50	64910.08
555.67	64928.80
555.83	64945.18
556.00	65045.83
556.16	65109.02
556.33	65045.83
556.50	65055.19
556.66	65190.94
556.83	65174.56
556.99	65322.01
557.16	65237.75
557.32	65286.90
557.49	65305.63
557.65	65247.11
557.82	65219.03
557.98	65151.15
558.15	65286.90
558.32	65413.29
558.48	65499.89
558.65	65485.85
558.81	65322.01
558.98	65272.86
559.14	65293.92
559.31	65279.88
559.47	65221.37
559.64	65436.70
559.80	65518.62
559.97	65443.72
560.13	65485.85
560.30	65467.12
560.46	65535.00
560.63	65535.00
560.79	65474.15
560.96	65535.00
561.12	65495.21
561.29	65504.57
561.45	65535.00
561.61	65535.00
561.78	65535.00
561.94	65535.00
562.11	65535.00
562.27	65535.00
562.44	65535.00
562.60	65535.00
562.77	65535.00
562.93	65535.00
563.10	65535.00
563.26	65535.00
563.42	65535.00
563.59	65535.00
563.75	65535.00
563.92	65535.00
564.08	65535.00
564.24	65535.00
564.41	65535.00
564.57	65535.00
564.74	65535.00
564.90	65535.00
565.07	65535.00
565.23	65535.00
565.39	65535.00
565.56	65535.00
565.72	65535.00
565.88	65535.00
566.05	65535.00
566.21	65535.00
566.38	65535.00
566.54	65535.00
566.70	65535.00
566.87	65535.00
567.03	65535.00
567.19	65535.00
567.36	65535.00
567.52	65535.00
567.68	65535.00
567.85	65535.00
568.01	65535.00
568.17	65535.00
568.34	65535.00
568.50	65535.00
568.66	65535.00
568.83	65535.00
568.99	65535.00
569.15	65535.00
569.32	65535.00
569.48	65535.00
569.64	65535.00
569.81	65535.00
569.97	65535.00
570.13	65535.00
570.30	65535.00
570.46	65535.00
570.62	65535.00
570.78	65535.00
570.95	65535.00
571.11	65535.00
571.27	65535.00
571.43	65535.00
571.60	65535.00
571.76	65535.00
571.92	65535.00
572.09	65535.00
572.25	65535.00
572.41	65535.00
572.57	65535.00
572.74	65535.00
572.90	65535.00
573.06	65535.00
573.22	65535.00
573.38	65535.00
573.55	65535.00
573.71	65535.00
573.87	65535.00
574.03	65535.00
574.20	65535.00
574.36	65535.00
574.52	65535.00
574.68	65535.00
574.84	65535.00
575.01	65535.00
575.17	65535.00
575.33	65535.00
575.49	65535.00
575.65	65535.00
575.82	65535.00
575.98	65535.00
576.14	65535.00
576.30	65535.00
576.46	65535.00
576.62	65535.00
576.79	65535.00
576.95	65535.00
577.11	65535.00
577.27	65535.00
577.43	65535.00
577.59	65535.00
577.75	65535.00
577.92	65535.00
578.08	65535.00
578.24	65535.00
578.40	65535.00
578.56	65535.00
578.72	65535.00
578.88	65535.00
579.04	65535.00
579.21	65535.00
579.37	65535.00
579.53	65535.00
579.69	65535.00
579.85	65535.00
580.01	65535.00
580.17	65535.00
580.33	65535.00
580.49	65535.00
580.65	65535.00
580.82	65535.00
580.98	65535.00
581.14	65535.00
581.30	65535.00
581.46	65535.00
581.62	65535.00
581.78	65535.00
581.94	65535.00
582.10	65535.00
582.26	65535.00
582.42	65535.00
582.58	65535.00
582.74	65535.00
582.90	65535.00
583.06	65535.00
583.22	65535.00
583.38	65535.00
583.54	65535.00
583.70	65535.00
583.86	65535.00
584.02	65535.00
584.18	65535.00
584.34	65535.00
584.50	65535.00
584.66	65535.00
584.82	65535.00
584.98	65535.00
585.14	65535.00
585.30	65535.00
585.46	65535.00
585.62	65535.00
585.78	65535.00
585.94	65535.00
586.10	65535.00
586.26	65535.00
586.42	65535.00
586.58	65535.00
586.74	65535.00
586.90	65535.00
587.06	65535.00
587.22	65535.00
587.38	65535.00
587.54	65535.00
587.70	65535.00
587.86	65535.00
588.02	65535.00
588.18	65535.00
