SpectraSuite Data File
++++++++++++++++++++++++++++++++++++
Date: Fri Oct 04 11:39:24 GMT-05:00 2013
User: price-jones
Dark Spectrum Present: No
Reference Spectrum Present: No
Number of Sampled Component Spectra: 1
Spectrometers: USB2+H05261
Integration Time (usec): 100000 (USB2+H05261)
Spectra Averaged: 1 (USB2+H05261)
Boxcar Smoothing: 0 (USB2+H05261)
Correct for Electrical Dark: No (USB2+H05261)
Strobe/Lamp Enabled: No (USB2+H05261)
Correct for Detector Non-linearity: No (USB2+H05261)
Correct for Stray Light: No (USB2+H05261)
Number of Pixels in Processed Spectrum: 2048
>>>>>Begin Processed Spectral Data<<<<<
365.73	0.00
365.92	0.00
366.12	0.00
366.32	0.00
366.52	0.00
366.72	0.00
366.91	0.00
367.11	0.00
367.31	0.00
367.51	0.00
367.70	0.00
367.90	0.00
368.10	0.00
368.30	0.00
368.49	0.00
368.69	0.00
368.89	0.00
369.09	0.00
369.28	0.00
369.48	0.00
369.68	32.77
369.87	16.38
370.07	0.00
370.27	46.81
370.47	0.00
370.66	138.09
370.86	208.31
371.06	266.82
371.25	285.55
371.45	231.71
371.65	203.63
371.84	217.67
372.04	227.03
372.24	248.10
372.44	306.61
372.63	301.93
372.83	306.61
373.03	358.10
373.22	259.80
373.42	285.55
373.62	334.70
373.81	381.51
374.01	292.57
374.21	381.51
374.40	367.46
374.60	344.06
374.79	344.06
374.99	409.59
375.19	327.68
375.38	334.70
375.58	411.93
375.78	332.36
375.97	397.89
376.17	327.68
376.37	301.93
376.56	348.74
376.76	320.65
376.95	308.95
377.15	379.17
377.35	386.19
377.54	301.93
377.74	369.80
377.93	435.34
378.13	322.99
378.33	421.30
378.52	407.25
378.72	454.06
378.91	376.83
379.11	404.91
379.31	374.49
379.50	376.83
379.70	355.76
379.89	430.66
380.09	376.83
380.28	360.44
380.48	351.08
380.68	313.63
380.87	388.53
381.07	395.55
381.26	435.34
381.46	444.70
381.65	421.30
381.85	365.12
382.04	358.10
382.24	402.57
382.43	411.93
382.63	540.66
382.83	491.51
383.02	547.69
383.22	416.62
383.41	423.64
383.61	360.44
383.80	465.77
384.00	400.23
384.19	425.98
384.39	411.93
384.58	498.53
384.78	486.83
384.97	500.87
385.17	486.83
385.36	512.58
385.56	458.74
385.75	489.17
385.95	475.13
386.14	456.40
386.34	517.26
386.53	517.26
386.72	428.32
386.92	477.47
387.11	521.94
387.31	489.17
387.50	524.28
387.70	489.17
387.89	451.72
388.09	489.17
388.28	613.22
388.48	582.79
388.67	557.05
388.86	585.13
389.06	547.69
389.25	617.90
389.45	578.11
389.64	526.62
389.84	564.07
390.03	594.50
390.22	622.58
390.42	568.75
390.61	585.13
390.81	575.77
391.00	613.22
391.19	493.85
391.39	578.11
391.58	638.97
391.78	620.24
391.97	624.92
392.16	592.16
392.36	631.94
392.55	648.33
392.75	622.58
392.94	676.41
393.13	620.24
393.33	674.07
393.52	678.76
393.71	690.46
393.91	699.82
394.10	610.88
394.29	725.57
394.49	676.41
394.68	711.52
394.88	737.27
395.07	709.18
395.26	688.12
395.46	699.82
395.65	795.78
395.84	830.89
396.04	821.53
396.23	791.10
396.42	842.59
396.62	755.99
396.81	713.86
397.00	814.51
397.19	713.86
397.39	819.19
397.58	833.23
397.77	760.67
397.97	809.83
398.16	847.27
398.35	823.87
398.55	833.23
398.74	898.77
398.93	840.25
399.12	826.21
399.32	915.15
399.51	954.94
399.70	968.98
399.90	926.85
400.09	933.87
400.28	922.17
400.47	1006.43
400.67	901.11
400.86	1034.52
401.05	936.21
401.24	945.58
401.44	1081.33
401.63	1123.46
401.82	1078.99
402.01	1032.18
402.21	1027.50
402.40	1118.78
402.59	1121.12
402.78	1032.18
402.97	943.24
403.17	1074.31
403.36	1022.81
403.55	1088.35
403.74	1170.27
403.93	1177.29
404.13	1261.55
404.32	1226.44
404.51	1268.57
404.70	1203.04
404.89	1228.78
405.09	1261.55
405.28	1139.84
405.47	1217.08
405.66	1378.58
405.85	1291.98
406.05	1315.38
406.24	1322.40
406.43	1313.04
406.62	1254.53
406.81	1303.68
407.00	1310.70
407.20	1303.68
407.39	1399.64
407.58	1448.79
407.77	1495.60
407.96	1376.24
408.15	1409.00
408.34	1444.11
408.54	1486.24
408.73	1549.43
408.92	1497.94
409.11	1462.83
409.30	1558.80
409.49	1570.50
409.68	1572.84
409.87	1556.46
410.07	1554.12
410.26	1631.35
410.45	1586.88
410.64	1577.52
410.83	1638.38
411.02	1621.99
411.21	1720.29
411.40	1760.08
411.59	1832.64
411.78	1785.83
411.98	1694.55
412.17	1802.21
412.36	1825.62
412.55	1893.49
412.74	1928.60
412.93	1937.96
413.12	1996.48
413.31	2127.55
413.50	1919.24
413.69	1998.82
413.88	2141.59
414.07	2015.20
414.26	2113.50
414.45	2167.34
414.64	2143.93
414.83	2265.64
415.02	2111.16
415.22	2143.93
415.41	2244.57
415.60	2190.74
415.79	2321.81
415.98	2345.22
416.17	2340.54
416.36	2188.40
416.55	2204.78
416.74	2361.60
416.93	2429.48
417.12	2420.11
417.31	2345.22
417.50	2516.08
417.69	2520.76
417.88	2593.31
418.07	2612.04
418.26	2518.42
418.45	2572.25
418.64	2612.04
418.83	2593.31
419.02	2621.40
419.21	2565.23
419.39	2792.26
419.58	2768.85
419.77	2684.59
419.96	2775.88
420.15	2888.22
420.34	2684.59
420.53	2729.06
420.72	2953.76
420.91	2778.22
421.10	2930.35
421.29	2974.82
421.48	2813.32
421.67	2979.50
421.86	2963.12
422.05	2897.58
422.24	2951.42
422.43	2984.18
422.61	2881.20
422.80	2958.44
422.99	3002.91
423.18	2958.44
423.37	2988.86
423.56	2939.71
423.75	2986.52
423.94	2916.31
424.13	2799.28
424.32	2876.52
424.50	3019.29
424.69	3070.78
424.88	3232.28
425.07	3000.57
425.26	3178.45
425.45	2974.82
425.64	2970.14
425.83	3087.17
426.01	3119.93
426.20	2972.48
426.39	3091.85
426.58	3162.06
426.77	3089.51
426.96	3208.87
427.15	3119.93
427.33	3077.80
427.52	3201.85
427.71	3246.32
427.90	3251.00
428.09	3323.56
428.28	3351.65
428.46	3232.28
428.65	3370.37
428.84	3391.44
429.03	3353.99
429.22	3276.75
429.40	3389.10
429.59	3332.92
429.78	3346.97
429.97	3283.77
430.16	3335.26
430.34	3356.33
430.53	3417.18
430.72	3529.53
430.91	3609.11
431.10	3417.18
431.28	3522.51
431.47	3667.62
431.66	3449.95
431.85	3641.87
432.03	3618.47
432.22	3620.81
432.41	3595.06
432.60	3632.51
432.79	3662.94
432.97	3597.40
433.16	3782.31
433.35	3693.37
433.54	3660.60
433.72	3798.69
433.91	3765.92
434.10	3733.15
434.28	3779.97
434.47	3868.91
434.66	3913.38
434.85	3801.03
435.03	4002.32
435.22	4063.17
435.41	4400.21
435.59	4348.72
435.78	4107.64
435.97	4044.45
436.16	4112.32
436.34	4117.00
436.53	4032.74
436.72	4215.30
436.90	4018.70
437.09	4215.30
437.28	3999.98
437.46	4133.39
437.65	4100.62
437.84	4262.12
438.02	4224.67
438.21	4196.58
438.40	4072.53
438.58	4437.66
438.77	4322.97
438.96	4236.37
439.14	4383.82
439.33	4348.72
439.52	4383.82
439.70	4547.66
439.89	4554.68
440.08	4699.80
440.26	4531.28
440.45	4545.32
440.63	4599.15
440.82	4669.37
441.01	4800.44
441.19	4795.76
441.38	4924.49
441.57	4917.47
441.75	4894.06
441.94	5050.88
442.12	4805.12
442.31	4919.81
442.50	4919.81
442.68	4936.19
442.87	5006.41
443.05	5008.75
443.24	5076.62
443.43	5107.05
443.61	5034.49
443.80	5179.61
443.98	5088.32
444.17	4964.28
444.35	5074.28
444.54	5212.37
444.73	5088.32
444.91	5097.69
445.10	5221.74
445.28	5151.52
445.47	5090.67
445.65	5128.11
445.84	5135.14
446.02	5221.74
446.21	5151.52
446.39	5235.78
446.58	5205.35
446.77	5355.15
446.95	5165.56
447.14	5088.32
447.32	5327.06
447.51	5308.34
447.69	5317.70
447.88	5345.78
448.06	5331.74
448.25	5329.40
448.43	5245.14
448.62	5439.40
448.80	5348.12
448.99	5406.64
449.17	5408.98
449.36	5427.70
449.54	5523.66
449.73	5589.20
449.91	5565.79
450.10	5584.52
450.28	5526.00
450.46	5551.75
450.65	5666.44
450.83	5561.11
451.02	5619.63
451.20	5631.33
451.39	5692.18
451.57	5659.42
451.76	5661.76
451.94	5729.63
452.13	5731.97
452.31	5556.43
452.49	5619.63
452.68	5827.93
452.86	5727.29
453.05	6073.69
453.23	5764.74
453.42	5827.93
453.60	5900.49
453.78	5959.00
453.97	5820.91
454.15	5788.14
454.34	5933.26
454.52	6150.93
454.70	5954.32
454.89	5937.94
455.07	6052.63
455.26	6197.74
455.44	6134.54
455.62	6176.67
455.81	6022.20
455.99	6052.63
456.17	6326.47
456.36	6221.14
456.54	6171.99
456.73	6207.10
456.91	6359.24
457.09	6347.53
457.28	6387.32
457.46	6380.30
457.64	6569.88
457.83	6541.80
458.01	6370.94
458.19	6581.59
458.38	6492.65
458.56	6628.40
458.74	6572.22
458.93	6539.46
459.11	6679.89
459.29	6448.18
459.48	6832.02
459.66	6700.95
459.84	6850.75
460.03	6899.90
460.21	6754.79
460.39	6799.26
460.57	6782.87
460.76	6855.43
460.94	6874.15
461.12	6815.64
461.31	7007.56
461.49	7035.65
461.67	6885.86
461.85	7239.28
462.04	7016.93
462.22	7164.38
462.40	7185.44
462.59	7119.91
462.77	7122.25
462.95	7040.33
463.13	7248.64
463.32	7117.57
463.50	7185.44
463.68	7236.94
463.86	7246.30
464.05	7232.26
464.23	7325.88
464.41	7311.83
464.59	7225.23
464.78	7463.97
464.96	7391.41
465.14	7377.37
465.32	7410.14
465.50	7576.31
465.69	7616.10
465.87	7382.05
466.05	7246.30
466.23	7454.61
466.41	7557.59
466.60	7903.99
466.78	7342.26
466.96	7578.65
467.14	7527.16
467.32	7756.54
467.51	7583.34
467.69	7646.53
467.87	7791.64
468.05	7599.72
468.23	7517.80
468.41	7730.79
468.60	7805.69
468.78	7786.96
468.96	7756.54
469.14	7920.37
469.32	7901.65
469.50	7644.19
469.69	7899.31
469.87	8028.04
470.05	7939.10
470.23	7983.57
470.41	8166.13
470.59	8128.68
470.77	8077.19
470.95	8215.28
471.14	8201.24
471.32	8175.49
471.50	8334.65
471.68	8334.65
471.86	8231.66
472.04	8500.83
472.22	8594.45
472.40	8421.25
472.58	8566.36
472.77	8449.33
472.95	8774.67
473.13	8929.14
473.31	8762.97
473.49	8585.08
473.67	8737.22
473.85	8617.85
474.03	8999.36
474.21	8837.86
474.39	8868.29
474.57	9284.91
474.75	9217.03
474.93	9364.48
475.12	9071.92
475.30	9268.52
475.48	9174.90
475.66	9116.39
475.84	9371.50
476.02	9350.44
476.20	9511.94
476.38	9568.11
476.56	9701.52
476.74	9776.42
476.92	9853.66
477.10	9664.07
477.28	10017.49
477.46	9624.28
477.64	9970.68
477.82	10005.79
478.00	10401.34
478.18	10239.84
478.36	10178.99
478.54	10462.19
478.72	10448.15
478.90	10469.22
479.08	10665.82
479.26	10726.68
479.44	10759.44
479.62	10827.32
479.80	10958.39
479.98	10946.69
480.16	11328.19
480.34	11183.08
480.52	11438.20
480.70	11517.78
480.88	11091.80
481.06	11485.01
481.24	11461.60
481.41	11496.71
481.59	11548.20
481.77	11864.18
481.95	12119.29
482.13	12135.68
482.31	11896.94
482.49	12156.74
482.67	12388.46
482.85	12386.12
483.03	12610.81
483.21	12718.47
483.39	12482.08
483.57	12774.64
483.74	13001.68
483.92	13001.68
484.10	12638.89
484.28	13282.54
484.46	13404.25
484.64	13699.16
484.82	13352.76
485.00	13376.16
485.18	13860.65
485.35	13867.67
485.53	13937.89
485.71	13973.00
485.89	14155.56
486.07	13956.61
486.25	14295.99
486.43	14410.68
486.61	14375.57
486.78	14656.43
486.96	14810.91
487.14	15124.54
487.32	14906.87
487.50	14951.34
487.68	15206.46
487.85	15625.42
488.03	15466.26
488.21	15779.89
488.39	15669.89
488.57	16065.44
488.75	15627.76
488.92	16652.91
489.10	16353.32
489.28	16435.24
489.46	16676.32
489.64	16423.54
489.81	17057.82
489.99	17092.93
490.17	16800.37
490.35	17408.90
490.53	17305.92
490.70	17446.35
490.88	17507.21
491.06	17759.98
491.24	17444.01
491.41	17837.22
491.59	18022.12
491.77	17820.84
491.95	18115.75
492.13	18157.88
492.30	18267.88
492.48	18183.62
492.66	18586.19
492.84	18361.50
493.01	18710.24
493.19	18679.82
493.37	19019.19
493.54	19389.00
493.72	19033.24
493.90	19164.31
494.08	19054.30
494.25	19756.46
494.43	19632.41
494.61	19845.40
494.79	19573.90
494.96	19697.95
495.14	19990.52
495.32	20194.14
495.49	20030.30
495.67	20231.59
495.85	20325.21
496.02	20751.19
496.20	20863.54
496.38	20563.95
496.55	20716.08
496.73	21359.73
496.91	20971.20
497.09	21186.53
497.26	21474.42
497.44	21298.88
497.62	21537.61
497.79	21661.66
497.97	21631.23
498.14	21823.16
498.32	21891.03
498.50	22031.46
498.67	21956.57
498.85	21902.73
499.03	22202.32
499.20	22623.62
499.38	22438.72
499.56	22497.23
499.73	22876.40
499.91	22373.18
500.08	22979.38
500.26	22752.35
500.44	23281.31
500.61	23316.42
500.79	22995.76
500.97	22981.72
501.14	23454.51
501.32	23513.02
501.49	23215.77
501.67	23538.77
501.84	24011.56
502.02	23651.11
502.20	24098.16
502.37	23796.23
502.55	23662.82
502.72	23892.19
502.90	24135.60
503.07	23936.66
503.25	23964.75
503.43	24128.58
503.60	24065.39
503.78	24807.34
503.95	24584.99
504.13	24704.35
504.30	24814.36
504.48	24657.54
504.65	25039.05
504.83	24826.06
505.01	25411.20
505.18	25132.67
505.36	25706.10
505.53	25348.00
505.71	25088.20
505.88	25600.78
506.06	25163.10
506.23	25713.13
506.41	25851.22
506.58	25940.16
506.76	25584.40
506.93	26059.52
507.11	25956.54
507.28	25909.73
507.46	25989.31
507.63	26295.92
507.81	26359.11
507.98	26118.04
508.16	26099.31
508.33	26377.84
508.50	26705.51
508.68	26450.39
508.85	26738.28
509.03	26611.89
509.20	26883.39
509.38	27157.24
509.55	26902.12
509.73	27414.69
509.90	27536.40
510.08	26918.50
510.25	27344.48
510.42	27463.85
510.60	27669.81
510.77	27711.94
510.95	28009.19
511.12	27597.26
511.30	28037.28
511.47	27758.75
511.64	27613.64
511.82	28196.43
511.99	28067.70
512.17	28503.04
512.34	28051.32
512.51	28898.59
512.69	28496.02
512.86	28751.14
513.04	28694.97
513.21	28758.16
513.38	29027.32
513.56	28802.63
513.73	28830.72
513.90	29132.65
514.08	28957.11
514.25	29249.67
514.43	29259.04
514.60	29350.32
514.77	29280.10
514.95	29666.29
515.12	29439.26
515.29	29029.66
515.47	29872.26
515.64	29500.11
515.81	29736.51
515.99	30106.31
516.16	30270.15
516.33	30237.38
516.51	30183.55
516.68	30167.16
516.85	29996.31
517.03	30244.40
517.20	30206.95
517.37	30630.59
517.54	30312.28
517.72	30522.93
517.89	30862.30
518.06	30583.78
518.24	30424.62
518.41	30731.23
518.58	30600.16
518.75	30845.92
518.93	31218.07
519.10	30869.33
519.27	31098.70
519.45	31187.64
519.62	31253.17
519.79	31683.83
519.96	31344.45
520.14	31541.06
520.31	31435.74
520.48	31714.26
520.65	31992.78
520.83	31644.04
521.00	31775.11
521.17	31477.86
521.34	31349.14
521.52	31889.80
521.69	32313.44
521.86	31981.08
522.03	32587.28
522.20	32264.28
522.38	32217.47
522.55	32833.04
522.72	32418.76
522.89	32226.84
523.07	32739.41
523.24	32538.13
523.41	32629.41
523.58	32634.09
523.75	32818.99
523.92	32945.38
524.10	32877.51
524.27	33092.83
524.44	33188.80
524.61	32924.32
524.78	33095.18
524.96	33254.33
525.13	33373.70
525.30	33832.44
525.47	33619.46
525.64	33565.62
525.81	33689.67
525.98	33811.38
526.16	33647.54
526.33	33659.24
526.50	34375.45
526.67	33275.40
526.84	34274.80
527.01	33830.10
527.18	33928.41
527.36	34281.83
527.53	34227.99
527.70	34426.94
527.87	34862.28
528.04	34293.53
528.21	34071.18
528.38	34330.98
528.55	34265.44
528.72	34665.67
528.89	34820.15
529.07	34712.49
529.24	34780.36
529.41	34649.29
529.58	34422.26
529.75	34719.51
529.92	34810.79
530.09	35182.93
530.26	34944.20
530.43	35323.36
530.60	34843.56
530.77	35236.77
530.94	35173.57
531.11	35332.73
531.28	35243.79
531.46	35084.63
531.63	35676.79
531.80	35648.70
531.97	35658.06
532.14	35990.42
532.31	35751.68
532.48	35992.76
532.65	35754.02
532.82	35831.26
532.99	36077.02
533.16	35817.22
533.33	36201.07
533.50	36596.62
533.67	36184.68
533.84	35723.60
534.01	35917.86
534.18	35936.59
534.35	36156.60
534.52	36194.04
534.69	36390.65
534.86	36854.08
535.03	36168.30
535.20	36847.05
535.37	36842.37
535.54	36715.98
535.71	36868.12
535.88	36631.72
536.05	36664.49
536.22	37067.06
536.38	37392.40
536.55	36928.97
536.72	37064.72
536.89	36498.31
537.06	36531.08
537.23	37141.96
537.40	37003.87
537.57	37132.60
537.74	37172.39
537.91	37373.67
538.08	37055.36
538.25	37148.98
538.42	37214.52
538.59	37530.49
538.75	37869.87
538.92	37408.78
539.09	37677.94
539.26	37748.16
539.43	38115.62
539.60	37874.55
539.77	37951.79
539.94	38167.12
540.11	38038.39
540.28	38073.49
540.44	38103.92
540.61	38181.16
540.78	38370.74
540.95	38134.35
541.12	38272.44
541.29	38873.96
541.46	38155.41
541.62	38110.94
541.79	38550.96
541.96	38108.60
542.13	38560.33
542.30	38298.19
542.47	38864.60
542.63	38904.38
542.80	38902.04
542.97	39487.18
543.14	39131.42
543.31	39438.03
543.48	38953.54
543.64	39192.27
543.81	39344.41
543.98	39480.16
544.15	39454.41
544.32	39058.86
544.48	39662.72
544.65	39761.02
544.82	39718.89
544.99	39449.73
545.16	39084.61
545.32	39447.39
545.49	40158.91
545.66	40978.10
545.83	40760.43
546.00	40390.62
546.16	40524.04
546.33	39400.58
546.50	39365.47
546.67	39915.50
546.83	39199.29
547.00	40058.27
547.17	39758.68
547.34	40224.45
547.50	40388.28
547.67	40027.84
547.84	40306.37
548.00	40507.65
548.17	39995.07
548.34	39440.37
548.51	40350.84
548.67	40156.57
548.84	40528.72
549.01	40196.36
549.18	40287.64
549.34	40549.78
549.51	40058.27
549.68	40041.88
549.84	40079.33
550.01	40325.09
550.18	40669.15
550.34	40465.52
550.51	40442.12
550.68	40650.42
550.84	40308.71
551.01	40629.36
551.18	40325.09
551.34	40444.46
551.51	40542.76
551.68	40779.15
551.84	40739.36
552.01	40399.99
552.18	40737.02
552.34	40591.91
552.51	40945.33
552.68	40556.80
552.84	40645.74
553.01	40685.53
553.18	40715.96
553.34	41092.79
553.51	40779.15
553.67	41167.68
553.84	40978.10
554.01	41553.87
554.17	41167.68
554.34	41134.92
554.51	40968.74
554.67	41240.24
554.84	41268.33
555.00	41551.53
555.17	40989.80
555.33	41336.20
555.50	41221.52
555.67	41296.41
555.83	41265.99
556.00	41364.29
556.16	42005.59
556.33	41294.07
556.50	41251.94
556.66	41111.51
556.83	41581.96
556.99	41792.61
557.16	42054.75
557.32	41764.52
557.49	41659.20
557.65	41106.83
557.82	41682.60
557.98	41404.08
558.15	41537.49
558.32	41759.84
558.48	41762.18
558.65	41738.77
558.81	41703.67
558.98	41542.17
559.14	41982.19
559.31	41284.71
559.47	41418.12
559.64	42110.92
559.80	41635.79
559.97	42270.08
560.13	42124.96
560.30	42270.08
560.46	42024.32
560.63	41989.21
560.79	42225.60
560.96	42337.95
561.12	42162.41
561.29	41926.02
561.45	42073.47
561.61	42029.00
561.78	42188.16
561.94	42417.53
562.11	42284.12
562.27	42045.38
562.44	42188.16
562.60	42216.24
562.77	42017.30
562.93	42183.48
563.10	42513.49
563.26	42029.00
563.42	42476.04
563.59	42436.25
563.75	42555.62
563.92	42600.09
564.08	42225.60
564.24	42394.12
564.41	42024.32
564.57	42333.27
564.74	42061.77
564.90	42529.87
565.07	42813.08
565.23	42361.36
565.39	42691.37
565.56	42590.73
565.72	42405.83
565.88	42295.82
566.05	42677.33
566.21	42504.13
566.38	42267.73
566.54	42314.55
566.70	42841.17
566.87	43152.46
567.03	42653.92
567.19	42522.85
567.36	42576.69
567.52	42712.44
567.68	42965.21
567.85	42377.74
568.01	42513.49
568.17	42295.82
568.34	42714.78
568.50	42628.18
568.66	42911.38
568.83	42827.12
568.99	42183.48
569.15	42476.04
569.32	42721.80
569.48	42443.27
569.64	42808.40
569.81	42710.10
569.97	42440.93
570.13	43395.87
570.30	42639.88
570.46	42492.43
570.62	43105.65
570.78	42796.70
570.95	42623.50
571.11	42731.16
571.27	42316.89
571.43	42253.69
571.60	42995.64
571.76	43005.00
571.92	43115.01
572.09	42923.08
572.25	42969.90
572.41	42768.61
572.57	43164.16
572.74	43002.66
572.90	42717.12
573.06	43091.60
573.22	43065.86
573.38	42820.10
573.55	42417.53
573.71	43159.48
573.87	43107.99
574.03	42855.21
574.20	42693.71
574.36	42609.45
574.52	42543.92
574.68	42646.90
574.84	42890.32
575.01	42897.34
575.17	43012.02
575.33	42597.75
575.49	42976.92
575.65	43328.00
575.82	43264.80
575.98	43140.75
576.14	43023.73
576.30	42939.47
576.46	42635.20
576.62	42913.72
576.79	43203.95
576.95	42777.97
577.11	43438.00
577.27	43363.11
577.43	43447.36
577.59	43021.39
577.75	42913.72
577.92	42979.26
578.08	42834.14
578.24	42726.48
578.40	43021.39
578.56	43194.59
578.72	43217.99
578.88	43571.41
579.04	43344.38
579.21	43728.23
579.37	43569.07
579.53	43058.84
579.69	42810.74
579.85	42843.51
580.01	43115.01
580.17	42927.77
580.33	43210.97
580.49	43508.22
580.65	43381.83
580.82	43145.44
580.98	43445.02
581.14	43171.18
581.30	43189.91
581.46	43054.15
581.62	42941.81
581.78	42707.76
581.94	43386.51
582.10	43023.73
582.26	43442.68
582.42	43040.11
582.58	43349.06
582.74	43070.54
582.90	43557.37
583.06	42953.51
583.22	43000.32
583.38	42794.36
583.54	43103.31
583.70	42969.90
583.86	43393.53
584.02	43302.25
584.18	43269.48
584.34	43681.42
584.50	43683.76
584.66	43058.84
584.82	42841.17
584.98	43309.27
585.14	43402.89
585.30	43058.84
585.46	42939.47
585.62	43161.82
585.78	43487.15
585.94	43105.65
586.10	43285.87
586.26	43564.39
586.42	43971.64
586.58	43775.04
586.74	43655.67
586.90	43473.11
587.06	43367.79
587.22	43449.70
587.38	43491.83
587.54	43309.27
587.70	43704.82
587.86	43751.63
588.02	43510.56
588.18	43606.52
588.34	43306.93
588.49	43189.91
588.65	43136.07
588.81	43196.93
588.97	43494.18
589.13	43161.82
589.29	43358.42
589.45	43571.41
589.61	43468.43
589.77	44154.21
589.93	43739.93
590.08	43632.27
590.24	43852.28
590.40	43948.24
590.56	43716.53
590.72	43700.14
590.88	43133.73
591.04	43470.77
