SpectraSuite Data File
++++++++++++++++++++++++++++++++++++
Date: Fri Oct 04 11:39:52 GMT-05:00 2013
User: price-jones
Dark Spectrum Present: No
Reference Spectrum Present: No
Number of Sampled Component Spectra: 1
Spectrometers: USB2+H05261
Integration Time (usec): 100000 (USB2+H05261)
Spectra Averaged: 1 (USB2+H05261)
Boxcar Smoothing: 0 (USB2+H05261)
Correct for Electrical Dark: No (USB2+H05261)
Strobe/Lamp Enabled: No (USB2+H05261)
Correct for Detector Non-linearity: No (USB2+H05261)
Correct for Stray Light: No (USB2+H05261)
Number of Pixels in Processed Spectrum: 2048
>>>>>Begin Processed Spectral Data<<<<<
365.73	7.02
365.92	7.02
366.12	7.02
366.32	0.00
366.52	0.00
366.72	30.43
366.91	0.00
367.11	0.00
367.31	0.00
367.51	0.00
367.70	0.00
367.90	0.00
368.10	0.00
368.30	0.00
368.49	0.00
368.69	0.00
368.89	14.04
369.09	0.00
369.28	0.00
369.48	0.00
369.68	0.00
369.87	32.77
370.07	0.00
370.27	39.79
370.47	9.36
370.66	0.00
370.86	53.83
371.06	35.11
371.25	100.64
371.45	53.83
371.65	88.94
371.84	95.96
372.04	67.88
372.24	86.60
372.44	51.49
372.63	102.98
372.83	175.54
373.03	37.45
373.22	84.26
373.42	198.95
373.62	142.77
373.81	152.13
374.01	177.88
374.21	159.16
374.40	140.43
374.60	180.22
374.79	166.18
374.99	182.56
375.19	117.03
375.38	131.07
375.58	168.52
375.78	152.13
375.97	142.77
376.17	212.99
376.37	191.92
376.56	168.52
376.76	88.94
376.95	145.11
377.15	121.71
377.35	117.03
377.54	114.69
377.74	180.22
377.93	117.03
378.13	133.41
378.33	98.30
378.52	77.24
378.72	128.73
378.91	205.97
379.11	117.03
379.31	112.35
379.50	81.92
379.70	175.54
379.89	166.18
380.09	166.18
380.28	105.32
380.48	201.29
380.68	86.60
380.87	135.75
381.07	140.43
381.26	238.73
381.46	159.16
381.65	131.07
381.85	70.22
382.04	102.98
382.24	170.86
382.43	119.37
382.63	126.39
382.83	128.73
383.02	161.50
383.22	147.45
383.41	180.22
383.61	166.18
383.80	114.69
384.00	60.85
384.19	149.79
384.39	98.30
384.58	142.77
384.78	110.01
384.97	212.99
385.17	121.71
385.36	128.73
385.56	117.03
385.75	79.58
385.95	131.07
386.14	189.58
386.34	166.18
386.53	95.96
386.72	117.03
386.92	180.22
387.11	198.95
387.31	215.33
387.50	98.30
387.70	135.75
387.89	133.41
388.09	149.79
388.28	70.22
388.48	161.50
388.67	135.75
388.86	149.79
389.06	175.54
389.25	93.62
389.45	110.01
389.64	159.16
389.84	161.50
390.03	114.69
390.22	131.07
390.42	201.29
390.61	119.37
390.81	135.75
391.00	163.84
391.19	119.37
391.39	182.56
391.58	93.62
391.78	138.09
391.97	196.60
392.16	189.58
392.36	159.16
392.55	180.22
392.75	177.88
392.94	159.16
393.13	175.54
393.33	194.26
393.52	189.58
393.71	159.16
393.91	91.28
394.10	161.50
394.29	140.43
394.49	198.95
394.68	163.84
394.88	177.88
395.07	173.20
395.26	163.84
395.46	201.29
395.65	222.35
395.84	248.10
396.04	212.99
396.23	149.79
396.42	95.96
396.62	168.52
396.81	210.65
397.00	154.48
397.19	252.78
397.39	205.97
397.58	278.52
397.77	131.07
397.97	161.50
398.16	140.43
398.35	149.79
398.55	163.84
398.74	156.82
398.93	285.55
399.12	175.54
399.32	201.29
399.51	131.07
399.70	259.80
399.90	156.82
400.09	201.29
400.28	177.88
400.47	196.60
400.67	236.39
400.86	224.69
401.05	264.48
401.24	294.91
401.44	248.10
401.63	161.50
401.82	243.42
402.01	212.99
402.21	205.97
402.40	292.57
402.59	276.18
402.78	224.69
402.97	266.82
403.17	208.31
403.36	220.01
403.55	161.50
403.74	210.65
403.93	297.25
404.13	322.99
404.32	299.59
404.51	297.25
404.70	257.46
404.89	332.36
405.09	311.29
405.28	262.14
405.47	194.26
405.66	379.17
405.85	358.10
406.05	301.93
406.24	257.46
406.43	273.84
406.62	276.18
406.81	353.42
407.00	318.31
407.20	322.99
407.39	294.91
407.58	292.57
407.77	318.31
407.96	372.15
408.15	355.76
408.34	283.20
408.54	252.78
408.73	210.65
408.92	304.27
409.11	280.86
409.30	334.70
409.49	290.23
409.68	294.91
409.87	374.49
410.07	255.12
410.26	362.78
410.45	243.42
410.64	264.48
410.83	339.38
411.02	292.57
411.21	390.87
411.40	376.83
411.59	276.18
411.78	386.19
411.98	397.89
412.17	346.40
412.36	341.72
412.55	304.27
412.74	414.27
412.93	376.83
413.12	404.91
413.31	397.89
413.50	322.99
413.69	397.89
413.88	433.00
414.07	379.17
414.26	437.68
414.45	404.91
414.64	332.36
414.83	395.55
415.02	470.45
415.22	468.11
415.41	433.00
415.60	395.55
415.79	407.25
415.98	397.89
416.17	407.25
416.36	468.11
416.55	425.98
416.74	470.45
416.93	414.27
417.12	514.92
417.31	407.25
417.50	531.30
417.69	547.69
417.88	505.56
418.07	496.19
418.26	526.62
418.45	465.77
418.64	458.74
418.83	421.30
419.02	465.77
419.21	482.15
419.39	526.62
419.58	416.62
419.77	503.22
419.96	451.72
420.15	587.47
420.34	599.18
420.53	571.09
420.72	505.56
420.91	547.69
421.10	505.56
421.29	568.75
421.48	533.64
421.67	606.20
421.86	582.79
422.05	531.30
422.24	552.37
422.43	571.09
422.61	521.94
422.80	564.07
422.99	498.53
423.18	514.92
423.37	559.39
423.56	613.22
423.75	566.41
423.94	561.73
424.13	458.74
424.32	500.87
424.50	491.51
424.69	550.03
424.88	587.47
425.07	521.94
425.26	606.20
425.45	575.77
425.64	519.60
425.83	592.16
426.01	587.47
426.20	545.34
426.39	538.32
426.58	587.47
426.77	603.86
426.96	603.86
427.15	559.39
427.33	617.90
427.52	533.64
427.71	660.03
427.90	507.90
428.09	671.73
428.28	559.39
428.46	617.90
428.65	608.54
428.84	617.90
429.03	683.44
429.22	594.50
429.40	592.16
429.59	615.56
429.78	610.88
429.97	585.13
430.16	648.33
430.34	690.46
430.53	664.71
430.72	634.29
430.91	638.97
431.10	655.35
431.28	568.75
431.47	683.44
431.66	650.67
431.85	622.58
432.03	690.46
432.22	692.80
432.41	681.10
432.60	716.20
432.79	702.16
432.97	620.24
433.16	702.16
433.35	636.63
433.54	664.71
433.72	720.88
433.91	702.16
434.10	725.57
434.28	662.37
434.47	709.18
434.66	706.84
434.85	688.12
435.03	704.50
435.22	1032.18
435.41	1301.34
435.59	1362.19
435.78	1123.46
435.97	1001.75
436.16	809.83
436.34	770.04
436.53	704.50
436.72	819.19
436.90	716.20
437.09	720.88
437.28	716.20
437.46	697.48
437.65	772.38
437.84	809.83
438.02	746.63
438.21	709.18
438.40	826.21
438.58	737.27
438.77	702.16
438.96	758.33
439.14	725.57
439.33	819.19
439.52	723.23
439.70	734.93
439.89	842.59
440.08	786.42
440.26	870.68
440.45	819.19
440.63	814.51
440.82	774.72
441.01	807.48
441.19	868.34
441.38	891.74
441.57	737.27
441.75	887.06
441.94	844.93
442.12	940.90
442.31	835.57
442.50	807.48
442.68	844.93
442.87	847.27
443.05	821.53
443.24	908.13
443.43	826.21
443.61	889.40
443.80	784.08
443.98	861.32
444.17	798.12
444.35	917.49
444.54	889.40
444.73	849.61
444.91	929.19
445.10	856.64
445.28	847.27
445.47	837.91
445.65	826.21
445.84	877.70
446.02	1053.24
446.21	978.34
446.39	791.10
446.58	908.13
446.77	957.28
446.95	891.74
447.14	938.55
447.32	1050.90
447.51	882.38
447.69	870.68
447.88	861.32
448.06	957.28
448.25	877.70
448.43	917.49
448.62	980.68
448.80	936.21
448.99	936.21
449.17	999.41
449.36	947.92
449.54	959.62
449.73	1043.88
449.91	976.00
450.10	959.62
450.28	1006.43
450.46	987.71
450.65	1020.47
450.83	954.94
451.02	983.02
451.20	1034.52
451.39	1020.47
451.57	952.60
451.76	952.60
451.94	980.68
452.13	1076.65
452.31	1046.22
452.49	1001.75
452.68	959.62
452.86	924.51
453.05	1137.50
453.23	1093.03
453.42	964.30
453.60	1055.58
453.78	1095.37
453.97	1053.24
454.15	1013.45
454.34	994.73
454.52	976.00
454.70	1062.60
454.89	997.07
455.07	973.66
455.26	1097.71
455.44	1086.01
455.62	1123.46
455.81	1100.05
455.99	1018.13
456.17	1001.75
456.36	1043.88
456.54	1043.88
456.73	1078.99
456.91	1149.20
457.09	1107.07
457.28	1149.20
457.46	1139.84
457.64	1032.18
457.83	1029.84
458.01	983.02
458.19	1116.44
458.38	1043.88
458.56	1219.42
458.74	1062.60
458.93	1174.95
459.11	1060.26
459.29	1060.26
459.48	1160.91
459.66	1184.31
459.84	1090.69
460.03	1235.80
460.21	1205.38
460.39	1167.93
460.57	1226.44
460.76	1036.86
460.94	1078.99
461.12	1057.92
461.31	1151.54
461.49	1020.47
461.67	1167.93
461.85	1233.46
462.04	1139.84
462.22	1636.03
462.40	1263.89
462.59	1203.04
462.77	1172.61
462.95	1181.97
463.13	1163.25
463.32	1219.42
463.50	1247.51
463.68	1188.99
463.86	1282.61
464.05	1224.10
464.23	1228.78
464.41	1226.44
464.59	1249.85
464.78	1282.61
464.96	1151.54
465.14	1214.74
465.32	1163.25
465.50	1263.89
465.69	1320.06
465.87	1212.40
466.05	1191.33
466.23	1252.19
466.41	1240.48
466.60	1217.08
466.78	1249.85
466.96	1224.10
467.14	1270.91
467.32	1352.83
467.51	1270.91
467.69	1359.85
467.87	1287.29
468.05	1315.38
468.23	1387.94
468.41	1310.70
468.60	1273.25
468.78	1322.40
468.96	1315.38
469.14	1315.38
469.32	1301.34
469.50	1254.53
469.69	1359.85
469.87	1336.45
470.05	1291.98
470.23	1362.19
470.41	1284.95
470.59	1385.60
470.77	1376.24
470.95	1331.76
471.14	1392.62
471.32	1329.42
471.50	1432.41
471.68	1345.81
471.86	1406.66
472.04	1476.88
472.22	1291.98
472.40	1378.58
472.58	1406.66
472.77	1378.58
472.95	1434.75
473.13	1486.24
473.31	1537.73
473.49	1404.32
473.67	1385.60
473.85	1469.86
474.03	1528.37
474.21	1394.96
474.39	1467.52
474.57	1554.12
474.75	1516.67
474.93	1511.99
475.12	1544.75
475.30	1455.81
475.48	1472.20
475.66	1434.75
475.84	1488.58
476.02	1570.50
476.20	1516.67
476.38	1568.16
476.56	1673.48
476.74	1633.69
476.92	1558.80
477.10	1565.82
477.28	1699.23
477.46	1652.42
477.64	1610.29
477.82	1626.67
478.00	1636.03
478.18	1607.95
478.36	1633.69
478.54	1734.34
478.72	1687.53
478.90	1577.52
479.08	1664.12
479.26	1757.74
479.44	1689.87
479.62	1636.03
479.80	1851.36
479.98	1839.66
480.16	1870.09
480.34	1736.68
480.52	1764.76
480.70	1863.07
480.88	1774.13
481.06	1898.17
481.24	1809.23
481.41	1797.53
481.59	1837.32
481.77	2005.84
481.95	1877.11
482.13	2008.18
482.31	1832.64
482.49	2001.16
482.67	1837.32
482.85	2015.20
483.03	2062.01
483.21	2090.10
483.39	2026.90
483.57	2019.88
483.74	2106.48
483.92	2045.63
484.10	1991.80
484.28	2153.29
484.46	2197.76
484.64	2150.95
484.82	2090.10
485.00	2122.87
485.18	2246.91
485.35	2127.55
485.53	2188.40
485.71	2202.44
485.89	2242.23
486.07	2270.32
486.25	2200.10
486.43	2305.43
486.61	2256.28
486.78	2356.92
486.96	2307.77
487.14	2476.29
487.32	2392.03
487.50	2513.74
487.68	2420.11
487.85	2394.37
488.03	2548.84
488.21	2586.29
488.39	2579.27
488.57	2644.81
488.75	2506.71
488.92	2682.25
489.10	2476.29
489.28	2602.68
489.46	2597.99
489.64	2623.74
489.81	2612.04
489.99	2623.74
490.17	2614.38
490.35	2752.47
490.53	2609.70
490.70	2693.96
490.88	2665.87
491.06	2691.62
491.24	2715.02
491.41	2825.03
491.59	2803.96
491.77	2810.98
491.95	2841.41
492.13	2736.09
492.30	2792.26
492.48	2750.13
492.66	2752.47
492.84	2825.03
493.01	2911.63
493.19	2951.42
493.37	2834.39
493.54	2920.99
493.72	2942.05
493.90	3049.72
494.08	3084.83
494.25	2916.31
494.43	2916.31
494.61	3038.02
494.79	2965.46
494.96	3049.72
495.14	2977.16
495.32	3056.74
495.49	2998.23
495.67	3068.44
495.85	3094.19
496.02	3112.91
496.20	3218.24
496.38	3005.25
496.55	2958.44
496.73	3091.85
496.91	3222.92
497.09	3155.04
497.26	3239.30
497.44	3110.57
497.62	3316.54
497.79	3227.60
497.97	3272.07
498.14	3344.63
498.32	3286.11
498.50	3276.75
498.67	3349.31
498.85	3461.65
499.03	3480.38
499.20	3288.45
499.38	3260.37
499.56	3447.61
499.73	3478.04
499.91	3440.59
500.08	3501.44
500.26	3400.80
500.44	3396.12
500.61	3440.59
500.79	3358.67
500.97	3421.86
501.14	3445.27
501.32	3571.66
501.49	3555.27
501.67	3496.76
501.84	3566.98
502.02	3471.01
502.20	3602.08
502.37	3569.32
502.55	3632.51
502.72	3707.41
502.90	3686.34
503.07	3538.89
503.25	3566.98
503.43	3517.83
503.60	3555.27
503.78	3700.39
503.95	3606.77
504.13	3527.19
504.30	3728.47
504.48	3646.55
504.65	3714.43
504.83	3658.26
505.01	3735.50
505.18	3716.77
505.36	3737.84
505.53	3817.41
505.71	3730.81
505.88	3627.83
506.06	3634.85
506.23	3719.11
506.41	3911.04
506.58	3833.80
506.76	3904.01
506.93	3985.93
507.11	3847.84
507.28	3810.39
507.46	3758.90
507.63	3969.55
507.81	3936.78
507.98	3775.28
508.16	3843.16
508.33	3971.89
508.50	3983.59
508.68	3922.74
508.85	4025.72
509.03	3997.64
509.20	4070.19
509.38	4074.87
509.55	4088.92
509.73	3955.51
509.90	4049.13
510.08	4039.76
510.25	3990.61
510.42	4074.87
510.60	4016.36
510.77	4154.45
510.95	4072.53
511.12	3962.53
511.30	4126.36
511.47	4079.55
511.64	4175.52
511.82	4121.68
511.99	4269.14
512.17	4147.43
512.34	4149.77
512.51	4046.79
512.69	4234.03
512.86	4285.52
513.04	4259.78
513.21	4245.73
513.38	4227.01
513.56	4124.02
513.73	4334.67
513.90	4180.20
514.08	4259.78
514.25	4381.48
514.43	4294.88
514.60	4379.14
514.77	4283.18
514.95	4346.37
515.12	4175.52
515.29	4241.05
515.47	4217.65
515.64	4367.44
515.81	4432.97
515.99	4507.87
516.16	4500.85
516.33	4519.57
516.51	4365.10
516.68	4337.01
516.85	4402.55
517.03	4362.76
517.20	4311.27
517.37	4531.28
517.54	4573.41
517.72	4428.29
517.89	4624.90
518.06	4505.53
518.24	4451.70
518.41	4493.83
518.58	4655.33
518.75	4655.33
518.93	4442.34
519.10	4531.28
519.27	4678.73
519.45	4606.17
519.62	4498.51
519.79	4610.86
519.96	4599.15
520.14	4638.94
520.31	4636.60
520.48	4601.49
520.65	4807.46
520.83	4805.12
521.00	4851.93
521.17	4688.09
521.34	4674.05
521.52	4784.06
521.69	4615.54
521.86	4741.93
522.03	4851.93
522.20	4683.41
522.38	4898.74
522.55	4723.20
522.72	4709.16
522.89	4772.35
523.07	4762.99
523.24	4865.97
523.41	4924.49
523.58	4751.29
523.75	4856.61
523.92	4856.61
524.10	4805.12
524.27	4957.25
524.44	4912.78
524.61	4784.06
524.78	4793.42
524.96	4882.36
525.13	4880.02
525.30	4961.94
525.47	4926.83
525.64	4851.93
525.81	5027.47
525.98	4898.74
526.16	4959.60
526.33	4762.99
526.50	4940.87
526.67	4971.30
526.84	5001.72
527.01	4865.97
527.18	4999.38
527.36	4957.25
527.53	5071.94
527.70	5036.83
527.87	4954.91
528.04	5088.32
528.21	5088.32
528.38	5008.75
528.55	4975.98
528.72	5245.14
528.89	5195.99
529.07	5036.83
529.24	5125.77
529.41	5053.22
529.58	5144.50
529.75	5184.29
529.92	5078.96
530.09	5170.24
530.26	5256.84
530.43	5186.63
530.60	5032.15
530.77	4975.98
530.94	5158.54
531.11	5221.74
531.28	5217.05
531.46	5074.28
531.63	5170.24
531.80	5132.79
531.97	5085.98
532.14	5097.69
532.31	5315.36
532.48	5188.97
532.65	5224.08
532.82	5273.23
532.99	5249.82
533.16	5135.14
533.33	5132.79
533.50	5186.63
533.67	5425.36
533.84	5214.71
534.01	5046.20
534.18	5226.42
534.35	5247.48
534.52	5294.29
534.69	5437.06
534.86	5235.78
535.03	5317.70
535.20	5322.38
535.37	5268.55
535.54	5352.81
535.71	5287.27
535.88	5383.23
536.05	5385.57
536.22	5371.53
536.38	5493.24
536.55	5462.81
536.72	5371.53
536.89	5284.93
537.06	5544.73
537.23	5469.83
537.40	5437.06
537.57	5446.43
537.74	5493.24
537.91	5624.31
538.08	5530.69
538.25	5542.39
538.42	5469.83
538.59	5558.77
538.75	5589.20
538.92	5469.83
539.09	5582.18
539.26	5621.97
539.43	5703.89
539.60	5687.50
539.77	5844.32
539.94	5710.91
540.11	5671.12
540.28	5900.49
540.44	5645.37
540.61	5839.64
540.78	5996.45
540.95	5886.45
541.12	6038.58
541.29	6040.92
541.46	6225.82
541.62	6118.16
541.79	6115.82
541.96	6179.01
542.13	6141.57
542.30	6160.29
542.47	6164.97
542.63	6094.76
542.80	6218.80
542.97	6207.10
543.14	6087.73
543.31	6073.69
543.48	6209.44
543.64	6352.21
543.81	6188.38
543.98	6258.59
544.15	6211.78
544.32	6265.61
544.48	6073.69
544.65	6225.82
544.82	5991.77
544.99	6108.80
545.16	6193.06
545.32	6193.06
545.49	6815.64
545.66	7133.95
545.83	7513.12
546.00	7211.19
546.16	6717.34
546.33	6340.51
546.50	6061.99
546.67	6139.23
546.83	6087.73
547.00	5984.75
547.17	6052.63
547.34	6017.52
547.50	6125.18
547.67	5996.45
547.84	5996.45
548.00	5977.73
548.17	6008.16
548.34	5984.75
548.51	6001.13
548.67	6104.12
548.84	6225.82
549.01	6010.50
549.18	5919.21
549.34	6031.56
549.51	5949.64
549.68	6047.94
549.84	5959.00
550.01	6052.63
550.18	6108.80
550.34	6106.46
550.51	5959.00
550.68	6043.26
550.84	5989.43
551.01	5895.81
551.18	5851.34
551.34	6031.56
551.51	5790.49
551.68	6015.18
551.84	5977.73
552.01	5944.96
552.18	5994.11
552.34	6008.16
552.51	5942.62
552.68	5841.98
552.84	5900.49
553.01	5863.04
553.18	5991.77
553.34	6029.22
553.51	5940.28
553.67	5895.81
553.84	6036.24
554.01	6073.69
554.17	6061.99
554.34	5792.83
554.51	5846.66
554.67	5935.60
554.84	5926.24
555.00	5921.56
555.17	6005.81
555.33	6019.86
555.50	5884.11
555.67	5916.87
555.83	5813.89
556.00	5767.08
556.16	5975.39
556.33	6054.97
556.50	5935.60
556.66	5919.21
556.83	5816.23
556.99	5994.11
557.16	5984.75
557.32	5865.38
557.49	6059.65
557.65	5956.66
557.82	5853.68
557.98	6064.33
558.15	5984.75
558.32	6024.54
558.48	5905.17
558.65	6029.22
558.81	6113.48
558.98	5874.74
559.14	6155.61
559.31	5699.20
559.47	5776.44
559.64	5982.41
559.80	6003.47
559.97	5886.45
560.13	5951.98
560.30	5867.72
560.46	5720.27
560.63	5949.64
560.79	6050.28
560.96	6036.24
561.12	5966.03
561.29	6087.73
561.45	5867.72
561.61	5954.32
561.78	6202.42
561.94	5921.56
562.11	6193.06
562.27	5818.57
562.44	5973.05
562.60	6097.10
562.77	6010.50
562.93	6146.25
563.10	5959.00
563.26	5982.41
563.42	6097.10
563.59	6155.61
563.75	6061.99
563.92	6059.65
564.08	6087.73
564.24	6026.88
564.41	5881.77
564.57	6064.33
564.74	6029.22
564.90	6101.78
565.07	6031.56
565.23	6193.06
565.39	5968.37
565.56	6153.27
565.72	5863.04
565.88	5973.05
566.05	5951.98
566.21	6092.41
566.38	6157.95
566.54	6141.57
566.70	6260.93
566.87	6029.22
567.03	5989.43
567.19	6064.33
567.36	6214.12
567.52	6061.99
567.68	6181.35
567.85	5987.09
568.01	6052.63
568.17	6003.47
568.34	5996.45
568.50	6136.88
568.66	5867.72
568.83	6118.16
568.99	6164.97
569.15	5923.90
569.32	6010.50
569.48	6054.97
569.64	5849.00
569.81	6066.67
569.97	6094.76
570.13	5970.71
570.30	5930.92
570.46	6108.80
570.62	6043.26
570.78	5956.66
570.95	6094.76
571.11	6162.63
571.27	5987.09
571.43	5975.39
571.60	6024.54
571.76	6003.47
571.92	6099.44
572.09	6038.58
572.25	6104.12
572.41	6207.10
572.57	6015.18
572.74	6057.31
572.90	6064.33
573.06	6108.80
573.22	5989.43
573.38	6113.48
573.55	6043.26
573.71	6125.18
573.87	6160.29
574.03	5926.24
574.20	6022.20
574.36	5909.85
574.52	5980.07
574.68	6015.18
574.84	6064.33
575.01	6146.25
575.17	5982.41
575.33	6071.35
575.49	5966.03
575.65	6160.29
575.82	6012.84
575.98	6204.76
576.14	6179.01
576.30	6160.29
576.46	6211.78
576.62	6260.93
576.79	6438.81
576.95	6310.08
577.11	6223.48
577.27	6162.63
577.43	6242.21
577.59	6228.17
577.75	6066.67
577.92	6005.81
578.08	5998.79
578.24	6019.86
578.40	6083.05
578.56	6401.37
578.72	6452.86
578.88	6399.02
579.04	6373.28
579.21	6246.89
579.37	6188.38
579.53	6157.95
579.69	6216.46
579.85	6174.33
580.01	6164.97
580.17	6181.35
580.33	6270.30
580.49	6216.46
580.65	6195.40
580.82	6045.60
580.98	6071.35
581.14	6146.25
581.30	6097.10
581.46	6054.97
581.62	6122.84
581.78	6183.70
581.94	6104.12
582.10	6218.80
582.26	6249.23
582.42	6153.27
582.58	6134.54
582.74	6284.34
582.90	6307.74
583.06	6097.10
583.22	6342.85
583.38	6143.91
583.54	6303.06
583.70	6141.57
583.86	6193.06
584.02	6293.70
584.18	6263.27
584.34	6230.51
584.50	6127.52
584.66	6193.06
584.82	6073.69
584.98	6174.33
585.14	6111.14
585.30	6179.01
585.46	6108.80
585.62	6122.84
585.78	6127.52
585.94	6200.08
586.10	6179.01
586.26	6146.25
586.42	6326.47
586.58	6122.84
586.74	6232.85
586.90	6040.92
587.06	6298.38
587.22	6487.96
587.38	6186.04
587.54	6197.74
587.70	6216.46
587.86	6293.70
588.02	6071.35
588.18	6162.63
588.34	6113.48
588.49	6225.82
588.65	6150.93
588.81	6090.07
588.97	6193.06
589.13	6083.05
589.29	6176.67
589.45	6368.60
589.61	6078.37
589.77	6136.88
589.93	6127.52
590.08	6190.72
590.24	6183.70
590.40	6319.45
590.56	6202.42
590.72	6120.50
590.88	6319.45
591.04	6235.19
591.20	6216.46
591.35	6335.83
591.51	6370.94
591.67	6127.52
591.83	6377.96
591.99	6272.64
592.15	6310.08
592.31	6136.88
592.46	6249.23
592.62	6342.85
592.78	6127.52
592.94	6256.25
593.10	6061.99
593.26	6270.30
593.41	6296.04
593.57	6296.04
593.73	6143.91
593.89	6253.91
594.05	6324.13
594.20	6239.87
594.36	6146.25
594.52	6066.67
594.68	6141.57
594.84	6270.30
594.99	6132.20
595.15	6207.10
595.31	6209.44
595.47	6347.53
595.62	6150.93
595.78	6345.19
595.94	6097.10
596.10	6113.48
596.25	6209.44
596.41	6214.12
596.57	6113.48
596.73	6099.44
596.88	6286.68
597.04	6174.33
597.20	6298.38
597.36	6335.83
597.51	6228.17
597.67	6181.35
597.83	6127.52
597.99	6181.35
598.14	6132.20
598.30	6186.04
598.46	6347.53
598.61	6183.70
598.77	6059.65
598.93	6272.64
599.09	6265.61
599.24	6251.57
599.40	6321.79
599.56	6171.99
599.71	6340.51
599.87	6190.72
600.03	6174.33
600.18	6186.04
600.34	6363.92
600.50	6125.18
600.65	5996.45
600.81	6396.68
600.97	6225.82
601.12	6232.85
