SpectraSuite Data File
++++++++++++++++++++++++++++++++++++
Date: Fri Oct 04 11:40:05 GMT-05:00 2013
User: price-jones
Dark Spectrum Present: No
Reference Spectrum Present: No
Number of Sampled Component Spectra: 1
Spectrometers: USB2+H05261
Integration Time (usec): 100000 (USB2+H05261)
Spectra Averaged: 1 (USB2+H05261)
Boxcar Smoothing: 0 (USB2+H05261)
Correct for Electrical Dark: No (USB2+H05261)
Strobe/Lamp Enabled: No (USB2+H05261)
Correct for Detector Non-linearity: No (USB2+H05261)
Correct for Stray Light: No (USB2+H05261)
Number of Pixels in Processed Spectrum: 2048
>>>>>Begin Processed Spectral Data<<<<<
365.73	53.83
365.92	53.83
366.12	53.83
366.32	0.00
366.52	0.00
366.72	0.00
366.91	0.00
367.11	0.00
367.31	0.00
367.51	0.00
367.70	0.00
367.90	0.00
368.10	0.00
368.30	0.00
368.49	0.00
368.69	0.00
368.89	0.00
369.09	18.72
369.28	16.38
369.48	25.75
369.68	0.00
369.87	0.00
370.07	0.00
370.27	72.56
370.47	0.00
370.66	16.38
370.86	72.56
371.06	117.03
371.25	112.35
371.45	102.98
371.65	196.60
371.84	112.35
372.04	56.17
372.24	112.35
372.44	105.32
372.63	142.77
372.83	161.50
373.03	152.13
373.22	102.98
373.42	182.56
373.62	98.30
373.81	156.82
374.01	161.50
374.21	217.67
374.40	138.09
374.60	205.97
374.79	124.05
374.99	154.48
375.19	187.24
375.38	175.54
375.58	145.11
375.78	170.86
375.97	88.94
376.17	257.46
376.37	189.58
376.56	149.79
376.76	86.60
376.95	100.64
377.15	145.11
377.35	182.56
377.54	208.31
377.74	170.86
377.93	98.30
378.13	126.39
378.33	126.39
378.52	110.01
378.72	182.56
378.91	163.84
379.11	140.43
379.31	194.26
379.50	180.22
379.70	124.05
379.89	142.77
380.09	119.37
380.28	133.41
380.48	124.05
380.68	126.39
380.87	180.22
381.07	91.28
381.26	198.95
381.46	196.60
381.65	156.82
381.85	142.77
382.04	224.69
382.24	107.66
382.43	124.05
382.63	86.60
382.83	159.16
383.02	177.88
383.22	147.45
383.41	159.16
383.61	166.18
383.80	191.92
384.00	210.65
384.19	180.22
384.39	159.16
384.58	161.50
384.78	145.11
384.97	198.95
385.17	191.92
385.36	86.60
385.56	131.07
385.75	147.45
385.95	220.01
386.14	238.73
386.34	182.56
386.53	222.35
386.72	177.88
386.92	341.72
387.11	135.75
387.31	121.71
387.50	187.24
387.70	95.96
387.89	152.13
388.09	201.29
388.28	152.13
388.48	156.82
388.67	252.78
388.86	128.73
389.06	152.13
389.25	187.24
389.45	128.73
389.64	177.88
389.84	227.03
390.03	187.24
390.22	238.73
390.42	217.67
390.61	159.16
390.81	180.22
391.00	191.92
391.19	250.44
391.39	194.26
391.58	266.82
391.78	231.71
391.97	217.67
392.16	196.60
392.36	187.24
392.55	327.68
392.75	208.31
392.94	194.26
393.13	262.14
393.33	191.92
393.52	173.20
393.71	184.90
393.91	212.99
394.10	182.56
394.29	262.14
394.49	283.20
394.68	245.76
394.88	236.39
395.07	201.29
395.26	212.99
395.46	203.63
395.65	308.95
395.84	245.76
396.04	257.46
396.23	156.82
396.42	236.39
396.62	236.39
396.81	234.05
397.00	170.86
397.19	222.35
397.39	217.67
397.58	301.93
397.77	280.86
397.97	306.61
398.16	224.69
398.35	257.46
398.55	243.42
398.74	264.48
398.93	210.65
399.12	203.63
399.32	271.50
399.51	264.48
399.70	222.35
399.90	248.10
400.09	339.38
400.28	381.51
400.47	208.31
400.67	315.97
400.86	224.69
401.05	259.80
401.24	283.20
401.44	315.97
401.63	339.38
401.82	332.36
402.01	273.84
402.21	315.97
402.40	433.00
402.59	367.46
402.78	400.23
402.97	365.12
403.17	351.08
403.36	332.36
403.55	290.23
403.74	362.78
403.93	425.98
404.13	435.34
404.32	475.13
404.51	409.59
404.70	407.25
404.89	442.36
405.09	390.87
405.28	376.83
405.47	322.99
405.66	369.80
405.85	416.62
406.05	388.53
406.24	407.25
406.43	362.78
406.62	430.66
406.81	423.64
407.00	430.66
407.20	386.19
407.39	482.15
407.58	564.07
407.77	543.00
407.96	468.11
408.15	425.98
408.34	449.38
408.54	437.68
408.73	496.19
408.92	451.72
409.11	524.28
409.30	477.47
409.49	395.55
409.68	503.22
409.87	564.07
410.07	528.96
410.26	531.30
410.45	517.26
410.64	585.13
410.83	596.84
411.02	585.13
411.21	582.79
411.40	585.13
411.59	561.73
411.78	585.13
411.98	622.58
412.17	587.47
412.36	592.16
412.55	568.75
412.74	744.29
412.93	725.57
413.12	655.35
413.31	713.86
413.50	636.63
413.69	650.67
413.88	730.25
414.07	685.78
414.26	624.92
414.45	664.71
414.64	620.24
414.83	667.05
415.02	685.78
415.22	725.57
415.41	809.83
415.60	688.12
415.79	802.80
415.98	774.72
416.17	786.42
416.36	763.01
416.55	737.27
416.74	772.38
416.93	709.18
417.12	821.53
417.31	786.42
417.50	861.32
417.69	985.37
417.88	891.74
418.07	826.21
418.26	821.53
418.45	814.51
418.64	814.51
418.83	847.27
419.02	908.13
419.21	915.15
419.39	938.55
419.58	938.55
419.77	915.15
419.96	924.51
420.15	947.92
420.34	917.49
420.53	926.85
420.72	947.92
420.91	1036.86
421.10	945.58
421.29	952.60
421.48	924.51
421.67	922.17
421.86	912.81
422.05	985.37
422.24	971.32
422.43	1029.84
422.61	898.77
422.80	894.08
422.99	978.34
423.18	959.62
423.37	1116.44
423.56	1123.46
423.75	997.07
423.94	994.73
424.13	908.13
424.32	978.34
424.50	973.66
424.69	1083.67
424.88	1069.62
425.07	1018.13
425.26	1034.52
425.45	1090.69
425.64	1020.47
425.83	968.98
426.01	1013.45
426.20	1022.81
426.39	1034.52
426.58	1041.54
426.77	999.41
426.96	983.02
427.15	1076.65
427.33	1067.28
427.52	1029.84
427.71	1008.77
427.90	1008.77
428.09	1102.39
428.28	1025.15
428.46	1055.58
428.65	1036.86
428.84	1149.20
429.03	1170.27
429.22	990.05
429.40	1109.41
429.59	1032.18
429.78	1125.80
429.97	1121.12
430.16	1078.99
430.34	1064.94
430.53	1104.73
430.72	1132.82
430.91	1160.91
431.10	1128.14
431.28	1163.25
431.47	1160.91
431.66	1261.55
431.85	1151.54
432.03	1221.76
432.22	1324.74
432.41	1179.63
432.60	1256.87
432.79	1284.95
432.97	1224.10
433.16	1341.13
433.35	1200.69
433.54	1240.48
433.72	1299.00
433.91	1228.78
434.10	1125.80
434.28	1277.93
434.47	1287.29
434.66	1299.00
434.85	1296.66
435.03	1420.71
435.22	1591.56
435.41	1851.36
435.59	1809.23
435.78	1708.59
435.97	1455.81
436.16	1409.00
436.34	1385.60
436.53	1362.19
436.72	1345.81
436.90	1320.06
437.09	1385.60
437.28	1390.28
437.46	1334.11
437.65	1469.86
437.84	1392.62
438.02	1357.51
438.21	1348.15
438.40	1301.34
438.58	1373.89
438.77	1413.68
438.96	1418.36
439.14	1387.94
439.33	1523.69
439.52	1479.22
439.70	1495.60
439.89	1570.50
440.08	1418.36
440.26	1411.34
440.45	1490.92
440.63	1488.58
440.82	1596.25
441.01	1530.71
441.19	1607.95
441.38	1565.82
441.57	1533.05
441.75	1568.16
441.94	1591.56
442.12	1551.78
442.31	1755.40
442.50	1603.27
442.68	1629.01
442.87	1645.40
443.05	1582.20
443.24	1570.50
443.43	1650.08
443.61	1661.78
443.80	1755.40
443.98	1643.06
444.17	1607.95
444.35	1689.87
444.54	1631.35
444.73	1678.16
444.91	1806.89
445.10	1598.59
445.28	1682.85
445.47	1645.40
445.65	1717.95
445.84	1685.19
446.02	1605.61
446.21	1739.02
446.39	1621.99
446.58	1706.25
446.77	1797.53
446.95	1689.87
447.14	1722.63
447.32	1678.16
447.51	1713.27
447.69	1671.14
447.88	1692.21
448.06	1778.81
448.25	1668.80
448.43	1699.23
448.62	1685.19
448.80	1755.40
448.99	1860.73
449.17	1764.76
449.36	1748.38
449.54	1760.08
449.73	1830.30
449.91	1839.66
450.10	1750.72
450.28	1846.68
450.46	1851.36
450.65	1898.17
450.83	1792.85
451.02	1823.28
451.20	1895.83
451.39	1827.96
451.57	1799.87
451.76	1806.89
451.94	1832.64
452.13	1820.94
452.31	1884.13
452.49	1713.27
452.68	1996.48
452.86	1987.11
453.05	1919.24
453.23	1863.07
453.42	1790.51
453.60	1926.26
453.78	1886.47
453.97	1935.62
454.15	1898.17
454.34	1902.86
454.52	1961.37
454.70	1970.73
454.89	1933.28
455.07	1860.73
455.26	1914.56
455.44	1959.03
455.62	2026.90
455.81	2036.27
455.99	2017.54
456.17	2073.71
456.36	2059.67
456.54	2050.31
456.73	1980.09
456.91	2080.74
457.09	2153.29
457.28	2183.72
457.46	2078.40
457.64	2043.29
457.83	2038.61
458.01	2012.86
458.19	2139.25
458.38	2094.78
458.56	2118.18
458.74	2167.34
458.93	2118.18
459.11	2157.97
459.29	2153.29
459.48	2120.53
459.66	2146.27
459.84	2239.89
460.03	2251.60
460.21	2111.16
460.39	2263.30
460.57	2167.34
460.76	2221.17
460.94	2150.95
461.12	2232.87
461.31	2218.83
461.49	2104.14
461.67	2235.21
461.85	2317.13
462.04	2239.89
462.22	2675.23
462.40	2403.73
462.59	2253.94
462.77	2209.47
462.95	2321.81
463.13	2305.43
463.32	2359.26
463.50	2356.92
463.68	2289.04
463.86	2260.96
464.05	2289.04
464.23	2253.94
464.41	2403.73
464.59	2218.83
464.78	2298.41
464.96	2305.43
465.14	2380.32
465.32	2284.36
465.50	2375.64
465.69	2420.11
465.87	2223.51
466.05	2394.37
466.23	2237.55
466.41	2382.67
466.60	2534.80
466.78	2310.11
466.96	2361.60
467.14	2319.47
467.32	2298.41
467.51	2427.14
467.69	2490.33
467.87	2497.35
468.05	2333.51
468.23	2352.24
468.41	2406.07
468.60	2527.78
468.78	2399.05
468.96	2480.97
469.14	2487.99
469.32	2534.80
469.50	2445.86
469.69	2633.10
469.87	2520.76
470.05	2539.48
470.23	2471.61
470.41	2548.84
470.59	2569.91
470.77	2705.66
470.95	2567.57
471.14	2672.89
471.32	2595.65
471.50	2719.70
471.68	2677.57
471.86	2712.68
472.04	2665.87
472.22	2729.06
472.40	2710.34
472.58	2775.88
472.77	2822.69
472.95	2689.28
473.13	2850.77
473.31	2841.41
473.49	2803.96
473.67	2839.07
473.85	2832.05
474.03	2825.03
474.21	2841.41
474.39	2738.43
474.57	2939.71
474.75	2930.35
474.93	2885.88
475.12	2972.48
475.30	2913.97
475.48	3019.29
475.66	2942.05
475.84	2979.50
476.02	2949.08
476.20	3012.27
476.38	3103.55
476.56	3063.76
476.74	3016.95
476.92	3061.42
477.10	3052.06
477.28	3131.64
477.46	3103.55
477.64	3152.70
477.82	3211.22
478.00	3323.56
478.18	3218.24
478.36	3253.34
478.54	3269.73
478.72	3417.18
478.90	3368.03
479.08	3274.41
479.26	3311.86
479.44	3468.67
479.62	3440.59
479.80	3459.31
479.98	3428.88
480.16	3501.44
480.34	3456.97
480.52	3459.31
480.70	3545.91
480.88	3564.64
481.06	3674.64
481.24	3471.01
481.41	3583.36
481.59	3529.53
481.77	3751.88
481.95	3833.80
482.13	3604.42
482.31	3702.73
482.49	3709.75
482.67	3756.56
482.85	3817.41
483.03	3850.18
483.21	3896.99
483.39	3997.64
483.57	4159.13
483.74	3960.19
483.92	3896.99
484.10	4030.40
484.28	4070.19
484.46	4217.65
484.64	4231.69
484.82	4182.54
485.00	4248.07
485.18	4234.03
485.35	4381.48
485.53	4351.06
485.71	4461.06
485.89	4430.63
486.07	4489.15
486.25	4432.97
486.43	4477.44
486.61	4421.27
486.78	4615.54
486.96	4697.46
487.14	4671.71
487.32	4620.22
487.50	4636.60
487.68	4685.75
487.85	4826.18
488.03	4851.93
488.21	4994.70
488.39	5032.15
488.57	5034.49
488.75	4947.89
488.92	5188.97
489.10	5184.29
489.28	4980.66
489.46	5118.75
489.64	5186.63
489.81	5093.01
489.99	5095.35
490.17	5345.78
490.35	5294.29
490.53	5165.56
490.70	5371.53
490.88	5252.16
491.06	5371.53
491.24	5357.49
491.41	5416.00
491.59	5514.30
491.77	5397.28
491.95	5434.72
492.13	5631.33
492.30	5514.30
492.48	5516.64
492.66	5764.74
492.84	5584.52
493.01	5696.86
493.19	5795.17
493.37	5771.76
493.54	5736.65
493.72	5881.77
493.90	5921.56
494.08	5771.76
494.25	5891.13
494.43	6015.18
494.61	5989.43
494.79	5912.19
494.96	5994.11
495.14	6099.44
495.32	6153.27
495.49	6120.50
495.67	6326.47
495.85	6232.85
496.02	6204.76
496.20	6347.53
496.38	6314.77
496.55	6326.47
496.73	6331.15
496.91	6099.44
497.09	6558.18
497.26	6457.54
497.44	6523.07
497.62	6417.75
497.79	6462.22
497.97	6478.60
498.14	6579.25
498.32	6810.96
498.50	6773.51
498.67	6876.49
498.85	6757.13
499.03	6736.06
499.20	6712.66
499.38	6710.32
499.56	6895.22
499.73	6939.69
499.91	6904.58
500.08	6850.75
500.26	6855.43
500.44	6906.92
500.61	6906.92
500.79	6993.52
500.97	7178.42
501.14	7208.85
501.32	7131.61
501.49	7103.53
501.67	7056.72
501.84	6995.86
502.02	7105.87
502.20	7204.17
502.37	7250.98
502.55	7370.35
502.72	7283.75
502.90	7213.53
503.07	7332.90
503.25	7302.47
503.43	7353.96
503.60	7274.38
503.78	7323.54
503.95	7473.33
504.13	7382.05
504.30	7475.67
504.48	7527.16
504.65	7386.73
504.83	7496.74
505.01	7368.01
505.18	7569.29
505.36	7606.74
505.53	7515.46
505.71	7681.64
505.88	7658.23
506.06	7665.25
506.23	7667.60
506.41	7817.39
506.58	7665.25
506.76	7838.45
506.93	7868.88
507.11	7641.85
507.28	7765.90
507.46	7822.07
507.63	7826.75
507.81	8042.08
507.98	7997.61
508.16	8002.29
508.33	7936.76
508.50	8219.96
508.68	7967.18
508.85	8030.38
509.03	8023.36
509.20	8142.72
509.38	8119.32
509.55	8212.94
509.73	8051.44
509.90	8234.00
510.08	8098.25
510.25	8308.90
510.42	8386.14
510.60	8285.50
510.77	8229.32
510.95	8517.21
511.12	8283.16
511.30	8311.24
511.47	8493.80
511.64	8365.07
511.82	8564.02
511.99	8468.06
512.17	8528.91
512.34	8557.00
512.51	8526.57
512.69	8402.52
512.86	8514.87
513.04	8594.45
513.21	8627.21
513.38	8622.53
513.56	8767.65
513.73	8837.86
513.90	8669.34
514.08	8779.35
514.25	8798.07
514.43	8779.35
514.60	8727.86
514.77	8788.71
514.95	8903.40
515.12	8671.68
515.29	8926.80
515.47	9029.79
515.64	9013.40
515.81	9095.32
515.99	9125.75
516.16	9135.11
516.33	9008.72
516.51	8961.91
516.68	9036.81
516.85	8851.91
517.03	9163.20
517.20	9268.52
517.37	9268.52
517.54	9263.84
517.72	9259.16
517.89	9090.64
518.06	9434.70
518.24	9198.31
518.41	9238.09
518.58	9437.04
518.75	9355.12
518.93	9516.62
519.10	9387.89
519.27	9357.46
519.45	9448.74
519.62	9441.72
519.79	9486.19
519.96	9535.34
520.14	9240.44
520.31	9537.68
520.48	9490.87
520.65	9444.06
520.83	9465.13
521.00	9582.15
521.17	9525.98
521.34	9481.51
521.52	9626.62
521.69	9614.92
521.86	9572.79
522.03	9736.63
522.20	9720.24
522.38	9699.18
522.55	9750.67
522.72	9811.53
522.89	9879.40
523.07	9930.89
523.24	9968.34
523.41	9830.25
523.58	9813.87
523.75	9877.06
523.92	9591.52
524.10	9914.51
524.27	9982.38
524.44	9825.57
524.61	9785.78
524.78	10078.35
524.96	9898.13
525.13	9987.07
525.30	9872.38
525.47	10066.64
525.64	10085.37
525.81	10127.50
525.98	10087.71
526.16	10202.40
526.33	10153.24
526.50	10214.10
526.67	10001.11
526.84	10010.47
527.01	10235.16
527.18	10326.44
527.36	10115.80
527.53	10291.34
527.70	10326.44
527.87	10326.44
528.04	10104.09
528.21	10298.36
528.38	10214.10
528.55	10399.00
528.72	10476.24
528.89	10443.47
529.07	10373.25
529.24	10293.68
529.41	10459.85
529.58	10452.83
529.75	10401.34
529.92	10562.84
530.09	10518.37
530.26	10492.62
530.43	10588.58
530.60	10438.79
530.77	10427.09
530.94	10431.77
531.11	10469.22
531.28	10654.12
531.46	10787.53
531.63	10553.48
531.80	10562.84
531.97	10406.02
532.14	10595.61
532.31	10630.71
532.48	10558.16
532.65	10520.71
532.82	10934.98
532.99	10757.10
533.16	10785.19
533.33	10895.19
533.50	10640.08
533.67	10757.10
533.84	10611.99
534.01	11052.01
534.18	10736.04
534.35	10937.32
534.52	11068.39
534.69	10967.75
534.86	11176.06
535.03	11094.14
535.20	10883.49
535.37	10909.24
535.54	10883.49
535.71	10841.36
535.88	10890.51
536.05	10853.06
536.22	10927.96
536.38	10986.47
536.55	11110.52
536.72	10972.43
536.89	11108.18
537.06	11030.94
537.23	10981.79
537.40	11059.03
537.57	11279.04
537.74	11073.07
537.91	11424.15
538.08	11398.41
538.25	11117.54
538.42	11398.41
538.59	11477.99
538.75	11173.72
538.92	11229.89
539.09	11531.82
539.26	11159.67
539.43	11688.64
539.60	11428.84
539.77	11396.07
539.94	11438.20
540.11	11522.46
540.28	11499.05
540.44	11527.14
540.61	11744.81
540.78	11964.82
540.95	11833.75
541.12	11796.30
541.29	11695.66
541.46	12210.57
541.62	11913.33
541.79	12060.78
541.96	11943.75
542.13	12280.79
542.30	12095.89
542.47	11955.46
542.63	11908.65
542.80	12255.04
542.97	11932.05
543.14	11882.90
543.31	12212.92
543.48	12035.03
543.64	12088.87
543.81	12372.07
543.98	12250.36
544.15	12271.43
544.32	12203.55
544.48	12362.71
544.65	12074.82
544.82	12154.40
544.99	12163.76
545.16	11854.81
545.32	12233.98
545.49	12699.75
545.66	13282.54
545.83	13769.37
546.00	13422.97
546.16	12786.35
546.33	12149.72
546.50	12013.97
546.67	12287.81
546.83	11868.86
547.00	12131.00
547.17	12016.31
547.34	12032.69
547.50	12353.35
547.67	12140.36
547.84	11894.60
548.00	11990.56
548.17	12030.35
548.34	12156.74
548.51	12161.42
548.67	12561.66
548.84	12053.76
549.01	12156.74
549.18	12095.89
549.34	12121.63
549.51	11955.46
549.68	12142.70
549.84	12128.66
550.01	12039.72
550.18	11906.31
550.34	12053.76
550.51	12166.10
550.68	12423.56
550.84	11950.78
551.01	12327.60
551.18	12086.53
551.34	12028.01
551.51	12088.87
551.68	12269.09
551.84	12372.07
552.01	12058.44
552.18	12088.87
552.34	12170.79
552.51	12215.26
552.68	12463.35
552.84	12084.19
553.01	12219.94
553.18	12004.61
553.34	12224.62
553.51	12299.52
553.67	12212.92
553.84	12339.30
554.01	12423.56
554.17	12482.08
554.34	12329.94
554.51	12283.13
554.67	12266.75
554.84	12208.23
555.00	12271.43
555.17	12271.43
555.33	12514.84
555.50	12182.49
555.67	12432.93
555.83	12355.69
556.00	12379.09
556.16	12531.23
556.33	12280.79
556.50	12479.74
556.66	12461.01
556.83	12189.51
556.99	12795.71
557.16	12463.35
557.32	12416.54
557.49	12381.43
557.65	12276.11
557.82	12222.28
557.98	12259.73
558.15	12453.99
558.32	12203.55
558.48	12503.14
558.65	12393.14
558.81	12386.12
558.98	12472.71
559.14	12336.96
559.31	12126.32
559.47	12243.34
559.64	12545.27
559.80	12486.76
559.97	12461.01
560.13	12437.61
560.30	12374.41
560.46	12542.93
560.63	12580.38
560.79	12526.55
560.96	12592.08
561.12	12355.69
561.29	12503.14
561.45	12416.54
561.61	12276.11
561.78	12505.48
561.94	12645.91
562.11	12666.98
562.27	12575.70
562.44	12615.49
562.60	12444.63
562.77	12442.29
562.93	12512.50
563.10	12489.10
563.26	12320.58
563.42	12666.98
563.59	12538.25
563.75	12362.71
563.92	12650.60
564.08	12559.31
564.24	12482.08
564.41	12549.95
564.57	12704.43
564.74	12571.02
564.90	12552.29
565.07	12533.57
565.23	12486.76
565.39	12259.73
565.56	12491.44
565.72	12505.48
565.88	12556.97
566.05	12432.93
566.21	12212.92
566.38	12505.48
566.54	12458.67
566.70	12631.87
566.87	12479.74
567.03	12657.62
567.19	12505.48
567.36	12793.37
567.52	12437.61
567.68	12624.85
567.85	12615.49
568.01	12566.34
568.17	12489.10
568.34	12461.01
568.50	12650.60
568.66	12526.55
568.83	12877.63
568.99	12800.39
569.15	12786.35
569.32	12411.86
569.48	12634.21
569.64	12741.88
569.81	12493.78
569.97	12730.17
570.13	12800.39
570.30	12657.62
570.46	12233.98
570.62	12367.39
570.78	12479.74
570.95	12369.73
571.11	12322.92
571.27	12575.70
571.43	12341.64
571.60	12372.07
571.76	12706.77
571.92	12587.40
572.09	12765.28
572.25	12711.45
572.41	12585.06
572.57	12849.54
572.74	12734.85
572.90	12510.16
573.06	12524.21
573.22	12594.42
573.38	12809.75
573.55	12814.43
573.71	12681.02
573.87	12472.71
574.03	12840.18
574.20	12769.96
574.36	12608.47
574.52	12564.00
574.68	12615.49
574.84	12571.02
575.01	12528.89
575.17	12678.68
575.33	12690.38
575.49	12573.36
575.65	12774.64
575.82	12674.00
575.98	12704.43
576.14	12716.13
576.30	12638.89
576.46	12861.24
576.62	12865.92
576.79	12943.16
576.95	12779.32
577.11	12840.18
577.27	12711.45
577.43	12798.05
577.59	12877.63
577.75	12662.30
577.92	12688.04
578.08	12601.44
578.24	12409.52
578.40	12561.66
578.56	13046.15
578.72	12898.69
578.88	12936.14
579.04	12870.61
579.21	12690.38
579.37	12697.41
579.53	12648.26
579.69	13020.40
579.85	12533.57
580.01	12807.41
580.17	12571.02
580.33	12594.42
580.49	12896.35
580.65	12727.83
580.82	12877.63
580.98	12809.75
581.14	12498.46
581.30	12858.90
581.46	12690.38
581.62	12784.01
581.78	12430.59
581.94	12746.56
582.10	12692.73
582.26	12718.47
582.42	12968.91
582.58	12908.05
582.74	12968.91
582.90	12519.53
583.06	13001.68
583.22	12786.35
583.38	12734.85
583.54	12802.73
583.70	12826.14
583.86	12947.84
584.02	12894.01
584.18	13097.64
584.34	12695.07
584.50	12812.09
584.66	12922.10
584.82	12877.63
584.98	12702.09
585.14	12699.75
585.30	12664.64
585.46	12837.84
585.62	12662.30
585.78	12711.45
585.94	12662.30
586.10	12999.34
586.26	12784.01
586.42	12828.48
586.58	13022.74
586.74	13062.53
586.90	12865.92
587.06	12781.67
587.22	12781.67
587.38	12863.58
587.54	12952.52
587.70	12922.10
587.86	13013.38
588.02	12917.42
588.18	12807.41
588.34	12802.73
588.49	12798.05
588.65	12767.62
588.81	12564.00
588.97	13121.04
589.13	12725.49
589.29	12650.60
589.45	12903.37
589.61	12690.38
589.77	13069.55
589.93	12915.08
590.08	13130.41
590.24	12814.43
590.40	12966.57
590.56	13132.75
590.72	12952.52
590.88	12631.87
591.04	12580.38
591.20	12919.76
591.35	12760.60
591.51	12989.97
591.67	12659.96
591.83	12985.29
591.99	12938.48
592.15	12814.43
592.31	12872.95
592.46	13069.55
592.62	13092.96
592.78	12903.37
592.94	13013.38
593.10	12805.07
593.26	13041.46
593.41	12947.84
593.57	12971.25
593.73	13039.12
593.89	12788.69
594.05	12877.63
594.20	12798.05
594.36	12929.12
594.52	12741.88
594.68	12676.34
594.84	12746.56
594.99	12706.77
