SpectraSuite Data File
++++++++++++++++++++++++++++++++++++
Date: Fri Oct 04 11:39:41 GMT-05:00 2013
User: price-jones
Dark Spectrum Present: No
Reference Spectrum Present: No
Number of Sampled Component Spectra: 1
Spectrometers: USB2+H05261
Integration Time (usec): 100000 (USB2+H05261)
Spectra Averaged: 1 (USB2+H05261)
Boxcar Smoothing: 0 (USB2+H05261)
Correct for Electrical Dark: No (USB2+H05261)
Strobe/Lamp Enabled: No (USB2+H05261)
Correct for Detector Non-linearity: No (USB2+H05261)
Correct for Stray Light: No (USB2+H05261)
Number of Pixels in Processed Spectrum: 2048
>>>>>Begin Processed Spectral Data<<<<<
365.73	0.00
365.92	0.00
366.12	0.00
366.32	0.00
366.52	0.00
366.72	0.00
366.91	0.00
367.11	0.00
367.31	0.00
367.51	0.00
367.70	0.00
367.90	0.00
368.10	0.00
368.30	0.00
368.49	0.00
368.69	0.00
368.89	0.00
369.09	0.00
369.28	0.00
369.48	21.06
369.68	28.09
369.87	42.13
370.07	0.00
370.27	0.00
370.47	63.19
370.66	266.82
370.86	273.84
371.06	372.15
371.25	325.33
371.45	325.33
371.65	376.83
371.84	285.55
372.04	248.10
372.24	330.02
372.44	341.72
372.63	348.74
372.83	472.79
373.03	273.84
373.22	372.15
373.42	390.87
373.62	299.59
373.81	507.90
374.01	442.36
374.21	456.40
374.40	470.45
374.60	468.11
374.79	444.70
374.99	451.72
375.19	458.74
375.38	486.83
375.58	482.15
375.78	496.19
375.97	430.66
376.17	484.49
376.37	486.83
376.56	400.23
376.76	425.98
376.95	442.36
377.15	447.04
377.35	440.02
377.54	512.58
377.74	475.13
377.93	493.85
378.13	484.49
378.33	465.77
378.52	505.56
378.72	468.11
378.91	550.03
379.11	507.90
379.31	505.56
379.50	475.13
379.70	603.86
379.89	545.34
380.09	543.00
380.28	468.11
380.48	519.60
380.68	440.02
380.87	472.79
381.07	468.11
381.26	566.41
381.46	533.64
381.65	554.71
381.85	578.11
382.04	482.15
382.24	550.03
382.43	554.71
382.63	624.92
382.83	496.19
383.02	650.67
383.22	545.34
383.41	531.30
383.61	557.05
383.80	671.73
384.00	552.37
384.19	557.05
384.39	531.30
384.58	601.52
384.78	606.20
384.97	669.39
385.17	514.92
385.36	643.65
385.56	709.18
385.75	526.62
385.95	554.71
386.14	667.05
386.34	662.37
386.53	601.52
386.72	678.76
386.92	671.73
387.11	674.07
387.31	650.67
387.50	620.24
387.70	627.26
387.89	657.69
388.09	629.60
388.28	667.05
388.48	716.20
388.67	678.76
388.86	671.73
389.06	650.67
389.25	805.14
389.45	800.46
389.64	678.76
389.84	788.76
390.03	772.38
390.22	690.46
390.42	727.91
390.61	657.69
390.81	690.46
391.00	755.99
391.19	788.76
391.39	772.38
391.58	819.19
391.78	805.14
391.97	821.53
392.16	816.85
392.36	980.68
392.55	826.21
392.75	837.91
392.94	816.85
393.13	844.93
393.33	858.98
393.52	711.52
393.71	847.27
393.91	821.53
394.10	835.57
394.29	856.64
394.49	898.77
394.68	910.47
394.88	894.08
395.07	861.32
395.26	943.24
395.46	980.68
395.65	954.94
395.84	908.13
396.04	1029.84
396.23	933.87
396.42	851.96
396.62	1015.79
396.81	933.87
397.00	1020.47
397.19	1015.79
397.39	1022.81
397.58	1062.60
397.77	999.41
397.97	1069.62
398.16	1125.80
398.35	1078.99
398.55	1144.52
398.74	1062.60
398.93	1132.82
399.12	1107.07
399.32	1102.39
399.51	1149.20
399.70	1174.95
399.90	1114.10
400.09	1104.73
400.28	1217.08
400.47	1132.82
400.67	1181.97
400.86	1240.48
401.05	1191.33
401.24	1247.51
401.44	1336.45
401.63	1324.74
401.82	1259.21
402.01	1296.66
402.21	1261.55
402.40	1322.40
402.59	1364.53
402.78	1277.93
402.97	1336.45
403.17	1362.19
403.36	1301.34
403.55	1345.81
403.74	1378.58
403.93	1526.03
404.13	1465.18
404.32	1350.49
404.51	1423.05
404.70	1401.98
404.89	1460.49
405.09	1589.22
405.28	1425.39
405.47	1572.84
405.66	1451.13
405.85	1696.89
406.05	1481.56
406.24	1640.72
406.43	1605.61
406.62	1760.08
406.81	1586.88
407.00	1528.37
407.20	1612.63
407.39	1682.85
407.58	1757.74
407.77	1732.00
407.96	1774.13
408.15	1755.40
408.34	1741.36
408.54	1781.15
408.73	1783.49
408.92	1851.36
409.11	1916.90
409.30	1884.13
409.49	1813.92
409.68	1844.34
409.87	1987.11
410.07	1860.73
410.26	1935.62
410.45	1919.24
410.64	1944.99
410.83	2064.35
411.02	2169.68
411.21	2143.93
411.40	2153.29
411.59	2134.57
411.78	2172.02
411.98	2045.63
412.17	2188.40
412.36	2293.72
412.55	2275.00
412.74	2235.21
412.93	2225.85
413.12	2282.02
413.31	2431.82
413.50	2499.69
413.69	2394.37
413.88	2546.50
414.07	2450.54
414.26	2511.39
414.45	2569.91
414.64	2483.31
414.83	2574.59
415.02	2682.25
415.22	2642.46
415.41	2759.49
415.60	2754.81
415.79	2787.58
415.98	2789.92
416.17	2775.88
416.36	2759.49
416.55	2789.92
416.74	2806.30
416.93	2843.75
417.12	2895.24
417.31	2946.73
417.50	2892.90
417.69	2993.55
417.88	3000.57
418.07	3082.49
418.26	3117.59
418.45	3056.74
418.64	3192.49
418.83	3173.77
419.02	3084.83
419.21	3173.77
419.39	3133.98
419.58	3152.70
419.77	3173.77
419.96	3176.11
420.15	3300.16
420.34	3206.53
420.53	3396.12
420.72	3389.10
420.91	3304.84
421.10	3503.78
421.29	3496.76
421.48	3449.95
421.67	3606.77
421.86	3536.55
422.05	3538.89
422.24	3506.12
422.43	3386.76
422.61	3646.55
422.80	3740.18
422.99	3578.68
423.18	3712.09
423.37	3618.47
423.56	3482.72
423.75	3569.32
423.94	3550.59
424.13	3447.61
424.32	3585.70
424.50	3805.71
424.69	3723.79
424.88	3618.47
425.07	3574.00
425.26	3548.25
425.45	3599.74
425.64	3648.90
425.83	3543.57
426.01	3672.30
426.20	3641.87
426.39	3669.96
426.58	3730.81
426.77	3634.85
426.96	3637.19
427.15	3756.56
427.33	3737.84
427.52	3798.69
427.71	3733.15
427.90	3817.41
428.09	3889.97
428.28	3983.59
428.46	3906.35
428.65	3847.84
428.84	3985.93
429.03	4058.49
429.22	4014.02
429.40	3971.89
429.59	4093.60
429.78	3936.78
429.97	3861.88
430.16	3985.93
430.34	4121.68
430.53	4327.65
430.72	4346.37
430.91	3983.59
431.10	4135.73
431.28	4252.75
431.47	4262.12
431.66	4241.05
431.85	4201.26
432.03	4276.16
432.22	4372.12
432.41	4348.72
432.60	4320.63
432.79	4341.69
432.97	4329.99
433.16	4369.78
433.35	4318.29
433.54	4325.31
433.72	4479.79
433.91	4383.82
434.10	4430.63
434.28	4505.53
434.47	4629.58
434.66	4571.07
434.85	4690.43
435.03	4664.69
435.22	4770.01
435.41	5170.24
435.59	5004.07
435.78	5078.96
435.97	4718.52
436.16	4814.48
436.34	4692.77
436.53	4851.93
436.72	4945.55
436.90	4774.69
437.09	4894.06
437.28	4690.43
437.46	4877.68
437.65	4990.02
437.84	4910.44
438.02	4961.94
438.21	4915.12
438.40	4933.85
438.58	4880.02
438.77	5289.61
438.96	5097.69
439.14	5224.08
439.33	5259.18
439.52	5315.36
439.70	5364.51
439.89	5376.21
440.08	5378.55
440.26	5298.97
440.45	5310.68
440.63	5387.91
440.82	5621.97
441.01	5593.88
441.19	5579.84
441.38	5792.83
441.57	5636.01
441.75	5645.37
441.94	5956.66
442.12	5729.63
442.31	6012.84
442.50	5898.15
442.68	5753.04
442.87	5839.64
443.05	5935.60
443.24	5937.94
443.43	5954.32
443.61	6076.03
443.80	6136.88
443.98	5846.66
444.17	5680.48
444.35	6099.44
444.54	6010.50
444.73	5928.58
444.91	6059.65
445.10	6284.34
445.28	6181.35
445.47	6153.27
445.65	5963.68
445.84	6155.61
446.02	6244.55
446.21	6141.57
446.39	6005.81
446.58	6246.89
446.77	6174.33
446.95	6186.04
447.14	6078.37
447.32	6396.68
447.51	6228.17
447.69	6232.85
447.88	6115.82
448.06	6270.30
448.25	6136.88
448.43	6345.19
448.62	6303.06
448.80	6293.70
448.99	6293.70
449.17	6483.28
449.36	6282.00
449.54	6483.28
449.73	6436.47
449.91	6684.57
450.10	6539.46
450.28	6743.08
450.46	6422.43
450.65	6642.44
450.83	6675.21
451.02	6590.95
451.20	6518.39
451.39	6642.44
451.57	6665.85
451.76	6654.14
451.94	6665.85
452.13	6860.11
452.31	6750.10
452.49	6700.95
452.68	6733.72
452.86	6848.41
453.05	6923.30
453.23	6916.28
453.42	6881.18
453.60	6825.00
453.78	6951.39
453.97	6712.66
454.15	6963.09
454.34	6909.26
454.52	7159.70
454.70	7007.56
454.89	7105.87
455.07	7129.27
455.26	7150.34
455.44	7145.66
455.62	7140.97
455.81	7183.10
455.99	7304.81
456.17	7187.79
456.36	7208.85
456.54	7375.03
456.73	7421.84
456.91	7466.31
457.09	7597.38
457.28	7810.37
457.46	7637.17
457.64	7442.90
457.83	7625.47
458.01	7470.99
458.19	7878.24
458.38	7733.13
458.56	7709.72
458.74	7768.24
458.93	7641.85
459.11	7843.14
459.29	7705.04
459.48	7735.47
459.66	7726.11
459.84	7784.62
460.03	8030.38
460.21	7885.26
460.39	7990.59
460.57	7899.31
460.76	7976.55
460.94	8238.69
461.12	8107.62
461.31	8002.29
461.49	8046.76
461.67	8135.70
461.85	8362.73
462.04	8306.56
462.22	8681.05
462.40	8484.44
462.59	8182.51
462.77	8187.19
462.95	8269.11
463.13	8238.69
463.32	8182.51
463.50	8547.64
463.68	8559.34
463.86	8423.59
464.05	8444.65
464.23	8255.07
464.41	8498.49
464.59	8458.70
464.78	8479.76
464.96	8629.56
465.14	8538.27
465.32	8664.66
465.50	8655.30
465.69	8762.97
465.87	8594.45
466.05	8489.12
466.23	8851.91
466.41	8571.04
466.60	9013.40
466.78	8844.88
466.96	8587.43
467.14	8814.46
467.32	8634.24
467.51	8901.06
467.69	8582.74
467.87	8802.75
468.05	9104.68
468.23	8741.90
468.41	8854.25
468.60	8943.19
468.78	9249.80
468.96	9013.40
469.14	9144.47
469.32	9193.62
469.50	8844.88
469.69	9448.74
469.87	9289.59
470.05	9366.82
470.23	9310.65
470.41	9488.53
470.59	9540.02
470.77	9451.08
470.95	9586.83
471.14	9589.17
471.32	9275.54
471.50	9731.95
471.68	9757.69
471.86	9841.95
472.04	9685.14
472.22	10050.26
472.40	9680.46
472.58	9942.60
472.77	9823.23
472.95	9905.15
473.13	10256.23
473.31	9958.98
473.49	10045.58
473.67	10155.58
473.85	10207.08
474.03	10530.07
474.21	10406.02
474.39	10408.36
474.57	10504.32
474.75	10630.71
474.93	10691.57
475.12	10494.96
475.30	10597.95
475.48	10609.65
475.66	10857.75
475.84	10733.70
476.02	10920.94
476.20	10998.18
476.38	11307.13
476.56	11314.15
476.74	11215.85
476.92	11253.30
477.10	11283.72
477.28	11363.30
477.46	11513.10
477.64	11431.18
477.82	11667.57
478.00	12011.63
478.18	12002.27
478.36	12056.10
478.54	12152.06
478.72	12189.51
478.90	12423.56
479.08	12212.92
479.26	12407.18
479.44	12645.91
479.62	12664.64
479.80	12615.49
479.98	12587.40
480.16	13067.21
480.34	12950.18
480.52	12931.46
480.70	13275.52
480.88	12886.99
481.06	13235.73
481.24	13043.81
481.41	13460.42
481.59	13816.18
481.77	13713.20
481.95	14005.77
482.13	14015.13
482.31	13668.73
482.49	14253.86
482.67	14274.93
482.85	14328.76
483.03	14534.73
483.21	14831.97
483.39	14670.48
483.57	14747.72
483.74	15054.33
483.92	15243.91
484.10	14979.43
484.28	15494.35
484.46	15550.52
484.64	16018.63
484.82	15484.98
485.00	15606.69
485.18	16009.26
485.35	16023.31
485.53	15915.64
485.71	16248.00
485.89	16620.14
486.07	16451.63
486.25	16547.59
486.43	16620.14
486.61	16643.55
486.78	16919.73
486.96	17001.65
487.14	17434.65
487.32	17434.65
487.50	17245.07
487.68	17607.85
487.85	18050.21
488.03	18111.07
488.21	18312.35
488.39	18174.26
488.57	18349.80
488.75	18333.42
488.92	18525.34
489.10	18967.70
489.28	18724.29
489.46	19138.56
489.64	19112.81
489.81	19173.67
489.99	19484.96
490.17	19225.16
490.35	19819.66
490.53	19784.55
490.70	20114.56
490.88	19880.51
491.06	20280.74
491.24	20044.35
491.41	20283.08
491.59	20526.50
491.77	20793.32
491.95	20992.26
492.13	21039.08
492.30	20837.79
492.48	21186.53
492.66	21301.22
492.84	21256.75
493.01	21640.59
493.19	21383.13
493.37	21696.77
493.54	21905.07
493.72	21832.52
493.90	22127.42
494.08	22202.32
494.25	22457.44
494.43	22745.33
494.61	22883.42
494.79	22654.05
494.96	22909.16
495.14	22586.17
495.32	22817.88
495.49	23246.20
495.67	23304.71
495.85	23634.73
496.02	23812.61
496.20	23702.61
496.38	23461.53
496.55	23693.24
496.73	24531.15
496.91	24217.52
497.09	24247.95
497.26	24741.80
497.44	24276.04
497.62	24477.32
497.79	24797.98
497.97	24629.46
498.14	25216.93
498.32	25340.98
498.50	25390.13
498.67	25350.34
498.85	25371.41
499.03	25759.94
499.20	25507.16
499.38	25434.60
499.56	26286.56
499.73	26263.15
499.91	26036.12
500.08	26134.42
500.26	26331.03
500.44	26022.08
500.61	26485.50
500.79	26492.52
500.97	26717.22
501.14	26731.26
501.32	26792.11
501.49	26761.69
501.67	26726.58
501.84	27255.54
502.02	27360.86
502.20	27194.68
502.37	27356.18
502.55	27229.79
502.72	27655.77
502.90	27871.10
503.07	27566.83
503.25	27569.17
503.43	27683.86
503.60	28226.86
503.78	28222.18
503.95	27730.67
504.13	27960.04
504.30	28163.67
504.48	28229.20
504.65	28423.47
504.83	28685.61
505.01	28814.34
505.18	28833.06
505.36	28861.15
505.53	28924.34
505.71	29247.33
505.88	28989.88
506.06	28922.00
506.23	28980.51
506.41	29488.41
506.58	29528.20
506.76	29390.11
506.93	29895.66
507.11	29457.98
507.28	29825.45
507.46	29699.06
507.63	29996.31
507.81	29965.88
507.98	29879.28
508.16	29806.72
508.33	30478.46
508.50	29572.67
508.68	30668.04
508.85	30637.61
509.03	30342.70
509.20	30670.38
509.38	30693.79
509.55	31119.76
509.73	30822.51
509.90	31124.44
510.08	30972.31
510.25	31084.65
510.42	31140.83
510.60	31732.98
510.77	31894.48
510.95	31798.52
511.12	31363.18
511.30	31931.93
511.47	31948.31
511.64	31690.85
511.82	31955.33
511.99	32397.70
512.17	32524.08
512.34	32123.85
512.51	32762.82
512.69	32350.88
512.86	32229.18
513.04	32872.82
513.21	32886.87
513.38	33043.68
513.56	33034.32
513.73	32907.93
513.90	32648.13
514.08	32807.29
514.25	33385.40
514.43	33212.20
514.60	33010.92
514.77	33631.16
514.95	33579.67
515.12	33329.23
515.29	33563.28
515.47	33570.30
515.64	33764.57
515.81	33839.47
515.99	33823.08
516.16	33937.77
516.33	34148.42
516.51	34478.43
516.68	33809.04
516.85	34148.42
517.03	34419.92
517.20	34581.42
517.37	34581.42
517.54	34735.89
517.72	34705.46
517.89	34279.49
518.06	34747.59
518.24	34726.53
518.41	34515.88
518.58	34958.24
518.75	35110.38
518.93	35374.86
519.10	35541.03
519.27	35222.72
519.45	35103.35
519.62	35288.26
519.79	35042.50
519.96	35494.22
520.14	35573.80
520.31	35482.52
520.48	35955.31
520.65	35864.03
520.83	36079.36
521.00	36079.36
521.17	36058.29
521.34	36261.92
521.52	36348.52
521.69	36278.30
521.86	36402.35
522.03	36837.69
522.20	36620.02
522.38	36559.17
522.55	36795.56
522.72	36381.29
522.89	37172.39
523.07	36898.55
523.24	36587.25
523.41	37195.79
523.58	36650.45
523.75	37312.82
523.92	36577.89
524.10	36858.76
524.27	37401.76
524.44	37462.61
524.61	37507.08
524.78	37532.83
524.96	37486.02
525.13	37743.48
525.30	37902.64
525.47	37654.54
525.64	37699.01
525.81	37947.11
525.98	38497.13
526.16	38064.13
526.33	38265.42
526.50	38153.07
526.67	37825.40
526.84	38167.12
527.01	38499.47
527.18	38040.73
527.36	38438.62
527.53	38778.00
527.70	38918.43
527.87	38916.09
528.04	38780.34
528.21	38607.14
528.38	38892.68
528.55	38742.89
528.72	38841.19
528.89	38888.00
529.07	39009.71
529.24	38939.49
529.41	38944.17
529.58	39187.59
529.75	39290.57
529.92	38756.93
530.09	39342.06
530.26	39302.28
530.43	39299.94
530.60	39328.02
530.77	39250.78
530.94	39718.89
531.11	39735.27
531.28	39599.52
531.46	39578.46
531.63	39414.62
531.80	40233.81
531.97	40362.54
532.14	40119.12
532.31	39901.45
532.48	40215.08
532.65	40116.78
532.82	39959.97
532.99	40208.06
533.16	40140.19
533.33	40212.74
533.50	40725.32
533.67	40947.67
533.84	40495.95
534.01	40416.37
534.18	39995.07
534.35	41158.32
534.52	40519.35
534.69	40816.60
534.86	40982.78
535.03	40776.81
535.20	40746.39
535.37	40823.62
535.54	40957.03
535.71	40725.32
535.88	41083.42
536.05	40971.08
536.22	40935.97
536.38	41450.89
536.55	41654.51
536.72	41511.74
536.89	41638.13
537.06	41324.50
537.23	41212.15
537.40	41516.42
537.57	41865.16
537.74	41596.00
537.91	42038.36
538.08	41752.82
538.25	41823.03
538.42	41469.61
538.59	42064.11
538.75	41310.46
538.92	41736.43
539.09	42450.30
539.26	41982.19
539.43	42529.87
539.60	42263.05
539.77	42454.98
539.94	42574.34
540.11	42298.16
540.28	42440.93
540.44	42684.35
540.61	42426.89
540.78	42447.96
540.95	42457.32
541.12	43023.73
541.29	43005.00
541.46	42841.17
541.62	42567.32
541.79	43028.41
541.96	42639.88
542.13	42780.31
542.30	42958.19
542.47	43304.59
542.63	43187.56
542.80	43702.48
542.97	43548.01
543.14	43349.06
543.31	43482.47
543.48	43629.93
543.64	43831.21
543.81	43608.86
543.98	43924.83
544.15	44058.24
544.32	43763.34
544.48	44067.61
544.65	43536.30
544.82	43688.44
544.99	43248.42
545.16	44158.89
545.32	43873.34
545.49	44610.61
545.66	44978.07
545.83	45043.61
546.00	44882.11
546.16	44652.74
546.33	44002.07
546.50	43487.15
546.67	44034.84
546.83	43756.32
547.00	44105.06
547.17	44301.66
547.34	44416.35
547.50	44538.05
547.67	44072.29
547.84	44083.99
548.00	44240.81
548.17	44685.51
548.34	44381.24
548.51	44751.04
548.67	44491.24
548.84	44615.29
549.01	44673.81
549.18	44549.76
549.34	44573.16
549.51	44378.90
549.68	44959.35
549.84	44491.24
550.01	45024.89
550.18	44781.47
550.34	44875.09
550.51	44907.86
550.68	44898.50
550.84	44734.66
551.01	44779.13
551.18	44355.49
551.34	44713.59
551.51	44587.21
551.68	45067.02
551.84	44935.95
552.01	44912.54
552.18	45258.94
552.34	44891.48
552.51	45106.80
552.68	45202.77
552.84	45148.93
553.01	45490.65
553.18	45385.33
553.34	45343.20
553.51	45270.64
553.67	45387.67
553.84	45233.19
554.01	45755.13
554.17	45773.86
554.34	45734.07
554.51	44949.99
554.67	45755.13
554.84	45448.52
555.00	45373.63
555.17	45813.65
555.33	45485.97
555.50	45736.41
555.67	45319.79
555.83	45450.86
556.00	45614.70
556.16	45818.33
556.33	45380.65
556.50	45172.34
556.66	45944.72
556.83	45757.47
556.99	45968.12
557.16	46120.26
557.32	46131.96
557.49	45773.86
557.65	45640.45
557.82	45315.11
557.98	45752.79
558.15	45867.48
558.32	46080.47
558.48	46036.00
558.65	45862.80
558.81	46157.70
558.98	46227.92
559.14	45996.21
559.31	45825.35
559.47	45539.80
559.64	46036.00
559.80	46312.18
559.97	46326.22
560.13	45890.88
560.30	46232.60
560.46	46164.73
560.63	46698.37
560.79	46342.61
560.96	46457.29
561.12	46134.30
561.29	46363.67
561.45	46164.73
561.61	46143.66
561.78	46387.08
561.94	46440.91
562.11	46494.74
562.27	46501.76
562.44	45970.46
562.60	45956.42
562.77	46256.01
562.93	46408.14
563.10	46450.27
563.26	46508.79
563.42	46824.76
563.59	46323.88
563.75	46515.81
563.92	46431.55
564.08	46597.73
564.24	46508.79
564.41	46195.15
564.57	46401.12
564.74	46375.37
564.90	46906.68
565.07	46529.85
565.23	46520.49
565.39	46349.63
565.56	46600.07
565.72	46197.49
565.88	46529.85
566.05	46452.61
566.21	46663.26
566.38	46518.15
566.54	46637.51
566.70	47089.24
566.87	46639.86
567.03	46831.78
567.19	47257.76
567.36	46684.33
567.52	46380.06
567.68	46532.19
567.85	46426.87
568.01	46693.69
568.17	46958.17
568.34	46527.51
568.50	46780.29
568.66	47004.98
568.83	47084.56
568.99	46660.92
569.15	46431.55
569.32	46396.44
569.48	46710.07
569.64	46848.16
569.81	46728.80
569.97	46689.01
570.13	46822.42
570.30	46717.09
570.46	47201.58
570.62	46829.44
570.78	46623.47
570.95	46436.23
571.11	46813.05
571.27	46529.85
571.43	46609.43
571.60	46848.16
571.76	46693.69
571.92	46738.16
572.09	46897.31
572.25	46913.70
572.41	47028.38
572.57	46918.38
572.74	47089.24
572.90	46986.25
573.06	46817.74
573.22	46974.55
573.38	46997.96
573.55	46855.18
573.71	47288.18
573.87	47232.01
574.03	46726.46
574.20	46700.71
574.36	46693.69
574.52	46756.88
574.68	46960.51
574.84	47058.81
575.01	47117.32
575.17	46583.68
575.33	46817.74
575.49	46501.76
575.65	47297.55
575.82	47320.95
575.98	46490.06
576.14	47028.38
576.30	47124.35
576.46	47147.75
576.62	46972.21
576.79	46904.34
576.95	46628.15
577.11	46501.76
577.27	47391.17
577.43	47049.45
577.59	47028.38
577.75	47201.58
577.92	47129.03
578.08	46653.90
578.24	47100.94
578.40	46703.05
578.56	47398.19
578.72	47540.96
578.88	47426.28
579.04	47159.45
579.21	47334.99
579.37	47201.58
579.53	47395.85
579.69	46876.25
579.85	46562.62
580.01	47035.41
580.17	46791.99
580.33	47049.45
580.49	47026.04
580.65	47269.46
580.82	47143.07
580.98	47023.70
581.14	47089.24
581.30	47288.18
581.46	46674.96
581.62	46745.18
581.78	46588.36
581.94	47159.45
582.10	46731.14
582.26	46824.76
582.42	47199.24
582.58	47147.75
582.74	47112.64
582.90	47407.55
583.06	46925.40
583.22	47171.16
583.38	47089.24
583.54	47110.30
583.70	46923.06
583.86	46747.52
584.02	46885.61
584.18	47133.71
584.34	46831.78
584.50	47426.28
584.66	46951.15
584.82	46913.70
584.98	47220.31
585.14	47281.16
585.30	46857.52
585.46	46712.41
585.62	46894.97
585.78	47161.79
585.94	47161.79
586.10	47203.92
586.26	46932.42
586.42	47030.72
586.58	46960.51
586.74	47138.39
586.90	46602.41
587.06	46911.36
587.22	47255.42
587.38	46642.20
587.54	47075.19
587.70	47377.12
587.86	47445.00
588.02	47409.89
588.18	47454.36
588.34	47152.43
588.49	47208.61
588.65	46848.16
588.81	47084.56
588.97	47426.28
589.13	46904.34
589.29	47129.03
589.45	46813.05
589.61	47126.69
589.77	47292.86
589.93	47412.23
590.08	47482.45
590.24	47367.76
590.40	47297.55
590.56	47386.49
