SpectraSuite Data File
++++++++++++++++++++++++++++++++++++
Date: Fri Oct 04 11:39:33 GMT-05:00 2013
User: price-jones
Dark Spectrum Present: No
Reference Spectrum Present: No
Number of Sampled Component Spectra: 1
Spectrometers: USB2+H05261
Integration Time (usec): 100000 (USB2+H05261)
Spectra Averaged: 1 (USB2+H05261)
Boxcar Smoothing: 0 (USB2+H05261)
Correct for Electrical Dark: No (USB2+H05261)
Strobe/Lamp Enabled: No (USB2+H05261)
Correct for Detector Non-linearity: No (USB2+H05261)
Correct for Stray Light: No (USB2+H05261)
Number of Pixels in Processed Spectrum: 2048
>>>>>Begin Processed Spectral Data<<<<<
365.73	72.56
365.92	72.56
366.12	72.56
366.32	0.00
366.52	0.00
366.72	0.00
366.91	14.04
367.11	0.00
367.31	0.00
367.51	0.00
367.70	0.00
367.90	0.00
368.10	0.00
368.30	0.00
368.49	0.00
368.69	0.00
368.89	0.00
369.09	0.00
369.28	49.15
369.48	0.00
369.68	0.00
369.87	0.00
370.07	0.00
370.27	18.72
370.47	11.70
370.66	119.37
370.86	191.92
371.06	102.98
371.25	180.22
371.45	182.56
371.65	212.99
371.84	170.86
372.04	262.14
372.24	224.69
372.44	140.43
372.63	227.03
372.83	348.74
373.03	229.37
373.22	191.92
373.42	255.12
373.62	304.27
373.81	306.61
374.01	315.97
374.21	241.08
374.40	241.08
374.60	365.12
374.79	285.55
374.99	276.18
375.19	337.04
375.38	353.42
375.58	241.08
375.78	372.15
375.97	243.42
376.17	287.89
376.37	238.73
376.56	311.29
376.76	304.27
376.95	285.55
377.15	297.25
377.35	257.46
377.54	322.99
377.74	266.82
377.93	264.48
378.13	330.02
378.33	283.20
378.52	299.59
378.72	358.10
378.91	341.72
379.11	346.40
379.31	299.59
379.50	353.42
379.70	358.10
379.89	353.42
380.09	299.59
380.28	269.16
380.48	299.59
380.68	290.23
380.87	276.18
381.07	299.59
381.26	362.78
381.46	404.91
381.65	327.68
381.85	278.52
382.04	346.40
382.24	372.15
382.43	327.68
382.63	273.84
382.83	222.35
383.02	339.38
383.22	386.19
383.41	325.33
383.61	264.48
383.80	341.72
384.00	376.83
384.19	381.51
384.39	355.76
384.58	332.36
384.78	353.42
384.97	325.33
385.17	379.17
385.36	369.80
385.56	313.63
385.75	315.97
385.95	334.70
386.14	428.32
386.34	400.23
386.53	421.30
386.72	435.34
386.92	425.98
387.11	365.12
387.31	407.25
387.50	402.57
387.70	381.51
387.89	465.77
388.09	402.57
388.28	404.91
388.48	393.21
388.67	435.34
388.86	435.34
389.06	407.25
389.25	440.02
389.45	442.36
389.64	411.93
389.84	510.24
390.03	587.47
390.22	440.02
390.42	519.60
390.61	465.77
390.81	411.93
391.00	435.34
391.19	543.00
391.39	472.79
391.58	543.00
391.78	468.11
391.97	521.94
392.16	503.22
392.36	512.58
392.55	500.87
392.75	507.90
392.94	538.32
393.13	402.57
393.33	489.17
393.52	505.56
393.71	561.73
393.91	554.71
394.10	543.00
394.29	528.96
394.49	416.62
394.68	519.60
394.88	685.78
395.07	601.52
395.26	617.90
395.46	561.73
395.65	587.47
395.84	580.45
396.04	697.48
396.23	589.82
396.42	613.22
396.62	568.75
396.81	582.79
397.00	603.86
397.19	631.94
397.39	655.35
397.58	681.10
397.77	606.20
397.97	620.24
398.16	585.13
398.35	692.80
398.55	716.20
398.74	683.44
398.93	688.12
399.12	753.65
399.32	664.71
399.51	657.69
399.70	767.70
399.90	760.67
400.09	760.67
400.28	830.89
400.47	837.91
400.67	793.44
400.86	727.91
401.05	760.67
401.24	837.91
401.44	851.96
401.63	821.53
401.82	847.27
402.01	809.83
402.21	1001.75
402.40	884.72
402.59	938.55
402.78	959.62
402.97	926.85
403.17	959.62
403.36	987.71
403.55	1039.20
403.74	966.64
403.93	1006.43
404.13	1057.92
404.32	1060.26
404.51	1107.07
404.70	1048.56
404.89	1032.18
405.09	1121.12
405.28	1053.24
405.47	1053.24
405.66	1139.84
405.85	1149.20
406.05	1123.46
406.24	1125.80
406.43	1128.14
406.62	1130.48
406.81	1179.63
407.00	1170.27
407.20	1153.88
407.39	1142.18
407.58	1263.89
407.77	1331.76
407.96	1331.76
408.15	1341.13
408.34	1221.76
408.54	1317.72
408.73	1294.32
408.92	1401.98
409.11	1380.92
409.30	1376.24
409.49	1362.19
409.68	1385.60
409.87	1540.07
410.07	1451.13
410.26	1500.28
410.45	1579.86
410.64	1462.83
410.83	1633.69
411.02	1399.64
411.21	1551.78
411.40	1507.30
411.59	1638.38
411.78	1558.80
411.98	1692.21
412.17	1605.61
412.36	1657.10
412.55	1675.82
412.74	1764.76
412.93	1764.76
413.12	1717.95
413.31	1811.57
413.50	1802.21
413.69	1853.70
413.88	1856.04
414.07	1884.13
414.26	1980.09
414.45	1923.92
414.64	1944.99
414.83	1984.77
415.02	2101.80
415.22	2083.08
415.41	2129.89
415.60	2174.36
415.79	2108.82
415.98	2090.10
416.17	2139.25
416.36	2157.97
416.55	2141.59
416.74	2267.98
416.93	2258.62
417.12	2293.72
417.31	2275.00
417.50	2277.34
417.69	2415.43
417.88	2502.03
418.07	2389.69
418.26	2413.09
418.45	2319.47
418.64	2438.84
418.83	2565.23
419.02	2586.29
419.21	2509.05
419.39	2560.55
419.58	2492.67
419.77	2539.48
419.96	2513.74
420.15	2661.19
420.34	2576.93
420.53	2647.15
420.72	2679.91
420.91	2602.68
421.10	2750.13
421.29	2806.30
421.48	2619.06
421.67	2979.50
421.86	2820.35
422.05	2848.43
422.24	2834.39
422.43	2771.19
422.61	2768.85
422.80	2932.69
422.99	2822.69
423.18	2808.64
423.37	3023.97
423.56	2932.69
423.75	2843.75
423.94	2855.45
424.13	2708.00
424.32	2810.98
424.50	2869.50
424.69	3040.36
424.88	3084.83
425.07	2841.41
425.26	2785.24
425.45	2946.73
425.64	2963.12
425.83	2815.66
426.01	2972.48
426.20	2979.50
426.39	2991.20
426.58	2913.97
426.77	2916.31
426.96	2949.08
427.15	2944.39
427.33	2960.78
427.52	3112.91
427.71	2984.18
427.90	3119.93
428.09	3103.55
428.28	3066.10
428.46	3084.83
428.65	3183.13
428.84	3222.92
429.03	3258.03
429.22	3141.00
429.40	3272.07
429.59	3337.60
429.78	3206.53
429.97	3038.02
430.16	3356.33
430.34	3274.41
430.53	3236.96
430.72	3328.24
430.91	3239.30
431.10	3211.22
431.28	3295.47
431.47	3517.83
431.66	3449.95
431.85	3297.81
432.03	3489.74
432.22	3487.40
432.41	3461.65
432.60	3524.85
432.79	3550.59
432.97	3492.08
433.16	3543.57
433.35	3632.51
433.54	3515.48
433.72	3569.32
433.91	3541.23
434.10	3712.09
434.28	3712.09
434.47	3705.07
434.66	3885.29
434.85	3784.65
435.03	3850.18
435.22	3824.44
435.41	4142.75
435.59	4173.18
435.78	4100.62
435.97	3962.53
436.16	3815.07
436.34	3761.24
436.53	3871.25
436.72	4044.45
436.90	3836.14
437.09	3857.20
437.28	3896.99
437.46	3925.08
437.65	3936.78
437.84	4077.21
438.02	3943.80
438.21	3861.88
438.40	3901.67
438.58	4095.94
438.77	4259.78
438.96	4201.26
439.14	4105.30
439.33	4294.88
439.52	4161.47
439.70	4257.43
439.89	4365.10
440.08	4248.07
440.26	4430.63
440.45	4428.29
440.63	4407.23
440.82	4685.75
441.01	4545.32
441.19	4599.15
441.38	4601.49
441.57	4734.90
441.75	4603.83
441.94	4718.52
442.12	4641.28
442.31	4849.59
442.50	4713.84
442.68	4709.16
442.87	4880.02
443.05	4568.73
443.24	4835.55
443.43	4961.94
443.61	4791.08
443.80	4959.60
443.98	4767.67
444.17	4737.24
444.35	4748.95
444.54	5046.20
444.73	4961.94
444.91	4877.68
445.10	4938.53
445.28	4870.65
445.47	4882.36
445.65	4975.98
445.84	5034.49
446.02	5212.37
446.21	4994.70
446.39	5081.30
446.58	5085.98
446.77	5174.92
446.95	5022.79
447.14	5083.64
447.32	5055.56
447.51	4959.60
447.69	5057.90
447.88	4983.00
448.06	5081.30
448.25	5146.84
448.43	5060.24
448.62	5006.41
448.80	5039.17
448.99	5081.30
449.17	5076.62
449.36	5032.15
449.54	5174.92
449.73	5266.21
449.91	5315.36
450.10	5369.19
450.28	5528.35
450.46	5444.09
450.65	5315.36
450.83	5397.28
451.02	5425.36
451.20	5474.51
451.39	5448.77
451.57	5385.57
451.76	5268.55
451.94	5404.30
452.13	5507.28
452.31	5453.45
452.49	5376.21
452.68	5401.96
452.86	5401.96
453.05	5528.35
453.23	5610.26
453.42	5547.07
453.60	5366.85
453.78	5825.59
453.97	5755.38
454.15	5572.82
454.34	5490.90
454.52	5788.14
454.70	5675.80
454.89	5872.40
455.07	5682.82
455.26	5949.64
455.44	5928.58
455.62	5912.19
455.81	6047.94
455.99	5973.05
456.17	5900.49
456.36	5877.09
456.54	5935.60
456.73	5998.79
456.91	6118.16
457.09	6171.99
457.28	6244.55
457.46	5837.30
457.64	6272.64
457.83	6244.55
458.01	6115.82
458.19	6237.53
458.38	6333.49
458.56	6394.34
458.74	6328.81
458.93	6274.98
459.11	6523.07
459.29	6239.87
459.48	6342.85
459.66	6361.58
459.84	6328.81
460.03	6485.62
460.21	6530.09
460.39	6436.47
460.57	6333.49
460.76	6438.81
460.94	6684.57
461.12	6450.52
461.31	6590.95
461.49	6480.94
461.67	6637.76
461.85	6757.13
462.04	6595.63
462.22	6895.22
462.40	6782.87
462.59	6637.76
462.77	6724.36
462.95	6855.43
463.13	6855.43
463.32	7037.99
463.50	6897.56
463.68	6867.13
463.86	6918.62
464.05	6736.06
464.23	6944.37
464.41	7012.24
464.59	6700.95
464.78	7108.21
464.96	6864.79
465.14	6897.56
465.32	7148.00
465.50	7150.34
465.69	7080.12
465.87	6925.65
466.05	7213.53
466.23	7016.93
466.41	7234.60
466.60	7398.43
466.78	7143.32
466.96	7056.72
467.14	7136.29
467.32	7169.06
467.51	7470.99
467.69	7176.08
467.87	7328.22
468.05	7290.77
468.23	7075.44
468.41	7187.79
468.60	7407.80
468.78	7592.70
468.96	7386.73
469.14	7571.63
469.32	7229.91
469.50	7335.24
469.69	7740.15
469.87	7658.23
470.05	7740.15
470.23	7639.51
470.41	7571.63
470.59	7756.54
470.77	7831.43
470.95	7782.28
471.14	7822.07
471.32	7662.91
471.50	7927.39
471.68	7777.60
471.86	7925.05
472.04	7786.96
472.22	8105.28
472.40	8065.49
472.58	7964.84
472.77	8177.83
472.95	8084.21
473.13	8344.01
473.31	8255.07
473.49	8205.92
473.67	8301.88
473.85	8273.79
474.03	8603.81
474.21	8461.04
474.39	8521.89
474.57	8500.83
474.75	8697.43
474.93	8620.19
475.12	8538.27
475.30	8781.69
475.48	8842.54
475.66	8709.13
475.84	8879.99
476.02	8982.98
476.20	9041.49
476.38	9027.45
476.56	9210.01
476.74	9493.21
476.92	9069.58
477.10	9151.49
477.28	9181.92
477.46	9413.63
477.64	9568.11
477.82	9507.26
478.00	9701.52
478.18	9753.01
478.36	9958.98
478.54	9870.04
478.72	9844.29
478.90	9961.32
479.08	10228.14
479.26	10164.95
479.44	10071.33
479.62	10487.94
479.80	10298.36
479.98	10740.72
480.16	10443.47
480.34	10436.45
480.52	10661.14
480.70	10738.38
480.88	10740.72
481.06	10698.59
481.24	10761.78
481.41	10906.90
481.59	11028.60
481.77	11082.44
481.95	11492.03
482.13	11265.00
482.31	11286.06
482.49	11382.03
482.67	11595.01
482.85	11667.57
483.03	12042.06
483.21	11962.48
483.39	12159.08
483.57	12018.65
483.74	12184.83
483.92	12428.24
484.10	12341.64
484.28	12526.55
484.46	12875.29
484.64	12697.41
484.82	12657.62
485.00	12624.85
485.18	13034.44
485.35	13078.91
485.53	13095.30
485.71	13273.18
485.89	13317.65
486.07	13437.02
486.25	13614.90
486.43	13385.52
486.61	13678.09
486.78	13537.66
486.96	14148.54
487.14	14340.46
487.32	14059.60
487.50	14345.14
487.68	14272.59
487.85	14401.32
488.03	14745.38
488.21	14934.96
488.39	14574.52
488.57	15047.30
488.75	15028.58
488.92	15382.00
489.10	15276.68
489.28	15206.46
489.46	15283.70
489.64	15564.56
489.81	15857.13
489.99	15800.96
490.17	15913.30
490.35	16355.66
490.53	15861.81
490.70	16414.18
490.88	16063.10
491.06	16435.24
491.24	16650.57
491.41	16709.08
491.59	16826.11
491.77	16681.00
491.95	16863.56
492.13	16922.07
492.30	17060.16
492.48	17392.52
492.66	17240.39
492.84	17357.41
493.01	17476.78
493.19	17755.30
493.37	17675.73
493.54	17860.63
493.72	18132.13
493.90	18150.85
494.08	18352.14
494.25	18094.68
494.43	18352.14
494.61	18888.12
494.79	18602.58
494.96	18658.75
495.14	18628.32
495.32	18981.74
495.49	19051.96
495.67	19136.22
495.85	18988.77
496.02	19063.66
496.20	19417.08
496.38	19236.86
496.55	19587.94
496.73	19723.69
496.91	19569.22
497.09	19847.74
497.26	19978.81
497.44	20170.74
497.62	20016.26
497.79	20465.64
497.97	20236.27
498.14	20739.49
498.32	20748.85
498.50	20634.16
498.67	20922.05
498.85	20725.44
499.03	20943.11
499.20	20964.18
499.38	21050.78
499.56	21212.28
499.73	21013.33
499.91	21039.08
500.08	21458.03
500.26	21462.71
500.44	21458.03
500.61	21352.71
500.79	21582.08
500.97	21895.71
501.14	21928.48
501.32	22216.36
501.49	21858.26
501.67	21984.65
501.84	22080.61
502.02	22108.70
502.20	22642.34
502.37	22623.62
502.55	22190.62
502.72	22293.60
502.90	22661.07
503.07	22412.97
503.25	22555.74
503.43	22249.13
503.60	22881.08
503.78	22974.70
503.95	23087.04
504.13	23000.44
504.30	23253.22
504.48	23150.24
504.65	23264.92
504.83	23190.03
505.01	23431.10
505.18	23501.32
505.36	23632.39
505.53	23356.21
505.71	23756.44
505.88	24065.39
506.06	23498.98
506.23	23833.68
506.41	23948.36
506.58	23908.57
506.76	24269.01
506.93	24470.30
507.11	24027.94
507.28	24308.80
507.46	24592.01
507.63	24357.96
507.81	24645.84
507.98	24577.97
508.16	24393.06
508.33	24568.60
508.50	24364.98
508.68	24844.79
508.85	25137.35
509.03	25113.95
509.20	25083.52
509.38	25146.72
509.55	25357.36
509.73	25479.07
509.90	25694.40
510.08	25425.24
510.25	25479.07
510.42	25823.13
510.60	25741.21
510.77	26089.95
510.95	25867.60
511.12	25748.23
511.30	25851.22
511.47	26522.95
511.64	26043.14
511.82	26396.56
511.99	26567.42
512.17	26686.79
512.34	26380.18
512.51	26768.71
512.69	26696.15
512.86	26789.77
513.04	26796.79
513.21	27131.49
513.38	27201.71
513.56	26892.76
513.73	26862.33
513.90	26981.70
514.08	27021.48
514.25	27534.06
514.43	27049.57
514.60	27358.52
514.77	27482.57
514.95	27896.85
515.12	27225.11
515.29	27847.69
515.47	27754.07
515.64	28107.49
515.81	27571.51
515.99	27929.61
516.16	28243.24
516.33	27653.43
516.51	28355.59
516.68	28116.86
516.85	28292.40
517.03	28158.99
517.20	28603.69
517.37	28397.72
517.54	28304.10
517.72	28575.60
517.89	28538.15
518.06	28713.69
518.24	28599.01
518.41	28734.76
518.58	28893.91
518.75	28676.24
518.93	29237.97
519.10	28982.85
519.27	29076.48
519.45	28786.25
519.62	29041.37
519.79	28919.66
519.96	29553.94
520.14	29378.40
520.31	29776.30
520.48	29834.81
520.65	29640.54
520.83	29996.31
521.00	29834.81
521.17	29638.20
521.34	30038.44
521.52	30040.78
521.69	29998.65
521.86	30302.92
522.03	30417.60
522.20	30068.86
522.38	30204.61
522.55	30281.85
522.72	30642.29
522.89	30412.92
523.07	30384.83
523.24	30452.71
523.41	30845.92
523.58	30368.45
523.75	31152.53
523.92	30794.43
524.10	30803.79
524.27	30984.01
524.44	31108.06
524.61	31594.89
524.78	31295.30
524.96	31185.30
525.13	31168.91
525.30	31431.05
525.47	31234.45
525.64	31379.56
525.81	31295.30
525.98	31838.31
526.16	31562.12
526.33	31140.83
526.50	31569.15
526.67	31569.15
526.84	31517.65
527.01	31395.95
527.18	31751.71
527.36	31857.03
527.53	32163.64
527.70	32060.66
527.87	32060.66
528.04	31728.30
528.21	32013.85
528.38	31875.76
528.55	32498.34
528.72	32526.42
528.89	32444.51
529.07	31952.99
529.24	32449.19
529.41	32283.01
529.58	31913.20
529.75	32158.96
529.92	32128.53
530.09	32411.74
530.26	32779.20
530.43	32720.69
530.60	32844.74
530.77	32903.25
530.94	33160.71
531.11	32606.00
531.28	32407.06
531.46	32891.55
531.63	33067.09
531.80	33326.89
531.97	33181.77
532.14	33565.62
532.31	33329.23
532.48	33120.92
532.65	33591.37
532.82	33354.97
532.99	33577.33
533.16	33263.69
533.33	33567.96
533.50	33626.48
533.67	33708.40
533.84	33628.82
534.01	33511.79
534.18	33464.98
534.35	33968.19
534.52	33556.26
534.69	34567.37
534.86	33879.25
535.03	34094.58
535.20	33944.79
535.37	34174.16
535.54	33984.58
535.71	33614.77
535.88	34155.44
536.05	34218.63
536.22	34387.15
536.38	34815.47
536.55	34534.60
536.72	34611.84
536.89	33816.06
537.06	34199.91
537.23	34635.25
537.40	34302.89
537.57	34417.58
537.74	34403.53
537.91	35054.20
538.08	34747.59
538.25	34771.00
538.42	34412.90
538.59	34906.75
538.75	34792.06
538.92	34916.11
539.09	34775.68
539.26	34794.40
539.43	35339.75
539.60	35236.77
539.77	35271.87
539.94	35419.33
540.11	35555.08
540.28	35145.48
540.44	35613.59
540.61	35871.05
540.78	35873.39
540.95	35861.69
541.12	36123.83
541.29	36025.53
541.46	36086.38
541.62	36055.95
541.79	36198.73
541.96	35318.68
542.13	35658.06
542.30	36123.83
542.47	36191.70
542.63	35613.59
542.80	36196.38
542.97	36723.01
543.14	36336.82
543.31	36360.22
543.48	36016.16
543.64	36886.84
543.81	36364.90
543.98	36872.80
544.15	36503.00
544.32	36905.57
544.48	37090.47
544.65	36664.49
544.82	36353.20
544.99	36385.97
545.16	36807.26
545.32	36680.88
545.49	37380.70
545.66	37968.17
545.83	38080.52
546.00	37820.72
546.16	37113.87
546.33	37137.28
546.50	36451.50
546.67	36765.14
546.83	36112.13
547.00	37102.17
547.17	37125.58
547.34	36720.66
547.50	37029.62
547.67	36898.55
547.84	37354.95
548.00	37195.79
548.17	37160.69
548.34	37235.58
548.51	37113.87
548.67	37844.12
548.84	37757.52
549.01	37425.17
549.18	37441.55
549.34	37273.03
549.51	37280.05
549.68	37495.38
549.84	37617.09
550.01	37001.53
550.18	37483.68
550.34	37523.47
550.51	37567.94
550.68	37326.86
550.84	37038.98
551.01	37762.20
551.18	37659.22
551.34	37336.23
551.51	37364.31
551.68	37827.74
551.84	37535.17
552.01	37509.43
552.18	37762.20
552.34	37530.49
552.51	37600.71
552.68	37612.41
552.84	37734.12
553.01	38452.66
553.18	37916.68
553.34	37919.02
553.51	38033.71
553.67	38068.81
553.84	38204.56
554.01	38164.78
554.17	38146.05
554.34	38237.33
554.51	37989.24
554.67	38347.34
554.84	38096.90
555.00	37982.21
555.17	38345.00
555.33	38506.49
555.50	38113.28
555.67	38132.01
555.83	37890.93
556.00	38316.91
556.16	38511.17
556.33	38120.31
556.50	38328.61
556.66	38440.96
556.83	38424.57
556.99	38529.90
557.16	38309.89
557.32	38494.79
557.49	38352.02
557.65	38012.64
557.82	38038.39
557.98	38466.70
558.15	38492.45
558.32	38639.90
558.48	38426.92
558.65	38574.37
558.81	39007.37
558.98	38616.50
559.14	38841.19
559.31	37935.40
559.47	38761.61
559.64	38532.24
559.80	38609.48
559.97	39278.87
560.13	38703.10
560.30	38611.82
560.46	38721.82
560.63	38876.30
560.79	38745.23
560.96	39000.35
561.12	38738.21
561.29	38590.75
561.45	38749.91
561.61	38871.62
561.78	38902.04
561.94	38958.22
562.11	38988.64
562.27	38759.27
562.44	39154.82
562.60	39093.97
562.77	38876.30
562.93	39115.03
563.10	38880.98
563.26	38850.55
563.42	39440.37
563.59	38705.44
563.75	39138.44
563.92	39288.23
564.08	38899.70
564.24	38902.04
564.41	38855.23
564.57	38497.13
564.74	39016.73
564.90	39452.07
565.07	39342.06
565.23	39267.17
565.39	38909.07
565.56	39166.52
565.72	39234.40
565.88	39112.69
566.05	39185.25
566.21	38773.31
566.38	38869.28
566.54	38883.32
566.70	39068.22
566.87	39625.27
567.03	39285.89
567.19	39433.35
567.36	39281.21
567.52	39353.77
567.68	39115.03
567.85	38731.18
568.01	39283.55
568.17	38934.81
568.34	39276.53
568.50	39353.77
568.66	39519.95
568.83	39477.82
568.99	39115.03
569.15	39452.07
569.32	39136.10
569.48	38948.85
569.64	39445.05
569.81	39203.97
569.97	39526.97
570.13	39288.23
570.30	39295.25
570.46	39587.82
570.62	39023.75
570.78	38995.67
570.95	39318.66
571.11	39428.66
571.27	39290.57
571.43	39131.42
571.60	39423.98
571.76	39187.59
571.92	39253.12
572.09	39618.25
572.25	39828.90
572.41	39070.56
572.57	39119.71
572.74	39473.13
572.90	39381.85
573.06	38990.98
573.22	39194.61
573.38	39332.70
573.55	39096.31
573.71	39578.46
573.87	39896.77
574.03	39344.41
574.20	39871.03
574.36	39580.80
574.52	39370.15
574.68	39442.71
574.84	39313.98
575.01	39335.04
575.17	39438.03
575.33	39784.43
575.49	39269.51
575.65	39562.08
575.82	39353.77
575.98	39660.38
576.14	39206.31
576.30	39409.94
576.46	39498.88
576.62	39529.31
576.79	39463.77
576.95	39330.36
577.11	39716.55
577.27	39545.69
577.43	39103.33
577.59	39768.04
577.75	39622.93
577.92	38866.94
578.08	39475.48
578.24	39150.14
578.40	39531.65
578.56	39746.98
578.72	39770.38
578.88	39737.62
579.04	40149.55
579.21	39622.93
579.37	39831.24
579.53	39679.10
579.69	39285.89
579.85	39580.80
580.01	39414.62
580.17	39391.22
580.33	39653.36
580.49	39587.82
580.65	39622.93
580.82	39643.99
580.98	39473.13
581.14	39313.98
581.30	39798.47
581.46	39524.63
581.62	39819.53
581.78	39538.67
581.94	39779.74
582.10	39367.81
582.26	39643.99
582.42	39636.97
582.58	39896.77
582.74	39622.93
582.90	39746.98
583.06	39323.34
583.22	39695.49
583.38	39391.22
583.54	39246.10
583.70	39594.84
583.86	39917.84
584.02	39058.86
584.18	39856.98
584.34	39966.99
584.50	39826.56
584.66	39922.52
584.82	39615.91
584.98	39388.88
585.14	39749.32
585.30	39718.89
585.46	39683.78
585.62	39681.44
585.78	39782.09
585.94	39140.78
586.10	40037.20
586.26	39955.29
586.42	39835.92
586.58	40004.44
586.74	39845.28
586.90	39461.43
587.06	39227.38
587.22	39854.64
587.38	39395.90
587.54	39704.85
587.70	39856.98
587.86	39662.72
588.02	39756.34
588.18	40170.61
588.34	39519.95
588.49	39384.19
588.65	39569.10
588.81	39672.08
588.97	39641.65
589.13	39655.70
589.29	39346.75
589.45	39690.80
589.61	40025.50
589.77	39861.66
589.93	39730.59
590.08	40023.16
590.24	40072.31
590.40	40058.27
590.56	39655.70
590.72	39849.96
590.88	39592.50
591.04	39831.24
591.20	40006.78
