SpectraSuite Data File
++++++++++++++++++++++++++++++++++++
Date: Fri Oct 04 11:39:19 GMT-05:00 2013
User: price-jones
Dark Spectrum Present: No
Reference Spectrum Present: No
Number of Sampled Component Spectra: 1
Spectrometers: USB2+H05261
Integration Time (usec): 100000 (USB2+H05261)
Spectra Averaged: 1 (USB2+H05261)
Boxcar Smoothing: 0 (USB2+H05261)
Correct for Electrical Dark: No (USB2+H05261)
Strobe/Lamp Enabled: No (USB2+H05261)
Correct for Detector Non-linearity: No (USB2+H05261)
Correct for Stray Light: No (USB2+H05261)
Number of Pixels in Processed Spectrum: 2048
>>>>>Begin Processed Spectral Data<<<<<
365.73	49.15
365.92	49.15
366.12	49.15
366.32	0.00
366.52	0.00
366.72	0.00
366.91	0.00
367.11	0.00
367.31	0.00
367.51	0.00
367.70	0.00
367.90	7.02
368.10	0.00
368.30	0.00
368.49	0.00
368.69	0.00
368.89	0.00
369.09	0.00
369.28	0.00
369.48	0.00
369.68	28.09
369.87	0.00
370.07	44.47
370.27	11.70
370.47	39.79
370.66	194.26
370.86	187.24
371.06	294.91
371.25	294.91
371.45	271.50
371.65	294.91
371.84	191.92
372.04	276.18
372.24	353.42
372.44	243.42
372.63	280.86
372.83	250.44
373.03	318.31
373.22	311.29
373.42	308.95
373.62	367.46
373.81	386.19
374.01	395.55
374.21	400.23
374.40	416.62
374.60	365.12
374.79	341.72
374.99	379.17
375.19	358.10
375.38	318.31
375.58	299.59
375.78	449.38
375.97	400.23
376.17	470.45
376.37	423.64
376.56	514.92
376.76	477.47
376.95	444.70
377.15	470.45
377.35	379.17
377.54	409.59
377.74	381.51
377.93	365.12
378.13	456.40
378.33	500.87
378.52	388.53
378.72	463.43
378.91	493.85
379.11	458.74
379.31	395.55
379.50	388.53
379.70	484.49
379.89	423.64
380.09	472.79
380.28	400.23
380.48	507.90
380.68	437.68
380.87	425.98
381.07	463.43
381.26	470.45
381.46	517.26
381.65	458.74
381.85	543.00
382.04	435.34
382.24	465.77
382.43	454.06
382.63	486.83
382.83	435.34
383.02	535.98
383.22	538.32
383.41	482.15
383.61	449.38
383.80	479.81
384.00	512.58
384.19	461.09
384.39	519.60
384.58	528.96
384.78	545.34
384.97	550.03
385.17	559.39
385.36	568.75
385.56	521.94
385.75	573.43
385.95	568.75
386.14	510.24
386.34	543.00
386.53	475.13
386.72	610.88
386.92	517.26
387.11	559.39
387.31	568.75
387.50	638.97
387.70	559.39
387.89	575.77
388.09	585.13
388.28	561.73
388.48	512.58
388.67	552.37
388.86	653.01
389.06	592.16
389.25	575.77
389.45	706.84
389.64	683.44
389.84	624.92
390.03	641.31
390.22	589.82
390.42	568.75
390.61	596.84
390.81	681.10
391.00	617.90
391.19	723.23
391.39	645.99
391.58	690.46
391.78	678.76
391.97	718.54
392.16	683.44
392.36	823.87
392.55	760.67
392.75	690.46
392.94	610.88
393.13	730.25
393.33	660.03
393.52	755.99
393.71	716.20
393.91	702.16
394.10	667.05
394.29	777.06
394.49	772.38
394.68	844.93
394.88	791.10
395.07	821.53
395.26	840.25
395.46	866.00
395.65	770.04
395.84	898.77
396.04	854.30
396.23	819.19
396.42	873.02
396.62	812.17
396.81	851.96
397.00	861.32
397.19	844.93
397.39	863.66
397.58	908.13
397.77	875.36
397.97	950.26
398.16	950.26
398.35	987.71
398.55	882.38
398.74	908.13
398.93	1013.45
399.12	957.28
399.32	987.71
399.51	971.32
399.70	1008.77
399.90	1046.22
400.09	1043.88
400.28	1093.03
400.47	1004.09
400.67	1125.80
400.86	968.98
401.05	1001.75
401.24	1043.88
401.44	1102.39
401.63	1088.35
401.82	1090.69
402.01	1062.60
402.21	1130.48
402.40	1203.04
402.59	1088.35
402.78	1165.59
402.97	1268.57
403.17	1200.69
403.36	1282.61
403.55	1228.78
403.74	1252.19
403.93	1207.72
404.13	1256.87
404.32	1306.02
404.51	1259.21
404.70	1313.04
404.89	1249.85
405.09	1277.93
405.28	1296.66
405.47	1205.38
405.66	1313.04
405.85	1380.92
406.05	1334.11
406.24	1352.83
406.43	1404.32
406.62	1378.58
406.81	1568.16
407.00	1399.64
407.20	1387.94
407.39	1434.75
407.58	1416.02
407.77	1413.68
407.96	1593.90
408.15	1472.20
408.34	1493.26
408.54	1479.22
408.73	1483.90
408.92	1610.29
409.11	1633.69
409.30	1638.38
409.49	1610.29
409.68	1561.14
409.87	1533.05
410.07	1722.63
410.26	1762.42
410.45	1687.53
410.64	1771.79
410.83	1788.17
411.02	1682.85
411.21	1867.75
411.40	1856.04
411.59	1827.96
411.78	1820.94
411.98	1842.00
412.17	1926.26
412.36	1797.53
412.55	2010.52
412.74	1879.45
412.93	1881.79
413.12	1912.22
413.31	2059.67
413.50	1989.46
413.69	2106.48
413.88	2094.78
414.07	2143.93
414.26	2167.34
414.45	2076.06
414.64	2108.82
414.83	2179.04
415.02	2195.42
415.22	2270.32
415.41	2448.20
415.60	2256.28
415.79	2361.60
415.98	2427.14
416.17	2237.55
416.36	2249.25
416.55	2354.58
416.74	2459.90
416.93	2368.62
417.12	2452.88
417.31	2459.90
417.50	2410.75
417.69	2569.91
417.88	2600.34
418.07	2593.31
418.26	2609.70
418.45	2581.61
418.64	2747.79
418.83	2583.95
419.02	2752.47
419.21	2693.96
419.39	2686.94
419.58	2752.47
419.77	2722.04
419.96	2661.19
420.15	2885.88
420.34	2719.70
420.53	2834.39
420.72	2747.79
420.91	2902.26
421.10	2904.60
421.29	2899.92
421.48	2895.24
421.67	2935.03
421.86	3009.93
422.05	2956.10
422.24	3000.57
422.43	3026.31
422.61	2937.37
422.80	2991.20
422.99	3098.87
423.18	2998.23
423.37	3089.51
423.56	2960.78
423.75	2986.52
423.94	2935.03
424.13	2761.83
424.32	2888.22
424.50	3084.83
424.69	3101.21
424.88	3262.71
425.07	2970.14
425.26	3152.70
425.45	3089.51
425.64	3133.98
425.83	3063.76
426.01	3042.70
426.20	2965.46
426.39	3070.78
426.58	3038.02
426.77	3166.74
426.96	3129.30
427.15	2977.16
427.33	3054.40
427.52	3148.02
427.71	3148.02
427.90	3251.00
428.09	3201.85
428.28	3187.81
428.46	3276.75
428.65	3157.38
428.84	3318.88
429.03	3300.16
429.22	3445.27
429.40	3405.48
429.59	3349.31
429.78	3204.19
429.97	3145.68
430.16	3162.06
430.34	3435.91
430.53	3463.99
430.72	3435.91
430.91	3503.78
431.10	3466.33
431.28	3583.36
431.47	3618.47
431.66	3590.38
431.85	3648.90
432.03	3468.67
432.22	3658.26
432.41	3599.74
432.60	3681.66
432.79	3499.10
432.97	3625.49
433.16	3716.77
433.35	3644.21
433.54	3742.52
433.72	3784.65
433.91	3726.13
434.10	3829.12
434.28	3824.44
434.47	3815.07
434.66	3918.06
434.85	3894.65
435.03	3927.42
435.22	4011.68
435.41	4313.61
435.59	4337.01
435.78	4180.20
435.97	4021.04
436.16	4107.64
436.34	3936.78
436.53	4035.08
436.72	4177.86
436.90	4007.00
437.09	4093.60
437.28	3962.53
437.46	3932.10
437.65	3960.19
437.84	4269.14
438.02	4077.21
438.21	4308.93
438.40	4224.67
438.58	4229.35
438.77	4285.52
438.96	4170.83
439.14	4341.69
439.33	4507.87
439.52	4610.86
439.70	4407.23
439.89	4437.66
440.08	4648.30
440.26	4542.98
440.45	4615.54
440.63	4564.04
440.82	4683.41
441.01	4631.92
441.19	4655.33
441.38	4854.27
441.57	4917.47
441.75	4793.42
441.94	4762.99
442.12	4800.44
442.31	4966.62
442.50	4887.04
442.68	4791.08
442.87	5034.49
443.05	4968.96
443.24	4943.21
443.43	5032.15
443.61	4997.04
443.80	5102.37
443.98	5041.51
444.17	4947.89
444.35	5074.28
444.54	5275.57
444.73	5179.61
444.91	5062.58
445.10	5210.03
445.28	5177.26
445.47	5160.88
445.65	5034.49
445.84	5111.73
446.02	5224.08
446.21	5195.99
446.39	5266.21
446.58	5188.97
446.77	5041.51
446.95	5224.08
447.14	5308.34
447.32	5212.37
447.51	5228.76
447.69	5200.67
447.88	5210.03
448.06	5298.97
448.25	5228.76
448.43	5203.01
448.62	5341.10
448.80	5191.31
448.99	5439.40
449.17	5458.13
449.36	5324.72
449.54	5331.74
449.73	5554.09
449.91	5643.03
450.10	5533.03
450.28	5544.73
450.46	5518.98
450.65	5509.62
450.83	5661.76
451.02	5701.54
451.20	5628.99
451.39	5631.33
451.57	5565.79
451.76	5647.71
451.94	5717.93
452.13	5898.15
452.31	5687.50
452.49	5764.74
452.68	5818.57
452.86	5769.42
453.05	5884.11
453.23	5919.21
453.42	5795.17
453.60	5713.25
453.78	5839.64
453.97	5783.46
454.15	5914.53
454.34	5785.80
454.52	5921.56
454.70	5937.94
454.89	5893.47
455.07	5956.66
455.26	6120.50
455.44	6263.27
455.62	6040.92
455.81	6024.54
455.99	6167.31
456.17	6237.53
456.36	6150.93
456.54	6265.61
456.73	6239.87
456.91	6581.59
457.09	6356.90
457.28	6494.99
457.46	6319.45
457.64	6548.82
457.83	6473.92
458.01	6317.11
458.19	6494.99
458.38	6635.42
458.56	6696.27
458.74	6586.27
458.93	6466.90
459.11	6574.56
459.29	6471.58
459.48	6621.38
459.66	6686.91
459.84	6895.22
460.03	6820.32
460.21	6839.05
460.39	6846.07
460.57	6794.58
460.76	6822.66
460.94	6949.05
461.12	6883.52
461.31	6899.90
461.49	6923.30
461.67	6644.78
461.85	6944.37
462.04	6939.69
462.22	7529.50
462.40	7157.36
462.59	7138.63
462.77	7162.04
462.95	7171.40
463.13	7187.79
463.32	7197.15
463.50	7204.17
463.68	7192.47
463.86	7281.41
464.05	6949.05
464.23	7176.08
464.41	7318.86
464.59	7241.62
464.78	7410.14
464.96	7384.39
465.14	7321.20
465.32	7449.93
465.50	7459.29
465.69	7302.47
465.87	7288.43
466.05	7323.54
466.23	7339.92
466.41	7424.18
466.60	7604.40
466.78	7524.82
466.96	7705.04
467.14	7747.17
467.32	7604.40
467.51	7683.98
467.69	7604.40
467.87	7700.36
468.05	7698.02
468.23	7655.89
468.41	7632.49
468.60	7740.15
468.78	7875.90
468.96	7758.88
469.14	7859.52
469.32	7894.63
469.50	7618.44
469.69	7950.80
469.87	8149.75
470.05	8229.32
470.23	8105.28
470.41	8095.91
470.59	8058.46
470.77	8023.36
470.95	8133.36
471.14	8196.56
471.32	8086.55
471.50	8372.10
471.68	8458.70
471.86	8299.54
472.04	8393.16
472.22	8659.98
472.40	8545.30
472.58	8395.50
472.77	8500.83
472.95	8603.81
473.13	8861.27
473.31	8734.88
473.49	8547.64
473.67	8760.63
473.85	8798.07
474.03	8990.00
474.21	8882.33
474.39	9146.81
474.57	9004.04
474.75	9320.01
474.93	9331.72
475.12	9013.40
475.30	9158.52
475.48	9205.33
475.66	9226.39
475.84	9268.52
476.02	9540.02
476.20	9465.13
476.38	9399.59
476.56	9633.64
476.74	9530.66
476.92	9799.82
477.10	9881.74
477.28	9902.81
477.46	9987.07
477.64	9984.73
477.82	10167.29
478.00	10342.83
478.18	10321.76
478.36	10310.06
478.54	10551.14
478.72	10651.78
478.90	10478.58
479.08	10750.08
479.26	10834.34
479.44	10871.79
479.62	10956.05
479.80	10857.75
479.98	11166.70
480.16	11044.99
480.34	11337.56
480.52	11145.63
480.70	11389.05
480.88	11159.67
481.06	11742.47
481.24	11449.90
481.41	11721.40
481.59	11742.47
481.77	12025.67
481.95	11915.67
482.13	11915.67
482.31	12133.34
482.49	12248.02
482.67	12418.88
482.85	12638.89
483.03	12613.15
483.21	12657.62
483.39	12980.61
483.57	12622.51
483.74	12802.73
483.92	12891.67
484.10	12905.71
484.28	13240.41
484.46	13589.15
484.64	13523.62
484.82	13294.24
485.00	13509.57
485.18	13923.85
485.35	14010.45
485.53	14024.49
485.71	14155.56
485.89	14366.21
486.07	14422.38
486.25	14333.44
486.43	14303.01
486.61	14611.96
486.78	14611.96
486.96	14647.07
487.14	15215.82
487.32	15173.69
487.50	14761.76
487.68	15227.53
487.85	15630.10
488.03	15587.97
488.21	15882.88
488.39	15805.64
488.57	16060.76
488.75	15880.53
488.92	16407.16
489.10	16297.15
489.28	16388.43
489.46	16688.02
489.64	16493.76
489.81	16943.14
489.99	16809.73
490.17	16802.71
490.35	17078.89
490.53	16917.39
490.70	17245.07
490.88	17224.00
491.06	17535.29
491.24	17752.96
491.41	17640.62
491.59	17621.89
491.77	18015.10
491.95	17830.20
492.13	18090.00
492.30	18082.98
492.48	18394.27
492.66	18644.71
492.84	18494.91
493.01	18670.45
493.19	19019.19
493.37	18860.04
493.54	19098.77
493.72	19115.16
493.90	18932.59
494.08	19154.94
494.25	19580.92
494.43	19379.64
494.61	19964.77
494.79	19964.77
494.96	19763.48
495.14	19829.02
495.32	20343.94
495.49	20266.70
495.67	20638.84
495.85	20524.16
496.02	20933.75
496.20	20863.54
496.38	20748.85
496.55	20720.76
496.73	21434.63
496.91	20961.84
497.09	21350.37
497.26	21177.17
497.44	21235.68
497.62	21659.32
497.79	21781.03
497.97	21537.61
498.14	22050.19
498.32	22347.44
498.50	22029.12
498.67	22190.62
498.85	21958.91
499.03	22038.48
499.20	22403.61
499.38	22387.22
499.56	22670.43
499.73	23000.44
499.91	22843.63
500.08	22537.02
500.26	22897.46
500.44	22909.16
500.61	23112.79
500.79	22988.74
500.97	23019.17
501.14	23520.04
501.32	23653.45
501.49	23477.91
501.67	23559.83
501.84	23807.93
502.02	23901.55
502.20	23885.17
502.37	24144.97
502.55	23737.71
502.72	24243.27
502.90	24128.58
503.07	24098.16
503.25	24444.56
503.43	24346.25
503.60	24805.00
503.78	24519.45
503.95	24575.62
504.13	24882.24
504.30	24807.34
504.48	24844.79
504.65	24996.92
504.83	24992.24
505.01	25324.60
505.18	24947.77
505.36	25376.09
505.53	25198.21
505.71	25200.55
505.88	25701.42
506.06	25439.28
506.23	25905.05
506.41	25799.73
506.58	25855.90
506.76	25795.04
506.93	26078.25
507.11	25694.40
507.28	26263.15
507.46	26319.32
507.63	26520.61
507.81	26443.37
507.98	26616.57
508.16	26483.16
508.33	26497.20
508.50	26801.47
508.68	26558.06
508.85	26892.76
509.03	26934.88
509.20	27042.55
509.38	27246.18
509.55	27274.26
509.73	27339.80
509.90	27330.44
510.08	27580.87
510.25	27777.48
510.42	27821.95
510.60	28168.35
510.77	27742.37
510.95	27861.74
511.12	27924.93
511.30	27807.90
511.47	28474.96
511.64	28315.80
511.82	28224.52
511.99	28196.43
512.17	28290.06
512.34	28144.94
512.51	28439.85
512.69	28746.46
512.86	28718.37
513.04	28961.79
513.21	28905.62
513.38	29340.96
513.56	28931.36
513.73	28800.29
513.90	29266.06
514.08	28889.23
514.25	29457.98
514.43	29172.44
514.60	29748.21
514.77	29465.00
514.95	29755.23
515.12	29596.07
515.29	29556.28
515.47	29914.39
515.64	30228.02
515.81	30157.80
515.99	30101.63
516.16	30181.21
516.33	30345.05
516.51	30707.83
516.68	30047.80
516.85	30424.62
517.03	30602.50
517.20	30555.69
517.37	30646.97
517.54	30410.58
517.72	30569.74
517.89	30850.60
518.06	30534.63
518.24	30670.38
518.41	30930.18
518.58	30958.27
518.75	30560.37
518.93	30731.23
519.10	30897.41
519.27	31325.73
519.45	31220.41
519.62	30984.01
519.79	31438.08
519.96	31337.43
520.14	31838.31
520.31	31527.02
520.48	31662.77
520.65	32002.14
520.83	31924.91
521.00	31557.44
521.17	31749.37
521.34	31950.65
521.52	32121.51
521.69	32477.27
521.86	32854.10
522.03	32617.71
522.20	32002.14
522.38	32566.21
522.55	32748.78
522.72	32540.47
522.89	32891.55
523.07	32645.79
523.24	33027.30
523.41	33493.07
523.58	32503.02
523.75	33237.95
523.92	33069.43
524.10	32821.33
524.27	33401.79
524.44	33415.83
524.61	33530.51
524.78	33392.42
524.96	33546.90
525.13	33446.26
525.30	33820.74
525.47	33841.81
525.64	33640.52
525.81	33928.41
525.98	34153.10
526.16	33778.61
526.33	34396.51
526.50	34431.62
526.67	34029.05
526.84	33951.81
527.01	33982.24
527.18	34286.51
527.36	34340.34
527.53	34576.73
527.70	34712.49
527.87	34810.79
528.04	34579.07
528.21	34632.91
528.38	34546.31
528.55	34822.49
528.72	34609.50
528.89	34930.16
529.07	35030.80
529.24	35187.61
529.41	35260.17
529.58	34735.89
529.75	34457.37
529.92	35072.93
530.09	35105.70
530.26	35016.75
530.43	35454.44
530.60	35187.61
530.77	35658.06
530.94	35557.42
531.11	35648.70
531.28	35578.48
531.46	35367.84
531.63	35927.22
531.80	35887.43
531.97	35756.36
532.14	35945.95
532.31	36011.48
532.48	35931.90
532.65	36472.57
532.82	36079.36
532.99	36093.40
533.16	36158.94
533.33	36603.64
533.50	36692.58
533.67	36734.71
533.84	36371.92
534.01	36215.11
534.18	35838.28
534.35	36531.08
534.52	36292.35
534.69	36914.93
534.86	36779.18
535.03	36528.74
535.20	36774.50
535.37	37055.36
535.54	36814.29
535.71	36655.13
535.88	36943.02
536.05	37310.48
536.22	37476.66
536.38	37289.42
536.55	37099.83
536.72	37165.37
536.89	37450.91
537.06	37401.76
537.23	37022.59
537.40	37333.89
537.57	37326.86
537.74	37392.40
537.91	38014.98
538.08	37631.13
538.25	37764.54
538.42	37258.99
538.59	37640.50
538.75	37614.75
538.92	37979.87
539.09	37933.06
539.26	38099.24
539.43	37504.74
539.60	38103.92
539.77	38284.14
539.94	38031.36
540.11	38265.42
540.28	38548.62
540.44	38588.41
540.61	38478.41
540.78	38602.46
540.95	38452.66
541.12	38939.49
541.29	38841.19
541.46	38799.06
541.62	38728.84
541.79	38869.28
541.96	38384.79
542.13	38822.47
542.30	38794.38
542.47	39372.49
542.63	39161.84
542.80	38981.62
542.97	39056.52
543.14	39323.34
543.31	39812.51
543.48	39590.16
543.64	39948.26
543.81	39154.82
543.98	39592.50
544.15	39793.79
544.32	39938.90
544.48	40329.77
544.65	39922.52
544.82	39646.33
544.99	39400.58
545.16	39751.66
545.32	39749.32
545.49	40339.13
545.66	40973.42
545.83	40772.13
546.00	41031.93
546.16	40727.66
546.33	40194.02
546.50	39723.57
546.67	40411.69
546.83	39431.01
547.00	39990.39
547.17	40350.84
547.34	40240.83
547.50	40458.50
547.67	40718.30
547.84	40561.48
548.00	40315.73
548.17	40381.26
548.34	40512.33
548.51	40573.19
548.67	41038.95
548.84	40577.87
549.01	40755.75
549.18	41097.47
549.34	40886.82
549.51	40465.52
549.68	40800.22
549.84	40676.17
550.01	41125.55
550.18	40638.72
550.34	41036.61
550.51	41102.15
550.68	40961.72
550.84	40505.31
551.01	40905.54
551.18	41078.74
551.34	40950.01
551.51	40701.92
551.68	41195.77
551.84	40781.49
552.01	41212.15
552.18	41457.91
552.34	41174.70
552.51	41031.93
552.68	41296.41
552.84	40910.22
553.01	41523.44
553.18	41099.81
553.34	41610.04
553.51	41256.62
553.67	41577.28
553.84	42291.14
554.01	42120.28
554.17	41523.44
554.34	41799.63
554.51	41228.54
554.67	41624.09
554.84	41682.60
555.00	41783.24
555.17	41626.43
555.33	41691.96
555.50	41724.73
555.67	42302.84
555.83	41378.33
556.00	42199.86
556.16	42099.22
556.33	41626.43
556.50	41670.90
556.66	41883.89
556.83	41488.34
556.99	42726.48
557.16	42279.44
557.32	42670.31
557.49	42431.57
557.65	41670.90
557.82	42375.40
557.98	41862.82
558.15	42136.66
558.32	42019.64
558.48	42073.47
558.65	42078.15
558.81	42660.94
558.98	42410.51
559.14	42234.97
559.31	41979.85
559.47	42223.26
559.64	42419.87
559.80	41989.21
559.97	42792.01
560.13	41926.02
560.30	42731.16
560.46	42670.31
560.63	42658.60
560.79	42548.60
560.96	43042.45
561.12	42403.49
561.29	42667.97
561.45	42508.81
561.61	42693.71
561.78	42649.24
561.94	42529.87
562.11	42513.49
562.27	43002.66
562.44	42686.69
562.60	42927.77
562.77	42501.79
562.93	42579.03
563.10	42745.20
563.26	42726.48
563.42	43313.95
563.59	42745.20
563.75	42899.68
563.92	42958.19
564.08	42684.35
564.24	43225.01
564.41	42728.82
564.57	42829.46
564.74	42768.61
564.90	43253.10
565.07	43199.27
565.23	43531.62
565.39	42997.98
565.56	43103.31
565.72	43002.66
565.88	43105.65
566.05	42899.68
566.21	42909.04
566.38	43269.48
566.54	43145.44
566.70	43421.62
566.87	43643.97
567.03	43416.94
567.19	43409.92
567.36	42782.65
567.52	42871.59
567.68	43278.85
567.85	42836.48
568.01	43267.14
568.17	43210.97
568.34	43416.94
568.50	43477.79
568.66	43496.52
568.83	43540.99
568.99	43543.33
569.15	43309.27
569.32	43863.98
569.48	42937.13
569.64	43292.89
569.81	43206.29
569.97	43543.33
570.13	43910.79
570.30	43449.70
570.46	43648.65
570.62	43115.01
570.78	43519.92
570.95	43044.79
571.11	43615.88
571.27	43658.01
571.43	43229.69
571.60	43594.82
571.76	43398.21
571.92	43770.36
572.09	43718.87
572.25	43346.72
572.41	43674.40
572.57	43871.00
572.74	43552.69
572.90	43721.21
573.06	43578.43
573.22	43578.43
573.38	43730.57
573.55	43688.44
573.71	44465.50
573.87	43824.19
574.03	43674.40
574.20	43629.93
574.36	43508.22
574.52	43454.39
574.68	43599.50
574.84	44044.20
575.01	44044.20
575.17	43721.21
575.33	43627.59
575.49	43704.82
575.65	44250.17
575.82	43962.28
575.98	43873.34
576.14	43819.51
576.30	43770.36
576.46	43863.98
576.62	43477.79
576.79	44048.88
576.95	43508.22
577.11	44126.12
577.27	44215.06
577.43	43515.24
577.59	44062.93
577.75	43901.43
577.92	43356.08
578.08	43421.62
578.24	43849.94
578.40	43810.15
578.56	44257.19
578.72	43903.77
578.88	44446.77
579.04	44376.56
579.21	43992.71
579.37	44163.57
579.53	44119.10
579.69	43842.92
579.85	44105.06
580.01	43948.24
580.17	43791.42
580.33	43880.36
580.49	43856.96
580.65	44531.03
580.82	44184.63
580.98	43875.68
581.14	44128.46
581.30	44030.16
581.46	43838.23
581.62	43992.71
581.78	43756.32
581.94	44257.19
582.10	43966.96
582.26	44498.26
582.42	44210.38
582.58	44236.12
582.74	43955.26
582.90	44282.94
583.06	44034.84
583.22	43615.88
583.38	44222.08
583.54	44566.14
583.70	44402.30
583.86	44486.56
584.02	44175.27
584.18	44411.67
584.34	44374.22
584.50	44360.17
584.66	43999.73
584.82	44034.84
584.98	44245.49
585.14	44325.07
585.30	43428.64
585.46	43756.32
585.62	43990.37
585.78	44304.00
585.94	43665.03
586.10	44371.88
586.26	44240.81
586.42	44645.72
586.58	44093.35
586.74	44116.76
586.90	44156.55
587.06	44105.06
587.22	44935.95
587.38	44390.60
587.54	44769.77
587.70	44301.66
587.86	44818.92
588.02	44636.36
588.18	44914.88
588.34	44266.55
588.49	44938.29
588.65	44046.54
588.81	43992.71
588.97	44210.38
589.13	44215.06
589.29	44191.65
589.45	44505.29
589.61	44467.84
589.77	44914.88
589.93	44575.50
590.08	44388.26
590.24	44847.00
590.40	44425.71
590.56	44673.81
590.72	44542.74
590.88	44641.04
