SpectraSuite Data File
++++++++++++++++++++++++++++++++++++
Date: Fri Oct 04 11:39:54 GMT-05:00 2013
User: price-jones
Dark Spectrum Present: No
Reference Spectrum Present: No
Number of Sampled Component Spectra: 1
Spectrometers: USB2+H05261
Integration Time (usec): 100000 (USB2+H05261)
Spectra Averaged: 1 (USB2+H05261)
Boxcar Smoothing: 0 (USB2+H05261)
Correct for Electrical Dark: No (USB2+H05261)
Strobe/Lamp Enabled: No (USB2+H05261)
Correct for Detector Non-linearity: No (USB2+H05261)
Correct for Stray Light: No (USB2+H05261)
Number of Pixels in Processed Spectrum: 2048
>>>>>Begin Processed Spectral Data<<<<<
365.73	77.24
365.92	77.24
366.12	77.24
366.32	0.00
366.52	0.00
366.72	0.00
366.91	0.00
367.11	0.00
367.31	0.00
367.51	0.00
367.70	0.00
367.90	0.00
368.10	0.00
368.30	7.02
368.49	0.00
368.69	21.06
368.89	0.00
369.09	0.00
369.28	30.43
369.48	0.00
369.68	0.00
369.87	0.00
370.07	2.34
370.27	0.00
370.47	0.00
370.66	67.88
370.86	37.45
371.06	117.03
371.25	170.86
371.45	196.60
371.65	163.84
371.84	147.45
372.04	102.98
372.24	173.20
372.44	128.73
372.63	170.86
372.83	194.26
373.03	147.45
373.22	163.84
373.42	142.77
373.62	222.35
373.81	135.75
374.01	252.78
374.21	205.97
374.40	210.65
374.60	124.05
374.79	198.95
374.99	236.39
375.19	212.99
375.38	234.05
375.58	177.88
375.78	252.78
375.97	173.20
376.17	276.18
376.37	168.52
376.56	248.10
376.76	187.24
376.95	168.52
377.15	173.20
377.35	269.16
377.54	234.05
377.74	205.97
377.93	271.50
378.13	138.09
378.33	210.65
378.52	152.13
378.72	262.14
378.91	180.22
379.11	163.84
379.31	117.03
379.50	194.26
379.70	142.77
379.89	163.84
380.09	212.99
380.28	187.24
380.48	210.65
380.68	227.03
380.87	220.01
381.07	131.07
381.26	325.33
381.46	198.95
381.65	194.26
381.85	245.76
382.04	245.76
382.24	203.63
382.43	208.31
382.63	191.92
382.83	234.05
383.02	217.67
383.22	262.14
383.41	210.65
383.61	203.63
383.80	154.48
384.00	124.05
384.19	227.03
384.39	271.50
384.58	273.84
384.78	208.31
384.97	231.71
385.17	259.80
385.36	271.50
385.56	243.42
385.75	229.37
385.95	262.14
386.14	290.23
386.34	283.20
386.53	255.12
386.72	238.73
386.92	334.70
387.11	205.97
387.31	224.69
387.50	227.03
387.70	215.33
387.89	294.91
388.09	241.08
388.28	166.18
388.48	285.55
388.67	278.52
388.86	276.18
389.06	266.82
389.25	273.84
389.45	332.36
389.64	262.14
389.84	264.48
390.03	332.36
390.22	322.99
390.42	355.76
390.61	308.95
390.81	355.76
391.00	287.89
391.19	325.33
391.39	290.23
391.58	290.23
391.78	280.86
391.97	238.73
392.16	327.68
392.36	369.80
392.55	313.63
392.75	285.55
392.94	334.70
393.13	360.44
393.33	344.06
393.52	381.51
393.71	334.70
393.91	318.31
394.10	318.31
394.29	308.95
394.49	278.52
394.68	400.23
394.88	376.83
395.07	341.72
395.26	355.76
395.46	322.99
395.65	395.55
395.84	360.44
396.04	423.64
396.23	407.25
396.42	374.49
396.62	404.91
396.81	428.32
397.00	418.96
397.19	400.23
397.39	348.74
397.58	407.25
397.77	430.66
397.97	449.38
398.16	444.70
398.35	367.46
398.55	390.87
398.74	507.90
398.93	468.11
399.12	355.76
399.32	479.81
399.51	468.11
399.70	437.68
399.90	423.64
400.09	456.40
400.28	493.85
400.47	423.64
400.67	465.77
400.86	496.19
401.05	547.69
401.24	510.24
401.44	578.11
401.63	554.71
401.82	561.73
402.01	472.79
402.21	428.32
402.40	554.71
402.59	566.41
402.78	575.77
402.97	475.13
403.17	545.34
403.36	657.69
403.55	550.03
403.74	596.84
403.93	554.71
404.13	671.73
404.32	653.01
404.51	739.61
404.70	732.59
404.89	568.75
405.09	699.82
405.28	699.82
405.47	664.71
405.66	770.04
405.85	765.36
406.05	669.39
406.24	723.23
406.43	734.93
406.62	697.48
406.81	732.59
407.00	802.80
407.20	734.93
407.39	739.61
407.58	765.36
407.77	784.08
407.96	849.61
408.15	908.13
408.34	870.68
408.54	791.10
408.73	830.89
408.92	828.55
409.11	873.02
409.30	898.77
409.49	851.96
409.68	837.91
409.87	985.37
410.07	933.87
410.26	933.87
410.45	966.64
410.64	924.51
410.83	929.19
411.02	936.21
411.21	924.51
411.40	968.98
411.59	945.58
411.78	1050.90
411.98	1039.20
412.17	1107.07
412.36	987.71
412.55	1039.20
412.74	1151.54
412.93	1177.29
413.12	1109.41
413.31	1123.46
413.50	1174.95
413.69	1149.20
413.88	1179.63
414.07	1151.54
414.26	1296.66
414.45	1196.01
414.64	1184.31
414.83	1263.89
415.02	1207.72
415.22	1338.79
415.41	1350.49
415.60	1369.21
415.79	1291.98
415.98	1441.77
416.17	1380.92
416.36	1474.54
416.55	1364.53
416.74	1362.19
416.93	1420.71
417.12	1423.05
417.31	1441.77
417.50	1558.80
417.69	1568.16
417.88	1575.18
418.07	1589.22
418.26	1521.35
418.45	1533.05
418.64	1610.29
418.83	1603.27
419.02	1547.09
419.21	1685.19
419.39	1600.93
419.58	1626.67
419.77	1537.73
419.96	1699.23
420.15	1631.35
420.34	1652.42
420.53	1706.25
420.72	1661.78
420.91	1701.57
421.10	1689.87
421.29	1792.85
421.48	1689.87
421.67	1846.68
421.86	1785.83
422.05	1778.81
422.24	1678.16
422.43	1746.04
422.61	1750.72
422.80	1849.02
422.99	1797.53
423.18	1851.36
423.37	1816.26
423.56	1778.81
423.75	1750.72
423.94	1734.34
424.13	1736.68
424.32	1774.13
424.50	1837.32
424.69	1867.75
424.88	1790.51
425.07	1952.01
425.26	1912.22
425.45	1916.90
425.64	1802.21
425.83	1743.70
426.01	1893.49
426.20	1909.88
426.39	1860.73
426.58	1839.66
426.77	1891.15
426.96	1944.99
427.15	1872.43
427.33	2010.52
427.52	1947.33
427.71	1952.01
427.90	1949.67
428.09	2017.54
428.28	1905.20
428.46	1949.67
428.65	1994.14
428.84	2076.06
429.03	1961.37
429.22	1961.37
429.40	2054.99
429.59	2057.33
429.78	1968.39
429.97	1947.33
430.16	1956.69
430.34	2073.71
430.53	2066.69
430.72	2059.67
430.91	2008.18
431.10	2087.76
431.28	2115.84
431.47	2202.44
431.66	2265.64
431.85	2136.91
432.03	2246.91
432.22	2289.04
432.41	2120.53
432.60	2275.00
432.79	2085.42
432.97	2216.49
433.16	2286.70
433.35	2317.13
433.54	2176.70
433.72	2221.17
433.91	2270.32
434.10	2263.30
434.28	2256.28
434.47	2293.72
434.66	2349.90
434.85	2495.01
435.03	2530.12
435.22	2661.19
435.41	2743.11
435.59	2745.45
435.78	2691.62
435.97	2586.29
436.16	2504.37
436.34	2473.95
436.53	2403.73
436.72	2487.99
436.90	2450.54
437.09	2415.43
437.28	2436.50
437.46	2492.67
437.65	2422.45
437.84	2462.24
438.02	2579.27
438.21	2485.65
438.40	2509.05
438.58	2569.91
438.77	2602.68
438.96	2588.63
439.14	2684.59
439.33	2703.32
439.52	2764.17
439.70	2736.09
439.89	2803.96
440.08	2789.92
440.26	2726.72
440.45	2855.45
440.63	2787.58
440.82	2815.66
441.01	2832.05
441.19	2822.69
441.38	2918.65
441.57	2855.45
441.75	3016.95
441.94	3035.67
442.12	2841.41
442.31	2995.89
442.50	3005.25
442.68	2993.55
442.87	2963.12
443.05	3068.44
443.24	3119.93
443.43	3094.19
443.61	3000.57
443.80	3162.06
443.98	3033.33
444.17	2813.32
444.35	3061.42
444.54	3173.77
444.73	3061.42
444.91	3023.97
445.10	3103.55
445.28	3070.78
445.47	3141.00
445.65	3180.79
445.84	3213.56
446.02	3269.73
446.21	3201.85
446.39	3075.46
446.58	3126.96
446.77	3241.64
446.95	3293.13
447.14	3239.30
447.32	3241.64
447.51	3272.07
447.69	3234.62
447.88	3225.26
448.06	3260.37
448.25	3152.70
448.43	3279.09
448.62	3220.58
448.80	3176.11
448.99	3206.53
449.17	3295.47
449.36	3171.43
449.54	3349.31
449.73	3288.45
449.91	3361.01
450.10	3478.04
450.28	3485.06
450.46	3412.50
450.65	3391.44
450.83	3536.55
451.02	3468.67
451.20	3368.03
451.39	3501.44
451.57	3471.01
451.76	3339.94
451.94	3496.76
452.13	3515.48
452.31	3538.89
452.49	3447.61
452.68	3419.52
452.86	3555.27
453.05	3508.46
453.23	3442.93
453.42	3489.74
453.60	3581.02
453.78	3496.76
453.97	3405.48
454.15	3627.83
454.34	3550.59
454.52	3618.47
454.70	3698.05
454.89	3637.19
455.07	3627.83
455.26	3719.11
455.44	3669.96
455.62	3744.86
455.81	3639.53
455.99	3726.13
456.17	3714.43
456.36	3768.26
456.54	3789.33
456.73	3761.24
456.91	3962.53
457.09	3894.65
457.28	3946.14
457.46	3808.05
457.64	3801.03
457.83	3775.28
458.01	3911.04
458.19	3950.82
458.38	4039.76
458.56	4086.58
458.74	4147.43
458.93	3992.95
459.11	4028.06
459.29	4044.45
459.48	4079.55
459.66	4194.24
459.84	4086.58
460.03	4175.52
460.21	4051.47
460.39	4102.96
460.57	4180.20
460.76	4070.19
460.94	4191.90
461.12	4168.49
461.31	4210.62
461.49	4189.56
461.67	4208.28
461.85	4276.16
462.04	4234.03
462.22	4622.56
462.40	4315.95
462.59	4203.60
462.77	4311.27
462.95	4241.05
463.13	4219.99
463.32	4351.06
463.50	4334.67
463.68	4634.26
463.86	4404.89
464.05	4360.42
464.23	4449.36
464.41	4444.68
464.59	4344.03
464.78	4601.49
464.96	4346.37
465.14	4409.57
465.32	4596.81
465.50	4524.26
465.69	4521.92
465.87	4461.06
466.05	4573.41
466.23	4468.08
466.41	4615.54
466.60	4613.20
466.78	4603.83
466.96	4514.89
467.14	4472.76
467.32	4624.90
467.51	4854.27
467.69	4573.41
467.87	4667.03
468.05	4779.37
468.23	4709.16
468.41	4631.92
468.60	4828.53
468.78	4704.48
468.96	4652.98
469.14	4901.08
469.32	4807.46
469.50	4669.37
469.69	4662.35
469.87	4961.94
470.05	4847.25
470.23	4842.57
470.41	4919.81
470.59	5020.45
470.77	4849.59
470.95	4868.31
471.14	4954.91
471.32	4835.55
471.50	5097.69
471.68	4983.00
471.86	4954.91
472.04	5057.90
472.22	5167.90
472.40	5142.16
472.58	5228.76
472.77	5069.60
472.95	5245.14
473.13	5418.34
473.31	5121.09
473.49	5294.29
473.67	5301.31
473.85	5252.16
474.03	5446.43
474.21	5399.62
474.39	5383.23
474.57	5455.79
474.75	5542.39
474.93	5490.90
475.12	5572.82
475.30	5645.37
475.48	5500.26
475.66	5572.82
475.84	5584.52
476.02	5746.02
476.20	5696.86
476.38	5834.96
476.56	5928.58
476.74	5966.03
476.92	5785.80
477.10	5949.64
477.28	6106.46
477.46	5959.00
477.64	5980.07
477.82	6132.20
478.00	6139.23
478.18	6244.55
478.36	6195.40
478.54	6253.91
478.72	6319.45
478.90	6394.34
479.08	6375.62
479.26	6504.35
479.44	6583.93
479.62	6656.48
479.80	6558.18
479.98	6693.93
480.16	6839.05
480.34	6766.49
480.52	6904.58
480.70	6759.47
480.88	6588.61
481.06	6855.43
481.24	6974.80
481.41	7040.33
481.59	7108.21
481.77	7091.82
481.95	7126.93
482.13	7201.83
482.31	7265.02
482.49	7447.58
482.67	7531.84
482.85	7648.87
483.03	7702.70
483.21	7611.42
483.39	7597.38
483.57	7719.09
483.74	7688.66
483.92	7861.86
484.10	7742.49
484.28	7985.91
484.46	8189.53
484.64	8177.83
484.82	8077.19
485.00	8105.28
485.18	8287.84
485.35	8542.96
485.53	8360.39
485.71	8351.03
485.89	8716.16
486.07	8496.14
486.25	8641.26
486.43	8620.19
486.61	8629.56
486.78	8997.02
486.96	8870.63
487.14	9212.35
487.32	8980.64
487.50	9137.45
487.68	9118.73
487.85	9137.45
488.03	9383.21
488.21	9385.55
488.39	9516.62
488.57	9572.79
488.75	9472.15
488.92	9902.81
489.10	9806.84
489.28	9645.35
489.46	9867.70
489.64	9687.48
489.81	10066.64
489.99	10218.78
490.17	9996.43
490.35	10417.72
490.53	10265.59
490.70	10380.28
490.88	10340.49
491.06	10457.51
491.24	10333.47
491.41	10403.68
491.59	10572.20
491.77	10590.92
491.95	11159.67
492.13	10803.91
492.30	10736.04
492.48	10640.08
492.66	10986.47
492.84	11049.67
493.01	10806.25
493.19	11372.66
493.37	11466.28
493.54	11225.21
493.72	11431.18
493.90	11529.48
494.08	11658.21
494.25	11784.60
494.43	11660.55
494.61	11758.85
494.79	11730.76
494.96	11812.68
495.14	11976.52
495.32	11995.25
495.49	11910.99
495.67	11864.18
495.85	12079.50
496.02	12114.61
496.20	12367.39
496.38	12395.48
496.55	12304.20
496.73	12535.91
496.91	12573.36
497.09	12802.73
497.26	12751.24
497.44	12519.53
497.62	12676.34
497.79	12755.92
497.97	12975.93
498.14	12971.25
498.32	13217.01
498.50	12917.42
498.67	12978.27
498.85	13041.46
499.03	13385.52
499.20	13095.30
499.38	13270.84
499.56	13444.04
499.73	13511.91
499.91	13650.00
500.08	13729.58
500.26	13514.25
500.44	13598.51
500.61	13642.98
500.79	13804.48
500.97	13853.63
501.14	13891.08
501.32	14019.81
501.49	14043.21
501.67	14136.84
501.84	14270.25
502.02	14298.33
502.20	14373.23
502.37	14310.04
502.55	14242.16
502.72	14363.87
502.90	14328.76
503.07	14387.27
503.25	14394.29
503.43	14324.08
503.60	14649.41
503.78	14609.62
503.95	14548.77
504.13	14609.62
504.30	14853.04
504.48	14642.39
504.65	14937.30
504.83	14977.09
505.01	15012.20
505.18	15211.14
505.36	15115.18
505.53	15154.97
505.71	15227.53
505.88	15438.17
506.06	15424.13
506.23	15192.42
506.41	15229.87
506.58	15494.35
506.76	15578.61
506.93	15510.73
507.11	15522.43
507.28	15482.64
507.46	15604.35
507.63	15775.21
507.81	15868.83
507.98	15693.29
508.16	15754.15
508.33	15845.43
508.50	15985.86
508.68	16053.73
508.85	16027.99
509.03	16027.99
509.20	16065.44
509.38	16278.43
509.55	16137.99
509.73	16322.90
509.90	16563.97
510.08	16411.84
510.25	16252.68
510.42	16606.10
510.60	16844.84
510.77	16720.79
510.95	16730.15
511.12	16554.61
511.30	16463.33
511.47	16816.75
511.64	16961.86
511.82	16924.41
511.99	16912.71
512.17	17034.42
512.34	17132.72
512.51	17097.61
512.69	16819.09
512.86	16975.91
513.04	17301.24
513.21	17083.57
513.38	17549.34
513.56	17397.20
513.73	17259.11
513.90	17547.00
514.08	17521.25
514.25	17668.70
514.43	17816.16
514.60	17668.70
514.77	17823.18
514.95	17755.30
515.12	17617.21
515.29	17696.79
515.47	17846.58
515.64	17951.91
515.81	17940.21
515.99	17792.75
516.16	17970.63
516.33	17916.80
516.51	18057.23
516.68	18157.88
516.85	18078.30
517.03	18302.99
517.20	18515.98
517.37	18490.23
517.54	18291.29
517.72	18721.95
517.89	18302.99
518.06	18459.81
518.24	18398.95
518.41	18691.52
518.58	18948.98
518.75	18799.18
518.93	18607.26
519.10	18581.51
519.27	18710.24
519.45	18778.12
519.62	18883.44
519.79	18831.95
519.96	18944.30
520.14	19105.79
520.31	18696.20
520.48	18965.36
520.65	19040.26
520.83	19260.27
521.00	19213.46
521.17	19110.47
521.34	19157.28
521.52	19440.49
521.69	19367.93
521.86	19658.16
522.03	19688.59
522.20	19550.49
522.38	19267.29
522.55	19494.32
522.72	19599.65
522.89	19466.24
523.07	19630.07
523.24	19857.10
523.41	19922.64
523.58	19590.28
523.75	19833.70
523.92	19880.51
524.10	19885.19
524.27	20042.01
524.44	19866.47
524.61	20372.02
524.78	20081.80
524.96	20269.04
525.13	20156.69
525.30	20285.42
525.47	20304.15
525.64	20034.99
525.81	20549.90
525.98	20306.49
526.16	19976.47
526.33	20271.38
526.50	20411.81
526.67	20348.62
526.84	20599.05
527.01	20442.24
527.18	20355.64
527.36	20577.99
527.53	20730.12
527.70	21003.97
527.87	20603.74
528.04	20893.96
528.21	20788.64
528.38	20908.01
528.55	20987.58
528.72	20861.19
528.89	20889.28
529.07	21338.66
529.24	21109.29
529.41	20884.60
529.58	21076.52
529.75	21284.83
529.92	21006.31
530.09	21125.68
530.26	21289.51
530.43	21184.19
530.60	21067.16
530.77	21352.71
530.94	21383.13
531.11	20912.69
531.28	21256.75
531.46	21460.37
531.63	21479.10
531.80	21696.77
531.97	21792.73
532.14	21446.33
532.31	21584.42
532.48	22106.36
532.65	21766.98
532.82	21654.64
532.99	21570.38
533.16	21710.81
533.33	21762.30
533.50	21956.57
533.67	21909.75
533.84	21837.20
534.01	22022.10
534.18	22111.04
534.35	22113.38
534.52	21956.57
534.69	22012.74
534.86	21940.18
535.03	22309.99
535.20	22225.73
535.37	22244.45
535.54	22120.40
535.71	22162.53
535.88	21916.78
536.05	22221.05
536.22	22195.30
536.38	22597.87
536.55	22555.74
536.72	22326.37
536.89	22539.36
537.06	22324.03
537.23	22602.55
537.40	22462.12
537.57	22518.29
537.74	22478.50
537.91	22473.82
538.08	22703.20
538.25	22574.47
538.42	22682.13
538.59	22527.66
538.75	22761.71
538.92	22518.29
539.09	22733.62
539.26	22937.25
539.43	22963.00
539.60	22946.61
539.77	22913.84
539.94	23173.64
540.11	23016.83
540.28	23096.41
540.44	23033.21
540.61	23227.48
540.78	23197.05
540.95	23140.88
541.12	23744.73
541.29	23754.10
541.46	23611.32
541.62	23641.75
541.79	23805.59
541.96	23278.97
542.13	23487.28
542.30	23983.47
542.47	23934.32
542.63	23903.89
542.80	23805.59
542.97	24011.56
543.14	23866.44
543.31	24011.56
543.48	23927.30
543.64	24231.57
543.81	24264.33
543.98	24313.48
544.15	24135.60
544.32	24212.84
544.48	24348.59
544.65	23988.15
544.82	23866.44
544.99	24229.23
545.16	24142.63
545.32	23873.46
545.49	25221.61
545.66	24851.81
545.83	25635.89
546.00	25242.68
546.16	24606.05
546.33	24322.85
546.50	24325.19
546.67	24320.51
546.83	24039.64
547.00	24269.01
547.17	24147.31
547.34	24500.73
547.50	24114.54
547.67	24575.62
547.84	24357.96
548.00	24608.39
548.17	24486.68
548.34	24479.66
548.51	24439.87
548.67	24648.18
548.84	24662.22
549.01	24517.11
549.18	24648.18
549.34	24315.83
549.51	24297.10
549.68	24622.44
549.84	24439.87
550.01	24835.42
550.18	24201.14
550.34	24683.29
550.51	24821.38
550.68	24767.55
550.84	24954.79
551.01	24540.52
551.18	24318.17
551.34	24510.09
551.51	24690.31
551.68	24620.10
551.84	24868.19
552.01	24889.26
552.18	25010.96
552.34	24762.87
552.51	24486.68
552.68	24716.06
552.84	24657.54
553.01	25118.63
553.18	24945.43
553.34	25067.14
553.51	24624.78
553.67	25221.61
553.84	25256.72
554.01	24912.66
554.17	24800.32
554.34	24643.50
554.51	25135.01
554.67	25006.28
554.84	24889.26
555.00	25097.56
555.17	25027.35
555.33	24819.04
555.50	24938.41
555.67	24980.54
555.83	25055.43
556.00	25130.33
556.16	25132.67
556.33	25027.35
556.50	25041.39
556.66	24882.24
556.83	25261.40
556.99	25329.28
557.16	25074.16
557.32	25401.83
557.49	25376.09
557.65	25041.39
557.82	25160.76
557.98	24971.18
558.15	24992.24
558.32	25085.86
558.48	25160.76
558.65	25624.18
558.81	25090.54
558.98	25364.39
559.14	25282.47
559.31	25198.21
559.47	25348.00
559.64	25582.06
559.80	25479.07
559.97	25371.41
560.13	25083.52
560.30	25284.81
560.46	25436.94
560.63	25153.74
560.79	25769.30
560.96	25731.85
561.12	25408.86
561.29	25586.74
561.45	25483.75
561.61	25853.56
561.78	25640.57
561.94	25551.63
562.11	25441.62
562.27	25434.60
562.44	25450.99
562.60	25486.09
562.77	25151.40
562.93	25404.17
563.10	25556.31
563.26	25530.56
563.42	25858.24
563.59	25563.33
563.75	25621.84
563.92	25748.23
564.08	25343.32
564.24	25493.12
564.41	25362.04
564.57	25401.83
564.74	25467.37
564.90	25385.45
565.07	25766.96
565.23	25673.34
565.39	25617.16
565.56	25757.60
565.72	25572.69
565.88	25394.81
566.05	25771.64
566.21	25514.18
566.38	25483.75
566.54	25731.85
566.70	26026.76
566.87	25921.43
567.03	25399.49
567.19	26321.66
567.36	25680.36
567.52	25862.92
567.68	25488.43
567.85	25979.95
568.01	25481.41
568.17	25668.66
568.34	25745.89
568.50	25703.76
568.66	25825.47
568.83	25996.33
568.99	25933.14
569.15	25692.06
569.32	25593.76
569.48	25649.93
569.64	25773.98
569.81	25806.75
569.97	26029.10
570.13	25979.95
570.30	25490.77
570.46	26010.37
570.62	25949.52
570.78	25694.40
570.95	25458.01
571.11	25883.98
571.27	25678.02
571.43	25685.04
571.60	25881.64
571.76	26129.74
571.92	25542.27
572.09	25762.28
572.25	26085.27
572.41	25947.18
572.57	25916.75
572.74	26003.35
572.90	25762.28
573.06	26089.95
573.22	25816.11
573.38	25869.94
573.55	25818.45
573.71	26115.70
573.87	26171.87
574.03	26080.59
574.20	26080.59
574.36	25694.40
574.52	26122.72
574.68	26192.94
574.84	26178.89
575.01	25935.48
575.17	25720.15
575.33	26031.44
575.49	26115.70
575.65	26195.28
575.82	25839.51
575.98	26253.79
576.14	26064.21
576.30	26448.05
576.46	26078.25
576.62	26345.07
576.79	26382.52
576.95	25764.62
577.11	26412.95
577.27	26359.11
577.43	26305.28
577.59	26106.34
577.75	26377.84
577.92	25907.39
578.08	25979.95
578.24	25937.82
578.40	26101.65
578.56	26214.00
578.72	26443.37
578.88	26560.40
579.04	26527.63
579.21	26204.64
579.37	26553.38
579.53	26214.00
579.69	26111.02
579.85	25902.71
580.01	26221.02
580.17	25998.67
580.33	26216.34
580.49	26211.66
580.65	26204.64
580.82	26618.91
580.98	26111.02
581.14	26314.64
581.30	26305.28
581.46	25907.39
581.62	26127.40
581.78	26324.01
581.94	26293.58
582.10	26422.31
582.26	26398.90
582.42	26361.45
582.58	26214.00
582.74	26862.33
582.90	26455.08
583.06	26253.79
583.22	26373.16
583.38	26473.80
583.54	26480.82
583.70	26593.17
583.86	26225.70
584.02	26171.87
584.18	26340.39
584.34	26286.56
584.50	26403.58
584.66	26445.71
584.82	26089.95
584.98	26295.92
585.14	26408.26
585.30	25837.17
585.46	26064.21
585.62	26253.79
585.78	26017.40
585.94	26171.87
586.10	26436.35
586.26	26574.44
586.42	26595.51
586.58	26757.00
586.74	26532.31
586.90	26518.27
587.06	25935.48
587.22	26691.47
587.38	26281.88
587.54	26574.44
587.70	26211.66
587.86	26111.02
588.02	26380.18
588.18	26583.80
588.34	26569.76
588.49	26398.90
588.65	26033.78
588.81	26328.69
588.97	26387.20
589.13	26298.26
589.29	26347.41
589.45	26324.01
589.61	26162.51
589.77	26644.66
589.93	26511.25
590.08	26417.63
590.24	26546.36
590.40	26735.94
590.56	26263.15
590.72	26206.98
590.88	26244.43
591.04	26286.56
591.20	26293.58
591.35	26345.07
591.51	27108.08
591.67	27220.43
591.83	26895.10
591.99	26384.86
592.15	26745.30
592.31	26986.38
