SpectraSuite Data File
++++++++++++++++++++++++++++++++++++
Date: Fri Oct 04 11:39:44 GMT-05:00 2013
User: price-jones
Dark Spectrum Present: No
Reference Spectrum Present: No
Number of Sampled Component Spectra: 1
Spectrometers: USB2+H05261
Integration Time (usec): 100000 (USB2+H05261)
Spectra Averaged: 1 (USB2+H05261)
Boxcar Smoothing: 0 (USB2+H05261)
Correct for Electrical Dark: No (USB2+H05261)
Strobe/Lamp Enabled: No (USB2+H05261)
Correct for Detector Non-linearity: No (USB2+H05261)
Correct for Stray Light: No (USB2+H05261)
Number of Pixels in Processed Spectrum: 2048
>>>>>Begin Processed Spectral Data<<<<<
365.73	86.60
365.92	86.60
366.12	86.60
366.32	16.38
366.52	0.00
366.72	0.00
366.91	0.00
367.11	0.00
367.31	0.00
367.51	18.72
367.70	30.43
367.90	0.00
368.10	0.00
368.30	0.00
368.49	0.00
368.69	0.00
368.89	0.00
369.09	0.00
369.28	51.49
369.48	0.00
369.68	49.15
369.87	0.00
370.07	44.47
370.27	65.54
370.47	98.30
370.66	402.57
370.86	400.23
371.06	559.39
371.25	465.77
371.45	507.90
371.65	559.39
371.84	491.51
372.04	484.49
372.24	615.56
372.44	580.45
372.63	566.41
372.83	557.05
373.03	571.09
373.22	631.94
373.42	557.05
373.62	636.63
373.81	580.45
374.01	655.35
374.21	699.82
374.40	634.29
374.60	645.99
374.79	678.76
374.99	608.54
375.19	610.88
375.38	636.63
375.58	723.23
375.78	718.54
375.97	695.14
376.17	800.46
376.37	760.67
376.56	716.20
376.76	744.29
376.95	655.35
377.15	786.42
377.35	866.00
377.54	657.69
377.74	734.93
377.93	751.31
378.13	741.95
378.33	772.38
378.52	720.88
378.72	798.12
378.91	819.19
379.11	837.91
379.31	788.76
379.50	779.40
379.70	727.91
379.89	805.14
380.09	779.40
380.28	870.68
380.48	770.04
380.68	898.77
380.87	858.98
381.07	926.85
381.26	842.59
381.46	905.79
381.65	866.00
381.85	947.92
382.04	922.17
382.24	905.79
382.43	940.90
382.63	807.48
382.83	919.83
383.02	875.36
383.22	945.58
383.41	957.28
383.61	866.00
383.80	910.47
384.00	959.62
384.19	954.94
384.39	954.94
384.58	1032.18
384.78	999.41
384.97	1071.97
385.17	1001.75
385.36	1050.90
385.56	957.28
385.75	987.71
385.95	1078.99
386.14	1088.35
386.34	1086.01
386.53	1050.90
386.72	1095.37
386.92	1043.88
387.11	1102.39
387.31	1093.03
387.50	1083.67
387.70	1132.82
387.89	1125.80
388.09	1203.04
388.28	1118.78
388.48	1102.39
388.67	1226.44
388.86	1207.72
389.06	1128.14
389.25	1252.19
389.45	1240.48
389.64	1118.78
389.84	1261.55
390.03	1226.44
390.22	1221.76
390.42	1217.08
390.61	1233.46
390.81	1238.14
391.00	1320.06
391.19	1291.98
391.39	1287.29
391.58	1423.05
391.78	1313.04
391.97	1270.91
392.16	1336.45
392.36	1437.09
392.55	1446.45
392.75	1504.96
392.94	1439.43
393.13	1383.26
393.33	1469.86
393.52	1493.26
393.71	1469.86
393.91	1441.77
394.10	1418.36
394.29	1486.24
394.49	1519.01
394.68	1500.28
394.88	1523.69
395.07	1568.16
395.26	1645.40
395.46	1500.28
395.65	1596.25
395.84	1561.14
396.04	1736.68
396.23	1612.63
396.42	1633.69
396.62	1668.80
396.81	1607.95
397.00	1612.63
397.19	1703.91
397.39	1706.25
397.58	1736.68
397.77	1755.40
397.97	1699.23
398.16	1727.32
398.35	1792.85
398.55	1715.61
398.74	1753.06
398.93	1888.81
399.12	1823.28
399.32	1809.23
399.51	1914.56
399.70	1863.07
399.90	1977.75
400.09	1952.01
400.28	1900.52
400.47	1928.60
400.67	1963.71
400.86	2001.16
401.05	1987.11
401.24	1989.46
401.44	2120.53
401.63	2118.18
401.82	2076.06
402.01	2092.44
402.21	2083.08
402.40	2155.63
402.59	2120.53
402.78	2143.93
402.97	2120.53
403.17	2197.76
403.36	2228.19
403.55	2242.23
403.74	2258.62
403.93	2368.62
404.13	2375.64
404.32	2406.07
404.51	2340.54
404.70	2452.88
404.89	2359.26
405.09	2422.45
405.28	2523.10
405.47	2312.45
405.66	2551.18
405.85	2520.76
406.05	2586.29
406.24	2441.18
406.43	2555.86
406.62	2651.83
406.81	2616.72
407.00	2647.15
407.20	2600.34
407.39	2656.51
407.58	2682.25
407.77	2785.24
407.96	2750.13
408.15	2810.98
408.34	2759.49
408.54	2923.33
408.73	2778.22
408.92	2700.98
409.11	3012.27
409.30	2822.69
409.49	2970.14
409.68	2846.09
409.87	3000.57
410.07	2993.55
410.26	3023.97
410.45	3049.72
410.64	3143.34
410.83	3063.76
411.02	3052.06
411.21	3225.26
411.40	3133.98
411.59	3206.53
411.78	3260.37
411.98	3281.43
412.17	3368.03
412.36	3382.07
412.55	3253.34
412.74	3456.97
412.93	3314.20
413.12	3398.46
413.31	3644.21
413.50	3569.32
413.69	3557.61
413.88	3581.02
414.07	3644.21
414.26	3751.88
414.45	3712.09
414.64	3779.97
414.83	3815.07
415.02	3936.78
415.22	3899.33
415.41	4039.76
415.60	3939.12
415.79	3995.29
415.98	4028.06
416.17	4053.81
416.36	4067.85
416.55	4028.06
416.74	4203.60
416.93	4271.48
417.12	4313.61
417.31	4315.95
417.50	4468.08
417.69	4374.46
417.88	4327.65
418.07	4400.21
418.26	4582.77
418.45	4465.74
418.64	4634.26
418.83	4571.07
419.02	4498.51
419.21	4748.95
419.39	4709.16
419.58	4606.17
419.77	4547.66
419.96	4718.52
420.15	4711.50
420.34	4774.69
420.53	4821.50
420.72	4873.00
420.91	4980.66
421.10	4894.06
421.29	5060.24
421.48	4826.18
421.67	5107.05
421.86	4891.72
422.05	5139.82
422.24	5050.88
422.43	5095.35
422.61	5121.09
422.80	5242.80
422.99	5104.71
423.18	5013.43
423.37	5174.92
423.56	5093.01
423.75	5195.99
423.94	5135.14
424.13	4821.50
424.32	4896.40
424.50	5273.23
424.69	5469.83
424.88	5427.70
425.07	5228.76
425.26	5217.05
425.45	5305.99
425.64	5195.99
425.83	5214.71
426.01	5373.87
426.20	5320.04
426.39	5252.16
426.58	5252.16
426.77	5301.31
426.96	5298.97
427.15	5408.98
427.33	5523.66
427.52	5376.21
427.71	5458.13
427.90	5348.12
428.09	5518.98
428.28	5795.17
428.46	5713.25
428.65	5703.89
428.84	5923.90
429.03	5853.68
429.22	5612.60
429.40	5856.02
429.59	5832.62
429.78	5685.16
429.97	5439.40
430.16	5652.39
430.34	5783.46
430.53	6033.90
430.72	5778.78
430.91	6113.48
431.10	5966.03
431.28	6045.60
431.47	6080.71
431.66	6127.52
431.85	5928.58
432.03	6214.12
432.22	6312.42
432.41	6265.61
432.60	6415.41
432.79	6239.87
432.97	6317.11
433.16	6553.50
433.35	6345.19
433.54	6614.35
433.72	6394.34
433.91	6384.98
434.10	6579.25
434.28	6471.58
434.47	6621.38
434.66	6661.16
434.85	6717.34
435.03	6724.36
435.22	6988.84
435.41	7300.13
435.59	7232.26
435.78	6998.20
435.97	7077.78
436.16	6970.12
436.34	6832.02
436.53	6862.45
436.72	6829.68
436.90	7023.95
437.09	7119.91
437.28	7033.31
437.46	7112.89
437.65	7119.91
437.84	7307.15
438.02	7164.38
438.21	7117.57
438.40	7148.00
438.58	7370.35
438.77	7463.97
438.96	7353.96
439.14	7662.91
439.33	7604.40
439.52	7723.77
439.70	7735.47
439.89	7997.61
440.08	7836.11
440.26	7857.18
440.45	7742.49
440.63	8058.46
440.82	8039.74
441.01	7925.05
441.19	8205.92
441.38	8259.75
441.57	8212.94
441.75	8423.59
441.94	8430.61
442.12	8578.06
442.31	8549.98
442.50	8454.02
442.68	8479.76
442.87	8582.74
443.05	8594.45
443.24	8706.79
443.43	8968.93
443.61	8713.81
443.80	8936.17
443.98	8542.96
444.17	8446.99
444.35	8716.16
444.54	8975.95
444.73	8767.65
444.91	8872.97
445.10	8908.08
445.28	8699.77
445.47	8741.90
445.65	8814.46
445.84	8950.21
446.02	9135.11
446.21	8940.85
446.39	9188.94
446.58	9062.55
446.77	8999.36
446.95	8990.00
447.14	9114.05
447.32	9097.66
447.51	9081.28
447.69	9050.85
447.88	9114.05
448.06	8968.93
448.25	9156.18
448.43	9266.18
448.62	9092.98
448.80	9210.01
448.99	9282.56
449.17	9411.29
449.36	9364.48
449.54	9556.41
449.73	9734.29
449.91	9715.56
450.10	9554.07
450.28	9769.40
450.46	9633.64
450.65	9657.05
450.83	9832.59
451.02	9792.80
451.20	9858.34
451.39	9928.55
451.57	9879.40
451.76	9743.65
451.94	9956.64
452.13	9888.76
452.31	9956.64
452.49	9844.29
452.68	10017.49
452.86	9989.41
453.05	10026.86
453.23	10221.12
453.42	10235.16
453.60	9935.57
453.78	10113.45
453.97	10197.71
454.15	10200.05
454.34	10106.43
454.52	10513.69
454.70	10274.95
454.89	10464.54
455.07	10487.94
455.26	10473.90
455.44	10822.64
455.62	10663.48
455.81	10684.55
455.99	10532.41
456.17	10754.76
456.36	10785.19
456.54	11091.80
456.73	11028.60
456.91	11346.92
457.09	11133.93
457.28	11157.33
457.46	11012.22
457.64	11438.20
457.83	11241.59
458.01	11094.14
458.19	11470.97
458.38	11386.71
458.56	11791.62
458.74	11363.30
458.93	11609.06
459.11	11587.99
459.29	11676.93
459.48	11779.92
459.66	11531.82
459.84	11651.19
460.03	11936.73
460.21	11569.27
460.39	11712.04
460.57	11712.04
460.76	11967.16
460.94	12210.57
461.12	11910.99
461.31	11992.90
461.49	11901.62
461.67	11997.59
461.85	12432.93
462.04	12524.21
462.22	12858.90
462.40	12266.75
462.59	12383.77
462.77	12367.39
462.95	12484.42
463.13	12589.74
463.32	12411.86
463.50	12765.28
463.68	12622.51
463.86	12688.04
464.05	12716.13
464.23	12538.25
464.41	12821.45
464.59	12692.73
464.78	12931.46
464.96	12622.51
465.14	12666.98
465.32	12943.16
465.50	13240.41
465.69	13184.24
465.87	13090.62
466.05	13029.76
466.23	13071.89
466.41	13207.64
466.60	13582.13
466.78	13212.32
466.96	13406.59
467.14	13184.24
467.32	13123.38
467.51	13502.55
467.69	12793.37
467.87	13495.53
468.05	13715.54
468.23	13305.95
468.41	13380.84
468.60	13652.34
468.78	13755.33
468.96	13357.44
469.14	13902.78
469.32	13949.59
469.50	13540.00
469.69	13949.59
469.87	14253.86
470.05	14052.58
470.23	14394.29
470.41	14071.30
470.59	14380.25
470.77	14396.64
470.95	14576.86
471.14	14476.21
471.32	14459.83
471.50	15021.56
471.68	14516.00
471.86	14464.51
472.04	14871.76
472.22	15318.81
472.40	14771.12
472.58	15183.06
472.77	15227.53
472.95	14895.17
473.13	15541.16
473.31	15220.50
473.49	15037.94
473.67	15412.43
473.85	15709.68
474.03	15934.37
474.21	15751.81
474.39	15709.68
474.57	15845.43
474.75	16273.74
474.93	16248.00
475.12	16161.40
475.30	16327.58
475.48	16245.66
475.66	16280.77
475.84	16367.37
476.02	16645.89
476.20	16556.95
476.38	17123.36
476.56	17408.90
476.74	17158.47
476.92	17081.23
477.10	17205.28
477.28	17554.02
477.46	17500.19
477.64	17764.67
477.82	18026.81
478.00	18490.23
478.18	18422.36
478.36	18534.70
478.54	18810.89
478.72	18876.42
478.90	19089.41
479.08	19218.14
479.26	18895.14
479.44	19143.24
479.62	19410.06
479.80	19634.75
479.98	19824.34
480.16	20049.03
480.34	19545.81
480.52	20196.48
480.70	20411.81
480.88	20088.82
481.06	20320.53
481.24	20435.22
481.41	20753.53
481.59	20954.82
481.77	21291.85
481.95	21146.74
482.13	21315.26
482.31	21518.89
482.49	21851.24
482.67	21841.88
482.85	22061.89
483.03	22576.81
483.21	22937.25
483.39	22726.60
483.57	22712.56
483.74	23110.45
483.92	23147.90
484.10	23470.89
484.28	23988.15
484.46	24077.09
484.64	24697.33
484.82	24049.00
485.00	24217.52
485.18	24381.36
485.35	24929.05
485.53	24788.61
485.71	24922.02
485.89	25675.68
486.07	25355.02
486.25	25811.43
486.43	25748.23
486.61	26129.74
486.78	26279.54
486.96	26263.15
487.14	26757.00
487.32	26487.84
487.50	26932.54
487.68	27042.55
487.85	27704.92
488.03	27917.91
488.21	28510.07
488.39	28402.40
488.57	28528.79
488.75	28268.99
488.92	28725.39
489.10	29467.34
489.28	29099.88
489.46	29848.85
489.64	29502.45
489.81	30321.64
489.99	30075.88
490.17	30520.59
490.35	30740.60
490.53	30487.82
490.70	31194.66
490.88	31173.60
491.06	31241.47
491.24	31292.96
491.41	31555.10
491.59	31931.93
491.77	31981.08
491.95	32577.92
492.13	32369.61
492.30	32643.45
492.48	32648.13
492.66	32950.06
492.84	32914.95
493.01	33446.26
493.19	33710.74
493.37	34209.27
493.54	34075.86
493.72	34499.50
493.90	34036.07
494.08	34707.80
494.25	35131.44
494.43	35274.21
494.61	35646.36
494.79	35594.87
494.96	35304.64
495.14	35269.53
495.32	36346.18
495.49	36172.98
495.67	36201.07
495.85	36601.30
496.02	36863.44
496.20	37027.28
496.38	37380.70
496.55	37205.16
496.73	38258.40
496.91	37778.59
497.09	37787.95
497.26	38286.48
497.44	38305.21
497.62	38342.66
497.79	38897.36
497.97	38588.41
498.14	39208.65
498.32	39248.44
498.50	39419.30
498.67	39962.31
498.85	39536.33
499.03	39732.93
499.20	39903.79
499.38	39957.63
499.56	40495.95
499.73	40954.69
499.91	40849.37
500.08	40982.78
500.26	40282.96
500.44	40666.81
500.61	41287.05
500.79	41226.20
500.97	41610.04
501.14	42241.99
501.32	41841.76
501.49	41867.50
501.67	41986.87
501.84	42052.41
502.02	42148.37
502.20	42384.76
502.37	42637.54
502.55	42822.44
502.72	43147.78
502.90	42649.24
503.07	42852.87
503.25	42834.14
503.43	43089.26
503.60	43625.25
503.78	43402.89
503.95	44009.09
504.13	43941.22
504.30	44158.89
504.48	43728.23
504.65	44289.96
504.83	44605.93
505.01	44952.33
505.18	44697.21
505.36	45563.21
505.53	45013.18
505.71	45155.96
505.88	44903.18
506.06	44928.92
506.23	45783.22
506.41	45607.68
506.58	45670.87
506.76	45291.71
506.93	46080.47
507.11	45352.56
507.28	46213.88
507.46	46602.41
507.63	46534.53
507.81	46679.64
507.98	46361.33
508.16	46644.54
508.33	46639.86
508.50	46614.11
508.68	47220.31
508.85	47873.32
509.03	47201.58
509.20	47782.04
509.38	47758.63
509.55	47873.32
509.73	47606.50
509.90	47753.95
510.08	47845.23
510.25	47704.80
510.42	48044.18
510.60	48610.59
510.77	48645.69
510.95	48886.77
511.12	48215.04
511.30	48175.25
511.47	48973.37
511.64	49205.08
511.82	49368.92
511.99	48980.39
512.17	49591.27
512.34	49258.91
512.51	49876.82
512.69	49525.74
512.86	49822.98
513.04	49977.46
513.21	50071.08
513.38	50286.41
513.56	50380.03
513.73	50335.56
513.90	50223.22
514.08	50354.29
514.25	50679.62
514.43	50609.40
514.60	50866.86
514.77	50595.36
514.95	50976.87
515.12	50740.47
515.29	50642.17
515.47	50901.97
515.64	51150.07
515.81	51096.24
515.99	51669.67
516.16	51835.84
516.33	51508.17
516.51	52032.45
516.68	51718.82
516.85	51653.28
517.03	52097.98
517.20	52114.37
517.37	52196.29
517.54	51999.68
517.72	52116.71
517.89	52224.37
518.06	51980.96
518.24	52065.22
518.41	52037.13
518.58	52566.09
518.75	52568.43
518.93	52720.57
519.10	52519.28
519.27	52853.98
519.45	52921.85
519.62	52872.70
519.79	53008.45
519.96	53027.18
520.14	53102.07
520.31	53081.01
520.48	53130.16
520.65	53279.96
520.83	53427.41
521.00	53366.55
521.17	53312.72
521.34	53244.85
521.52	53577.20
521.69	53750.40
521.86	54005.52
522.03	53932.96
522.20	53717.64
522.38	53900.20
522.55	53972.75
522.72	53848.71
522.89	54150.63
523.07	54330.86
523.24	54335.54
523.41	54466.61
523.58	54134.25
523.75	54623.42
523.92	54401.07
524.10	54480.65
524.27	54876.20
524.44	54831.73
524.61	54995.57
524.78	54997.91
524.96	55028.34
525.13	55119.62
525.30	55035.36
525.47	55018.97
525.64	55114.94
525.81	55093.87
525.98	55313.88
526.16	55370.05
526.33	55676.66
526.50	55826.46
526.67	55276.43
526.84	55817.10
527.01	55402.82
527.18	55543.25
527.36	55906.04
527.53	56030.08
527.70	56062.85
527.87	55934.12
528.04	55753.90
528.21	55973.91
528.38	55908.38
528.55	55943.48
528.72	55873.27
528.89	56236.05
529.07	56053.49
529.24	55934.12
529.41	56313.29
529.58	56266.48
529.75	56097.96
529.92	56388.19
530.09	56264.14
530.26	56458.40
530.43	56376.48
530.60	56240.73
530.77	56472.45
530.94	56505.21
531.11	56449.04
531.28	56570.75
531.46	56708.84
531.63	56818.84
531.80	57120.77
531.97	56952.26
532.14	57020.13
532.31	56919.49
532.48	56896.08
532.65	57258.87
532.82	57069.28
532.99	56907.79
533.16	57134.82
533.33	57254.18
533.50	57354.83
533.67	57364.19
533.84	57212.06
534.01	57434.41
534.18	57221.42
534.35	57427.38
534.52	57373.55
534.69	57755.06
534.86	57715.27
535.03	57443.77
535.20	57736.34
535.37	57584.20
535.54	57710.59
535.71	57614.63
535.88	57881.45
536.05	57638.03
536.22	57876.77
536.38	57879.11
536.55	58005.50
536.72	57944.64
536.89	57895.49
537.06	57907.19
537.23	58122.52
537.40	58005.50
537.57	58005.50
537.74	58122.52
537.91	58365.94
538.08	58501.69
538.25	58075.71
538.42	58120.18
538.59	58365.94
538.75	58136.57
538.92	58225.51
539.09	58702.98
539.26	58707.66
539.43	58721.70
539.60	58642.12
539.77	58609.35
539.94	58824.68
540.11	58621.06
540.28	58562.54
540.44	58761.49
540.61	58628.08
540.78	58934.69
540.95	58937.03
541.12	58951.07
541.29	59227.26
541.46	58927.67
541.62	59236.62
541.79	59152.36
541.96	58801.28
542.13	58934.69
542.30	59072.78
542.47	59171.08
542.63	59288.11
542.80	59573.66
542.97	59648.55
543.14	59566.63
543.31	59309.18
543.48	59686.00
543.64	59533.87
543.81	59814.73
543.98	59821.75
544.15	59966.87
544.32	59774.94
544.48	59819.41
544.65	59653.23
544.82	59824.09
544.99	59444.93
545.16	59634.51
545.32	59908.35
545.49	60217.30
545.66	60273.48
545.83	60362.42
546.00	60250.07
546.16	60072.19
546.33	59779.62
546.50	59730.47
546.67	60280.50
546.83	59592.38
547.00	59924.74
547.17	60097.94
547.34	60144.75
547.50	60233.69
547.67	60273.48
547.84	60219.64
548.00	60212.62
548.17	60383.48
548.34	60130.70
548.51	60238.37
548.67	60505.19
548.84	60369.44
549.01	60507.53
549.18	60399.86
549.34	60353.05
549.51	60516.89
549.68	60336.67
549.84	60423.27
550.01	60498.17
550.18	60601.15
550.34	60577.75
550.51	60624.56
550.68	60678.39
550.84	60584.77
551.01	60669.03
551.18	60409.23
551.34	60392.84
551.51	60643.28
551.68	60788.39
551.84	60814.14
552.01	60633.92
552.18	60774.35
552.34	60802.44
552.51	60996.70
552.68	60711.16
552.84	60786.05
553.01	60851.59
553.18	60860.95
553.34	61010.74
553.51	60994.36
553.67	61109.05
553.84	61186.28
554.01	61172.24
554.17	60973.30
554.34	61059.90
554.51	61272.88
554.67	61078.62
554.84	61169.90
555.00	61272.88
555.17	61312.67
555.33	61385.23
555.50	61169.90
555.67	61146.50
555.83	61083.30
556.00	61235.44
556.16	61305.65
556.33	61284.59
556.50	61181.60
556.66	61307.99
556.83	61429.70
556.99	61567.79
557.16	61628.65
557.32	61385.23
557.49	61570.13
557.65	61464.81
557.82	61279.91
557.98	61371.19
558.15	61422.68
558.32	61911.85
558.48	61525.66
558.65	61773.76
558.81	61616.94
558.98	61546.73
559.14	61579.49
559.31	61595.88
559.47	61598.22
559.64	61432.04
559.80	61612.26
559.97	61785.46
560.13	61525.66
560.30	61778.44
560.46	61848.66
560.63	61951.64
560.79	61778.44
560.96	61953.98
561.12	61867.38
561.29	61801.85
561.45	61745.67
561.61	61911.85
561.78	61918.87
561.94	61921.21
562.11	62124.84
562.27	61998.45
562.44	61916.53
562.60	61881.42
562.77	61745.67
562.93	61975.05
563.10	62248.89
563.26	61916.53
563.42	62237.19
563.59	62108.46
563.75	62195.06
563.92	62211.44
564.08	61923.55
564.24	62092.07
564.41	62080.37
564.57	62096.75
564.74	62099.09
564.90	62122.50
565.07	62197.40
565.23	62096.75
565.39	62202.08
565.56	62110.80
565.72	62227.82
565.88	62157.61
566.05	62232.50
566.21	61932.92
566.38	62239.53
566.54	62267.61
566.70	62553.16
566.87	62541.45
567.03	62377.62
567.19	62452.51
567.36	62251.23
567.52	62328.47
567.68	62424.43
567.85	62087.39
568.01	62157.61
568.17	62197.40
568.34	62405.70
568.50	62417.41
568.66	62419.75
568.83	62419.75
568.99	62286.34
569.15	62398.68
569.32	62312.08
569.48	62232.50
569.64	62401.02
569.81	62370.60
569.97	62482.94
570.13	62424.43
570.30	62398.68
570.46	62667.84
570.62	62262.93
570.78	62464.22
570.95	62244.21
571.11	62307.40
571.27	62300.38
571.43	62543.80
571.60	62447.83
571.76	62621.03
571.92	62473.58
572.09	62829.34
572.25	62808.28
572.41	62482.94
572.57	62665.50
572.74	62611.67
572.90	62452.51
573.06	62471.24
573.22	62576.56
573.38	62567.20
573.55	62564.86
573.71	62843.38
573.87	62904.24
574.03	62520.39
574.20	62618.69
574.36	62539.11
574.52	62466.56
574.68	62604.65
574.84	62588.27
575.01	62801.25
575.17	62838.70
575.33	62684.23
575.49	62630.40
575.65	62824.66
575.82	62843.38
575.98	62864.45
576.14	62789.55
576.30	62819.98
576.46	62670.18
576.62	62791.89
576.79	62686.57
576.95	62728.70
577.11	62885.51
577.27	62803.59
577.43	62822.32
577.59	62768.49
577.75	62794.23
577.92	62635.08
578.08	62735.72
578.24	62679.55
578.40	62990.84
578.56	62958.07
578.72	62972.11
578.88	63035.31
579.04	63079.78
579.21	62932.32
579.37	63112.55
579.53	63075.10
579.69	62663.16
579.85	62752.10
580.01	62976.79
580.17	62759.12
580.33	62911.26
580.49	62908.92
580.65	62955.73
580.82	63103.18
580.98	62927.64
581.14	62827.00
581.30	63105.52
581.46	62707.63
581.62	62782.53
581.78	62700.61
581.94	62995.52
582.10	62733.38
582.26	62925.30
582.42	62925.30
582.58	63021.26
582.74	63121.91
582.90	62864.45
583.06	63037.65
583.22	62812.96
583.38	62827.00
583.54	62834.02
583.70	62731.04
583.86	63044.67
584.02	62934.66
584.18	63154.68
584.34	62873.81
584.50	63138.29
584.66	62953.39
584.82	63000.20
584.98	62876.15
585.14	63124.25
585.30	62759.12
585.46	62866.79
585.62	62908.92
585.78	63194.46
585.94	62794.23
586.10	62953.39
586.26	62981.48
586.42	63107.86
586.58	63203.83
586.74	62925.30
586.90	63114.89
587.06	62871.47
587.22	63330.22
587.38	62979.14
587.54	62899.56
587.70	63288.09
587.86	63201.49
588.02	63285.75
588.18	63252.98
588.34	63208.51
588.49	63063.39
588.65	63149.99
588.81	63138.29
