SpectraSuite Data File
++++++++++++++++++++++++++++++++++++
Date: Fri Oct 04 11:40:01 GMT-05:00 2013
User: price-jones
Dark Spectrum Present: No
Reference Spectrum Present: No
Number of Sampled Component Spectra: 1
Spectrometers: USB2+H05261
Integration Time (usec): 100000 (USB2+H05261)
Spectra Averaged: 1 (USB2+H05261)
Boxcar Smoothing: 0 (USB2+H05261)
Correct for Electrical Dark: No (USB2+H05261)
Strobe/Lamp Enabled: No (USB2+H05261)
Correct for Detector Non-linearity: No (USB2+H05261)
Correct for Stray Light: No (USB2+H05261)
Number of Pixels in Processed Spectrum: 2048
>>>>>Begin Processed Spectral Data<<<<<
365.73	74.90
365.92	74.90
366.12	74.90
366.32	32.77
366.52	11.70
366.72	0.00
366.91	0.00
367.11	0.00
367.31	0.00
367.51	0.00
367.70	0.00
367.90	0.00
368.10	0.00
368.30	0.00
368.49	0.00
368.69	0.00
368.89	11.70
369.09	35.11
369.28	18.72
369.48	0.00
369.68	0.00
369.87	4.68
370.07	0.00
370.27	72.56
370.47	231.71
370.66	547.69
370.86	627.26
371.06	664.71
371.25	634.29
371.45	653.01
371.65	660.03
371.84	638.97
372.04	660.03
372.24	681.10
372.44	645.99
372.63	688.12
372.83	835.57
373.03	699.82
373.22	760.67
373.42	772.38
373.62	723.23
373.81	767.70
374.01	791.10
374.21	809.83
374.40	830.89
374.60	870.68
374.79	781.74
374.99	849.61
375.19	837.91
375.38	877.70
375.58	887.06
375.78	858.98
375.97	931.53
376.17	908.13
376.37	910.47
376.56	887.06
376.76	851.96
376.95	821.53
377.15	945.58
377.35	908.13
377.54	952.60
377.74	968.98
377.93	945.58
378.13	1025.15
378.33	978.34
378.52	926.85
378.72	994.73
378.91	997.07
379.11	1078.99
379.31	968.98
379.50	1004.09
379.70	1165.59
379.89	1076.65
380.09	1057.92
380.28	1123.46
380.48	1088.35
380.68	1015.79
380.87	1118.78
381.07	1046.22
381.26	1139.84
381.46	1130.48
381.65	1165.59
381.85	1137.50
382.04	1212.40
382.24	1118.78
382.43	1123.46
382.63	1128.14
382.83	1252.19
383.02	1228.78
383.22	1261.55
383.41	1261.55
383.61	1174.95
383.80	1179.63
384.00	1249.85
384.19	1238.14
384.39	1249.85
384.58	1291.98
384.78	1256.87
384.97	1242.82
385.17	1277.93
385.36	1247.51
385.56	1324.74
385.75	1411.34
385.95	1399.64
386.14	1334.11
386.34	1277.93
386.53	1420.71
386.72	1324.74
386.92	1373.89
387.11	1411.34
387.31	1462.83
387.50	1488.58
387.70	1404.32
387.89	1444.11
388.09	1406.66
388.28	1455.81
388.48	1444.11
388.67	1542.41
388.86	1582.20
389.06	1514.33
389.25	1554.12
389.45	1540.07
389.64	1575.18
389.84	1612.63
390.03	1636.03
390.22	1556.46
390.42	1629.01
390.61	1617.31
390.81	1547.09
391.00	1631.35
391.19	1537.73
391.39	1659.44
391.58	1626.67
391.78	1734.34
391.97	1710.93
392.16	1673.48
392.36	1853.70
392.55	1757.74
392.75	1825.62
392.94	1687.53
393.13	1799.87
393.33	1755.40
393.52	1881.79
393.71	1867.75
393.91	1884.13
394.10	1891.15
394.29	1846.68
394.49	1895.83
394.68	1900.52
394.88	1792.85
395.07	1944.99
395.26	2064.35
395.46	1949.67
395.65	2087.76
395.84	2019.88
396.04	2078.40
396.23	2073.71
396.42	2186.06
396.62	2045.63
396.81	2143.93
397.00	2211.81
397.19	2160.31
397.39	2193.08
397.58	2157.97
397.77	2305.43
397.97	2263.30
398.16	2193.08
398.35	2284.36
398.55	2284.36
398.74	2296.07
398.93	2410.75
399.12	2382.67
399.32	2333.51
399.51	2459.90
399.70	2434.16
399.90	2265.64
400.09	2368.62
400.28	2469.27
400.47	2546.50
400.67	2523.10
400.86	2532.46
401.05	2471.61
401.24	2609.70
401.44	2605.02
401.63	2626.08
401.82	2644.81
402.01	2635.44
402.21	2661.19
402.40	2614.38
402.59	2656.51
402.78	2705.66
402.97	2813.32
403.17	2703.32
403.36	2679.91
403.55	2733.75
403.74	2902.26
403.93	2974.82
404.13	3059.08
404.32	2956.10
404.51	2899.92
404.70	3042.70
404.89	2942.05
405.09	3143.34
405.28	2993.55
405.47	3101.21
405.66	3119.93
405.85	3023.97
406.05	3145.68
406.24	3164.40
406.43	3115.25
406.62	3293.13
406.81	3311.86
407.00	3150.36
407.20	3129.30
407.39	3194.83
407.58	3382.07
407.77	3377.39
407.96	3403.14
408.15	3325.90
408.34	3391.44
408.54	3424.20
408.73	3480.38
408.92	3461.65
409.11	3438.25
409.30	3590.38
409.49	3634.85
409.68	3709.75
409.87	3669.96
410.07	3658.26
410.26	3817.41
410.45	3651.24
410.64	3674.64
410.83	3779.97
411.02	3892.31
411.21	3857.20
411.40	3805.71
411.59	3960.19
411.78	3929.76
411.98	3999.98
412.17	4102.96
412.36	3997.64
412.55	4135.73
412.74	4166.15
412.93	4173.18
413.12	4248.07
413.31	4318.29
413.50	4297.22
413.69	4315.95
413.88	4472.76
414.07	4393.19
414.26	4498.51
414.45	4451.70
414.64	4613.20
414.83	4777.03
415.02	4685.75
415.22	4734.90
415.41	4781.71
415.60	4887.04
415.79	4814.48
415.98	5069.60
416.17	5149.18
416.36	4875.34
416.55	4940.87
416.74	5067.26
416.93	5025.13
417.12	5011.09
417.31	5242.80
417.50	5284.93
417.69	5254.50
417.88	5324.72
418.07	5385.57
418.26	5371.53
418.45	5497.92
418.64	5401.96
418.83	5621.97
419.02	5537.71
419.21	5610.26
419.39	5741.33
419.58	5621.97
419.77	5572.82
419.96	5820.91
420.15	5823.25
420.34	5694.52
420.53	5729.63
420.72	5877.09
420.91	5912.19
421.10	6024.54
421.29	6167.31
421.48	5832.62
421.67	5956.66
421.86	6029.22
422.05	6214.12
422.24	6092.41
422.43	6244.55
422.61	6155.61
422.80	6293.70
422.99	6195.40
423.18	6195.40
423.37	6305.40
423.56	6406.05
423.75	6274.98
423.94	6069.01
424.13	5781.12
424.32	6099.44
424.50	6244.55
424.69	6242.21
424.88	6377.96
425.07	6289.02
425.26	6125.18
425.45	6122.84
425.64	6436.47
425.83	6218.80
426.01	6541.80
426.20	6253.91
426.39	6520.73
426.58	6483.28
426.77	6251.57
426.96	6539.46
427.15	6499.67
427.33	6427.11
427.52	6530.09
427.71	6607.33
427.90	6612.01
428.09	6600.31
428.28	6663.51
428.46	6747.76
428.65	6817.98
428.84	6862.45
429.03	6960.75
429.22	6780.53
429.40	7033.31
429.59	7110.55
429.78	6612.01
429.97	6642.44
430.16	6916.28
430.34	7136.29
430.53	7365.67
430.72	7225.23
430.91	6963.09
431.10	7185.44
431.28	7288.43
431.47	7279.07
431.66	7342.26
431.85	7279.07
432.03	7529.50
432.22	7660.57
432.41	7564.61
432.60	7688.66
432.79	7583.34
432.97	7705.04
433.16	7728.45
433.35	7456.95
433.54	7878.24
433.72	7817.39
433.91	7569.29
434.10	7691.00
434.28	7796.32
434.47	7815.05
434.66	8121.66
434.85	8107.62
435.03	8063.15
435.22	8320.60
435.41	8713.81
435.59	8514.87
435.78	8554.66
435.97	8322.94
436.16	8355.71
436.34	8194.22
436.53	8152.09
436.72	8594.45
436.90	8271.45
437.09	8468.06
437.28	8425.93
437.46	8674.03
437.65	8655.30
437.84	8608.49
438.02	8592.11
438.21	8652.96
438.40	8688.07
438.58	8933.82
438.77	9064.89
438.96	8847.22
439.14	9214.69
439.33	9343.42
439.52	9287.25
439.70	9181.92
439.89	9451.08
440.08	9469.81
440.26	9401.93
440.45	9427.68
440.63	9579.81
440.82	9671.09
441.01	9858.34
441.19	9839.61
441.38	9830.25
441.57	10050.26
441.75	10127.50
441.94	10171.97
442.12	10057.28
442.31	10171.97
442.50	10326.44
442.68	10260.91
442.87	10384.96
443.05	10399.00
443.24	10597.95
443.43	10530.07
443.61	10492.62
443.80	11049.67
443.98	10548.79
444.17	10272.61
444.35	10780.51
444.54	10562.84
444.73	10750.08
444.91	10750.08
445.10	10724.33
445.28	10771.15
445.47	10663.48
445.65	10686.89
445.84	10733.70
446.02	10902.22
446.21	11110.52
446.39	10726.68
446.58	10796.89
446.77	11023.92
446.95	10850.72
447.14	10953.71
447.32	11140.95
447.51	11080.10
447.69	10951.37
447.88	11281.38
448.06	11021.58
448.25	11145.63
448.43	11208.83
448.62	11023.92
448.80	11325.85
448.99	11211.17
449.17	11384.37
449.36	11087.12
449.54	11302.45
449.73	11534.16
449.91	11438.20
450.10	11517.78
450.28	11829.07
450.46	11742.47
450.65	11733.11
450.83	11534.16
451.02	11653.53
451.20	11920.35
451.39	11864.18
451.57	11784.60
451.76	11805.66
451.94	12128.66
452.13	12262.07
452.31	11908.65
452.49	11873.54
452.68	12009.29
452.86	12100.57
453.05	12189.51
453.23	12400.16
453.42	12084.19
453.60	11925.03
453.78	12528.89
453.97	12182.49
454.15	12339.30
454.34	12379.09
454.52	12601.44
454.70	12369.73
454.89	12552.29
455.07	12549.95
455.26	12891.67
455.44	12809.75
455.62	12613.15
455.81	12964.23
455.99	13097.64
456.17	13156.15
456.36	13121.04
456.54	13130.41
456.73	13579.79
456.91	13666.39
457.09	13439.36
457.28	13724.90
457.46	13242.75
457.64	13502.55
457.83	13617.24
458.01	13619.58
458.19	13881.72
458.38	13738.94
458.56	14129.81
458.74	14178.97
458.93	13799.80
459.11	14335.78
459.29	13933.21
459.48	14525.36
459.66	14303.01
459.84	14221.10
460.03	14508.98
460.21	14342.80
460.39	14363.87
460.57	14143.86
460.76	14721.97
460.94	14949.00
461.12	14476.21
461.31	14661.12
461.49	14759.42
461.67	14464.51
461.85	15218.16
462.04	15222.84
462.22	15377.32
462.40	15042.62
462.59	15190.08
462.77	15035.60
462.95	15183.06
463.13	15314.13
463.32	15173.69
463.50	15295.40
463.68	15440.51
463.86	15454.56
464.05	15314.13
464.23	15239.23
464.41	15604.35
464.59	15239.23
464.78	15669.89
464.96	15583.29
465.14	15452.22
465.32	16051.39
465.50	16133.31
465.69	15917.98
465.87	15789.25
466.05	15868.83
466.23	15997.56
466.41	16311.19
466.60	16451.63
466.78	16030.33
466.96	15903.94
467.14	16046.71
467.32	15969.48
467.51	16432.90
467.69	16091.18
467.87	16430.56
468.05	16493.76
468.23	16315.87
468.41	16453.97
468.60	16402.47
468.78	16912.71
468.96	16886.97
469.14	16746.53
469.32	16755.90
469.50	16343.96
469.69	17195.92
469.87	17406.56
470.05	17298.90
470.23	17177.19
470.41	17294.22
470.59	17308.26
470.77	17348.05
470.95	17680.41
471.14	17649.98
471.32	17537.63
471.50	18073.62
471.68	17865.31
471.86	17980.00
472.04	18286.61
472.22	18658.75
472.40	18022.12
472.58	18679.82
472.77	18162.56
472.95	18773.44
473.13	18941.96
473.31	18504.28
473.49	18654.07
473.67	18874.08
473.85	18703.22
474.03	19440.49
474.21	19211.12
474.39	19510.71
474.57	19852.42
474.75	19513.05
474.93	19847.74
475.12	19623.05
475.30	19906.26
475.48	19702.63
475.66	20013.92
475.84	20224.57
476.02	20243.29
476.20	20325.21
476.38	20854.17
476.56	21076.52
476.74	21013.33
476.92	20957.16
477.10	21310.58
477.28	21539.95
477.46	21298.88
477.64	21607.83
477.82	21818.47
478.00	22630.64
478.18	22377.86
478.36	22373.18
478.54	23056.62
478.72	22466.80
478.90	22588.51
479.08	23119.81
479.26	23468.55
479.44	23789.20
479.62	23426.42
479.80	23653.45
479.98	23950.70
480.16	24151.99
480.34	24166.03
480.52	24584.99
480.70	24449.24
480.88	24362.64
481.06	24987.56
481.24	24966.49
481.41	25350.34
481.59	25612.48
481.77	25907.39
481.95	25858.24
482.13	26211.66
482.31	26401.24
482.49	26988.72
482.67	26745.30
482.85	27154.90
483.03	27569.17
483.21	27838.33
483.39	27681.52
483.57	27859.40
483.74	28318.14
483.92	28245.58
484.10	28428.15
484.28	28627.09
484.46	29167.76
484.64	29785.66
484.82	29134.99
485.00	29942.47
485.18	30157.80
485.35	30389.52
485.53	30574.42
485.71	30766.34
485.89	31267.22
486.07	31283.60
486.25	31248.49
486.43	31349.14
486.61	31814.90
486.78	32212.79
486.96	32704.31
487.14	32889.21
487.32	32779.20
487.50	33282.42
487.68	33684.99
487.85	33509.45
488.03	34288.85
488.21	34553.33
488.39	34471.41
488.57	34761.64
488.75	34558.01
488.92	34920.79
489.10	35580.82
489.28	35543.38
489.46	36161.28
489.64	36002.12
489.81	37024.93
489.99	37041.32
490.17	36919.61
490.35	37787.95
490.53	37249.63
490.70	37340.91
490.88	37909.66
491.06	38410.53
491.24	38415.21
491.41	38925.45
491.59	38487.77
491.77	38763.95
491.95	39590.16
492.13	39225.04
492.30	39515.26
492.48	39592.50
492.66	39971.67
492.84	40114.44
493.01	40299.34
493.19	41134.92
493.37	41235.56
493.54	41542.17
493.72	41371.31
493.90	42078.15
494.08	42281.78
494.25	42855.21
494.43	42433.91
494.61	42864.57
494.79	43344.38
494.96	42859.89
495.14	43856.96
495.32	44006.75
495.49	43744.61
495.67	43990.37
495.85	44737.00
496.02	45048.29
496.20	45067.02
496.38	44751.04
496.55	44935.95
496.73	45925.99
496.91	45270.64
497.09	45900.25
497.26	46459.63
497.44	45918.97
497.62	46340.27
497.79	46789.65
497.97	46539.21
498.14	47437.98
498.32	47091.58
498.50	47590.11
498.67	47735.23
498.85	47791.40
499.03	47810.12
499.20	47980.98
499.38	48605.91
499.56	48556.75
499.73	48821.23
499.91	48744.00
500.08	48933.58
500.26	48898.47
500.44	48879.75
500.61	49368.92
500.79	48933.58
500.97	49514.03
501.14	49914.26
501.32	49982.14
501.49	49874.48
501.67	49759.79
501.84	50321.52
502.02	50129.59
502.20	51023.68
502.37	50845.80
502.55	50656.21
502.72	50511.10
502.90	50630.47
503.07	50866.86
503.25	51051.76
503.43	51180.49
503.60	51573.70
503.78	51667.33
503.95	51849.89
504.13	52016.07
504.30	51913.08
504.48	51625.20
504.65	52306.29
504.83	52161.18
505.01	52552.05
505.18	52357.78
505.36	52678.44
505.53	52259.48
505.71	52638.65
505.88	52903.13
506.06	52750.99
506.23	53279.96
506.41	52952.28
506.58	53521.03
506.76	53078.67
506.93	53179.31
507.11	53401.66
507.28	53654.44
507.46	53638.06
507.63	53710.61
507.81	53977.43
507.98	53806.58
508.16	53961.05
508.33	54178.72
508.50	54185.74
508.68	54260.64
508.85	54684.28
509.03	54562.57
509.20	54770.88
509.38	54995.57
509.55	55014.29
509.73	55173.45
509.90	54904.29
510.08	55002.59
510.25	54939.39
510.42	55487.08
510.60	55611.13
510.77	55594.74
510.95	55674.32
511.12	55304.52
511.30	55580.70
511.47	55709.43
511.64	55901.36
511.82	55828.80
511.99	55866.25
512.17	56095.62
512.34	55861.57
512.51	56547.34
512.69	56411.59
512.86	56533.30
513.04	56474.79
513.21	56662.03
513.38	56704.16
513.56	56779.06
513.73	56526.28
513.90	56472.45
514.08	56711.18
514.25	57043.54
514.43	57205.03
514.60	57146.52
514.77	57343.12
514.95	57209.71
515.12	57125.46
515.29	57139.50
515.47	57469.51
515.64	57521.01
515.81	57523.35
515.99	57780.81
516.16	57701.23
516.33	58000.82
516.51	57986.77
516.68	57565.48
516.85	57790.17
517.03	57977.41
517.20	58195.08
517.37	57954.00
517.54	58286.36
517.72	58159.97
517.89	58354.24
518.06	58258.27
518.24	58262.96
518.41	58223.17
518.58	58525.10
518.75	58445.52
518.93	58494.67
519.10	58354.24
519.27	58822.34
519.45	58595.31
519.62	58880.86
519.79	58740.42
519.96	58845.75
520.14	59100.87
520.31	58908.94
520.48	59243.64
520.65	59173.42
520.83	59295.13
521.00	59220.23
521.17	59150.02
521.34	59458.97
521.52	59412.16
521.69	59372.37
521.86	59709.41
522.03	59660.26
522.20	59608.76
522.38	59683.66
522.55	59709.41
522.72	59849.84
522.89	59882.61
523.07	59969.21
523.24	60013.68
523.41	59994.95
523.58	59983.25
523.75	60193.90
523.92	60097.94
524.10	60399.86
524.27	60282.84
524.44	60420.93
524.61	60783.71
524.78	60718.18
524.96	60669.03
525.13	60547.32
525.30	60617.53
525.47	60544.98
525.64	60706.47
525.81	60830.52
525.98	60889.04
526.16	60905.42
526.33	61055.21
526.50	61193.31
526.67	60736.90
526.84	60942.87
527.01	61006.06
527.18	61104.37
527.36	61179.26
527.53	61247.14
527.70	61502.26
527.87	61476.51
528.04	61291.61
528.21	61464.81
528.38	61333.74
528.55	61535.02
528.72	61326.72
528.89	61701.20
529.07	61698.86
529.24	61584.18
529.41	61605.24
529.58	61705.88
529.75	61698.86
529.92	61984.41
530.09	61771.42
530.26	61956.32
530.43	62061.64
530.60	61736.31
530.77	61907.17
530.94	62211.44
531.11	62005.47
531.28	61865.04
531.46	61993.77
531.63	62323.78
531.80	62326.13
531.97	62314.42
532.14	62506.35
532.31	62379.96
532.48	62293.36
532.65	62667.84
532.82	62269.95
532.99	62454.86
533.16	62389.32
533.33	62770.83
533.50	62740.40
533.67	62740.40
533.84	62564.86
534.01	62625.71
534.18	62597.63
534.35	62688.91
534.52	62817.64
534.69	63028.29
534.86	62979.14
535.03	62754.44
535.20	63042.33
535.37	62974.45
535.54	63257.66
535.71	63051.69
535.88	63044.67
536.05	63145.31
536.22	63117.23
536.38	63260.00
536.55	63281.06
536.72	63393.41
536.89	63114.89
537.06	63292.77
537.23	63199.15
537.40	63119.57
537.57	63440.22
537.74	63470.65
537.91	63737.47
538.08	63545.54
538.25	63407.45
538.42	63653.21
538.59	63697.68
538.75	63316.17
538.92	63599.38
539.09	63749.17
539.26	63737.47
539.43	63772.58
539.60	63835.77
539.77	63920.03
539.94	63971.52
540.11	63863.86
540.28	63880.24
540.44	63973.86
540.61	63922.37
540.78	64090.89
540.95	63964.50
541.12	63973.86
541.29	64243.02
541.46	64055.78
541.62	64228.98
541.79	64243.02
541.96	64240.68
542.13	64397.50
542.30	64638.57
542.47	64322.60
542.63	64402.18
542.80	64683.04
542.97	64755.60
543.14	64750.92
543.31	64760.28
543.48	64615.17
543.64	64984.97
543.81	64917.10
543.98	64783.69
544.15	65073.91
544.32	65038.81
544.48	65179.24
544.65	64867.95
544.82	64980.29
544.99	64858.59
545.16	65003.70
545.32	64966.25
545.49	65284.56
545.66	65535.00
545.83	65497.55
546.00	65535.00
546.16	65343.08
546.33	65291.58
546.50	65090.30
546.67	65092.64
546.83	65022.42
547.00	65113.70
547.17	65293.92
547.34	65347.76
547.50	65462.44
547.67	65513.94
547.84	65446.06
548.00	65509.25
548.17	65481.17
548.34	65408.61
548.51	65520.96
548.67	65535.00
548.84	65535.00
549.01	65535.00
549.18	65535.00
549.34	65535.00
549.51	65535.00
549.68	65535.00
549.84	65535.00
550.01	65535.00
550.18	65535.00
550.34	65535.00
550.51	65535.00
550.68	65535.00
550.84	65525.64
551.01	65535.00
551.18	65535.00
551.34	65535.00
551.51	65535.00
551.68	65535.00
551.84	65535.00
552.01	65535.00
552.18	65535.00
552.34	65535.00
552.51	65535.00
552.68	65535.00
552.84	65535.00
553.01	65535.00
553.18	65535.00
553.34	65535.00
553.51	65535.00
553.67	65535.00
553.84	65535.00
554.01	65535.00
554.17	65535.00
554.34	65535.00
554.51	65535.00
554.67	65535.00
554.84	65535.00
555.00	65535.00
555.17	65535.00
555.33	65535.00
555.50	65535.00
555.67	65535.00
555.83	65535.00
556.00	65535.00
556.16	65535.00
556.33	65535.00
556.50	65535.00
556.66	65535.00
556.83	65535.00
556.99	65535.00
557.16	65535.00
557.32	65535.00
557.49	65535.00
557.65	65535.00
557.82	65535.00
557.98	65535.00
558.15	65535.00
558.32	65535.00
558.48	65535.00
558.65	65535.00
558.81	65535.00
558.98	65535.00
559.14	65535.00
559.31	65535.00
559.47	65535.00
559.64	65535.00
559.80	65535.00
559.97	65535.00
560.13	65535.00
560.30	65535.00
560.46	65535.00
560.63	65535.00
560.79	65535.00
560.96	65535.00
561.12	65535.00
561.29	65535.00
561.45	65535.00
561.61	65535.00
561.78	65535.00
561.94	65535.00
562.11	65535.00
562.27	65535.00
562.44	65535.00
562.60	65535.00
562.77	65535.00
562.93	65535.00
563.10	65535.00
563.26	65535.00
563.42	65535.00
563.59	65535.00
563.75	65535.00
563.92	65535.00
564.08	65535.00
564.24	65535.00
564.41	65535.00
564.57	65535.00
564.74	65535.00
564.90	65535.00
565.07	65535.00
565.23	65535.00
565.39	65535.00
565.56	65535.00
565.72	65535.00
565.88	65535.00
566.05	65535.00
566.21	65535.00
566.38	65535.00
566.54	65535.00
566.70	65535.00
566.87	65535.00
567.03	65535.00
567.19	65535.00
567.36	65535.00
567.52	65535.00
567.68	65535.00
567.85	65535.00
568.01	65535.00
568.17	65535.00
568.34	65535.00
568.50	65535.00
568.66	65535.00
568.83	65535.00
568.99	65535.00
569.15	65535.00
569.32	65535.00
569.48	65535.00
569.64	65535.00
569.81	65535.00
569.97	65535.00
570.13	65535.00
570.30	65535.00
570.46	65535.00
570.62	65535.00
570.78	65535.00
570.95	65535.00
571.11	65535.00
571.27	65535.00
571.43	65535.00
571.60	65535.00
571.76	65535.00
571.92	65535.00
572.09	65535.00
572.25	65535.00
572.41	65535.00
572.57	65535.00
572.74	65535.00
572.90	65535.00
573.06	65535.00
573.22	65535.00
573.38	65535.00
573.55	65535.00
573.71	65535.00
573.87	65535.00
574.03	65535.00
574.20	65535.00
574.36	65535.00
574.52	65535.00
574.68	65535.00
574.84	65535.00
575.01	65535.00
575.17	65535.00
575.33	65535.00
575.49	65535.00
575.65	65535.00
575.82	65535.00
575.98	65535.00
576.14	65535.00
576.30	65535.00
576.46	65535.00
576.62	65535.00
576.79	65535.00
576.95	65535.00
577.11	65535.00
577.27	65535.00
577.43	65535.00
577.59	65535.00
577.75	65535.00
577.92	65535.00
578.08	65535.00
578.24	65535.00
578.40	65535.00
578.56	65535.00
578.72	65535.00
578.88	65535.00
579.04	65535.00
579.21	65535.00
579.37	65535.00
579.53	65535.00
579.69	65535.00
579.85	65535.00
580.01	65535.00
580.17	65535.00
580.33	65535.00
580.49	65535.00
580.65	65535.00
580.82	65535.00
580.98	65535.00
581.14	65535.00
581.30	65535.00
581.46	65535.00
581.62	65535.00
581.78	65535.00
581.94	65535.00
582.10	65535.00
582.26	65535.00
582.42	65535.00
582.58	65535.00
582.74	65535.00
582.90	65535.00
583.06	65535.00
583.22	65535.00
583.38	65535.00
583.54	65535.00
583.70	65535.00
583.86	65535.00
584.02	65535.00
584.18	65535.00
584.34	65535.00
584.50	65535.00
584.66	65535.00
584.82	65535.00
584.98	65535.00
585.14	65535.00
585.30	65535.00
585.46	65535.00
585.62	65535.00
585.78	65535.00
585.94	65535.00
586.10	65535.00
586.26	65535.00
586.42	65535.00
586.58	65535.00
586.74	65535.00
586.90	65535.00
587.06	65535.00
587.22	65535.00
587.38	65535.00
587.54	65535.00
587.70	65535.00
587.86	65535.00
