SpectraSuite Data File
++++++++++++++++++++++++++++++++++++
Date: Fri Oct 04 11:39:50 GMT-05:00 2013
User: price-jones
Dark Spectrum Present: No
Reference Spectrum Present: No
Number of Sampled Component Spectra: 1
Spectrometers: USB2+H05261
Integration Time (usec): 100000 (USB2+H05261)
Spectra Averaged: 1 (USB2+H05261)
Boxcar Smoothing: 0 (USB2+H05261)
Correct for Electrical Dark: No (USB2+H05261)
Strobe/Lamp Enabled: No (USB2+H05261)
Correct for Detector Non-linearity: No (USB2+H05261)
Correct for Stray Light: No (USB2+H05261)
Number of Pixels in Processed Spectrum: 2048
>>>>>Begin Processed Spectral Data<<<<<
365.73	32.77
365.92	32.77
366.12	32.77
366.32	0.00
366.52	0.00
366.72	0.00
366.91	0.00
367.11	0.00
367.31	0.00
367.51	0.00
367.70	0.00
367.90	4.68
368.10	0.00
368.30	0.00
368.49	0.00
368.69	0.00
368.89	0.00
369.09	0.00
369.28	77.24
369.48	53.83
369.68	0.00
369.87	28.09
370.07	46.81
370.27	2.34
370.47	0.00
370.66	14.04
370.86	147.45
371.06	88.94
371.25	147.45
371.45	88.94
371.65	74.90
371.84	117.03
372.04	35.11
372.24	133.41
372.44	131.07
372.63	189.58
372.83	145.11
373.03	124.05
373.22	105.32
373.42	100.64
373.62	154.48
373.81	135.75
374.01	182.56
374.21	203.63
374.40	126.39
374.60	173.20
374.79	128.73
374.99	121.71
375.19	152.13
375.38	98.30
375.58	161.50
375.78	175.54
375.97	145.11
376.17	208.31
376.37	147.45
376.56	196.60
376.76	88.94
376.95	180.22
377.15	227.03
377.35	234.05
377.54	159.16
377.74	88.94
377.93	98.30
378.13	191.92
378.33	182.56
378.52	152.13
378.72	215.33
378.91	119.37
379.11	149.79
379.31	131.07
379.50	117.03
379.70	173.20
379.89	163.84
380.09	93.62
380.28	72.56
380.48	168.52
380.68	142.77
380.87	119.37
381.07	217.67
381.26	222.35
381.46	126.39
381.65	180.22
381.85	201.29
382.04	114.69
382.24	107.66
382.43	124.05
382.63	124.05
382.83	133.41
383.02	175.54
383.22	180.22
383.41	161.50
383.61	208.31
383.80	163.84
384.00	67.88
384.19	168.52
384.39	170.86
384.58	110.01
384.78	168.52
384.97	231.71
385.17	180.22
385.36	196.60
385.56	156.82
385.75	81.92
385.95	140.43
386.14	163.84
386.34	149.79
386.53	152.13
386.72	180.22
386.92	196.60
387.11	154.48
387.31	88.94
387.50	77.24
387.70	166.18
387.89	180.22
388.09	191.92
388.28	156.82
388.48	107.66
388.67	278.52
388.86	105.32
389.06	177.88
389.25	168.52
389.45	170.86
389.64	184.90
389.84	138.09
390.03	220.01
390.22	117.03
390.42	198.95
390.61	84.26
390.81	166.18
391.00	88.94
391.19	187.24
391.39	208.31
391.58	222.35
391.78	191.92
391.97	205.97
392.16	138.09
392.36	191.92
392.55	121.71
392.75	180.22
392.94	140.43
393.13	168.52
393.33	184.90
393.52	154.48
393.71	210.65
393.91	201.29
394.10	170.86
394.29	149.79
394.49	191.92
394.68	236.39
394.88	222.35
395.07	220.01
395.26	212.99
395.46	248.10
395.65	220.01
395.84	175.54
396.04	271.50
396.23	208.31
396.42	271.50
396.62	234.05
396.81	234.05
397.00	245.76
397.19	301.93
397.39	203.63
397.58	250.44
397.77	236.39
397.97	262.14
398.16	201.29
398.35	234.05
398.55	248.10
398.74	248.10
398.93	182.56
399.12	280.86
399.32	292.57
399.51	208.31
399.70	234.05
399.90	330.02
400.09	262.14
400.28	285.55
400.47	215.33
400.67	278.52
400.86	280.86
401.05	245.76
401.24	255.12
401.44	234.05
401.63	273.84
401.82	243.42
402.01	266.82
402.21	372.15
402.40	297.25
402.59	358.10
402.78	287.89
402.97	369.80
403.17	299.59
403.36	299.59
403.55	372.15
403.74	355.76
403.93	390.87
404.13	344.06
404.32	344.06
404.51	376.83
404.70	348.74
404.89	393.21
405.09	379.17
405.28	421.30
405.47	355.76
405.66	379.17
405.85	393.21
406.05	376.83
406.24	306.61
406.43	374.49
406.62	428.32
406.81	351.08
407.00	418.96
407.20	353.42
407.39	458.74
407.58	418.96
407.77	482.15
407.96	475.13
408.15	416.62
408.34	491.51
408.54	447.04
408.73	482.15
408.92	451.72
409.11	465.77
409.30	447.04
409.49	440.02
409.68	470.45
409.87	447.04
410.07	533.64
410.26	493.85
410.45	561.73
410.64	514.92
410.83	550.03
411.02	475.13
411.21	566.41
411.40	517.26
411.59	531.30
411.78	531.30
411.98	571.09
412.17	559.39
412.36	531.30
412.55	589.82
412.74	575.77
412.93	603.86
413.12	580.45
413.31	648.33
413.50	615.56
413.69	723.23
413.88	608.54
414.07	606.20
414.26	578.11
414.45	671.73
414.64	610.88
414.83	725.57
415.02	737.27
415.22	709.18
415.41	678.76
415.60	568.75
415.79	723.23
415.98	699.82
416.17	718.54
416.36	741.95
416.55	788.76
416.74	734.93
416.93	748.97
417.12	765.36
417.31	779.40
417.50	727.91
417.69	784.08
417.88	816.85
418.07	770.04
418.26	837.91
418.45	760.67
418.64	856.64
418.83	819.19
419.02	800.46
419.21	819.19
419.39	819.19
419.58	851.96
419.77	809.83
419.96	856.64
420.15	940.90
420.34	866.00
420.53	833.23
420.72	812.17
420.91	884.72
421.10	882.38
421.29	889.40
421.48	973.66
421.67	798.12
421.86	833.23
422.05	940.90
422.24	926.85
422.43	926.85
422.61	889.40
422.80	837.91
422.99	945.58
423.18	961.96
423.37	936.21
423.56	844.93
423.75	964.30
423.94	898.77
424.13	849.61
424.32	884.72
424.50	880.04
424.69	997.07
424.88	910.47
425.07	959.62
425.26	992.39
425.45	966.64
425.64	908.13
425.83	1011.11
426.01	1008.77
426.20	973.66
426.39	901.11
426.58	978.34
426.77	919.83
426.96	1032.18
427.15	997.07
427.33	964.30
427.52	950.26
427.71	1006.43
427.90	1041.54
428.09	985.37
428.28	943.24
428.46	952.60
428.65	1064.94
428.84	1025.15
429.03	1097.71
429.22	968.98
429.40	994.73
429.59	980.68
429.78	1062.60
429.97	990.05
430.16	1053.24
430.34	1071.97
430.53	1057.92
430.72	976.00
430.91	1034.52
431.10	1093.03
431.28	1128.14
431.47	1041.54
431.66	1104.73
431.85	1107.07
432.03	1071.97
432.22	1226.44
432.41	1123.46
432.60	1210.06
432.79	1083.67
432.97	1107.07
433.16	1104.73
433.35	1090.69
433.54	1205.38
433.72	1193.67
433.91	1135.16
434.10	1088.35
434.28	1238.14
434.47	1165.59
434.66	1196.01
434.85	1259.21
435.03	1270.91
435.22	1474.54
435.41	1696.89
435.59	1650.08
435.78	1612.63
435.97	1345.81
436.16	1287.29
436.34	1212.40
436.53	1224.10
436.72	1259.21
436.90	1303.68
437.09	1249.85
437.28	1139.84
437.46	1224.10
437.65	1240.48
437.84	1219.42
438.02	1245.16
438.21	1336.45
438.40	1310.70
438.58	1240.48
438.77	1331.76
438.96	1231.12
439.14	1212.40
439.33	1373.89
439.52	1315.38
439.70	1313.04
439.89	1289.64
440.08	1380.92
440.26	1437.09
440.45	1404.32
440.63	1350.49
440.82	1369.21
441.01	1401.98
441.19	1383.26
441.38	1476.88
441.57	1460.49
441.75	1439.43
441.94	1514.33
442.12	1460.49
442.31	1455.81
442.50	1514.33
442.68	1528.37
442.87	1479.22
443.05	1495.60
443.24	1516.67
443.43	1579.86
443.61	1565.82
443.80	1547.09
443.98	1448.79
444.17	1483.90
444.35	1481.56
444.54	1516.67
444.73	1544.75
444.91	1530.71
445.10	1418.36
445.28	1507.30
445.47	1603.27
445.65	1472.20
445.84	1556.46
446.02	1572.84
446.21	1582.20
446.39	1490.92
446.58	1551.78
446.77	1591.56
446.95	1514.33
447.14	1472.20
447.32	1650.08
447.51	1462.83
447.69	1645.40
447.88	1636.03
448.06	1542.41
448.25	1549.43
448.43	1629.01
448.62	1474.54
448.80	1596.25
448.99	1556.46
449.17	1547.09
449.36	1577.52
449.54	1685.19
449.73	1650.08
449.91	1715.61
450.10	1746.04
450.28	1706.25
450.46	1771.79
450.65	1696.89
450.83	1666.46
451.02	1694.55
451.20	1633.69
451.39	1652.42
451.57	1680.50
451.76	1727.32
451.94	1621.99
452.13	1748.38
452.31	1598.59
452.49	1621.99
452.68	1729.66
452.86	1666.46
453.05	1724.97
453.23	1687.53
453.42	1753.06
453.60	1727.32
453.78	1760.08
453.97	1692.21
454.15	1699.23
454.34	1678.16
454.52	1673.48
454.70	1827.96
454.89	1673.48
455.07	1645.40
455.26	1905.20
455.44	1825.62
455.62	1771.79
455.81	1802.21
455.99	1907.54
456.17	1727.32
456.36	1795.19
456.54	1858.39
456.73	1937.96
456.91	1898.17
457.09	1813.92
457.28	1968.39
457.46	1928.60
457.64	1928.60
457.83	1872.43
458.01	1900.52
458.19	1949.67
458.38	1827.96
458.56	1921.58
458.74	1839.66
458.93	1898.17
459.11	1916.90
459.29	1909.88
459.48	2008.18
459.66	1977.75
459.84	2036.27
460.03	2026.90
460.21	2031.58
460.39	2010.52
460.57	2036.27
460.76	2003.50
460.94	2036.27
461.12	1998.82
461.31	2012.86
461.49	2017.54
461.67	1944.99
461.85	2090.10
462.04	1956.69
462.22	2640.12
462.40	2026.90
462.59	2052.65
462.77	2064.35
462.95	2080.74
463.13	2127.55
463.32	2141.59
463.50	2118.18
463.68	2118.18
463.86	2059.67
464.05	2083.08
464.23	2092.44
464.41	2104.14
464.59	2087.76
464.78	2179.04
464.96	2146.27
465.14	2125.21
465.32	2143.93
465.50	2174.36
465.69	2165.00
465.87	2120.53
466.05	2148.61
466.23	2150.95
466.41	2087.76
466.60	2225.85
466.78	2143.93
466.96	2104.14
467.14	2167.34
467.32	2211.81
467.51	2307.77
467.69	2228.19
467.87	2232.87
468.05	2162.66
468.23	2186.06
468.41	2303.09
468.60	2235.21
468.78	2258.62
468.96	2300.75
469.14	2347.56
469.32	2244.57
469.50	2197.76
469.69	2263.30
469.87	2340.54
470.05	2209.47
470.23	2298.41
470.41	2284.36
470.59	2298.41
470.77	2338.20
470.95	2272.66
471.14	2366.28
471.32	2342.88
471.50	2335.85
471.68	2277.34
471.86	2459.90
472.04	2485.65
472.22	2506.71
472.40	2450.54
472.58	2396.71
472.77	2363.94
472.95	2574.59
473.13	2544.16
473.31	2654.17
473.49	2410.75
473.67	2499.69
473.85	2509.05
474.03	2572.25
474.21	2581.61
474.39	2548.84
474.57	2532.46
474.75	2597.99
474.93	2679.91
475.12	2562.89
475.30	2640.12
475.48	2600.34
475.66	2640.12
475.84	2574.59
476.02	2693.96
476.20	2792.26
476.38	2700.98
476.56	2789.92
476.74	2792.26
476.92	2834.39
477.10	2754.81
477.28	2768.85
477.46	2904.60
477.64	2750.13
477.82	2970.14
478.00	3014.61
478.18	2813.32
478.36	2890.56
478.54	2916.31
478.72	2972.48
478.90	3019.29
479.08	3030.99
479.26	3019.29
479.44	3002.91
479.62	3068.44
479.80	3105.89
479.98	3222.92
480.16	3063.76
480.34	3241.64
480.52	3204.19
480.70	3325.90
480.88	3246.32
481.06	3094.19
481.24	3197.17
481.41	3274.41
481.59	3276.75
481.77	3311.86
481.95	3279.09
482.13	3463.99
482.31	3375.05
482.49	3524.85
482.67	3433.57
482.85	3613.79
483.03	3545.91
483.21	3634.85
483.39	3618.47
483.57	3527.19
483.74	3606.77
483.92	3634.85
484.10	3691.02
484.28	3765.92
484.46	3850.18
484.64	3801.03
484.82	3667.62
485.00	3742.52
485.18	3786.99
485.35	3932.10
485.53	3859.54
485.71	3943.80
485.89	3948.48
486.07	3969.55
486.25	4114.66
486.43	3974.23
486.61	4063.17
486.78	4105.30
486.96	4098.28
487.14	4138.07
487.32	4259.78
487.50	4271.48
487.68	4318.29
487.85	4292.54
488.03	4435.32
488.21	4411.91
488.39	4423.61
488.57	4437.66
488.75	4276.16
488.92	4660.01
489.10	4690.43
489.28	4489.15
489.46	4641.28
489.64	4435.32
489.81	4667.03
489.99	4772.35
490.17	4528.94
490.35	4667.03
490.53	4760.65
490.70	4854.27
490.88	4858.95
491.06	4894.06
491.24	4908.10
491.41	4947.89
491.59	4812.14
491.77	4739.58
491.95	4905.76
492.13	4929.17
492.30	4999.38
492.48	4954.91
492.66	5050.88
492.84	4992.36
493.01	5067.26
493.19	5130.45
493.37	5317.70
493.54	5291.95
493.72	5317.70
493.90	5207.69
494.08	5282.59
494.25	5413.66
494.43	5425.36
494.61	5465.15
494.79	5568.13
494.96	5455.79
495.14	5579.84
495.32	5460.47
495.49	5439.40
495.67	5640.69
495.85	5680.48
496.02	5518.98
496.20	5717.93
496.38	5678.14
496.55	5589.20
496.73	6017.52
496.91	5715.59
497.09	5738.99
497.26	5722.61
497.44	5570.48
497.62	5748.36
497.79	5895.81
497.97	5914.53
498.14	5909.85
498.32	5839.64
498.50	5930.92
498.67	6029.22
498.85	5959.00
499.03	5959.00
499.20	6104.12
499.38	6092.41
499.56	6036.24
499.73	6169.65
499.91	6300.72
500.08	6282.00
500.26	6064.33
500.44	6127.52
500.61	6331.15
500.79	6286.68
500.97	6296.04
501.14	6265.61
501.32	6356.90
501.49	6361.58
501.67	6260.93
501.84	6375.62
502.02	6445.84
502.20	6553.50
502.37	6504.35
502.55	6478.60
502.72	6572.22
502.90	6466.90
503.07	6340.51
503.25	6494.99
503.43	6548.82
503.60	6553.50
503.78	6628.40
503.95	6422.43
504.13	6586.27
504.30	6415.41
504.48	6808.62
504.65	6647.12
504.83	6848.41
505.01	6857.77
505.18	6663.51
505.36	6698.61
505.53	6752.45
505.71	6825.00
505.88	6820.32
506.06	6736.06
506.23	6970.12
506.41	6965.43
506.58	6942.03
506.76	6988.84
506.93	6799.26
507.11	6993.52
507.28	6949.05
507.46	6946.71
507.63	6977.14
507.81	7026.29
507.98	7007.56
508.16	6972.46
508.33	7035.65
508.50	7178.42
508.68	6972.46
508.85	7126.93
509.03	7204.17
509.20	7417.16
509.38	7190.13
509.55	7356.30
509.73	7178.42
509.90	7342.26
510.08	7243.96
510.25	7419.50
510.42	7447.58
510.60	7342.26
510.77	7449.93
510.95	7529.50
511.12	7346.94
511.30	7424.18
511.47	7583.34
511.64	7531.84
511.82	7775.26
511.99	7393.75
512.17	7625.47
512.34	7557.59
512.51	7681.64
512.69	7691.00
512.86	7667.60
513.04	7796.32
513.21	7658.23
513.38	7705.04
513.56	7658.23
513.73	7756.54
513.90	7847.82
514.08	7613.76
514.25	7873.56
514.43	7826.75
514.60	7878.24
514.77	7808.03
514.95	8044.42
515.12	7934.42
515.29	7960.16
515.47	7946.12
515.64	7932.08
515.81	7974.21
515.99	8077.19
516.16	7918.03
516.33	7978.89
516.51	8049.10
516.68	7878.24
516.85	8159.11
517.03	8273.79
517.20	8231.66
517.37	8226.98
517.54	8226.98
517.72	8093.57
517.89	8060.80
518.06	8161.45
518.24	8210.60
518.41	8390.82
518.58	8283.16
518.75	8355.71
518.93	8131.02
519.10	8381.46
519.27	8313.58
519.45	8238.69
519.62	8205.92
519.79	8376.78
519.96	8369.76
520.14	8388.48
520.31	8561.68
520.48	8491.46
520.65	8552.32
520.83	8477.42
521.00	8400.18
521.17	8491.46
521.34	8610.83
521.52	8318.26
521.69	8690.41
521.86	8659.98
522.03	8622.53
522.20	8690.41
522.38	8697.43
522.55	8713.81
522.72	8657.64
522.89	8599.13
523.07	8798.07
523.24	8755.94
523.41	8596.79
523.58	8784.03
523.75	8917.44
523.92	8842.54
524.10	8812.12
524.27	8917.44
524.44	8704.45
524.61	8765.31
524.78	8823.82
524.96	9022.77
525.13	8833.18
525.30	8987.66
525.47	8849.57
525.64	8990.00
525.81	9130.43
525.98	9135.11
526.16	9071.92
526.33	9357.46
526.50	9076.60
526.67	8957.23
526.84	8957.23
527.01	8990.00
527.18	8959.57
527.36	9107.02
527.53	9130.43
527.70	9149.15
527.87	9092.98
528.04	8889.35
528.21	9195.96
528.38	9081.28
528.55	9266.18
528.72	9046.17
528.89	9301.29
529.07	9233.41
529.24	9198.31
529.41	9256.82
529.58	9186.60
529.75	9130.43
529.92	9158.52
530.09	9474.49
530.26	9252.14
530.43	9376.19
530.60	9174.90
530.77	9401.93
530.94	9221.71
531.11	9423.00
531.28	9455.76
531.46	9324.69
531.63	9549.39
531.80	9366.82
531.97	9413.63
532.14	9591.52
532.31	9446.40
532.48	9621.94
532.65	9589.17
532.82	9652.37
532.99	9617.26
533.16	9659.39
533.33	9689.82
533.50	9540.02
533.67	9673.43
533.84	9516.62
534.01	9657.05
534.18	9530.66
534.35	9699.18
534.52	9923.87
534.69	9722.59
534.86	9633.64
535.03	9530.66
535.20	9755.35
535.37	9935.57
535.54	9748.33
535.71	9490.87
535.88	9750.67
536.05	9776.42
536.22	9930.89
536.38	9774.08
536.55	9989.41
536.72	9724.93
536.89	9914.51
537.06	9877.06
537.23	10005.79
537.40	9921.53
537.57	10019.83
537.74	9785.78
537.91	10101.75
538.08	9958.98
538.25	10010.47
538.42	10106.43
538.59	9928.55
538.75	9923.87
538.92	10052.60
539.09	9930.89
539.26	10115.80
539.43	10242.18
539.60	10225.80
539.77	10132.18
539.94	10279.63
540.11	10186.01
540.28	10068.98
540.44	10317.08
540.61	10263.25
540.78	10565.18
540.95	10747.74
541.12	10406.02
541.29	10401.34
541.46	10604.97
541.62	10532.41
541.79	10576.88
541.96	10689.23
542.13	10738.38
542.30	10682.20
542.47	10684.55
542.63	10696.25
542.80	10736.04
542.97	10693.91
543.14	11066.05
543.31	10752.42
543.48	10478.58
543.64	10977.11
543.81	10927.96
543.98	10785.19
544.15	10846.04
544.32	10897.53
544.48	10782.85
544.65	10710.29
544.82	10937.32
544.99	10513.69
545.16	10977.11
545.32	10857.75
545.49	11363.30
545.66	11763.53
545.83	11803.32
546.00	11793.96
546.16	11335.21
546.33	11037.97
546.50	10801.57
546.67	10897.53
546.83	10721.99
547.00	10626.03
547.17	10562.84
547.34	10527.73
547.50	10836.68
547.67	10773.49
547.84	10710.29
548.00	10759.44
548.17	10925.62
548.34	10839.02
548.51	10729.02
548.67	10946.69
548.84	10857.75
549.01	10956.05
549.18	10864.77
549.34	10902.22
549.51	10651.78
549.68	10897.53
549.84	10700.93
550.01	10871.79
550.18	10736.04
550.34	10757.10
550.51	10764.12
550.68	10738.38
550.84	10569.86
551.01	10677.52
551.18	10523.05
551.34	10590.92
551.51	10878.81
551.68	10881.15
551.84	10787.53
552.01	10668.16
552.18	11059.03
552.34	10892.85
552.51	10759.44
552.68	10740.72
552.84	10738.38
553.01	10682.20
553.18	10808.59
553.34	10904.56
553.51	10871.79
553.67	10846.04
553.84	10991.16
554.01	10909.24
554.17	10785.19
554.34	10916.26
554.51	10799.23
554.67	10644.76
554.84	10839.02
555.00	10991.16
555.17	10993.50
555.33	10958.39
555.50	10668.16
555.67	10846.04
555.83	10824.98
556.00	10705.61
556.16	11007.54
556.33	10607.31
556.50	10766.46
556.66	11094.14
556.83	10710.29
556.99	10853.06
557.16	11056.69
557.32	10977.11
557.49	10885.83
557.65	10813.28
557.82	10918.60
557.98	10897.53
558.15	10930.30
558.32	10857.75
558.48	10874.13
558.65	10888.17
558.81	10822.64
558.98	10916.26
559.14	10911.58
559.31	10885.83
559.47	11075.42
559.64	10846.04
559.80	10782.85
559.97	10892.85
560.13	10932.64
560.30	11052.01
560.46	10934.98
560.63	10920.94
560.79	11164.36
560.96	10984.13
561.12	10829.66
561.29	11145.63
561.45	10796.89
561.61	10822.64
561.78	11199.46
561.94	11009.88
562.11	10977.11
562.27	10895.19
562.44	11108.18
562.60	10883.49
562.77	11082.44
562.93	10834.34
563.10	11143.29
563.26	10691.57
563.42	11164.36
563.59	10979.45
563.75	10937.32
563.92	11159.67
564.08	10946.69
564.24	10974.77
564.41	10991.16
564.57	11019.24
564.74	10920.94
564.90	10974.77
565.07	10974.77
565.23	11260.32
565.39	11073.07
565.56	11049.67
565.72	10806.25
565.88	10888.17
566.05	10885.83
566.21	10934.98
566.38	11007.54
566.54	11117.54
566.70	11272.02
566.87	11304.79
567.03	11112.86
567.19	11265.00
567.36	11019.24
567.52	11014.56
567.68	11162.01
567.85	10806.25
568.01	11061.37
568.17	11028.60
568.34	11122.23
568.50	10951.37
568.66	11014.56
568.83	11262.66
568.99	11040.31
569.15	11082.44
569.32	11019.24
569.48	10855.40
569.64	11049.67
569.81	11108.18
569.97	10949.03
570.13	11126.91
570.30	11087.12
570.46	10939.66
570.62	10913.92
570.78	11044.99
570.95	10843.70
571.11	10876.47
571.27	11026.26
571.43	10944.34
571.60	10956.05
571.76	11052.01
571.92	11255.64
572.09	11087.12
572.25	11234.57
572.41	11171.38
572.57	11070.73
572.74	11344.58
572.90	11089.46
573.06	11075.42
573.22	11164.36
573.38	11304.79
573.55	11075.42
573.71	11428.84
573.87	11274.36
574.03	11044.99
574.20	11002.86
574.36	11021.58
574.52	11150.31
574.68	11229.89
574.84	11073.07
575.01	11302.45
575.17	11152.65
575.33	10890.51
575.49	11248.61
575.65	11297.77
575.82	11215.85
575.98	11262.66
576.14	11173.72
576.30	11405.43
576.46	11358.62
576.62	11122.23
576.79	11360.96
576.95	11295.43
577.11	11101.16
577.27	11302.45
577.43	11044.99
577.59	11180.74
577.75	11052.01
577.92	10764.12
578.08	11112.86
578.24	11187.76
578.40	10965.41
578.56	11391.39
578.72	11110.52
578.88	11241.59
579.04	11375.00
579.21	11344.58
579.37	11314.15
579.53	11339.90
579.69	11124.57
579.85	11190.10
580.01	11131.59
580.17	11180.74
580.33	11300.11
580.49	11187.76
580.65	11311.81
580.82	11225.21
580.98	11194.78
581.14	11138.61
581.30	11279.04
581.46	11157.33
581.62	11105.84
581.78	11044.99
581.94	11267.34
582.10	11288.40
582.26	11173.72
582.42	11138.61
582.58	11410.11
582.74	11173.72
582.90	11283.72
583.06	11300.11
583.22	10913.92
583.38	11267.34
583.54	11428.84
583.70	11201.80
583.86	11302.45
584.02	11183.08
584.18	11316.49
584.34	11414.79
584.50	11309.47
584.66	11117.54
584.82	11073.07
584.98	11150.31
585.14	11115.20
585.30	11211.17
585.46	11056.69
585.62	11272.02
585.78	11452.24
585.94	11431.18
586.10	11147.97
586.26	11293.08
586.42	11339.90
586.58	11356.28
586.74	11442.88
586.90	11307.13
587.06	11225.21
587.22	11602.04
587.38	11286.06
587.54	11346.92
587.70	11433.52
587.86	11225.21
588.02	11185.42
588.18	11269.68
588.34	11342.24
588.49	11236.91
588.65	11332.87
588.81	11353.94
588.97	11206.48
589.13	11274.36
589.29	11098.82
589.45	11199.46
589.61	11176.06
589.77	11353.94
589.93	11522.46
590.08	11143.29
590.24	11375.00
590.40	11332.87
590.56	11290.74
590.72	11274.36
590.88	11290.74
591.04	11169.04
591.20	11169.04
591.35	11300.11
591.51	11529.48
591.67	11407.77
591.83	11360.96
591.99	11332.87
592.15	11480.33
592.31	11403.09
592.46	11468.62
592.62	11091.80
592.78	11103.50
592.94	11133.93
593.10	11255.64
593.26	11461.60
593.41	11023.92
593.57	11389.05
593.73	11239.25
593.89	11211.17
594.05	11272.02
594.20	11063.71
594.36	11342.24
594.52	11056.69
594.68	11105.84
594.84	11276.70
594.99	11351.60
595.15	11332.87
595.31	11332.87
595.47	11356.28
595.62	11166.70
595.78	11229.89
595.94	11356.28
596.10	11199.46
