SpectraSuite Data File
++++++++++++++++++++++++++++++++++++
Date: Fri Oct 04 11:39:42 GMT-05:00 2013
User: price-jones
Dark Spectrum Present: No
Reference Spectrum Present: No
Number of Sampled Component Spectra: 1
Spectrometers: USB2+H05261
Integration Time (usec): 100000 (USB2+H05261)
Spectra Averaged: 1 (USB2+H05261)
Boxcar Smoothing: 0 (USB2+H05261)
Correct for Electrical Dark: No (USB2+H05261)
Strobe/Lamp Enabled: No (USB2+H05261)
Correct for Detector Non-linearity: No (USB2+H05261)
Correct for Stray Light: No (USB2+H05261)
Number of Pixels in Processed Spectrum: 2048
>>>>>Begin Processed Spectral Data<<<<<
365.73	46.81
365.92	46.81
366.12	46.81
366.32	23.41
366.52	39.79
366.72	0.00
366.91	0.00
367.11	42.13
367.31	14.04
367.51	0.00
367.70	0.00
367.90	0.00
368.10	0.00
368.30	0.00
368.49	0.00
368.69	0.00
368.89	0.00
369.09	0.00
369.28	0.00
369.48	0.00
369.68	4.68
369.87	0.00
370.07	30.43
370.27	53.83
370.47	0.00
370.66	93.62
370.86	168.52
371.06	152.13
371.25	241.08
371.45	231.71
371.65	273.84
371.84	243.42
372.04	273.84
372.24	191.92
372.44	189.58
372.63	280.86
372.83	266.82
373.03	327.68
373.22	264.48
373.42	222.35
373.62	271.50
373.81	360.44
374.01	301.93
374.21	318.31
374.40	262.14
374.60	250.44
374.79	255.12
374.99	294.91
375.19	308.95
375.38	287.89
375.58	313.63
375.78	297.25
375.97	430.66
376.17	383.85
376.37	337.04
376.56	208.31
376.76	252.78
376.95	322.99
377.15	341.72
377.35	283.20
377.54	407.25
377.74	308.95
377.93	266.82
378.13	367.46
378.33	306.61
378.52	355.76
378.72	355.76
378.91	306.61
379.11	322.99
379.31	315.97
379.50	365.12
379.70	393.21
379.89	334.70
380.09	397.89
380.28	334.70
380.48	330.02
380.68	294.91
380.87	290.23
381.07	301.93
381.26	283.20
381.46	332.36
381.65	381.51
381.85	367.46
382.04	390.87
382.24	376.83
382.43	332.36
382.63	332.36
382.83	358.10
383.02	372.15
383.22	369.80
383.41	346.40
383.61	425.98
383.80	379.17
384.00	369.80
384.19	334.70
384.39	442.36
384.58	376.83
384.78	468.11
384.97	402.57
385.17	344.06
385.36	503.22
385.56	395.55
385.75	337.04
385.95	381.51
386.14	433.00
386.34	442.36
386.53	353.42
386.72	353.42
386.92	397.89
387.11	393.21
387.31	395.55
387.50	341.72
387.70	287.89
387.89	404.91
388.09	465.77
388.28	348.74
388.48	456.40
388.67	535.98
388.86	472.79
389.06	461.09
389.25	482.15
389.45	472.79
389.64	437.68
389.84	528.96
390.03	470.45
390.22	428.32
390.42	433.00
390.61	496.19
390.81	484.49
391.00	433.00
391.19	491.51
391.39	535.98
391.58	482.15
391.78	479.81
391.97	461.09
392.16	482.15
392.36	545.34
392.55	524.28
392.75	524.28
392.94	514.92
393.13	552.37
393.33	566.41
393.52	535.98
393.71	545.34
393.91	594.50
394.10	543.00
394.29	535.98
394.49	629.60
394.68	608.54
394.88	550.03
395.07	620.24
395.26	653.01
395.46	599.18
395.65	610.88
395.84	713.86
396.04	669.39
396.23	669.39
396.42	608.54
396.62	599.18
396.81	667.05
397.00	545.34
397.19	662.37
397.39	573.43
397.58	662.37
397.77	657.69
397.97	805.14
398.16	671.73
398.35	692.80
398.55	601.52
398.74	667.05
398.93	688.12
399.12	777.06
399.32	725.57
399.51	809.83
399.70	784.08
399.90	816.85
400.09	866.00
400.28	826.21
400.47	842.59
400.67	891.74
400.86	830.89
401.05	816.85
401.24	842.59
401.44	870.68
401.63	868.34
401.82	891.74
402.01	844.93
402.21	915.15
402.40	924.51
402.59	891.74
402.78	901.11
402.97	950.26
403.17	954.94
403.36	1039.20
403.55	954.94
403.74	1078.99
403.93	1039.20
404.13	1067.28
404.32	1039.20
404.51	1081.33
404.70	1069.62
404.89	968.98
405.09	1095.37
405.28	1029.84
405.47	1111.75
405.66	1064.94
405.85	1125.80
406.05	1181.97
406.24	1160.91
406.43	1196.01
406.62	1048.56
406.81	1200.69
407.00	1214.74
407.20	1263.89
407.39	1224.10
407.58	1275.59
407.77	1268.57
407.96	1308.36
408.15	1270.91
408.34	1406.66
408.54	1334.11
408.73	1331.76
408.92	1341.13
409.11	1387.94
409.30	1376.24
409.49	1409.00
409.68	1437.09
409.87	1387.94
410.07	1411.34
410.26	1348.15
410.45	1488.58
410.64	1476.88
410.83	1526.03
411.02	1600.93
411.21	1500.28
411.40	1537.73
411.59	1547.09
411.78	1603.27
411.98	1598.59
412.17	1610.29
412.36	1692.21
412.55	1732.00
412.74	1762.42
412.93	1736.68
413.12	1753.06
413.31	1771.79
413.50	1827.96
413.69	1851.36
413.88	1919.24
414.07	1860.73
414.26	1867.75
414.45	1930.94
414.64	1834.98
414.83	1980.09
415.02	1895.83
415.22	2076.06
415.41	2033.93
415.60	2040.95
415.79	2132.23
415.98	2195.42
416.17	2179.04
416.36	2097.12
416.55	2150.95
416.74	2232.87
416.93	2183.72
417.12	2270.32
417.31	2207.13
417.50	2303.09
417.69	2370.96
417.88	2373.30
418.07	2361.60
418.26	2375.64
418.45	2342.88
418.64	2495.01
418.83	2408.41
419.02	2473.95
419.21	2504.37
419.39	2567.57
419.58	2436.50
419.77	2567.57
419.96	2644.81
420.15	2628.42
420.34	2644.81
420.53	2637.78
420.72	2719.70
420.91	2689.28
421.10	2619.06
421.29	2874.18
421.48	2724.38
421.67	2775.88
421.86	2780.56
422.05	2771.19
422.24	2764.17
422.43	2759.49
422.61	2759.49
422.80	2836.73
422.99	2808.64
423.18	2888.22
423.37	2972.48
423.56	2752.47
423.75	2630.76
423.94	2855.45
424.13	2771.19
424.32	2684.59
424.50	2902.26
424.69	2944.39
424.88	2981.84
425.07	2794.60
425.26	2745.45
425.45	3000.57
425.64	2771.19
425.83	2848.43
426.01	2935.03
426.20	2883.54
426.39	2904.60
426.58	2925.67
426.77	2930.35
426.96	2939.71
427.15	2906.95
427.33	2935.03
427.52	3023.97
427.71	3042.70
427.90	2967.80
428.09	3038.02
428.28	3157.38
428.46	3159.72
428.65	3178.45
428.84	3047.38
429.03	3138.66
429.22	3119.93
429.40	3208.87
429.59	3307.18
429.78	3052.06
429.97	3126.96
430.16	3173.77
430.34	3075.46
430.53	3353.99
430.72	3400.80
430.91	3393.78
431.10	3169.09
431.28	3337.60
431.47	3513.14
431.66	3412.50
431.85	3346.97
432.03	3489.74
432.22	3583.36
432.41	3405.48
432.60	3375.05
432.79	3370.37
432.97	3552.93
433.16	3513.14
433.35	3410.16
433.54	3555.27
433.72	3559.95
433.91	3543.57
434.10	3679.32
434.28	3588.04
434.47	3538.89
434.66	3714.43
434.85	3686.34
435.03	3648.90
435.22	3967.21
435.41	4149.77
435.59	4079.55
435.78	3875.93
435.97	3955.51
436.16	3833.80
436.34	3744.86
436.53	3791.67
436.72	3702.73
436.90	3712.09
437.09	4023.38
437.28	3833.80
437.46	3815.07
437.65	4049.13
437.84	3908.69
438.02	3913.38
438.21	4011.68
438.40	3857.20
438.58	3997.64
438.77	4145.09
438.96	4102.96
439.14	4124.02
439.33	4135.73
439.52	4224.67
439.70	4187.22
439.89	4208.28
440.08	4365.10
440.26	4325.31
440.45	4325.31
440.63	4348.72
440.82	4414.25
441.01	4449.36
441.19	4421.27
441.38	4517.23
441.57	4599.15
441.75	4447.02
441.94	4662.35
442.12	4690.43
442.31	4697.46
442.50	4695.11
442.68	4791.08
442.87	4685.75
443.05	4692.77
443.24	4777.03
443.43	4730.22
443.61	4880.02
443.80	4896.40
443.98	4854.27
444.17	4578.09
444.35	4905.76
444.54	4840.23
444.73	4795.76
444.91	4896.40
445.10	4774.69
445.28	4877.68
445.47	4828.53
445.65	4889.38
445.84	4802.78
446.02	5034.49
446.21	4997.04
446.39	4880.02
446.58	4945.55
446.77	4959.60
446.95	4861.29
447.14	4863.63
447.32	5034.49
447.51	4924.49
447.69	5050.88
447.88	5006.41
448.06	5093.01
448.25	5006.41
448.43	4985.34
448.62	4692.77
448.80	4940.87
448.99	4947.89
449.17	5081.30
449.36	5116.41
449.54	5195.99
449.73	5116.41
449.91	5039.17
450.10	5256.84
450.28	5423.02
450.46	5221.74
450.65	5261.52
450.83	5308.34
451.02	5310.68
451.20	5387.91
451.39	5296.63
451.57	5296.63
451.76	5406.64
451.94	5317.70
452.13	5472.17
452.31	5364.51
452.49	5345.78
452.68	5458.13
452.86	5547.07
453.05	5425.36
453.23	5558.77
453.42	5551.75
453.60	5523.66
453.78	5638.35
453.97	5511.96
454.15	5579.84
454.34	5411.32
454.52	5673.46
454.70	5617.29
454.89	5628.99
455.07	5724.95
455.26	5720.27
455.44	5680.48
455.62	5591.54
455.81	5919.21
455.99	5738.99
456.17	5959.00
456.36	5984.75
456.54	5874.74
456.73	5907.51
456.91	6052.63
457.09	6017.52
457.28	6085.39
457.46	6045.60
457.64	6155.61
457.83	5884.11
458.01	6113.48
458.19	6333.49
458.38	6171.99
458.56	6188.38
458.74	6186.04
458.93	6282.00
459.11	6171.99
459.29	6417.75
459.48	6150.93
459.66	6485.62
459.84	6373.28
460.03	6389.66
460.21	6394.34
460.39	6265.61
460.57	6319.45
460.76	6686.91
460.94	6614.35
461.12	6417.75
461.31	6626.06
461.49	6487.96
461.67	6473.92
461.85	6548.82
462.04	6548.82
462.22	6988.84
462.40	6700.95
462.59	6623.72
462.77	6600.31
462.95	6775.85
463.13	6642.44
463.32	6820.32
463.50	6888.20
463.68	6698.61
463.86	6810.96
464.05	6827.34
464.23	6630.74
464.41	6878.83
464.59	6722.02
464.78	7014.59
464.96	6794.58
465.14	6930.33
465.32	6916.28
465.50	7087.14
465.69	6972.46
465.87	6904.58
466.05	7131.61
466.23	7012.24
466.41	6981.82
466.60	7241.62
466.78	7103.53
466.96	7045.01
467.14	6988.84
467.32	7112.89
467.51	7302.47
467.69	6885.86
467.87	7267.36
468.05	7307.15
468.23	7035.65
468.41	7070.76
468.60	7358.64
468.78	7358.64
468.96	7140.97
469.14	7173.74
469.32	7307.15
469.50	7232.26
469.69	7611.42
469.87	7702.70
470.05	7487.37
470.23	7478.01
470.41	7588.02
470.59	7655.89
470.77	7634.83
470.95	7503.76
471.14	7763.56
471.32	7513.12
471.50	7796.32
471.68	7913.35
471.86	7866.54
472.04	7810.37
472.22	7932.08
472.40	7889.95
472.58	7943.78
472.77	8018.68
472.95	7988.25
473.13	8334.65
473.31	8203.58
473.49	8222.30
473.67	8191.88
473.85	7988.25
474.03	8402.52
474.21	8283.16
474.39	8458.70
474.57	8587.43
474.75	8428.27
474.93	8521.89
475.12	8484.44
475.30	8667.00
475.48	8463.38
475.66	8596.79
475.84	8809.78
476.02	8769.99
476.20	8692.75
476.38	8917.44
476.56	9123.41
476.74	8973.61
476.92	8964.25
477.10	9221.71
477.28	9125.75
477.46	9160.86
477.64	9294.27
477.82	9338.74
478.00	9671.09
478.18	9507.26
478.36	9455.76
478.54	9626.62
478.72	9860.68
478.90	9774.08
479.08	9844.29
479.26	9968.34
479.44	9984.73
479.62	10061.96
479.80	10216.44
479.98	10183.67
480.16	10424.75
480.34	10281.97
480.52	10604.97
480.70	10504.32
480.88	10370.91
481.06	10579.22
481.24	10829.66
481.41	10888.17
481.59	10991.16
481.77	10993.50
481.95	11220.53
482.13	11052.01
482.31	11227.55
482.49	11323.51
482.67	11232.23
482.85	11639.48
483.03	11723.74
483.21	11887.58
483.39	11878.22
483.57	11686.29
483.74	11974.18
483.92	12231.64
484.10	11840.77
484.28	12297.17
484.46	12521.87
484.64	12610.81
484.82	12453.99
485.00	12573.36
485.18	12884.65
485.35	13074.23
485.53	12842.52
485.71	13018.06
485.89	13144.45
486.07	13055.51
486.25	13467.44
486.43	13228.71
486.61	13399.57
486.78	13657.03
486.96	13572.77
487.14	13909.80
487.32	13689.79
487.50	14031.51
487.68	14239.82
487.85	14347.48
488.03	14492.60
488.21	14197.69
488.39	14595.58
488.57	14785.16
488.75	14661.12
488.92	15063.69
489.10	15019.22
489.28	15000.49
489.46	15569.24
489.64	15094.11
489.81	15517.75
489.99	15604.35
490.17	15421.79
490.35	15658.18
490.53	15939.05
490.70	15845.43
490.88	16109.91
491.06	16119.27
491.24	16166.08
491.41	16159.06
491.59	16486.73
491.77	16528.86
491.95	16837.81
492.13	16610.78
492.30	16594.40
492.48	16940.80
492.66	17102.29
492.84	16877.60
493.01	17202.94
493.19	17291.88
493.37	17589.13
493.54	17729.56
493.72	17755.30
493.90	17905.10
494.08	17642.96
494.25	18251.50
494.43	18099.36
494.61	18202.35
494.79	18155.54
494.96	18218.73
495.14	18333.42
495.32	18405.97
495.49	18548.75
495.67	18733.65
495.85	18808.54
496.02	18970.04
496.20	18988.77
496.38	18794.50
496.55	18934.93
496.73	19176.01
496.91	19510.71
497.09	19456.87
497.26	19721.35
497.44	19513.05
497.62	19896.89
497.79	19630.07
497.97	19761.14
498.14	20168.40
498.32	20360.32
498.50	20142.65
498.67	20439.90
498.85	20437.56
499.03	20290.10
499.20	20278.40
499.38	20713.74
499.56	20840.13
499.73	20844.81
499.91	20872.90
500.08	20945.45
500.26	20980.56
500.44	20964.18
500.61	21273.13
500.79	20971.20
500.97	21352.71
501.14	21659.32
501.32	21792.73
501.49	21617.19
501.67	21563.36
501.84	21596.12
502.02	21764.64
502.20	21984.65
502.37	22019.76
502.55	22059.55
502.72	21975.29
502.90	22078.27
503.07	22134.45
503.25	22001.04
503.43	22089.98
503.60	22499.57
503.78	22218.71
503.95	22483.19
504.13	22953.63
504.30	22885.76
504.48	22476.16
504.65	22946.61
504.83	22977.04
505.01	23323.44
505.18	23328.12
505.36	23215.77
505.53	23143.22
505.71	23330.46
505.88	23435.78
506.06	23307.05
506.23	23878.15
506.41	23651.11
506.58	23903.89
506.76	23946.02
506.93	23620.69
507.11	23491.96
507.28	23910.91
507.46	23749.42
507.63	24278.38
507.81	24243.27
507.98	24205.82
508.16	24315.83
508.33	24360.30
508.50	24503.07
508.68	24645.84
508.85	24844.79
509.03	24627.12
509.20	24952.45
509.38	25319.92
509.55	24947.77
509.73	24898.62
509.90	24746.48
510.08	24980.54
510.25	25247.36
510.42	25174.80
510.60	25322.26
510.77	25399.49
510.95	25238.00
511.12	25315.23
511.30	25759.94
511.47	25783.34
511.64	25558.65
511.82	26298.26
511.99	25872.28
512.17	26218.68
512.34	25970.58
512.51	26328.69
512.69	26305.28
512.86	25991.65
513.04	26471.46
513.21	26628.27
513.38	26850.63
513.56	26492.52
513.73	26576.78
513.90	26380.18
514.08	26562.74
514.25	27009.78
514.43	26789.77
514.60	27145.53
514.77	27101.06
514.95	27253.20
515.12	27346.82
515.29	26906.80
515.47	27321.07
515.64	27557.47
515.81	27206.39
515.99	27543.42
516.16	27871.10
516.33	27615.98
516.51	27700.24
516.68	27765.78
516.85	27824.29
517.03	27789.18
517.20	28058.34
517.37	28020.89
517.54	27885.14
517.72	28128.56
517.89	27690.88
518.06	28123.88
518.24	28102.81
518.41	28133.24
518.58	28278.35
518.75	27857.06
518.93	28659.86
519.10	28189.41
519.27	28503.04
519.45	28156.64
519.62	28795.61
519.79	28872.85
519.96	29027.32
520.14	28851.78
520.31	28650.50
520.48	28926.68
520.65	29221.59
520.83	29324.57
521.00	29048.39
521.17	28905.62
521.34	29362.02
521.52	29111.58
521.69	29095.20
521.86	29680.33
522.03	29696.72
522.20	29450.96
522.38	30162.48
522.55	29481.39
522.72	29886.30
522.89	29706.08
523.07	30106.31
523.24	29893.32
523.41	30295.89
523.58	30237.38
523.75	30614.21
523.92	30298.23
524.10	30073.54
524.27	30455.05
524.44	30443.35
524.61	30651.66
524.78	30476.12
524.96	30625.91
525.13	30693.79
525.30	30637.61
525.47	30883.37
525.64	30787.41
525.81	30710.17
525.98	31049.55
526.16	31316.37
526.33	30452.71
526.50	31122.10
526.67	30623.57
526.84	30773.36
527.01	31283.60
527.18	31374.88
527.36	31351.48
527.53	31360.84
527.70	31452.12
527.87	31660.43
528.04	31599.57
528.21	31538.72
528.38	31789.16
528.55	31814.90
528.72	31541.06
528.89	31941.29
529.07	31527.02
529.24	31847.67
529.41	31718.94
529.58	31906.18
529.75	31557.44
529.92	31938.95
530.09	31803.20
530.26	32151.94
530.43	32053.64
530.60	32329.82
530.77	32369.61
530.94	32161.30
531.11	32224.50
531.28	32481.95
531.46	32175.34
531.63	32393.01
531.80	32631.75
531.97	32720.69
532.14	32744.09
532.31	32456.21
532.48	32739.41
532.65	32811.97
532.82	32830.69
532.99	32814.31
533.16	32659.84
533.33	33273.06
533.50	33584.35
533.67	33099.86
533.84	33078.79
534.01	32921.98
534.18	32685.58
534.35	33266.03
534.52	32987.51
534.69	33125.60
534.86	33401.79
535.03	33036.66
535.20	33380.72
535.37	33806.70
535.54	33584.35
535.71	33188.80
535.88	33387.74
536.05	33762.23
536.22	33387.74
536.38	33883.94
536.55	33799.68
536.72	34038.41
536.89	33549.24
537.06	33958.83
537.23	33771.59
537.40	34068.84
537.57	33759.89
537.74	34057.14
537.91	34326.30
538.08	34040.75
538.25	34010.32
538.42	34216.29
538.59	34597.80
538.75	33631.16
538.92	34174.16
539.09	34632.91
539.26	34590.78
539.43	34740.57
539.60	34789.72
539.77	34630.57
539.94	34904.41
540.11	34850.58
540.28	34412.90
540.44	34778.02
540.61	34920.79
540.78	34665.67
540.95	35044.84
541.12	34955.90
541.29	35185.27
541.46	34937.18
541.62	34888.03
541.79	35409.96
541.96	35239.11
542.13	34951.22
542.30	35503.59
542.47	35601.89
542.63	35262.51
542.80	35365.49
542.97	36058.29
543.14	35557.42
543.31	35374.86
543.48	35943.61
543.64	36123.83
543.81	36009.14
543.98	35997.44
544.15	36137.87
544.32	36116.81
544.48	36339.16
544.65	35550.40
544.82	36013.82
544.99	35920.20
545.16	35894.46
545.32	35969.35
545.49	36701.94
545.66	36847.05
545.83	37181.75
546.00	37450.91
546.16	36446.82
546.33	36275.96
546.50	35978.72
546.67	36023.19
546.83	36067.66
547.00	36863.44
547.17	36566.19
547.34	36804.92
547.50	36624.70
547.67	36395.33
547.84	36627.04
548.00	36514.70
548.17	36481.93
548.34	36566.19
548.51	36872.80
548.67	36648.11
548.84	37041.32
549.01	36430.44
549.18	36538.10
549.34	36849.39
549.51	36620.02
549.68	36837.69
549.84	37003.87
550.01	36428.10
550.18	36634.06
550.34	37036.64
550.51	36943.02
550.68	36797.90
550.84	36392.99
551.01	36837.69
551.18	36727.69
551.34	37188.77
551.51	37067.06
551.68	36708.96
551.84	37099.83
552.01	37376.01
552.18	37118.56
552.34	37071.75
552.51	37340.91
552.68	36863.44
552.84	37055.36
553.01	37504.74
553.18	36994.51
553.34	37258.99
553.51	37500.06
553.67	37750.50
553.84	37172.39
554.01	37816.04
554.17	37364.31
554.34	37109.19
554.51	37050.68
554.67	37324.52
554.84	37244.94
555.00	37397.08
555.17	37352.61
555.33	37422.83
555.50	37502.40
555.67	37628.79
555.83	37446.23
556.00	37289.42
556.16	38075.84
556.33	37394.74
556.50	37628.79
556.66	37324.52
556.83	37890.93
556.99	37591.34
557.16	38017.32
557.32	37755.18
557.49	38031.36
557.65	37228.56
557.82	37778.59
557.98	38050.09
558.15	37989.24
558.32	38213.93
558.48	37853.48
558.65	37830.08
558.81	37904.98
558.98	38141.37
559.14	37977.53
559.31	37418.14
559.47	37909.66
559.64	37839.44
559.80	38206.90
559.97	37996.26
560.13	38057.11
560.30	37696.67
560.46	38115.62
560.63	38094.56
560.79	37956.47
560.96	38040.73
561.12	37801.99
561.29	37565.60
561.45	38417.55
561.61	38368.40
561.78	38366.06
561.94	38085.20
562.11	38253.72
562.27	38316.91
562.44	38071.15
562.60	38260.74
562.77	38225.63
562.93	37867.53
563.10	38094.56
563.26	38087.54
563.42	38347.34
563.59	38197.54
563.75	38501.81
563.92	38321.59
564.08	38354.36
564.24	38148.39
564.41	38565.01
564.57	38387.13
564.74	38270.10
564.90	38543.94
565.07	38459.68
565.23	38485.43
565.39	38216.27
565.56	38728.84
565.72	38040.73
565.88	38160.09
566.05	38354.36
566.21	38242.01
566.38	38176.48
566.54	38370.74
566.70	38550.96
566.87	38740.55
567.03	38515.86
567.19	39035.45
567.36	38431.60
567.52	38513.52
567.68	38480.75
567.85	38293.50
568.01	38405.85
568.17	38309.89
568.34	38639.90
568.50	38476.07
568.66	38316.91
568.83	38639.90
568.99	38206.90
569.15	38422.23
569.32	38195.20
569.48	38281.80
569.64	38859.91
569.81	38244.35
569.97	38274.78
570.13	38918.43
570.30	38333.29
570.46	38775.66
570.62	38462.02
570.78	38377.76
570.95	38403.51
571.11	38501.81
571.27	38300.53
571.43	38637.56
571.60	38452.66
571.76	38703.10
571.92	39072.90
572.09	38693.74
572.25	38756.93
572.41	38703.10
572.57	38738.21
572.74	38906.73
572.90	38518.20
573.06	38485.43
573.22	38726.50
573.38	38993.32
573.55	38850.55
573.71	39049.50
573.87	39257.81
574.03	38333.29
574.20	38387.13
574.36	38424.57
574.52	38597.77
574.68	38445.64
574.84	39028.43
575.01	38967.58
575.17	38799.06
575.33	38579.05
575.49	38543.94
575.65	39021.41
575.82	38721.82
575.98	38569.69
576.14	38515.86
576.30	38845.87
576.46	38675.01
576.62	38684.37
576.79	38778.00
576.95	38752.25
577.11	38721.82
577.27	38639.90
577.43	38717.14
577.59	38960.56
577.75	38920.77
577.92	38445.64
578.08	38522.88
578.24	38419.89
578.40	38115.62
578.56	39100.99
578.72	38768.63
578.88	39381.85
579.04	39220.36
579.21	38817.78
579.37	38916.09
579.53	38763.95
579.69	39267.17
579.85	38773.31
580.01	38677.35
580.17	38810.76
580.33	38803.74
580.49	38934.81
580.65	38494.79
580.82	39089.29
580.98	38866.94
581.14	38759.27
581.30	38890.34
581.46	38330.95
581.62	38691.40
581.78	38630.54
581.94	38876.30
582.10	38412.87
582.26	38955.88
582.42	38600.12
582.58	39070.56
582.74	39269.51
582.90	39337.38
583.06	38609.48
583.22	38845.87
583.38	38799.06
583.54	38869.28
583.70	38834.17
583.86	39030.77
584.02	38974.60
584.18	39283.55
584.34	39225.04
584.50	38927.79
584.66	38824.81
584.82	38614.16
584.98	39276.53
585.14	38590.75
585.30	38740.55
585.46	38857.57
585.62	38663.31
585.78	38539.26
585.94	38759.27
586.10	38749.91
586.26	38766.29
586.42	39014.39
586.58	39175.89
586.74	38937.15
586.90	38820.13
587.06	38728.84
587.22	38899.70
587.38	38476.07
587.54	39140.78
587.70	38747.57
587.86	39358.45
588.02	38995.67
588.18	39290.57
588.34	39072.90
588.49	39079.92
588.65	38625.86
588.81	38667.99
588.97	38745.23
589.13	38930.13
589.29	38871.62
589.45	39426.32
589.61	39468.45
589.77	39026.09
589.93	39199.29
590.08	39278.87
590.24	39386.54
590.40	39084.61
590.56	39388.88
590.72	38888.00
590.88	38410.53
591.04	39079.92
591.20	39356.11
