SpectraSuite Data File
++++++++++++++++++++++++++++++++++++
Date: Fri Oct 04 11:39:29 GMT-05:00 2013
User: price-jones
Dark Spectrum Present: No
Reference Spectrum Present: No
Number of Sampled Component Spectra: 1
Spectrometers: USB2+H05261
Integration Time (usec): 100000 (USB2+H05261)
Spectra Averaged: 1 (USB2+H05261)
Boxcar Smoothing: 0 (USB2+H05261)
Correct for Electrical Dark: No (USB2+H05261)
Strobe/Lamp Enabled: No (USB2+H05261)
Correct for Detector Non-linearity: No (USB2+H05261)
Correct for Stray Light: No (USB2+H05261)
Number of Pixels in Processed Spectrum: 2048
>>>>>Begin Processed Spectral Data<<<<<
365.73	72.56
365.92	72.56
366.12	72.56
366.32	0.00
366.52	0.00
366.72	0.00
366.91	0.00
367.11	0.00
367.31	0.00
367.51	0.00
367.70	0.00
367.90	0.00
368.10	0.00
368.30	0.00
368.49	0.00
368.69	14.04
368.89	0.00
369.09	0.00
369.28	0.00
369.48	35.11
369.68	0.00
369.87	21.06
370.07	2.34
370.27	117.03
370.47	56.17
370.66	93.62
370.86	154.48
371.06	159.16
371.25	210.65
371.45	154.48
371.65	191.92
371.84	114.69
372.04	114.69
372.24	88.94
372.44	205.97
372.63	175.54
372.83	215.33
373.03	182.56
373.22	140.43
373.42	196.60
373.62	166.18
373.81	175.54
374.01	241.08
374.21	266.82
374.40	138.09
374.60	250.44
374.79	229.37
374.99	168.52
375.19	222.35
375.38	205.97
375.58	156.82
375.78	241.08
375.97	154.48
376.17	262.14
376.37	145.11
376.56	191.92
376.76	149.79
376.95	224.69
377.15	301.93
377.35	297.25
377.54	243.42
377.74	196.60
377.93	180.22
378.13	229.37
378.33	304.27
378.52	234.05
378.72	241.08
378.91	198.95
379.11	184.90
379.31	121.71
379.50	149.79
379.70	201.29
379.89	189.58
380.09	163.84
380.28	121.71
380.48	161.50
380.68	140.43
380.87	273.84
381.07	147.45
381.26	259.80
381.46	217.67
381.65	173.20
381.85	152.13
382.04	198.95
382.24	163.84
382.43	182.56
382.63	236.39
382.83	229.37
383.02	210.65
383.22	294.91
383.41	266.82
383.61	248.10
383.80	250.44
384.00	229.37
384.19	266.82
384.39	222.35
384.58	217.67
384.78	184.90
384.97	227.03
385.17	177.88
385.36	236.39
385.56	229.37
385.75	161.50
385.95	168.52
386.14	234.05
386.34	227.03
386.53	177.88
386.72	220.01
386.92	243.42
387.11	220.01
387.31	327.68
387.50	250.44
387.70	154.48
387.89	280.86
388.09	212.99
388.28	248.10
388.48	278.52
388.67	306.61
388.86	287.89
389.06	231.71
389.25	283.20
389.45	278.52
389.64	280.86
389.84	276.18
390.03	177.88
390.22	250.44
390.42	320.65
390.61	227.03
390.81	262.14
391.00	299.59
391.19	292.57
391.39	285.55
391.58	337.04
391.78	264.48
391.97	311.29
392.16	308.95
392.36	395.55
392.55	294.91
392.75	250.44
392.94	255.12
393.13	327.68
393.33	327.68
393.52	266.82
393.71	367.46
393.91	313.63
394.10	273.84
394.29	304.27
394.49	341.72
394.68	322.99
394.88	444.70
395.07	411.93
395.26	311.29
395.46	304.27
395.65	388.53
395.84	327.68
396.04	416.62
396.23	299.59
396.42	374.49
396.62	358.10
396.81	353.42
397.00	330.02
397.19	362.78
397.39	318.31
397.58	430.66
397.77	358.10
397.97	372.15
398.16	395.55
398.35	444.70
398.55	388.53
398.74	475.13
398.93	470.45
399.12	430.66
399.32	440.02
399.51	367.46
399.70	425.98
399.90	491.51
400.09	484.49
400.28	496.19
400.47	512.58
400.67	505.56
400.86	477.47
401.05	535.98
401.24	510.24
401.44	580.45
401.63	468.11
401.82	503.22
402.01	465.77
402.21	486.83
402.40	631.94
402.59	493.85
402.78	601.52
402.97	531.30
403.17	557.05
403.36	566.41
403.55	540.66
403.74	669.39
403.93	566.41
404.13	676.41
404.32	648.33
404.51	645.99
404.70	709.18
404.89	674.07
405.09	720.88
405.28	711.52
405.47	699.82
405.66	709.18
405.85	713.86
406.05	655.35
406.24	683.44
406.43	713.86
406.62	713.86
406.81	840.25
407.00	692.80
407.20	809.83
407.39	786.42
407.58	814.51
407.77	854.30
407.96	915.15
408.15	854.30
408.34	840.25
408.54	828.55
408.73	835.57
408.92	819.19
409.11	903.45
409.30	936.21
409.49	905.79
409.68	966.64
409.87	947.92
410.07	1043.88
410.26	917.49
410.45	922.17
410.64	966.64
410.83	1027.50
411.02	929.19
411.21	1137.50
411.40	950.26
411.59	1053.24
411.78	1057.92
411.98	994.73
412.17	1039.20
412.36	1144.52
412.55	1050.90
412.74	1174.95
412.93	1186.65
413.12	1135.16
413.31	1233.46
413.50	1179.63
413.69	1247.51
413.88	1252.19
414.07	1193.67
414.26	1303.68
414.45	1329.42
414.64	1362.19
414.83	1416.02
415.02	1263.89
415.22	1352.83
415.41	1352.83
415.60	1343.47
415.79	1345.81
415.98	1544.75
416.17	1453.47
416.36	1378.58
416.55	1427.73
416.74	1526.03
416.93	1540.07
417.12	1540.07
417.31	1605.61
417.50	1472.20
417.69	1671.14
417.88	1514.33
418.07	1568.16
418.26	1563.48
418.45	1650.08
418.64	1661.78
418.83	1631.35
419.02	1631.35
419.21	1750.72
419.39	1701.57
419.58	1652.42
419.77	1626.67
419.96	1643.06
420.15	1757.74
420.34	1767.10
420.53	1764.76
420.72	1769.44
420.91	1736.68
421.10	1818.60
421.29	1818.60
421.48	1792.85
421.67	1858.39
421.86	1870.09
422.05	1949.67
422.24	1790.51
422.43	1870.09
422.61	1895.83
422.80	1923.92
422.99	1909.88
423.18	1905.20
423.37	1989.46
423.56	1851.36
423.75	1811.57
423.94	1912.22
424.13	1839.66
424.32	1781.15
424.50	1930.94
424.69	2033.93
424.88	1977.75
425.07	1886.47
425.26	2033.93
425.45	1996.48
425.64	1994.14
425.83	2005.84
426.01	1980.09
426.20	1977.75
426.39	1996.48
426.58	1956.69
426.77	1952.01
426.96	2008.18
427.15	1998.82
427.33	1947.33
427.52	2090.10
427.71	2073.71
427.90	2026.90
428.09	2054.99
428.28	2160.31
428.46	2120.53
428.65	2073.71
428.84	2069.03
429.03	2076.06
429.22	2134.57
429.40	2209.47
429.59	2132.23
429.78	2174.36
429.97	2165.00
430.16	2160.31
430.34	2279.68
430.53	2172.02
430.72	2251.60
430.91	2202.44
431.10	2120.53
431.28	2275.00
431.47	2202.44
431.66	2265.64
431.85	2312.45
432.03	2253.94
432.22	2448.20
432.41	2342.88
432.60	2420.11
432.79	2382.67
432.97	2438.84
433.16	2431.82
433.35	2235.21
433.54	2473.95
433.72	2382.67
433.91	2438.84
434.10	2469.27
434.28	2408.41
434.47	2511.39
434.66	2499.69
434.85	2574.59
435.03	2518.42
435.22	2743.11
435.41	2881.20
435.59	2836.73
435.78	2740.77
435.97	2586.29
436.16	2609.70
436.34	2497.35
436.53	2555.86
436.72	2621.40
436.90	2609.70
437.09	2600.34
437.28	2548.84
437.46	2637.78
437.65	2712.68
437.84	2738.43
438.02	2719.70
438.21	2757.15
438.40	2621.40
438.58	2693.96
438.77	2787.58
438.96	2839.07
439.14	2778.22
439.33	2829.71
439.52	2906.95
439.70	2939.71
439.89	2951.42
440.08	2864.82
440.26	2925.67
440.45	2839.07
440.63	2986.52
440.82	2874.18
441.01	2923.33
441.19	3038.02
441.38	2974.82
441.57	3115.25
441.75	3112.91
441.94	3101.21
442.12	3108.23
442.31	3038.02
442.50	3124.62
442.68	3166.74
442.87	3091.85
443.05	3133.98
443.24	3108.23
443.43	3276.75
443.61	3332.92
443.80	3269.73
443.98	3171.43
444.17	3098.87
444.35	3218.24
444.54	3309.52
444.73	3251.00
444.91	3286.11
445.10	3332.92
445.28	3162.06
445.47	3246.32
445.65	3344.63
445.84	3365.69
446.02	3314.20
446.21	3335.26
446.39	3290.79
446.58	3431.23
446.77	3361.01
446.95	3475.70
447.14	3276.75
447.32	3330.58
447.51	3248.66
447.69	3449.95
447.88	3365.69
448.06	3445.27
448.25	3435.91
448.43	3471.01
448.62	3384.41
448.80	3433.57
448.99	3419.52
449.17	3482.72
449.36	3414.84
449.54	3496.76
449.73	3644.21
449.91	3543.57
450.10	3508.46
450.28	3555.27
450.46	3637.19
450.65	3655.92
450.83	3644.21
451.02	3475.70
451.20	3538.89
451.39	3548.25
451.57	3611.45
451.76	3707.41
451.94	3597.40
452.13	3744.86
452.31	3730.81
452.49	3630.17
452.68	3651.24
452.86	3728.47
453.05	3744.86
453.23	3754.22
453.42	3588.04
453.60	3667.62
453.78	3843.16
453.97	3667.62
454.15	3684.00
454.34	3653.58
454.52	3850.18
454.70	3829.12
454.89	3854.86
455.07	3782.31
455.26	3927.42
455.44	3918.06
455.62	3847.84
455.81	4028.06
455.99	3927.42
456.17	3932.10
456.36	3957.85
456.54	4016.36
456.73	4058.49
456.91	4196.58
457.09	4210.62
457.28	4210.62
457.46	3981.25
457.64	4287.86
457.83	4180.20
458.01	4142.75
458.19	4140.41
458.38	4245.73
458.56	4208.28
458.74	4081.89
458.93	4264.46
459.11	4271.48
459.29	4257.43
459.48	4180.20
459.66	4231.69
459.84	4278.50
460.03	4337.01
460.21	4292.54
460.39	4294.88
460.57	4250.41
460.76	4355.74
460.94	4421.27
461.12	4308.93
461.31	4381.48
461.49	4362.76
461.67	4191.90
461.85	4325.31
462.04	4557.02
462.22	4592.13
462.40	4636.60
462.59	4578.09
462.77	4615.54
462.95	4676.39
463.13	4461.06
463.32	4526.60
463.50	4517.23
463.68	4624.90
463.86	4587.45
464.05	4582.77
464.23	4641.28
464.41	4657.67
464.59	4482.13
464.78	4755.97
464.96	4669.37
465.14	4535.96
465.32	4802.78
465.50	4812.14
465.69	4798.10
465.87	4762.99
466.05	4709.16
466.23	4615.54
466.41	4812.14
466.60	5071.94
466.78	4702.14
466.96	4727.88
467.14	4690.43
467.32	4961.94
467.51	4908.10
467.69	4903.42
467.87	4800.44
468.05	4957.25
468.23	4812.14
468.41	4842.57
468.60	4863.63
468.78	5064.92
468.96	5036.83
469.14	5036.83
469.32	5247.48
469.50	4774.69
469.69	5128.11
469.87	5060.24
470.05	5142.16
470.23	5205.35
470.41	4917.47
470.59	5074.28
470.77	5090.67
470.95	5219.39
471.14	5130.45
471.32	5118.75
471.50	5317.70
471.68	5308.34
471.86	5399.62
472.04	5275.57
472.22	5327.06
472.40	5350.46
472.58	5432.38
472.77	5397.28
472.95	5645.37
473.13	5811.55
473.31	5589.20
473.49	5469.83
473.67	5708.57
473.85	5460.47
474.03	5682.82
474.21	5621.97
474.39	5788.14
474.57	5893.47
474.75	5846.66
474.93	5846.66
475.12	5729.63
475.30	5776.44
475.48	5942.62
475.66	5753.04
475.84	5823.25
476.02	5837.30
476.20	5860.70
476.38	5954.32
476.56	6010.50
476.74	6157.95
476.92	6204.76
477.10	6108.80
477.28	6223.48
477.46	6228.17
477.64	6328.81
477.82	6368.60
478.00	6541.80
478.18	6551.16
478.36	6658.82
478.54	6480.94
478.72	6623.72
478.90	6672.87
479.08	6768.83
479.26	6754.79
479.44	6792.23
479.62	6825.00
479.80	6853.09
479.98	6977.14
480.16	7012.24
480.34	7063.74
480.52	7211.19
480.70	7356.30
480.88	7173.74
481.06	7243.96
481.24	7269.70
481.41	7342.26
481.59	7503.76
481.77	7452.27
481.95	7461.63
482.13	7681.64
482.31	7538.87
482.49	7749.51
482.67	7630.15
482.85	7969.52
483.03	7840.79
483.21	7882.92
483.39	7918.03
483.57	7899.31
483.74	8138.04
483.92	8255.07
484.10	8138.04
484.28	8306.56
484.46	8528.91
484.64	8542.96
484.82	8381.46
485.00	8505.51
485.18	8486.78
485.35	8650.62
485.53	8601.47
485.71	9006.38
485.89	9043.83
486.07	8830.84
486.25	8812.12
486.43	8997.02
486.61	9123.41
486.78	9226.39
486.96	9345.76
487.14	9542.36
487.32	9430.02
487.50	9563.43
487.68	9425.34
487.85	9415.98
488.03	9668.75
488.21	9755.35
488.39	9785.78
488.57	10061.96
488.75	10150.90
488.92	10312.40
489.10	10146.22
489.28	10125.16
489.46	10239.84
489.64	10258.57
489.81	10396.66
489.99	10352.19
490.17	10157.92
490.35	10696.25
490.53	10590.92
490.70	10616.67
490.88	10607.31
491.06	10988.82
491.24	10934.98
491.41	10984.13
491.59	11044.99
491.77	11262.66
491.95	11344.58
492.13	11143.29
492.30	11410.11
492.48	11349.26
492.66	11461.60
492.84	11555.22
493.01	11716.72
493.19	11468.62
493.37	11749.49
493.54	11908.65
493.72	11791.62
493.90	11988.22
494.08	12116.95
494.25	12079.50
494.43	12184.83
494.61	12446.97
494.79	12348.67
494.96	12250.36
495.14	12451.65
495.32	12369.73
495.49	12381.43
495.67	12453.99
495.85	12620.17
496.02	12713.79
496.20	12884.65
496.38	12917.42
496.55	12676.34
496.73	13289.56
496.91	13125.72
497.09	13097.64
497.26	13132.75
497.44	13263.82
497.62	13327.01
497.79	13455.74
497.97	13228.71
498.14	13467.44
498.32	13607.87
498.50	13504.89
498.67	13923.85
498.85	13795.12
499.03	13647.66
499.20	13745.97
499.38	14106.41
499.56	14026.83
499.73	13895.76
499.91	14270.25
500.08	14331.10
500.26	14031.51
500.44	14136.84
500.61	14228.12
500.79	13919.17
500.97	14398.98
501.14	14548.77
501.32	14553.45
501.49	14647.07
501.67	14768.78
501.84	14841.34
502.02	14541.75
502.20	14698.56
502.37	14740.69
502.55	14682.18
502.72	14888.15
502.90	14817.93
503.07	14899.85
503.25	14850.70
503.43	15122.20
503.60	15035.60
503.78	15098.80
503.95	15131.56
504.13	15126.88
504.30	15414.77
504.48	15396.04
504.65	15180.71
504.83	15522.43
505.01	15695.63
505.18	15447.54
505.36	15765.85
505.53	15447.54
505.71	15524.77
505.88	15665.21
506.06	15566.90
506.23	15704.99
506.41	15726.06
506.58	16030.33
506.76	15943.73
506.93	16100.55
507.11	16182.46
507.28	16070.12
507.46	15833.72
507.63	16453.97
507.81	16397.79
507.98	16273.74
508.16	16093.52
508.33	16248.00
508.50	16437.58
508.68	16358.00
508.85	16601.42
509.03	16711.42
509.20	16802.71
509.38	16587.38
509.55	16835.47
509.73	16760.58
509.90	16765.26
510.08	17099.95
510.25	17078.89
510.42	17067.19
510.60	17121.02
510.77	17329.33
510.95	17397.20
511.12	17163.15
511.30	17277.83
511.47	17128.04
511.64	17504.87
511.82	17228.68
511.99	17633.60
512.17	17607.85
512.34	17785.73
512.51	17563.38
512.69	17781.05
512.86	17544.66
513.04	18090.00
513.21	17802.11
513.38	18314.69
513.56	18242.14
513.73	17722.54
513.90	17865.31
514.08	17965.95
514.25	18029.15
514.43	18317.03
514.60	18073.62
514.77	18319.37
514.95	18534.70
515.12	18200.01
515.29	18052.55
515.47	18370.86
515.64	18492.57
515.81	18380.23
515.99	18506.62
516.16	18614.28
516.33	18644.71
516.51	18853.02
516.68	18462.15
516.85	18640.03
517.03	18792.16
517.20	19056.64
517.37	19037.92
517.54	18923.23
517.72	19084.73
517.89	19143.24
518.06	18815.57
518.24	19194.73
518.41	19124.52
518.58	19136.22
518.75	19309.42
518.93	19351.55
519.10	19314.10
519.27	19295.38
519.45	19271.97
519.62	19389.00
519.79	19662.84
519.96	19473.26
520.14	19843.06
520.31	19529.43
520.48	19580.92
520.65	19513.05
520.83	19913.28
521.00	19723.69
521.17	19585.60
521.34	19641.78
521.52	19997.54
521.69	19999.88
521.86	20247.97
522.03	20105.20
522.20	19946.05
522.38	20018.60
522.55	19999.88
522.72	20130.95
522.89	20362.66
523.07	20365.00
523.24	20397.77
523.41	20500.75
523.58	20306.49
523.75	20346.28
523.92	20498.41
524.10	20365.00
524.27	20386.07
524.44	20821.41
524.61	20730.12
524.78	20723.10
524.96	20549.90
525.13	20580.33
525.30	20634.16
525.47	20802.68
525.64	20840.13
525.81	20891.62
525.98	21020.35
526.16	20695.02
526.33	20809.70
526.50	21219.30
526.67	21050.78
526.84	21261.43
527.01	20737.15
527.18	20753.53
527.36	21324.62
527.53	21432.29
527.70	21469.73
527.87	21408.88
528.04	21298.88
528.21	21448.67
528.38	21338.66
528.55	21371.43
528.72	21427.60
528.89	21591.44
529.07	21488.46
529.24	21490.80
529.41	21909.75
529.58	21301.22
529.75	21635.91
529.92	21666.34
530.09	21565.70
530.26	21715.49
530.43	21649.96
530.60	21926.14
530.77	21858.26
530.94	21809.11
531.11	21975.29
531.28	22080.61
531.46	21979.97
531.63	21951.88
531.80	22244.45
531.97	22391.91
532.14	22309.99
532.31	22111.04
532.48	22054.87
532.65	22258.49
532.82	22277.22
532.99	22403.61
533.16	22312.33
533.33	22574.47
533.50	22410.63
533.67	22768.73
533.84	22349.78
534.01	22256.15
534.18	22450.42
534.35	22494.89
534.52	22415.31
534.69	22647.02
534.86	22792.14
535.03	22764.05
535.20	22803.84
535.37	22920.87
535.54	22871.72
535.71	22483.19
535.88	22817.88
536.05	22883.42
536.22	23131.51
536.38	22799.16
536.55	23049.60
536.72	23091.73
536.89	22553.40
537.06	22855.33
537.23	23267.27
537.40	23044.91
537.57	23239.18
537.74	22824.90
537.91	23285.99
538.08	23339.82
538.25	23307.05
538.42	23288.33
538.59	23349.18
538.75	23070.66
538.92	23438.12
539.09	23604.30
539.26	23613.66
539.43	23721.33
539.60	23763.46
539.77	23709.63
539.94	23590.26
540.11	23728.35
540.28	23618.35
540.44	23548.13
540.61	23894.53
540.78	23800.91
540.95	23967.09
541.12	23658.14
541.29	23976.45
541.46	24137.94
541.62	24304.12
541.79	24327.53
541.96	24051.34
542.13	24135.60
542.30	24474.98
542.47	24577.97
542.63	24641.16
542.80	24357.96
542.97	24671.59
543.14	24507.75
543.31	24512.43
543.48	24311.14
543.64	24685.63
543.81	24947.77
543.98	25083.52
544.15	24627.12
544.32	24987.56
544.48	25102.25
544.65	24547.54
544.82	24332.21
544.99	24336.89
545.16	24563.92
545.32	24814.36
545.49	25198.21
545.66	25692.06
545.83	25851.22
546.00	26143.78
546.16	25488.43
546.33	24814.36
546.50	24648.18
546.67	25017.99
546.83	24826.06
547.00	24889.26
547.17	24730.10
547.34	24676.27
547.50	25071.82
547.67	25048.41
547.84	24987.56
548.00	25111.61
548.17	25191.19
548.34	24823.72
548.51	25062.46
548.67	25348.00
548.84	25221.61
549.01	25062.46
549.18	24996.92
549.34	25146.72
549.51	25097.56
549.68	25081.18
549.84	24992.24
550.01	24964.15
550.18	25071.82
550.34	25167.78
550.51	25006.28
550.68	25308.21
550.84	24746.48
551.01	25209.91
551.18	25156.08
551.34	25198.21
551.51	25050.75
551.68	25621.84
551.84	25348.00
552.01	25226.29
552.18	25369.07
552.34	25305.87
552.51	25425.24
552.68	24957.13
552.84	25418.22
553.01	25123.31
553.18	24957.13
553.34	25333.96
553.51	25397.15
553.67	25703.76
553.84	25905.05
554.01	25790.36
554.17	25326.94
554.34	25420.56
554.51	25514.18
554.67	25748.23
554.84	25497.80
555.00	25752.91
555.17	25483.75
555.33	25607.80
555.50	25586.74
555.67	25799.73
555.83	25443.96
556.00	25685.04
556.16	25773.98
556.33	25472.05
556.50	25591.42
556.66	26003.35
556.83	25851.22
556.99	25727.17
557.16	25893.35
557.32	25586.74
557.49	26113.36
557.65	25476.73
557.82	25661.63
557.98	25671.00
558.15	25528.22
558.32	25961.22
558.48	25947.18
558.65	25879.30
558.81	26003.35
558.98	25837.17
559.14	25816.11
559.31	25809.09
559.47	25685.04
559.64	25727.17
559.80	25912.07
559.97	25902.71
560.13	25797.38
560.30	25883.98
560.46	25949.52
560.63	26075.91
560.79	26185.91
560.96	26096.97
561.12	25972.92
561.29	25682.70
561.45	26015.05
561.61	25895.69
561.78	26026.76
561.94	26192.94
562.11	26157.83
562.27	25919.09
562.44	25965.90
562.60	25977.61
562.77	26094.63
562.93	26181.23
563.10	25993.99
563.26	26286.56
563.42	26705.51
563.59	26150.81
563.75	26232.72
563.92	26279.54
564.08	25717.81
564.24	25947.18
564.41	26059.52
564.57	25895.69
564.74	25804.41
564.90	26176.55
565.07	26501.89
565.23	26082.93
565.39	26356.77
565.56	26031.44
565.72	26223.36
565.88	26031.44
566.05	26298.26
566.21	25853.56
566.38	26092.29
566.54	26019.74
566.70	26380.18
566.87	26199.96
567.03	26302.94
567.19	26338.05
567.36	26422.31
567.52	26494.86
567.68	26068.89
567.85	26429.33
568.01	26628.27
568.17	26469.12
568.34	26265.49
568.50	26113.36
568.66	26263.15
568.83	26796.79
568.99	26473.80
569.15	25930.80
569.32	26253.79
569.48	26078.25
569.64	26235.06
569.81	26052.50
569.97	26520.61
570.13	26270.17
570.30	26235.06
570.46	26520.61
570.62	26005.69
570.78	26380.18
570.95	26331.03
571.11	26609.55
571.27	25799.73
571.43	26419.97
571.60	26286.56
571.76	26551.04
571.92	26445.71
572.09	26487.84
572.25	26160.17
572.41	26272.51
572.57	26691.47
572.74	26644.66
572.90	26022.08
573.06	26328.69
573.22	26338.05
573.38	26490.18
573.55	26169.53
573.71	26434.01
573.87	26656.36
574.03	26036.12
574.20	26405.92
574.36	26286.56
574.52	26434.01
574.68	26295.92
574.84	26572.10
575.01	26529.97
575.17	25900.37
575.33	26373.16
575.49	26600.19
575.65	26408.26
575.82	26654.02
575.98	26654.02
576.14	26567.42
576.30	26480.82
576.46	26583.80
576.62	27072.98
576.79	26419.97
576.95	26302.94
577.11	26785.09
577.27	26586.15
577.43	26637.64
577.59	26305.28
577.75	26806.16
577.92	26642.32
578.08	26349.75
578.24	26190.59
578.40	26452.73
578.56	26492.52
578.72	26876.37
578.88	26948.93
579.04	26661.04
579.21	26408.26
579.37	26492.52
579.53	26644.66
579.69	26515.93
579.85	26661.04
580.01	26551.04
580.17	26696.15
580.33	26417.63
580.49	26539.33
580.65	26316.98
580.82	26717.22
580.98	26534.65
581.14	26389.54
581.30	26789.77
581.46	26405.92
581.62	26740.62
581.78	26267.83
581.94	26338.05
582.10	26780.41
582.26	26785.09
582.42	26459.76
582.58	26859.99
582.74	26974.67
582.90	26960.63
583.06	26829.56
583.22	26728.92
583.38	26609.55
583.54	26359.11
583.70	26434.01
583.86	26455.08
584.02	26586.15
584.18	26700.83
584.34	26422.31
584.50	26607.21
584.66	26572.10
584.82	26316.98
584.98	26993.40
585.14	26431.67
585.30	26476.14
585.46	27016.80
585.62	26551.04
585.78	26555.72
585.94	26532.31
586.10	26939.57
586.26	26623.59
586.42	26845.94
586.58	26815.52
586.74	26796.79
586.90	26316.98
587.06	26700.83
587.22	26771.05
587.38	26623.59
587.54	26920.84
587.70	26789.77
587.86	26714.87
588.02	26955.95
588.18	26895.10
588.34	26478.48
588.49	26808.50
588.65	26717.22
588.81	26277.19
588.97	26635.30
589.13	26714.87
589.29	26888.07
589.45	26654.02
589.61	26794.45
589.77	26675.09
589.93	26934.88
590.08	26761.69
590.24	26803.82
590.40	26792.11
590.56	26920.84
590.72	27159.58
590.88	26281.88
591.04	26658.70
591.20	26799.13
591.35	27276.60
591.51	27505.98
591.67	26768.71
591.83	26698.49
591.99	27035.53
592.15	26429.33
