SpectraSuite Data File
++++++++++++++++++++++++++++++++++++
Date: Fri Oct 04 11:39:28 GMT-05:00 2013
User: price-jones
Dark Spectrum Present: No
Reference Spectrum Present: No
Number of Sampled Component Spectra: 1
Spectrometers: USB2+H05261
Integration Time (usec): 100000 (USB2+H05261)
Spectra Averaged: 1 (USB2+H05261)
Boxcar Smoothing: 0 (USB2+H05261)
Correct for Electrical Dark: No (USB2+H05261)
Strobe/Lamp Enabled: No (USB2+H05261)
Correct for Detector Non-linearity: No (USB2+H05261)
Correct for Stray Light: No (USB2+H05261)
Number of Pixels in Processed Spectrum: 2048
>>>>>Begin Processed Spectral Data<<<<<
365.73	135.75
365.92	135.75
366.12	135.75
366.32	4.68
366.52	0.00
366.72	0.00
366.91	0.00
367.11	0.00
367.31	0.00
367.51	0.00
367.70	0.00
367.90	0.00
368.10	28.09
368.30	0.00
368.49	0.00
368.69	0.00
368.89	0.00
369.09	0.00
369.28	23.41
369.48	0.00
369.68	0.00
369.87	7.02
370.07	28.09
370.27	2.34
370.47	105.32
370.66	112.35
370.86	117.03
371.06	152.13
371.25	189.58
371.45	156.82
371.65	208.31
371.84	170.86
372.04	147.45
372.24	189.58
372.44	208.31
372.63	262.14
372.83	264.48
373.03	173.20
373.22	180.22
373.42	180.22
373.62	152.13
373.81	250.44
374.01	222.35
374.21	266.82
374.40	203.63
374.60	203.63
374.79	224.69
374.99	180.22
375.19	177.88
375.38	257.46
375.58	259.80
375.78	264.48
375.97	273.84
376.17	337.04
376.37	259.80
376.56	229.37
376.76	201.29
376.95	217.67
377.15	215.33
377.35	273.84
377.54	245.76
377.74	205.97
377.93	243.42
378.13	243.42
378.33	210.65
378.52	217.67
378.72	205.97
378.91	290.23
379.11	166.18
379.31	224.69
379.50	273.84
379.70	276.18
379.89	205.97
380.09	212.99
380.28	280.86
380.48	280.86
380.68	182.56
380.87	135.75
381.07	297.25
381.26	280.86
381.46	264.48
381.65	313.63
381.85	229.37
382.04	292.57
382.24	304.27
382.43	224.69
382.63	222.35
382.83	294.91
383.02	280.86
383.22	283.20
383.41	250.44
383.61	304.27
383.80	262.14
384.00	264.48
384.19	346.40
384.39	327.68
384.58	271.50
384.78	299.59
384.97	311.29
385.17	252.78
385.36	245.76
385.56	269.16
385.75	250.44
385.95	262.14
386.14	287.89
386.34	231.71
386.53	318.31
386.72	283.20
386.92	248.10
387.11	318.31
387.31	381.51
387.50	318.31
387.70	248.10
387.89	278.52
388.09	301.93
388.28	278.52
388.48	334.70
388.67	344.06
388.86	315.97
389.06	243.42
389.25	252.78
389.45	262.14
389.64	297.25
389.84	372.15
390.03	320.65
390.22	341.72
390.42	266.82
390.61	332.36
390.81	330.02
391.00	301.93
391.19	339.38
391.39	402.57
391.58	386.19
391.78	330.02
391.97	341.72
392.16	334.70
392.36	360.44
392.55	341.72
392.75	327.68
392.94	346.40
393.13	376.83
393.33	449.38
393.52	236.39
393.71	397.89
393.91	358.10
394.10	400.23
394.29	428.32
394.49	334.70
394.68	435.34
394.88	458.74
395.07	482.15
395.26	390.87
395.46	472.79
395.65	388.53
395.84	383.85
396.04	437.68
396.23	449.38
396.42	428.32
396.62	411.93
396.81	491.51
397.00	407.25
397.19	400.23
397.39	440.02
397.58	463.43
397.77	440.02
397.97	430.66
398.16	510.24
398.35	479.81
398.55	496.19
398.74	493.85
398.93	503.22
399.12	500.87
399.32	543.00
399.51	587.47
399.70	496.19
399.90	538.32
400.09	479.81
400.28	552.37
400.47	561.73
400.67	575.77
400.86	589.82
401.05	580.45
401.24	627.26
401.44	674.07
401.63	608.54
401.82	561.73
402.01	599.18
402.21	615.56
402.40	645.99
402.59	702.16
402.78	655.35
402.97	660.03
403.17	662.37
403.36	653.01
403.55	631.94
403.74	681.10
403.93	744.29
404.13	711.52
404.32	725.57
404.51	746.63
404.70	758.33
404.89	660.03
405.09	798.12
405.28	800.46
405.47	758.33
405.66	671.73
405.85	791.10
406.05	840.25
406.24	861.32
406.43	777.06
406.62	802.80
406.81	896.43
407.00	903.45
407.20	851.96
407.39	882.38
407.58	978.34
407.77	898.77
407.96	952.60
408.15	931.53
408.34	917.49
408.54	936.21
408.73	910.47
408.92	936.21
409.11	952.60
409.30	1018.13
409.49	1032.18
409.68	973.66
409.87	1015.79
410.07	1006.43
410.26	1095.37
410.45	1022.81
410.64	1053.24
410.83	1102.39
411.02	1188.99
411.21	1172.61
411.40	1240.48
411.59	1149.20
411.78	1149.20
411.98	1196.01
412.17	1172.61
412.36	1310.70
412.55	1153.88
412.74	1226.44
412.93	1287.29
413.12	1270.91
413.31	1313.04
413.50	1343.47
413.69	1462.83
413.88	1455.81
414.07	1392.62
414.26	1423.05
414.45	1437.09
414.64	1479.22
414.83	1542.41
415.02	1586.88
415.22	1516.67
415.41	1565.82
415.60	1547.09
415.79	1551.78
415.98	1561.14
416.17	1544.75
416.36	1607.95
416.55	1542.41
416.74	1661.78
416.93	1671.14
417.12	1678.16
417.31	1689.87
417.50	1727.32
417.69	1790.51
417.88	1830.30
418.07	1785.83
418.26	1746.04
418.45	1809.23
418.64	1891.15
418.83	1774.13
419.02	1799.87
419.21	1760.08
419.39	1886.47
419.58	1865.41
419.77	1853.70
419.96	1877.11
420.15	1970.73
420.34	2022.22
420.53	1937.96
420.72	2005.84
420.91	1989.46
421.10	1874.77
421.29	2062.01
421.48	2019.88
421.67	2073.71
421.86	2029.24
422.05	2052.65
422.24	1998.82
422.43	2083.08
422.61	2097.12
422.80	2165.00
422.99	2083.08
423.18	2092.44
423.37	2122.87
423.56	2202.44
423.75	2176.70
423.94	2057.33
424.13	2015.20
424.32	2017.54
424.50	2169.68
424.69	2097.12
424.88	2235.21
425.07	2078.40
425.26	2062.01
425.45	2101.80
425.64	2207.13
425.83	2211.81
426.01	2188.40
426.20	2209.47
426.39	2195.42
426.58	2143.93
426.77	2200.10
426.96	2211.81
427.15	2246.91
427.33	2300.75
427.52	2209.47
427.71	2328.83
427.90	2293.72
428.09	2230.53
428.28	2256.28
428.46	2265.64
428.65	2385.01
428.84	2403.73
429.03	2368.62
429.22	2197.76
429.40	2476.29
429.59	2307.77
429.78	2296.07
429.97	2289.04
430.16	2392.03
430.34	2485.65
430.53	2392.03
430.72	2415.43
430.91	2485.65
431.10	2424.80
431.28	2532.46
431.47	2539.48
431.66	2532.46
431.85	2499.69
432.03	2499.69
432.22	2731.41
432.41	2555.86
432.60	2630.76
432.79	2541.82
432.97	2633.10
433.16	2661.19
433.35	2558.21
433.54	2544.16
433.72	2677.57
433.91	2708.00
434.10	2656.51
434.28	2733.75
434.47	2663.53
434.66	2803.96
434.85	2768.85
435.03	2787.58
435.22	2878.86
435.41	3239.30
435.59	3236.96
435.78	3056.74
435.97	2876.52
436.16	2764.17
436.34	2792.26
436.53	2913.97
436.72	2986.52
436.90	2906.95
437.09	2972.48
437.28	2860.13
437.46	2794.60
437.65	3056.74
437.84	2878.86
438.02	2956.10
438.21	3075.46
438.40	2963.12
438.58	2935.03
438.77	3194.83
438.96	2946.73
439.14	3155.04
439.33	3110.57
439.52	3094.19
439.70	3133.98
439.89	3091.85
440.08	3297.81
440.26	3302.50
440.45	3314.20
440.63	3447.61
440.82	3316.54
441.01	3391.44
441.19	3365.69
441.38	3297.81
441.57	3356.33
441.75	3562.30
441.94	3524.85
442.12	3531.87
442.31	3372.71
442.50	3548.25
442.68	3487.40
442.87	3468.67
443.05	3538.89
443.24	3632.51
443.43	3536.55
443.61	3562.30
443.80	3707.41
443.98	3538.89
444.17	3508.46
444.35	3627.83
444.54	3728.47
444.73	3716.77
444.91	3742.52
445.10	3620.81
445.28	3583.36
445.47	3719.11
445.65	3662.94
445.84	3693.37
446.02	3733.15
446.21	3632.51
446.39	3691.02
446.58	3794.01
446.77	3599.74
446.95	3679.32
447.14	3707.41
447.32	3775.28
447.51	3784.65
447.69	3730.81
447.88	3868.91
448.06	3810.39
448.25	3609.11
448.43	3747.20
448.62	3728.47
448.80	3712.09
448.99	3733.15
449.17	3801.03
449.36	3648.90
449.54	3845.50
449.73	3887.63
449.91	3906.35
450.10	3978.91
450.28	3964.87
450.46	3967.21
450.65	3948.48
450.83	3971.89
451.02	3943.80
451.20	4119.34
451.39	4180.20
451.57	4077.21
451.76	3894.65
451.94	4098.28
452.13	4049.13
452.31	4215.30
452.49	4018.70
452.68	4014.02
452.86	4060.83
453.05	4070.19
453.23	4180.20
453.42	4095.94
453.60	4154.45
453.78	4170.83
453.97	4086.58
454.15	4215.30
454.34	4044.45
454.52	4257.43
454.70	4245.73
454.89	4163.81
455.07	4243.39
455.26	4205.94
455.44	4421.27
455.62	4304.25
455.81	4414.25
455.99	4292.54
456.17	4437.66
456.36	4322.97
456.54	4477.44
456.73	4447.02
456.91	4706.82
457.09	4550.00
457.28	4660.01
457.46	4526.60
457.64	4550.00
457.83	4596.81
458.01	4559.36
458.19	4718.52
458.38	4528.94
458.56	4739.58
458.74	4540.64
458.93	4533.62
459.11	4596.81
459.29	4524.26
459.48	4636.60
459.66	4741.93
459.84	4711.50
460.03	4748.95
460.21	4655.33
460.39	4713.84
460.57	4683.41
460.76	4873.00
460.94	4922.15
461.12	4997.04
461.31	4931.51
461.49	4795.76
461.67	4905.76
461.85	4851.93
462.04	4842.57
462.22	5050.88
462.40	5032.15
462.59	5102.37
462.77	5104.71
462.95	5008.75
463.13	5029.81
463.32	5078.96
463.50	4968.96
463.68	5102.37
463.86	5043.85
464.05	5036.83
464.23	5048.54
464.41	5149.18
464.59	5008.75
464.78	5233.44
464.96	5198.33
465.14	5046.20
465.32	5158.54
465.50	5275.57
465.69	5357.49
465.87	5156.20
466.05	5394.93
466.23	5130.45
466.41	5249.82
466.60	5434.72
466.78	5111.73
466.96	5317.70
467.14	5116.41
467.32	5270.89
467.51	5521.32
467.69	5247.48
467.87	5476.85
468.05	5313.02
468.23	5317.70
468.41	5392.59
468.60	5465.15
468.78	5575.16
468.96	5369.19
469.14	5577.50
469.32	5329.40
469.50	5371.53
469.69	5738.99
469.87	5628.99
470.05	5598.56
470.23	5528.35
470.41	5624.31
470.59	5507.28
470.77	5500.26
470.95	5631.33
471.14	5767.08
471.32	5509.62
471.50	5813.89
471.68	5708.57
471.86	5919.21
472.04	5914.53
472.22	6087.73
472.40	5865.38
472.58	6024.54
472.77	6111.14
472.95	6057.31
473.13	6195.40
473.31	6054.97
473.49	6045.60
473.67	6200.08
473.85	6214.12
474.03	6331.15
474.21	6258.59
474.39	6249.23
474.57	6282.00
474.75	6387.32
474.93	6392.00
475.12	6237.53
475.30	6466.90
475.48	6406.05
475.66	6394.34
475.84	6544.14
476.02	6527.75
476.20	6675.21
476.38	6612.01
476.56	6834.36
476.74	6649.46
476.92	6719.68
477.10	6754.79
477.28	6803.94
477.46	6750.10
477.64	6864.79
477.82	6972.46
478.00	7211.19
478.18	7056.72
478.36	7185.44
478.54	7215.87
478.72	7180.76
478.90	7428.86
479.08	7470.99
479.26	7489.71
479.44	7515.46
479.62	7440.56
479.80	7698.02
479.98	7581.00
480.16	7887.61
480.34	7726.11
480.52	8051.44
480.70	7749.51
480.88	7903.99
481.06	7971.86
481.24	7939.10
481.41	8081.87
481.59	8264.43
481.77	8170.81
481.95	8386.14
482.13	8468.06
482.31	8327.63
482.49	8547.64
482.67	8507.85
482.85	8931.48
483.03	8765.31
483.21	8868.29
483.39	8798.07
483.57	8816.80
483.74	8912.76
483.92	9071.92
484.10	9121.07
484.28	9104.68
484.46	9207.67
484.64	9547.05
484.82	9261.50
485.00	9406.61
485.18	9598.54
485.35	9458.10
485.53	9661.73
485.71	9827.91
485.89	10150.90
486.07	9841.95
486.25	9928.55
486.43	10026.86
486.61	10087.71
486.78	10225.80
486.96	10188.35
487.14	10586.24
487.32	10354.53
487.50	10565.18
487.68	10281.97
487.85	10637.73
488.03	10930.30
488.21	10937.32
488.39	10822.64
488.57	11042.65
488.75	11061.37
488.92	11147.97
489.10	11176.06
489.28	11232.23
489.46	11426.50
489.64	11426.50
489.81	11749.49
489.99	11527.14
490.17	11637.14
490.35	11906.31
490.53	11716.72
490.70	12049.08
490.88	12049.08
491.06	11822.05
491.24	12229.30
491.41	12231.64
491.59	12245.68
491.77	12121.63
491.95	12461.01
492.13	12486.76
492.30	12505.48
492.48	12545.27
492.66	12748.90
492.84	12821.45
493.01	12891.67
493.19	12645.91
493.37	12929.12
493.54	13193.60
493.72	13083.59
493.90	13170.19
494.08	13341.05
494.25	13310.63
494.43	13785.76
494.61	13647.66
494.79	13673.41
494.96	13659.37
495.14	13774.05
495.32	13462.76
495.49	13781.07
495.67	14001.08
495.85	13837.25
496.02	13912.14
496.20	14068.96
496.38	14012.79
496.55	14361.53
496.73	14679.84
496.91	14459.83
497.09	14338.12
497.26	14771.12
497.44	14455.15
497.62	15047.30
497.79	14897.51
497.97	14810.91
498.14	14998.15
498.32	15218.16
498.50	15206.46
498.67	15487.32
498.85	15215.82
499.03	15520.09
499.20	15358.60
499.38	15426.47
499.56	15765.85
499.73	15503.71
499.91	15541.16
500.08	15768.19
500.26	15517.75
500.44	15501.37
500.61	15709.68
500.79	15826.70
500.97	15913.30
501.14	16084.16
501.32	16245.66
501.49	15765.85
501.67	16212.89
501.84	16051.39
502.02	16376.73
502.20	16425.88
502.37	16229.27
502.55	16367.37
502.72	16760.58
502.90	16348.64
503.07	16540.57
503.25	16851.86
503.43	16365.03
503.60	16798.02
503.78	16673.98
503.95	16865.90
504.13	17172.51
504.30	17163.15
504.48	16851.86
504.65	17015.69
504.83	17261.45
505.01	17364.43
505.18	17242.73
505.36	17350.39
505.53	17043.78
505.71	17214.64
505.88	17348.05
506.06	17364.43
506.23	17514.23
506.41	17453.37
506.58	17692.11
506.76	17703.81
506.93	17774.03
507.11	17341.03
507.28	17848.93
507.46	17834.88
507.63	17848.93
507.81	17965.95
507.98	18216.39
508.16	18228.09
508.33	18258.52
508.50	18246.82
508.68	18380.23
508.85	18487.89
509.03	18721.95
509.20	18661.09
509.38	18445.76
509.55	18628.32
509.73	18581.51
509.90	18506.62
510.08	18892.80
510.25	18995.79
510.42	18712.58
510.60	18925.57
510.77	19056.64
510.95	19234.52
511.12	19143.24
511.30	19005.15
511.47	19115.16
511.64	19386.66
511.82	19225.16
511.99	19197.07
512.17	19431.13
512.34	19363.25
512.51	19559.86
512.69	19807.95
512.86	19658.16
513.04	19789.23
513.21	19726.04
513.38	20030.30
513.56	19826.68
513.73	19620.71
513.90	20009.24
514.08	20037.33
514.25	19967.11
514.43	20397.77
514.60	20203.50
514.77	20196.48
514.95	20357.98
515.12	20105.20
515.29	20091.16
515.47	20465.64
515.64	20622.46
515.81	20592.03
515.99	20535.86
516.16	20549.90
516.33	20723.10
516.51	20884.60
516.68	20421.17
516.85	20350.96
517.03	20908.01
517.20	21149.08
517.37	21020.35
517.54	21282.49
517.72	21057.80
517.89	21144.40
518.06	21158.44
518.24	21034.39
518.41	20961.84
518.58	21025.03
518.75	21195.89
518.93	21268.45
519.10	21443.99
519.27	21617.19
519.45	21357.39
519.62	21371.43
519.79	21359.73
519.96	21577.40
520.14	21949.54
520.31	21778.68
520.48	21458.03
520.65	21586.76
520.83	22082.95
521.00	21853.58
521.17	21759.96
521.34	21769.32
521.52	21844.22
521.69	22122.74
521.86	22218.71
522.03	22216.36
522.20	22583.83
522.38	22099.34
522.55	22410.63
522.72	22019.76
522.89	22520.63
523.07	22558.08
523.24	22625.96
523.41	22485.53
523.58	22389.56
523.75	22745.33
523.92	22644.68
524.10	22998.10
524.27	22668.09
524.44	22469.14
524.61	23030.87
524.78	22916.19
524.96	22932.57
525.13	22850.65
525.30	22803.84
525.47	22913.84
525.64	22939.59
525.81	23281.31
525.98	23213.43
526.16	23358.55
526.33	22864.69
526.50	23510.68
526.67	22902.14
526.84	23393.65
527.01	23632.39
527.18	23260.24
527.36	23707.29
527.53	23789.20
527.70	23716.65
527.87	23812.61
528.04	23707.29
528.21	23704.95
528.38	23887.51
528.55	23613.66
528.72	23515.36
528.89	23901.55
529.07	23735.37
529.24	24051.34
529.41	23950.70
529.58	23756.44
529.75	23997.51
529.92	24100.50
530.09	23847.72
530.26	23953.04
530.43	24123.90
530.60	24182.42
530.77	24156.67
530.94	24290.08
531.11	24130.92
531.28	24236.25
531.46	24247.95
531.63	24404.77
531.80	24496.05
531.97	24683.29
532.14	24498.39
532.31	24570.94
532.48	24423.49
532.65	24823.72
532.82	24430.51
532.99	24318.17
533.16	24449.24
533.33	24943.09
533.50	24945.43
533.67	24978.20
533.84	24643.50
534.01	24610.73
534.18	24568.60
534.35	25179.48
534.52	25015.65
534.69	25177.14
534.86	25240.34
535.03	24994.58
535.20	25460.35
535.37	25202.89
535.54	25032.03
535.71	25025.01
535.88	25685.04
536.05	25357.36
536.22	25528.22
536.38	25284.81
536.55	25483.75
536.72	25455.67
536.89	25193.53
537.06	25495.46
537.23	25989.31
537.40	25050.75
537.57	25413.54
537.74	25287.15
537.91	25771.64
538.08	25752.91
538.25	25699.08
538.42	25891.01
538.59	25518.86
538.75	25575.03
538.92	25710.78
539.09	26307.62
539.26	26092.29
539.43	26281.88
539.60	25818.45
539.77	25942.50
539.94	26396.56
540.11	26139.10
540.28	26167.19
540.44	26050.16
540.61	26293.58
540.78	26073.57
540.95	26471.46
541.12	26672.74
541.29	26787.43
541.46	26712.53
541.62	26820.20
541.79	26850.63
541.96	26246.77
542.13	26621.25
542.30	26721.90
542.47	27016.80
542.63	26759.34
542.80	27152.55
542.97	27138.51
543.14	27351.50
543.31	26991.06
543.48	26801.47
543.64	27274.26
543.81	27494.27
543.98	27527.04
544.15	27262.56
544.32	27662.79
544.48	27182.98
544.65	27262.56
544.82	27204.05
544.99	26820.20
545.16	27426.40
545.32	26988.72
545.49	28053.66
545.66	28341.55
545.83	28421.13
546.00	28304.10
546.16	28018.55
546.33	27681.52
546.50	27091.70
546.67	27023.83
546.83	27058.93
547.00	27391.29
547.17	27765.78
547.34	27632.36
547.50	27625.34
547.67	27620.66
547.84	27948.34
548.00	27456.82
548.17	27873.44
548.34	27503.64
548.51	27697.90
548.67	27946.00
548.84	27758.75
549.01	27459.16
549.18	27590.24
549.34	27634.71
549.51	27775.14
549.68	27651.09
549.84	27845.35
550.01	27660.45
550.18	27899.19
550.34	27976.42
550.51	27845.35
550.68	28032.60
550.84	27938.97
551.01	28128.56
551.18	27618.32
551.34	27997.49
551.51	27697.90
551.68	28016.21
551.84	27761.09
552.01	27805.56
552.18	27938.97
552.34	28102.81
552.51	27784.50
552.68	28116.86
552.84	28301.76
553.01	28240.90
553.18	27899.19
553.34	28236.22
553.51	28245.58
553.67	28114.52
553.84	28561.56
554.01	28439.85
554.17	28400.06
554.34	28290.06
554.51	28386.02
554.67	28402.40
554.84	28486.66
555.00	28254.95
555.17	28027.92
555.33	28577.94
555.50	28137.92
555.67	28158.99
555.83	28294.74
556.00	28163.67
556.16	28699.65
556.33	28128.56
556.50	28393.04
556.66	28367.29
556.83	28446.87
556.99	28341.55
557.16	28563.90
557.32	28584.96
557.49	28716.03
557.65	28348.57
557.82	28425.81
557.98	28037.28
558.15	28343.89
558.32	28610.71
558.48	28477.30
558.65	28491.34
558.81	28442.19
558.98	28898.59
559.14	28393.04
559.31	28311.12
559.47	28472.62
559.64	28531.13
559.80	28472.62
559.97	28769.86
560.13	28545.17
560.30	28737.10
560.46	28849.44
560.63	28989.88
560.79	28676.24
560.96	28828.38
561.12	28526.45
561.29	28367.29
561.45	28643.48
561.61	28971.15
561.78	29172.44
561.94	29055.41
562.11	28917.32
562.27	28950.09
562.44	28463.25
562.60	28374.31
562.77	29027.32
562.93	28943.06
563.10	29411.17
563.26	28772.21
563.42	29001.58
563.59	28802.63
563.75	28816.68
563.92	28645.82
564.08	29029.66
564.24	29303.51
564.41	28903.28
564.57	28746.46
564.74	28781.57
564.90	28753.48
565.07	28966.47
565.23	28781.57
565.39	29228.61
565.56	29158.39
565.72	28786.25
565.88	28893.91
566.05	28624.75
566.21	28690.29
566.38	28875.19
566.54	29015.62
566.70	29270.74
566.87	29542.24
567.03	28842.42
567.19	29355.00
567.36	29024.98
567.52	28982.85
567.68	29179.46
567.85	29069.45
568.01	28802.63
568.17	28577.94
568.34	28971.15
568.50	29123.29
568.66	28912.64
568.83	29221.59
568.99	28910.30
569.15	28959.45
569.32	28741.78
569.48	28753.48
569.64	28968.81
569.81	28776.89
569.97	29165.42
570.13	28914.98
570.30	29088.18
570.46	28872.85
570.62	29151.37
570.78	29209.89
570.95	29233.29
571.11	29102.22
571.27	28973.49
571.43	28875.19
571.60	29277.76
571.76	29032.00
571.92	29043.71
572.09	29305.85
572.25	29174.78
572.41	29230.95
572.57	29589.05
572.74	29355.00
572.90	28922.00
573.06	29249.67
573.22	29036.69
573.38	28828.38
573.55	28994.56
573.71	29663.95
573.87	29497.77
574.03	29193.50
574.20	29324.57
574.36	29184.14
574.52	29411.17
574.68	29181.80
574.84	29415.85
575.01	29811.40
575.17	29362.02
575.33	29207.55
575.49	29207.55
575.65	29731.83
575.82	29355.00
575.98	29151.37
576.14	29364.36
576.30	29097.54
576.46	29448.62
576.62	28994.56
576.79	29394.79
576.95	29500.11
577.11	29415.85
577.27	29357.34
577.43	29675.65
577.59	29551.60
577.75	29252.02
577.92	28938.38
578.08	28996.90
578.24	29149.03
578.40	29184.14
578.56	29256.70
578.72	29680.33
578.88	29759.91
579.04	29802.04
579.21	29549.26
579.37	29542.24
579.53	29453.30
579.69	29050.73
579.85	29212.23
580.01	29308.19
580.17	29308.19
580.33	29273.08
580.49	29560.97
580.65	29736.51
580.82	30026.73
580.98	29769.27
581.14	29511.81
581.30	29429.90
581.46	29371.38
581.62	29146.69
581.78	29347.98
581.94	29443.94
582.10	29467.34
582.26	29699.06
582.42	29497.77
582.58	29593.73
582.74	29380.74
582.90	29219.25
583.06	29469.69
583.22	29247.33
583.38	29247.33
583.54	29340.96
583.70	29586.71
583.86	29230.95
584.02	29116.26
584.18	29715.44
584.34	29017.96
584.50	29745.87
584.66	29528.20
584.82	29006.26
584.98	29537.56
585.14	29479.05
585.30	29406.49
585.46	29633.52
585.62	29247.33
585.78	29221.59
585.94	29032.00
586.10	29523.52
586.26	29532.88
586.42	29780.98
586.58	29333.93
586.74	29584.37
586.90	29291.80
587.06	29280.10
587.22	29780.98
587.38	29280.10
587.54	29575.01
587.70	29745.87
587.86	29429.90
588.02	29324.57
588.18	29937.79
588.34	29516.50
588.49	29453.30
588.65	29024.98
588.81	29347.98
588.97	29942.47
589.13	29584.37
589.29	29254.36
589.45	29666.29
589.61	29532.88
589.77	29799.70
589.93	29605.44
590.08	29979.92
590.24	29724.80
590.40	29839.49
590.56	30033.75
590.72	29617.14
590.88	29216.91
591.04	29589.05
591.20	30000.99
591.35	29722.46
591.51	29991.62
591.67	30022.05
591.83	29633.52
