SpectraSuite Data File
++++++++++++++++++++++++++++++++++++
Date: Fri Oct 04 11:39:32 GMT-05:00 2013
User: price-jones
Dark Spectrum Present: No
Reference Spectrum Present: No
Number of Sampled Component Spectra: 1
Spectrometers: USB2+H05261
Integration Time (usec): 100000 (USB2+H05261)
Spectra Averaged: 1 (USB2+H05261)
Boxcar Smoothing: 0 (USB2+H05261)
Correct for Electrical Dark: No (USB2+H05261)
Strobe/Lamp Enabled: No (USB2+H05261)
Correct for Detector Non-linearity: No (USB2+H05261)
Correct for Stray Light: No (USB2+H05261)
Number of Pixels in Processed Spectrum: 2048
>>>>>Begin Processed Spectral Data<<<<<
365.73	0.00
365.92	0.00
366.12	0.00
366.32	0.00
366.52	0.00
366.72	0.00
366.91	0.00
367.11	0.00
367.31	0.00
367.51	0.00
367.70	0.00
367.90	0.00
368.10	0.00
368.30	0.00
368.49	0.00
368.69	0.00
368.89	0.00
369.09	7.02
369.28	0.00
369.48	9.36
369.68	0.00
369.87	0.00
370.07	0.00
370.27	0.00
370.47	0.00
370.66	114.69
370.86	220.01
371.06	231.71
371.25	180.22
371.45	217.67
371.65	294.91
371.84	166.18
372.04	250.44
372.24	168.52
372.44	234.05
372.63	227.03
372.83	222.35
373.03	205.97
373.22	210.65
373.42	191.92
373.62	283.20
373.81	271.50
374.01	339.38
374.21	339.38
374.40	297.25
374.60	315.97
374.79	285.55
374.99	191.92
375.19	290.23
375.38	308.95
375.58	318.31
375.78	255.12
375.97	241.08
376.17	334.70
376.37	322.99
376.56	224.69
376.76	255.12
376.95	163.84
377.15	322.99
377.35	308.95
377.54	294.91
377.74	290.23
377.93	257.46
378.13	250.44
378.33	367.46
378.52	285.55
378.72	262.14
378.91	308.95
379.11	337.04
379.31	280.86
379.50	236.39
379.70	299.59
379.89	292.57
380.09	273.84
380.28	266.82
380.48	297.25
380.68	327.68
380.87	217.67
381.07	278.52
381.26	400.23
381.46	290.23
381.65	308.95
381.85	341.72
382.04	250.44
382.24	318.31
382.43	290.23
382.63	339.38
382.83	374.49
383.02	404.91
383.22	330.02
383.41	184.90
383.61	313.63
383.80	325.33
384.00	294.91
384.19	304.27
384.39	353.42
384.58	266.82
384.78	369.80
384.97	358.10
385.17	294.91
385.36	290.23
385.56	348.74
385.75	337.04
385.95	332.36
386.14	381.51
386.34	320.65
386.53	390.87
386.72	360.44
386.92	402.57
387.11	381.51
387.31	435.34
387.50	320.65
387.70	369.80
387.89	383.85
388.09	341.72
388.28	381.51
388.48	353.42
388.67	397.89
388.86	358.10
389.06	390.87
389.25	367.46
389.45	374.49
389.64	374.49
389.84	402.57
390.03	348.74
390.22	545.34
390.42	421.30
390.61	421.30
390.81	344.06
391.00	454.06
391.19	433.00
391.39	428.32
391.58	531.30
391.78	393.21
391.97	444.70
392.16	425.98
392.36	437.68
392.55	477.47
392.75	489.17
392.94	418.96
393.13	479.81
393.33	454.06
393.52	456.40
393.71	486.83
393.91	526.62
394.10	437.68
394.29	507.90
394.49	496.19
394.68	568.75
394.88	491.51
395.07	479.81
395.26	524.28
395.46	610.88
395.65	545.34
395.84	496.19
396.04	568.75
396.23	589.82
396.42	571.09
396.62	634.29
396.81	648.33
397.00	550.03
397.19	681.10
397.39	599.18
397.58	655.35
397.77	538.32
397.97	627.26
398.16	655.35
398.35	706.84
398.55	610.88
398.74	657.69
398.93	676.41
399.12	685.78
399.32	699.82
399.51	660.03
399.70	737.27
399.90	681.10
400.09	664.71
400.28	720.88
400.47	704.50
400.67	800.46
400.86	823.87
401.05	746.63
401.24	826.21
401.44	786.42
401.63	826.21
401.82	791.10
402.01	812.17
402.21	880.04
402.40	816.85
402.59	868.34
402.78	816.85
402.97	835.57
403.17	868.34
403.36	807.48
403.55	938.55
403.74	896.43
403.93	950.26
404.13	973.66
404.32	1029.84
404.51	1036.86
404.70	971.32
404.89	980.68
405.09	1041.54
405.28	1067.28
405.47	954.94
405.66	1018.13
405.85	1036.86
406.05	971.32
406.24	1046.22
406.43	1022.81
406.62	1156.22
406.81	1102.39
407.00	1142.18
407.20	1071.97
407.39	1146.86
407.58	1217.08
407.77	1200.69
407.96	1240.48
408.15	1238.14
408.34	1252.19
408.54	1252.19
408.73	1219.42
408.92	1238.14
409.11	1306.02
409.30	1301.34
409.49	1383.26
409.68	1334.11
409.87	1401.98
410.07	1383.26
410.26	1441.77
410.45	1488.58
410.64	1455.81
410.83	1509.65
411.02	1563.48
411.21	1556.46
411.40	1624.33
411.59	1577.52
411.78	1542.41
411.98	1500.28
412.17	1621.99
412.36	1596.25
412.55	1680.50
412.74	1699.23
412.93	1629.01
413.12	1666.46
413.31	1682.85
413.50	1696.89
413.69	1830.30
413.88	1923.92
414.07	1832.64
414.26	1888.81
414.45	1881.79
414.64	1879.45
414.83	1963.71
415.02	2045.63
415.22	1944.99
415.41	2010.52
415.60	1949.67
415.79	2064.35
415.98	2157.97
416.17	2125.21
416.36	2066.69
416.55	2132.23
416.74	2104.14
416.93	2141.59
417.12	2235.21
417.31	2195.42
417.50	2239.89
417.69	2228.19
417.88	2303.09
418.07	2387.35
418.26	2326.49
418.45	2422.45
418.64	2553.52
418.83	2270.32
419.02	2401.39
419.21	2396.71
419.39	2450.54
419.58	2469.27
419.77	2476.29
419.96	2504.37
420.15	2511.39
420.34	2553.52
420.53	2544.16
420.72	2532.46
420.91	2593.31
421.10	2558.21
421.29	2661.19
421.48	2679.91
421.67	2686.94
421.86	2722.04
422.05	2778.22
422.24	2773.53
422.43	2801.62
422.61	2750.13
422.80	2789.92
422.99	2754.81
423.18	2679.91
423.37	2850.77
423.56	2715.02
423.75	2803.96
423.94	2810.98
424.13	2752.47
424.32	2803.96
424.50	2888.22
424.69	2796.94
424.88	2876.52
425.07	2803.96
425.26	2705.66
425.45	2738.43
425.64	2881.20
425.83	2850.77
426.01	2993.55
426.20	2925.67
426.39	2883.54
426.58	2806.30
426.77	2874.18
426.96	3019.29
427.15	2909.29
427.33	2937.37
427.52	2928.01
427.71	3075.46
427.90	2951.42
428.09	2981.84
428.28	3052.06
428.46	3077.80
428.65	3077.80
428.84	3204.19
429.03	3045.04
429.22	3016.95
429.40	3075.46
429.59	3145.68
429.78	3042.70
429.97	3019.29
430.16	3166.74
430.34	3213.56
430.53	3169.09
430.72	3155.04
430.91	3131.64
431.10	3272.07
431.28	3386.76
431.47	3356.33
431.66	3456.97
431.85	3295.47
432.03	3407.82
432.22	3363.35
432.41	3442.93
432.60	3428.88
432.79	3585.70
432.97	3592.72
433.16	3513.14
433.35	3375.05
433.54	3508.46
433.72	3574.00
433.91	3449.95
434.10	3449.95
434.28	3534.21
434.47	3597.40
434.66	3679.32
434.85	3655.92
435.03	3665.28
435.22	3754.22
435.41	3997.64
435.59	4007.00
435.78	3918.06
435.97	3854.86
436.16	3779.97
436.34	3742.52
436.53	3826.78
436.72	3847.84
436.90	3691.02
437.09	3786.99
437.28	3691.02
437.46	3754.22
437.65	3794.01
437.84	3889.97
438.02	3934.44
438.21	3887.63
438.40	3794.01
438.58	4044.45
438.77	3976.57
438.96	4011.68
439.14	4140.41
439.33	3976.57
439.52	3997.64
439.70	4159.13
439.89	4093.60
440.08	4266.80
440.26	4301.90
440.45	4290.20
440.63	4285.52
440.82	4358.08
441.01	4341.69
441.19	4444.68
441.38	4463.40
441.57	4461.06
441.75	4414.25
441.94	4641.28
442.12	4631.92
442.31	4643.62
442.50	4535.96
442.68	4475.10
442.87	4631.92
443.05	4624.90
443.24	4702.14
443.43	4716.18
443.61	4657.67
443.80	4844.91
443.98	4802.78
444.17	4533.62
444.35	4786.40
444.54	4858.95
444.73	4784.06
444.91	4873.00
445.10	4683.41
445.28	4688.09
445.47	4634.26
445.65	4713.84
445.84	4777.03
446.02	4826.18
446.21	4772.35
446.39	4809.80
446.58	4837.89
446.77	4837.89
446.95	4732.56
447.14	4858.95
447.32	4952.57
447.51	4807.46
447.69	4816.82
447.88	4809.80
448.06	4922.15
448.25	4924.49
448.43	4875.34
448.62	4884.70
448.80	4999.38
448.99	4994.70
449.17	5053.22
449.36	4854.27
449.54	5130.45
449.73	5041.51
449.91	5135.14
450.10	5100.03
450.28	5324.72
450.46	5174.92
450.65	5181.95
450.83	5055.56
451.02	5228.76
451.20	5240.46
451.39	5156.20
451.57	5275.57
451.76	5322.38
451.94	5320.04
452.13	5378.55
452.31	5254.50
452.49	5268.55
452.68	5343.44
452.86	5383.23
453.05	5404.30
453.23	5355.15
453.42	5378.55
453.60	5404.30
453.78	5467.49
453.97	5341.10
454.15	5352.81
454.34	5308.34
454.52	5565.79
454.70	5617.29
454.89	5631.33
455.07	5453.45
455.26	5593.88
455.44	5708.57
455.62	5715.59
455.81	5685.16
455.99	5804.53
456.17	5694.52
456.36	5818.57
456.54	5870.06
456.73	5877.09
456.91	5973.05
457.09	5942.62
457.28	6127.52
457.46	5888.79
457.64	6005.81
457.83	5809.21
458.01	5994.11
458.19	6085.39
458.38	6085.39
458.56	6031.56
458.74	6230.51
458.93	6293.70
459.11	6190.72
459.29	6061.99
459.48	6127.52
459.66	6181.35
459.84	6218.80
460.03	6373.28
460.21	6150.93
460.39	6314.77
460.57	6256.25
460.76	6296.04
460.94	6312.42
461.12	6366.26
461.31	6333.49
461.49	6303.06
461.67	6373.28
461.85	6473.92
462.04	6448.18
462.22	6518.39
462.40	6670.53
462.59	6476.26
462.77	6700.95
462.95	6471.58
463.13	6530.09
463.32	6518.39
463.50	6806.28
463.68	6654.14
463.86	6574.56
464.05	6595.63
464.23	6623.72
464.41	6820.32
464.59	6558.18
464.78	6883.52
464.96	6771.17
465.14	6707.98
465.32	7023.95
465.50	6857.77
465.69	6822.66
465.87	6750.10
466.05	6806.28
466.23	6796.92
466.41	6897.56
466.60	6974.80
466.78	6794.58
466.96	7014.59
467.14	6977.14
467.32	6930.33
467.51	7096.50
467.69	6923.30
467.87	7143.32
468.05	7021.61
468.23	7054.37
468.41	7124.59
468.60	7112.89
468.78	7150.34
468.96	7052.03
469.14	7105.87
469.32	7281.41
469.50	7136.29
469.69	7269.70
469.87	7513.12
470.05	7543.55
470.23	7283.75
470.41	7276.73
470.59	7667.60
470.77	7358.64
470.95	7304.81
471.14	7639.51
471.32	7414.82
471.50	7791.64
471.68	7756.54
471.86	7770.58
472.04	7845.48
472.22	7861.86
472.40	7716.75
472.58	7719.09
472.77	7604.40
472.95	7903.99
473.13	8175.49
473.31	7901.65
473.49	7906.33
473.67	7920.37
473.85	7995.27
474.03	8173.15
474.21	8262.09
474.39	8360.39
474.57	8290.18
474.75	8234.00
474.93	8437.63
475.12	8446.99
475.30	8493.80
475.48	8287.84
475.66	8498.49
475.84	8472.74
476.02	8667.00
476.20	8919.78
476.38	8837.86
476.56	9144.47
476.74	8980.64
476.92	8692.75
477.10	8922.12
477.28	9116.39
477.46	9153.84
477.64	9266.18
477.82	9228.73
478.00	9596.20
478.18	9572.79
478.36	9451.08
478.54	9734.29
478.72	9542.36
478.90	9579.81
479.08	9827.91
479.26	9944.94
479.44	9949.62
479.62	9968.34
479.80	9888.76
479.98	10169.63
480.16	10090.05
480.34	10312.40
480.52	10527.73
480.70	10211.76
480.88	10403.68
481.06	10462.19
481.24	10523.05
481.41	10527.73
481.59	10906.90
481.77	10801.57
481.95	10752.42
482.13	10841.36
482.31	11068.39
482.49	11206.48
482.67	11140.95
482.85	11346.92
483.03	11578.63
483.21	11529.48
483.39	11595.01
483.57	11496.71
483.74	11887.58
483.92	11782.26
484.10	11981.20
484.28	12182.49
484.46	12390.80
484.64	12411.86
484.82	12561.66
485.00	12482.08
485.18	12746.56
485.35	12769.96
485.53	12704.43
485.71	12683.36
485.89	13067.21
486.07	12996.99
486.25	13092.96
486.43	12980.61
486.61	13233.39
486.78	13483.83
486.96	13701.50
487.14	13823.20
487.32	13626.60
487.50	13741.29
487.68	13699.16
487.85	14031.51
488.03	14293.65
488.21	14422.38
488.39	14298.33
488.57	14354.51
488.75	14661.12
488.92	15002.83
489.10	14857.72
489.28	14665.80
489.46	15124.54
489.64	15068.37
489.81	15236.89
489.99	15374.98
490.17	15185.40
490.35	15719.04
490.53	15756.49
490.70	15693.29
490.88	15845.43
491.06	15719.04
491.24	15887.56
491.41	16035.01
491.59	16191.83
491.77	16273.74
491.95	16500.78
492.13	16411.84
492.30	16496.10
492.48	16681.00
492.66	16772.28
492.84	16835.47
493.01	16835.47
493.19	17020.38
493.37	16966.54
493.54	17048.46
493.72	17376.14
493.90	17170.17
494.08	17167.83
494.25	17813.82
494.43	17708.49
494.61	17778.71
494.79	18200.01
494.96	18108.72
495.14	18190.64
495.32	18174.26
495.49	18244.48
495.67	18478.53
495.85	18710.24
496.02	18457.46
496.20	18511.30
496.38	18991.11
496.55	18939.62
496.73	19386.66
496.91	19030.90
497.09	19342.19
497.26	19363.25
497.44	19262.61
497.62	19573.90
497.79	19683.91
497.97	19405.38
498.14	19880.51
498.32	20063.07
498.50	19819.66
498.67	20201.16
498.85	20030.30
499.03	20042.01
499.20	20205.84
499.38	20367.34
499.56	20056.05
499.73	20608.42
499.91	20779.28
500.08	20992.26
500.26	20500.75
500.44	20931.41
500.61	20929.07
500.79	20732.47
500.97	21071.84
501.14	21558.67
501.32	21118.65
501.49	21500.16
501.67	21401.86
501.84	21195.89
502.02	21701.45
502.20	21542.29
502.37	21631.23
502.55	21563.36
502.72	21642.93
502.90	21937.84
503.07	21766.98
503.25	21748.26
503.43	21788.05
503.60	22188.28
503.78	22370.84
503.95	22024.44
504.13	22480.85
504.30	22424.67
504.48	22295.94
504.65	22586.17
504.83	22792.14
505.01	22885.76
505.18	22911.50
505.36	22834.27
505.53	23140.88
505.71	22953.63
505.88	23021.51
506.06	23199.39
506.23	23335.14
506.41	23391.31
506.58	23410.04
506.76	23073.00
506.93	23417.06
507.11	23433.44
507.28	23372.59
507.46	23473.23
507.63	23821.97
507.81	23803.25
507.98	23840.70
508.16	23611.32
508.33	23782.18
508.50	23988.15
508.68	24044.32
508.85	24339.23
509.03	24332.21
509.20	24622.44
509.38	24671.59
509.55	24739.46
509.73	24893.94
509.90	24926.71
510.08	24732.44
510.25	24615.41
510.42	25214.59
510.60	25296.51
510.77	24929.05
510.95	25497.80
511.12	25181.82
511.30	25191.19
511.47	25336.30
511.64	25252.04
511.82	25331.62
511.99	25612.48
512.17	25518.86
512.34	25465.03
512.51	25736.53
512.69	25996.33
512.86	26258.47
513.04	26277.19
513.21	26010.37
513.38	26246.77
513.56	25970.58
513.73	26089.95
513.90	26431.67
514.08	26457.42
514.25	26656.36
514.43	26632.96
514.60	26848.29
514.77	26794.45
514.95	26647.00
515.12	26778.07
515.29	26838.92
515.47	26937.23
515.64	26913.82
515.81	26864.67
515.99	27182.98
516.16	27229.79
516.33	27154.90
516.51	27615.98
516.68	27264.90
516.85	26937.23
517.03	27269.58
517.20	27601.94
517.37	27634.71
517.54	27751.73
517.72	27435.76
517.89	27798.54
518.06	27697.90
518.24	27896.85
518.41	27683.86
518.58	27583.21
518.75	27791.52
518.93	28121.54
519.10	28058.34
519.27	27992.81
519.45	28163.67
519.62	27917.91
519.79	28329.84
519.96	28584.96
520.14	28521.77
520.31	28505.38
520.48	28926.68
520.65	28547.51
520.83	29174.78
521.00	28669.22
521.17	28304.10
521.34	28999.24
521.52	29118.60
521.69	29165.42
521.86	29195.84
522.03	29310.53
522.20	29612.46
522.38	29355.00
522.55	29591.39
522.72	29057.75
522.89	29226.27
523.07	29567.99
523.24	30150.78
523.41	29663.95
523.58	29708.42
523.75	29455.64
523.92	29846.51
524.10	29837.15
524.27	29844.17
524.44	29759.91
524.61	30235.04
524.78	30017.37
524.96	29745.87
525.13	30457.39
525.30	30075.88
525.47	30347.39
525.64	30005.67
525.81	30487.82
525.98	30904.43
526.16	30448.03
526.33	30494.84
526.50	30866.98
526.67	30338.02
526.84	30857.62
527.01	30518.25
527.18	31180.62
527.36	31241.47
527.53	31421.69
527.70	30979.33
527.87	30925.50
528.04	30754.64
528.21	30852.94
528.38	31096.36
528.55	31248.49
528.72	31756.39
528.89	31197.00
529.07	31367.86
529.24	31393.61
529.41	31690.85
529.58	31524.68
529.75	31307.01
529.92	31351.48
530.09	31349.14
530.26	31674.47
530.43	31456.80
530.60	31688.51
530.77	31655.75
530.94	31702.56
531.11	32140.24
531.28	31669.79
531.46	31730.64
531.63	32067.68
531.80	32390.67
531.97	32133.21
532.14	32058.32
532.31	32360.25
532.48	32336.84
532.65	32046.62
532.82	32137.90
532.99	32673.88
533.16	32610.68
533.33	32620.05
533.50	32610.68
533.67	32521.74
533.84	32114.49
534.01	32528.77
534.18	32556.85
534.35	32964.10
534.52	32662.18
534.69	32889.21
534.86	32730.05
535.03	32776.86
535.20	33235.61
535.37	32669.20
535.54	33249.65
535.71	33106.88
535.88	32898.57
536.05	33017.94
536.22	33404.13
536.38	33544.56
536.55	33567.96
536.72	33149.01
536.89	32947.72
537.06	33078.79
537.23	33596.05
537.40	33212.20
537.57	33427.53
537.74	33816.06
537.91	33720.10
538.08	33825.42
538.25	33888.62
538.42	33429.87
538.59	33670.95
538.75	34029.05
538.92	33619.46
539.09	34134.37
539.26	34305.23
539.43	34073.52
539.60	34338.00
539.77	33881.60
539.94	34235.02
540.11	34085.22
540.28	34286.51
540.44	34108.63
540.61	34127.35
540.78	34270.12
540.95	34132.03
541.12	34904.41
541.29	34572.05
541.46	34904.41
541.62	34536.94
541.79	34778.02
541.96	34843.56
542.13	34363.75
542.30	34925.47
542.47	35012.07
542.63	35285.92
542.80	34934.84
542.97	35737.64
543.14	35592.53
543.31	35412.31
543.48	35517.63
543.64	35515.29
543.81	35517.63
543.98	36004.46
544.15	35639.34
544.32	35789.13
544.48	35885.09
544.65	35517.63
544.82	35232.08
544.99	35480.18
545.16	35400.60
545.32	35503.59
545.49	36449.16
545.66	36610.66
545.83	36673.85
546.00	36627.04
546.16	36552.15
546.33	36062.97
546.50	35264.85
546.67	36184.68
546.83	35512.95
547.00	35739.98
547.17	35901.48
547.34	36165.96
547.50	35995.10
547.67	36208.09
547.84	35768.07
548.00	36091.06
548.17	36407.03
548.34	36273.62
548.51	36187.02
548.67	36149.57
548.84	36184.68
549.01	35934.24
549.18	36371.92
549.34	36472.57
549.51	35945.95
549.68	36123.83
549.84	36147.23
550.01	36264.26
550.18	36318.09
550.34	36542.78
550.51	36484.27
550.68	36264.26
550.84	36292.35
551.01	36105.10
551.18	36512.36
551.34	36142.55
551.51	36535.76
551.68	36348.52
551.84	36935.99
552.01	36645.77
552.18	36605.98
552.34	36334.48
552.51	36685.56
552.68	36463.21
552.84	36680.88
553.01	36767.48
553.18	36720.66
553.34	36957.06
553.51	36521.72
553.67	36645.77
553.84	37163.03
554.01	36900.89
554.17	36582.57
554.34	37031.96
554.51	37324.52
554.67	36833.01
554.84	37179.41
555.00	36659.81
555.17	37010.89
555.33	36875.14
555.50	36928.97
555.67	37216.86
555.83	37195.79
556.00	37139.62
556.16	37338.57
556.33	37364.31
556.50	37139.62
556.66	37127.92
556.83	37214.52
556.99	37649.86
557.16	37102.17
557.32	37708.37
557.49	37284.73
557.65	36715.98
557.82	37336.23
557.98	37240.26
558.15	37708.37
558.32	37071.75
558.48	37804.33
558.65	37617.09
558.81	37371.33
558.98	37797.31
559.14	37542.19
559.31	37151.32
559.47	37516.45
559.64	37289.42
559.80	37682.62
559.97	37296.44
560.13	37406.44
560.30	37834.76
560.46	37488.36
560.63	37677.94
560.79	37525.81
560.96	38132.01
561.12	37074.09
561.29	37504.74
561.45	37872.21
561.61	37869.87
561.78	37713.05
561.94	37930.72
562.11	37881.57
562.27	37509.43
562.44	37727.10
562.60	37443.89
562.77	37649.86
562.93	37439.21
563.10	37919.02
563.26	37741.14
563.42	37851.14
563.59	37680.28
563.75	37593.68
563.92	37977.53
564.08	37787.95
564.24	37902.64
564.41	37801.99
564.57	37890.93
564.74	37736.46
564.90	37813.70
565.07	37862.85
565.23	37748.16
565.39	38162.43
565.56	38010.30
565.72	37780.93
565.88	37563.26
566.05	38101.58
566.21	38185.84
566.38	38052.43
566.54	38188.18
566.70	38506.49
566.87	38314.57
567.03	37951.79
567.19	38302.87
567.36	38071.15
567.52	38141.37
567.68	37951.79
567.85	37544.53
568.01	38106.26
568.17	37773.91
568.34	38171.80
568.50	37713.05
568.66	38211.59
568.83	38597.77
568.99	37591.34
569.15	38026.68
569.32	37921.36
569.48	37970.51
569.64	38300.53
569.81	37982.21
569.97	38188.18
570.13	37956.47
570.30	38146.05
570.46	38258.40
570.62	38127.33
570.78	37942.42
570.95	37837.10
571.11	38040.73
571.27	37556.24
571.43	37984.55
571.60	38192.86
571.76	38525.22
571.92	37895.61
572.09	38047.75
572.25	38387.13
572.41	38422.23
572.57	38054.77
572.74	38433.94
572.90	38375.42
573.06	38447.98
573.22	38092.22
573.38	38096.90
573.55	38232.65
573.71	38546.28
573.87	38384.79
574.03	37954.13
574.20	38431.60
574.36	37951.79
574.52	37993.92
574.68	37841.78
574.84	37989.24
575.01	38192.86
575.17	38169.46
575.33	38384.79
575.49	38199.88
575.65	38672.67
575.82	38649.27
575.98	38499.47
576.14	38300.53
576.30	38305.21
576.46	38167.12
576.62	38014.98
576.79	38478.41
576.95	37872.21
577.11	38447.98
577.27	38438.62
577.43	38667.99
577.59	38394.15
577.75	38815.44
577.92	38181.16
578.08	38040.73
578.24	38132.01
578.40	38820.13
578.56	38354.36
578.72	38216.27
578.88	38623.52
579.04	38672.67
579.21	38272.44
579.37	38672.67
579.53	38398.83
579.69	38356.70
579.85	38455.00
580.01	38569.69
580.17	38251.38
580.33	38204.56
580.49	38242.01
580.65	38157.75
580.82	38653.95
580.98	38321.59
581.14	38373.08
581.30	38595.43
581.46	38424.57
581.62	38019.66
581.78	38337.98
581.94	38244.35
582.10	38370.74
582.26	38625.86
582.42	38511.17
582.58	38485.43
582.74	38588.41
582.90	38543.94
583.06	38323.93
583.22	38260.74
583.38	38473.73
583.54	38752.25
583.70	38183.50
583.86	38361.38
584.02	38162.43
584.18	38883.32
584.34	38199.88
584.50	38768.63
584.66	38340.32
584.82	38354.36
584.98	38368.40
585.14	38417.55
585.30	37993.92
585.46	38478.41
585.62	37921.36
585.78	38555.64
585.94	38492.45
586.10	38515.86
586.26	38258.40
586.42	38906.73
586.58	38670.33
586.74	38459.68
586.90	38143.71
587.06	38195.20
587.22	38660.97
587.38	38440.96
587.54	38934.81
587.70	38660.97
587.86	38653.95
588.02	38562.67
588.18	38476.07
588.34	38827.15
588.49	38712.46
588.65	38637.56
588.81	38497.13
588.97	38752.25
589.13	38452.66
589.29	38518.20
589.45	38333.29
589.61	38588.41
589.77	38794.38
589.93	38754.59
590.08	39042.48
590.24	38775.66
590.40	38644.59
590.56	38983.96
590.72	38565.01
590.88	38260.74
591.04	38466.70
591.20	38838.85
591.35	38885.66
