SpectraSuite Data File
++++++++++++++++++++++++++++++++++++
Date: Fri Oct 04 11:39:34 GMT-05:00 2013
User: price-jones
Dark Spectrum Present: No
Reference Spectrum Present: No
Number of Sampled Component Spectra: 1
Spectrometers: USB2+H05261
Integration Time (usec): 100000 (USB2+H05261)
Spectra Averaged: 1 (USB2+H05261)
Boxcar Smoothing: 0 (USB2+H05261)
Correct for Electrical Dark: No (USB2+H05261)
Strobe/Lamp Enabled: No (USB2+H05261)
Correct for Detector Non-linearity: No (USB2+H05261)
Correct for Stray Light: No (USB2+H05261)
Number of Pixels in Processed Spectrum: 2048
>>>>>Begin Processed Spectral Data<<<<<
365.73	102.98
365.92	102.98
366.12	102.98
366.32	0.00
366.52	0.00
366.72	0.00
366.91	0.00
367.11	0.00
367.31	0.00
367.51	0.00
367.70	0.00
367.90	0.00
368.10	0.00
368.30	0.00
368.49	0.00
368.69	0.00
368.89	0.00
369.09	0.00
369.28	0.00
369.48	0.00
369.68	18.72
369.87	23.41
370.07	42.13
370.27	0.00
370.47	95.96
370.66	84.26
370.86	191.92
371.06	189.58
371.25	252.78
371.45	91.28
371.65	175.54
371.84	173.20
372.04	152.13
372.24	252.78
372.44	222.35
372.63	180.22
372.83	166.18
373.03	238.73
373.22	194.26
373.42	236.39
373.62	187.24
373.81	205.97
374.01	215.33
374.21	220.01
374.40	215.33
374.60	238.73
374.79	248.10
374.99	227.03
375.19	301.93
375.38	245.76
375.58	154.48
375.78	299.59
375.97	320.65
376.17	304.27
376.37	290.23
376.56	308.95
376.76	196.60
376.95	184.90
377.15	224.69
377.35	278.52
377.54	262.14
377.74	241.08
377.93	224.69
378.13	198.95
378.33	140.43
378.52	210.65
378.72	241.08
378.91	257.46
379.11	210.65
379.31	266.82
379.50	234.05
379.70	224.69
379.89	215.33
380.09	220.01
380.28	184.90
380.48	241.08
380.68	285.55
380.87	224.69
381.07	210.65
381.26	294.91
381.46	290.23
381.65	238.73
381.85	229.37
382.04	220.01
382.24	294.91
382.43	250.44
382.63	236.39
382.83	236.39
383.02	320.65
383.22	266.82
383.41	227.03
383.61	238.73
383.80	278.52
384.00	238.73
384.19	315.97
384.39	313.63
384.58	308.95
384.78	269.16
384.97	287.89
385.17	308.95
385.36	283.20
385.56	292.57
385.75	212.99
385.95	299.59
386.14	273.84
386.34	215.33
386.53	292.57
386.72	353.42
386.92	346.40
387.11	297.25
387.31	344.06
387.50	327.68
387.70	266.82
387.89	266.82
388.09	332.36
388.28	301.93
388.48	325.33
388.67	318.31
388.86	276.18
389.06	266.82
389.25	294.91
389.45	360.44
389.64	362.78
389.84	390.87
390.03	332.36
390.22	374.49
390.42	299.59
390.61	308.95
390.81	383.85
391.00	285.55
391.19	409.59
391.39	315.97
391.58	318.31
391.78	369.80
391.97	423.64
392.16	369.80
392.36	311.29
392.55	463.43
392.75	386.19
392.94	386.19
393.13	393.21
393.33	355.76
393.52	451.72
393.71	416.62
393.91	421.30
394.10	344.06
394.29	409.59
394.49	418.96
394.68	395.55
394.88	433.00
395.07	503.22
395.26	465.77
395.46	472.79
395.65	416.62
395.84	456.40
396.04	568.75
396.23	512.58
396.42	463.43
396.62	470.45
396.81	477.47
397.00	496.19
397.19	557.05
397.39	447.04
397.58	468.11
397.77	540.66
397.97	547.69
398.16	496.19
398.35	653.01
398.55	454.06
398.74	533.64
398.93	589.82
399.12	484.49
399.32	491.51
399.51	631.94
399.70	638.97
399.90	526.62
400.09	524.28
400.28	631.94
400.47	643.65
400.67	676.41
400.86	559.39
401.05	657.69
401.24	662.37
401.44	704.50
401.63	690.46
401.82	765.36
402.01	692.80
402.21	657.69
402.40	732.59
402.59	741.95
402.78	702.16
402.97	746.63
403.17	725.57
403.36	767.70
403.55	830.89
403.74	781.74
403.93	709.18
404.13	863.66
404.32	844.93
404.51	880.04
404.70	901.11
404.89	795.78
405.09	924.51
405.28	938.55
405.47	901.11
405.66	837.91
405.85	997.07
406.05	882.38
406.24	910.47
406.43	908.13
406.62	987.71
406.81	1029.84
407.00	968.98
407.20	985.37
407.39	1008.77
407.58	997.07
407.77	1025.15
407.96	1015.79
408.15	1137.50
408.34	1048.56
408.54	1144.52
408.73	1128.14
408.92	1142.18
409.11	1299.00
409.30	1163.25
409.49	1149.20
409.68	1116.44
409.87	1261.55
410.07	1196.01
410.26	1221.76
410.45	1135.16
410.64	1238.14
410.83	1263.89
411.02	1345.81
411.21	1394.96
411.40	1397.30
411.59	1458.15
411.78	1348.15
411.98	1383.26
412.17	1427.73
412.36	1376.24
412.55	1502.62
412.74	1467.52
412.93	1540.07
413.12	1547.09
413.31	1638.38
413.50	1612.63
413.69	1607.95
413.88	1654.76
414.07	1654.76
414.26	1624.33
414.45	1687.53
414.64	1734.34
414.83	1591.56
415.02	1682.85
415.22	1849.02
415.41	1825.62
415.60	1820.94
415.79	1874.77
415.98	1947.33
416.17	1886.47
416.36	1886.47
416.55	1935.62
416.74	1959.03
416.93	1975.41
417.12	1968.39
417.31	2062.01
417.50	1872.43
417.69	2200.10
417.88	2193.08
418.07	2139.25
418.26	2183.72
418.45	2225.85
418.64	2363.94
418.83	2272.66
419.02	2200.10
419.21	2326.49
419.39	2253.94
419.58	2235.21
419.77	2392.03
419.96	2291.38
420.15	2368.62
420.34	2321.81
420.53	2408.41
420.72	2565.23
420.91	2445.86
421.10	2396.71
421.29	2443.52
421.48	2476.29
421.67	2520.76
421.86	2497.35
422.05	2490.33
422.24	2642.46
422.43	2532.46
422.61	2504.37
422.80	2541.82
422.99	2567.57
423.18	2476.29
423.37	2679.91
423.56	2558.21
423.75	2576.93
423.94	2605.02
424.13	2452.88
424.32	2553.52
424.50	2614.38
424.69	2700.98
424.88	2663.53
425.07	2417.77
425.26	2616.72
425.45	2609.70
425.64	2698.64
425.83	2579.27
426.01	2605.02
426.20	2619.06
426.39	2633.10
426.58	2686.94
426.77	2743.11
426.96	2722.04
427.15	2651.83
427.33	2740.77
427.52	2738.43
427.71	2712.68
427.90	2712.68
428.09	2766.51
428.28	2677.57
428.46	2836.73
428.65	2850.77
428.84	2988.86
429.03	2874.18
429.22	2780.56
429.40	2944.39
429.59	2939.71
429.78	3007.59
429.97	2792.26
430.16	2857.79
430.34	2918.65
430.53	2967.80
430.72	3038.02
430.91	2899.92
431.10	2939.71
431.28	2986.52
431.47	3033.33
431.66	3066.10
431.85	3094.19
432.03	3126.96
432.22	3206.53
432.41	3122.27
432.60	3117.59
432.79	3110.57
432.97	3063.76
433.16	3178.45
433.35	3187.81
433.54	3227.60
433.72	3215.90
433.91	3222.92
434.10	3321.22
434.28	3290.79
434.47	3445.27
434.66	3431.23
434.85	3435.91
435.03	3368.03
435.22	3576.34
435.41	3801.03
435.59	3765.92
435.78	3651.24
435.97	3449.95
436.16	3543.57
436.34	3515.48
436.53	3506.12
436.72	3501.44
436.90	3503.78
437.09	3494.42
437.28	3412.50
437.46	3510.80
437.65	3616.13
437.84	3805.71
438.02	3581.02
438.21	3585.70
438.40	3609.11
438.58	3733.15
438.77	3887.63
438.96	3772.94
439.14	3691.02
439.33	3882.95
439.52	3768.26
439.70	3754.22
439.89	4016.36
440.08	3763.58
440.26	3969.55
440.45	3971.89
440.63	3962.53
440.82	3976.57
441.01	4145.09
441.19	4023.38
441.38	4119.34
441.57	4173.18
441.75	4266.80
441.94	4227.01
442.12	4287.86
442.31	4236.37
442.50	4252.75
442.68	4294.88
442.87	4409.57
443.05	4243.39
443.24	4381.48
443.43	4414.25
443.61	4440.00
443.80	4444.68
443.98	4308.93
444.17	4421.27
444.35	4400.21
444.54	4496.17
444.73	4542.98
444.91	4470.42
445.10	4585.11
445.28	4489.15
445.47	4381.48
445.65	4456.38
445.84	4627.24
446.02	4528.94
446.21	4397.87
446.39	4528.94
446.58	4606.17
446.77	4535.96
446.95	4479.79
447.14	4425.95
447.32	4592.13
447.51	4524.26
447.69	4468.08
447.88	4634.26
448.06	4603.83
448.25	4587.45
448.43	4702.14
448.62	4505.53
448.80	4641.28
448.99	4578.09
449.17	4828.53
449.36	4620.22
449.54	4767.67
449.73	4669.37
449.91	4753.63
450.10	4669.37
450.28	4901.08
450.46	4877.68
450.65	4875.34
450.83	5011.09
451.02	4947.89
451.20	5018.11
451.39	5004.07
451.57	4877.68
451.76	4908.10
451.94	4809.80
452.13	5004.07
452.31	5050.88
452.49	4873.00
452.68	5076.62
452.86	5081.30
453.05	5165.56
453.23	5341.10
453.42	5088.32
453.60	5083.64
453.78	4999.38
453.97	5053.22
454.15	5146.84
454.34	5011.09
454.52	5100.03
454.70	5156.20
454.89	5334.08
455.07	5291.95
455.26	5308.34
455.44	5437.06
455.62	5296.63
455.81	5383.23
455.99	5315.36
456.17	5397.28
456.36	5247.48
456.54	5462.81
456.73	5493.24
456.91	5533.03
457.09	5643.03
457.28	5589.20
457.46	5504.94
457.64	5565.79
457.83	5488.56
458.01	5577.50
458.19	5746.02
458.38	5624.31
458.56	5738.99
458.74	5533.03
458.93	5666.44
459.11	5626.65
459.29	5788.14
459.48	5664.10
459.66	5863.04
459.84	5811.55
460.03	5898.15
460.21	5795.17
460.39	5823.25
460.57	5851.34
460.76	5837.30
460.94	5973.05
461.12	5818.57
461.31	5881.77
461.49	6029.22
461.67	5928.58
461.85	6113.48
462.04	6171.99
462.22	6106.46
462.40	6010.50
462.59	6092.41
462.77	6111.14
462.95	6225.82
463.13	6157.95
463.32	6410.73
463.50	6265.61
463.68	6164.97
463.86	6277.32
464.05	6132.20
464.23	6413.07
464.41	6282.00
464.59	6277.32
464.78	6530.09
464.96	6366.26
465.14	6282.00
465.32	6413.07
465.50	6553.50
465.69	6307.74
465.87	6363.92
466.05	6384.98
466.23	6384.98
466.41	6623.72
466.60	6602.65
466.78	6523.07
466.96	6427.11
467.14	6312.42
467.32	6628.40
467.51	6590.95
467.69	6700.95
467.87	6572.22
468.05	6633.08
468.23	6516.05
468.41	6689.25
468.60	6614.35
468.78	6803.94
468.96	6745.42
469.14	6876.49
469.32	6874.15
469.50	6675.21
469.69	6832.02
469.87	6864.79
470.05	6867.13
470.23	6731.38
470.41	7047.35
470.59	7009.90
470.77	7096.50
470.95	7105.87
471.14	6967.77
471.32	6944.37
471.50	7339.92
471.68	7138.63
471.86	7265.02
472.04	7325.88
472.22	7510.78
472.40	7037.99
472.58	7405.46
472.77	7363.33
472.95	7410.14
473.13	7492.05
473.31	7573.97
473.49	7424.18
473.67	7517.80
473.85	7517.80
474.03	7609.08
474.21	7719.09
474.39	7939.10
474.57	7768.24
474.75	7932.08
474.93	7817.39
475.12	8002.29
475.30	7726.11
475.48	7854.84
475.66	8013.99
475.84	7918.03
476.02	8177.83
476.20	8098.25
476.38	8273.79
476.56	8336.99
476.74	8184.85
476.92	8210.60
477.10	8418.91
477.28	8477.42
477.46	8402.52
477.64	8540.61
477.82	8713.81
478.00	8812.12
478.18	8894.04
478.36	8774.67
478.54	8830.84
478.72	8849.57
478.90	9195.96
479.08	9217.03
479.26	9235.75
479.44	9249.80
479.62	9495.55
479.80	9303.63
479.98	9556.41
480.16	9554.07
480.34	9446.40
480.52	9760.03
480.70	9848.97
480.88	9788.12
481.06	9666.41
481.24	9788.12
481.41	9825.57
481.59	10017.49
481.77	10160.27
481.95	10237.50
482.13	10293.68
482.31	10286.65
482.49	10413.04
482.67	10649.44
482.85	10670.50
483.03	10736.04
483.21	10829.66
483.39	10782.85
483.57	10939.66
483.74	11005.20
483.92	10970.09
484.10	11049.67
484.28	11398.41
484.46	11485.01
484.64	11365.64
484.82	11442.88
485.00	11463.94
485.18	11606.72
485.35	11779.92
485.53	11875.88
485.71	12119.29
485.89	12409.52
486.07	12238.66
486.25	12074.82
486.43	12334.62
486.61	12334.62
486.78	12524.21
486.96	12666.98
487.14	12821.45
487.32	12627.19
487.50	12849.54
487.68	12996.99
487.85	13172.54
488.03	13308.29
488.21	13652.34
488.39	13549.36
488.57	13757.67
488.75	13668.73
488.92	13769.37
489.10	13802.14
489.28	13870.01
489.46	14040.87
489.64	14078.32
489.81	14281.95
489.99	14232.80
490.17	14295.99
490.35	14642.39
490.53	14338.12
490.70	14490.26
490.88	14822.61
491.06	14972.41
491.24	15105.82
491.41	15166.67
491.59	15145.61
491.77	15171.35
491.95	15438.17
492.13	15592.65
492.30	15702.65
492.48	15492.01
492.66	15744.78
492.84	15695.63
493.01	16121.61
493.19	15861.81
493.37	16091.18
493.54	16189.49
493.72	16091.18
493.90	16086.50
494.08	16374.39
494.25	16849.52
494.43	16446.94
494.61	17057.82
494.79	16879.94
494.96	17001.65
495.14	16816.75
495.32	17034.42
495.49	17308.26
495.67	17413.59
495.85	17406.56
496.02	17565.72
496.20	17759.98
496.38	17530.61
496.55	17612.53
496.73	18111.07
496.91	17862.97
497.09	18043.19
497.26	18108.72
497.44	18099.36
497.62	18270.22
497.79	18391.93
497.97	18457.46
498.14	18544.06
498.32	18658.75
498.50	18590.88
498.67	18944.30
498.85	18948.98
499.03	18785.14
499.20	18939.62
499.38	19150.26
499.56	19187.71
499.73	19152.60
499.91	19220.48
500.08	19506.02
500.26	19351.55
500.44	19428.79
500.61	19697.95
500.79	19515.39
500.97	19843.06
501.14	20325.21
501.32	19520.07
501.49	19824.34
501.67	19899.23
501.84	20346.28
502.02	20365.00
502.20	20102.86
502.37	20278.40
502.55	20538.20
502.72	20566.29
502.90	20287.76
503.07	20271.38
503.25	20594.37
503.43	20521.82
503.60	20737.15
503.78	20678.63
503.95	20849.49
504.13	20847.15
504.30	20805.02
504.48	20812.04
504.65	21003.97
504.83	21240.36
505.01	21095.25
505.18	21638.25
505.36	21469.73
505.53	21448.67
505.71	21535.27
505.88	21724.85
506.06	21549.31
506.23	21678.04
506.41	21958.91
506.58	22043.17
506.76	21806.77
506.93	22059.55
507.11	21881.67
507.28	21907.41
507.46	22169.55
507.63	22272.54
507.81	22405.95
507.98	22139.13
508.16	22637.66
508.33	22377.86
508.50	22361.48
508.68	22609.58
508.85	22955.97
509.03	22520.63
509.20	22834.27
509.38	23232.16
509.55	22803.84
509.73	23241.52
509.90	23250.88
510.08	23377.27
510.25	23248.54
510.42	23393.65
510.60	23243.86
510.77	24002.19
510.95	23344.50
511.12	23552.81
511.30	23641.75
511.47	24009.22
511.64	24004.53
511.82	24093.47
511.99	23920.28
512.17	24088.79
512.34	24025.60
512.51	24147.31
512.69	24594.35
512.86	24367.32
513.04	24372.00
513.21	24608.39
513.38	24456.26
513.56	24507.75
513.73	24840.11
513.90	24699.67
514.08	24599.03
514.25	25130.33
514.43	25088.20
514.60	25083.52
514.77	25092.88
514.95	25340.98
515.12	24840.11
515.29	25228.63
515.47	25694.40
515.64	25635.89
515.81	25287.15
515.99	25511.84
516.16	25671.00
516.33	25713.13
516.51	25635.89
516.68	25308.21
516.85	25404.17
517.03	26031.44
517.20	26033.78
517.37	25893.35
517.54	26129.74
517.72	26015.05
517.89	25766.96
518.06	25785.68
518.24	26342.73
518.41	25937.82
518.58	26295.92
518.75	26125.06
518.93	26473.80
519.10	26209.32
519.27	26361.45
519.45	26387.20
519.62	26441.03
519.79	26630.62
519.96	26515.93
520.14	26462.10
520.31	26801.47
520.48	27042.55
520.65	27037.87
520.83	27192.34
521.00	26972.33
521.17	26862.33
521.34	26707.85
521.52	27232.13
521.69	27468.53
521.86	27644.07
522.03	27407.67
522.20	27695.56
522.38	27662.79
522.55	27917.91
522.72	27379.59
522.89	27630.02
523.07	28091.11
523.24	27983.44
523.41	27936.63
523.58	27812.59
523.75	28102.81
523.92	27543.42
524.10	28023.23
524.27	28411.76
524.44	28231.54
524.61	28371.97
524.78	28517.09
524.96	28596.67
525.13	28425.81
525.30	28236.22
525.47	28444.53
525.64	28233.88
525.81	28613.05
525.98	28861.15
526.16	28615.39
526.33	29041.37
526.50	28709.01
526.67	28556.88
526.84	28919.66
527.01	29242.65
527.18	29174.78
527.36	29172.44
527.53	29268.40
527.70	29331.59
527.87	29359.68
528.04	29177.12
528.21	29434.58
528.38	29130.31
528.55	29298.83
528.72	29413.51
528.89	29883.96
529.07	29584.37
529.24	29369.04
529.41	29649.91
529.58	29408.83
529.75	29542.24
529.92	29956.52
530.09	29600.76
530.26	29832.47
530.43	30520.59
530.60	29734.17
530.77	29916.73
530.94	29694.38
531.11	29921.41
531.28	29612.46
531.46	30293.55
531.63	30328.66
531.80	30150.78
531.97	30696.13
532.14	30431.65
532.31	30426.96
532.48	31016.78
532.65	30307.60
532.82	30183.55
532.99	30637.61
533.16	30874.01
533.33	30487.82
533.50	30998.06
533.67	30939.54
533.84	30728.89
534.01	30586.12
534.18	30850.60
534.35	31016.78
534.52	30855.28
534.69	31164.23
534.86	30904.43
535.03	30979.33
535.20	31281.26
535.37	31030.82
535.54	31145.51
535.71	31197.00
535.88	31199.34
536.05	31180.62
536.22	31414.67
536.38	31447.44
536.55	31475.52
536.72	31431.05
536.89	31236.79
537.06	31496.59
537.23	31674.47
537.40	31662.77
537.57	31828.95
537.74	31672.13
537.91	32030.23
538.08	31622.98
538.25	31871.07
538.42	31950.65
538.59	31814.90
538.75	31632.34
538.92	31758.73
539.09	32135.56
539.26	31967.04
539.43	32053.64
539.60	32444.51
539.77	32060.66
539.94	32479.61
540.11	32400.04
540.28	32264.28
540.44	32292.37
540.61	32488.98
540.78	32655.15
540.95	32594.30
541.12	33048.36
541.29	32900.91
541.46	33074.11
541.62	32748.78
541.79	32814.31
541.96	32776.86
542.13	32903.25
542.30	32943.04
542.47	32992.19
542.63	33076.45
542.80	33057.73
542.97	33502.43
543.14	33778.61
543.31	33401.79
543.48	33216.88
543.64	33439.23
543.81	33813.72
543.98	33493.07
544.15	33373.70
544.32	33797.34
544.48	33539.88
544.65	33408.81
544.82	33404.13
544.99	33642.86
545.16	33500.09
545.32	33490.73
545.49	34232.68
545.66	34948.88
545.83	34401.19
546.00	34485.45
546.16	33984.58
546.33	33553.92
546.50	33453.28
546.67	34078.20
546.83	33610.09
547.00	33802.02
547.17	34005.64
547.34	33951.81
547.50	34075.86
547.67	34501.84
547.84	33972.88
548.00	34211.61
548.17	34113.31
548.34	34117.99
548.51	34103.95
548.67	34183.52
548.84	34232.68
549.01	34024.37
549.18	33771.59
549.34	34281.83
549.51	34286.51
549.68	34405.88
549.84	34333.32
550.01	34253.74
550.18	33844.15
550.34	34064.16
550.51	34766.32
550.68	34724.19
550.84	34312.25
551.01	34462.05
551.18	34401.19
551.34	33949.47
551.51	34373.11
551.68	34455.03
551.84	34749.93
552.01	34726.53
552.18	34572.05
552.34	34410.56
552.51	34536.94
552.68	34391.83
552.84	34188.21
553.01	34597.80
553.18	34660.99
553.34	34735.89
553.51	34759.30
553.67	34991.01
553.84	34909.09
554.01	34939.52
554.17	35101.01
554.34	34799.08
554.51	34958.24
554.67	34902.07
554.84	34731.21
555.00	35096.33
555.17	34965.26
555.33	34866.96
555.50	34808.45
555.67	34981.65
555.83	35211.02
556.00	35028.46
556.16	35175.91
556.33	35171.23
556.50	34892.71
556.66	35182.93
556.83	35101.01
556.99	35601.89
557.16	35274.21
557.32	35744.66
557.49	35005.05
557.65	35302.30
557.82	35044.84
557.98	35002.71
558.15	35185.27
558.32	35332.73
558.48	35213.36
558.65	35260.17
558.81	35295.28
558.98	35262.51
559.14	35381.88
559.31	35459.12
559.47	35370.18
559.64	35281.24
559.80	35576.14
559.97	35243.79
560.13	34962.92
560.30	35323.36
560.46	35339.75
560.63	35512.95
560.79	35882.75
560.96	35611.25
561.12	35328.05
561.29	35262.51
561.45	35583.16
561.61	35768.07
561.78	35564.44
561.94	35349.11
562.11	35718.92
562.27	35456.78
562.44	35798.49
562.60	35487.20
562.77	35646.36
562.93	35353.79
563.10	35658.06
563.26	35241.45
563.42	35805.52
563.59	35622.95
563.75	35704.87
563.92	35917.86
564.08	35697.85
564.24	35220.38
564.41	35445.07
564.57	35693.17
564.74	35440.39
564.90	36046.59
565.07	35683.81
565.23	36346.18
565.39	35896.80
565.56	35318.68
565.72	35393.58
565.88	35782.11
566.05	35227.40
566.21	35498.91
566.38	35868.71
566.54	35779.77
566.70	35826.58
566.87	36130.85
567.03	35639.34
567.19	36254.90
567.36	35700.19
567.52	35761.05
567.68	36175.32
567.85	35285.92
568.01	35910.84
568.17	35824.24
568.34	35831.26
568.50	35971.69
568.66	36109.78
568.83	36224.47
568.99	36062.97
569.15	36013.82
569.32	35824.24
569.48	35648.70
569.64	36114.47
569.81	36219.79
569.97	35758.70
570.13	35531.67
570.30	36112.13
570.46	36051.27
570.62	35604.23
570.78	35861.69
570.95	35941.27
571.11	36055.95
571.27	36093.40
571.43	35871.05
571.60	35854.67
571.76	36252.56
571.92	35622.95
572.09	36102.76
572.25	35974.03
572.41	35866.37
572.57	36238.51
572.74	36414.05
572.90	35894.46
573.06	36154.26
573.22	36074.68
573.38	36224.47
573.55	36390.65
573.71	36210.43
573.87	35936.59
574.03	35852.33
574.20	36226.81
574.36	36313.41
574.52	35744.66
574.68	36025.53
574.84	36273.62
575.01	36079.36
575.17	36282.98
575.33	36189.36
575.49	36107.44
575.65	36596.62
575.82	36027.87
575.98	36196.38
576.14	36016.16
576.30	35803.17
576.46	36102.76
576.62	36077.02
576.79	36531.08
576.95	36130.85
577.11	36325.11
577.27	36126.17
577.43	36273.62
577.59	36318.09
577.75	35859.35
577.92	36439.80
578.08	35754.02
578.24	35644.02
578.40	35667.42
578.56	36243.20
578.72	36175.32
578.88	36376.61
579.04	36444.48
579.21	36222.13
579.37	35988.08
579.53	36772.16
579.69	35817.22
579.85	35732.96
580.01	36018.50
580.17	36421.08
580.33	35936.59
580.49	35840.62
580.65	36224.47
580.82	36477.25
580.98	36109.78
581.14	36205.75
581.30	36477.25
581.46	36147.23
581.62	35964.67
581.78	35899.14
581.94	36175.32
582.10	36191.70
582.26	36182.34
582.42	35955.31
582.58	36339.16
582.74	36280.64
582.90	36437.46
583.06	36865.78
583.22	35978.72
583.38	36112.13
583.54	36142.55
583.70	36369.58
583.86	36112.13
584.02	36072.34
584.18	36238.51
584.34	36371.92
584.50	36430.44
584.66	36409.37
584.82	36308.73
584.98	36194.04
585.14	36215.11
585.30	35721.26
585.46	35688.49
585.62	36112.13
585.78	36077.02
585.94	35962.33
586.10	36584.91
586.26	36252.56
586.42	36165.96
586.58	36598.96
586.74	36620.02
586.90	35950.63
587.06	36147.23
587.22	36343.84
587.38	36247.88
587.54	36439.80
587.70	36690.24
587.86	36357.88
588.02	36514.70
588.18	36467.89
588.34	36481.93
588.49	36290.01
588.65	36107.44
588.81	36481.93
588.97	36708.96
589.13	36088.72
589.29	36275.96
589.45	36416.40
589.61	36339.16
589.77	36664.49
589.93	36723.01
590.08	36704.28
590.24	36622.36
590.40	36350.86
590.56	36519.38
590.72	36503.00
590.88	36456.18
591.04	36488.95
591.20	36367.24
591.35	36830.67
591.51	37282.39
