SpectraSuite Data File
++++++++++++++++++++++++++++++++++++
Date: Fri Oct 04 11:39:23 GMT-05:00 2013
User: price-jones
Dark Spectrum Present: No
Reference Spectrum Present: No
Number of Sampled Component Spectra: 1
Spectrometers: USB2+H05261
Integration Time (usec): 100000 (USB2+H05261)
Spectra Averaged: 1 (USB2+H05261)
Boxcar Smoothing: 0 (USB2+H05261)
Correct for Electrical Dark: No (USB2+H05261)
Strobe/Lamp Enabled: No (USB2+H05261)
Correct for Detector Non-linearity: No (USB2+H05261)
Correct for Stray Light: No (USB2+H05261)
Number of Pixels in Processed Spectrum: 2048
>>>>>Begin Processed Spectral Data<<<<<
365.73	51.49
365.92	51.49
366.12	51.49
366.32	0.00
366.52	0.00
366.72	2.34
366.91	0.00
367.11	0.00
367.31	0.00
367.51	0.00
367.70	0.00
367.90	0.00
368.10	0.00
368.30	0.00
368.49	0.00
368.69	0.00
368.89	0.00
369.09	0.00
369.28	0.00
369.48	0.00
369.68	37.45
369.87	30.43
370.07	0.00
370.27	77.24
370.47	53.83
370.66	210.65
370.86	159.16
371.06	276.18
371.25	262.14
371.45	245.76
371.65	269.16
371.84	231.71
372.04	259.80
372.24	271.50
372.44	255.12
372.63	269.16
372.83	280.86
373.03	365.12
373.22	322.99
373.42	294.91
373.62	297.25
373.81	365.12
374.01	388.53
374.21	449.38
374.40	360.44
374.60	442.36
374.79	402.57
374.99	402.57
375.19	341.72
375.38	372.15
375.58	374.49
375.78	435.34
375.97	341.72
376.17	421.30
376.37	442.36
376.56	411.93
376.76	367.46
376.95	390.87
377.15	416.62
377.35	421.30
377.54	388.53
377.74	374.49
377.93	334.70
378.13	409.59
378.33	407.25
378.52	376.83
378.72	418.96
378.91	423.64
379.11	393.21
379.31	449.38
379.50	351.08
379.70	496.19
379.89	571.09
380.09	414.27
380.28	379.17
380.48	531.30
380.68	451.72
380.87	416.62
381.07	454.06
381.26	564.07
381.46	465.77
381.65	477.47
381.85	383.85
382.04	486.83
382.24	418.96
382.43	470.45
382.63	463.43
382.83	437.68
383.02	447.04
383.22	500.87
383.41	507.90
383.61	498.53
383.80	573.43
384.00	528.96
384.19	519.60
384.39	449.38
384.58	454.06
384.78	547.69
384.97	517.26
385.17	475.13
385.36	477.47
385.56	526.62
385.75	482.15
385.95	545.34
386.14	510.24
386.34	620.24
386.53	557.05
386.72	535.98
386.92	528.96
387.11	503.22
387.31	566.41
387.50	573.43
387.70	592.16
387.89	631.94
388.09	463.43
388.28	545.34
388.48	575.77
388.67	653.01
388.86	592.16
389.06	660.03
389.25	573.43
389.45	585.13
389.64	571.09
389.84	589.82
390.03	624.92
390.22	613.22
390.42	559.39
390.61	622.58
390.81	615.56
391.00	688.12
391.19	695.14
391.39	615.56
391.58	727.91
391.78	664.71
391.97	631.94
392.16	711.52
392.36	725.57
392.55	648.33
392.75	763.01
392.94	662.37
393.13	655.35
393.33	624.92
393.52	713.86
393.71	702.16
393.91	851.96
394.10	755.99
394.29	779.40
394.49	763.01
394.68	800.46
394.88	723.23
395.07	854.30
395.26	847.27
395.46	809.83
395.65	800.46
395.84	842.59
396.04	903.45
396.23	875.36
396.42	765.36
396.62	816.85
396.81	901.11
397.00	781.74
397.19	835.57
397.39	828.55
397.58	882.38
397.77	905.79
397.97	880.04
398.16	884.72
398.35	945.58
398.55	910.47
398.74	868.34
398.93	994.73
399.12	880.04
399.32	947.92
399.51	950.26
399.70	992.39
399.90	924.51
400.09	1025.15
400.28	973.66
400.47	1039.20
400.67	1064.94
400.86	1039.20
401.05	1135.16
401.24	1130.48
401.44	1069.62
401.63	1081.33
401.82	1128.14
402.01	1041.54
402.21	1188.99
402.40	1179.63
402.59	1123.46
402.78	1179.63
402.97	1142.18
403.17	1186.65
403.36	1160.91
403.55	1156.22
403.74	1266.23
403.93	1266.23
404.13	1331.76
404.32	1317.72
404.51	1310.70
404.70	1350.49
404.89	1289.64
405.09	1406.66
405.28	1390.28
405.47	1348.15
405.66	1357.51
405.85	1507.30
406.05	1469.86
406.24	1387.94
406.43	1462.83
406.62	1474.54
406.81	1418.36
407.00	1497.94
407.20	1371.55
407.39	1444.11
407.58	1516.67
407.77	1549.43
407.96	1589.22
408.15	1598.59
408.34	1565.82
408.54	1533.05
408.73	1605.61
408.92	1626.67
409.11	1666.46
409.30	1549.43
409.49	1657.10
409.68	1743.70
409.87	1687.53
410.07	1743.70
410.26	1846.68
410.45	1816.26
410.64	1694.55
410.83	1804.55
411.02	1722.63
411.21	1905.20
411.40	1844.34
411.59	1851.36
411.78	1811.57
411.98	1907.54
412.17	2071.37
412.36	1980.09
412.55	2078.40
412.74	1998.82
412.93	2118.18
413.12	2010.52
413.31	2174.36
413.50	2106.48
413.69	2221.17
413.88	2218.83
414.07	2169.68
414.26	2256.28
414.45	2179.04
414.64	2277.34
414.83	2296.07
415.02	2389.69
415.22	2469.27
415.41	2328.83
415.60	2382.67
415.79	2518.42
415.98	2459.90
416.17	2331.17
416.36	2328.83
416.55	2434.16
416.74	2516.08
416.93	2406.07
417.12	2579.27
417.31	2609.70
417.50	2668.21
417.69	2803.96
417.88	2647.15
418.07	2764.17
418.26	2670.55
418.45	2698.64
418.64	2743.11
418.83	2782.90
419.02	2787.58
419.21	2796.94
419.39	2860.13
419.58	2808.64
419.77	2815.66
419.96	2913.97
420.15	2909.29
420.34	2902.26
420.53	2932.69
420.72	2953.76
420.91	3056.74
421.10	3141.00
421.29	3152.70
421.48	3145.68
421.67	3059.08
421.86	3023.97
422.05	3080.14
422.24	3014.61
422.43	3077.80
422.61	3246.32
422.80	3169.09
422.99	3155.04
423.18	3274.41
423.37	3187.81
423.56	3143.34
423.75	3159.72
423.94	3122.27
424.13	2972.48
424.32	3084.83
424.50	3234.62
424.69	3325.90
424.88	3311.86
425.07	3283.77
425.26	3112.91
425.45	3201.85
425.64	3176.11
425.83	3171.43
426.01	3218.24
426.20	3164.40
426.39	3337.60
426.58	3253.34
426.77	3258.03
426.96	3332.92
427.15	3365.69
427.33	3316.54
427.52	3398.46
427.71	3283.77
427.90	3426.54
428.09	3405.48
428.28	3440.59
428.46	3501.44
428.65	3435.91
428.84	3480.38
429.03	3499.10
429.22	3353.99
429.40	3499.10
429.59	3578.68
429.78	3482.72
429.97	3442.93
430.16	3445.27
430.34	3634.85
430.53	3595.06
430.72	3637.19
430.91	3520.17
431.10	3658.26
431.28	3688.68
431.47	3786.99
431.66	3763.58
431.85	3831.46
432.03	3630.17
432.22	3901.67
432.41	3845.50
432.60	3983.59
432.79	3861.88
432.97	3784.65
433.16	3850.18
433.35	3960.19
433.54	3955.51
433.72	4007.00
433.91	3960.19
434.10	3990.61
434.28	3971.89
434.47	4098.28
434.66	4180.20
434.85	4086.58
435.03	4344.03
435.22	4486.81
435.41	4631.92
435.59	4559.36
435.78	4463.40
435.97	4322.97
436.16	4311.27
436.34	4201.26
436.53	4313.61
436.72	4290.20
436.90	4250.41
437.09	4320.63
437.28	4376.80
437.46	4294.88
437.65	4468.08
437.84	4458.72
438.02	4367.44
438.21	4447.02
438.40	4416.59
438.58	4531.28
438.77	4610.86
438.96	4475.10
439.14	4655.33
439.33	4664.69
439.52	4777.03
439.70	4662.35
439.89	4880.02
440.08	4765.33
440.26	4734.90
440.45	4863.63
440.63	4882.36
440.82	4851.93
441.01	4908.10
441.19	5088.32
441.38	5046.20
441.57	5132.79
441.75	5125.77
441.94	5193.65
442.12	5245.14
442.31	5212.37
442.50	5277.91
442.68	5303.65
442.87	5203.01
443.05	5352.81
443.24	5455.79
443.43	5322.38
443.61	5432.38
443.80	5476.85
443.98	5317.70
444.17	5233.44
444.35	5303.65
444.54	5544.73
444.73	5392.59
444.91	5416.00
445.10	5392.59
445.28	5500.26
445.47	5610.26
445.65	5561.11
445.84	5434.72
446.02	5657.07
446.21	5603.24
446.39	5584.52
446.58	5401.96
446.77	5579.84
446.95	5408.98
447.14	5441.75
447.32	5486.22
447.51	5760.06
447.69	5586.86
447.88	5699.20
448.06	5535.37
448.25	5607.92
448.43	5568.13
448.62	5701.54
448.80	5603.24
448.99	5825.59
449.17	5785.80
449.36	5703.89
449.54	5902.83
449.73	6087.73
449.91	5827.93
450.10	5853.68
450.28	5973.05
450.46	5907.51
450.65	5797.51
450.83	5959.00
451.02	5954.32
451.20	5949.64
451.39	6097.10
451.57	5996.45
451.76	6045.60
451.94	5989.43
452.13	6129.86
452.31	6225.82
452.49	6094.76
452.68	6122.84
452.86	6244.55
453.05	6356.90
453.23	6340.51
453.42	6244.55
453.60	5949.64
453.78	6314.77
453.97	6031.56
454.15	6251.57
454.34	6340.51
454.52	6394.34
454.70	6263.27
454.89	6436.47
455.07	6431.79
455.26	6321.79
455.44	6619.04
455.62	6384.98
455.81	6623.72
455.99	6534.78
456.17	6640.10
456.36	6604.99
456.54	6609.67
456.73	6691.59
456.91	6913.94
457.09	6806.28
457.28	7030.97
457.46	6724.36
457.64	6974.80
457.83	6712.66
458.01	6965.43
458.19	7077.78
458.38	6712.66
458.56	7070.76
458.74	6960.75
458.93	7016.93
459.11	7082.46
459.29	7059.06
459.48	6972.46
459.66	7054.37
459.84	7171.40
460.03	7307.15
460.21	7360.98
460.39	7213.53
460.57	6942.03
460.76	7234.60
460.94	7187.79
461.12	7337.58
461.31	7222.89
461.49	7314.17
461.67	7206.51
461.85	7309.49
462.04	7536.52
462.22	7644.19
462.40	7613.76
462.59	7475.67
462.77	7566.95
462.95	7403.11
463.13	7351.62
463.32	7630.15
463.50	7719.09
463.68	7756.54
463.86	7667.60
464.05	7496.74
464.23	7765.90
464.41	7726.11
464.59	7758.88
464.78	7999.95
464.96	7716.75
465.14	7639.51
465.32	7929.74
465.50	7861.86
465.69	8088.89
465.87	7730.79
466.05	7845.48
466.23	7901.65
466.41	8009.31
466.60	8046.76
466.78	7943.78
466.96	8112.30
467.14	7985.91
467.32	7747.17
467.51	8093.57
467.69	8070.17
467.87	8049.10
468.05	8105.28
468.23	8308.90
468.41	7990.59
468.60	8224.64
468.78	8287.84
468.96	8131.02
469.14	8306.56
469.32	8489.12
469.50	8035.06
469.69	8446.99
469.87	8533.59
470.05	8510.19
470.23	8734.88
470.41	8526.57
470.59	8535.93
470.77	8531.25
470.95	8547.64
471.14	8762.97
471.32	8538.27
471.50	8830.84
471.68	8779.35
471.86	9004.04
472.04	8875.31
472.22	8954.89
472.40	9036.81
472.58	9296.61
472.77	9214.69
472.95	9336.40
473.13	9275.54
473.31	9186.60
473.49	9048.51
473.67	9121.07
473.85	9217.03
474.03	9500.23
474.21	9455.76
474.39	9497.89
474.57	9666.41
474.75	9753.01
474.93	9666.41
475.12	9757.69
475.30	9905.15
475.48	9591.52
475.66	9774.08
475.84	10026.86
476.02	9989.41
476.20	9994.09
476.38	10380.28
476.56	10296.02
476.74	10340.49
476.92	10384.96
477.10	10305.38
477.28	10485.60
477.46	10469.22
477.64	10703.27
477.82	10642.42
478.00	11054.35
478.18	10789.87
478.36	11143.29
478.54	11061.37
478.72	11110.52
478.90	11063.71
479.08	11349.26
479.26	11335.21
479.44	11606.72
479.62	11611.40
479.80	11892.26
479.98	11559.91
480.16	11868.86
480.34	12018.65
480.52	12081.85
480.70	12011.63
480.88	12088.87
481.06	12280.79
481.24	12152.06
481.41	12400.16
481.59	12638.89
481.77	12596.76
481.95	12578.04
482.13	12685.70
482.31	12692.73
482.49	12961.89
482.67	13081.25
482.85	13130.41
483.03	13710.86
483.21	13668.73
483.39	13628.94
483.57	13561.06
483.74	13605.53
483.92	14047.90
484.10	13734.26
484.28	14075.98
484.46	14207.05
484.64	14616.65
484.82	14361.53
485.00	14382.59
485.18	14513.66
485.35	15009.86
485.53	14836.66
485.71	14949.00
485.89	15068.37
486.07	14855.38
486.25	15176.03
486.43	15337.53
486.61	15639.46
486.78	15812.66
486.96	15824.36
487.14	15632.44
487.32	16114.59
487.50	16025.65
487.68	16212.89
487.85	16393.11
488.03	16554.61
488.21	16732.49
488.39	16933.78
488.57	16844.84
488.75	16601.42
488.92	17366.78
489.10	17123.36
489.28	17446.35
489.46	17544.66
489.64	17729.56
489.81	17991.70
489.99	17884.03
490.17	17858.29
490.35	18246.82
490.53	18031.49
490.70	18347.46
490.88	18326.39
491.06	18614.28
491.24	18902.17
491.41	18487.89
491.59	18750.03
491.77	18806.20
491.95	19211.12
492.13	19461.55
492.30	19290.70
492.48	19241.54
492.66	19431.13
492.84	19716.67
493.01	20044.35
493.19	19861.79
493.37	19950.73
493.54	20266.70
493.72	20835.45
493.90	20149.67
494.08	20737.15
494.25	20900.98
494.43	20709.06
494.61	21231.00
494.79	21113.97
494.96	20798.00
495.14	21163.12
495.32	21179.51
495.49	21516.54
495.67	21371.43
495.85	21664.00
496.02	21827.84
496.20	21996.35
496.38	22284.24
496.55	21958.91
496.73	22558.08
496.91	22345.09
497.09	22642.34
497.26	22504.25
497.44	22740.64
497.62	22490.21
497.79	23014.49
497.97	22757.03
498.14	23351.52
498.32	23248.54
498.50	23466.21
498.67	23737.71
498.85	23683.88
499.03	23796.23
499.20	23831.33
499.38	23950.70
499.56	24088.79
499.73	24266.67
499.91	24353.27
500.08	24643.50
500.26	24285.40
500.44	24278.38
500.61	24304.12
500.79	24526.47
500.97	24886.92
501.14	25413.54
501.32	24727.76
501.49	24907.98
501.67	25029.69
501.84	24842.45
502.02	25034.37
502.20	25357.36
502.37	25387.79
502.55	25376.09
502.72	25408.86
502.90	25568.01
503.07	25441.62
503.25	25352.68
503.43	25750.57
503.60	25776.32
503.78	26015.05
503.95	26190.59
504.13	26223.36
504.30	26050.16
504.48	25902.71
504.65	26754.66
504.83	26513.59
505.01	26984.04
505.18	26780.41
505.36	27007.44
505.53	27122.13
505.71	26452.73
505.88	27115.11
506.06	26937.23
506.23	27487.25
506.41	27321.07
506.58	27651.09
506.76	27234.47
506.93	27529.38
507.11	27410.01
507.28	27819.61
507.46	27819.61
507.63	27637.05
507.81	27878.12
507.98	27917.91
508.16	27875.78
508.33	28116.86
508.50	28364.95
508.68	28542.83
508.85	28636.45
509.03	28664.54
509.20	28662.20
509.38	28879.87
509.55	28858.81
509.73	29083.50
509.90	28996.90
510.08	28493.68
510.25	29317.55
510.42	28917.32
510.60	29495.43
510.77	29614.80
510.95	29441.60
511.12	29567.99
511.30	29331.59
511.47	29682.67
511.64	29909.71
511.82	29741.19
511.99	29888.64
512.17	30642.29
512.34	30391.86
512.51	30115.67
512.69	30595.48
512.86	30628.25
513.04	30831.88
513.21	30506.54
513.38	30766.34
513.56	30817.83
513.73	30401.22
513.90	30721.87
514.08	30792.09
514.25	31147.85
514.43	31299.98
514.60	31452.12
514.77	31084.65
514.95	31173.60
515.12	31220.41
515.29	31395.95
515.47	31505.95
515.64	31644.04
515.81	31316.37
515.99	32219.81
516.16	32531.11
516.33	31957.67
516.51	32283.01
516.68	31630.00
516.85	32385.99
517.03	32201.09
517.20	32854.10
517.37	32479.61
517.54	32814.31
517.72	32432.80
517.89	32521.74
518.06	32704.31
518.24	32790.91
518.41	32788.56
518.58	32601.32
518.75	32980.49
518.93	33041.34
519.10	33174.75
519.27	33359.66
519.45	32940.70
519.62	33464.98
519.79	33134.96
519.96	33453.28
520.14	33539.88
520.31	33277.74
520.48	33420.51
520.65	33727.12
520.83	33762.23
521.00	33717.76
521.17	33834.78
521.34	33818.40
521.52	34115.65
521.69	34520.56
521.86	34448.00
522.03	34370.77
522.20	34410.56
522.38	34508.86
522.55	34265.44
522.72	34541.63
522.89	34824.83
523.07	34712.49
523.24	34649.29
523.41	34778.02
523.58	35042.50
523.75	34780.36
523.92	35243.79
524.10	35072.93
524.27	35098.67
524.44	35365.49
524.61	35372.52
524.78	35662.74
524.96	35351.45
525.13	35620.61
525.30	35723.60
525.47	35985.74
525.64	35721.26
525.81	36126.17
525.98	36072.34
526.16	35880.41
526.33	35981.06
526.50	36107.44
526.67	36084.04
526.84	36315.75
527.01	36058.29
527.18	36350.86
527.36	36311.07
527.53	36526.40
527.70	37010.89
527.87	36481.93
528.04	36531.08
528.21	37125.58
528.38	36758.11
528.55	36879.82
528.72	36786.20
528.89	36861.10
529.07	36964.08
529.24	36926.63
529.41	37350.27
529.58	36666.83
529.75	36978.12
529.92	37455.59
530.09	36816.63
530.26	37413.46
530.43	37846.46
530.60	36994.51
530.77	37593.68
530.94	37680.28
531.11	37488.36
531.28	37516.45
531.46	37258.99
531.63	37640.50
531.80	37940.08
531.97	38185.84
532.14	38199.88
532.31	37394.74
532.48	37961.15
532.65	37872.21
532.82	38089.88
532.99	38216.27
533.16	37816.04
533.33	38232.65
533.50	38522.88
533.67	38705.44
533.84	38445.64
534.01	38663.31
534.18	38281.80
534.35	38759.27
534.52	38801.40
534.69	38895.02
534.86	39201.63
535.03	38485.43
535.20	39133.76
535.37	38904.38
535.54	39040.14
535.71	38916.09
535.88	39199.29
536.05	39096.31
536.22	39482.50
536.38	39936.56
536.55	39697.83
536.72	39173.55
536.89	39143.12
537.06	39440.37
537.23	39529.31
537.40	39536.33
537.57	39452.07
537.74	39756.34
537.91	39948.26
538.08	39519.95
538.25	39328.02
538.42	39782.09
538.59	39681.44
538.75	39618.25
538.92	39543.35
539.09	39636.97
539.26	40013.80
539.43	40226.79
539.60	40137.85
539.77	40517.01
539.94	40327.43
540.11	40533.40
540.28	40194.02
540.44	40381.26
540.61	40521.69
540.78	40488.93
540.95	40947.67
541.12	40835.33
541.29	40907.88
541.46	40931.29
541.62	41010.87
541.79	41359.61
541.96	40488.93
542.13	41027.25
542.30	40774.47
542.47	41202.79
542.63	41340.88
542.80	41301.09
542.97	41867.50
543.14	42120.28
543.31	41490.68
543.48	41354.93
543.64	41448.55
543.81	41839.42
543.98	42096.88
544.15	41961.12
544.32	42234.97
544.48	41846.44
544.65	42185.82
544.82	41818.35
544.99	41399.40
545.16	41900.27
545.32	41745.80
545.49	42590.73
545.66	42873.93
545.83	43313.95
546.00	43257.78
546.16	42597.75
546.33	42469.02
546.50	41804.31
546.67	42869.25
546.83	41951.76
547.00	42384.76
547.17	42473.70
547.34	42637.54
547.50	42569.66
547.67	42866.91
547.84	42696.05
548.00	42988.62
548.17	42756.91
548.34	42733.50
548.51	43180.54
548.67	42934.79
548.84	43297.57
549.01	42920.74
549.18	42705.41
549.34	43126.71
549.51	42557.96
549.68	42923.08
549.84	42639.88
550.01	42632.86
550.18	43138.41
550.34	43346.72
550.51	43117.35
550.68	43407.58
550.84	42712.44
551.01	43531.62
551.18	42979.26
551.34	42160.07
551.51	42707.76
551.68	43239.06
551.84	43276.51
552.01	42932.45
552.18	43789.08
552.34	43367.79
552.51	43339.70
552.68	43299.91
552.84	43320.98
553.01	43587.80
553.18	43505.88
553.34	43407.58
553.51	43178.20
553.67	43945.90
553.84	43901.43
554.01	43753.97
554.17	43578.43
554.34	43885.04
554.51	43910.79
554.67	44367.20
554.84	43730.57
555.00	43983.35
555.17	43440.34
555.33	44032.50
555.50	43620.56
555.67	43606.52
555.83	43936.54
556.00	43899.09
556.16	44065.27
556.33	44067.61
556.50	43700.14
556.66	44364.85
556.83	44009.09
556.99	44308.68
557.16	44458.48
557.32	44397.62
557.49	44325.07
557.65	44154.21
557.82	44074.63
557.98	44329.75
558.15	44830.62
558.32	44474.86
558.48	44222.08
558.65	44708.91
558.81	44542.74
558.98	44563.80
559.14	44484.22
559.31	44336.77
559.47	44079.31
559.64	44561.46
559.80	44425.71
559.97	44964.03
560.13	44552.10
560.30	45010.84
560.46	44622.31
560.63	44414.01
560.79	44453.79
560.96	44608.27
561.12	45052.97
561.29	44748.70
561.45	44947.65
561.61	44720.62
561.78	44781.47
561.94	44973.39
562.11	44542.74
562.27	44772.11
562.44	44954.67
562.60	44783.81
562.77	44851.69
562.93	45118.51
563.10	45097.44
563.26	44467.84
563.42	45317.45
563.59	45067.02
563.75	45085.74
563.92	45291.71
564.08	45123.19
564.24	45045.95
564.41	44912.54
564.57	44954.67
564.74	45202.77
564.90	45022.54
565.07	44992.12
565.23	45186.38
565.39	45474.27
565.56	45462.57
565.72	45471.93
565.88	45324.47
566.05	45043.61
566.21	44755.72
566.38	44900.84
566.54	45209.79
566.70	45572.57
566.87	45525.76
567.03	45179.36
567.19	45663.85
567.36	45628.74
567.52	45434.48
567.68	45572.57
567.85	45172.34
568.01	45242.56
568.17	45134.89
568.34	45738.75
568.50	45483.63
568.66	45312.77
568.83	45343.20
568.99	45635.77
569.15	45177.02
569.32	45251.92
569.48	45366.60
569.64	45181.70
569.81	44886.79
569.97	45368.94
570.13	45570.23
570.30	45153.62
570.46	45832.37
570.62	45572.57
570.78	45123.19
570.95	45123.19
571.11	45268.30
571.27	45347.88
571.43	45411.07
571.60	45523.42
571.76	45462.57
571.92	45223.83
572.09	45715.34
572.25	45471.93
572.41	45497.67
572.57	45563.21
572.74	46183.45
572.90	45373.63
573.06	45235.53
573.22	45184.04
573.38	45773.86
573.55	45701.30
573.71	45904.93
573.87	45940.04
574.03	45563.21
574.20	45626.40
574.36	45326.81
574.52	45457.88
574.68	45380.65
574.84	46012.59
575.01	45935.35
575.17	45762.15
575.33	45853.44
575.49	45642.79
575.65	45837.05
575.82	45769.18
575.98	45490.65
576.14	46021.95
576.30	45338.52
576.46	45593.64
576.62	45818.33
576.79	45879.18
576.95	45703.64
577.11	46241.96
577.27	46136.64
577.43	45869.82
577.59	46110.89
577.75	45811.31
577.92	45708.32
578.08	45682.58
578.24	45677.90
578.40	45902.59
578.56	46146.00
578.72	46174.09
578.88	46293.46
579.04	46270.05
579.21	46031.32
579.37	45811.31
579.53	45970.46
579.69	45954.08
579.85	45815.99
580.01	45928.33
580.17	45621.72
580.33	46010.25
580.49	46206.86
580.65	45659.17
580.82	46007.91
580.98	45965.78
581.14	45872.16
581.30	46295.80
581.46	45504.70
581.62	46052.38
581.78	45462.57
581.94	46167.07
582.10	45989.19
582.26	46157.70
582.42	46188.13
582.58	46143.66
582.74	46124.94
582.90	46408.14
583.06	46089.83
583.22	45928.33
583.38	45851.09
583.54	45979.82
583.70	46019.61
583.86	46082.81
584.02	45755.13
584.18	45979.82
584.34	46127.28
584.50	46347.29
584.66	46169.41
584.82	46117.92
584.98	46143.66
585.14	46141.32
585.30	46047.70
585.46	45947.06
585.62	46146.00
585.78	46017.27
585.94	46092.17
586.10	46422.19
586.26	46113.23
586.42	46443.25
586.58	46117.92
586.74	46246.65
586.90	45918.97
587.06	46040.68
587.22	46302.82
587.38	45914.29
587.54	46066.42
587.70	46611.77
587.86	46321.54
588.02	45766.84
588.18	46583.68
588.34	46433.89
588.49	46302.82
588.65	45897.91
588.81	46052.38
588.97	46548.57
589.13	46326.22
589.29	46167.07
589.45	46574.32
589.61	46401.12
589.77	46614.11
589.93	46916.04
590.08	46808.37
590.24	46349.63
590.40	46717.09
590.56	46768.58
590.72	46637.51
590.88	46045.36
