SpectraSuite Data File
++++++++++++++++++++++++++++++++++++
Date: Fri Oct 04 11:39:23 GMT-05:00 2013
User: price-jones
Dark Spectrum Present: No
Reference Spectrum Present: No
Number of Sampled Component Spectra: 1
Spectrometers: USB2+H05261
Integration Time (usec): 100000 (USB2+H05261)
Spectra Averaged: 1 (USB2+H05261)
Boxcar Smoothing: 0 (USB2+H05261)
Correct for Electrical Dark: No (USB2+H05261)
Strobe/Lamp Enabled: No (USB2+H05261)
Correct for Detector Non-linearity: No (USB2+H05261)
Correct for Stray Light: No (USB2+H05261)
Number of Pixels in Processed Spectrum: 2048
>>>>>Begin Processed Spectral Data<<<<<
365.73	98.30
365.92	98.30
366.12	98.30
366.32	0.00
366.52	0.00
366.72	0.00
366.91	0.00
367.11	0.00
367.31	0.00
367.51	0.00
367.70	0.00
367.90	0.00
368.10	0.00
368.30	0.00
368.49	4.68
368.69	0.00
368.89	0.00
369.09	0.00
369.28	0.00
369.48	0.00
369.68	0.00
369.87	70.22
370.07	58.51
370.27	28.09
370.47	88.94
370.66	159.16
370.86	266.82
371.06	252.78
371.25	315.97
371.45	217.67
371.65	339.38
371.84	259.80
372.04	320.65
372.24	241.08
372.44	252.78
372.63	280.86
372.83	365.12
373.03	304.27
373.22	299.59
373.42	330.02
373.62	315.97
373.81	372.15
374.01	355.76
374.21	421.30
374.40	306.61
374.60	360.44
374.79	287.89
374.99	402.57
375.19	311.29
375.38	376.83
375.58	362.78
375.78	374.49
375.97	355.76
376.17	423.64
376.37	395.55
376.56	383.85
376.76	365.12
376.95	369.80
377.15	360.44
377.35	390.87
377.54	444.70
377.74	461.09
377.93	367.46
378.13	355.76
378.33	409.59
378.52	454.06
378.72	409.59
378.91	428.32
379.11	330.02
379.31	411.93
379.50	372.15
379.70	421.30
379.89	435.34
380.09	428.32
380.28	447.04
380.48	402.57
380.68	407.25
380.87	374.49
381.07	468.11
381.26	383.85
381.46	416.62
381.65	468.11
381.85	477.47
382.04	500.87
382.24	425.98
382.43	468.11
382.63	444.70
382.83	526.62
383.02	456.40
383.22	454.06
383.41	458.74
383.61	418.96
383.80	461.09
384.00	472.79
384.19	514.92
384.39	468.11
384.58	433.00
384.78	524.28
384.97	465.77
385.17	458.74
385.36	521.94
385.56	514.92
385.75	540.66
385.95	433.00
386.14	500.87
386.34	433.00
386.53	578.11
386.72	510.24
386.92	638.97
387.11	498.53
387.31	512.58
387.50	528.96
387.70	571.09
387.89	477.47
388.09	491.51
388.28	550.03
388.48	575.77
388.67	580.45
388.86	643.65
389.06	664.71
389.25	587.47
389.45	599.18
389.64	561.73
389.84	620.24
390.03	599.18
390.22	561.73
390.42	641.31
390.61	608.54
390.81	648.33
391.00	622.58
391.19	695.14
391.39	610.88
391.58	601.52
391.78	653.01
391.97	653.01
392.16	695.14
392.36	699.82
392.55	650.67
392.75	620.24
392.94	725.57
393.13	674.07
393.33	655.35
393.52	765.36
393.71	814.51
393.91	716.20
394.10	720.88
394.29	826.21
394.49	690.46
394.68	751.31
394.88	734.93
395.07	739.61
395.26	781.74
395.46	786.42
395.65	842.59
395.84	837.91
396.04	882.38
396.23	802.80
396.42	758.33
396.62	774.72
396.81	791.10
397.00	751.31
397.19	823.87
397.39	784.08
397.58	903.45
397.77	840.25
397.97	830.89
398.16	880.04
398.35	901.11
398.55	833.23
398.74	898.77
398.93	821.53
399.12	791.10
399.32	915.15
399.51	887.06
399.70	966.64
399.90	905.79
400.09	966.64
400.28	1011.11
400.47	968.98
400.67	1034.52
400.86	1090.69
401.05	1018.13
401.24	1043.88
401.44	1025.15
401.63	1069.62
401.82	1100.05
402.01	1060.26
402.21	1114.10
402.40	1036.86
402.59	1053.24
402.78	1158.57
402.97	1015.79
403.17	1130.48
403.36	1050.90
403.55	1174.95
403.74	1181.97
403.93	1186.65
404.13	1299.00
404.32	1137.50
404.51	1240.48
404.70	1294.32
404.89	1212.40
405.09	1261.55
405.28	1299.00
405.47	1240.48
405.66	1266.23
405.85	1315.38
406.05	1341.13
406.24	1451.13
406.43	1413.68
406.62	1341.13
406.81	1490.92
407.00	1385.60
407.20	1507.30
407.39	1472.20
407.58	1465.18
407.77	1533.05
407.96	1490.92
408.15	1607.95
408.34	1507.30
408.54	1572.84
408.73	1455.81
408.92	1614.97
409.11	1565.82
409.30	1570.50
409.49	1680.50
409.68	1575.18
409.87	1652.42
410.07	1734.34
410.26	1685.19
410.45	1727.32
410.64	1809.23
410.83	1778.81
411.02	1739.02
411.21	1820.94
411.40	1863.07
411.59	1799.87
411.78	1720.29
411.98	1689.87
412.17	1937.96
412.36	1834.98
412.55	1942.64
412.74	1839.66
412.93	1998.82
413.12	2005.84
413.31	2076.06
413.50	2092.44
413.69	2090.10
413.88	2134.57
414.07	2101.80
414.26	2127.55
414.45	2115.84
414.64	2094.78
414.83	2146.27
415.02	2197.76
415.22	2347.56
415.41	2307.77
415.60	2265.64
415.79	2279.68
415.98	2361.60
416.17	2452.88
416.36	2427.14
416.55	2324.15
416.74	2490.33
416.93	2485.65
417.12	2490.33
417.31	2600.34
417.50	2480.97
417.69	2541.82
417.88	2534.80
418.07	2619.06
418.26	2663.53
418.45	2715.02
418.64	2691.62
418.83	2766.51
419.02	2745.45
419.21	2747.79
419.39	2717.36
419.58	2799.28
419.77	2813.32
419.96	2892.90
420.15	2820.35
420.34	2672.89
420.53	2871.84
420.72	2916.31
420.91	2895.24
421.10	2958.44
421.29	2977.16
421.48	2878.86
421.67	2916.31
421.86	3030.99
422.05	3063.76
422.24	2979.50
422.43	3014.61
422.61	3201.85
422.80	3035.67
422.99	3035.67
423.18	3105.89
423.37	3183.13
423.56	3080.14
423.75	3073.12
423.94	3080.14
424.13	2881.20
424.32	2972.48
424.50	3173.77
424.69	3185.47
424.88	3101.21
425.07	3091.85
425.26	3138.66
425.45	3122.27
425.64	3173.77
425.83	3124.62
426.01	3162.06
426.20	3143.34
426.39	3173.77
426.58	3311.86
426.77	3208.87
426.96	3258.03
427.15	3187.81
427.33	3227.60
427.52	3229.94
427.71	3056.74
427.90	3307.18
428.09	3407.82
428.28	3295.47
428.46	3372.71
428.65	3405.48
428.84	3363.35
429.03	3578.68
429.22	3393.78
429.40	3534.21
429.59	3442.93
429.78	3358.67
429.97	3351.65
430.16	3475.70
430.34	3508.46
430.53	3630.17
430.72	3604.42
430.91	3522.51
431.10	3534.21
431.28	3536.55
431.47	3735.50
431.66	3660.60
431.85	3786.99
432.03	3831.46
432.22	3822.09
432.41	3719.11
432.60	3913.38
432.79	3691.02
432.97	3786.99
433.16	3791.67
433.35	3808.05
433.54	3857.20
433.72	3747.20
433.91	3887.63
434.10	3857.20
434.28	3894.65
434.47	3953.16
434.66	3967.21
434.85	4037.42
435.03	4184.88
435.22	4201.26
435.41	4503.19
435.59	4465.74
435.78	4257.43
435.97	4231.69
436.16	4306.59
436.34	4051.47
436.53	4128.70
436.72	4271.48
436.90	4168.49
437.09	4236.37
437.28	4348.72
437.46	4231.69
437.65	4264.46
437.84	4308.93
438.02	4201.26
438.21	4402.55
438.40	4191.90
438.58	4362.76
438.77	4554.68
438.96	4437.66
439.14	4388.50
439.33	4451.70
439.52	4489.15
439.70	4514.89
439.89	4414.25
440.08	4676.39
440.26	4678.73
440.45	4690.43
440.63	4777.03
440.82	4777.03
441.01	4732.56
441.19	4891.72
441.38	4901.08
441.57	4858.95
441.75	4863.63
441.94	5102.37
442.12	4856.61
442.31	5245.14
442.50	5015.77
442.68	5008.75
442.87	4975.98
443.05	5156.20
443.24	5195.99
443.43	5219.39
443.61	5167.90
443.80	5350.46
443.98	5060.24
444.17	4985.34
444.35	5249.82
444.54	5331.74
444.73	5280.25
444.91	5334.08
445.10	5378.55
445.28	5334.08
445.47	5205.35
445.65	5207.69
445.84	5472.17
446.02	5387.91
446.21	5212.37
446.39	5327.06
446.58	5401.96
446.77	5507.28
446.95	5205.35
447.14	5350.46
447.32	5439.40
447.51	5474.51
447.69	5294.29
447.88	5507.28
448.06	5369.19
448.25	5420.68
448.43	5378.55
448.62	5357.49
448.80	5446.43
448.99	5624.31
449.17	5469.83
449.36	5544.73
449.54	5694.52
449.73	5614.95
449.91	5774.10
450.10	5514.30
450.28	5837.30
450.46	5605.58
450.65	5736.65
450.83	5771.76
451.02	5776.44
451.20	5820.91
451.39	5930.92
451.57	5811.55
451.76	5753.04
451.94	5937.94
452.13	5963.68
452.31	5921.56
452.49	5921.56
452.68	5991.77
452.86	5968.37
453.05	6047.94
453.23	5926.24
453.42	6050.28
453.60	5914.53
453.78	5928.58
453.97	6104.12
454.15	6010.50
454.34	6087.73
454.52	6272.64
454.70	6183.70
454.89	6099.44
455.07	6157.95
455.26	6190.72
455.44	6361.58
455.62	6326.47
455.81	6148.59
455.99	6516.05
456.17	6420.09
456.36	6246.89
456.54	6597.97
456.73	6511.37
456.91	6548.82
457.09	6583.93
457.28	6780.53
457.46	6530.09
457.64	6656.48
457.83	6679.89
458.01	6513.71
458.19	6834.36
458.38	6593.29
458.56	6850.75
458.74	6836.70
458.93	6792.23
459.11	6878.83
459.29	6918.62
459.48	6747.76
459.66	6874.15
459.84	6871.81
460.03	6988.84
460.21	7052.03
460.39	7089.48
460.57	6939.69
460.76	7007.56
460.94	7087.14
461.12	7019.27
461.31	7082.46
461.49	6977.14
461.67	6911.60
461.85	7290.77
462.04	7190.13
462.22	7426.52
462.40	7272.04
462.59	7307.15
462.77	7269.70
462.95	7419.50
463.13	7164.38
463.32	7302.47
463.50	7435.88
463.68	7440.56
463.86	7571.63
464.05	7417.16
464.23	7365.67
464.41	7454.61
464.59	7456.95
464.78	7513.12
464.96	7585.68
465.14	7494.40
465.32	7782.28
465.50	7700.36
465.69	7777.60
465.87	7681.64
466.05	7779.94
466.23	7705.04
466.41	7943.78
466.60	8098.25
466.78	7705.04
466.96	7688.66
467.14	7784.62
467.32	7754.19
467.51	7824.41
467.69	7700.36
467.87	7751.85
468.05	7939.10
468.23	7875.90
468.41	7786.96
468.60	7913.35
468.78	8107.62
468.96	7911.01
469.14	8215.28
469.32	8072.51
469.50	7941.44
469.69	8177.83
469.87	8255.07
470.05	8430.61
470.23	8266.77
470.41	8411.89
470.59	8238.69
470.77	8252.73
470.95	8510.19
471.14	8472.74
471.32	8306.56
471.50	8360.39
471.68	8547.64
471.86	8517.21
472.04	8671.68
472.22	8847.22
472.40	8496.14
472.58	8716.16
472.77	8765.31
472.95	8933.82
473.13	9029.79
473.31	8870.63
473.49	8971.27
473.67	8982.98
473.85	8908.08
474.03	9226.39
474.21	9167.88
474.39	9322.35
474.57	9235.75
474.75	9228.73
474.93	9582.15
475.12	9238.09
475.30	9387.89
475.48	9371.50
475.66	9806.84
475.84	9289.59
476.02	9809.19
476.20	9771.74
476.38	9874.72
476.56	10019.83
476.74	9956.64
476.92	9769.40
477.10	10001.11
477.28	10298.36
477.46	10066.64
477.64	10256.23
477.82	10347.51
478.00	10478.58
478.18	10487.94
478.36	10609.65
478.54	10562.84
478.72	10714.97
478.90	11005.20
479.08	11178.40
479.26	11028.60
479.44	10951.37
479.62	11169.04
479.80	11222.87
479.98	11293.08
480.16	11485.01
480.34	11475.65
480.52	11712.04
480.70	11815.02
480.88	11417.13
481.06	11815.02
481.24	11700.34
481.41	11885.24
481.59	11990.56
481.77	12217.60
481.95	12409.52
482.13	12397.82
482.31	12365.05
482.49	12727.83
482.67	12681.02
482.85	12748.90
483.03	13109.34
483.21	13114.02
483.39	13170.19
483.57	13057.85
483.74	13294.24
483.92	13422.97
484.10	13467.44
484.28	13666.39
484.46	13792.78
484.64	13987.04
484.82	13568.09
485.00	13994.06
485.18	14139.18
485.35	14504.30
485.53	14340.46
485.71	14356.85
485.89	14743.03
486.07	14562.81
486.25	14654.09
486.43	14773.46
486.61	15040.28
486.78	15164.33
486.96	15192.42
487.14	15627.76
487.32	15267.31
487.50	15367.96
487.68	15634.78
487.85	15765.85
488.03	16177.78
488.21	16102.89
488.39	16264.38
488.57	16486.73
488.75	16266.72
488.92	16559.29
489.10	16652.91
489.28	17102.29
489.46	17106.98
489.64	17025.06
489.81	17458.06
489.99	17326.99
490.17	17479.12
490.35	17434.65
490.53	17713.17
490.70	17869.99
490.88	17671.04
491.06	17963.61
491.24	18263.20
491.41	18274.90
491.59	18185.96
491.77	18429.38
491.95	18801.52
492.13	18810.89
492.30	18457.46
492.48	19042.60
492.66	19089.41
492.84	18970.04
493.01	19480.28
493.19	19314.10
493.37	19358.57
493.54	19281.33
493.72	19580.92
493.90	19482.62
494.08	19901.58
494.25	20290.10
494.43	19981.15
494.61	20386.07
494.79	20400.11
494.96	20563.95
495.14	20428.20
495.32	20526.50
495.49	20685.65
495.67	20645.87
495.85	20957.16
496.02	21010.99
496.20	21048.44
496.38	21268.45
496.55	21113.97
496.73	22019.76
496.91	21727.19
497.09	21837.20
497.26	22164.87
497.44	21724.85
497.62	21956.57
497.79	22092.32
497.97	21965.93
498.14	22721.92
498.32	22387.22
498.50	22703.20
498.67	22679.79
498.85	22530.00
499.03	23157.26
499.20	22944.27
499.38	23016.83
499.56	23229.82
499.73	23314.08
499.91	23309.40
500.08	23913.25
500.26	23396.00
500.44	23477.91
500.61	23943.68
500.79	23838.36
500.97	23718.99
501.14	23812.61
501.32	24144.97
501.49	24084.11
501.67	24159.01
501.84	24177.73
502.02	23896.87
502.20	24442.21
502.37	24439.87
502.55	24524.13
502.72	24676.27
502.90	24744.14
503.07	24446.90
503.25	24781.59
503.43	24865.85
503.60	25303.53
503.78	25238.00
503.95	25050.75
504.13	25413.54
504.30	25280.13
504.48	25472.05
504.65	25490.77
504.83	25762.28
505.01	25996.33
505.18	25762.28
505.36	26134.42
505.53	25886.32
505.71	25923.77
505.88	26228.04
506.06	25671.00
506.23	26457.42
506.41	26026.76
506.58	26391.88
506.76	26469.12
506.93	26654.02
507.11	26806.16
507.28	26813.18
507.46	26525.29
507.63	26829.56
507.81	27344.48
507.98	27241.50
508.16	27178.30
508.33	27150.21
508.50	27300.01
508.68	27344.48
508.85	27999.83
509.03	27639.39
509.20	27831.31
509.38	27819.61
509.55	28149.62
509.73	27234.47
509.90	27931.95
510.08	28161.33
510.25	28416.44
510.42	28233.88
510.60	28634.11
510.77	28910.30
510.95	28477.30
511.12	28479.64
511.30	28877.53
511.47	28666.88
511.64	28699.65
511.82	29008.60
511.99	28800.29
512.17	29181.80
512.34	29401.81
512.51	28753.48
512.69	29460.32
512.86	29333.93
513.04	29490.75
513.21	29834.81
513.38	29811.40
513.56	29951.84
513.73	29556.28
513.90	29986.94
514.08	29736.51
514.25	30143.76
514.43	29991.62
514.60	30363.77
514.77	30029.07
514.95	30492.50
515.12	30050.14
515.29	30438.67
515.47	30644.63
515.64	30520.59
515.81	30693.79
515.99	31171.25
516.16	30876.35
516.33	30679.74
516.51	31105.72
516.68	30939.54
516.85	31150.19
517.03	31288.28
517.20	31372.54
517.37	31571.49
517.54	31662.77
517.72	31204.02
517.89	31449.78
518.06	31756.39
518.24	31747.03
518.41	31498.93
518.58	31353.82
518.75	31817.24
518.93	31962.36
519.10	31810.22
519.27	31878.10
519.45	32329.82
519.62	32109.81
519.79	32093.43
519.96	32285.35
520.14	32673.88
520.31	32257.26
520.48	32929.00
520.65	32769.84
520.83	32816.65
521.00	32519.40
521.17	32601.32
521.34	32971.13
521.52	32847.08
521.69	33027.30
521.86	33326.89
522.03	33120.92
522.20	33441.57
522.38	33399.44
522.55	33464.98
522.72	33266.03
522.89	33429.87
523.07	33858.19
523.24	33483.70
523.41	33687.33
523.58	33586.69
523.75	33659.24
523.92	33289.44
524.10	33998.62
524.27	33897.98
524.44	34293.53
524.61	34827.17
524.78	34288.85
524.96	34457.37
525.13	34445.66
525.30	34387.15
525.47	34794.40
525.64	34579.07
525.81	34848.24
525.98	35005.05
526.16	34410.56
526.33	34668.02
526.50	35349.11
526.67	34752.27
526.84	35075.27
527.01	34504.18
527.18	35227.40
527.36	35096.33
527.53	35253.15
527.70	35290.60
527.87	35445.07
528.04	35126.76
528.21	35281.24
528.38	35625.29
528.55	35805.52
528.72	35545.72
528.89	35988.08
529.07	35714.23
529.24	35723.60
529.41	35803.17
529.58	35732.96
529.75	35655.72
529.92	35730.62
530.09	36093.40
530.26	36126.17
530.43	36077.02
530.60	36121.49
530.77	35952.97
530.94	36252.56
531.11	36102.76
531.28	35978.72
531.46	36308.73
531.63	36821.31
531.80	36353.20
531.97	36467.89
532.14	36732.37
532.31	36783.86
532.48	36498.31
532.65	36685.56
532.82	36378.95
532.99	36641.09
533.16	36783.86
533.33	37525.81
533.50	37324.52
533.67	37439.21
533.84	37261.33
534.01	36982.80
534.18	36809.61
534.35	37184.09
534.52	37081.11
534.69	37614.75
534.86	37640.50
535.03	37116.22
535.20	37268.35
535.37	37464.96
535.54	37612.41
535.71	37621.77
535.88	37600.71
536.05	38199.88
536.22	38043.07
536.38	38066.47
536.55	38124.99
536.72	38108.60
536.89	37703.69
537.06	37832.42
537.23	38094.56
537.40	38005.62
537.57	38197.54
537.74	37619.43
537.91	38600.12
538.08	38455.00
538.25	38316.91
538.42	38665.65
538.59	38719.48
538.75	38361.38
538.92	38487.77
539.09	38478.41
539.26	39115.03
539.43	39168.87
539.60	38880.98
539.77	39313.98
539.94	39145.46
540.11	39285.89
540.28	39456.75
540.44	39285.89
540.61	38937.15
540.78	39484.84
540.95	39363.13
541.12	39363.13
541.29	39679.10
541.46	39686.12
541.62	39344.41
541.79	39550.37
541.96	39562.08
542.13	39452.07
542.30	39934.22
542.47	40336.79
542.63	39629.95
542.80	39735.27
542.97	39955.29
543.14	40343.81
543.31	40374.24
543.48	40350.84
543.64	40650.42
543.81	40631.70
543.98	40484.25
544.15	40664.47
544.32	40818.94
544.48	40980.44
544.65	40451.48
544.82	40414.03
544.99	40399.99
545.16	40863.41
545.32	40285.30
545.49	41448.55
545.66	41706.01
545.83	41474.29
546.00	41783.24
546.16	41380.67
546.33	40514.67
546.50	40615.32
546.67	40832.99
546.83	40208.06
547.00	40950.01
547.17	40919.59
547.34	41120.87
547.50	41507.06
547.67	41390.03
547.84	41125.55
548.00	41160.66
548.17	41418.12
548.34	41280.03
548.51	41640.47
548.67	41240.24
548.84	41446.21
549.01	41497.70
549.18	41493.02
549.34	41420.46
549.51	41617.07
549.68	41757.50
549.84	41275.35
550.01	41797.29
550.18	41184.07
550.34	41612.38
550.51	41942.40
550.68	41507.06
550.84	41996.23
551.01	41867.50
551.18	41544.51
551.34	41336.20
551.51	41769.20
551.68	41862.82
551.84	42010.28
552.01	42014.96
552.18	41926.02
552.34	41500.04
552.51	42246.67
552.68	41525.78
552.84	41497.70
553.01	41785.58
553.18	42185.82
553.34	41951.76
553.51	42380.08
553.67	42270.08
553.84	42806.06
554.01	42426.89
554.17	42401.14
554.34	42754.57
554.51	42600.09
554.67	42431.57
554.84	42071.13
555.00	42354.33
555.17	42445.62
555.33	42216.24
555.50	42408.17
555.67	42368.38
555.83	42071.13
556.00	42277.10
556.16	42677.33
556.33	42518.17
556.50	42632.86
556.66	42777.97
556.83	42541.58
556.99	42817.76
557.16	42880.95
557.32	42958.19
557.49	42862.23
557.65	42721.80
557.82	42635.20
557.98	42796.70
558.15	42698.39
558.32	43468.43
558.48	42761.59
558.65	43115.01
558.81	43157.14
558.98	42944.15
559.14	43086.92
559.31	42525.19
559.47	42948.83
559.64	43203.95
559.80	43178.20
559.97	43325.66
560.13	43091.60
560.30	43192.25
560.46	43248.42
560.63	43288.21
560.79	42810.74
560.96	43775.04
561.12	43047.13
561.29	43342.04
561.45	43391.19
561.61	43227.35
561.78	42965.21
561.94	43229.69
562.11	43622.90
562.27	43063.52
562.44	43753.97
562.60	43393.53
562.77	43414.60
562.93	43234.38
563.10	43854.62
563.26	43332.68
563.42	44404.64
563.59	43648.65
563.75	43412.26
563.92	43856.96
564.08	43718.87
564.24	43695.46
564.41	43423.96
564.57	43367.79
564.74	43419.28
564.90	43770.36
565.07	43948.24
565.23	44046.54
565.39	43353.74
565.56	43948.24
565.72	43737.59
565.88	43592.48
566.05	43166.50
566.21	43985.69
566.38	43770.36
566.54	43695.46
566.70	43957.60
566.87	43924.83
567.03	43906.11
567.19	43828.87
567.36	43253.10
567.52	43428.64
567.68	44009.09
567.85	43768.02
568.01	43957.60
568.17	43824.19
568.34	43847.60
568.50	44107.40
568.66	43962.28
568.83	44346.13
568.99	43330.34
569.15	43690.78
569.32	43608.86
569.48	43538.65
569.64	44095.69
569.81	43782.06
569.97	44203.36
570.13	43763.34
570.30	44165.91
570.46	44025.48
570.62	44308.68
570.78	43716.53
570.95	44102.71
571.11	44205.70
571.27	43278.85
571.43	43669.72
571.60	44009.09
571.76	43849.94
571.92	44011.43
572.09	43973.98
572.25	44046.54
572.41	44119.10
572.57	44619.97
572.74	44013.77
572.90	44369.54
573.06	44182.29
573.22	44151.87
573.38	44275.91
573.55	44282.94
573.71	44868.07
573.87	44151.87
574.03	43824.19
574.20	44280.60
574.36	43948.24
574.52	43896.75
574.68	44020.80
574.84	43931.86
575.01	44580.18
575.17	44250.17
575.33	44430.39
575.49	43941.22
575.65	44360.17
575.82	44533.37
575.98	44304.00
576.14	44629.34
576.30	44634.02
576.46	44397.62
576.62	44615.29
576.79	44233.78
576.95	43941.22
577.11	44313.36
577.27	44194.00
577.43	44280.60
577.59	44100.37
577.75	44142.50
577.92	44470.18
578.08	44105.06
578.24	43775.04
578.40	44495.92
578.56	44680.83
578.72	44704.23
578.88	44259.53
579.04	44687.85
579.21	44444.43
579.37	44811.90
579.53	44247.83
579.69	44119.10
579.85	44514.65
580.01	44266.55
580.17	43875.68
580.33	44378.90
580.49	44694.87
580.65	45031.91
580.82	44339.11
580.98	44535.71
581.14	44458.48
581.30	44694.87
581.46	44531.03
581.62	44374.22
581.78	44219.74
581.94	44498.26
582.10	44294.64
582.26	44460.82
582.42	44659.76
582.58	44388.26
582.74	44945.31
582.90	44807.22
583.06	44329.75
583.22	44079.31
583.38	44493.58
583.54	44460.82
583.70	44662.10
583.86	44823.60
584.02	44210.38
584.18	44954.67
584.34	44673.81
584.50	44772.11
584.66	44573.16
584.82	44587.21
584.98	44697.21
585.14	44758.06
585.30	44226.76
585.46	44760.40
585.62	44514.65
585.78	44582.52
585.94	44360.17
586.10	44257.19
586.26	44779.13
586.42	45041.27
586.58	44605.93
586.74	44868.07
586.90	44538.05
587.06	44664.44
587.22	44715.93
587.38	44734.66
587.54	44704.23
587.70	44856.37
587.86	44978.07
588.02	44704.23
588.18	45104.46
588.34	44615.29
588.49	44664.44
588.65	44481.88
588.81	44676.15
588.97	45024.89
589.13	44589.55
589.29	45036.59
589.45	44919.56
589.61	44622.31
589.77	45015.52
589.93	44722.96
590.08	45249.58
590.24	45280.00
590.40	44985.10
590.56	45631.08
590.72	44755.72
590.88	44914.88
