SpectraSuite Data File
++++++++++++++++++++++++++++++++++++
Date: Fri Oct 04 11:39:53 GMT-05:00 2013
User: price-jones
Dark Spectrum Present: No
Reference Spectrum Present: No
Number of Sampled Component Spectra: 1
Spectrometers: USB2+H05261
Integration Time (usec): 100000 (USB2+H05261)
Spectra Averaged: 1 (USB2+H05261)
Boxcar Smoothing: 0 (USB2+H05261)
Correct for Electrical Dark: No (USB2+H05261)
Strobe/Lamp Enabled: No (USB2+H05261)
Correct for Detector Non-linearity: No (USB2+H05261)
Correct for Stray Light: No (USB2+H05261)
Number of Pixels in Processed Spectrum: 2048
>>>>>Begin Processed Spectral Data<<<<<
365.73	0.00
365.92	0.00
366.12	0.00
366.32	9.36
366.52	32.77
366.72	0.00
366.91	0.00
367.11	46.81
367.31	0.00
367.51	0.00
367.70	0.00
367.90	0.00
368.10	0.00
368.30	0.00
368.49	0.00
368.69	0.00
368.89	0.00
369.09	0.00
369.28	0.00
369.48	0.00
369.68	0.00
369.87	0.00
370.07	23.41
370.27	42.13
370.47	70.22
370.66	131.07
370.86	145.11
371.06	173.20
371.25	250.44
371.45	285.55
371.65	159.16
371.84	119.37
372.04	147.45
372.24	170.86
372.44	220.01
372.63	173.20
372.83	250.44
373.03	262.14
373.22	194.26
373.42	177.88
373.62	205.97
373.81	231.71
374.01	227.03
374.21	222.35
374.40	262.14
374.60	283.20
374.79	210.65
374.99	180.22
375.19	177.88
375.38	292.57
375.58	238.73
375.78	234.05
375.97	292.57
376.17	301.93
376.37	259.80
376.56	245.76
376.76	315.97
376.95	229.37
377.15	264.48
377.35	212.99
377.54	388.53
377.74	215.33
377.93	283.20
378.13	299.59
378.33	351.08
378.52	278.52
378.72	236.39
378.91	248.10
379.11	241.08
379.31	276.18
379.50	280.86
379.70	285.55
379.89	266.82
380.09	234.05
380.28	348.74
380.48	290.23
380.68	287.89
380.87	313.63
381.07	301.93
381.26	259.80
381.46	344.06
381.65	271.50
381.85	308.95
382.04	339.38
382.24	285.55
382.43	250.44
382.63	292.57
382.83	304.27
383.02	360.44
383.22	337.04
383.41	299.59
383.61	257.46
383.80	334.70
384.00	372.15
384.19	325.33
384.39	294.91
384.58	325.33
384.78	304.27
384.97	355.76
385.17	351.08
385.36	339.38
385.56	299.59
385.75	390.87
385.95	299.59
386.14	355.76
386.34	411.93
386.53	355.76
386.72	273.84
386.92	381.51
387.11	411.93
387.31	292.57
387.50	313.63
387.70	283.20
387.89	421.30
388.09	404.91
388.28	388.53
388.48	360.44
388.67	472.79
388.86	346.40
389.06	362.78
389.25	332.36
389.45	433.00
389.64	374.49
389.84	360.44
390.03	423.64
390.22	393.21
390.42	430.66
390.61	393.21
390.81	388.53
391.00	463.43
391.19	414.27
391.39	369.80
391.58	421.30
391.78	440.02
391.97	430.66
392.16	393.21
392.36	418.96
392.55	428.32
392.75	510.24
392.94	358.10
393.13	407.25
393.33	397.89
393.52	472.79
393.71	519.60
393.91	540.66
394.10	437.68
394.29	444.70
394.49	372.15
394.68	524.28
394.88	493.85
395.07	545.34
395.26	468.11
395.46	404.91
395.65	545.34
395.84	533.64
396.04	514.92
396.23	533.64
396.42	535.98
396.62	528.96
396.81	552.37
397.00	538.32
397.19	550.03
397.39	493.85
397.58	561.73
397.77	566.41
397.97	617.90
398.16	585.13
398.35	592.16
398.55	482.15
398.74	596.84
398.93	681.10
399.12	587.47
399.32	641.31
399.51	622.58
399.70	608.54
399.90	648.33
400.09	634.29
400.28	620.24
400.47	650.67
400.67	631.94
400.86	610.88
401.05	674.07
401.24	706.84
401.44	657.69
401.63	692.80
401.82	800.46
402.01	599.18
402.21	601.52
402.40	667.05
402.59	657.69
402.78	840.25
402.97	732.59
403.17	800.46
403.36	699.82
403.55	763.01
403.74	723.23
403.93	868.34
404.13	786.42
404.32	812.17
404.51	786.42
404.70	884.72
404.89	826.21
405.09	819.19
405.28	828.55
405.47	880.04
405.66	826.21
405.85	821.53
406.05	873.02
406.24	877.70
406.43	896.43
406.62	891.74
406.81	931.53
407.00	915.15
407.20	926.85
407.39	999.41
407.58	980.68
407.77	961.96
407.96	938.55
408.15	1025.15
408.34	983.02
408.54	1011.11
408.73	964.30
408.92	1029.84
409.11	1043.88
409.30	1083.67
409.49	1048.56
409.68	1057.92
409.87	1132.82
410.07	1111.75
410.26	1132.82
410.45	1111.75
410.64	1067.28
410.83	1156.22
411.02	1146.86
411.21	1177.29
411.40	1240.48
411.59	1219.42
411.78	1163.25
411.98	1193.67
412.17	1263.89
412.36	1299.00
412.55	1313.04
412.74	1315.38
412.93	1301.34
413.12	1320.06
413.31	1509.65
413.50	1437.09
413.69	1359.85
413.88	1425.39
414.07	1409.00
414.26	1441.77
414.45	1544.75
414.64	1425.39
414.83	1446.45
415.02	1500.28
415.22	1572.84
415.41	1516.67
415.60	1624.33
415.79	1530.71
415.98	1556.46
416.17	1537.73
416.36	1636.03
416.55	1612.63
416.74	1549.43
416.93	1558.80
417.12	1783.49
417.31	1650.08
417.50	1650.08
417.69	1710.93
417.88	1673.48
418.07	1694.55
418.26	1727.32
418.45	1792.85
418.64	1888.81
418.83	1856.04
419.02	1844.34
419.21	1916.90
419.39	1872.43
419.58	1762.42
419.77	1750.72
419.96	1886.47
420.15	1998.82
420.34	2031.58
420.53	1886.47
420.72	1956.69
420.91	1989.46
421.10	2005.84
421.29	2038.61
421.48	2083.08
421.67	2092.44
421.86	1998.82
422.05	2113.50
422.24	1975.41
422.43	2057.33
422.61	2045.63
422.80	2132.23
422.99	2101.80
423.18	2073.71
423.37	2108.82
423.56	2237.55
423.75	2097.12
423.94	2073.71
424.13	2026.90
424.32	1937.96
424.50	2071.37
424.69	2062.01
424.88	2134.57
425.07	2127.55
425.26	2136.91
425.45	2024.56
425.64	2176.70
425.83	2099.46
426.01	2155.63
426.20	2125.21
426.39	2097.12
426.58	2204.78
426.77	2054.99
426.96	2122.87
427.15	2207.13
427.33	2211.81
427.52	2200.10
427.71	2267.98
427.90	2244.57
428.09	2260.96
428.28	2204.78
428.46	2328.83
428.65	2249.25
428.84	2319.47
429.03	2394.37
429.22	2368.62
429.40	2399.05
429.59	2485.65
429.78	2296.07
429.97	2242.23
430.16	2389.69
430.34	2380.32
430.53	2544.16
430.72	2417.77
430.91	2354.58
431.10	2209.47
431.28	2527.78
431.47	2530.12
431.66	2593.31
431.85	2438.84
432.03	2427.14
432.22	2399.05
432.41	2485.65
432.60	2537.14
432.79	2492.67
432.97	2513.74
433.16	2586.29
433.35	2635.44
433.54	2602.68
433.72	2600.34
433.91	2574.59
434.10	2682.25
434.28	2572.25
434.47	2698.64
434.66	2651.83
434.85	2771.19
435.03	2841.41
435.22	2937.37
435.41	3091.85
435.59	3054.40
435.78	3059.08
435.97	2958.44
436.16	2764.17
436.34	2888.22
436.53	2719.70
436.72	2834.39
436.90	2705.66
437.09	2925.67
437.28	2764.17
437.46	2937.37
437.65	2979.50
437.84	2960.78
438.02	2883.54
438.21	2963.12
438.40	2911.63
438.58	2899.92
438.77	3023.97
438.96	2895.24
439.14	3042.70
439.33	3028.65
439.52	3066.10
439.70	3054.40
439.89	3227.60
440.08	3056.74
440.26	3117.59
440.45	3225.26
440.63	3173.77
440.82	3201.85
441.01	3330.58
441.19	3239.30
441.38	3361.01
441.57	3379.73
441.75	3321.22
441.94	3421.86
442.12	3346.97
442.31	3431.23
442.50	3459.31
442.68	3485.06
442.87	3419.52
443.05	3473.36
443.24	3555.27
443.43	3513.14
443.61	3419.52
443.80	3599.74
443.98	3630.17
444.17	3346.97
444.35	3566.98
444.54	3674.64
444.73	3691.02
444.91	3641.87
445.10	3686.34
445.28	3543.57
445.47	3555.27
445.65	3543.57
445.84	3742.52
446.02	3669.96
446.21	3794.01
446.39	3737.84
446.58	3604.42
446.77	3644.21
446.95	3637.19
447.14	3705.07
447.32	3798.69
447.51	3620.81
447.69	3655.92
447.88	3684.00
448.06	3908.69
448.25	3709.75
448.43	3772.94
448.62	3784.65
448.80	3765.92
448.99	3782.31
449.17	3805.71
449.36	3796.35
449.54	3836.14
449.73	3875.93
449.91	4067.85
450.10	3929.76
450.28	3950.82
450.46	3885.29
450.65	3971.89
450.83	3946.14
451.02	3955.51
451.20	4046.79
451.39	3988.27
451.57	4042.11
451.76	3978.91
451.94	4016.36
452.13	4046.79
452.31	4025.72
452.49	4002.32
452.68	3969.55
452.86	4114.66
453.05	4086.58
453.23	4259.78
453.42	4058.49
453.60	4119.34
453.78	4091.26
453.97	4112.32
454.15	4203.60
454.34	4037.42
454.52	4208.28
454.70	4133.39
454.89	4224.67
455.07	4332.33
455.26	4259.78
455.44	4262.12
455.62	4198.92
455.81	4191.90
455.99	4271.48
456.17	4271.48
456.36	4315.95
456.54	4360.42
456.73	4390.84
456.91	4526.60
457.09	4578.09
457.28	4578.09
457.46	4465.74
457.64	4606.17
457.83	4517.23
458.01	4540.64
458.19	4629.58
458.38	4486.81
458.56	4503.19
458.74	4526.60
458.93	4528.94
459.11	4620.22
459.29	4641.28
459.48	4608.51
459.66	4730.22
459.84	4732.56
460.03	4791.08
460.21	4617.88
460.39	4631.92
460.57	4744.27
460.76	4795.76
460.94	4861.29
461.12	4758.31
461.31	4908.10
461.49	4683.41
461.67	4795.76
461.85	4961.94
462.04	4917.47
462.22	5322.38
462.40	4915.12
462.59	4800.44
462.77	4854.27
462.95	4891.72
463.13	4863.63
463.32	4980.66
463.50	5062.58
463.68	5142.16
463.86	4943.21
464.05	5097.69
464.23	5060.24
464.41	5256.84
464.59	5011.09
464.78	5231.10
464.96	4999.38
465.14	5048.54
465.32	5217.05
465.50	5350.46
465.69	5195.99
465.87	5071.94
466.05	5249.82
466.23	5221.74
466.41	5270.89
466.60	5270.89
466.78	5301.31
466.96	5210.03
467.14	5392.59
467.32	5282.59
467.51	5322.38
467.69	5144.50
467.87	5238.12
468.05	5460.47
468.23	5451.11
468.41	5345.78
468.60	5572.82
468.78	5467.49
468.96	5507.28
469.14	5617.29
469.32	5544.73
469.50	5378.55
469.69	5530.69
469.87	5526.00
470.05	5589.20
470.23	5643.03
470.41	5682.82
470.59	5675.80
470.77	5654.73
470.95	5708.57
471.14	5888.79
471.32	5626.65
471.50	6022.20
471.68	5797.51
471.86	5951.98
472.04	6071.35
472.22	5998.79
472.40	5891.13
472.58	6010.50
472.77	6127.52
472.95	6038.58
473.13	6258.59
473.31	6010.50
473.49	5853.68
473.67	6106.46
473.85	6115.82
474.03	6230.51
474.21	6394.34
474.39	6333.49
474.57	6483.28
474.75	6384.98
474.93	6335.83
475.12	6469.24
475.30	6417.75
475.48	6286.68
475.66	6539.46
475.84	6406.05
476.02	6803.94
476.20	6747.76
476.38	6722.02
476.56	6766.49
476.74	6841.39
476.92	6785.21
477.10	6876.49
477.28	6834.36
477.46	6916.28
477.64	6958.41
477.82	7082.46
478.00	7199.49
478.18	7229.91
478.36	7258.00
478.54	7307.15
478.72	7435.88
478.90	7335.24
479.08	7375.03
479.26	7487.37
479.44	7618.44
479.62	7681.64
479.80	7796.32
479.98	7611.42
480.16	7831.43
480.34	7742.49
480.52	8018.68
480.70	7906.33
480.88	7915.69
481.06	7981.23
481.24	7946.12
481.41	8131.02
481.59	8266.77
481.77	8388.48
481.95	8423.59
482.13	8589.77
482.31	8472.74
482.49	8561.68
482.67	8683.39
482.85	8739.56
483.03	8997.02
483.21	8819.14
483.39	9104.68
483.57	8894.04
483.74	8978.30
483.92	9149.15
484.10	9153.84
484.28	9308.31
484.46	9305.97
484.64	9600.88
484.82	9261.50
485.00	9525.98
485.18	9753.01
485.35	9825.57
485.53	9664.07
485.71	9900.47
485.89	10003.45
486.07	9867.70
486.25	10099.41
486.43	10085.37
486.61	10132.18
486.78	10097.07
486.96	10389.64
487.14	10434.11
487.32	10284.31
487.50	10593.26
487.68	10581.56
487.85	11005.20
488.03	10920.94
488.21	11052.01
488.39	10693.91
488.57	10939.66
488.75	10986.47
488.92	11307.13
489.10	11391.39
489.28	11283.72
489.46	11470.97
489.64	11559.91
489.81	11768.21
489.99	11644.17
490.17	12044.40
490.35	11815.02
490.53	11953.12
490.70	12156.74
490.88	11997.59
491.06	12161.42
491.24	12285.47
491.41	12386.12
491.59	12463.35
491.77	12290.15
491.95	12636.55
492.13	12421.22
492.30	12842.52
492.48	12615.49
492.66	12781.67
492.84	12573.36
493.01	13081.25
493.19	13109.34
493.37	12917.42
493.54	13160.83
493.72	13369.14
493.90	13401.91
494.08	13547.02
494.25	13715.54
494.43	13715.54
494.61	14033.85
494.79	13816.18
494.96	13839.59
495.14	13994.06
495.32	14061.94
495.49	13996.40
495.67	14185.99
495.85	14235.14
496.02	14200.03
496.20	14366.21
496.38	14356.85
496.55	14303.01
496.73	14609.62
496.91	14544.09
497.09	14998.15
497.26	15012.20
497.44	14876.44
497.62	14876.44
497.79	15391.36
497.97	15098.80
498.14	15056.67
498.32	15573.92
498.50	15346.89
498.67	15283.70
498.85	15522.43
499.03	15580.95
499.20	15602.01
499.38	15786.91
499.56	15747.12
499.73	15894.58
499.91	15908.62
500.08	15852.45
500.26	15847.77
500.44	15847.77
500.61	15880.53
500.79	15983.52
500.97	16135.65
501.14	16365.03
501.32	16374.39
501.49	16549.93
501.67	16269.06
501.84	16484.39
502.02	16421.20
502.20	16655.25
502.37	16737.17
502.55	16493.76
502.72	16938.46
502.90	17043.78
503.07	16744.19
503.25	16924.41
503.43	17099.95
503.60	16814.41
503.78	16978.25
503.95	16774.62
504.13	17184.21
504.30	17336.35
504.48	17116.34
504.65	17282.52
504.83	17551.68
505.01	17642.96
505.18	17518.91
505.36	17851.27
505.53	17706.15
505.71	17617.21
505.88	17869.99
506.06	17591.47
506.23	17788.07
506.41	18029.15
506.58	18026.81
506.76	18066.60
506.93	18249.16
507.11	18090.00
507.28	18143.83
507.46	18167.24
507.63	18523.00
507.81	18314.69
507.98	18270.22
508.16	18565.13
508.33	18523.00
508.50	18707.90
508.68	18890.46
508.85	18965.36
509.03	18918.55
509.20	18892.80
509.38	19042.60
509.55	18998.13
509.73	18735.99
509.90	19367.93
510.08	19218.14
510.25	19194.73
510.42	19585.60
510.60	19571.56
510.77	19639.44
510.95	19908.60
511.12	19332.82
511.30	19726.04
511.47	19693.27
511.64	19765.82
511.82	19913.28
511.99	19655.82
512.17	20013.92
512.34	20077.12
512.51	19690.93
512.69	20133.29
512.86	20233.93
513.04	20276.06
513.21	20065.41
513.38	20290.10
513.56	20540.54
513.73	20034.99
513.90	20449.26
514.08	20580.33
514.25	20285.42
514.43	20470.33
514.60	20900.98
514.77	20617.78
514.95	20943.11
515.12	20386.07
515.29	20748.85
515.47	20994.61
515.64	20809.70
515.81	20741.83
515.99	21029.71
516.16	21174.83
516.33	21184.19
516.51	21369.09
516.68	20952.48
516.85	21015.67
517.03	21369.09
517.20	21469.73
517.37	21497.82
517.54	21509.52
517.72	21769.32
517.89	21280.15
518.06	21366.75
518.24	21369.09
518.41	21280.15
518.58	21458.03
518.75	21820.81
518.93	21818.47
519.10	22026.78
519.27	21970.61
519.45	22047.85
519.62	21963.59
519.79	21912.10
519.96	22033.80
520.14	22246.79
520.31	22162.53
520.48	22274.88
520.65	22361.48
520.83	22698.52
521.00	22307.65
521.17	22356.80
521.34	22382.54
521.52	22750.01
521.69	22476.16
521.86	22789.80
522.03	22892.78
522.20	22757.03
522.38	22600.21
522.55	22567.45
522.72	22567.45
522.89	22834.27
523.07	23510.68
523.24	22993.42
523.41	23417.06
523.58	22941.93
523.75	23316.42
523.92	23096.41
524.10	23122.15
524.27	23545.79
524.44	23616.01
524.61	23843.04
524.78	23693.24
524.96	23257.90
525.13	23576.22
525.30	23271.95
525.47	23592.60
525.64	23187.69
525.81	23927.30
525.98	23880.49
526.16	23637.07
526.33	23936.66
526.50	23955.38
526.67	23740.05
526.84	23641.75
527.01	23854.74
527.18	23882.83
527.36	24283.06
527.53	24329.87
527.70	24315.83
527.87	24166.03
528.04	24460.94
528.21	24369.66
528.38	23772.82
528.55	24528.81
528.72	24744.14
528.89	24533.50
529.07	24865.85
529.24	24311.14
529.41	24634.14
529.58	24734.78
529.75	24521.79
529.92	24952.45
530.09	24549.88
530.26	24751.17
530.43	24720.74
530.60	25050.75
530.77	25172.46
530.94	25401.83
531.11	24690.31
531.28	24889.26
531.46	25001.60
531.63	25069.48
531.80	25238.00
531.97	25046.07
532.14	25268.42
532.31	25399.49
532.48	25312.89
532.65	25350.34
532.82	25230.98
532.99	25310.55
533.16	25001.60
533.33	25694.40
533.50	25661.63
533.67	25425.24
533.84	25551.63
534.01	25624.18
534.18	25418.22
534.35	25631.21
534.52	25348.00
534.69	25909.73
534.86	26209.32
535.03	25984.63
535.20	26115.70
535.37	25781.00
535.54	25795.04
535.71	25830.15
535.88	26157.83
536.05	26099.31
536.22	26134.42
536.38	26438.69
536.55	26155.49
536.72	26153.15
536.89	26171.87
537.06	26473.80
537.23	26492.52
537.40	26403.58
537.57	26103.99
537.74	26326.35
537.91	26511.25
538.08	26808.50
538.25	26532.31
538.42	26153.15
538.59	26668.06
538.75	26558.06
538.92	26305.28
539.09	26593.17
539.26	26761.69
539.43	26441.03
539.60	27037.87
539.77	26871.69
539.94	27115.11
540.11	27133.83
540.28	26998.08
540.44	26728.92
540.61	26806.16
540.78	27260.22
540.95	26974.67
541.12	27295.33
541.29	27683.86
541.46	27814.93
541.62	27372.57
541.79	27655.77
541.96	27349.16
542.13	27440.44
542.30	28009.19
542.47	27571.51
542.63	27758.75
542.80	27688.54
542.97	28084.09
543.14	28182.39
543.31	28084.09
543.48	28102.81
543.64	28020.89
543.81	27981.10
543.98	28084.09
544.15	28053.66
544.32	28238.56
544.48	28645.82
544.65	28254.95
544.82	28437.51
544.99	28002.17
545.16	28084.09
545.32	28334.53
545.49	29020.30
545.66	29193.50
545.83	28893.91
546.00	29366.70
546.16	28587.30
546.33	28409.42
546.50	28233.88
546.67	28395.38
546.83	28205.80
547.00	28428.15
547.17	28357.93
547.34	28566.24
547.50	28828.38
547.67	28631.77
547.84	28505.38
548.00	28608.37
548.17	28554.54
548.34	28451.55
548.51	28945.41
548.67	28910.30
548.84	28912.64
549.01	28379.00
549.18	28460.91
549.34	28512.41
549.51	28526.45
549.68	28655.18
549.84	28191.75
550.01	28669.22
550.18	28957.11
550.34	28809.65
550.51	28954.77
550.68	29088.18
550.84	28456.23
551.01	29010.94
551.18	28786.25
551.34	29027.32
551.51	28603.69
551.68	29165.42
551.84	29376.06
552.01	28971.15
552.18	29649.91
552.34	29298.83
552.51	29549.26
552.68	29104.56
552.84	29268.40
553.01	29567.99
553.18	28950.09
553.34	29457.98
553.51	28891.57
553.67	29207.55
553.84	29741.19
554.01	29745.87
554.17	29457.98
554.34	29582.03
554.51	29481.39
554.67	29626.50
554.84	29715.44
555.00	29118.60
555.17	29591.39
555.33	29720.12
555.50	29659.27
555.67	29549.26
555.83	29563.31
556.00	29502.45
556.16	29961.20
556.33	29507.13
556.50	29413.51
556.66	29692.04
556.83	29481.39
556.99	29825.45
557.16	29888.64
557.32	29848.85
557.49	29715.44
557.65	29617.14
557.82	29212.23
557.98	29921.41
558.15	29942.47
558.32	29930.77
558.48	29851.19
558.65	30471.43
558.81	30295.89
558.98	30204.61
559.14	30253.76
559.31	29792.68
559.47	29954.18
559.64	29879.28
559.80	30309.94
559.97	30581.44
560.13	30019.71
560.30	30288.87
560.46	30382.49
560.63	30085.25
560.79	30532.29
560.96	30471.43
561.12	30260.79
561.29	30038.44
561.45	30085.25
561.61	30199.93
561.78	30078.22
561.94	30015.03
562.11	30141.42
562.27	30005.67
562.44	30141.42
562.60	29888.64
562.77	30113.33
562.93	29844.17
563.10	30455.05
563.26	30108.65
563.42	30726.55
563.59	30281.85
563.75	30331.00
563.92	30586.12
564.08	30181.21
564.24	30684.42
564.41	30047.80
564.57	30532.29
564.74	30263.13
564.90	30672.72
565.07	30263.13
565.23	30581.44
565.39	30473.78
565.56	30373.13
565.72	30272.49
565.88	30380.15
566.05	30424.62
566.21	29813.74
566.38	30239.72
566.54	30319.30
566.70	30574.42
566.87	30920.82
567.03	30843.58
567.19	30590.80
567.36	30513.56
567.52	30431.65
567.68	30583.78
567.85	30422.28
568.01	30588.46
568.17	30548.67
568.34	30651.66
568.50	30558.03
568.66	30565.06
568.83	30675.06
568.99	30719.53
569.15	30813.15
569.32	30792.09
569.48	30380.15
569.64	30771.02
569.81	30628.25
569.97	30815.49
570.13	30759.32
570.30	30562.72
570.46	31182.96
570.62	30988.69
570.78	30335.68
570.95	30883.37
571.11	30487.82
571.27	30541.65
571.43	30625.91
571.60	30841.24
571.76	30773.36
571.92	31054.23
572.09	30892.73
572.25	30820.17
572.41	30693.79
572.57	30616.55
572.74	31161.89
572.90	30443.35
573.06	30930.18
573.22	31068.27
573.38	30705.49
573.55	30574.42
573.71	30974.65
573.87	30984.01
574.03	30675.06
574.20	30824.86
574.36	30658.68
574.52	31290.62
574.68	30604.84
574.84	30663.36
575.01	31218.07
575.17	30740.60
575.33	30827.20
575.49	30852.94
575.65	31126.78
575.82	31337.43
575.98	31051.89
576.14	31337.43
576.30	31044.87
576.46	30930.18
576.62	30904.43
576.79	30857.62
576.95	30864.64
577.11	31386.58
577.27	31122.10
577.43	31138.49
577.59	31269.56
577.75	30864.64
577.92	30850.60
578.08	30895.07
578.24	31044.87
578.40	31021.46
578.56	30958.27
578.72	31225.09
578.88	31819.58
579.04	31548.08
579.21	30986.35
579.37	31133.81
579.53	31023.80
579.69	31077.63
579.85	31117.42
580.01	30871.67
580.17	30794.43
580.33	31084.65
580.49	30951.24
580.65	31061.25
580.82	31307.01
580.98	31161.89
581.14	31241.47
581.30	31407.65
581.46	30988.69
581.62	30948.90
581.78	31012.10
581.94	31283.60
582.10	30979.33
582.26	30859.96
582.42	31328.07
582.58	31386.58
582.74	31150.19
582.90	31161.89
583.06	31246.15
583.22	31299.98
583.38	31435.74
583.54	31204.02
583.70	31438.08
583.86	31227.43
584.02	31044.87
584.18	31641.70
584.34	31358.50
584.50	31402.97
584.66	31262.54
584.82	31622.98
584.98	31405.31
585.14	31276.58
585.30	31229.77
585.46	31377.22
585.62	31405.31
585.78	31761.07
585.94	31447.44
586.10	31522.34
586.26	31028.48
586.42	31222.75
586.58	31637.02
586.74	31555.10
586.90	31395.95
587.06	31304.67
587.22	31393.61
587.38	31477.86
587.54	31351.48
587.70	31517.65
587.86	31412.33
588.02	31377.22
588.18	31835.97
588.34	31126.78
588.49	31248.49
588.65	31248.49
588.81	31360.84
588.97	31529.36
589.13	31194.66
589.29	31859.37
589.45	31538.72
589.61	31833.63
589.77	31845.33
589.93	31613.62
590.08	32093.43
590.24	31796.18
590.40	31761.07
590.56	32297.05
590.72	31433.39
590.88	31393.61
591.04	31381.90
591.20	31505.95
591.35	31545.74
591.51	31861.71
591.67	31796.18
591.83	31913.20
