SpectraSuite Data File
++++++++++++++++++++++++++++++++++++
Date: Fri Oct 04 11:40:07 GMT-05:00 2013
User: price-jones
Dark Spectrum Present: No
Reference Spectrum Present: No
Number of Sampled Component Spectra: 1
Spectrometers: USB2+H05261
Integration Time (usec): 100000 (USB2+H05261)
Spectra Averaged: 1 (USB2+H05261)
Boxcar Smoothing: 0 (USB2+H05261)
Correct for Electrical Dark: No (USB2+H05261)
Strobe/Lamp Enabled: No (USB2+H05261)
Correct for Detector Non-linearity: No (USB2+H05261)
Correct for Stray Light: No (USB2+H05261)
Number of Pixels in Processed Spectrum: 2048
>>>>>Begin Processed Spectral Data<<<<<
365.73	32.77
365.92	32.77
366.12	32.77
366.32	0.00
366.52	0.00
366.72	0.00
366.91	0.00
367.11	0.00
367.31	0.00
367.51	0.00
367.70	0.00
367.90	0.00
368.10	0.00
368.30	0.00
368.49	2.34
368.69	0.00
368.89	0.00
369.09	18.72
369.28	0.00
369.48	0.00
369.68	18.72
369.87	39.79
370.07	14.04
370.27	18.72
370.47	173.20
370.66	454.06
370.86	463.43
371.06	479.81
371.25	573.43
371.45	437.68
371.65	503.22
371.84	414.27
372.04	475.13
372.24	592.16
372.44	512.58
372.63	428.32
372.83	500.87
373.03	514.92
373.22	411.93
373.42	425.98
373.62	493.85
373.81	550.03
374.01	491.51
374.21	547.69
374.40	575.77
374.60	526.62
374.79	596.84
374.99	610.88
375.19	587.47
375.38	608.54
375.58	685.78
375.78	615.56
375.97	634.29
376.17	683.44
376.37	596.84
376.56	653.01
376.76	631.94
376.95	655.35
377.15	786.42
377.35	765.36
377.54	744.29
377.74	723.23
377.93	802.80
378.13	669.39
378.33	734.93
378.52	641.31
378.72	648.33
378.91	636.63
379.11	638.97
379.31	620.24
379.50	622.58
379.70	706.84
379.89	718.54
380.09	791.10
380.28	779.40
380.48	774.72
380.68	725.57
380.87	758.33
381.07	760.67
381.26	711.52
381.46	575.77
381.65	636.63
381.85	589.82
382.04	526.62
382.24	559.39
382.43	547.69
382.63	507.90
382.83	505.56
383.02	545.34
383.22	599.18
383.41	524.28
383.61	571.09
383.80	622.58
384.00	624.92
384.19	699.82
384.39	753.65
384.58	798.12
384.78	711.52
384.97	697.48
385.17	793.44
385.36	627.26
385.56	725.57
385.75	627.26
385.95	753.65
386.14	851.96
386.34	746.63
386.53	737.27
386.72	718.54
386.92	734.93
387.11	653.01
387.31	795.78
387.50	795.78
387.70	730.25
387.89	746.63
388.09	751.31
388.28	683.44
388.48	791.10
388.67	802.80
388.86	887.06
389.06	875.36
389.25	994.73
389.45	1043.88
389.64	938.55
389.84	929.19
390.03	952.60
390.22	1004.09
390.42	915.15
390.61	1076.65
390.81	1011.11
391.00	1198.35
391.19	1100.05
391.39	1032.18
391.58	1032.18
391.78	987.71
391.97	896.43
392.16	802.80
392.36	835.57
392.55	716.20
392.75	585.13
392.94	505.56
393.13	496.19
393.33	514.92
393.52	702.16
393.71	856.64
393.91	849.61
394.10	929.19
394.29	1076.65
394.49	987.71
394.68	1041.54
394.88	1149.20
395.07	1158.57
395.26	1181.97
395.46	1193.67
395.65	1128.14
395.84	1025.15
396.04	901.11
396.23	723.23
396.42	585.13
396.62	585.13
396.81	720.88
397.00	751.31
397.19	1006.43
397.39	1177.29
397.58	1181.97
397.77	1416.02
397.97	1329.42
398.16	1409.00
398.35	1439.43
398.55	1526.03
398.74	1483.90
398.93	1582.20
399.12	1544.75
399.32	1446.45
399.51	1483.90
399.70	1596.25
399.90	1624.33
400.09	1497.94
400.28	1650.08
400.47	1591.56
400.67	1537.73
400.86	1706.25
401.05	1706.25
401.24	1739.02
401.44	1830.30
401.63	1664.12
401.82	1762.42
402.01	1617.31
402.21	1708.59
402.40	1834.98
402.59	1760.08
402.78	1481.56
402.97	1558.80
403.17	1664.12
403.36	1664.12
403.55	1750.72
403.74	1762.42
403.93	1753.06
404.13	1685.19
404.32	1593.90
404.51	1586.88
404.70	1797.53
404.89	1785.83
405.09	1774.13
405.28	1631.35
405.47	1703.91
405.66	1659.44
405.85	1631.35
406.05	1544.75
406.24	1636.03
406.43	1715.61
406.62	1720.29
406.81	1881.79
407.00	1598.59
407.20	1708.59
407.39	1666.46
407.58	1757.74
407.77	1844.34
407.96	1853.70
408.15	1928.60
408.34	1930.94
408.54	1895.83
408.73	1961.37
408.92	1956.69
409.11	1907.54
409.30	1792.85
409.49	1650.08
409.68	1605.61
409.87	1596.25
410.07	1626.67
410.26	1762.42
410.45	1872.43
410.64	2047.97
410.83	1884.13
411.02	1959.03
411.21	2040.95
411.40	2033.93
411.59	2036.27
411.78	2136.91
411.98	1994.14
412.17	2106.48
412.36	2003.50
412.55	2092.44
412.74	2001.16
412.93	2050.31
413.12	2157.97
413.31	2186.06
413.50	2076.06
413.69	2092.44
413.88	2179.04
414.07	2008.18
414.26	2047.97
414.45	2125.21
414.64	2190.74
414.83	2181.38
415.02	2211.81
415.22	2200.10
415.41	2094.78
415.60	2127.55
415.79	2296.07
415.98	2410.75
416.17	2464.58
416.36	2366.28
416.55	2291.38
416.74	2193.08
416.93	2211.81
417.12	2073.71
417.31	2193.08
417.50	2106.48
417.69	2197.76
417.88	2263.30
418.07	2181.38
418.26	2179.04
418.45	2263.30
418.64	2377.98
418.83	2408.41
419.02	2406.07
419.21	2235.21
419.39	2216.49
419.58	2181.38
419.77	2064.35
419.96	2186.06
420.15	2333.51
420.34	2305.43
420.53	2410.75
420.72	2509.05
420.91	2459.90
421.10	2368.62
421.29	2469.27
421.48	2349.90
421.67	2448.20
421.86	2377.98
422.05	2249.25
422.24	2076.06
422.43	2179.04
422.61	2176.70
422.80	2363.94
422.99	2382.67
423.18	2392.03
423.37	2277.34
423.56	2270.32
423.75	2403.73
423.94	2345.22
424.13	2225.85
424.32	2167.34
424.50	2286.70
424.69	2139.25
424.88	2202.44
425.07	2155.63
425.26	2111.16
425.45	2244.57
425.64	2129.89
425.83	2165.00
426.01	2204.78
426.20	2399.05
426.39	2209.47
426.58	2165.00
426.77	2115.84
426.96	1966.05
427.15	2118.18
427.33	2054.99
427.52	2221.17
427.71	2207.13
427.90	2193.08
428.09	2167.34
428.28	2069.03
428.46	2097.12
428.65	1956.69
428.84	2195.42
429.03	2132.23
429.22	1975.41
429.40	2038.61
429.59	1767.10
429.78	1561.14
429.97	1598.59
430.16	1605.61
430.34	1689.87
430.53	1713.27
430.72	1645.40
430.91	1804.55
431.10	2003.50
431.28	2406.07
431.47	2471.61
431.66	2635.44
431.85	2408.41
432.03	2359.26
432.22	2211.81
432.41	2272.66
432.60	2478.63
432.79	2466.92
432.97	2588.63
433.16	2448.20
433.35	2282.02
433.54	2127.55
433.72	2040.95
433.91	2064.35
434.10	2441.18
434.28	2375.64
434.47	2424.80
434.66	2555.86
434.85	2401.39
435.03	2410.75
435.22	2724.38
435.41	2841.41
435.59	2960.78
435.78	2825.03
435.97	2759.49
436.16	2787.58
436.34	2792.26
436.53	2691.62
436.72	2605.02
436.90	2553.52
437.09	2551.18
437.28	2555.86
437.46	2607.36
437.65	2539.48
437.84	2427.14
438.02	2319.47
438.21	2267.98
438.40	2324.15
438.58	2490.33
438.77	2457.56
438.96	2525.44
439.14	2649.49
439.33	2736.09
439.52	2780.56
439.70	2815.66
439.89	2654.17
440.08	2619.06
440.26	2640.12
440.45	2623.74
440.63	2722.04
440.82	2956.10
441.01	2930.35
441.19	2916.31
441.38	2937.37
441.57	2956.10
441.75	3122.27
441.94	2998.23
442.12	3110.57
442.31	3068.44
442.50	3126.96
442.68	3098.87
442.87	3108.23
443.05	2977.16
443.24	3047.38
443.43	3045.04
443.61	3112.91
443.80	3171.43
443.98	3066.10
444.17	2960.78
444.35	3265.05
444.54	3166.74
444.73	3122.27
444.91	3152.70
445.10	3002.91
445.28	2792.26
445.47	2963.12
445.65	2998.23
445.84	2881.20
446.02	2970.14
446.21	3087.17
446.39	2916.31
446.58	3061.42
446.77	3089.51
446.95	3091.85
447.14	3206.53
447.32	3276.75
447.51	3056.74
447.69	3082.49
447.88	3021.63
448.06	3122.27
448.25	3274.41
448.43	3148.02
448.62	3117.59
448.80	3112.91
448.99	3084.83
449.17	3218.24
449.36	3136.32
449.54	3220.58
449.73	3131.64
449.91	3293.13
450.10	3393.78
450.28	3487.40
450.46	3499.10
450.65	3503.78
450.83	3386.76
451.02	3258.03
451.20	3421.86
451.39	3316.54
451.57	3276.75
451.76	3363.35
451.94	3279.09
452.13	3361.01
452.31	3213.56
452.49	3007.59
452.68	2981.84
452.86	2878.86
453.05	3101.21
453.23	3082.49
453.42	3075.46
453.60	3220.58
453.78	3253.34
453.97	3199.51
454.15	3222.92
454.34	3236.96
454.52	3239.30
454.70	3162.06
454.89	3162.06
455.07	3227.60
455.26	3138.66
455.44	3435.91
455.62	3417.18
455.81	3433.57
455.99	3335.26
456.17	3234.62
456.36	3269.73
456.54	3323.56
456.73	3456.97
456.91	3414.84
457.09	3496.76
457.28	3665.28
457.46	3466.33
457.64	3513.14
457.83	3435.91
458.01	3241.64
458.19	3426.54
458.38	3342.28
458.56	3426.54
458.74	3456.97
458.93	3442.93
459.11	3407.82
459.29	3321.22
459.48	3363.35
459.66	3300.16
459.84	3417.18
460.03	3431.23
460.21	3330.58
460.39	3414.84
460.57	3508.46
460.76	3571.66
460.94	3566.98
461.12	3627.83
461.31	3522.51
461.49	3569.32
461.67	3562.30
461.85	3639.53
462.04	3559.95
462.22	4105.30
462.40	3585.70
462.59	3613.79
462.77	3506.12
462.95	3616.13
463.13	3590.38
463.32	3473.36
463.50	3522.51
463.68	3489.74
463.86	3599.74
464.05	3524.85
464.23	3386.76
464.41	3375.05
464.59	3370.37
464.78	3482.72
464.96	3382.07
465.14	3524.85
465.32	3389.10
465.50	3623.15
465.69	3599.74
465.87	3658.26
466.05	3471.01
466.23	3351.65
466.41	3173.77
466.60	3393.78
466.78	3302.50
466.96	3435.91
467.14	3482.72
467.32	3452.29
467.51	3597.40
467.69	3304.84
467.87	3454.63
468.05	3541.23
468.23	3454.63
468.41	3431.23
468.60	3426.54
468.78	3485.06
468.96	3499.10
469.14	3609.11
469.32	3559.95
469.50	3499.10
469.69	3456.97
469.87	3375.05
470.05	3361.01
470.23	3365.69
470.41	3265.05
470.59	3314.20
470.77	3545.91
470.95	3353.99
471.14	3557.61
471.32	3665.28
471.50	3854.86
471.68	3777.62
471.86	3712.09
472.04	3665.28
472.22	3810.39
472.40	3618.47
472.58	3545.91
472.77	3552.93
472.95	3702.73
473.13	3613.79
473.31	3679.32
473.49	3538.89
473.67	3653.58
473.85	3782.31
474.03	3719.11
474.21	3768.26
474.39	3859.54
474.57	3833.80
474.75	3861.88
474.93	3749.54
475.12	3786.99
475.30	3864.22
475.48	3674.64
475.66	3824.44
475.84	3770.60
476.02	3803.37
476.20	3648.90
476.38	3726.13
476.56	3829.12
476.74	3955.51
476.92	3911.04
477.10	3950.82
477.28	4084.23
477.46	4030.40
477.64	4184.88
477.82	4154.45
478.00	4252.75
478.18	4273.82
478.36	4248.07
478.54	4175.52
478.72	4306.59
478.90	4381.48
479.08	4388.50
479.26	4278.50
479.44	4346.37
479.62	4386.16
479.80	4325.31
479.98	4306.59
480.16	4386.16
480.34	4332.33
480.52	4409.57
480.70	4404.89
480.88	4561.70
481.06	4585.11
481.24	4514.89
481.41	4695.11
481.59	4655.33
481.77	4681.07
481.95	4746.61
482.13	4723.20
482.31	4667.03
482.49	4807.46
482.67	4681.07
482.85	4770.01
483.03	4664.69
483.21	4709.16
483.39	4821.50
483.57	4702.14
483.74	4779.37
483.92	4755.97
484.10	4788.74
484.28	4858.95
484.46	5027.47
484.64	5050.88
484.82	4777.03
485.00	4823.84
485.18	4751.29
485.35	4711.50
485.53	4376.80
485.71	3976.57
485.89	3896.99
486.07	3943.80
486.25	4451.70
486.43	4578.09
486.61	4674.05
486.78	4709.16
486.96	4732.56
487.14	4751.29
487.32	5102.37
487.50	4959.60
487.68	5369.19
487.85	5430.04
488.03	5591.54
488.21	5266.21
488.39	5198.33
488.57	5050.88
488.75	4966.62
488.92	5331.74
489.10	5472.17
489.28	5717.93
489.46	5928.58
489.64	5741.33
489.81	5895.81
489.99	5778.78
490.17	5827.93
490.35	6036.24
490.53	5701.54
490.70	5820.91
490.88	5813.89
491.06	5757.72
491.24	5930.92
491.41	5886.45
491.59	5467.49
491.77	5355.15
491.95	5504.94
492.13	5558.77
492.30	5727.29
492.48	5977.73
492.66	6083.05
492.84	6256.25
493.01	6125.18
493.19	6120.50
493.37	6073.69
493.54	5778.78
493.72	6040.92
493.90	6092.41
494.08	6333.49
494.25	6399.02
494.43	6614.35
494.61	6436.47
494.79	6494.99
494.96	6396.68
495.14	6380.30
495.32	6230.51
495.49	6118.16
495.67	6179.01
495.85	6581.59
496.02	6759.47
496.20	6537.12
496.38	6415.41
496.55	6415.41
496.73	6553.50
496.91	6530.09
497.09	6799.26
497.26	6729.04
497.44	6705.63
497.62	6581.59
497.79	6349.87
497.97	6176.67
498.14	6169.65
498.32	6466.90
498.50	6544.14
498.67	6513.71
498.85	6761.81
499.03	6654.14
499.20	6724.36
499.38	6874.15
499.56	6621.38
499.73	6537.12
499.91	6452.86
500.08	6518.39
500.26	6366.26
500.44	6183.70
500.61	6462.22
500.79	6452.86
500.97	6389.66
501.14	6438.81
501.32	6422.43
501.49	6448.18
501.67	6307.74
501.84	6551.16
502.02	6511.37
502.20	6628.40
502.37	6775.85
502.55	6485.62
502.72	6595.63
502.90	6724.36
503.07	6710.32
503.25	6623.72
503.43	6321.79
503.60	6188.38
503.78	6010.50
503.95	6059.65
504.13	6539.46
504.30	6647.12
504.48	6794.58
504.65	6590.95
504.83	6740.74
505.01	6848.41
505.18	6857.77
505.36	6853.09
505.53	6932.67
505.71	6974.80
505.88	7005.22
506.06	7026.29
506.23	6825.00
506.41	6848.41
506.58	6829.68
506.76	6848.41
506.93	6848.41
507.11	6862.45
507.28	6761.81
507.46	6792.23
507.63	6579.25
507.81	6677.55
507.98	6684.57
508.16	6738.40
508.33	6913.94
508.50	6942.03
508.68	6946.71
508.85	7133.95
509.03	7194.81
509.20	7178.42
509.38	7124.59
509.55	6689.25
509.73	6656.48
509.90	7068.42
510.08	6942.03
510.25	7054.37
510.42	6782.87
510.60	6869.47
510.77	6979.48
510.95	7049.69
511.12	7045.01
511.30	7269.70
511.47	7517.80
511.64	7417.16
511.82	7220.55
511.99	7124.59
512.17	6946.71
512.34	6773.51
512.51	6829.68
512.69	6853.09
512.86	6935.01
513.04	7014.59
513.21	7061.40
513.38	7157.36
513.56	6736.06
513.73	6850.75
513.90	6953.73
514.08	6834.36
514.25	6977.14
514.43	6874.15
514.60	7045.01
514.77	7061.40
514.95	6822.66
515.12	6871.81
515.29	7187.79
515.47	7236.94
515.64	7253.32
515.81	7037.99
515.99	7115.23
516.16	6722.02
516.33	6167.31
516.51	5935.60
516.68	5820.91
516.85	5558.77
517.03	5689.84
517.20	6263.27
517.37	6733.72
517.54	6944.37
517.72	7136.29
517.89	6539.46
518.06	6148.59
518.24	6054.97
518.41	6289.02
518.58	6672.87
518.75	6775.85
518.93	6892.88
519.10	6719.68
519.27	6684.57
519.45	7063.74
519.62	7227.57
519.79	7218.21
519.96	7201.83
520.14	7124.59
520.31	6967.77
520.48	6803.94
520.65	6899.90
520.83	7281.41
521.00	7194.81
521.17	7194.81
521.34	7171.40
521.52	7194.81
521.69	7199.49
521.86	7304.81
522.03	7211.19
522.20	7183.10
522.38	6937.35
522.55	7002.88
522.72	6661.16
522.89	6925.65
523.07	6939.69
523.24	6785.21
523.41	6949.05
523.58	7258.00
523.75	7321.20
523.92	7463.97
524.10	7522.48
524.27	7389.07
524.44	7466.31
524.61	7335.24
524.78	7400.77
524.96	7187.79
525.13	7419.50
525.30	7346.94
525.47	7440.56
525.64	7442.90
525.81	7342.26
525.98	6960.75
526.16	6691.59
526.33	6455.20
526.50	6382.64
526.67	6162.63
526.84	6380.30
527.01	6485.62
527.18	6731.38
527.36	6937.35
527.53	7052.03
527.70	7246.30
527.87	7316.51
528.04	7068.42
528.21	7344.60
528.38	7288.43
528.55	7550.57
528.72	7538.87
528.89	7918.03
529.07	7644.19
529.24	7438.22
529.41	7302.47
529.58	6974.80
529.75	7059.06
529.92	7021.61
530.09	7302.47
530.26	7276.73
530.43	7648.87
530.60	7543.55
530.77	7681.64
530.94	7623.12
531.11	7529.50
531.28	7534.18
531.46	7157.36
531.63	7332.90
531.80	7316.51
531.97	7332.90
532.14	7009.90
532.31	6799.26
532.48	6736.06
532.65	6656.48
532.82	6710.32
532.99	7045.01
533.16	7112.89
533.33	7410.14
533.50	7400.77
533.67	7166.72
533.84	7028.63
534.01	7176.08
534.18	7117.57
534.35	7239.28
534.52	7056.72
534.69	7276.73
534.86	7417.16
535.03	7351.62
535.20	7445.24
535.37	7527.16
535.54	7698.02
535.71	7435.88
535.88	7442.90
536.05	7227.57
536.22	7272.04
536.38	7185.44
536.55	6906.92
536.72	7091.82
536.89	6775.85
537.06	6918.62
537.23	7250.98
537.40	7344.60
537.57	7157.36
537.74	7332.90
537.91	7260.34
538.08	7258.00
538.25	7138.63
538.42	7234.60
538.59	7342.26
538.75	7045.01
538.92	7262.68
539.09	7143.32
539.26	6974.80
539.43	6993.52
539.60	6792.23
539.77	7145.66
539.94	6967.77
540.11	6956.07
540.28	6794.58
540.44	6895.22
540.61	6911.60
540.78	6743.08
540.95	6906.92
541.12	7155.02
541.29	7103.53
541.46	7412.48
541.62	7159.70
541.79	7398.43
541.96	7190.13
542.13	7033.31
542.30	7281.41
542.47	7023.95
542.63	7213.53
542.80	6829.68
542.97	7059.06
543.14	6949.05
543.31	7063.74
543.48	7026.29
543.64	7417.16
543.81	7478.01
543.98	7461.63
544.15	7386.73
544.32	7164.38
544.48	7131.61
544.65	7197.15
544.82	7330.56
544.99	7433.54
545.16	7183.10
545.32	7370.35
545.49	7496.74
545.66	7845.48
545.83	8042.08
546.00	7667.60
546.16	7265.02
546.33	7152.68
546.50	7136.29
546.67	7300.13
546.83	7094.16
547.00	7241.62
547.17	6817.98
547.34	6876.49
547.50	6764.15
547.67	6916.28
547.84	6841.39
548.00	7049.69
548.17	7157.36
548.34	7089.48
548.51	7162.04
548.67	7192.47
548.84	7112.89
549.01	6970.12
549.18	6986.50
549.34	7117.57
549.51	7082.46
549.68	6998.20
549.84	7103.53
550.01	6916.28
550.18	6916.28
550.34	7047.35
550.51	7007.56
550.68	7056.72
550.84	7045.01
551.01	7009.90
551.18	6867.13
551.34	7052.03
551.51	6864.79
551.68	7152.68
551.84	7016.93
552.01	6981.82
552.18	6953.73
552.34	6780.53
552.51	6511.37
552.68	6684.57
552.84	6827.34
553.01	6841.39
553.18	6719.68
553.34	6913.94
553.51	6825.00
553.67	6853.09
553.84	7096.50
554.01	6949.05
554.17	6850.75
554.34	6984.16
554.51	6803.94
554.67	7073.10
554.84	6970.12
555.00	7023.95
555.17	6869.47
555.33	7030.97
555.50	7045.01
555.67	6827.34
555.83	6789.89
556.00	6726.70
556.16	6839.05
556.33	6661.16
556.50	6726.70
556.66	6595.63
556.83	6588.61
556.99	6825.00
557.16	6466.90
557.32	6572.22
557.49	6658.82
557.65	6663.51
557.82	6703.29
557.98	6642.44
558.15	6579.25
558.32	6555.84
558.48	6186.04
558.65	6157.95
558.81	6317.11
558.98	6464.56
559.14	6422.43
559.31	6476.26
559.47	6415.41
559.64	6354.55
559.80	6366.26
559.97	6197.74
560.13	6513.71
560.30	6509.03
560.46	6597.97
560.63	6677.55
560.79	6874.15
560.96	6729.04
561.12	6567.54
561.29	6455.20
561.45	6258.59
561.61	6218.80
561.78	6296.04
561.94	6478.60
562.11	6401.37
562.27	6401.37
562.44	6445.84
562.60	6527.75
562.77	6448.18
562.93	6567.54
563.10	6562.86
563.26	6319.45
563.42	6457.54
563.59	6661.16
563.75	6459.88
563.92	6490.31
564.08	6176.67
564.24	6317.11
564.41	6445.84
564.57	6431.79
564.74	6352.21
564.90	6321.79
565.07	6604.99
565.23	6342.85
565.39	6171.99
565.56	6186.04
565.72	5919.21
565.88	6253.91
566.05	6064.33
566.21	6162.63
566.38	6162.63
566.54	6246.89
566.70	6324.13
566.87	6239.87
567.03	6342.85
567.19	6338.17
567.36	6328.81
567.52	6300.72
567.68	6113.48
567.85	5996.45
568.01	5973.05
568.17	5703.89
568.34	5823.25
568.50	5785.80
568.66	5781.12
568.83	5947.30
568.99	6019.86
569.15	5884.11
569.32	5811.55
569.48	5731.97
569.64	5846.66
569.81	5706.23
569.97	5799.85
570.13	5991.77
570.30	5891.13
570.46	5633.67
570.62	5605.58
570.78	5682.82
570.95	5572.82
571.11	5694.52
571.27	5767.08
571.43	5769.42
571.60	5912.19
571.76	5928.58
571.92	5804.53
572.09	5975.39
572.25	5912.19
572.41	5921.56
572.57	5923.90
572.74	5907.51
572.90	5802.19
573.06	5783.46
573.22	5884.11
573.38	5731.97
573.55	5879.43
573.71	5760.06
573.87	6017.52
574.03	5753.04
574.20	5619.63
574.36	5731.97
574.52	5664.10
574.68	5694.52
574.84	5746.02
575.01	5610.26
575.17	5462.81
575.33	5673.46
575.49	5554.09
575.65	5638.35
575.82	5746.02
575.98	5575.16
576.14	5675.80
576.30	5661.76
576.46	5851.34
576.62	5893.47
576.79	5886.45
576.95	5795.17
577.11	5624.31
577.27	5638.35
577.43	5537.71
577.59	5671.12
577.75	5481.53
577.92	5355.15
578.08	5397.28
578.24	5392.59
578.40	5462.81
578.56	5657.07
578.72	5743.67
578.88	5692.18
579.04	5526.00
579.21	5621.97
579.37	5600.90
579.53	5783.46
579.69	5706.23
579.85	5706.23
580.01	5874.74
580.17	5624.31
580.33	5631.33
580.49	5523.66
580.65	5748.36
580.82	5874.74
580.98	5668.78
581.14	5657.07
581.30	5771.76
581.46	5617.29
581.62	5746.02
581.78	5657.07
581.94	5671.12
582.10	5731.97
582.26	5762.40
582.42	5785.80
582.58	5650.05
582.74	5753.04
582.90	5708.57
583.06	5734.31
583.22	5731.97
583.38	5636.01
583.54	5577.50
583.70	5638.35
583.86	5659.42
584.02	5769.42
584.18	5956.66
584.34	5846.66
584.50	5668.78
584.66	5598.56
584.82	5598.56
584.98	5572.82
585.14	5666.44
585.30	5434.72
585.46	5406.64
585.62	5139.82
585.78	5296.63
585.94	5479.19
586.10	5329.40
586.26	5394.93
586.42	5530.69
586.58	5434.72
586.74	5434.72
586.90	5441.75
587.06	5451.11
587.22	5589.20
587.38	5444.09
587.54	5128.11
587.70	5130.45
587.86	5020.45
588.02	4926.83
588.18	4725.54
588.34	4531.28
588.49	4409.57
588.65	4191.90
588.81	4014.02
588.97	4009.34
589.13	4009.34
589.29	4067.85
589.45	4095.94
589.61	4114.66
589.77	4273.82
589.93	4241.05
590.08	4554.68
590.24	4683.41
590.40	4709.16
590.56	4865.97
590.72	4622.56
590.88	4615.54
591.04	4699.80
591.20	4643.62
591.35	4648.30
591.51	4547.66
591.67	4496.17
591.83	4505.53
591.99	4395.53
592.15	4603.83
592.31	4643.62
592.46	4704.48
592.62	4837.89
592.78	4706.82
592.94	4884.70
593.10	4844.91
593.26	4987.68
593.41	4950.23
593.57	4732.56
593.73	4631.92
593.89	4594.47
594.05	4395.53
594.20	4461.06
594.36	4283.18
594.52	4229.35
594.68	4306.59
594.84	4397.87
594.99	4542.98
595.15	4465.74
595.31	4674.05
595.47	4554.68
595.62	4734.90
595.78	4741.93
595.94	4793.42
596.10	4863.63
596.25	4727.88
596.41	4681.07
596.57	4582.77
596.73	4730.22
596.88	4835.55
597.04	4716.18
597.20	4695.11
597.36	4550.00
597.51	4531.28
597.67	4660.01
