SpectraSuite Data File
++++++++++++++++++++++++++++++++++++
Date: Fri Oct 04 11:40:03 GMT-05:00 2013
User: price-jones
Dark Spectrum Present: No
Reference Spectrum Present: No
Number of Sampled Component Spectra: 1
Spectrometers: USB2+H05261
Integration Time (usec): 100000 (USB2+H05261)
Spectra Averaged: 1 (USB2+H05261)
Boxcar Smoothing: 0 (USB2+H05261)
Correct for Electrical Dark: No (USB2+H05261)
Strobe/Lamp Enabled: No (USB2+H05261)
Correct for Detector Non-linearity: No (USB2+H05261)
Correct for Stray Light: No (USB2+H05261)
Number of Pixels in Processed Spectrum: 2048
>>>>>Begin Processed Spectral Data<<<<<
365.73	46.81
365.92	46.81
366.12	46.81
366.32	0.00
366.52	0.00
366.72	0.00
366.91	0.00
367.11	35.11
367.31	0.00
367.51	0.00
367.70	0.00
367.90	0.00
368.10	0.00
368.30	0.00
368.49	0.00
368.69	0.00
368.89	0.00
369.09	0.00
369.28	0.00
369.48	0.00
369.68	0.00
369.87	16.38
370.07	0.00
370.27	2.34
370.47	4.68
370.66	46.81
370.86	98.30
371.06	100.64
371.25	114.69
371.45	72.56
371.65	128.73
371.84	4.68
372.04	79.58
372.24	147.45
372.44	152.13
372.63	135.75
372.83	238.73
373.03	88.94
373.22	149.79
373.42	205.97
373.62	147.45
373.81	159.16
374.01	159.16
374.21	124.05
374.40	194.26
374.60	243.42
374.79	189.58
374.99	170.86
375.19	138.09
375.38	224.69
375.58	182.56
375.78	245.76
375.97	205.97
376.17	215.33
376.37	257.46
376.56	149.79
376.76	170.86
376.95	88.94
377.15	159.16
377.35	175.54
377.54	215.33
377.74	175.54
377.93	140.43
378.13	154.48
378.33	189.58
378.52	201.29
378.72	133.41
378.91	63.19
379.11	112.35
379.31	201.29
379.50	147.45
379.70	217.67
379.89	198.95
380.09	93.62
380.28	105.32
380.48	180.22
380.68	201.29
380.87	131.07
381.07	128.73
381.26	180.22
381.46	138.09
381.65	191.92
381.85	257.46
382.04	56.17
382.24	180.22
382.43	269.16
382.63	119.37
382.83	133.41
383.02	156.82
383.22	187.24
383.41	170.86
383.61	140.43
383.80	154.48
384.00	147.45
384.19	114.69
384.39	124.05
384.58	227.03
384.78	159.16
384.97	145.11
385.17	241.08
385.36	177.88
385.56	180.22
385.75	175.54
385.95	140.43
386.14	196.60
386.34	168.52
386.53	149.79
386.72	182.56
386.92	283.20
387.11	250.44
387.31	187.24
387.50	133.41
387.70	126.39
387.89	227.03
388.09	220.01
388.28	135.75
388.48	191.92
388.67	287.89
388.86	156.82
389.06	100.64
389.25	238.73
389.45	152.13
389.64	269.16
389.84	168.52
390.03	273.84
390.22	217.67
390.42	215.33
390.61	215.33
390.81	156.82
391.00	105.32
391.19	201.29
391.39	182.56
391.58	290.23
391.78	266.82
391.97	191.92
392.16	187.24
392.36	269.16
392.55	243.42
392.75	117.03
392.94	236.39
393.13	269.16
393.33	107.66
393.52	203.63
393.71	220.01
393.91	166.18
394.10	189.58
394.29	173.20
394.49	257.46
394.68	280.86
394.88	276.18
395.07	292.57
395.26	236.39
395.46	255.12
395.65	311.29
395.84	259.80
396.04	283.20
396.23	280.86
396.42	248.10
396.62	241.08
396.81	294.91
397.00	290.23
397.19	351.08
397.39	278.52
397.58	355.76
397.77	248.10
397.97	360.44
398.16	259.80
398.35	337.04
398.55	217.67
398.74	339.38
398.93	404.91
399.12	304.27
399.32	262.14
399.51	285.55
399.70	376.83
399.90	327.68
400.09	313.63
400.28	294.91
400.47	407.25
400.67	409.59
400.86	372.15
401.05	407.25
401.24	402.57
401.44	355.76
401.63	437.68
401.82	486.83
402.01	376.83
402.21	407.25
402.40	315.97
402.59	397.89
402.78	351.08
402.97	451.72
403.17	376.83
403.36	388.53
403.55	442.36
403.74	454.06
403.93	486.83
404.13	475.13
404.32	430.66
404.51	482.15
404.70	500.87
404.89	491.51
405.09	447.04
405.28	486.83
405.47	383.85
405.66	578.11
405.85	568.75
406.05	437.68
406.24	500.87
406.43	538.32
406.62	559.39
406.81	566.41
407.00	510.24
407.20	557.05
407.39	519.60
407.58	596.84
407.77	493.85
407.96	643.65
408.15	608.54
408.34	606.20
408.54	629.60
408.73	514.92
408.92	578.11
409.11	634.29
409.30	681.10
409.49	655.35
409.68	615.56
409.87	685.78
410.07	655.35
410.26	727.91
410.45	582.79
410.64	678.76
410.83	631.94
411.02	704.50
411.21	688.12
411.40	774.72
411.59	671.73
411.78	622.58
411.98	664.71
412.17	791.10
412.36	821.53
412.55	730.25
412.74	819.19
412.93	807.48
413.12	791.10
413.31	828.55
413.50	788.76
413.69	777.06
413.88	847.27
414.07	917.49
414.26	858.98
414.45	863.66
414.64	870.68
414.83	835.57
415.02	833.23
415.22	945.58
415.41	980.68
415.60	1022.81
415.79	959.62
415.98	1008.77
416.17	1060.26
416.36	999.41
416.55	992.39
416.74	978.34
416.93	1032.18
417.12	1093.03
417.31	997.07
417.50	1015.79
417.69	1132.82
417.88	1081.33
418.07	1062.60
418.26	1071.97
418.45	997.07
418.64	1184.31
418.83	1198.35
419.02	1186.65
419.21	1104.73
419.39	1121.12
419.58	1123.46
419.77	1226.44
419.96	1163.25
420.15	1193.67
420.34	1181.97
420.53	1160.91
420.72	1275.59
420.91	1259.21
421.10	1296.66
421.29	1320.06
421.48	1198.35
421.67	1287.29
421.86	1303.68
422.05	1191.33
422.24	1224.10
422.43	1238.14
422.61	1231.12
422.80	1235.80
422.99	1228.78
423.18	1188.99
423.37	1334.11
423.56	1277.93
423.75	1315.38
423.94	1294.32
424.13	1139.84
424.32	1235.80
424.50	1266.23
424.69	1315.38
424.88	1362.19
425.07	1299.00
425.26	1287.29
425.45	1287.29
425.64	1235.80
425.83	1345.81
426.01	1362.19
426.20	1329.42
426.39	1315.38
426.58	1303.68
426.77	1385.60
426.96	1406.66
427.15	1331.76
427.33	1364.53
427.52	1350.49
427.71	1441.77
427.90	1425.39
428.09	1394.96
428.28	1425.39
428.46	1369.21
428.65	1409.00
428.84	1516.67
429.03	1453.47
429.22	1341.13
429.40	1380.92
429.59	1507.30
429.78	1469.86
429.97	1373.89
430.16	1320.06
430.34	1458.15
430.53	1563.48
430.72	1465.18
430.91	1500.28
431.10	1409.00
431.28	1504.96
431.47	1565.82
431.66	1633.69
431.85	1479.22
432.03	1551.78
432.22	1727.32
432.41	1710.93
432.60	1547.09
432.79	1542.41
432.97	1575.18
433.16	1547.09
433.35	1621.99
433.54	1610.29
433.72	1743.70
433.91	1645.40
434.10	1617.31
434.28	1652.42
434.47	1596.25
434.66	1643.06
434.85	1621.99
435.03	1783.49
435.22	2029.24
435.41	2190.74
435.59	2202.44
435.78	2043.29
435.97	1783.49
436.16	1694.55
436.34	1776.47
436.53	1668.80
436.72	1776.47
436.90	1750.72
437.09	1685.19
437.28	1790.51
437.46	1678.16
437.65	1764.76
437.84	1750.72
438.02	1891.15
438.21	1858.39
438.40	1792.85
438.58	1825.62
438.77	1954.35
438.96	1834.98
439.14	1818.60
439.33	1977.75
439.52	1914.56
439.70	1977.75
439.89	2029.24
440.08	1952.01
440.26	1933.28
440.45	1984.77
440.63	1987.11
440.82	1949.67
441.01	1977.75
441.19	1966.05
441.38	1963.71
441.57	1926.26
441.75	2132.23
441.94	2094.78
442.12	2108.82
442.31	2125.21
442.50	2043.29
442.68	2059.67
442.87	2139.25
443.05	2118.18
443.24	2188.40
443.43	2181.38
443.61	2108.82
443.80	2188.40
443.98	2050.31
444.17	2043.29
444.35	2183.72
444.54	2232.87
444.73	2319.47
444.91	2167.34
445.10	2132.23
445.28	2181.38
445.47	2167.34
445.65	2195.42
445.84	2078.40
446.02	2111.16
446.21	2256.28
446.39	2183.72
446.58	2104.14
446.77	2275.00
446.95	2136.91
447.14	2134.57
447.32	2291.38
447.51	2338.20
447.69	2251.60
447.88	2307.77
448.06	2284.36
448.25	2155.63
448.43	2225.85
448.62	2246.91
448.80	2279.68
448.99	2249.25
449.17	2310.11
449.36	2223.51
449.54	2303.09
449.73	2312.45
449.91	2448.20
450.10	2293.72
450.28	2366.28
450.46	2242.23
450.65	2443.52
450.83	2363.94
451.02	2249.25
451.20	2434.16
451.39	2368.62
451.57	2385.01
451.76	2368.62
451.94	2441.18
452.13	2436.50
452.31	2406.07
452.49	2441.18
452.68	2410.75
452.86	2410.75
453.05	2530.12
453.23	2551.18
453.42	2485.65
453.60	2382.67
453.78	2450.54
453.97	2413.09
454.15	2452.88
454.34	2443.52
454.52	2511.39
454.70	2518.42
454.89	2525.44
455.07	2588.63
455.26	2541.82
455.44	2605.02
455.62	2551.18
455.81	2541.82
455.99	2609.70
456.17	2726.72
456.36	2588.63
456.54	2612.04
456.73	2761.83
456.91	2792.26
457.09	2640.12
457.28	2803.96
457.46	2761.83
457.64	2712.68
457.83	2623.74
458.01	2712.68
458.19	2743.11
458.38	2733.75
458.56	2949.08
458.74	2792.26
458.93	2675.23
459.11	2785.24
459.29	2794.60
459.48	2703.32
459.66	2801.62
459.84	2883.54
460.03	2813.32
460.21	2956.10
460.39	2974.82
460.57	2930.35
460.76	2888.22
460.94	2953.76
461.12	2906.95
461.31	2853.11
461.49	2801.62
461.67	2827.37
461.85	2913.97
462.04	2949.08
462.22	3382.07
462.40	2995.89
462.59	3014.61
462.77	2960.78
462.95	3061.42
463.13	2928.01
463.32	3002.91
463.50	3063.76
463.68	2986.52
463.86	3016.95
464.05	2993.55
464.23	3042.70
464.41	3096.53
464.59	3089.51
464.78	3073.12
464.96	3131.64
465.14	3007.59
465.32	3012.27
465.50	3246.32
465.69	3164.40
465.87	3059.08
466.05	3066.10
466.23	3204.19
466.41	3131.64
466.60	3302.50
466.78	3225.26
466.96	3103.55
467.14	3110.57
467.32	3262.71
467.51	3288.45
467.69	3213.56
467.87	3211.22
468.05	3269.73
468.23	3213.56
468.41	3272.07
468.60	3178.45
468.78	3159.72
468.96	3309.52
469.14	3225.26
469.32	3316.54
469.50	3208.87
469.69	3356.33
469.87	3288.45
470.05	3330.58
470.23	3344.63
470.41	3403.14
470.59	3398.46
470.77	3412.50
470.95	3428.88
471.14	3517.83
471.32	3344.63
471.50	3424.20
471.68	3543.57
471.86	3475.70
472.04	3529.53
472.22	3515.48
472.40	3524.85
472.58	3571.66
472.77	3566.98
472.95	3583.36
473.13	3744.86
473.31	3641.87
473.49	3613.79
473.67	3559.95
473.85	3543.57
474.03	3822.09
474.21	3765.92
474.39	3829.12
474.57	3700.39
474.75	3801.03
474.93	3859.54
475.12	3733.15
475.30	3672.30
475.48	3843.16
475.66	3847.84
475.84	3786.99
476.02	3908.69
476.20	3971.89
476.38	3983.59
476.56	3995.29
476.74	3955.51
476.92	3932.10
477.10	4018.70
477.28	4081.89
477.46	4117.00
477.64	4285.52
477.82	4201.26
478.00	4236.37
478.18	4236.37
478.36	4341.69
478.54	4255.09
478.72	4369.78
478.90	4500.85
479.08	4465.74
479.26	4496.17
479.44	4170.83
479.62	4517.23
479.80	4542.98
479.98	4568.73
480.16	4484.47
480.34	4592.13
480.52	4486.81
480.70	4744.27
480.88	4688.09
481.06	4744.27
481.24	4786.40
481.41	4741.93
481.59	4861.29
481.77	4882.36
481.95	4978.32
482.13	4877.68
482.31	4854.27
482.49	4950.23
482.67	4980.66
482.85	5081.30
483.03	5029.81
483.21	5177.26
483.39	5270.89
483.57	5345.78
483.74	5296.63
483.92	5399.62
484.10	5284.93
484.28	5509.62
484.46	5626.65
484.64	5617.29
484.82	5383.23
485.00	5593.88
485.18	5640.69
485.35	5844.32
485.53	5687.50
485.71	5799.85
485.89	5912.19
486.07	5799.85
486.25	5930.92
486.43	5996.45
486.61	5827.93
486.78	6036.24
486.96	5930.92
487.14	6164.97
487.32	6010.50
487.50	6291.36
487.68	6228.17
487.85	6181.35
488.03	6331.15
488.21	6347.53
488.39	6384.98
488.57	6478.60
488.75	6471.58
488.92	6846.07
489.10	6595.63
489.28	6806.28
489.46	6665.85
489.64	6567.54
489.81	7084.80
489.99	6785.21
490.17	6773.51
490.35	7131.61
490.53	7007.56
490.70	7075.44
490.88	7178.42
491.06	7192.47
491.24	7180.76
491.41	7208.85
491.59	7269.70
491.77	7201.83
491.95	7304.81
492.13	7379.71
492.30	7517.80
492.48	7368.01
492.66	7503.76
492.84	7480.35
493.01	7470.99
493.19	7456.95
493.37	7524.82
493.54	7529.50
493.72	7623.12
493.90	7669.94
494.08	7702.70
494.25	7782.28
494.43	7887.61
494.61	7918.03
494.79	8170.81
494.96	7768.24
495.14	8060.80
495.32	8013.99
495.49	8187.19
495.67	8262.09
495.85	8114.64
496.02	8344.01
496.20	8521.89
496.38	8215.28
496.55	8266.77
496.73	8470.40
496.91	8435.29
497.09	8664.66
497.26	8554.66
497.44	8514.87
497.62	8571.04
497.79	8720.84
497.97	8645.94
498.14	8788.71
498.32	8622.53
498.50	8933.82
498.67	9029.79
498.85	8805.10
499.03	9048.51
499.20	8966.59
499.38	8879.99
499.56	8847.22
499.73	9125.75
499.91	9092.98
500.08	9254.48
500.26	9296.61
500.44	9282.56
500.61	9303.63
500.79	9289.59
500.97	9467.47
501.14	9268.52
501.32	9282.56
501.49	9245.12
501.67	9446.40
501.84	9502.58
502.02	9437.04
502.20	9500.23
502.37	9467.47
502.55	9465.13
502.72	9778.76
502.90	9762.37
503.07	9514.28
503.25	9575.13
503.43	9699.18
503.60	9722.59
503.78	9856.00
503.95	9792.80
504.13	9811.53
504.30	9987.07
504.48	9844.29
504.65	9933.23
504.83	10038.56
505.01	10005.79
505.18	9963.66
505.36	9994.09
505.53	10050.26
505.71	10050.26
505.88	10078.35
506.06	10162.61
506.23	10277.29
506.41	10307.72
506.58	10438.79
506.76	10092.39
506.93	10537.09
507.11	10289.00
507.28	10476.24
507.46	10204.74
507.63	10487.94
507.81	10490.28
507.98	10579.22
508.16	10551.14
508.33	10640.08
508.50	10644.76
508.68	10684.55
508.85	10942.00
509.03	10853.06
509.20	10801.57
509.38	11059.03
509.55	10829.66
509.73	10888.17
509.90	11007.54
510.08	10981.79
510.25	10979.45
510.42	10925.62
510.60	11272.02
510.77	11290.74
510.95	11220.53
511.12	11068.39
511.30	11084.78
511.47	11239.25
511.64	11501.39
511.82	11353.94
511.99	11262.66
512.17	11295.43
512.34	11330.53
512.51	11463.94
512.69	11351.60
512.86	11527.14
513.04	11557.57
513.21	11559.91
513.38	11660.55
513.56	11541.18
513.73	11548.20
513.90	11740.13
514.08	11527.14
514.25	11756.51
514.43	11721.40
514.60	11985.88
514.77	11749.49
514.95	11859.49
515.12	11793.96
515.29	11763.53
515.47	11861.84
515.64	11934.39
515.81	11915.67
515.99	11992.90
516.16	12114.61
516.33	11950.78
516.51	12063.12
516.68	12046.74
516.85	12020.99
517.03	12070.14
517.20	12229.30
517.37	12400.16
517.54	12266.75
517.72	12439.95
517.89	12009.29
518.06	12362.71
518.24	12493.78
518.41	12290.15
518.58	12475.06
518.75	12475.06
518.93	12079.50
519.10	12489.10
519.27	12409.52
519.45	12486.76
519.62	12486.76
519.79	12641.23
519.96	12627.19
520.14	12510.16
520.31	12676.34
520.48	12571.02
520.65	12727.83
520.83	12608.47
521.00	12957.21
521.17	12470.37
521.34	12643.57
521.52	12861.24
521.69	12894.01
521.86	12959.55
522.03	12950.18
522.20	12994.65
522.38	13177.22
522.55	13114.02
522.72	13167.85
522.89	12898.69
523.07	13209.98
523.24	12996.99
523.41	13296.58
523.58	12884.65
523.75	13270.84
523.92	13043.81
524.10	13081.25
524.27	13191.26
524.44	13235.73
524.61	13362.12
524.78	13118.70
524.96	13624.26
525.13	13544.68
525.30	13380.84
525.47	13563.40
525.64	13509.57
525.81	13441.70
525.98	13593.83
526.16	13701.50
526.33	13701.50
526.50	13650.00
526.67	13535.32
526.84	13348.08
527.01	13399.57
527.18	13760.01
527.36	13802.14
527.53	13778.73
527.70	13935.55
527.87	13767.03
528.04	13902.78
528.21	13633.62
528.38	13706.18
528.55	13914.48
528.72	13764.69
528.89	13947.25
529.07	13781.07
529.24	13734.26
529.41	14045.55
529.58	13898.10
529.75	13989.38
529.92	14090.02
530.09	13989.38
530.26	14005.77
530.43	13956.61
530.60	14169.60
530.77	14239.82
530.94	14118.11
531.11	14258.54
531.28	14317.06
531.46	14047.90
531.63	14136.84
531.80	14382.59
531.97	14485.58
532.14	14406.00
532.31	14228.12
532.48	14478.55
532.65	14265.57
532.82	13963.64
532.99	14452.81
533.16	14429.40
533.33	14436.42
533.50	14642.39
533.67	14455.15
533.84	14303.01
534.01	14415.36
534.18	14450.47
534.35	14546.43
534.52	14232.80
534.69	14492.60
534.86	14513.66
535.03	14506.64
535.20	14558.13
535.37	14630.69
535.54	14668.14
535.71	14640.05
535.88	14717.29
536.05	14658.78
536.22	14888.15
536.38	14836.66
536.55	14827.29
536.72	14876.44
536.89	14972.41
537.06	14768.78
537.23	15084.75
537.40	14981.77
537.57	14768.78
537.74	14743.03
537.91	14988.79
538.08	15049.64
538.25	14677.50
538.42	15075.39
538.59	15248.59
538.75	14782.82
538.92	14953.68
539.09	15377.32
539.26	14892.83
539.43	15321.15
539.60	15176.03
539.77	15318.81
539.94	15665.21
540.11	15314.13
540.28	15264.97
540.44	15454.56
540.61	15492.01
540.78	15693.29
540.95	15632.44
541.12	15796.28
541.29	15770.53
541.46	15740.10
541.62	15618.39
541.79	15903.94
541.96	15676.91
542.13	15840.75
542.30	15616.05
542.47	15618.39
542.63	15957.77
542.80	16098.20
542.97	15875.85
543.14	16058.42
543.31	16173.10
543.48	15948.41
543.64	16105.23
543.81	15875.85
543.98	16065.44
544.15	16320.56
544.32	15807.98
544.48	16243.32
544.65	15953.09
544.82	16039.69
544.99	16016.29
545.16	16121.61
545.32	16390.77
545.49	16535.88
545.66	16968.88
545.83	17631.26
546.00	17383.16
546.16	16716.11
546.33	16519.50
546.50	16114.59
546.67	16088.84
546.83	15913.30
547.00	16170.76
547.17	16313.53
547.34	16184.80
547.50	16070.12
547.67	16362.69
547.84	16290.13
548.00	16074.80
548.17	16121.61
548.34	15786.91
548.51	16201.19
548.67	16194.17
548.84	16318.22
549.01	16161.40
549.18	16294.81
549.34	16360.34
549.51	16189.49
549.68	16365.03
549.84	15899.26
550.01	16086.50
550.18	16212.89
550.34	16566.31
550.51	16568.65
550.68	16306.51
550.84	16320.56
551.01	16128.63
551.18	16315.87
551.34	16252.68
551.51	16306.51
551.68	16140.33
551.84	16299.49
552.01	16126.29
552.18	16238.64
552.34	16194.17
552.51	16444.60
552.68	16400.13
552.84	16168.42
553.01	16233.96
553.18	16238.64
553.34	16652.91
553.51	16453.97
553.67	16313.53
553.84	16617.80
554.01	16533.54
554.17	16549.93
554.34	16168.42
554.51	16145.02
554.67	16521.84
554.84	16498.44
555.00	16435.24
555.17	16458.65
555.33	16655.25
555.50	16381.41
555.67	16479.71
555.83	16259.70
556.00	16388.43
556.16	16713.77
556.33	16496.10
556.50	16493.76
556.66	16755.90
556.83	16238.64
556.99	16807.39
557.16	16645.89
557.32	16524.18
557.49	16599.08
557.65	16313.53
557.82	16308.85
557.98	16521.84
558.15	16652.91
558.32	16580.36
558.48	16578.01
558.65	16791.00
558.81	16702.06
558.98	16393.11
559.14	16519.50
559.31	16489.07
559.47	16767.60
559.64	16753.55
559.80	16582.70
559.97	16575.67
560.13	16449.28
560.30	16589.72
560.46	16968.88
560.63	16673.98
560.79	16666.95
560.96	16718.45
561.12	16620.14
561.29	16753.55
561.45	16547.59
561.61	16781.64
561.78	16882.28
561.94	16704.40
562.11	16650.57
562.27	16779.30
562.44	16886.97
562.60	16776.96
562.77	16652.91
562.93	16688.02
563.10	16697.38
563.26	16989.95
563.42	16781.64
563.59	16812.07
563.75	16723.13
563.92	16753.55
564.08	16720.79
564.24	16968.88
564.41	16671.64
564.57	16786.32
564.74	16786.32
564.90	16903.35
565.07	16823.77
565.23	16561.63
565.39	16901.01
565.56	16783.98
565.72	16987.61
565.88	16535.88
566.05	17020.38
566.21	16673.98
566.38	16627.17
566.54	16781.64
566.70	16695.04
566.87	16896.33
567.03	16807.39
567.19	16816.75
567.36	17062.51
567.52	16713.77
567.68	16641.21
567.85	16573.33
568.01	16673.98
568.17	16493.76
568.34	16940.80
568.50	17036.76
568.66	16849.52
568.83	16994.63
568.99	16807.39
569.15	16886.97
569.32	16734.83
569.48	16910.37
569.64	16819.09
569.81	16812.07
569.97	16755.90
570.13	16851.86
570.30	16809.73
570.46	16896.33
570.62	16912.71
570.78	16725.47
570.95	16978.25
571.11	16936.12
571.27	16697.38
571.43	16868.24
571.60	16910.37
571.76	16912.71
571.92	17095.27
572.09	16877.60
572.25	16917.39
572.41	16863.56
572.57	16622.48
572.74	17039.10
572.90	17177.19
573.06	16659.93
573.22	16781.64
573.38	16929.09
573.55	17029.74
573.71	17345.71
573.87	16828.45
574.03	16971.22
574.20	16835.47
574.36	16828.45
574.52	16957.18
574.68	17022.72
574.84	17034.42
575.01	16830.79
575.17	16982.93
575.33	16786.32
575.49	16870.58
575.65	17041.44
575.82	17341.03
575.98	16945.48
576.14	17032.08
576.30	16917.39
576.46	17165.49
576.62	16973.56
576.79	17104.64
576.95	17092.93
577.11	16980.59
577.27	16884.62
577.43	17123.36
577.59	16833.13
577.75	16718.45
577.92	16975.91
578.08	16915.05
578.24	17011.01
578.40	17238.05
578.56	17221.66
578.72	17249.75
578.88	17312.94
579.04	17301.24
579.21	16952.50
579.37	17125.70
579.53	17151.45
579.69	16915.05
579.85	16807.39
580.01	16915.05
580.17	17001.65
580.33	17015.69
580.49	16994.63
580.65	16910.37
580.82	17034.42
580.98	16968.88
581.14	17139.74
581.30	17160.81
581.46	16758.24
581.62	16910.37
581.78	16985.27
581.94	17039.10
582.10	17013.35
582.26	17160.81
582.42	16919.73
582.58	17048.46
582.74	17046.12
582.90	17165.49
583.06	17088.25
583.22	17156.13
583.38	17245.07
583.54	17053.14
583.70	17149.11
583.86	17020.38
584.02	17092.93
584.18	17099.95
584.34	17125.70
584.50	17376.14
584.66	17228.68
584.82	17247.41
584.98	17118.68
585.14	16933.78
585.30	17186.55
585.46	17069.53
585.62	17104.64
585.78	17125.70
585.94	17263.79
586.10	17284.86
586.26	17050.80
586.42	17336.35
586.58	17268.47
586.74	17088.25
586.90	17214.64
587.06	16692.70
587.22	17298.90
587.38	16952.50
587.54	17308.26
587.70	17319.96
587.86	17338.69
588.02	17261.45
588.18	17050.80
588.34	17163.15
588.49	17011.01
588.65	17099.95
588.81	16889.31
588.97	17022.72
589.13	16835.47
589.29	17125.70
589.45	17266.13
589.61	16835.47
589.77	17322.30
589.93	16987.61
590.08	17235.70
590.24	17214.64
590.40	17371.46
590.56	17027.40
590.72	17369.12
590.88	16992.29
591.04	17029.74
591.20	17139.74
591.35	17448.69
591.51	17422.95
591.67	17179.53
591.83	17055.48
591.99	17298.90
592.15	17184.21
592.31	17216.98
592.46	17137.40
592.62	17238.05
592.78	17167.83
592.94	17165.49
593.10	17247.41
593.26	17497.84
593.41	17413.59
