SpectraSuite Data File
++++++++++++++++++++++++++++++++++++
Date: Fri Oct 04 11:39:45 GMT-05:00 2013
User: price-jones
Dark Spectrum Present: No
Reference Spectrum Present: No
Number of Sampled Component Spectra: 1
Spectrometers: USB2+H05261
Integration Time (usec): 100000 (USB2+H05261)
Spectra Averaged: 1 (USB2+H05261)
Boxcar Smoothing: 0 (USB2+H05261)
Correct for Electrical Dark: No (USB2+H05261)
Strobe/Lamp Enabled: No (USB2+H05261)
Correct for Detector Non-linearity: No (USB2+H05261)
Correct for Stray Light: No (USB2+H05261)
Number of Pixels in Processed Spectrum: 2048
>>>>>Begin Processed Spectral Data<<<<<
365.73	49.15
365.92	49.15
366.12	49.15
366.32	0.00
366.52	0.00
366.72	44.47
366.91	0.00
367.11	0.00
367.31	0.00
367.51	0.00
367.70	0.00
367.90	0.00
368.10	0.00
368.30	0.00
368.49	0.00
368.69	0.00
368.89	0.00
369.09	0.00
369.28	0.00
369.48	0.00
369.68	0.00
369.87	37.45
370.07	4.68
370.27	25.75
370.47	117.03
370.66	435.34
370.86	447.04
371.06	547.69
371.25	571.09
371.45	447.04
371.65	622.58
371.84	470.45
372.04	575.77
372.24	578.11
372.44	566.41
372.63	491.51
372.83	664.71
373.03	601.52
373.22	587.47
373.42	566.41
373.62	711.52
373.81	585.13
374.01	643.65
374.21	624.92
374.40	664.71
374.60	692.80
374.79	667.05
374.99	664.71
375.19	683.44
375.38	751.31
375.58	706.84
375.78	723.23
375.97	695.14
376.17	753.65
376.37	807.48
376.56	695.14
376.76	718.54
376.95	767.70
377.15	765.36
377.35	737.27
377.54	875.36
377.74	851.96
377.93	767.70
378.13	763.01
378.33	866.00
378.52	816.85
378.72	882.38
378.91	863.66
379.11	835.57
379.31	772.38
379.50	875.36
379.70	999.41
379.89	856.64
380.09	910.47
380.28	849.61
380.48	891.74
380.68	936.21
380.87	875.36
381.07	884.72
381.26	924.51
381.46	870.68
381.65	931.53
381.85	868.34
382.04	863.66
382.24	912.81
382.43	985.37
382.63	997.07
382.83	999.41
383.02	983.02
383.22	1064.94
383.41	1022.81
383.61	1015.79
383.80	1090.69
384.00	997.07
384.19	1004.09
384.39	1128.14
384.58	1086.01
384.78	1043.88
384.97	1093.03
385.17	1062.60
385.36	1090.69
385.56	1060.26
385.75	1097.71
385.95	1067.28
386.14	1256.87
386.34	1200.69
386.53	1050.90
386.72	1111.75
386.92	1095.37
387.11	1135.16
387.31	1247.51
387.50	1186.65
387.70	1261.55
387.89	1238.14
388.09	1149.20
388.28	1207.72
388.48	1282.61
388.67	1240.48
388.86	1329.42
389.06	1261.55
389.25	1228.78
389.45	1294.32
389.64	1324.74
389.84	1350.49
390.03	1425.39
390.22	1315.38
390.42	1261.55
390.61	1362.19
390.81	1390.28
391.00	1334.11
391.19	1413.68
391.39	1308.36
391.58	1401.98
391.78	1530.71
391.97	1394.96
392.16	1425.39
392.36	1387.94
392.55	1479.22
392.75	1533.05
392.94	1441.77
393.13	1406.66
393.33	1526.03
393.52	1502.62
393.71	1584.54
393.91	1607.95
394.10	1612.63
394.29	1636.03
394.49	1540.07
394.68	1549.43
394.88	1614.97
395.07	1638.38
395.26	1533.05
395.46	1666.46
395.65	1694.55
395.84	1600.93
396.04	1757.74
396.23	1657.10
396.42	1750.72
396.62	1771.79
396.81	1776.47
397.00	1762.42
397.19	1851.36
397.39	1713.27
397.58	1919.24
397.77	1760.08
397.97	1928.60
398.16	1851.36
398.35	1858.39
398.55	1853.70
398.74	1942.64
398.93	1998.82
399.12	1933.28
399.32	1769.44
399.51	2019.88
399.70	1952.01
399.90	2017.54
400.09	2029.24
400.28	2071.37
400.47	2036.27
400.67	2017.54
400.86	2143.93
401.05	2143.93
401.24	2134.57
401.44	2221.17
401.63	2150.95
401.82	2221.17
402.01	2141.59
402.21	2214.15
402.40	2265.64
402.59	2251.60
402.78	2258.62
402.97	2211.81
403.17	2396.71
403.36	2406.07
403.55	2352.24
403.74	2392.03
403.93	2392.03
404.13	2443.52
404.32	2462.24
404.51	2375.64
404.70	2476.29
404.89	2354.58
405.09	2567.57
405.28	2630.76
405.47	2525.44
405.66	2562.89
405.85	2675.23
406.05	2642.46
406.24	2614.38
406.43	2616.72
406.62	2715.02
406.81	2818.00
407.00	2733.75
407.20	2691.62
407.39	2708.00
407.58	2726.72
407.77	2829.71
407.96	2850.77
408.15	2923.33
408.34	2958.44
408.54	2808.64
408.73	2993.55
408.92	2995.89
409.11	2979.50
409.30	3038.02
409.49	2988.86
409.68	3068.44
409.87	3066.10
410.07	3084.83
410.26	3075.46
410.45	3239.30
410.64	3098.87
410.83	3368.03
411.02	3183.13
411.21	3339.94
411.40	3403.14
411.59	3414.84
411.78	3428.88
411.98	3267.39
412.17	3468.67
412.36	3311.86
412.55	3550.59
412.74	3648.90
412.93	3627.83
413.12	3559.95
413.31	3742.52
413.50	3599.74
413.69	3705.07
413.88	3836.14
414.07	3838.48
414.26	3798.69
414.45	3908.69
414.64	3995.29
414.83	3946.14
415.02	4021.04
415.22	4128.70
415.41	4224.67
415.60	4187.22
415.79	4133.39
415.98	4215.30
416.17	4187.22
416.36	4252.75
416.55	4386.16
416.74	4311.27
416.93	4461.06
417.12	4388.50
417.31	4512.55
417.50	4503.19
417.69	4533.62
417.88	4737.24
418.07	4554.68
418.26	4615.54
418.45	4592.13
418.64	4730.22
418.83	4697.46
419.02	4781.71
419.21	4865.97
419.39	4870.65
419.58	4739.58
419.77	4800.44
419.96	4985.34
420.15	5048.54
420.34	4947.89
420.53	4945.55
420.72	5018.11
420.91	5015.77
421.10	5135.14
421.29	5235.78
421.48	4959.60
421.67	5151.52
421.86	5064.92
422.05	5336.42
422.24	5315.36
422.43	5259.18
422.61	5401.96
422.80	5320.04
422.99	5245.14
423.18	5259.18
423.37	5448.77
423.56	5350.46
423.75	5467.49
423.94	5261.52
424.13	5170.24
424.32	5308.34
424.50	5476.85
424.69	5535.37
424.88	5544.73
425.07	5313.02
425.26	5320.04
425.45	5364.51
425.64	5359.83
425.83	5371.53
426.01	5474.51
426.20	5394.93
426.39	5544.73
426.58	5425.36
426.77	5664.10
426.96	5523.66
427.15	5593.88
427.33	5582.18
427.52	5486.22
427.71	5523.66
427.90	5696.86
428.09	5654.73
428.28	5970.71
428.46	5865.38
428.65	5949.64
428.84	5937.94
429.03	5951.98
429.22	5799.85
429.40	5867.72
429.59	6066.67
429.78	5741.33
429.97	5797.51
430.16	5731.97
430.34	6012.84
430.53	6132.20
430.72	6195.40
430.91	6169.65
431.10	6087.73
431.28	6366.26
431.47	6274.98
431.66	6312.42
431.85	6256.25
432.03	6333.49
432.22	6640.10
432.41	6452.86
432.60	6497.33
432.79	6555.84
432.97	6544.14
433.16	6623.72
433.35	6686.91
433.54	6892.88
433.72	6733.72
433.91	6719.68
434.10	6609.67
434.28	6707.98
434.47	6780.53
434.66	6834.36
434.85	6832.02
435.03	6951.39
435.22	7035.65
435.41	7398.43
435.59	7159.70
435.78	7339.92
435.97	7061.40
436.16	7222.89
436.34	7115.23
436.53	7393.75
436.72	7349.28
436.90	7187.79
437.09	7391.41
437.28	7021.61
437.46	7302.47
437.65	7379.71
437.84	7393.75
438.02	7314.17
438.21	7442.90
438.40	7543.55
438.58	7693.34
438.77	7702.70
438.96	7712.07
439.14	7913.35
439.33	7805.69
439.52	7843.14
439.70	7943.78
439.89	8028.04
440.08	8257.41
440.26	8201.24
440.45	8262.09
440.63	8287.84
440.82	8163.79
441.01	8203.58
441.19	8517.21
441.38	8655.30
441.57	8662.32
441.75	8688.07
441.94	8741.90
442.12	8777.01
442.31	8784.03
442.50	8910.42
442.68	8777.01
442.87	8879.99
443.05	8788.71
443.24	9151.49
443.43	9071.92
443.61	9179.58
443.80	9181.92
443.98	9020.42
444.17	8784.03
444.35	9100.00
444.54	9317.67
444.73	9364.48
444.91	9102.34
445.10	9195.96
445.28	9132.77
445.47	9036.81
445.65	8992.34
445.84	9413.63
446.02	9380.87
446.21	9195.96
446.39	9217.03
446.58	9261.50
446.77	9308.31
446.95	9006.38
447.14	9256.82
447.32	9401.93
447.51	9689.82
447.69	9387.89
447.88	9434.70
448.06	9373.85
448.25	9359.80
448.43	9380.87
448.62	9369.16
448.80	9291.93
448.99	9781.10
449.17	9547.05
449.36	9612.58
449.54	9640.67
449.73	9947.28
449.91	10003.45
450.10	9987.07
450.28	9874.72
450.46	10054.94
450.65	10094.73
450.83	10115.80
451.02	10038.56
451.20	10178.99
451.39	10153.24
451.57	9998.77
451.76	10045.58
451.94	10265.59
452.13	10300.70
452.31	10441.13
452.49	10345.17
452.68	10476.24
452.86	10534.75
453.05	10558.16
453.23	10644.76
453.42	10459.85
453.60	10497.30
453.78	10541.77
453.97	10277.29
454.15	10516.03
454.34	10494.96
454.52	10738.38
454.70	10824.98
454.89	10939.66
455.07	10672.84
455.26	10785.19
455.44	10986.47
455.62	11089.46
455.81	10799.23
455.99	11147.97
456.17	11042.65
456.36	11103.50
456.54	11375.00
456.73	11314.15
456.91	11857.15
457.09	11407.77
457.28	11606.72
457.46	11485.01
457.64	11918.01
457.83	11784.60
458.01	11578.63
458.19	11950.78
458.38	11674.59
458.56	11700.34
458.74	11798.64
458.93	11852.47
459.11	11826.73
459.29	11964.82
459.48	12259.73
459.66	12091.21
459.84	12236.32
460.03	12250.36
460.21	12191.85
460.39	12241.00
460.57	12131.00
460.76	12423.56
460.94	12425.90
461.12	12355.69
461.31	12407.18
461.49	12578.04
461.67	12400.16
461.85	12798.05
462.04	12554.63
462.22	13027.42
462.40	13001.68
462.59	12746.56
462.77	12966.57
462.95	12896.35
463.13	13001.68
463.32	13228.71
463.50	12891.67
463.68	13039.12
463.86	13167.85
464.05	12851.88
464.23	13238.07
464.41	13280.20
464.59	13128.06
464.78	13289.56
464.96	13303.60
465.14	13284.88
465.32	13540.00
465.50	13568.09
465.69	13678.09
465.87	13406.59
466.05	13528.30
466.23	13619.58
466.41	13448.72
466.60	13804.48
466.78	13408.93
466.96	13483.83
467.14	13734.26
467.32	13841.93
467.51	14019.81
467.69	13549.36
467.87	14143.86
468.05	13907.46
468.23	13848.95
468.41	13727.24
468.60	14099.39
468.78	14340.46
468.96	13970.66
469.14	14183.65
469.32	14462.17
469.50	13968.32
469.69	14501.96
469.87	14574.52
470.05	14785.16
470.23	14583.88
470.41	14616.65
470.59	14532.39
470.77	14635.37
470.95	14857.72
471.14	15262.63
471.32	14831.97
471.50	15042.62
471.68	15344.55
471.86	15082.41
472.04	15190.08
472.22	15564.56
472.40	15393.70
472.58	15419.45
472.77	15625.42
472.95	15810.32
473.13	16304.17
473.31	15714.36
473.49	15606.69
473.67	15630.10
473.85	16149.70
474.03	16093.52
474.21	16355.66
474.39	16655.25
474.57	16631.85
474.75	16610.78
474.93	16936.12
475.12	16884.62
475.30	16889.31
475.48	16854.20
475.66	17200.60
475.84	17195.92
476.02	17090.59
476.20	17156.13
476.38	17322.30
476.56	17898.08
476.74	17898.08
476.92	17902.76
477.10	17860.63
477.28	18192.98
477.46	18204.69
477.64	18352.14
477.82	18541.72
478.00	19014.51
478.18	18820.25
478.36	19077.71
478.54	19276.65
478.72	19229.84
478.90	19264.95
479.08	19342.19
479.26	19777.53
479.44	19934.34
479.62	20046.69
479.80	20374.36
479.98	20531.18
480.16	20737.15
480.34	20367.34
480.52	20933.75
480.70	20989.92
480.88	20704.38
481.06	20886.94
481.24	21097.59
481.41	21759.96
481.59	21830.18
481.77	22045.51
481.95	22141.47
482.13	22237.43
482.31	22230.41
482.49	22611.92
482.67	22752.35
482.85	22946.61
483.03	23630.05
483.21	23770.48
483.39	23585.58
483.57	23452.17
483.74	23812.61
483.92	24187.10
484.10	24175.39
484.28	24664.57
484.46	24812.02
484.64	25219.27
484.82	24753.51
485.00	24898.62
485.18	25523.54
485.35	25764.62
485.53	25858.24
485.71	25926.11
485.89	26471.46
486.07	26272.51
486.25	26609.55
486.43	26764.03
486.61	27094.04
486.78	27325.75
486.96	27168.94
487.14	27505.98
487.32	27768.12
487.50	28170.69
487.68	28105.15
487.85	28161.33
488.03	28884.55
488.21	29198.18
488.39	29291.80
488.57	29577.35
488.75	29378.40
488.92	29970.56
489.10	30368.45
489.28	30146.10
489.46	30499.52
489.64	30995.71
489.81	31342.11
489.99	31178.28
490.17	31271.90
490.35	31786.82
490.53	31765.75
490.70	32177.68
490.88	31941.29
491.06	32774.52
491.24	32196.41
491.41	32299.39
491.59	33006.23
491.77	33336.25
491.95	33359.66
492.13	33912.02
492.30	33986.92
492.48	34022.03
492.66	33942.45
492.84	34064.16
493.01	34628.23
493.19	34328.64
493.37	35264.85
493.54	35225.06
493.72	35384.22
493.90	35281.24
494.08	35894.46
494.25	36144.89
494.43	36500.65
494.61	36243.20
494.79	36608.32
494.96	37081.11
495.14	36804.92
495.32	37106.85
495.49	37376.01
495.67	37441.55
495.85	38117.96
496.02	38141.37
496.20	38469.04
496.38	37858.17
496.55	38562.67
496.73	38981.62
496.91	38974.60
497.09	39159.50
497.26	39349.09
497.44	39400.58
497.62	40018.48
497.79	39849.96
497.97	40067.63
498.14	40371.90
498.32	40718.30
498.50	40732.34
498.67	41406.42
498.85	40769.79
499.03	41109.17
499.20	42003.25
499.38	41172.36
499.56	41628.77
499.73	42024.32
499.91	42160.07
500.08	42405.83
500.26	41930.70
500.44	42567.32
500.61	42543.92
500.79	42600.09
500.97	42878.61
501.14	43262.46
501.32	43264.80
501.49	43072.88
501.67	43351.40
501.84	43288.21
502.02	43470.77
502.20	43966.96
502.37	43955.26
502.55	44275.91
502.72	44535.71
502.90	44151.87
503.07	44369.54
503.25	44678.49
503.43	44737.00
503.60	44900.84
503.78	45345.54
503.95	45055.31
504.13	45272.98
504.30	45326.81
504.48	44996.80
504.65	45326.81
504.83	45535.12
505.01	45940.04
505.18	45429.80
505.36	46316.86
505.53	46057.06
505.71	46438.57
505.88	46478.36
506.06	46293.46
506.23	46899.65
506.41	46932.42
506.58	46990.94
506.76	47182.86
506.93	47405.21
507.11	47086.90
507.28	47547.98
507.46	47566.71
507.63	47924.81
507.81	48392.92
507.98	47782.04
508.16	47845.23
508.33	48303.98
508.50	48175.25
508.68	48348.45
508.85	48788.47
509.03	48900.81
509.20	48886.77
509.38	49097.42
509.55	49127.84
509.73	49177.00
509.90	49216.78
510.08	49265.94
510.25	49408.71
510.42	49818.30
510.60	49944.69
510.77	49876.82
510.95	50171.72
511.12	49485.95
511.30	49734.04
511.47	49855.75
511.64	50459.61
511.82	50471.31
511.99	50305.13
512.17	50557.91
512.34	50541.53
512.51	50920.70
512.69	50569.61
512.86	50972.19
513.04	51187.52
513.21	51391.14
513.38	51571.36
513.56	51428.59
513.73	51290.50
513.90	51763.29
514.08	51283.48
514.25	51700.09
514.43	51700.09
514.60	51915.42
514.77	52189.27
514.95	52107.35
515.12	51938.83
515.29	52109.69
515.47	52037.13
515.64	52470.13
515.81	52308.63
515.99	52678.44
516.16	52687.80
516.33	52671.42
516.51	53071.65
516.68	52678.44
516.85	52659.71
517.03	52949.94
517.20	53092.71
517.37	53242.51
517.54	53162.93
517.72	53312.72
517.89	53340.81
518.06	53202.72
518.24	53359.53
518.41	53144.20
518.58	53563.16
518.75	53345.49
518.93	53872.11
519.10	53614.65
519.27	53846.36
519.45	53860.41
519.62	54021.90
519.79	53670.82
519.96	54017.22
520.14	54209.15
520.31	54171.70
520.48	54143.61
520.65	54092.12
520.83	54487.67
521.00	54363.62
521.17	54059.35
521.34	54396.39
521.52	55065.78
521.69	54848.11
521.86	54866.84
522.03	55114.94
522.20	54901.95
522.38	55215.58
522.55	55332.60
522.72	54880.88
522.89	54759.17
523.07	55332.60
523.24	55475.38
523.41	55477.72
523.58	55360.69
523.75	55819.44
523.92	55508.14
524.10	55444.95
524.27	55697.73
524.44	55660.28
524.61	56140.09
524.78	55910.72
524.96	55976.25
525.13	56041.79
525.30	56186.90
525.47	56119.02
525.64	56081.58
525.81	56156.47
525.98	56310.95
526.16	56371.80
526.33	56320.31
526.50	56596.49
526.67	56432.66
526.84	56383.51
527.01	56299.25
527.18	56577.77
527.36	56762.67
527.53	56729.90
527.70	57055.24
527.87	56970.98
528.04	56577.77
528.21	56846.93
528.38	56638.62
528.55	56865.66
528.72	57048.22
528.89	57036.51
529.07	57118.43
529.24	57069.28
529.41	57481.22
529.58	57146.52
529.75	57202.69
529.92	57080.98
530.09	56959.28
530.26	57476.54
530.43	57385.25
530.60	57408.66
530.77	57380.57
530.94	57490.58
531.11	57434.41
531.28	57579.52
531.46	57364.19
531.63	57867.40
531.80	57858.04
531.97	57968.05
532.14	58047.63
532.31	57916.56
532.48	57687.18
532.65	57996.13
532.82	57811.23
532.99	57874.43
533.16	58010.18
533.33	58101.46
533.50	58590.63
533.67	58206.78
533.84	58115.50
534.01	58188.06
534.18	58185.72
534.35	58330.83
534.52	58174.02
534.69	58499.35
534.86	58604.67
535.03	58504.03
535.20	58733.40
535.37	58710.00
535.54	58670.21
535.71	58405.73
535.88	58834.05
536.05	58607.01
536.22	58801.28
536.38	58852.77
536.55	59079.80
536.72	58852.77
536.89	58930.01
537.06	58955.75
537.23	58955.75
537.40	58738.08
537.57	58880.86
537.74	58920.65
537.91	59339.60
538.08	59316.20
538.25	59056.40
538.42	59077.46
538.59	59231.94
538.75	58965.12
538.92	59164.06
539.09	59257.68
539.26	59505.78
539.43	59477.69
539.60	59590.04
539.77	59657.91
539.94	59735.15
540.11	59517.48
540.28	59480.03
540.44	59669.62
540.61	59554.93
540.78	59643.87
540.95	59821.75
541.12	59749.20
541.29	59985.59
541.46	59985.59
541.62	59807.71
541.79	60062.83
541.96	59751.54
542.13	59955.16
542.30	59929.42
542.47	60212.62
542.63	60142.41
542.80	60481.78
542.97	60383.48
543.14	60512.21
543.31	60306.24
543.48	60369.44
543.64	60650.30
543.81	60331.99
543.98	60729.88
544.15	60704.13
544.32	60886.70
544.48	60760.31
544.65	60533.28
544.82	60423.27
544.99	60299.22
545.16	60669.03
545.32	60715.84
545.49	60935.85
545.66	61188.63
545.83	61190.97
546.00	61343.10
546.16	61083.30
546.33	60846.91
546.50	60591.79
546.67	60898.40
546.83	60460.72
547.00	60809.46
547.17	61113.73
547.34	60903.08
547.50	61146.50
547.67	61340.76
547.84	61080.96
548.00	61057.56
548.17	61118.41
548.34	60919.46
548.51	61282.25
548.67	61190.97
548.84	61450.77
549.01	61130.11
549.18	61265.86
549.34	61293.95
549.51	61261.18
549.68	61291.61
549.84	61364.17
550.01	61315.01
550.18	61282.25
550.34	61434.38
550.51	61460.13
550.68	61432.04
550.84	61326.72
551.01	61577.15
551.18	61457.79
551.34	61457.79
551.51	61633.33
551.68	61600.56
551.84	61567.79
552.01	61623.96
552.18	61799.50
552.34	61701.20
552.51	61675.46
552.68	61757.38
552.84	61785.46
553.01	61811.21
553.18	61745.67
553.34	61825.25
553.51	61537.36
553.67	61953.98
553.84	62136.54
554.01	62082.71
554.17	62026.54
554.34	62045.26
554.51	61750.35
554.67	62040.58
554.84	61909.51
555.00	62049.94
555.17	62052.28
555.33	62089.73
555.50	62014.83
555.67	62024.20
555.83	61986.75
556.00	62115.48
556.16	62195.06
556.33	62195.06
556.50	62372.94
556.66	62274.63
556.83	62305.06
556.99	62625.71
557.16	62492.30
557.32	62354.21
557.49	62284.00
557.65	62159.95
557.82	62209.10
557.98	62265.27
558.15	62262.93
558.32	62714.65
558.48	62375.28
558.65	62499.33
558.81	62564.86
558.98	62649.12
559.14	62377.62
559.31	62206.76
559.47	62314.42
559.64	62377.62
559.80	62588.27
559.97	62604.65
560.13	62532.09
560.30	62410.38
560.46	62770.83
560.63	62754.44
560.79	62756.78
560.96	62644.44
561.12	62667.84
561.29	62536.77
561.45	62679.55
561.61	62841.04
561.78	62810.62
561.94	62934.66
562.11	62864.45
562.27	62665.50
562.44	62829.34
562.60	62705.29
562.77	62969.77
562.93	62787.21
563.10	63117.23
563.26	62667.84
563.42	63023.61
563.59	62770.83
563.75	62981.48
563.92	63056.37
564.08	62831.68
564.24	62798.91
564.41	62988.50
564.57	62995.52
564.74	62960.41
564.90	63004.88
565.07	63054.03
565.23	63203.83
565.39	63068.08
565.56	63147.65
565.72	63044.67
565.88	63096.16
566.05	63032.97
566.21	62890.19
566.38	62901.90
566.54	62817.64
566.70	63370.00
566.87	63510.44
567.03	63257.66
567.19	63231.91
567.36	63166.38
567.52	62951.05
567.68	63105.52
567.85	63210.85
568.01	63154.68
568.17	63159.36
568.34	63168.72
568.50	63208.51
568.66	63229.57
568.83	63164.04
568.99	63316.17
569.15	63337.24
569.32	63208.51
569.48	63159.36
569.64	63290.43
569.81	63346.60
569.97	63262.34
570.13	63346.60
570.30	63276.38
570.46	63388.73
570.62	63229.57
570.78	63231.91
570.95	63023.61
571.11	63465.97
571.27	63168.72
571.43	63334.90
571.60	63433.20
571.76	63203.83
571.92	63297.45
572.09	63611.08
572.25	63428.52
572.41	63496.39
572.57	63480.01
572.74	63648.53
572.90	63337.24
573.06	63524.48
573.22	63341.92
573.38	63622.78
573.55	63468.31
573.71	63678.96
573.87	63489.37
574.03	63430.86
574.20	63618.10
574.36	63461.29
574.52	63461.29
574.68	63512.78
574.84	63503.42
575.01	63533.84
575.17	63575.97
575.33	63636.83
575.49	63428.52
575.65	63807.68
575.82	63709.38
575.98	63487.03
576.14	63704.70
576.30	63587.67
576.46	63620.44
576.62	63538.52
576.79	63774.92
576.95	63634.48
577.11	63568.95
577.27	63753.85
577.43	63870.88
577.59	63718.74
577.75	63587.67
577.92	63608.74
578.08	63487.03
578.24	63608.74
578.40	63678.96
578.56	63458.94
578.72	63728.11
578.88	63969.18
579.04	63714.06
579.21	63714.06
579.37	63819.39
579.53	63742.15
579.69	63468.31
579.85	63763.21
580.01	63819.39
580.17	63697.68
580.33	63519.80
580.49	63758.53
580.65	63777.26
580.82	63847.47
580.98	63828.75
581.14	63788.96
581.30	63784.28
581.46	63765.56
581.62	63664.91
581.78	63587.67
581.94	63835.77
582.10	63674.27
582.26	63805.34
582.42	63765.56
582.58	64006.63
582.74	63957.48
582.90	63889.60
583.06	63803.00
583.22	63716.40
583.38	63714.06
583.54	63828.75
583.70	63788.96
583.86	63749.17
584.02	63681.30
584.18	63950.46
584.34	63842.79
584.50	63870.88
584.66	63795.98
584.82	63877.90
584.98	63875.56
585.14	63791.30
585.30	63641.51
585.46	63814.71
585.62	63667.25
585.78	64048.76
585.94	63587.67
586.10	63877.90
586.26	63784.28
586.42	63922.37
586.58	63992.59
586.74	63838.11
586.90	64034.72
587.06	63941.10
587.22	63880.24
587.38	63938.75
587.54	64055.78
587.70	64123.66
587.86	63983.22
588.02	64205.58
588.18	64200.89
588.34	64100.25
588.49	64114.29
588.65	63868.54
