SpectraSuite Data File
++++++++++++++++++++++++++++++++++++
Date: Fri Oct 04 11:39:32 GMT-05:00 2013
User: price-jones
Dark Spectrum Present: No
Reference Spectrum Present: No
Number of Sampled Component Spectra: 1
Spectrometers: USB2+H05261
Integration Time (usec): 100000 (USB2+H05261)
Spectra Averaged: 1 (USB2+H05261)
Boxcar Smoothing: 0 (USB2+H05261)
Correct for Electrical Dark: No (USB2+H05261)
Strobe/Lamp Enabled: No (USB2+H05261)
Correct for Detector Non-linearity: No (USB2+H05261)
Correct for Stray Light: No (USB2+H05261)
Number of Pixels in Processed Spectrum: 2048
>>>>>Begin Processed Spectral Data<<<<<
365.73	37.45
365.92	37.45
366.12	37.45
366.32	0.00
366.52	0.00
366.72	14.04
366.91	0.00
367.11	0.00
367.31	0.00
367.51	0.00
367.70	0.00
367.90	16.38
368.10	0.00
368.30	0.00
368.49	0.00
368.69	14.04
368.89	18.72
369.09	0.00
369.28	0.00
369.48	0.00
369.68	0.00
369.87	0.00
370.07	25.75
370.27	67.88
370.47	32.77
370.66	147.45
370.86	135.75
371.06	205.97
371.25	159.16
371.45	220.01
371.65	273.84
371.84	220.01
372.04	229.37
372.24	278.52
372.44	156.82
372.63	264.48
372.83	306.61
373.03	301.93
373.22	215.33
373.42	292.57
373.62	257.46
373.81	294.91
374.01	327.68
374.21	344.06
374.40	264.48
374.60	269.16
374.79	365.12
374.99	411.93
375.19	360.44
375.38	404.91
375.58	346.40
375.78	337.04
375.97	337.04
376.17	311.29
376.37	287.89
376.56	383.85
376.76	362.78
376.95	304.27
377.15	318.31
377.35	313.63
377.54	322.99
377.74	381.51
377.93	304.27
378.13	358.10
378.33	376.83
378.52	402.57
378.72	341.72
378.91	320.65
379.11	374.49
379.31	297.25
379.50	238.73
379.70	351.08
379.89	411.93
380.09	313.63
380.28	337.04
380.48	421.30
380.68	411.93
380.87	297.25
381.07	334.70
381.26	360.44
381.46	433.00
381.65	409.59
381.85	360.44
382.04	330.02
382.24	400.23
382.43	367.46
382.63	379.17
382.83	383.85
383.02	404.91
383.22	425.98
383.41	308.95
383.61	425.98
383.80	351.08
384.00	372.15
384.19	376.83
384.39	383.85
384.58	346.40
384.78	409.59
384.97	433.00
385.17	395.55
385.36	379.17
385.56	367.46
385.75	486.83
385.95	390.87
386.14	421.30
386.34	393.21
386.53	449.38
386.72	414.27
386.92	503.22
387.11	454.06
387.31	517.26
387.50	440.02
387.70	372.15
387.89	418.96
388.09	472.79
388.28	400.23
388.48	477.47
388.67	545.34
388.86	552.37
389.06	463.43
389.25	421.30
389.45	526.62
389.64	395.55
389.84	514.92
390.03	582.79
390.22	491.51
390.42	447.04
390.61	456.40
390.81	451.72
391.00	507.90
391.19	526.62
391.39	566.41
391.58	524.28
391.78	491.51
391.97	531.30
392.16	533.64
392.36	601.52
392.55	561.73
392.75	540.66
392.94	514.92
393.13	592.16
393.33	615.56
393.52	676.41
393.71	662.37
393.91	601.52
394.10	578.11
394.29	543.00
394.49	589.82
394.68	627.26
394.88	629.60
395.07	692.80
395.26	657.69
395.46	554.71
395.65	645.99
395.84	624.92
396.04	709.18
396.23	706.84
396.42	617.90
396.62	713.86
396.81	650.67
397.00	603.86
397.19	699.82
397.39	720.88
397.58	734.93
397.77	709.18
397.97	765.36
398.16	678.76
398.35	763.01
398.55	645.99
398.74	699.82
398.93	800.46
399.12	788.76
399.32	748.97
399.51	718.54
399.70	856.64
399.90	812.17
400.09	856.64
400.28	884.72
400.47	870.68
400.67	844.93
400.86	835.57
401.05	873.02
401.24	877.70
401.44	1001.75
401.63	910.47
401.82	964.30
402.01	863.66
402.21	964.30
402.40	957.28
402.59	903.45
402.78	952.60
402.97	952.60
403.17	1071.97
403.36	1029.84
403.55	964.30
403.74	1032.18
403.93	1076.65
404.13	1114.10
404.32	1057.92
404.51	1160.91
404.70	1163.25
404.89	1029.84
405.09	1132.82
405.28	1139.84
405.47	1048.56
405.66	1167.93
405.85	1212.40
406.05	1221.76
406.24	1221.76
406.43	1289.64
406.62	1191.33
406.81	1245.16
407.00	1359.85
407.20	1289.64
407.39	1313.04
407.58	1259.21
407.77	1371.55
407.96	1324.74
408.15	1385.60
408.34	1460.49
408.54	1507.30
408.73	1336.45
408.92	1394.96
409.11	1455.81
409.30	1397.30
409.49	1479.22
409.68	1572.84
409.87	1551.78
410.07	1514.33
410.26	1530.71
410.45	1551.78
410.64	1556.46
410.83	1631.35
411.02	1692.21
411.21	1699.23
411.40	1624.33
411.59	1619.65
411.78	1596.25
411.98	1652.42
412.17	1694.55
412.36	1750.72
412.55	1844.34
412.74	1844.34
412.93	1994.14
413.12	1781.15
413.31	2026.90
413.50	1849.02
413.69	2019.88
413.88	1973.07
414.07	2045.63
414.26	2026.90
414.45	2122.87
414.64	2066.69
414.83	2214.15
415.02	2106.48
415.22	2165.00
415.41	2157.97
415.60	2099.46
415.79	2256.28
415.98	2272.66
416.17	2204.78
416.36	2300.75
416.55	2230.53
416.74	2321.81
416.93	2406.07
417.12	2347.56
417.31	2445.86
417.50	2457.56
417.69	2597.99
417.88	2459.90
418.07	2445.86
418.26	2518.42
418.45	2588.63
418.64	2581.61
418.83	2457.56
419.02	2642.46
419.21	2651.83
419.39	2679.91
419.58	2567.57
419.77	2708.00
419.96	2757.15
420.15	2696.30
420.34	2658.85
420.53	2836.73
420.72	2825.03
420.91	2860.13
421.10	2839.07
421.29	2876.52
421.48	2829.71
421.67	2860.13
421.86	2820.35
422.05	3007.59
422.24	2867.16
422.43	2806.30
422.61	2998.23
422.80	2881.20
422.99	2991.20
423.18	3000.57
423.37	3038.02
423.56	2890.56
423.75	2972.48
423.94	2981.84
424.13	2705.66
424.32	2813.32
424.50	3108.23
424.69	3084.83
424.88	3218.24
425.07	3016.95
425.26	2998.23
425.45	3005.25
425.64	3248.66
425.83	3082.49
426.01	3080.14
426.20	3143.34
426.39	2972.48
426.58	3084.83
426.77	3136.32
426.96	3143.34
427.15	3009.93
427.33	3187.81
427.52	3225.26
427.71	3213.56
427.90	3248.66
428.09	3171.43
428.28	3187.81
428.46	3131.64
428.65	3419.52
428.84	3337.60
429.03	3463.99
429.22	3311.86
429.40	3456.97
429.59	3353.99
429.78	3176.11
429.97	3143.34
430.16	3428.88
430.34	3433.57
430.53	3520.17
430.72	3412.50
430.91	3515.48
431.10	3396.12
431.28	3545.91
431.47	3571.66
431.66	3714.43
431.85	3513.14
432.03	3768.26
432.22	3686.34
432.41	3639.53
432.60	3754.22
432.79	3662.94
432.97	3646.55
433.16	3693.37
433.35	3630.17
433.54	3779.97
433.72	3934.44
433.91	3878.27
434.10	3899.33
434.28	3836.14
434.47	3737.84
434.66	3840.82
434.85	4046.79
435.03	4014.02
435.22	4088.92
435.41	4222.33
435.59	4351.06
435.78	4114.66
435.97	4093.60
436.16	3843.16
436.34	3887.63
436.53	4102.96
436.72	4095.94
436.90	4023.38
437.09	4145.09
437.28	4142.75
437.46	4032.74
437.65	4046.79
437.84	4063.17
438.02	4149.77
438.21	4140.41
438.40	4065.51
438.58	4290.20
438.77	4315.95
438.96	4266.80
439.14	4327.65
439.33	4360.42
439.52	4409.57
439.70	4519.57
439.89	4561.70
440.08	4507.87
440.26	4542.98
440.45	4564.04
440.63	4585.11
440.82	4786.40
441.01	4589.79
441.19	4730.22
441.38	4779.37
441.57	4816.82
441.75	4917.47
441.94	4865.97
442.12	4994.70
442.31	4978.32
442.50	4816.82
442.68	5011.09
442.87	4905.76
443.05	4901.08
443.24	5114.07
443.43	5102.37
443.61	5081.30
443.80	5111.73
443.98	4856.61
444.17	5011.09
444.35	5132.79
444.54	5111.73
444.73	5100.03
444.91	5111.73
445.10	5118.75
445.28	5043.85
445.47	5132.79
445.65	5282.59
445.84	5233.44
446.02	5125.77
446.21	5165.56
446.39	5181.95
446.58	5132.79
446.77	5207.69
446.95	4992.36
447.14	5167.90
447.32	5214.71
447.51	5259.18
447.69	5205.35
447.88	5100.03
448.06	5294.29
448.25	5270.89
448.43	5322.38
448.62	5174.92
448.80	5366.85
448.99	5249.82
449.17	5387.91
449.36	5329.40
449.54	5493.24
449.73	5444.09
449.91	5413.66
450.10	5516.64
450.28	5584.52
450.46	5654.73
450.65	5516.64
450.83	5813.89
451.02	5631.33
451.20	5584.52
451.39	5617.29
451.57	5774.10
451.76	5659.42
451.94	5727.29
452.13	5774.10
452.31	5731.97
452.49	5680.48
452.68	5696.86
452.86	5664.10
453.05	5757.72
453.23	5844.32
453.42	5650.05
453.60	5781.12
453.78	5884.11
453.97	5750.70
454.15	5942.62
454.34	5926.24
454.52	6047.94
454.70	6005.81
454.89	5921.56
455.07	5977.73
455.26	5961.34
455.44	6129.86
455.62	6202.42
455.81	6085.39
455.99	6094.76
456.17	6183.70
456.36	6122.84
456.54	6307.74
456.73	6160.29
456.91	6429.45
457.09	6333.49
457.28	6441.15
457.46	6312.42
457.64	6466.90
457.83	6410.73
458.01	6590.95
458.19	6511.37
458.38	6366.26
458.56	6630.74
458.74	6792.23
458.93	6691.59
459.11	6530.09
459.29	6607.33
459.48	6647.12
459.66	6717.34
459.84	6759.47
460.03	6806.28
460.21	6602.65
460.39	6478.60
460.57	6729.04
460.76	6698.61
460.94	6679.89
461.12	6710.32
461.31	6850.75
461.49	6829.68
461.67	6813.30
461.85	7077.78
462.04	6902.24
462.22	7073.10
462.40	6974.80
462.59	7002.88
462.77	7115.23
462.95	7070.76
463.13	6899.90
463.32	7246.30
463.50	7108.21
463.68	7063.74
463.86	7117.57
464.05	7012.24
464.23	7159.70
464.41	7157.36
464.59	7037.99
464.78	7286.09
464.96	7178.42
465.14	7152.68
465.32	7255.66
465.50	7307.15
465.69	7564.61
465.87	7232.26
466.05	7253.32
466.23	7269.70
466.41	7651.21
466.60	7707.38
466.78	7386.73
466.96	7389.07
467.14	7482.69
467.32	7419.50
467.51	7630.15
467.69	7520.14
467.87	7517.80
468.05	7744.83
468.23	7473.33
468.41	7419.50
468.60	7765.90
468.78	7735.47
468.96	7620.78
469.14	7882.92
469.32	7716.75
469.50	7618.44
469.69	7882.92
469.87	7847.82
470.05	8002.29
470.23	7854.84
470.41	7847.82
470.59	8145.06
470.77	8018.68
470.95	7978.89
471.14	8292.52
471.32	7999.95
471.50	8191.88
471.68	8194.22
471.86	8264.43
472.04	8159.11
472.22	8489.12
472.40	8313.58
472.58	8484.44
472.77	8383.80
472.95	8571.04
473.13	8725.52
473.31	8437.63
473.49	8561.68
473.67	8519.55
473.85	8753.60
474.03	8828.50
474.21	8648.28
474.39	8950.21
474.57	8849.57
474.75	9202.99
474.93	9167.88
475.12	9053.19
475.30	9029.79
475.48	9036.81
475.66	9172.56
475.84	9233.41
476.02	9411.29
476.20	9280.22
476.38	9554.07
476.56	9423.00
476.74	9586.83
476.92	9593.86
477.10	9600.88
477.28	9685.14
477.46	9542.36
477.64	9905.15
477.82	9769.40
478.00	10111.11
478.18	10061.96
478.36	10333.47
478.54	10361.55
478.72	10272.61
478.90	10597.95
479.08	10637.73
479.26	10761.78
479.44	10586.24
479.62	10628.37
479.80	10892.85
479.98	10967.75
480.16	10920.94
480.34	10911.58
480.52	11033.29
480.70	11138.61
480.88	11040.31
481.06	11246.27
481.24	11276.70
481.41	11318.83
481.59	11595.01
481.77	11751.83
481.95	11660.55
482.13	11833.75
482.31	11967.16
482.49	12006.95
482.67	12138.02
482.85	12222.28
483.03	12442.29
483.21	12554.63
483.39	12414.20
483.57	12566.34
483.74	12767.62
483.92	12985.29
484.10	12533.57
484.28	12945.50
484.46	13472.12
484.64	13312.97
484.82	13261.48
485.00	13303.60
485.18	13542.34
485.35	13671.07
485.53	13600.85
485.71	13717.88
485.89	14003.43
486.07	13748.31
486.25	13867.67
486.43	14045.55
486.61	14249.18
486.78	14317.06
486.96	14506.64
487.14	14616.65
487.32	14539.41
487.50	14745.38
487.68	14906.87
487.85	15185.40
488.03	15257.95
488.21	15206.46
488.39	15590.31
488.57	15524.77
488.75	15606.69
488.92	15847.77
489.10	15822.02
489.28	15896.92
489.46	15995.22
489.64	16016.29
489.81	16353.32
489.99	16374.39
490.17	16617.80
490.35	16762.92
490.53	16821.43
490.70	17123.36
490.88	16751.21
491.06	16798.02
491.24	16985.27
491.41	17254.43
491.59	17266.13
491.77	17390.18
491.95	17392.52
492.13	17628.92
492.30	17678.07
492.48	17954.25
492.66	17685.09
492.84	17834.88
493.01	18244.48
493.19	18230.43
493.37	18347.46
493.54	18310.01
493.72	18806.20
493.90	18499.59
494.08	19042.60
494.25	18927.91
494.43	19215.80
494.61	18845.99
494.79	19070.68
494.96	19084.73
495.14	19208.78
495.32	19957.75
495.49	19763.48
495.67	19810.29
495.85	19950.73
496.02	19985.83
496.20	20093.50
496.38	20231.59
496.55	20074.77
496.73	20486.71
496.91	20521.82
497.09	20716.08
497.26	21001.63
497.44	20484.37
497.62	20725.44
497.79	21263.77
497.97	21069.50
498.14	21362.07
498.32	21322.28
498.50	21422.92
498.67	21708.47
498.85	21518.89
499.03	21652.30
499.20	21551.65
499.38	21755.28
499.56	21970.61
499.73	21940.18
499.91	22480.85
500.08	22260.84
500.26	22335.73
500.44	22160.19
500.61	22349.78
500.79	22448.08
500.97	22434.03
501.14	22714.90
501.32	22544.04
501.49	22780.43
501.67	22757.03
501.84	23300.03
502.02	22850.65
502.20	23339.82
502.37	23183.01
502.55	23101.09
502.72	23686.22
502.90	23295.35
503.07	23152.58
503.25	23557.49
503.43	23597.28
503.60	23679.20
503.78	23971.77
503.95	23765.80
504.13	23999.85
504.30	23824.31
504.48	24051.34
504.65	24039.64
504.83	24332.21
505.01	24533.50
505.18	24484.34
505.36	24669.25
505.53	24315.83
505.71	24425.83
505.88	24884.58
506.06	24533.50
506.23	24950.11
506.41	24816.70
506.58	25242.68
506.76	25144.38
506.93	25039.05
507.11	25165.44
507.28	25600.78
507.46	25259.06
507.63	25546.95
507.81	25813.77
507.98	25411.20
508.16	25757.60
508.33	25415.88
508.50	25696.74
508.68	26162.51
508.85	26235.06
509.03	26001.01
509.20	26176.55
509.38	26707.85
509.55	26431.67
509.73	26342.73
509.90	26600.19
510.08	26450.39
510.25	26487.84
510.42	26731.26
510.60	26946.59
510.77	26895.10
510.95	27283.62
511.12	26932.54
511.30	27019.14
511.47	27154.90
511.64	27012.12
511.82	27489.59
511.99	27201.71
512.17	27688.54
512.34	27515.34
512.51	27445.12
512.69	27754.07
512.86	27845.35
513.04	27791.52
513.21	27878.12
513.38	27772.80
513.56	28154.30
513.73	28002.17
513.90	28299.42
514.08	28121.54
514.25	28364.95
514.43	28327.50
514.60	28140.26
514.77	28594.32
514.95	28489.00
515.12	28432.83
515.29	28730.08
515.47	29186.48
515.64	29085.84
515.81	28821.36
515.99	29230.95
516.16	29352.66
516.33	29160.73
516.51	29415.85
516.68	29029.66
516.85	28952.43
517.03	29362.02
517.20	29385.43
517.37	29596.07
517.54	29333.93
517.72	29682.67
517.89	29645.23
518.06	29530.54
518.24	29666.29
518.41	29900.34
518.58	30075.88
518.75	29809.06
518.93	29916.73
519.10	30061.84
519.27	30410.58
519.45	29919.07
519.62	29986.94
519.79	30075.88
519.96	30113.33
520.14	30684.42
520.31	30398.88
520.48	30515.90
520.65	30536.97
520.83	30408.24
521.00	30944.22
521.17	30658.68
521.34	31044.87
521.52	30590.80
521.69	30995.71
521.86	31122.10
522.03	31358.50
522.20	31187.64
522.38	30899.75
522.55	31344.45
522.72	31349.14
522.89	31419.35
523.07	31653.40
523.24	31440.42
523.41	31861.71
523.58	31269.56
523.75	31838.31
523.92	31417.01
524.10	31831.29
524.27	31934.27
524.44	32283.01
524.61	32173.00
524.78	32704.31
524.96	32481.95
525.13	32135.56
525.30	32107.47
525.47	32648.13
525.64	32451.53
525.81	32622.39
525.98	32629.41
526.16	32938.36
526.33	32945.38
526.50	33048.36
526.67	32833.04
526.84	32690.26
527.01	32444.51
527.18	32865.80
527.36	32950.06
527.53	33240.29
527.70	33399.44
527.87	33661.58
528.04	33439.23
528.21	33137.30
528.38	33303.48
528.55	33511.79
528.72	33546.90
528.89	33567.96
529.07	33567.96
529.24	33654.56
529.41	33633.50
529.58	33607.75
529.75	33558.60
529.92	33809.04
530.09	33755.21
530.26	33680.31
530.43	33724.78
530.60	33696.69
530.77	33713.08
530.94	33928.41
531.11	34148.42
531.28	34033.73
531.46	34298.21
531.63	34370.77
531.80	34328.64
531.97	34319.28
532.14	34560.35
532.31	34513.54
532.48	34796.74
532.65	34714.83
532.82	34150.76
532.99	34550.99
533.16	34698.44
533.33	35126.76
533.50	34909.09
533.67	35077.61
533.84	34801.43
534.01	34801.43
534.18	34581.42
534.35	34983.99
534.52	34778.02
534.69	35580.82
534.86	35388.90
535.03	35248.47
535.20	35098.67
535.37	34857.60
535.54	35576.14
535.71	35346.77
535.88	35152.51
536.05	35012.07
536.22	35583.16
536.38	35920.20
536.55	35519.97
536.72	35810.20
536.89	35761.05
537.06	35129.10
537.23	35941.27
537.40	35763.39
537.57	35571.46
537.74	35611.25
537.91	35849.99
538.08	36226.81
538.25	35658.06
538.42	35826.58
538.59	36058.29
538.75	36243.20
538.92	35777.43
539.09	35873.39
539.26	35981.06
539.43	36208.09
539.60	36594.28
539.77	36584.91
539.94	36636.41
540.11	36744.07
540.28	36493.63
540.44	36320.43
540.61	36893.86
540.78	36311.07
540.95	36921.95
541.12	36730.03
541.29	37109.19
541.46	37010.89
541.62	36954.72
541.79	37347.93
541.96	36774.50
542.13	36804.92
542.30	37298.78
542.47	37226.22
542.63	37525.81
542.80	37301.12
542.97	37865.19
543.14	38068.81
543.31	37556.24
543.48	37776.25
543.64	37626.45
543.81	37954.13
543.98	37844.12
544.15	38031.36
544.32	38115.62
544.48	38293.50
544.65	37567.94
544.82	38115.62
544.99	37317.50
545.16	37862.85
545.32	38124.99
545.49	39007.37
545.66	39349.09
545.83	39297.59
546.00	39108.01
546.16	38752.25
546.33	38113.28
546.50	38064.13
546.67	37993.92
546.83	37874.55
547.00	38403.51
547.17	38246.69
547.34	38410.53
547.50	38829.49
547.67	38129.67
547.84	38621.18
548.00	38342.66
548.17	38724.16
548.34	38450.32
548.51	38717.14
548.67	39220.36
548.84	38382.45
549.01	38429.26
549.18	38857.57
549.34	38944.17
549.51	38588.41
549.68	38944.17
549.84	38532.24
550.01	38323.93
550.18	38354.36
550.34	38726.50
550.51	39381.85
550.68	38897.36
550.84	38579.05
551.01	38932.47
551.18	38808.42
551.34	38672.67
551.51	38684.37
551.68	39089.29
551.84	39103.33
552.01	38738.21
552.18	39330.36
552.34	38684.37
552.51	38967.58
552.68	39028.43
552.84	38700.76
553.01	39269.51
553.18	39208.65
553.34	39278.87
553.51	39145.46
553.67	39407.60
553.84	39611.23
554.01	39470.79
554.17	39323.34
554.34	39522.29
554.51	39449.73
554.67	39683.78
554.84	39005.03
555.00	39618.25
555.17	39229.72
555.33	39749.32
555.50	39412.28
555.67	39260.15
555.83	39824.22
556.00	39407.60
556.16	39807.83
556.33	39353.77
556.50	39730.59
556.66	39381.85
556.83	39463.77
556.99	40418.71
557.16	39948.26
557.32	40257.21
557.49	39800.81
557.65	39484.84
557.82	39758.68
557.98	39842.94
558.15	39878.05
558.32	39899.11
558.48	39775.06
558.65	40453.82
558.81	39648.68
558.98	40198.70
559.14	39676.76
559.31	39697.83
559.47	39976.35
559.64	40072.31
559.80	40273.60
559.97	40208.06
560.13	39847.62
560.30	39922.52
560.46	40142.53
560.63	40343.81
560.79	39903.79
560.96	40091.04
561.12	39688.46
561.29	40458.50
561.45	40076.99
561.61	40168.27
561.78	40275.94
561.94	40219.77
562.11	40198.70
562.27	39861.66
562.44	40105.08
562.60	40369.56
562.77	40683.19
562.93	40191.68
563.10	40671.49
563.26	40179.98
563.42	40950.01
563.59	40542.76
563.75	40102.74
563.92	40924.27
564.08	39709.53
564.24	40460.84
564.41	39997.41
564.57	40388.28
564.74	40409.35
564.90	40687.87
565.07	40179.98
565.23	40779.15
565.39	40428.07
565.56	40210.40
565.72	39878.05
565.88	40680.85
566.05	40268.92
566.21	40582.55
566.38	40374.24
566.54	40737.02
566.70	40470.20
566.87	40744.05
567.03	40517.01
567.19	40769.79
567.36	40229.13
567.52	40519.35
567.68	40774.47
567.85	40407.01
568.01	40800.22
568.17	40264.24
568.34	40793.20
568.50	40524.04
568.66	40762.77
568.83	40514.67
568.99	40261.90
569.15	40538.08
569.32	40364.88
569.48	40694.89
569.64	40727.66
569.81	40254.87
569.97	40301.68
570.13	40610.64
570.30	40502.97
570.46	40711.28
570.62	40844.69
570.78	40711.28
570.95	40456.16
571.11	40566.16
571.27	40245.51
571.43	40348.50
571.60	40545.10
571.76	40828.30
571.92	40425.73
572.09	40732.34
572.25	40804.90
572.41	40914.90
572.57	40577.87
572.74	40786.18
572.90	40849.37
573.06	40418.71
573.22	40526.38
573.38	40823.62
573.55	40818.94
573.71	41001.50
573.87	41034.27
574.03	40465.52
574.20	40671.49
574.36	40587.23
574.52	40528.72
574.68	40470.20
574.84	40540.42
575.01	40919.59
575.17	40957.03
575.33	40926.61
575.49	40498.29
575.65	41017.89
575.82	40601.27
575.98	40573.19
576.14	41097.47
576.30	41001.50
576.46	40746.39
576.62	41251.94
576.79	40889.16
576.95	40664.47
577.11	40662.13
577.27	40823.62
577.43	40842.35
577.59	40783.83
577.75	40795.54
577.92	40669.15
578.08	40233.81
578.24	40624.68
578.40	40479.57
578.56	40835.33
578.72	40945.33
578.88	41415.78
579.04	41317.48
579.21	40957.03
579.37	41265.99
579.53	40893.84
579.69	40538.08
579.85	40294.66
580.01	40973.42
580.17	40678.51
580.33	40816.60
580.49	40746.39
580.65	40697.24
580.82	40825.96
580.98	40722.98
581.14	41137.26
581.30	40980.44
581.46	41158.32
581.62	40421.05
581.78	40891.50
581.94	40903.20
582.10	40687.87
582.26	40942.99
582.42	41001.50
582.58	41113.85
582.74	40964.06
582.90	40858.73
583.06	40957.03
583.22	40863.41
583.38	41069.38
583.54	40711.28
583.70	41111.51
583.86	40844.69
584.02	40884.48
584.18	41291.73
584.34	40973.42
584.50	41184.07
584.66	41202.79
584.82	40629.36
584.98	41249.60
585.14	41324.50
585.30	40624.68
585.46	40737.02
585.62	40512.33
585.78	41633.45
585.94	40921.93
586.10	41008.53
586.26	41359.61
586.42	40837.67
586.58	41383.01
586.74	40730.00
586.90	40980.44
587.06	40765.11
587.22	41167.68
587.38	40711.28
587.54	41102.15
587.70	41139.60
587.86	41057.68
588.02	41581.96
588.18	41038.95
588.34	41069.38
588.49	40741.71
588.65	40926.61
588.81	41242.58
588.97	40940.65
589.13	40921.93
589.29	41088.10
589.45	41031.93
589.61	41167.68
589.77	41338.54
589.93	41160.66
590.08	40980.44
590.24	41053.00
590.40	41275.35
590.56	41474.29
590.72	40767.45
590.88	41078.74
591.04	41184.07
