SpectraSuite Data File
++++++++++++++++++++++++++++++++++++
Date: Fri Oct 04 11:39:58 GMT-05:00 2013
User: price-jones
Dark Spectrum Present: No
Reference Spectrum Present: No
Number of Sampled Component Spectra: 1
Spectrometers: USB2+H05261
Integration Time (usec): 100000 (USB2+H05261)
Spectra Averaged: 1 (USB2+H05261)
Boxcar Smoothing: 0 (USB2+H05261)
Correct for Electrical Dark: No (USB2+H05261)
Strobe/Lamp Enabled: No (USB2+H05261)
Correct for Detector Non-linearity: No (USB2+H05261)
Correct for Stray Light: No (USB2+H05261)
Number of Pixels in Processed Spectrum: 2048
>>>>>Begin Processed Spectral Data<<<<<
365.73	58.51
365.92	58.51
366.12	58.51
366.32	0.00
366.52	0.00
366.72	0.00
366.91	0.00
367.11	0.00
367.31	0.00
367.51	0.00
367.70	0.00
367.90	0.00
368.10	0.00
368.30	9.36
368.49	0.00
368.69	0.00
368.89	0.00
369.09	0.00
369.28	0.00
369.48	0.00
369.68	0.00
369.87	0.00
370.07	0.00
370.27	11.70
370.47	58.51
370.66	44.47
370.86	95.96
371.06	105.32
371.25	77.24
371.45	95.96
371.65	58.51
371.84	30.43
372.04	77.24
372.24	95.96
372.44	67.88
372.63	135.75
372.83	266.82
373.03	79.58
373.22	140.43
373.42	145.11
373.62	154.48
373.81	154.48
374.01	215.33
374.21	201.29
374.40	149.79
374.60	180.22
374.79	180.22
374.99	152.13
375.19	156.82
375.38	180.22
375.58	147.45
375.78	205.97
375.97	203.63
376.17	231.71
376.37	191.92
376.56	138.09
376.76	149.79
376.95	131.07
377.15	100.64
377.35	135.75
377.54	184.90
377.74	177.88
377.93	145.11
378.13	124.05
378.33	257.46
378.52	201.29
378.72	203.63
378.91	140.43
379.11	191.92
379.31	177.88
379.50	175.54
379.70	215.33
379.89	156.82
380.09	135.75
380.28	102.98
380.48	107.66
380.68	161.50
380.87	175.54
381.07	126.39
381.26	196.60
381.46	163.84
381.65	154.48
381.85	224.69
382.04	168.52
382.24	182.56
382.43	168.52
382.63	131.07
382.83	173.20
383.02	255.12
383.22	203.63
383.41	145.11
383.61	180.22
383.80	201.29
384.00	124.05
384.19	168.52
384.39	198.95
384.58	198.95
384.78	257.46
384.97	138.09
385.17	220.01
385.36	227.03
385.56	198.95
385.75	72.56
385.95	161.50
386.14	180.22
386.34	152.13
386.53	196.60
386.72	177.88
386.92	234.05
387.11	236.39
387.31	259.80
387.50	215.33
387.70	147.45
387.89	163.84
388.09	175.54
388.28	161.50
388.48	159.16
388.67	170.86
388.86	203.63
389.06	152.13
389.25	189.58
389.45	128.73
389.64	276.18
389.84	182.56
390.03	173.20
390.22	147.45
390.42	220.01
390.61	135.75
390.81	187.24
391.00	154.48
391.19	229.37
391.39	210.65
391.58	203.63
391.78	191.92
391.97	227.03
392.16	145.11
392.36	208.31
392.55	250.44
392.75	208.31
392.94	257.46
393.13	138.09
393.33	170.86
393.52	215.33
393.71	271.50
393.91	280.86
394.10	262.14
394.29	173.20
394.49	238.73
394.68	358.10
394.88	245.76
395.07	304.27
395.26	269.16
395.46	208.31
395.65	276.18
395.84	210.65
396.04	376.83
396.23	273.84
396.42	266.82
396.62	241.08
396.81	248.10
397.00	236.39
397.19	250.44
397.39	271.50
397.58	238.73
397.77	257.46
397.97	297.25
398.16	294.91
398.35	273.84
398.55	243.42
398.74	227.03
398.93	301.93
399.12	287.89
399.32	325.33
399.51	294.91
399.70	315.97
399.90	227.03
400.09	325.33
400.28	327.68
400.47	248.10
400.67	285.55
400.86	320.65
401.05	227.03
401.24	355.76
401.44	327.68
401.63	393.21
401.82	339.38
402.01	327.68
402.21	308.95
402.40	346.40
402.59	245.76
402.78	341.72
402.97	456.40
403.17	395.55
403.36	402.57
403.55	327.68
403.74	376.83
403.93	444.70
404.13	594.50
404.32	514.92
404.51	580.45
404.70	428.32
404.89	447.04
405.09	388.53
405.28	395.55
405.47	400.23
405.66	461.09
405.85	449.38
406.05	409.59
406.24	442.36
406.43	402.57
406.62	498.53
406.81	498.53
407.00	528.96
407.20	482.15
407.39	484.49
407.58	407.25
407.77	517.26
407.96	519.60
408.15	528.96
408.34	461.09
408.54	601.52
408.73	519.60
408.92	519.60
409.11	491.51
409.30	475.13
409.49	505.56
409.68	533.64
409.87	451.72
410.07	507.90
410.26	496.19
410.45	540.66
410.64	559.39
410.83	566.41
411.02	533.64
411.21	610.88
411.40	580.45
411.59	580.45
411.78	589.82
411.98	559.39
412.17	601.52
412.36	554.71
412.55	580.45
412.74	641.31
412.93	573.43
413.12	697.48
413.31	688.12
413.50	606.20
413.69	685.78
413.88	702.16
414.07	690.46
414.26	737.27
414.45	711.52
414.64	713.86
414.83	753.65
415.02	727.91
415.22	760.67
415.41	875.36
415.60	774.72
415.79	840.25
415.98	798.12
416.17	833.23
416.36	805.14
416.55	793.44
416.74	788.76
416.93	809.83
417.12	873.02
417.31	791.10
417.50	830.89
417.69	929.19
417.88	835.57
418.07	809.83
418.26	936.21
418.45	910.47
418.64	940.90
418.83	954.94
419.02	903.45
419.21	837.91
419.39	856.64
419.58	812.17
419.77	898.77
419.96	990.05
420.15	992.39
420.34	959.62
420.53	901.11
420.72	938.55
420.91	884.72
421.10	943.24
421.29	987.71
421.48	954.94
421.67	1053.24
421.86	898.77
422.05	926.85
422.24	990.05
422.43	1046.22
422.61	929.19
422.80	1018.13
422.99	1116.44
423.18	945.58
423.37	961.96
423.56	1107.07
423.75	1137.50
423.94	999.41
424.13	926.85
424.32	997.07
424.50	1083.67
424.69	1013.45
424.88	1109.41
425.07	987.71
425.26	997.07
425.45	1067.28
425.64	1064.94
425.83	1069.62
426.01	1107.07
426.20	1114.10
426.39	1032.18
426.58	1107.07
426.77	983.02
426.96	1020.47
427.15	1128.14
427.33	997.07
427.52	1203.04
427.71	990.05
427.90	1008.77
428.09	1055.58
428.28	1081.33
428.46	1104.73
428.65	1142.18
428.84	1097.71
429.03	1217.08
429.22	1076.65
429.40	1090.69
429.59	1137.50
429.78	1142.18
429.97	1128.14
430.16	1128.14
430.34	1235.80
430.53	1191.33
430.72	1184.31
430.91	1132.82
431.10	1219.42
431.28	1242.82
431.47	1130.48
431.66	1259.21
431.85	1207.72
432.03	1270.91
432.22	1245.16
432.41	1275.59
432.60	1196.01
432.79	1277.93
432.97	1254.53
433.16	1334.11
433.35	1228.78
433.54	1362.19
433.72	1160.91
433.91	1303.68
434.10	1247.51
434.28	1275.59
434.47	1270.91
434.66	1376.24
434.85	1324.74
435.03	1495.60
435.22	1947.33
435.41	2338.20
435.59	2356.92
435.78	2012.86
435.97	1720.29
436.16	1483.90
436.34	1334.11
436.53	1291.98
436.72	1458.15
436.90	1320.06
437.09	1423.05
437.28	1385.60
437.46	1451.13
437.65	1399.64
437.84	1523.69
438.02	1303.68
438.21	1448.79
438.40	1350.49
438.58	1502.62
438.77	1453.47
438.96	1434.75
439.14	1493.26
439.33	1514.33
439.52	1401.98
439.70	1572.84
439.89	1514.33
440.08	1523.69
440.26	1519.01
440.45	1605.61
440.63	1603.27
440.82	1596.25
441.01	1511.99
441.19	1530.71
441.38	1715.61
441.57	1582.20
441.75	1654.76
441.94	1640.72
442.12	1664.12
442.31	1671.14
442.50	1614.97
442.68	1685.19
442.87	1675.82
443.05	1654.76
443.24	1699.23
443.43	1631.35
443.61	1767.10
443.80	1760.08
443.98	1617.31
444.17	1668.80
444.35	1678.16
444.54	1689.87
444.73	1687.53
444.91	1736.68
445.10	1720.29
445.28	1743.70
445.47	1755.40
445.65	1753.06
445.84	1732.00
446.02	1834.98
446.21	1762.42
446.39	1696.89
446.58	1739.02
446.77	1631.35
446.95	1776.47
447.14	1710.93
447.32	1830.30
447.51	1650.08
447.69	1795.19
447.88	1769.44
448.06	1877.11
448.25	1795.19
448.43	1884.13
448.62	1795.19
448.80	1895.83
448.99	1797.53
449.17	1818.60
449.36	1795.19
449.54	1792.85
449.73	1720.29
449.91	1872.43
450.10	1832.64
450.28	1919.24
450.46	1975.41
450.65	1806.89
450.83	1893.49
451.02	1743.70
451.20	1933.28
451.39	1968.39
451.57	1996.48
451.76	1942.64
451.94	1867.75
452.13	1942.64
452.31	1998.82
452.49	1923.92
452.68	1961.37
452.86	1900.52
453.05	1919.24
453.23	1989.46
453.42	1881.79
453.60	1909.88
453.78	1952.01
453.97	1886.47
454.15	1959.03
454.34	1968.39
454.52	1914.56
454.70	2059.67
454.89	1998.82
455.07	1977.75
455.26	1970.73
455.44	1996.48
455.62	1989.46
455.81	1874.77
455.99	1996.48
456.17	2094.78
456.36	2069.03
456.54	2015.20
456.73	2167.34
456.91	2148.61
457.09	2026.90
457.28	2162.66
457.46	2157.97
457.64	2118.18
457.83	2134.57
458.01	2141.59
458.19	2246.91
458.38	2150.95
458.56	2127.55
458.74	2176.70
458.93	2260.96
459.11	2176.70
459.29	2186.06
459.48	2228.19
459.66	2165.00
459.84	2305.43
460.03	2303.09
460.21	2303.09
460.39	2214.15
460.57	2232.87
460.76	2193.08
460.94	2342.88
461.12	2298.41
461.31	2368.62
461.49	2232.87
461.67	2225.85
461.85	2258.62
462.04	2282.02
462.22	2759.49
462.40	2387.35
462.59	2363.94
462.77	2324.15
462.95	2417.77
463.13	2305.43
463.32	2303.09
463.50	2434.16
463.68	2399.05
463.86	2333.51
464.05	2363.94
464.23	2356.92
464.41	2354.58
464.59	2377.98
464.78	2359.26
464.96	2363.94
465.14	2457.56
465.32	2410.75
465.50	2469.27
465.69	2441.18
465.87	2373.30
466.05	2464.58
466.23	2377.98
466.41	2476.29
466.60	2530.12
466.78	2537.14
466.96	2518.42
467.14	2377.98
467.32	2443.52
467.51	2544.16
467.69	2490.33
467.87	2541.82
468.05	2513.74
468.23	2509.05
468.41	2581.61
468.60	2579.27
468.78	2565.23
468.96	2509.05
469.14	2630.76
469.32	2562.89
469.50	2569.91
469.69	2691.62
469.87	2619.06
470.05	2619.06
470.23	2679.91
470.41	2661.19
470.59	2583.95
470.77	2565.23
470.95	2715.02
471.14	2628.42
471.32	2684.59
471.50	2794.60
471.68	2663.53
471.86	2565.23
472.04	2738.43
472.22	2792.26
472.40	2785.24
472.58	2836.73
472.77	2731.41
472.95	2855.45
473.13	2911.63
473.31	2829.71
473.49	2815.66
473.67	2731.41
473.85	2853.11
474.03	2862.48
474.21	2920.99
474.39	3049.72
474.57	2909.29
474.75	2963.12
474.93	2920.99
475.12	2925.67
475.30	2963.12
475.48	2895.24
475.66	3056.74
475.84	3063.76
476.02	3012.27
476.20	3091.85
476.38	3091.85
476.56	3119.93
476.74	3119.93
476.92	3232.28
477.10	3192.49
477.28	3314.20
477.46	3213.56
477.64	3304.84
477.82	3339.94
478.00	3346.97
478.18	3194.83
478.36	3410.16
478.54	3405.48
478.72	3342.28
478.90	3449.95
479.08	3520.17
479.26	3321.22
479.44	3499.10
479.62	3576.34
479.80	3613.79
479.98	3548.25
480.16	3667.62
480.34	3557.61
480.52	3520.17
480.70	3604.42
480.88	3566.98
481.06	3695.71
481.24	3808.05
481.41	3763.58
481.59	3747.20
481.77	3747.20
481.95	3852.52
482.13	3946.14
482.31	3817.41
482.49	4039.76
482.67	3871.25
482.85	4039.76
483.03	4248.07
483.21	4098.28
483.39	3976.57
483.57	4067.85
483.74	4037.42
483.92	4119.34
484.10	4238.71
484.28	4252.75
484.46	4264.46
484.64	4360.42
484.82	4315.95
485.00	4287.86
485.18	4505.53
485.35	4521.92
485.53	4451.70
485.71	4603.83
485.89	4528.94
486.07	4564.04
486.25	4697.46
486.43	4706.82
486.61	4575.75
486.78	4851.93
486.96	4748.95
487.14	4819.16
487.32	4844.91
487.50	4964.28
487.68	4798.10
487.85	4922.15
488.03	4978.32
488.21	5008.75
488.39	5055.56
488.57	4985.34
488.75	5158.54
488.92	5507.28
489.10	5245.14
489.28	5184.29
489.46	5172.58
489.64	5186.63
489.81	5273.23
489.99	5507.28
490.17	5310.68
490.35	5544.73
490.53	5493.24
490.70	5357.49
490.88	5334.08
491.06	5474.51
491.24	5509.62
491.41	5476.85
491.59	5458.13
491.77	5570.48
491.95	5680.48
492.13	5598.56
492.30	5708.57
492.48	5664.10
492.66	5874.74
492.84	5605.58
493.01	5834.96
493.19	5856.02
493.37	6012.84
493.54	5944.96
493.72	6031.56
493.90	6129.86
494.08	5926.24
494.25	6153.27
494.43	6073.69
494.61	6181.35
494.79	6289.02
494.96	6270.30
495.14	6333.49
495.32	6314.77
495.49	6188.38
495.67	6356.90
495.85	6490.31
496.02	6333.49
496.20	6443.49
496.38	6277.32
496.55	6520.73
496.73	6464.56
496.91	6403.71
497.09	6794.58
497.26	6619.04
497.44	6635.42
497.62	6544.14
497.79	6672.87
497.97	6642.44
498.14	6745.42
498.32	6731.38
498.50	6834.36
498.67	6656.48
498.85	6719.68
499.03	6986.50
499.20	6970.12
499.38	6906.92
499.56	6862.45
499.73	7002.88
499.91	6930.33
500.08	6993.52
500.26	6998.20
500.44	7236.94
500.61	7157.36
500.79	7084.80
500.97	7225.23
501.14	7314.17
501.32	7115.23
501.49	7255.66
501.67	7424.18
501.84	7218.21
502.02	7136.29
502.20	7419.50
502.37	7382.05
502.55	7255.66
502.72	7529.50
502.90	7218.21
503.07	7611.42
503.25	7403.11
503.43	7564.61
503.60	7468.65
503.78	7527.16
503.95	7646.53
504.13	7627.81
504.30	7737.81
504.48	7632.49
504.65	7672.28
504.83	7819.73
505.01	7747.17
505.18	7733.13
505.36	7658.23
505.53	7714.41
505.71	7716.75
505.88	7824.41
506.06	7882.92
506.23	7932.08
506.41	7866.54
506.58	7833.77
506.76	7817.39
506.93	8095.91
507.11	7810.37
507.28	7822.07
507.46	7936.76
507.63	8032.72
507.81	8121.66
507.98	8046.76
508.16	8016.33
508.33	8184.85
508.50	8145.06
508.68	8145.06
508.85	8224.64
509.03	8177.83
509.20	8470.40
509.38	8533.59
509.55	8351.03
509.73	8458.70
509.90	8542.96
510.08	8524.23
510.25	8234.00
510.42	8566.36
510.60	8559.34
510.77	8376.78
510.95	8657.64
511.12	8397.84
511.30	8580.40
511.47	8667.00
511.64	8631.90
511.82	8713.81
511.99	8507.85
512.17	8791.05
512.34	8547.64
512.51	8648.28
512.69	8671.68
512.86	8861.27
513.04	8847.22
513.21	8751.26
513.38	8933.82
513.56	8800.41
513.73	8973.61
513.90	8992.34
514.08	8884.67
514.25	9018.08
514.43	8875.31
514.60	9060.21
514.77	8973.61
514.95	9055.53
515.12	8999.36
515.29	8957.23
515.47	9132.77
515.64	8966.59
515.81	9027.45
515.99	9291.93
516.16	9282.56
516.33	9312.99
516.51	9270.86
516.68	9149.15
516.85	9142.13
517.03	9312.99
517.20	9376.19
517.37	9387.89
517.54	9343.42
517.72	9308.31
517.89	9334.06
518.06	9207.67
518.24	9270.86
518.41	9397.25
518.58	9439.38
518.75	9369.16
518.93	9540.02
519.10	9664.07
519.27	9600.88
519.45	9343.42
519.62	9444.06
519.79	9577.47
519.96	9682.80
520.14	9547.05
520.31	9748.33
520.48	9685.14
520.65	9675.77
520.83	9687.48
521.00	9907.49
521.17	9537.68
521.34	9652.37
521.52	9832.59
521.69	9694.50
521.86	9879.40
522.03	9928.55
522.20	9881.74
522.38	9891.10
522.55	9865.36
522.72	9991.75
522.89	10045.58
523.07	10256.23
523.24	10178.99
523.41	10012.81
523.58	9891.10
523.75	10143.88
523.92	10162.61
524.10	10019.83
524.27	10118.14
524.44	10207.08
524.61	10525.39
524.78	10186.01
524.96	10150.90
525.13	10101.75
525.30	10298.36
525.47	10099.41
525.64	10221.12
525.81	10478.58
525.98	10373.25
526.16	10216.44
526.33	10176.65
526.50	10328.78
526.67	10413.04
526.84	10190.69
527.01	10359.21
527.18	10427.09
527.36	10443.47
527.53	10509.01
527.70	10544.11
527.87	10448.15
528.04	10532.41
528.21	10656.46
528.38	10597.95
528.55	10415.38
528.72	10654.12
528.89	10576.88
529.07	10471.56
529.24	10567.52
529.41	10867.11
529.58	10497.30
529.75	10635.39
529.92	10719.65
530.09	10665.82
530.26	10616.67
530.43	10642.42
530.60	10445.81
530.77	10878.81
530.94	10803.91
531.11	10705.61
531.28	10743.06
531.46	11044.99
531.63	10789.87
531.80	10843.70
531.97	10937.32
532.14	10993.50
532.31	11059.03
532.48	10960.73
532.65	11171.38
532.82	10834.34
532.99	11080.10
533.16	11016.90
533.33	11180.74
533.50	11154.99
533.67	11077.76
533.84	11117.54
534.01	10937.32
534.18	10995.84
534.35	11222.87
534.52	11190.10
534.69	11171.38
534.86	10949.03
535.03	10862.43
535.20	11044.99
535.37	11185.42
535.54	11257.98
535.71	11105.84
535.88	11559.91
536.05	11372.66
536.22	11272.02
536.38	11304.79
536.55	11272.02
536.72	11332.87
536.89	11405.43
537.06	11475.65
537.23	11508.41
537.40	11433.52
537.57	11541.18
537.74	11438.20
537.91	11524.80
538.08	11316.49
538.25	11459.26
538.42	11513.10
538.59	11698.00
538.75	11433.52
538.92	11576.29
539.09	11658.21
539.26	11496.71
539.43	11822.05
539.60	11864.18
539.77	11775.24
539.94	12138.02
540.11	12095.89
540.28	12168.45
540.44	12032.69
540.61	11754.17
540.78	11885.24
540.95	12395.48
541.12	12662.30
541.29	12531.23
541.46	12732.51
541.62	12657.62
541.79	12477.40
541.96	12376.75
542.13	12355.69
542.30	12718.47
542.47	12664.64
542.63	12418.88
542.80	12582.72
542.97	12631.87
543.14	12601.44
543.31	12718.47
543.48	12505.48
543.64	12666.98
543.81	12671.66
543.98	12772.30
544.15	12610.81
544.32	12767.62
544.48	12835.50
544.65	12826.14
544.82	12950.18
544.99	12512.50
545.16	12744.22
545.32	12716.13
545.49	13731.92
545.66	14904.53
545.83	15080.07
546.00	14548.77
546.16	13645.32
546.33	13385.52
546.50	12994.65
546.67	12865.92
546.83	12606.13
547.00	12617.83
547.17	12685.70
547.34	12594.42
547.50	12606.13
547.67	12629.53
547.84	12746.56
548.00	12580.38
548.17	12800.39
548.34	12652.94
548.51	12622.51
548.67	12681.02
548.84	12514.84
549.01	12468.03
549.18	12674.00
549.34	12800.39
549.51	12524.21
549.68	12814.43
549.84	12414.20
550.01	12367.39
550.18	12683.36
550.34	12566.34
550.51	12615.49
550.68	12599.10
550.84	12636.55
551.01	12568.68
551.18	12545.27
551.34	12489.10
551.51	12369.73
551.68	12823.80
551.84	12430.59
552.01	12400.16
552.18	12596.76
552.34	12233.98
552.51	12641.23
552.68	12353.35
552.84	12376.75
553.01	12650.60
553.18	12432.93
553.34	12589.74
553.51	12524.21
553.67	12461.01
553.84	12493.78
554.01	12624.85
554.17	12568.68
554.34	12531.23
554.51	12615.49
554.67	12681.02
554.84	12395.48
555.00	12622.51
555.17	12540.59
555.33	12652.94
555.50	12676.34
555.67	12430.59
555.83	12500.80
556.00	12643.57
556.16	12966.57
556.33	12313.56
556.50	12755.92
556.66	12650.60
556.83	12556.97
556.99	12863.58
557.16	12741.88
557.32	12517.18
557.49	12767.62
557.65	12769.96
557.82	12751.24
557.98	12690.38
558.15	12592.08
558.32	12788.69
558.48	12669.32
558.65	12620.17
558.81	12753.58
558.98	12690.38
559.14	12720.81
559.31	12805.07
559.47	12727.83
559.64	12615.49
559.80	12631.87
559.97	12510.16
560.13	12533.57
560.30	12666.98
560.46	12898.69
560.63	12617.83
560.79	12695.07
560.96	12730.17
561.12	12849.54
561.29	12748.90
561.45	12711.45
561.61	12755.92
561.78	12582.72
561.94	12610.81
562.11	12784.01
562.27	12821.45
562.44	12884.65
562.60	12772.30
562.77	12830.82
562.93	12833.16
563.10	12678.68
563.26	12760.60
563.42	12973.59
563.59	12903.37
563.75	12830.82
563.92	12631.87
564.08	12908.05
564.24	12776.98
564.41	12657.62
564.57	12854.22
564.74	12784.01
564.90	12851.88
565.07	12753.58
565.23	13036.78
565.39	12779.32
565.56	12755.92
565.72	12987.63
565.88	12812.09
566.05	12858.90
566.21	12842.52
566.38	12999.34
566.54	12774.64
566.70	12812.09
566.87	13013.38
567.03	12837.84
567.19	12812.09
567.36	12795.71
567.52	12688.04
567.68	12915.08
567.85	12823.80
568.01	12912.74
568.17	12856.56
568.34	12847.20
568.50	12973.59
568.66	12554.63
568.83	12833.16
568.99	12814.43
569.15	12840.18
569.32	12718.47
569.48	12924.44
569.64	12945.50
569.81	12924.44
569.97	12840.18
570.13	13071.89
570.30	12580.38
570.46	12758.26
570.62	13069.55
570.78	12830.82
570.95	12842.52
571.11	13118.70
571.27	13020.40
571.43	12769.96
571.60	12987.63
571.76	12844.86
571.92	12919.76
572.09	12781.67
572.25	12999.34
572.41	12847.20
572.57	12971.25
572.74	12959.55
572.90	12744.22
573.06	12985.29
573.22	12987.63
573.38	12908.05
573.55	13001.68
573.71	13022.74
573.87	13074.23
574.03	12798.05
574.20	13121.04
574.36	12854.22
574.52	12751.24
574.68	12549.95
574.84	12917.42
575.01	12964.23
575.17	12996.99
575.33	12910.40
575.49	12863.58
575.65	12945.50
575.82	13041.46
575.98	12943.16
576.14	12982.95
576.30	13153.81
576.46	13107.00
576.62	13441.70
576.79	13600.85
576.95	13142.11
577.11	13193.60
577.27	13022.74
577.43	13041.46
577.59	13078.91
577.75	13291.90
577.92	13015.72
578.08	12973.59
578.24	13109.34
578.40	12910.40
578.56	13303.60
578.72	13327.01
578.88	13631.28
579.04	13525.96
579.21	13415.95
579.37	13193.60
579.53	13289.56
579.69	12816.77
579.85	12784.01
580.01	13142.11
580.17	13142.11
580.33	13099.98
580.49	13235.73
580.65	13280.20
580.82	13221.69
580.98	13172.54
581.14	12940.82
581.30	13205.30
581.46	13392.55
581.62	13291.90
581.78	12994.65
581.94	12931.46
582.10	13015.72
582.26	13151.47
582.42	13268.50
582.58	13462.76
582.74	13376.16
582.90	13046.15
583.06	13308.29
583.22	13310.63
583.38	13172.54
583.54	13116.36
583.70	13174.88
583.86	13289.56
584.02	13186.58
584.18	13142.11
584.34	13418.29
584.50	13071.89
584.66	13085.94
584.82	13266.16
584.98	13001.68
585.14	13263.82
585.30	13121.04
585.46	13130.41
585.62	13125.72
585.78	13224.03
585.94	13135.09
586.10	13092.96
586.26	13170.19
586.42	13366.80
586.58	13451.06
586.74	13111.68
586.90	13458.08
587.06	13289.56
587.22	13329.35
587.38	13540.00
587.54	13345.73
587.70	13483.83
587.86	13378.50
588.02	13303.60
588.18	13406.59
588.34	13270.84
588.49	13158.49
588.65	12999.34
588.81	12971.25
588.97	13224.03
589.13	13181.90
589.29	13511.91
589.45	13238.07
589.61	13263.82
589.77	13411.27
589.93	13441.70
590.08	13287.22
590.24	13242.75
590.40	13165.51
590.56	13369.14
590.72	13172.54
590.88	13245.09
591.04	13465.10
591.20	13465.10
591.35	13509.57
591.51	13418.29
591.67	13715.54
591.83	13385.52
591.99	13144.45
592.15	13312.97
592.31	13144.45
592.46	13336.37
592.62	13387.86
592.78	13233.39
592.94	13322.33
593.10	13532.98
593.26	13624.26
593.41	13448.72
593.57	13411.27
593.73	13523.62
593.89	13242.75
594.05	13378.50
594.20	13448.72
594.36	13025.08
594.52	13193.60
594.68	13212.32
594.84	13193.60
