SpectraSuite Data File
++++++++++++++++++++++++++++++++++++
Date: Fri Oct 04 11:39:57 GMT-05:00 2013
User: price-jones
Dark Spectrum Present: No
Reference Spectrum Present: No
Number of Sampled Component Spectra: 1
Spectrometers: USB2+H05261
Integration Time (usec): 100000 (USB2+H05261)
Spectra Averaged: 1 (USB2+H05261)
Boxcar Smoothing: 0 (USB2+H05261)
Correct for Electrical Dark: No (USB2+H05261)
Strobe/Lamp Enabled: No (USB2+H05261)
Correct for Detector Non-linearity: No (USB2+H05261)
Correct for Stray Light: No (USB2+H05261)
Number of Pixels in Processed Spectrum: 2048
>>>>>Begin Processed Spectral Data<<<<<
365.73	0.00
365.92	0.00
366.12	0.00
366.32	0.00
366.52	0.00
366.72	0.00
366.91	0.00
367.11	0.00
367.31	0.00
367.51	0.00
367.70	0.00
367.90	0.00
368.10	0.00
368.30	0.00
368.49	0.00
368.69	0.00
368.89	0.00
369.09	0.00
369.28	0.00
369.48	0.00
369.68	0.00
369.87	53.83
370.07	2.34
370.27	91.28
370.47	88.94
370.66	0.00
370.86	135.75
371.06	152.13
371.25	124.05
371.45	117.03
371.65	140.43
371.84	140.43
372.04	154.48
372.24	201.29
372.44	147.45
372.63	182.56
372.83	152.13
373.03	156.82
373.22	147.45
373.42	168.52
373.62	212.99
373.81	217.67
374.01	245.76
374.21	196.60
374.40	161.50
374.60	238.73
374.79	201.29
374.99	198.95
375.19	177.88
375.38	250.44
375.58	205.97
375.78	203.63
375.97	105.32
376.17	194.26
376.37	212.99
376.56	203.63
376.76	215.33
376.95	142.77
377.15	201.29
377.35	191.92
377.54	140.43
377.74	131.07
377.93	156.82
378.13	175.54
378.33	231.71
378.52	149.79
378.72	161.50
378.91	217.67
379.11	147.45
379.31	189.58
379.50	135.75
379.70	163.84
379.89	177.88
380.09	201.29
380.28	215.33
380.48	168.52
380.68	187.24
380.87	196.60
381.07	208.31
381.26	212.99
381.46	119.37
381.65	245.76
381.85	173.20
382.04	189.58
382.24	140.43
382.43	227.03
382.63	102.98
382.83	152.13
383.02	234.05
383.22	227.03
383.41	175.54
383.61	189.58
383.80	119.37
384.00	189.58
384.19	159.16
384.39	224.69
384.58	255.12
384.78	241.08
384.97	227.03
385.17	180.22
385.36	224.69
385.56	266.82
385.75	238.73
385.95	250.44
386.14	262.14
386.34	210.65
386.53	234.05
386.72	231.71
386.92	339.38
387.11	138.09
387.31	217.67
387.50	266.82
387.70	189.58
387.89	198.95
388.09	201.29
388.28	180.22
388.48	243.42
388.67	255.12
388.86	273.84
389.06	149.79
389.25	234.05
389.45	243.42
389.64	205.97
389.84	252.78
390.03	287.89
390.22	257.46
390.42	290.23
390.61	173.20
390.81	259.80
391.00	276.18
391.19	311.29
391.39	308.95
391.58	262.14
391.78	273.84
391.97	271.50
392.16	259.80
392.36	308.95
392.55	271.50
392.75	231.71
392.94	292.57
393.13	318.31
393.33	229.37
393.52	278.52
393.71	315.97
393.91	283.20
394.10	241.08
394.29	332.36
394.49	222.35
394.68	292.57
394.88	322.99
395.07	332.36
395.26	322.99
395.46	294.91
395.65	346.40
395.84	334.70
396.04	416.62
396.23	280.86
396.42	365.12
396.62	299.59
396.81	346.40
397.00	383.85
397.19	322.99
397.39	374.49
397.58	409.59
397.77	390.87
397.97	386.19
398.16	355.76
398.35	374.49
398.55	348.74
398.74	320.65
398.93	414.27
399.12	337.04
399.32	433.00
399.51	402.57
399.70	414.27
399.90	449.38
400.09	395.55
400.28	517.26
400.47	454.06
400.67	435.34
400.86	496.19
401.05	489.17
401.24	493.85
401.44	423.64
401.63	456.40
401.82	449.38
402.01	512.58
402.21	449.38
402.40	517.26
402.59	582.79
402.78	519.60
402.97	496.19
403.17	486.83
403.36	519.60
403.55	547.69
403.74	484.49
403.93	557.05
404.13	631.94
404.32	554.71
404.51	568.75
404.70	624.92
404.89	641.31
405.09	566.41
405.28	564.07
405.47	620.24
405.66	648.33
405.85	610.88
406.05	702.16
406.24	622.58
406.43	587.47
406.62	692.80
406.81	723.23
407.00	713.86
407.20	620.24
407.39	725.57
407.58	833.23
407.77	622.58
407.96	809.83
408.15	734.93
408.34	704.50
408.54	856.64
408.73	840.25
408.92	819.19
409.11	849.61
409.30	854.30
409.49	842.59
409.68	854.30
409.87	835.57
410.07	896.43
410.26	978.34
410.45	842.59
410.64	922.17
410.83	910.47
411.02	933.87
411.21	926.85
411.40	898.77
411.59	938.55
411.78	1008.77
411.98	1090.69
412.17	933.87
412.36	985.37
412.55	1022.81
412.74	1114.10
412.93	1034.52
413.12	1046.22
413.31	1142.18
413.50	1130.48
413.69	1165.59
413.88	1198.35
414.07	1193.67
414.26	1170.27
414.45	1172.61
414.64	1233.46
414.83	1144.52
415.02	1336.45
415.22	1235.80
415.41	1362.19
415.60	1266.23
415.79	1282.61
415.98	1366.87
416.17	1359.85
416.36	1270.91
416.55	1343.47
416.74	1348.15
416.93	1378.58
417.12	1343.47
417.31	1420.71
417.50	1439.43
417.69	1432.41
417.88	1474.54
418.07	1394.96
418.26	1434.75
418.45	1455.81
418.64	1502.62
418.83	1474.54
419.02	1612.63
419.21	1514.33
419.39	1600.93
419.58	1589.22
419.77	1528.37
419.96	1504.96
420.15	1575.18
420.34	1633.69
420.53	1619.65
420.72	1584.54
420.91	1659.44
421.10	1568.16
421.29	1724.97
421.48	1619.65
421.67	1680.50
421.86	1682.85
422.05	1736.68
422.24	1750.72
422.43	1788.17
422.61	1671.14
422.80	1790.51
422.99	1790.51
423.18	1888.81
423.37	1839.66
423.56	1739.02
423.75	1774.13
423.94	1675.82
424.13	1661.78
424.32	1722.63
424.50	1874.77
424.69	1839.66
424.88	1919.24
425.07	1760.08
425.26	1732.00
425.45	1884.13
425.64	1837.32
425.83	1870.09
426.01	1842.00
426.20	1968.39
426.39	1895.83
426.58	1816.26
426.77	1771.79
426.96	1884.13
427.15	1757.74
427.33	1902.86
427.52	1863.07
427.71	1832.64
427.90	1872.43
428.09	1909.88
428.28	1989.46
428.46	1954.35
428.65	1994.14
428.84	2106.48
429.03	2104.14
429.22	1930.94
429.40	1907.54
429.59	2099.46
429.78	1898.17
429.97	1912.22
430.16	1851.36
430.34	2080.74
430.53	2083.08
430.72	2052.65
430.91	1963.71
431.10	2101.80
431.28	2143.93
431.47	2129.89
431.66	2104.14
431.85	2005.84
432.03	2106.48
432.22	2239.89
432.41	2141.59
432.60	2265.64
432.79	2167.34
432.97	2122.87
433.16	2052.65
433.35	2148.61
433.54	2242.23
433.72	2179.04
433.91	2188.40
434.10	2244.57
434.28	2132.23
434.47	2293.72
434.66	2267.98
434.85	2321.81
435.03	2256.28
435.22	2487.99
435.41	2871.84
435.59	2661.19
435.78	2665.87
435.97	2394.37
436.16	2375.64
436.34	2417.77
436.53	2333.51
436.72	2406.07
436.90	2289.04
437.09	2413.09
437.28	2373.30
437.46	2389.69
437.65	2464.58
437.84	2457.56
438.02	2525.44
438.21	2396.71
438.40	2363.94
438.58	2546.50
438.77	2621.40
438.96	2530.12
439.14	2633.10
439.33	2668.21
439.52	2616.72
439.70	2626.08
439.89	2612.04
440.08	2754.81
440.26	2759.49
440.45	2747.79
440.63	2693.96
440.82	2857.79
441.01	2619.06
441.19	2768.85
441.38	2857.79
441.57	2850.77
441.75	2829.71
441.94	2977.16
442.12	2878.86
442.31	2956.10
442.50	2944.39
442.68	2995.89
442.87	2902.26
443.05	2918.65
443.24	2949.08
443.43	3000.57
443.61	2960.78
443.80	3056.74
443.98	2944.39
444.17	2754.81
444.35	2913.97
444.54	2920.99
444.73	3061.42
444.91	3028.65
445.10	2909.29
445.28	3038.02
445.47	2906.95
445.65	2958.44
445.84	3045.04
446.02	3131.64
446.21	3054.40
446.39	3023.97
446.58	3089.51
446.77	3045.04
446.95	3091.85
447.14	2960.78
447.32	3152.70
447.51	3066.10
447.69	3068.44
447.88	3148.02
448.06	3112.91
448.25	3045.04
448.43	3019.29
448.62	3239.30
448.80	3110.57
448.99	3222.92
449.17	3152.70
449.36	3038.02
449.54	3232.28
449.73	3251.00
449.91	3288.45
450.10	3258.03
450.28	3267.39
450.46	3138.66
450.65	3365.69
450.83	3194.83
451.02	3265.05
451.20	3368.03
451.39	3314.20
451.57	3290.79
451.76	3314.20
451.94	3335.26
452.13	3449.95
452.31	3520.17
452.49	3337.60
452.68	3452.29
452.86	3384.41
453.05	3503.78
453.23	3438.25
453.42	3384.41
453.60	3445.27
453.78	3398.46
453.97	3463.99
454.15	3321.22
454.34	3440.59
454.52	3559.95
454.70	3543.57
454.89	3564.64
455.07	3421.86
455.26	3545.91
455.44	3545.91
455.62	3555.27
455.81	3611.45
455.99	3597.40
456.17	3611.45
456.36	3538.89
456.54	3632.51
456.73	3707.41
456.91	3667.62
457.09	3676.98
457.28	3871.25
457.46	3749.54
457.64	3911.04
457.83	3763.58
458.01	3644.21
458.19	3894.65
458.38	3655.92
458.56	3744.86
458.74	3943.80
458.93	3819.75
459.11	3808.05
459.29	3786.99
459.48	3964.87
459.66	3920.40
459.84	3908.69
460.03	3934.44
460.21	4067.85
460.39	4091.26
460.57	3983.59
460.76	3964.87
460.94	4077.21
461.12	4037.42
461.31	4084.23
461.49	3999.98
461.67	3948.48
461.85	4100.62
462.04	4035.08
462.22	4660.01
462.40	4177.86
462.59	4058.49
462.77	4142.75
462.95	4112.32
463.13	4119.34
463.32	4159.13
463.50	4210.62
463.68	4327.65
463.86	4109.98
464.05	4109.98
464.23	4222.33
464.41	4278.50
464.59	4283.18
464.78	4503.19
464.96	4147.43
465.14	4278.50
465.32	4306.59
465.50	4243.39
465.69	4301.90
465.87	4325.31
466.05	4231.69
466.23	4358.08
466.41	4320.63
466.60	4557.02
466.78	4325.31
466.96	4397.87
467.14	4351.06
467.32	4430.63
467.51	4444.68
467.69	4458.72
467.87	4414.25
468.05	4255.09
468.23	4503.19
468.41	4416.59
468.60	4470.42
468.78	4713.84
468.96	4535.96
469.14	4535.96
469.32	4720.86
469.50	4493.83
469.69	4664.69
469.87	4542.98
470.05	4589.79
470.23	4603.83
470.41	4627.24
470.59	4723.20
470.77	4695.11
470.95	4795.76
471.14	4741.93
471.32	4603.83
471.50	4781.71
471.68	4706.82
471.86	4840.23
472.04	4858.95
472.22	4990.02
472.40	4861.29
472.58	4950.23
472.77	5022.79
472.95	4922.15
473.13	5174.92
473.31	5118.75
473.49	4957.25
473.67	5050.88
473.85	5015.77
474.03	4997.04
474.21	5008.75
474.39	5142.16
474.57	5252.16
474.75	5245.14
474.93	5341.10
475.12	5355.15
475.30	5352.81
475.48	5268.55
475.66	5313.02
475.84	5345.78
476.02	5465.15
476.20	5507.28
476.38	5591.54
476.56	5554.09
476.74	5696.86
476.92	5743.67
477.10	5661.76
477.28	5731.97
477.46	5568.13
477.64	5675.80
477.82	5830.27
478.00	5940.28
478.18	5825.59
478.36	5790.49
478.54	5951.98
478.72	6099.44
478.90	6029.22
479.08	6134.54
479.26	6052.63
479.44	6267.95
479.62	6347.53
479.80	6282.00
479.98	6331.15
480.16	6478.60
480.34	6502.01
480.52	6504.35
480.70	6668.19
480.88	6408.39
481.06	6593.29
481.24	6537.12
481.41	6792.23
481.59	6689.25
481.77	6871.81
481.95	6724.36
482.13	7002.88
482.31	6958.41
482.49	7042.67
482.67	6981.82
482.85	7091.82
483.03	7166.72
483.21	7332.90
483.39	7452.27
483.57	7246.30
483.74	7281.41
483.92	7470.99
484.10	7424.18
484.28	7672.28
484.46	7555.25
484.64	7908.67
484.82	7625.47
485.00	7786.96
485.18	7850.16
485.35	7889.95
485.53	7955.48
485.71	7995.27
485.89	7960.16
486.07	8084.21
486.25	8121.66
486.43	8245.71
486.61	8437.63
486.78	8531.25
486.96	8496.14
487.14	8592.11
487.32	8465.72
487.50	8458.70
487.68	8517.21
487.85	8758.28
488.03	8870.63
488.21	8858.93
488.39	8868.29
488.57	9076.60
488.75	8926.80
488.92	9324.69
489.10	9104.68
489.28	9284.91
489.46	9427.68
489.64	9242.78
489.81	9598.54
489.99	9441.72
490.17	9500.23
490.35	9750.67
490.53	9626.62
490.70	9614.92
490.88	9848.97
491.06	9980.04
491.24	9914.51
491.41	10068.98
491.59	9748.33
491.77	10162.61
491.95	10300.70
492.13	10270.27
492.30	10324.10
492.48	10375.59
492.66	10382.62
492.84	10279.63
493.01	10494.96
493.19	10700.93
493.37	10600.29
493.54	10675.18
493.72	10923.28
493.90	10668.16
494.08	10883.49
494.25	10970.09
494.43	11147.97
494.61	11180.74
494.79	11225.21
494.96	11115.20
495.14	11087.12
495.32	11281.38
495.49	11321.17
495.67	11351.60
495.85	11506.07
496.02	11686.29
496.20	11754.17
496.38	11545.86
496.55	11627.78
496.73	11901.62
496.91	11756.51
497.09	11899.28
497.26	12105.25
497.44	12037.38
497.62	11913.33
497.79	12212.92
497.97	12346.33
498.14	12400.16
498.32	12325.26
498.50	12409.52
498.67	12465.69
498.85	12507.82
499.03	12489.10
499.20	12585.06
499.38	12496.12
499.56	12659.96
499.73	12812.09
499.91	12950.18
500.08	12776.98
500.26	12720.81
500.44	12926.78
500.61	13046.15
500.79	12844.86
500.97	13076.57
501.14	13547.02
501.32	13095.30
501.49	12936.14
501.67	12966.57
501.84	13680.43
502.02	13172.54
502.20	13273.18
502.37	13401.91
502.55	13118.70
502.72	13422.97
502.90	13589.15
503.07	13554.04
503.25	13736.60
503.43	13551.70
503.60	13659.37
503.78	13671.07
503.95	13790.44
504.13	13862.99
504.30	13792.78
504.48	14085.34
504.65	14263.22
504.83	14143.86
505.01	14162.58
505.18	13947.25
505.36	14422.38
505.53	14043.21
505.71	14459.83
505.88	14038.53
506.06	14120.45
506.23	14427.06
506.41	14246.84
506.58	14696.22
506.76	14565.15
506.93	14717.29
507.11	14431.74
507.28	14501.96
507.46	14759.42
507.63	14637.71
507.81	14656.43
507.98	14780.48
508.16	14759.42
508.33	14956.02
508.50	15049.64
508.68	14979.43
508.85	15019.22
509.03	15089.43
509.20	15286.04
509.38	15248.59
509.55	15403.07
509.73	15218.16
509.90	15470.94
510.08	15339.87
510.25	15360.94
510.42	15489.67
510.60	15681.59
510.77	15496.69
510.95	15810.32
511.12	15609.03
511.30	15484.98
511.47	15587.97
511.64	15723.72
511.82	15878.19
511.99	15777.55
512.17	15880.53
512.34	16191.83
512.51	15976.50
512.69	16070.12
512.86	16098.20
513.04	16100.55
513.21	16198.85
513.38	16311.19
513.56	16084.16
513.73	16049.05
513.90	16255.02
514.08	16554.61
514.25	16652.91
514.43	16751.21
514.60	16552.27
514.77	16861.22
514.95	16727.81
515.12	16463.33
515.29	16442.26
515.47	16648.23
515.64	16936.12
515.81	16676.32
515.99	16919.73
516.16	16835.47
516.33	16823.77
516.51	16765.26
516.68	16985.27
516.85	16816.75
517.03	16809.73
517.20	17205.28
517.37	17142.08
517.54	17050.80
517.72	17406.56
517.89	16971.22
518.06	17465.08
518.24	17256.77
518.41	17577.42
518.58	17193.58
518.75	17303.58
518.93	17507.21
519.10	17591.47
519.27	17619.55
519.45	17319.96
519.62	17731.90
519.79	17521.25
519.96	17549.34
520.14	17701.47
520.31	17542.32
520.48	17446.35
520.65	17855.95
520.83	18029.15
521.00	18073.62
521.17	17970.63
521.34	17881.69
521.52	18188.30
521.69	17958.93
521.86	18340.44
522.03	18277.24
522.20	18298.31
522.38	18237.45
522.55	18277.24
522.72	18494.91
522.89	18492.57
523.07	18424.70
523.24	18478.53
523.41	18565.13
523.58	18345.12
523.75	18658.75
523.92	18670.45
524.10	18780.46
524.27	18501.93
524.44	18862.38
524.61	18815.57
524.78	18836.63
524.96	18874.08
525.13	18768.76
525.30	18916.21
525.47	19286.01
525.64	18745.35
525.81	19297.72
525.98	18724.29
526.16	18927.91
526.33	18754.71
526.50	19187.71
526.67	18745.35
526.84	19035.58
527.01	19138.56
527.18	19431.13
527.36	19419.42
527.53	19358.57
527.70	19360.91
527.87	19550.49
528.04	19503.68
528.21	19358.57
528.38	19578.58
528.55	19349.21
528.72	19604.33
528.89	19658.16
529.07	19440.49
529.24	19625.39
529.41	19875.83
529.58	19475.60
529.75	19576.24
529.92	19346.87
530.09	19847.74
530.26	19852.42
530.43	19688.59
530.60	19995.20
530.77	19747.10
530.94	19995.20
531.11	19723.69
531.28	19903.92
531.46	19943.70
531.63	20086.48
531.80	19852.42
531.97	20126.27
532.14	20233.93
532.31	20416.49
532.48	20404.79
532.65	20222.23
532.82	20095.84
532.99	20210.53
533.16	20166.06
533.33	20315.85
533.50	20503.09
533.67	20496.07
533.84	20353.30
534.01	20329.89
534.18	20521.82
534.35	20449.26
534.52	20503.09
534.69	20585.01
534.86	20369.68
535.03	20376.70
535.20	20659.91
535.37	20451.60
535.54	20706.72
535.71	20519.48
535.88	20566.29
536.05	20807.36
536.22	20662.25
536.38	20849.49
536.55	20809.70
536.72	20746.51
536.89	20662.25
537.06	20629.48
537.23	21071.84
537.40	20826.09
537.57	20835.45
537.74	20851.83
537.91	21081.21
538.08	21200.57
538.25	21186.53
538.42	21238.02
538.59	21015.67
538.75	20798.00
538.92	21212.28
539.09	21153.76
539.26	21226.32
539.43	21256.75
539.60	21603.14
539.77	21593.78
539.94	21715.49
540.11	21170.15
540.28	21563.36
540.44	21614.85
540.61	21603.14
540.78	21516.54
540.95	21984.65
541.12	21902.73
541.29	21937.84
541.46	22022.10
541.62	21640.59
541.79	21872.31
541.96	21844.22
542.13	21717.83
542.30	21937.84
542.47	22270.20
542.63	21839.54
542.80	22450.42
542.97	22218.71
543.14	22689.15
543.31	22312.33
543.48	21923.80
543.64	22462.12
543.81	22558.08
543.98	22450.42
544.15	22258.49
544.32	22459.78
544.48	22867.03
544.65	22089.98
544.82	22232.75
544.99	22270.20
545.16	22609.58
545.32	22345.09
545.49	23026.19
545.66	23737.71
545.83	23676.86
546.00	23271.95
546.16	23110.45
546.33	22953.63
546.50	22258.49
546.67	22651.70
546.83	22317.01
547.00	22703.20
547.17	22546.38
547.34	22764.05
547.50	22881.08
547.67	22630.64
547.84	22691.49
548.00	22530.00
548.17	22532.34
548.34	22841.29
548.51	22581.49
548.67	22794.48
548.84	22937.25
549.01	22483.19
549.18	22939.59
549.34	23248.54
549.51	22906.82
549.68	22623.62
549.84	22574.47
550.01	22874.06
550.18	22684.47
550.34	22944.27
550.51	22827.24
550.68	22735.96
550.84	22452.76
551.01	23049.60
551.18	22698.52
551.34	22930.23
551.51	22672.77
551.68	22864.69
551.84	22691.49
552.01	22946.61
552.18	22981.72
552.34	22579.15
552.51	23154.92
552.68	23108.11
552.84	22862.35
553.01	23077.68
553.18	23035.55
553.34	22923.21
553.51	22838.95
553.67	23044.91
553.84	23496.64
554.01	23075.34
554.17	23311.74
554.34	23213.43
554.51	23030.87
554.67	22974.70
554.84	23208.75
555.00	23239.18
555.17	23150.24
555.33	23164.28
555.50	23037.89
555.67	23410.04
555.83	22862.35
556.00	23194.71
556.16	23543.45
556.33	23112.79
556.50	23101.09
556.66	23562.17
556.83	23613.66
556.99	23475.57
557.16	23597.28
557.32	23180.67
557.49	23325.78
557.65	22878.74
557.82	23068.32
557.98	23473.23
558.15	23094.07
558.32	23440.47
558.48	23426.42
558.65	23335.14
558.81	23707.29
558.98	23564.51
559.14	23281.31
559.31	23506.00
559.47	23271.95
559.64	23213.43
559.80	23662.82
559.97	23339.82
560.13	23403.02
560.30	23440.47
560.46	23620.69
560.63	23477.91
560.79	23285.99
560.96	23782.18
561.12	23597.28
561.29	23489.62
561.45	23491.96
561.61	23819.63
561.78	23700.26
561.94	23531.75
562.11	23527.06
562.27	23536.43
562.44	23718.99
562.60	23463.87
562.77	23674.52
562.93	23550.47
563.10	23763.46
563.26	23360.89
563.42	23744.73
563.59	23737.71
563.75	23892.19
563.92	24079.43
564.08	23711.97
564.24	23489.62
564.41	23754.10
564.57	23531.75
564.74	23730.69
564.90	23491.96
565.07	23665.16
565.23	23777.50
565.39	23749.42
565.56	23571.54
565.72	23744.73
565.88	23363.23
566.05	23906.23
566.21	23541.11
566.38	23667.50
566.54	23843.04
566.70	23978.79
566.87	23573.88
567.03	23817.29
567.19	23824.31
567.36	23814.95
567.52	23566.85
567.68	24308.80
567.85	23473.23
568.01	23695.58
568.17	23646.43
568.34	23784.52
568.50	23833.68
568.66	23859.42
568.83	23515.36
568.99	23669.84
569.15	23740.05
569.32	23985.81
569.48	23573.88
569.64	23704.95
569.81	23435.78
569.97	23653.45
570.13	24004.53
570.30	23871.12
570.46	24006.87
570.62	23859.42
570.78	23688.56
570.95	23496.64
571.11	23513.02
571.27	23885.17
571.43	23421.74
571.60	23735.37
571.76	23599.62
571.92	23960.06
572.09	24025.60
572.25	23934.32
572.41	23896.87
572.57	23955.38
572.74	24065.39
572.90	23950.70
573.06	23838.36
573.22	24027.94
573.38	23864.10
573.55	23541.11
573.71	24049.00
573.87	24219.86
574.03	23910.91
574.20	23819.63
574.36	24025.60
574.52	23564.51
574.68	24023.26
574.84	23885.17
575.01	23978.79
575.17	23988.15
575.33	23744.73
575.49	23669.84
575.65	24004.53
575.82	24126.24
575.98	23953.04
576.14	23608.98
576.30	24287.74
576.46	23924.96
576.62	23889.85
576.79	24084.11
576.95	24243.27
577.11	24168.37
577.27	24226.89
577.43	24067.73
577.59	23946.02
577.75	23901.55
577.92	23913.25
578.08	23793.89
578.24	23847.72
578.40	24276.04
578.56	23964.75
578.72	24266.67
578.88	24046.66
579.04	24318.17
579.21	24353.27
579.37	23997.51
579.53	24044.32
579.69	23831.33
579.85	23627.71
580.01	23969.43
580.17	24137.94
580.33	24400.08
580.49	24121.56
580.65	24130.92
580.82	24013.90
580.98	24102.84
581.14	23920.28
581.30	24215.18
581.46	23953.04
581.62	23812.61
581.78	24121.56
581.94	23859.42
582.10	24240.93
582.26	24044.32
582.42	24362.64
582.58	24233.91
582.74	23960.06
582.90	24079.43
583.06	23833.68
583.22	24020.92
583.38	24100.50
583.54	24060.71
583.70	24032.62
583.86	23917.93
584.02	23990.49
584.18	23889.85
584.34	24095.82
584.50	24254.97
584.66	24023.26
584.82	23920.28
584.98	24243.27
585.14	24151.99
585.30	23803.25
585.46	24044.32
585.62	24154.33
585.78	23978.79
585.94	23845.38
586.10	23800.91
586.26	23838.36
586.42	24603.71
586.58	24154.33
586.74	24243.27
586.90	24053.69
587.06	24070.07
587.22	24121.56
587.38	24116.88
587.54	24505.41
587.70	24093.47
587.86	24210.50
588.02	24247.95
588.18	24135.60
588.34	24236.25
588.49	24472.64
588.65	23765.80
588.81	23955.38
588.97	24154.33
589.13	23854.74
589.29	24236.25
589.45	24435.19
589.61	24196.46
589.77	24472.64
589.93	24577.97
590.08	24123.90
590.24	24465.62
590.40	24264.33
590.56	24130.92
590.72	23981.13
590.88	23772.82
591.04	23955.38
591.20	23831.33
591.35	24388.38
591.51	24285.40
591.67	24489.03
591.83	24163.69
591.99	24650.52
592.15	24238.59
592.31	24524.13
592.46	24072.41
