SpectraSuite Data File
++++++++++++++++++++++++++++++++++++
Date: Fri Oct 04 11:39:17 GMT-05:00 2013
User: price-jones
Dark Spectrum Present: No
Reference Spectrum Present: No
Number of Sampled Component Spectra: 1
Spectrometers: USB2+H05261
Integration Time (usec): 100000 (USB2+H05261)
Spectra Averaged: 1 (USB2+H05261)
Boxcar Smoothing: 0 (USB2+H05261)
Correct for Electrical Dark: No (USB2+H05261)
Strobe/Lamp Enabled: No (USB2+H05261)
Correct for Detector Non-linearity: No (USB2+H05261)
Correct for Stray Light: No (USB2+H05261)
Number of Pixels in Processed Spectrum: 2048
>>>>>Begin Processed Spectral Data<<<<<
365.73	51.49
365.92	51.49
366.12	51.49
366.32	0.00
366.52	0.00
366.72	0.00
366.91	0.00
367.11	0.00
367.31	0.00
367.51	0.00
367.70	18.72
367.90	0.00
368.10	0.00
368.30	0.00
368.49	0.00
368.69	0.00
368.89	14.04
369.09	49.15
369.28	0.00
369.48	0.00
369.68	2.34
369.87	21.06
370.07	0.00
370.27	16.38
370.47	37.45
370.66	180.22
370.86	222.35
371.06	250.44
371.25	276.18
371.45	231.71
371.65	234.05
371.84	292.57
372.04	220.01
372.24	283.20
372.44	294.91
372.63	210.65
372.83	372.15
373.03	339.38
373.22	306.61
373.42	299.59
373.62	297.25
373.81	304.27
374.01	346.40
374.21	332.36
374.40	332.36
374.60	362.78
374.79	367.46
374.99	416.62
375.19	407.25
375.38	308.95
375.58	430.66
375.78	397.89
375.97	358.10
376.17	332.36
376.37	447.04
376.56	379.17
376.76	367.46
376.95	285.55
377.15	334.70
377.35	451.72
377.54	365.12
377.74	402.57
377.93	315.97
378.13	414.27
378.33	402.57
378.52	360.44
378.72	512.58
378.91	425.98
379.11	411.93
379.31	393.21
379.50	325.33
379.70	442.36
379.89	500.87
380.09	374.49
380.28	454.06
380.48	425.98
380.68	437.68
380.87	372.15
381.07	397.89
381.26	465.77
381.46	533.64
381.65	430.66
381.85	409.59
382.04	465.77
382.24	437.68
382.43	512.58
382.63	503.22
382.83	451.72
383.02	477.47
383.22	486.83
383.41	507.90
383.61	454.06
383.80	510.24
384.00	519.60
384.19	566.41
384.39	535.98
384.58	465.77
384.78	482.15
384.97	507.90
385.17	491.51
385.36	512.58
385.56	573.43
385.75	524.28
385.95	564.07
386.14	594.50
386.34	564.07
386.53	540.66
386.72	528.96
386.92	582.79
387.11	667.05
387.31	528.96
387.50	613.22
387.70	512.58
387.89	582.79
388.09	585.13
388.28	634.29
388.48	573.43
388.67	674.07
388.86	603.86
389.06	610.88
389.25	547.69
389.45	547.69
389.64	552.37
389.84	643.65
390.03	589.82
390.22	627.26
390.42	622.58
390.61	660.03
390.81	573.43
391.00	641.31
391.19	636.63
391.39	723.23
391.58	704.50
391.78	669.39
391.97	695.14
392.16	603.86
392.36	629.60
392.55	706.84
392.75	734.93
392.94	755.99
393.13	786.42
393.33	648.33
393.52	692.80
393.71	690.46
393.91	713.86
394.10	723.23
394.29	741.95
394.49	709.18
394.68	657.69
394.88	821.53
395.07	854.30
395.26	826.21
395.46	760.67
395.65	791.10
395.84	903.45
396.04	896.43
396.23	847.27
396.42	847.27
396.62	858.98
396.81	821.53
397.00	821.53
397.19	863.66
397.39	898.77
397.58	866.00
397.77	842.59
397.97	840.25
398.16	866.00
398.35	945.58
398.55	851.96
398.74	992.39
398.93	1015.79
399.12	915.15
399.32	945.58
399.51	880.04
399.70	929.19
399.90	1013.45
400.09	1025.15
400.28	997.07
400.47	985.37
400.67	976.00
400.86	971.32
401.05	968.98
401.24	1025.15
401.44	1116.44
401.63	1034.52
401.82	1078.99
402.01	1153.88
402.21	994.73
402.40	1198.35
402.59	1123.46
402.78	1128.14
402.97	1226.44
403.17	1081.33
403.36	1107.07
403.55	1200.69
403.74	1205.38
403.93	1273.25
404.13	1287.29
404.32	1259.21
404.51	1219.42
404.70	1362.19
404.89	1231.12
405.09	1254.53
405.28	1172.61
405.47	1270.91
405.66	1343.47
405.85	1345.81
406.05	1313.04
406.24	1334.11
406.43	1350.49
406.62	1371.55
406.81	1427.73
407.00	1343.47
407.20	1413.68
407.39	1439.43
407.58	1568.16
407.77	1399.64
407.96	1554.12
408.15	1439.43
408.34	1460.49
408.54	1465.18
408.73	1565.82
408.92	1551.78
409.11	1591.56
409.30	1577.52
409.49	1507.30
409.68	1488.58
409.87	1607.95
410.07	1706.25
410.26	1626.67
410.45	1631.35
410.64	1652.42
410.83	1659.44
411.02	1647.74
411.21	1778.81
411.40	1750.72
411.59	1760.08
411.78	1874.77
411.98	1802.21
412.17	1827.96
412.36	1818.60
412.55	1870.09
412.74	1914.56
412.93	1907.54
413.12	1860.73
413.31	2017.54
413.50	1994.14
413.69	2022.22
413.88	1996.48
414.07	1980.09
414.26	2001.16
414.45	2127.55
414.64	2062.01
414.83	2111.16
415.02	2167.34
415.22	2207.13
415.41	2202.44
415.60	2162.66
415.79	2284.36
415.98	2293.72
416.17	2319.47
416.36	2218.83
416.55	2232.87
416.74	2249.25
416.93	2216.49
417.12	2349.90
417.31	2230.53
417.50	2354.58
417.69	2541.82
417.88	2537.14
418.07	2431.82
418.26	2532.46
418.45	2544.16
418.64	2530.12
418.83	2576.93
419.02	2450.54
419.21	2553.52
419.39	2597.99
419.58	2562.89
419.77	2546.50
419.96	2593.31
420.15	2539.48
420.34	2705.66
420.53	2717.36
420.72	2818.00
420.91	2815.66
421.10	2825.03
421.29	2897.58
421.48	2677.57
421.67	2846.09
421.86	2839.07
422.05	2853.11
422.24	2761.83
422.43	2899.92
422.61	2874.18
422.80	2920.99
422.99	2916.31
423.18	2867.16
423.37	2888.22
423.56	2855.45
423.75	2930.35
423.94	2834.39
424.13	2689.28
424.32	2785.24
424.50	2848.43
424.69	2986.52
424.88	2995.89
425.07	2939.71
425.26	2853.11
425.45	2827.37
425.64	2930.35
425.83	2906.95
426.01	3038.02
426.20	2925.67
426.39	2909.29
426.58	2995.89
426.77	3094.19
426.96	2986.52
427.15	3098.87
427.33	3183.13
427.52	3122.27
427.71	3115.25
427.90	3005.25
428.09	3157.38
428.28	3122.27
428.46	3131.64
428.65	3136.32
428.84	3171.43
429.03	3323.56
429.22	3138.66
429.40	3232.28
429.59	3204.19
429.78	3145.68
429.97	3096.53
430.16	3166.74
430.34	3344.63
430.53	3368.03
430.72	3295.47
430.91	3325.90
431.10	3288.45
431.28	3424.20
431.47	3506.12
431.66	3339.94
431.85	3548.25
432.03	3449.95
432.22	3492.08
432.41	3485.06
432.60	3536.55
432.79	3543.57
432.97	3576.34
433.16	3496.76
433.35	3566.98
433.54	3684.00
433.72	3611.45
433.91	3574.00
434.10	3623.15
434.28	3686.34
434.47	3576.34
434.66	3737.84
434.85	3667.62
435.03	3889.97
435.22	3866.56
435.41	4304.25
435.59	4175.52
435.78	3985.93
435.97	3960.19
436.16	3779.97
436.34	3885.29
436.53	3932.10
436.72	4065.51
436.90	3920.40
437.09	3946.14
437.28	3929.76
437.46	3880.61
437.65	3920.40
437.84	4109.98
438.02	4028.06
438.21	4042.11
438.40	3880.61
438.58	4044.45
438.77	4273.82
438.96	4133.39
439.14	4187.22
439.33	4301.90
439.52	4329.99
439.70	4334.67
439.89	4278.50
440.08	4222.33
440.26	4325.31
440.45	4442.34
440.63	4348.72
440.82	4610.86
441.01	4615.54
441.19	4535.96
441.38	4629.58
441.57	4566.39
441.75	4664.69
441.94	4643.62
442.12	4629.58
442.31	4753.63
442.50	4844.91
442.68	4847.25
442.87	4718.52
443.05	4870.65
443.24	4903.42
443.43	4851.93
443.61	4781.71
443.80	5177.26
443.98	4959.60
444.17	4617.88
444.35	5074.28
444.54	4924.49
444.73	5032.15
444.91	5167.90
445.10	4964.28
445.28	4870.65
445.47	4919.81
445.65	4992.36
445.84	5085.98
446.02	5022.79
446.21	4952.57
446.39	4994.70
446.58	5071.94
446.77	5053.22
446.95	4945.55
447.14	4964.28
447.32	5100.03
447.51	5001.72
447.69	4992.36
447.88	5093.01
448.06	5060.24
448.25	5048.54
448.43	5078.96
448.62	4997.04
448.80	5151.52
448.99	5233.44
449.17	5149.18
449.36	5167.90
449.54	5289.61
449.73	5376.21
449.91	5270.89
450.10	5334.08
450.28	5392.59
450.46	5479.19
450.65	5526.00
450.83	5511.96
451.02	5364.51
451.20	5500.26
451.39	5549.41
451.57	5364.51
451.76	5343.44
451.94	5645.37
452.13	5495.58
452.31	5715.59
452.49	5563.45
452.68	5502.60
452.86	5439.40
453.05	5753.04
453.23	5614.95
453.42	5568.13
453.60	5537.71
453.78	5617.29
453.97	5589.20
454.15	5713.25
454.34	5699.20
454.52	5743.67
454.70	5825.59
454.89	5797.51
455.07	5830.27
455.26	5795.17
455.44	5898.15
455.62	5933.26
455.81	5907.51
455.99	6047.94
456.17	5837.30
456.36	5998.79
456.54	5916.87
456.73	6001.13
456.91	6097.10
457.09	6083.05
457.28	6120.50
457.46	6132.20
457.64	6111.14
457.83	6050.28
458.01	6179.01
458.19	6265.61
458.38	6195.40
458.56	6396.68
458.74	6441.15
458.93	6382.64
459.11	6284.34
459.29	6312.42
459.48	6473.92
459.66	6502.01
459.84	6509.03
460.03	6480.94
460.21	6448.18
460.39	6546.48
460.57	6534.78
460.76	6560.52
460.94	6527.75
461.12	6740.74
461.31	6597.97
461.49	6525.41
461.67	6649.46
461.85	6665.85
462.04	6757.13
462.22	7470.99
462.40	6902.24
462.59	6871.81
462.77	6920.96
462.95	6834.36
463.13	6958.41
463.32	7101.19
463.50	7052.03
463.68	7056.72
463.86	6953.73
464.05	7021.61
464.23	7030.97
464.41	7190.13
464.59	6925.65
464.78	7236.94
464.96	7045.01
465.14	6991.18
465.32	7187.79
465.50	7094.16
465.69	7208.85
465.87	7119.91
466.05	7346.94
466.23	7353.96
466.41	7393.75
466.60	7379.71
466.78	7236.94
466.96	7360.98
467.14	7178.42
467.32	7309.49
467.51	7431.20
467.69	7370.35
467.87	7302.47
468.05	7508.44
468.23	7339.92
468.41	7428.86
468.60	7447.58
468.78	7555.25
468.96	7349.28
469.14	7623.12
469.32	7590.36
469.50	7531.84
469.69	7641.85
469.87	7742.49
470.05	7775.26
470.23	7735.47
470.41	7758.88
470.59	7709.72
470.77	7815.05
470.95	7817.39
471.14	8002.29
471.32	7962.50
471.50	8304.22
471.68	8222.30
471.86	8241.03
472.04	8049.10
472.22	8414.23
472.40	8135.70
472.58	8173.15
472.77	8283.16
472.95	8336.99
473.13	8484.44
473.31	8327.63
473.49	8353.37
473.67	8313.58
473.85	8531.25
474.03	8648.28
474.21	8540.61
474.39	8662.32
474.57	8664.66
474.75	8767.65
474.93	8887.01
475.12	8833.18
475.30	8898.72
475.48	8901.06
475.66	8950.21
475.84	8980.64
476.02	9163.20
476.20	9090.64
476.38	9193.62
476.56	9448.74
476.74	9345.76
476.92	9589.17
477.10	9399.59
477.28	9249.80
477.46	9547.05
477.64	9469.81
477.82	9844.29
478.00	9872.38
478.18	10045.58
478.36	10178.99
478.54	10132.18
478.72	10157.92
478.90	10361.55
479.08	10319.42
479.26	10413.04
479.44	10626.03
479.62	10546.45
479.80	10623.69
479.98	10647.10
480.16	10780.51
480.34	10626.03
480.52	11068.39
480.70	11026.26
480.88	10890.51
481.06	10974.77
481.24	11234.57
481.41	11215.85
481.59	11370.32
481.77	11302.45
481.95	11470.97
482.13	11695.66
482.31	11438.20
482.49	11836.09
482.67	11772.89
482.85	11997.59
483.03	12030.35
483.21	12145.04
483.39	12304.20
483.57	12428.24
483.74	12482.08
483.92	12568.68
484.10	12514.84
484.28	12784.01
484.46	12809.75
484.64	13088.28
484.82	12905.71
485.00	13137.43
485.18	13472.12
485.35	13397.23
485.53	13561.06
485.71	13291.90
485.89	13741.29
486.07	13617.24
486.25	13757.67
486.43	13851.29
486.61	14178.97
486.78	14085.34
486.96	14389.61
487.14	14637.71
487.32	14600.26
487.50	14466.85
487.68	14572.18
487.85	14738.35
488.03	14932.62
488.21	15087.09
488.39	15126.88
488.57	15492.01
488.75	15405.41
488.92	15452.22
489.10	15620.74
489.28	15672.23
489.46	16130.97
489.64	16318.22
489.81	16404.81
489.99	16280.77
490.17	15950.75
490.35	16575.67
490.53	16706.74
490.70	16657.59
490.88	16940.80
491.06	16987.61
491.24	16999.31
491.41	16908.03
491.59	17221.66
491.77	17291.88
491.95	17539.97
492.13	17575.08
492.30	17413.59
492.48	17764.67
492.66	17621.89
492.84	17694.45
493.01	18134.47
493.19	18026.81
493.37	18324.05
493.54	18356.82
493.72	18515.98
493.90	18640.03
494.08	18410.65
494.25	18829.61
494.43	18869.40
494.61	19110.47
494.79	19396.02
494.96	19405.38
495.14	19487.30
495.32	19119.84
495.49	19300.06
495.67	19782.21
495.85	19807.95
496.02	19910.94
496.20	20496.07
496.38	19969.45
496.55	20100.52
496.73	20489.05
496.91	20215.21
497.09	20535.86
497.26	20779.28
497.44	20638.84
497.62	20676.29
497.79	21034.39
497.97	21062.48
498.14	21216.96
498.32	21106.95
498.50	21481.44
498.67	21745.92
498.85	21497.82
499.03	21284.83
499.20	21486.12
499.38	21633.57
499.56	21532.93
499.73	22113.38
499.91	22251.47
500.08	22080.61
500.26	21895.71
500.44	22366.16
500.61	22267.86
500.79	22017.42
500.97	22429.35
501.14	22757.03
501.32	22946.61
501.49	22513.61
501.67	22431.69
501.84	23094.07
502.02	22745.33
502.20	23040.23
502.37	23133.86
502.55	23335.14
502.72	23339.82
502.90	23508.34
503.07	23129.17
503.25	23353.87
503.43	23136.20
503.60	23686.22
503.78	23765.80
503.95	23936.66
504.13	24173.05
504.30	24130.92
504.48	23929.64
504.65	23990.49
504.83	24376.68
505.01	24559.24
505.18	24676.27
505.36	24727.76
505.53	24299.44
505.71	24577.97
505.88	24552.22
506.06	24428.17
506.23	24879.89
506.41	24807.34
506.58	25104.59
506.76	24849.47
506.93	25127.99
507.11	24929.05
507.28	24987.56
507.46	25462.69
507.63	25195.87
507.81	25680.36
507.98	25397.15
508.16	25357.36
508.33	25692.06
508.50	25872.28
508.68	25928.45
508.85	26450.39
509.03	26029.10
509.20	26218.68
509.38	26602.53
509.55	26504.23
509.73	26588.49
509.90	26434.01
510.08	26370.82
510.25	26366.13
510.42	26817.86
510.60	26731.26
510.77	26923.18
510.95	27047.23
511.12	26838.92
511.30	26948.93
511.47	27426.40
511.64	27271.92
511.82	27197.02
511.99	27541.08
512.17	27466.19
512.34	27688.54
512.51	27690.88
512.69	27428.74
512.86	27562.15
513.04	27775.14
513.21	27950.68
513.38	28231.54
513.56	28006.85
513.73	27714.28
513.90	28135.58
514.08	28084.09
514.25	28360.27
514.43	28430.49
514.60	28257.29
514.77	28301.76
514.95	28774.55
515.12	28573.26
515.29	28261.97
515.47	28521.77
515.64	28861.15
515.81	28720.71
515.99	29024.98
516.16	29167.76
516.33	28971.15
516.51	29371.38
516.68	28910.30
516.85	29219.25
517.03	29256.70
517.20	29380.74
517.37	29675.65
517.54	29575.01
517.72	29862.90
517.89	29640.54
518.06	29841.83
518.24	29804.38
518.41	29898.00
518.58	29832.47
518.75	30068.86
518.93	30192.91
519.10	30036.09
519.27	29970.56
519.45	29919.07
519.62	30419.94
519.79	30401.22
519.96	30651.66
520.14	30249.08
520.31	30513.56
520.48	30705.49
520.65	30976.99
520.83	30955.93
521.00	30984.01
521.17	30864.64
521.34	30934.86
521.52	31028.48
521.69	30965.29
521.86	31580.85
522.03	31171.25
522.20	31672.13
522.38	31206.36
522.55	31417.01
522.72	31512.97
522.89	31976.40
523.07	32203.43
523.24	31824.26
523.41	32112.15
523.58	31791.50
523.75	31613.62
523.92	31690.85
524.10	32486.64
524.27	32025.55
524.44	32133.21
524.61	32451.53
524.78	32559.19
524.96	32334.50
525.13	32615.37
525.30	32465.57
525.47	32409.40
525.64	32496.00
525.81	32463.23
525.98	33127.94
526.16	32931.34
526.33	32797.93
526.50	32980.49
526.67	32900.91
526.84	32835.38
527.01	32685.58
527.18	33104.54
527.36	33074.11
527.53	33404.13
527.70	33656.90
527.87	33277.74
528.04	33212.20
528.21	34026.71
528.38	33483.70
528.55	33724.78
528.72	33956.49
528.89	33745.84
529.07	33525.83
529.24	33979.90
529.41	34080.54
529.58	33858.19
529.75	33755.21
529.92	33972.88
530.09	34026.71
530.26	34096.92
530.43	34054.79
530.60	33923.72
530.77	34457.37
530.94	34712.49
531.11	34342.68
531.28	34267.78
531.46	34218.63
531.63	34642.27
531.80	34431.62
531.97	34918.45
532.14	35180.59
532.31	34279.49
532.48	34611.84
532.65	34897.39
532.82	34368.43
532.99	35175.91
533.16	34682.06
533.33	35110.38
533.50	35438.05
533.67	35194.64
533.84	35147.82
534.01	34918.45
534.18	35037.82
534.35	35988.08
534.52	35571.46
534.69	35587.85
534.86	35737.64
535.03	35445.07
535.20	35807.86
535.37	35948.29
535.54	35920.20
535.71	35754.02
535.88	35700.19
536.05	36058.29
536.22	35679.13
536.38	35770.41
536.55	36252.56
536.72	36587.25
536.89	35838.28
537.06	36116.81
537.23	36128.51
537.40	36051.27
537.57	36531.08
537.74	36591.94
537.91	36367.24
538.08	36861.10
538.25	36528.74
538.42	36339.16
538.59	36835.35
538.75	36636.41
538.92	36662.15
539.09	36591.94
539.26	36957.06
539.43	36814.29
539.60	36687.90
539.77	37076.43
539.94	37240.26
540.11	37326.86
540.28	37275.37
540.44	37717.73
540.61	37343.25
540.78	37099.83
540.95	37205.16
541.12	37757.52
541.29	37373.67
541.46	37738.80
541.62	37329.20
541.79	37717.73
541.96	37153.66
542.13	37462.61
542.30	37736.46
542.47	38195.20
542.63	38007.96
542.80	38155.41
542.97	38403.51
543.14	38483.09
543.31	38185.84
543.48	37914.34
543.64	38352.02
543.81	38857.57
543.98	38836.51
544.15	38651.61
544.32	38724.16
544.48	39140.78
544.65	38370.74
544.82	38380.10
544.99	37890.93
545.16	38906.73
545.32	38703.10
545.49	39491.86
545.66	39349.09
545.83	39510.58
546.00	39686.12
546.16	38773.31
546.33	38749.91
546.50	38724.16
546.67	39021.41
546.83	38403.51
547.00	38438.62
547.17	39138.44
547.34	39005.03
547.50	39119.71
547.67	39007.37
547.84	38960.56
548.00	39019.07
548.17	39220.36
548.34	38911.41
548.51	39075.24
548.67	39847.62
548.84	39246.10
549.01	39651.02
549.18	39487.18
549.34	39454.41
549.51	39213.34
549.68	39419.30
549.84	39438.03
550.01	39927.20
550.18	39725.91
550.34	39716.55
550.51	39761.02
550.68	39529.31
550.84	39178.23
551.01	39543.35
551.18	39775.06
551.34	39346.75
551.51	39819.53
551.68	39938.90
551.84	40123.80
552.01	39878.05
552.18	39744.64
552.34	39779.74
552.51	39864.00
552.68	39681.44
552.84	40378.92
553.01	40076.99
553.18	40430.41
553.34	40367.22
553.51	40107.42
553.67	40203.38
553.84	40741.71
554.01	40297.00
554.17	40297.00
554.34	40259.55
554.51	40140.19
554.67	40453.82
554.84	40526.38
555.00	40254.87
555.17	40561.48
555.33	40390.62
555.50	40453.82
555.67	40879.80
555.83	40739.36
556.00	41270.67
556.16	40900.86
556.33	40350.84
556.50	40371.90
556.66	41258.96
556.83	40755.75
556.99	41329.18
557.16	41188.75
557.32	41460.25
557.49	41163.00
557.65	40931.29
557.82	41097.47
557.98	40950.01
558.15	40840.01
558.32	40940.65
558.48	40624.68
558.65	41343.22
558.81	41415.78
558.98	40898.52
559.14	41352.58
559.31	40973.42
559.47	41057.68
559.64	41528.13
559.80	41411.10
559.97	41167.68
560.13	40942.99
560.30	41549.19
560.46	41635.79
560.63	41064.70
560.79	41055.34
560.96	41226.20
561.12	41235.56
561.29	41146.62
561.45	41174.70
561.61	41523.44
561.78	41874.52
561.94	41523.44
562.11	41839.42
562.27	41673.24
562.44	41879.21
562.60	41237.90
562.77	41787.92
562.93	41612.38
563.10	41825.37
563.26	41621.75
563.42	41855.80
563.59	41652.17
563.75	41567.91
563.92	41797.29
564.08	41631.11
564.24	42110.92
564.41	41514.08
564.57	41457.91
564.74	41497.70
564.90	42218.58
565.07	41710.69
565.23	42085.17
565.39	42021.98
565.56	41968.15
565.72	41659.20
565.88	41474.29
566.05	41710.69
566.21	41394.71
566.38	41661.54
566.54	41572.60
566.70	42115.60
566.87	42443.27
567.03	41930.70
567.19	42986.28
567.36	41914.31
567.52	41743.45
567.68	42225.60
567.85	41998.57
568.01	41797.29
568.17	41893.25
568.34	42241.99
568.50	42424.55
568.66	42279.44
568.83	42279.44
568.99	42085.17
569.15	41872.18
569.32	42036.02
569.48	41862.82
569.64	42124.96
569.81	41996.23
569.97	41961.12
570.13	42309.86
570.30	42047.72
570.46	42209.22
570.62	41893.25
570.78	42171.77
570.95	42064.11
571.11	42541.58
571.27	42447.96
571.43	42335.61
571.60	42588.39
571.76	42506.47
571.92	42501.79
572.09	42754.57
572.25	42464.34
572.41	42171.77
572.57	42302.84
572.74	42583.71
572.90	42176.45
573.06	42569.66
573.22	42749.88
573.38	42263.05
573.55	42309.86
573.71	42962.87
573.87	43199.27
574.03	42494.77
574.20	42532.22
574.36	42309.86
574.52	42265.39
574.68	42281.78
574.84	42674.99
575.01	42029.00
575.17	42295.82
575.33	42195.18
575.49	42363.70
575.65	43089.26
575.82	42813.08
575.98	42447.96
576.14	43026.07
576.30	42705.41
576.46	42836.48
576.62	42724.14
576.79	42946.49
576.95	42541.58
577.11	42686.69
577.27	42490.09
577.43	42487.74
577.59	42267.73
577.75	42822.44
577.92	42541.58
578.08	42639.88
578.24	42504.13
578.40	42169.43
578.56	42363.70
578.72	42770.95
578.88	43342.04
579.04	43117.35
579.21	42815.42
579.37	42733.50
579.53	42995.64
579.69	42602.43
579.85	42431.57
580.01	42426.89
580.17	42564.98
580.33	42787.33
580.49	42932.45
580.65	43115.01
580.82	42927.77
580.98	42684.35
581.14	42827.12
581.30	42796.70
581.46	42768.61
581.62	42897.34
581.78	42293.48
581.94	42639.88
582.10	42529.87
582.26	43002.66
582.42	42609.45
582.58	43133.73
582.74	42684.35
582.90	43122.03
583.06	42892.66
583.22	42698.39
583.38	42803.72
583.54	42784.99
583.70	42899.68
583.86	43140.75
584.02	42953.51
584.18	43140.75
584.34	43196.93
584.50	42766.27
584.66	42492.43
584.82	43262.46
584.98	43498.86
585.14	42887.98
585.30	42445.62
585.46	43175.86
585.62	42916.06
585.78	43243.74
585.94	42735.84
586.10	42768.61
586.26	42976.92
586.42	43093.94
586.58	43131.39
586.74	42557.96
586.90	43112.67
587.06	42635.20
587.22	42923.08
587.38	42911.38
587.54	43133.73
587.70	43529.28
587.86	43508.22
588.02	43358.42
588.18	43131.39
588.34	43206.29
588.49	43365.45
588.65	43173.52
588.81	43466.09
588.97	43086.92
589.13	43271.82
589.29	43494.18
589.45	43107.99
589.61	43105.65
589.77	43065.86
589.93	43852.28
590.08	43529.28
590.24	43510.56
590.40	43503.54
590.56	43885.04
590.72	43442.68
590.88	43206.29
591.04	43372.47
