SpectraSuite Data File
++++++++++++++++++++++++++++++++++++
Date: Fri Oct 04 11:40:04 GMT-05:00 2013
User: price-jones
Dark Spectrum Present: No
Reference Spectrum Present: No
Number of Sampled Component Spectra: 1
Spectrometers: USB2+H05261
Integration Time (usec): 100000 (USB2+H05261)
Spectra Averaged: 1 (USB2+H05261)
Boxcar Smoothing: 0 (USB2+H05261)
Correct for Electrical Dark: No (USB2+H05261)
Strobe/Lamp Enabled: No (USB2+H05261)
Correct for Detector Non-linearity: No (USB2+H05261)
Correct for Stray Light: No (USB2+H05261)
Number of Pixels in Processed Spectrum: 2048
>>>>>Begin Processed Spectral Data<<<<<
365.73	84.26
365.92	84.26
366.12	84.26
366.32	0.00
366.52	0.00
366.72	0.00
366.91	0.00
367.11	0.00
367.31	0.00
367.51	0.00
367.70	0.00
367.90	0.00
368.10	0.00
368.30	0.00
368.49	0.00
368.69	0.00
368.89	0.00
369.09	0.00
369.28	0.00
369.48	18.72
369.68	0.00
369.87	14.04
370.07	0.00
370.27	21.06
370.47	0.00
370.66	0.00
370.86	37.45
371.06	35.11
371.25	98.30
371.45	112.35
371.65	81.92
371.84	51.49
372.04	107.66
372.24	100.64
372.44	128.73
372.63	133.41
372.83	182.56
373.03	98.30
373.22	131.07
373.42	25.75
373.62	121.71
373.81	175.54
374.01	196.60
374.21	81.92
374.40	100.64
374.60	166.18
374.79	110.01
374.99	131.07
375.19	114.69
375.38	140.43
375.58	102.98
375.78	110.01
375.97	138.09
376.17	208.31
376.37	72.56
376.56	189.58
376.76	124.05
376.95	56.17
377.15	86.60
377.35	149.79
377.54	154.48
377.74	32.77
377.93	168.52
378.13	156.82
378.33	201.29
378.52	93.62
378.72	95.96
378.91	138.09
379.11	152.13
379.31	140.43
379.50	98.30
379.70	152.13
379.89	60.85
380.09	198.95
380.28	110.01
380.48	70.22
380.68	119.37
380.87	154.48
381.07	98.30
381.26	149.79
381.46	88.94
381.65	81.92
381.85	149.79
382.04	161.50
382.24	140.43
382.43	105.32
382.63	56.17
382.83	142.77
383.02	133.41
383.22	124.05
383.41	100.64
383.61	105.32
383.80	154.48
384.00	121.71
384.19	187.24
384.39	102.98
384.58	177.88
384.78	154.48
384.97	112.35
385.17	44.47
385.36	154.48
385.56	105.32
385.75	91.28
385.95	128.73
386.14	128.73
386.34	159.16
386.53	140.43
386.72	81.92
386.92	210.65
387.11	133.41
387.31	112.35
387.50	128.73
387.70	135.75
387.89	154.48
388.09	79.58
388.28	117.03
388.48	149.79
388.67	182.56
388.86	191.92
389.06	124.05
389.25	119.37
389.45	147.45
389.64	105.32
389.84	166.18
390.03	168.52
390.22	135.75
390.42	173.20
390.61	147.45
390.81	53.83
391.00	161.50
391.19	72.56
391.39	126.39
391.58	138.09
391.78	95.96
391.97	95.96
392.16	93.62
392.36	159.16
392.55	201.29
392.75	117.03
392.94	133.41
393.13	147.45
393.33	208.31
393.52	163.84
393.71	145.11
393.91	117.03
394.10	128.73
394.29	110.01
394.49	98.30
394.68	182.56
394.88	175.54
395.07	110.01
395.26	107.66
395.46	194.26
395.65	170.86
395.84	91.28
396.04	114.69
396.23	91.28
396.42	152.13
396.62	138.09
396.81	81.92
397.00	170.86
397.19	124.05
397.39	124.05
397.58	131.07
397.77	184.90
397.97	187.24
398.16	182.56
398.35	124.05
398.55	126.39
398.74	91.28
398.93	124.05
399.12	105.32
399.32	133.41
399.51	121.71
399.70	187.24
399.90	182.56
400.09	154.48
400.28	208.31
400.47	91.28
400.67	182.56
400.86	184.90
401.05	180.22
401.24	166.18
401.44	173.20
401.63	175.54
401.82	142.77
402.01	112.35
402.21	138.09
402.40	124.05
402.59	170.86
402.78	128.73
402.97	131.07
403.17	156.82
403.36	133.41
403.55	135.75
403.74	234.05
403.93	194.26
404.13	299.59
404.32	262.14
404.51	292.57
404.70	248.10
404.89	98.30
405.09	229.37
405.28	187.24
405.47	196.60
405.66	220.01
405.85	149.79
406.05	135.75
406.24	121.71
406.43	159.16
406.62	208.31
406.81	203.63
407.00	191.92
407.20	175.54
407.39	184.90
407.58	250.44
407.77	205.97
407.96	201.29
408.15	191.92
408.34	152.13
408.54	154.48
408.73	138.09
408.92	212.99
409.11	184.90
409.30	161.50
409.49	93.62
409.68	163.84
409.87	201.29
410.07	224.69
410.26	163.84
410.45	255.12
410.64	191.92
410.83	163.84
411.02	142.77
411.21	180.22
411.40	149.79
411.59	177.88
411.78	173.20
411.98	126.39
412.17	224.69
412.36	271.50
412.55	105.32
412.74	210.65
412.93	229.37
413.12	248.10
413.31	222.35
413.50	269.16
413.69	252.78
413.88	220.01
414.07	229.37
414.26	182.56
414.45	229.37
414.64	266.82
414.83	208.31
415.02	149.79
415.22	241.08
415.41	250.44
415.60	173.20
415.79	145.11
415.98	266.82
416.17	280.86
416.36	173.20
416.55	145.11
416.74	229.37
416.93	243.42
417.12	250.44
417.31	222.35
417.50	187.24
417.69	175.54
417.88	208.31
418.07	257.46
418.26	252.78
418.45	264.48
418.64	217.67
418.83	222.35
419.02	217.67
419.21	245.76
419.39	332.36
419.58	201.29
419.77	140.43
419.96	334.70
420.15	292.57
420.34	292.57
420.53	234.05
420.72	243.42
420.91	138.09
421.10	229.37
421.29	283.20
421.48	201.29
421.67	276.18
421.86	283.20
422.05	212.99
422.24	210.65
422.43	259.80
422.61	269.16
422.80	229.37
422.99	304.27
423.18	210.65
423.37	301.93
423.56	290.23
423.75	212.99
423.94	262.14
424.13	215.33
424.32	205.97
424.50	234.05
424.69	243.42
424.88	276.18
425.07	229.37
425.26	287.89
425.45	264.48
425.64	292.57
425.83	220.01
426.01	252.78
426.20	266.82
426.39	287.89
426.58	224.69
426.77	184.90
426.96	327.68
427.15	215.33
427.33	262.14
427.52	248.10
427.71	292.57
427.90	215.33
428.09	212.99
428.28	212.99
428.46	248.10
428.65	330.02
428.84	313.63
429.03	271.50
429.22	327.68
429.40	304.27
429.59	292.57
429.78	355.76
429.97	259.80
430.16	327.68
430.34	278.52
430.53	301.93
430.72	255.12
430.91	271.50
431.10	255.12
431.28	327.68
431.47	255.12
431.66	243.42
431.85	257.46
432.03	194.26
432.22	334.70
432.41	304.27
432.60	325.33
432.79	269.16
432.97	365.12
433.16	315.97
433.35	355.76
433.54	266.82
433.72	346.40
433.91	332.36
434.10	264.48
434.28	276.18
434.47	311.29
434.66	322.99
434.85	236.39
435.03	451.72
435.22	636.63
435.41	1090.69
435.59	1270.91
435.78	966.64
435.97	634.29
436.16	416.62
436.34	369.80
436.53	306.61
436.72	341.72
436.90	320.65
437.09	292.57
437.28	348.74
437.46	334.70
437.65	334.70
437.84	269.16
438.02	294.91
438.21	231.71
438.40	379.17
438.58	313.63
438.77	297.25
438.96	262.14
439.14	280.86
439.33	367.46
439.52	395.55
439.70	241.08
439.89	383.85
440.08	330.02
440.26	339.38
440.45	266.82
440.63	266.82
440.82	402.57
441.01	269.16
441.19	351.08
441.38	341.72
441.57	301.93
441.75	369.80
441.94	341.72
442.12	353.42
442.31	393.21
442.50	348.74
442.68	287.89
442.87	407.25
443.05	348.74
443.24	337.04
443.43	421.30
443.61	355.76
443.80	397.89
443.98	299.59
444.17	283.20
444.35	351.08
444.54	428.32
444.73	358.10
444.91	397.89
445.10	262.14
445.28	365.12
445.47	339.38
445.65	255.12
445.84	325.33
446.02	337.04
446.21	322.99
446.39	285.55
446.58	332.36
446.77	411.93
446.95	344.06
447.14	360.44
447.32	418.96
447.51	348.74
447.69	383.85
447.88	388.53
448.06	348.74
448.25	351.08
448.43	360.44
448.62	351.08
448.80	353.42
448.99	348.74
449.17	308.95
449.36	313.63
449.54	358.10
449.73	442.36
449.91	407.25
450.10	351.08
450.28	411.93
450.46	411.93
450.65	421.30
450.83	416.62
451.02	365.12
451.20	330.02
451.39	444.70
451.57	388.53
451.76	337.04
451.94	416.62
452.13	423.64
452.31	376.83
452.49	425.98
452.68	311.29
452.86	341.72
453.05	388.53
453.23	315.97
453.42	447.04
453.60	416.62
453.78	327.68
453.97	362.78
454.15	315.97
454.34	327.68
454.52	348.74
454.70	395.55
454.89	388.53
455.07	372.15
455.26	365.12
455.44	493.85
455.62	320.65
455.81	372.15
455.99	330.02
456.17	435.34
456.36	383.85
456.54	414.27
456.73	404.91
456.91	353.42
457.09	486.83
457.28	451.72
457.46	454.06
457.64	418.96
457.83	365.12
458.01	299.59
458.19	407.25
458.38	362.78
458.56	351.08
458.74	355.76
458.93	374.49
459.11	372.15
459.29	344.06
459.48	355.76
459.66	379.17
459.84	428.32
460.03	528.96
460.21	414.27
460.39	400.23
460.57	444.70
460.76	386.19
460.94	393.21
461.12	512.58
461.31	423.64
461.49	411.93
461.67	379.17
461.85	507.90
462.04	393.21
462.22	851.96
462.40	491.51
462.59	404.91
462.77	447.04
462.95	407.25
463.13	341.72
463.32	423.64
463.50	430.66
463.68	423.64
463.86	402.57
464.05	442.36
464.23	517.26
464.41	507.90
464.59	442.36
464.78	369.80
464.96	376.83
465.14	421.30
465.32	444.70
465.50	388.53
465.69	428.32
465.87	538.32
466.05	435.34
466.23	414.27
466.41	449.38
466.60	451.72
466.78	397.89
466.96	409.59
467.14	442.36
467.32	482.15
467.51	428.32
467.69	402.57
467.87	458.74
468.05	456.40
468.23	484.49
468.41	461.09
468.60	421.30
468.78	414.27
468.96	416.62
469.14	463.43
469.32	379.17
469.50	461.09
469.69	472.79
469.87	360.44
470.05	472.79
470.23	454.06
470.41	454.06
470.59	409.59
470.77	407.25
470.95	496.19
471.14	404.91
471.32	428.32
471.50	486.83
471.68	472.79
471.86	524.28
472.04	454.06
472.22	491.51
472.40	433.00
472.58	510.24
472.77	491.51
472.95	437.68
473.13	435.34
473.31	531.30
473.49	566.41
473.67	425.98
473.85	559.39
474.03	571.09
474.21	444.70
474.39	503.22
474.57	554.71
474.75	505.56
474.93	470.45
475.12	468.11
475.30	526.62
475.48	479.81
475.66	498.53
475.84	507.90
476.02	571.09
476.20	540.66
476.38	540.66
476.56	521.94
476.74	585.13
476.92	484.49
477.10	566.41
477.28	540.66
477.46	533.64
477.64	568.75
477.82	573.43
478.00	519.60
478.18	521.94
478.36	463.43
478.54	510.24
478.72	550.03
478.90	545.34
479.08	580.45
479.26	610.88
479.44	540.66
479.62	540.66
479.80	585.13
479.98	482.15
480.16	571.09
480.34	533.64
480.52	561.73
480.70	514.92
480.88	575.77
481.06	615.56
481.24	589.82
481.41	550.03
481.59	599.18
481.77	615.56
481.95	566.41
482.13	608.54
482.31	627.26
482.49	571.09
482.67	681.10
482.85	674.07
483.03	648.33
483.21	681.10
483.39	643.65
483.57	622.58
483.74	692.80
483.92	634.29
484.10	559.39
484.28	704.50
484.46	720.88
484.64	723.23
484.82	695.14
485.00	566.41
485.18	732.59
485.35	716.20
485.53	678.76
485.71	798.12
485.89	800.46
486.07	795.78
486.25	746.63
486.43	851.96
486.61	744.29
486.78	737.27
486.96	844.93
487.14	863.66
487.32	840.25
487.50	868.34
487.68	837.91
487.85	779.40
488.03	877.70
488.21	887.06
488.39	835.57
488.57	809.83
488.75	748.97
488.92	1041.54
489.10	912.81
489.28	821.53
489.46	917.49
489.64	795.78
489.81	884.72
489.99	863.66
490.17	835.57
490.35	999.41
490.53	877.70
490.70	858.98
490.88	898.77
491.06	887.06
491.24	971.32
491.41	908.13
491.59	880.04
491.77	910.47
491.95	866.00
492.13	837.91
492.30	929.19
492.48	936.21
492.66	915.15
492.84	870.68
493.01	823.87
493.19	915.15
493.37	877.70
493.54	889.40
493.72	915.15
493.90	877.70
494.08	919.83
494.25	938.55
494.43	1050.90
494.61	821.53
494.79	877.70
494.96	861.32
495.14	861.32
495.32	940.90
495.49	898.77
495.67	1050.90
495.85	901.11
496.02	915.15
496.20	990.05
496.38	917.49
496.55	994.73
496.73	983.02
496.91	898.77
497.09	992.39
497.26	954.94
497.44	1013.45
497.62	947.92
497.79	980.68
497.97	917.49
498.14	1053.24
498.32	987.71
498.50	1004.09
498.67	954.94
498.85	957.28
499.03	1034.52
499.20	1006.43
499.38	978.34
499.56	990.05
499.73	1004.09
499.91	997.07
500.08	1015.79
500.26	1025.15
500.44	973.66
500.61	976.00
500.79	966.64
500.97	1022.81
501.14	1048.56
501.32	1064.94
501.49	952.60
501.67	903.45
501.84	1001.75
502.02	964.30
502.20	1039.20
502.37	985.37
502.55	971.32
502.72	1034.52
502.90	1011.11
503.07	1057.92
503.25	1093.03
503.43	901.11
503.60	983.02
503.78	1046.22
503.95	968.98
504.13	917.49
504.30	957.28
504.48	1027.50
504.65	1022.81
504.83	912.81
505.01	999.41
505.18	1043.88
505.36	1006.43
505.53	978.34
505.71	1029.84
505.88	1050.90
506.06	1102.39
506.23	1034.52
506.41	1034.52
506.58	1153.88
506.76	1097.71
506.93	1090.69
507.11	1074.31
507.28	1074.31
507.46	1093.03
507.63	1055.58
507.81	1057.92
507.98	1046.22
508.16	1107.07
508.33	1121.12
508.50	1076.65
508.68	1041.54
508.85	1095.37
509.03	1095.37
509.20	1097.71
509.38	1107.07
509.55	1156.22
509.73	1125.80
509.90	1107.07
510.08	1116.44
510.25	1132.82
510.42	1071.97
510.60	1090.69
510.77	1139.84
510.95	1149.20
511.12	1132.82
511.30	1160.91
511.47	1055.58
511.64	1107.07
511.82	1130.48
511.99	1163.25
512.17	1252.19
512.34	1144.52
512.51	1224.10
512.69	1158.57
512.86	1174.95
513.04	1104.73
513.21	1191.33
513.38	1200.69
513.56	1114.10
513.73	1050.90
513.90	1053.24
514.08	1078.99
514.25	1210.06
514.43	1207.72
514.60	1275.59
514.77	1235.80
514.95	1252.19
515.12	1081.33
515.29	1142.18
515.47	1151.54
515.64	1125.80
515.81	1214.74
515.99	1249.85
516.16	1174.95
516.33	1191.33
516.51	1221.76
516.68	1107.07
516.85	1090.69
517.03	1142.18
517.20	1247.51
517.37	1163.25
517.54	1193.67
517.72	1144.52
517.89	1191.33
518.06	1118.78
518.24	1287.29
518.41	1270.91
518.58	1231.12
518.75	1172.61
518.93	1163.25
519.10	1172.61
519.27	1320.06
519.45	1219.42
519.62	1221.76
519.79	1252.19
519.96	1221.76
520.14	1324.74
520.31	1329.42
520.48	1270.91
520.65	1355.17
520.83	1224.10
521.00	1296.66
521.17	1240.48
521.34	1268.57
521.52	1289.64
521.69	1100.05
521.86	1306.02
522.03	1320.06
522.20	1291.98
522.38	1299.00
522.55	1313.04
522.72	1214.74
522.89	1364.53
523.07	1392.62
523.24	1357.51
523.41	1268.57
523.58	1224.10
523.75	1390.28
523.92	1306.02
524.10	1268.57
524.27	1280.27
524.44	1284.95
524.61	1329.42
524.78	1254.53
524.96	1252.19
525.13	1275.59
525.30	1409.00
525.47	1303.68
525.64	1308.36
525.81	1345.81
525.98	1364.53
526.16	1352.83
526.33	1277.93
526.50	1294.32
526.67	1200.69
526.84	1348.15
527.01	1315.38
527.18	1301.34
527.36	1409.00
527.53	1331.76
527.70	1355.17
527.87	1399.64
528.04	1425.39
528.21	1336.45
528.38	1348.15
528.55	1355.17
528.72	1235.80
528.89	1308.36
529.07	1390.28
529.24	1327.08
529.41	1352.83
529.58	1425.39
529.75	1299.00
529.92	1373.89
530.09	1423.05
530.26	1394.96
530.43	1404.32
530.60	1394.96
530.77	1296.66
530.94	1479.22
531.11	1399.64
531.28	1343.47
531.46	1317.72
531.63	1355.17
531.80	1392.62
531.97	1387.94
532.14	1455.81
532.31	1397.30
532.48	1409.00
532.65	1474.54
532.82	1362.19
532.99	1411.34
533.16	1416.02
533.33	1446.45
533.50	1453.47
533.67	1528.37
533.84	1530.71
534.01	1476.88
534.18	1352.83
534.35	1397.30
534.52	1430.07
534.69	1561.14
534.86	1409.00
535.03	1334.11
535.20	1500.28
535.37	1455.81
535.54	1516.67
535.71	1469.86
535.88	1490.92
536.05	1355.17
536.22	1547.09
536.38	1448.79
536.55	1371.55
536.72	1523.69
536.89	1476.88
537.06	1490.92
537.23	1565.82
537.40	1486.24
537.57	1530.71
537.74	1610.29
537.91	1624.33
538.08	1638.38
538.25	1558.80
538.42	1612.63
538.59	1556.46
538.75	1596.25
538.92	1657.10
539.09	1673.48
539.26	1647.74
539.43	1540.07
539.60	1682.85
539.77	1710.93
539.94	1802.21
540.11	1809.23
540.28	1818.60
540.44	1834.98
540.61	1966.05
540.78	1933.28
540.95	2062.01
541.12	2291.38
541.29	2375.64
541.46	2349.90
541.62	2289.04
541.79	2422.45
541.96	2441.18
542.13	2244.57
542.30	2356.92
542.47	2427.14
542.63	2200.10
542.80	2190.74
542.97	2291.38
543.14	2392.03
543.31	2267.98
543.48	2265.64
543.64	2289.04
543.81	2260.96
543.98	2291.38
544.15	2258.62
544.32	2174.36
544.48	2279.68
544.65	2258.62
544.82	2207.13
544.99	2174.36
545.16	2195.42
545.32	2218.83
545.49	2869.50
545.66	3611.45
545.83	4100.62
546.00	3714.43
546.16	3033.33
546.33	2415.43
546.50	2326.49
546.67	2153.29
546.83	1963.71
547.00	2062.01
547.17	1987.11
547.34	1944.99
547.50	1954.35
547.67	1996.48
547.84	1823.28
548.00	1874.77
548.17	1905.20
548.34	1846.68
548.51	1933.28
548.67	1921.58
548.84	1795.19
549.01	1893.49
549.18	1844.34
549.34	1902.86
549.51	1764.76
549.68	1813.92
549.84	1715.61
550.01	1785.83
550.18	1905.20
550.34	1764.76
550.51	1727.32
550.68	1701.57
550.84	1720.29
551.01	1678.16
551.18	1657.10
551.34	1586.88
551.51	1584.54
551.68	1652.42
551.84	1673.48
552.01	1710.93
552.18	1591.56
552.34	1577.52
552.51	1624.33
552.68	1769.44
552.84	1673.48
553.01	1565.82
553.18	1650.08
553.34	1593.90
553.51	1502.62
553.67	1650.08
553.84	1675.82
554.01	1692.21
554.17	1612.63
554.34	1645.40
554.51	1542.41
554.67	1568.16
554.84	1547.09
555.00	1521.35
555.17	1507.30
555.33	1605.61
555.50	1495.60
555.67	1528.37
555.83	1528.37
556.00	1533.05
556.16	1621.99
556.33	1640.72
556.50	1572.84
556.66	1556.46
556.83	1542.41
556.99	1519.01
557.16	1631.35
557.32	1614.97
557.49	1591.56
557.65	1460.49
557.82	1544.75
557.98	1528.37
558.15	1511.99
558.32	1521.35
558.48	1533.05
558.65	1533.05
558.81	1547.09
558.98	1455.81
559.14	1530.71
559.31	1537.73
559.47	1533.05
559.64	1476.88
559.80	1441.77
559.97	1483.90
560.13	1465.18
560.30	1542.41
560.46	1474.54
560.63	1446.45
560.79	1579.86
560.96	1533.05
561.12	1586.88
561.29	1493.26
561.45	1516.67
561.61	1519.01
561.78	1661.78
561.94	1542.41
562.11	1476.88
562.27	1453.47
562.44	1483.90
562.60	1469.86
562.77	1500.28
562.93	1540.07
563.10	1526.03
563.26	1528.37
563.42	1472.20
563.59	1584.54
563.75	1551.78
563.92	1544.75
564.08	1549.43
564.24	1568.16
564.41	1465.18
564.57	1523.69
564.74	1582.20
564.90	1556.46
565.07	1572.84
565.23	1544.75
565.39	1455.81
565.56	1570.50
565.72	1554.12
565.88	1584.54
566.05	1607.95
566.21	1530.71
566.38	1570.50
566.54	1554.12
566.70	1526.03
566.87	1516.67
567.03	1486.24
567.19	1493.26
567.36	1591.56
567.52	1535.39
567.68	1549.43
567.85	1605.61
568.01	1547.09
568.17	1490.92
568.34	1474.54
568.50	1549.43
568.66	1420.71
568.83	1598.59
568.99	1490.92
569.15	1526.03
569.32	1612.63
569.48	1497.94
569.64	1441.77
569.81	1591.56
569.97	1483.90
570.13	1537.73
570.30	1542.41
570.46	1600.93
570.62	1486.24
570.78	1610.29
570.95	1418.36
571.11	1490.92
571.27	1556.46
571.43	1490.92
571.60	1479.22
571.76	1605.61
571.92	1666.46
572.09	1605.61
572.25	1458.15
572.41	1561.14
572.57	1533.05
572.74	1549.43
572.90	1577.52
573.06	1511.99
573.22	1568.16
573.38	1589.22
573.55	1521.35
573.71	1624.33
573.87	1675.82
574.03	1483.90
574.20	1537.73
574.36	1509.65
574.52	1521.35
574.68	1467.52
574.84	1488.58
575.01	1514.33
575.17	1514.33
575.33	1533.05
575.49	1633.69
575.65	1591.56
575.82	1493.26
575.98	1504.96
576.14	1523.69
576.30	1568.16
576.46	1720.29
576.62	1952.01
576.79	1954.35
576.95	1830.30
577.11	1678.16
577.27	1657.10
577.43	1568.16
577.59	1682.85
577.75	1493.26
577.92	1563.48
578.08	1624.33
578.24	1530.71
578.40	1652.42
578.56	1727.32
578.72	1851.36
578.88	2010.52
579.04	1865.41
579.21	1631.35
579.37	1692.21
579.53	1638.38
579.69	1682.85
579.85	1678.16
580.01	1746.04
580.17	1575.18
580.33	1760.08
580.49	1619.65
580.65	1685.19
580.82	1603.27
580.98	1565.82
581.14	1626.67
581.30	1643.06
581.46	1729.66
581.62	1706.25
581.78	1610.29
581.94	1701.57
582.10	1717.95
582.26	1764.76
582.42	1715.61
582.58	1652.42
582.74	1645.40
582.90	1699.23
583.06	1767.10
583.22	1591.56
583.38	1699.23
583.54	1626.67
583.70	1687.53
583.86	1673.48
584.02	1769.44
584.18	1732.00
584.34	1572.84
584.50	1743.70
584.66	1666.46
584.82	1661.78
584.98	1650.08
585.14	1671.14
585.30	1673.48
585.46	1638.38
585.62	1706.25
585.78	1746.04
585.94	1743.70
586.10	1603.27
586.26	1633.69
586.42	1849.02
586.58	1757.74
586.74	1720.29
586.90	1764.76
587.06	1884.13
587.22	1790.51
587.38	1806.89
587.54	1734.34
587.70	1774.13
587.86	1645.40
588.02	1664.12
588.18	1687.53
588.34	1561.14
588.49	1638.38
588.65	1748.38
588.81	1549.43
588.97	1579.86
589.13	1549.43
589.29	1619.65
589.45	1689.87
589.61	1600.93
589.77	1593.90
589.93	1600.93
590.08	1561.14
590.24	1614.97
590.40	1640.72
590.56	1596.25
590.72	1617.31
590.88	1586.88
591.04	1666.46
591.20	1596.25
591.35	1629.01
591.51	1687.53
591.67	1523.69
591.83	1666.46
591.99	1675.82
592.15	1753.06
592.31	1743.70
592.46	1701.57
592.62	1750.72
592.78	1781.15
592.94	1699.23
593.10	1715.61
593.26	1657.10
593.41	1696.89
593.57	1673.48
593.73	1675.82
593.89	1556.46
594.05	1680.50
594.20	1668.80
594.36	1591.56
594.52	1526.03
594.68	1504.96
594.84	1579.86
594.99	1612.63
595.15	1614.97
595.31	1591.56
595.47	1605.61
595.62	1437.09
595.78	1537.73
595.94	1547.09
596.10	1661.78
596.25	1547.09
596.41	1617.31
596.57	1547.09
596.73	1537.73
596.88	1643.06
597.04	1593.90
597.20	1607.95
597.36	1720.29
597.51	1621.99
597.67	1509.65
597.83	1603.27
597.99	1596.25
598.14	1685.19
598.30	1582.20
598.46	1685.19
598.61	1605.61
598.77	1633.69
598.93	1610.29
599.09	1699.23
599.24	1565.82
599.40	1715.61
599.56	1664.12
599.71	1659.44
599.87	1668.80
600.03	1659.44
600.18	1577.52
600.34	1692.21
600.50	1575.18
600.65	1526.03
600.81	1596.25
600.97	1535.39
601.12	1511.99
601.28	1598.59
601.44	1493.26
601.59	1488.58
601.75	1469.86
601.91	1579.86
602.06	1502.62
602.22	1544.75
602.37	1497.94
602.53	1420.71
602.69	1563.48
602.84	1472.20
603.00	1598.59
603.16	1486.24
603.31	1521.35
603.47	1540.07
603.62	1533.05
603.78	1542.41
603.94	1514.33
604.09	1537.73
