SpectraSuite Data File
++++++++++++++++++++++++++++++++++++
Date: Fri Oct 04 11:40:05 GMT-05:00 2013
User: price-jones
Dark Spectrum Present: No
Reference Spectrum Present: No
Number of Sampled Component Spectra: 1
Spectrometers: USB2+H05261
Integration Time (usec): 100000 (USB2+H05261)
Spectra Averaged: 1 (USB2+H05261)
Boxcar Smoothing: 0 (USB2+H05261)
Correct for Electrical Dark: No (USB2+H05261)
Strobe/Lamp Enabled: No (USB2+H05261)
Correct for Detector Non-linearity: No (USB2+H05261)
Correct for Stray Light: No (USB2+H05261)
Number of Pixels in Processed Spectrum: 2048
>>>>>Begin Processed Spectral Data<<<<<
365.73	23.41
365.92	23.41
366.12	23.41
366.32	0.00
366.52	0.00
366.72	0.00
366.91	0.00
367.11	0.00
367.31	0.00
367.51	0.00
367.70	0.00
367.90	0.00
368.10	0.00
368.30	0.00
368.49	0.00
368.69	0.00
368.89	14.04
369.09	0.00
369.28	0.00
369.48	0.00
369.68	0.00
369.87	0.00
370.07	67.88
370.27	67.88
370.47	110.01
370.66	566.41
370.86	561.73
371.06	716.20
371.25	699.82
371.45	657.69
371.65	634.29
371.84	636.63
372.04	638.97
372.24	657.69
372.44	631.94
372.63	711.52
372.83	634.29
373.03	631.94
373.22	540.66
373.42	662.37
373.62	559.39
373.81	683.44
374.01	720.88
374.21	685.78
374.40	545.34
374.60	664.71
374.79	645.99
374.99	741.95
375.19	802.80
375.38	835.57
375.58	772.38
375.78	746.63
375.97	758.33
376.17	842.59
376.37	763.01
376.56	774.72
376.76	809.83
376.95	917.49
377.15	905.79
377.35	1027.50
377.54	1022.81
377.74	1013.45
377.93	1020.47
378.13	905.79
378.33	1027.50
378.52	910.47
378.72	882.38
378.91	842.59
379.11	791.10
379.31	793.44
379.50	863.66
379.70	926.85
379.89	945.58
380.09	1029.84
380.28	950.26
380.48	894.08
380.68	1132.82
380.87	999.41
381.07	884.72
381.26	866.00
381.46	835.57
381.65	800.46
381.85	741.95
382.04	727.91
382.24	669.39
382.43	671.73
382.63	601.52
382.83	664.71
383.02	643.65
383.22	643.65
383.41	585.13
383.61	751.31
383.80	784.08
384.00	884.72
384.19	968.98
384.39	994.73
384.58	1001.75
384.78	880.04
384.97	950.26
385.17	894.08
385.36	896.43
385.56	858.98
385.75	887.06
385.95	999.41
386.14	999.41
386.34	1090.69
386.53	1004.09
386.72	844.93
386.92	933.87
387.11	992.39
387.31	1001.75
387.50	957.28
387.70	882.38
387.89	961.96
388.09	990.05
388.28	957.28
388.48	959.62
388.67	1055.58
388.86	1139.84
389.06	1177.29
389.25	1137.50
389.45	1217.08
389.64	1205.38
389.84	1177.29
390.03	1186.65
390.22	1179.63
390.42	1313.04
390.61	1221.76
390.81	1362.19
391.00	1315.38
391.19	1481.56
391.39	1387.94
391.58	1282.61
391.78	1252.19
391.97	1198.35
392.16	1177.29
392.36	1142.18
392.55	912.81
392.75	777.06
392.94	617.90
393.13	608.54
393.33	664.71
393.52	830.89
393.71	983.02
393.91	1123.46
394.10	1071.97
394.29	1214.74
394.49	1369.21
394.68	1544.75
394.88	1437.09
395.07	1413.68
395.26	1399.64
395.46	1469.86
395.65	1359.85
395.84	1350.49
396.04	1167.93
396.23	938.55
396.42	751.31
396.62	819.19
396.81	957.28
397.00	1020.47
397.19	1303.68
397.39	1390.28
397.58	1659.44
397.77	1699.23
397.97	1764.76
398.16	1823.28
398.35	1806.89
398.55	1820.94
398.74	2008.18
398.93	2059.67
399.12	2003.50
399.32	1926.26
399.51	1952.01
399.70	2015.20
399.90	2076.06
400.09	1966.05
400.28	2043.29
400.47	2104.14
400.67	2148.61
400.86	2069.03
401.05	2188.40
401.24	2272.66
401.44	2321.81
401.63	2300.75
401.82	2200.10
402.01	2303.09
402.21	2291.38
402.40	2253.94
402.59	2099.46
402.78	2150.95
402.97	1989.46
403.17	2204.78
403.36	2190.74
403.55	2296.07
403.74	2293.72
403.93	2228.19
404.13	2265.64
404.32	1989.46
404.51	2246.91
404.70	2352.24
404.89	2249.25
405.09	2354.58
405.28	2275.00
405.47	2225.85
405.66	2230.53
405.85	2162.66
406.05	2094.78
406.24	2181.38
406.43	2148.61
406.62	2363.94
406.81	2366.28
407.00	2239.89
407.20	2129.89
407.39	2176.70
407.58	2195.42
407.77	2289.04
407.96	2457.56
408.15	2483.31
408.34	2429.48
408.54	2586.29
408.73	2448.20
408.92	2480.97
409.11	2450.54
409.30	2317.13
409.49	2338.20
409.68	2118.18
409.87	2038.61
410.07	2111.16
410.26	2382.67
410.45	2410.75
410.64	2338.20
410.83	2525.44
411.02	2569.91
411.21	2698.64
411.40	2764.17
411.59	2682.25
411.78	2703.32
411.98	2705.66
412.17	2747.79
412.36	2492.67
412.55	2597.99
412.74	2537.14
412.93	2619.06
413.12	2525.44
413.31	2745.45
413.50	2740.77
413.69	2855.45
413.88	2801.62
414.07	2733.75
414.26	2658.85
414.45	2672.89
414.64	2693.96
414.83	2834.39
415.02	2752.47
415.22	2794.60
415.41	2825.03
415.60	2984.18
415.79	2918.65
415.98	3082.49
416.17	3108.23
416.36	2911.63
416.55	2960.78
416.74	2810.98
416.93	2750.13
417.12	2806.30
417.31	2787.58
417.50	2918.65
417.69	2960.78
417.88	2881.20
418.07	2864.82
418.26	2892.90
418.45	2918.65
418.64	3091.85
418.83	3105.89
419.02	2888.22
419.21	3059.08
419.39	2862.48
419.58	2818.00
419.77	2846.09
419.96	2867.16
420.15	3117.59
420.34	3080.14
420.53	3241.64
420.72	3173.77
420.91	3290.79
421.10	3201.85
421.29	3236.96
421.48	3016.95
421.67	3318.88
421.86	3070.78
422.05	2965.46
422.24	2773.53
422.43	2649.49
422.61	2785.24
422.80	3000.57
422.99	3152.70
423.18	3026.31
423.37	3026.31
423.56	2911.63
423.75	2909.29
423.94	2974.82
424.13	2892.90
424.32	2862.48
424.50	2850.77
424.69	2855.45
424.88	2932.69
425.07	2928.01
425.26	2949.08
425.45	2890.56
425.64	2729.06
425.83	2853.11
426.01	3063.76
426.20	3028.65
426.39	2974.82
426.58	2815.66
426.77	2663.53
426.96	2513.74
427.15	2612.04
427.33	2715.02
427.52	2822.69
427.71	2829.71
427.90	2862.48
428.09	3033.33
428.28	2771.19
428.46	2768.85
428.65	2846.09
428.84	2717.36
429.03	2801.62
429.22	2637.78
429.40	2429.48
429.59	2375.64
429.78	2197.76
429.97	2190.74
430.16	2172.02
430.34	2265.64
430.53	2064.35
430.72	2059.67
430.91	2370.96
431.10	2649.49
431.28	3108.23
431.47	3403.14
431.66	3424.20
431.85	3225.26
432.03	2892.90
432.22	2855.45
432.41	2841.41
432.60	3052.06
432.79	3255.69
432.97	3375.05
433.16	3197.17
433.35	3040.36
433.54	2825.03
433.72	2654.17
433.91	2654.17
434.10	2904.60
434.28	3110.57
434.47	3258.03
434.66	3276.75
434.85	3218.24
435.03	3199.51
435.22	3461.65
435.41	3693.37
435.59	3850.18
435.78	3754.22
435.97	3588.04
436.16	3616.13
436.34	3590.38
436.53	3494.42
436.72	3435.91
436.90	3234.62
437.09	3204.19
437.28	3222.92
437.46	3232.28
437.65	3349.31
437.84	3173.77
438.02	2960.78
438.21	2806.30
438.40	2960.78
438.58	3178.45
438.77	3337.60
438.96	3398.46
439.14	3510.80
439.33	3623.15
439.52	3681.66
439.70	3625.49
439.89	3461.65
440.08	3449.95
440.26	3276.75
440.45	3459.31
440.63	3639.53
440.82	3779.97
441.01	3939.12
441.19	3822.09
441.38	3779.97
441.57	3955.51
441.75	4030.40
441.94	3950.82
442.12	3950.82
442.31	3894.65
442.50	3950.82
442.68	4091.26
442.87	3861.88
443.05	3840.82
443.24	3962.53
443.43	4084.23
443.61	4142.75
443.80	4098.28
443.98	4079.55
444.17	3852.52
444.35	4032.74
444.54	4091.26
444.73	4065.51
444.91	3948.48
445.10	3758.90
445.28	3716.77
445.47	3655.92
445.65	3705.07
445.84	3726.13
446.02	3843.16
446.21	3840.82
446.39	3974.23
446.58	4007.00
446.77	3995.29
446.95	4138.07
447.14	4175.52
447.32	4273.82
447.51	4241.05
447.69	3913.38
447.88	3957.85
448.06	3995.29
448.25	4149.77
448.43	4149.77
448.62	4049.13
448.80	3967.21
448.99	4098.28
449.17	4088.92
449.36	3990.61
449.54	4238.71
449.73	4255.09
449.91	4458.72
450.10	4573.41
450.28	4505.53
450.46	4514.89
450.65	4587.45
450.83	4351.06
451.02	4472.76
451.20	4311.27
451.39	4425.95
451.57	4407.23
451.76	4304.25
451.94	4407.23
452.13	4299.56
452.31	4011.68
452.49	3880.61
452.68	3878.27
452.86	3918.06
453.05	4032.74
453.23	3995.29
453.42	4077.21
453.60	4208.28
453.78	4348.72
453.97	4114.66
454.15	4332.33
454.34	4131.05
454.52	4051.47
454.70	4175.52
454.89	4086.58
455.07	4189.56
455.26	4063.17
455.44	4397.87
455.62	4353.40
455.81	4561.70
455.99	4451.70
456.17	4327.65
456.36	4386.16
456.54	4491.49
456.73	4287.86
456.91	4484.47
457.09	4517.23
457.28	4664.69
457.46	4444.68
457.64	4535.96
457.83	4290.20
458.01	4149.77
458.19	4322.97
458.38	4147.43
458.56	4521.92
458.74	4547.66
458.93	4353.40
459.11	4386.16
459.29	4299.56
459.48	4505.53
459.66	4421.27
459.84	4519.57
460.03	4545.32
460.21	4442.34
460.39	4557.02
460.57	4765.33
460.76	4699.80
460.94	4688.09
461.12	4713.84
461.31	4667.03
461.49	4580.43
461.67	4617.88
461.85	4739.58
462.04	4542.98
462.22	5158.54
462.40	4830.87
462.59	4683.41
462.77	4559.36
462.95	4552.34
463.13	4620.22
463.32	4587.45
463.50	4566.39
463.68	4407.23
463.86	4580.43
464.05	4550.00
464.23	4372.12
464.41	4440.00
464.59	4397.87
464.78	4507.87
464.96	4489.15
465.14	4447.02
465.32	4524.26
465.50	4699.80
465.69	4660.01
465.87	4643.62
466.05	4468.08
466.23	4423.61
466.41	4344.03
466.60	4271.48
466.78	4142.75
466.96	4489.15
467.14	4416.59
467.32	4624.90
467.51	4737.24
467.69	4386.16
467.87	4519.57
468.05	4526.60
468.23	4667.03
468.41	4510.21
468.60	4613.20
468.78	4596.81
468.96	4514.89
469.14	4535.96
469.32	4671.71
469.50	4271.48
469.69	4547.66
469.87	4334.67
470.05	4269.14
470.23	4428.29
470.41	4468.08
470.59	4456.38
470.77	4428.29
470.95	4575.75
471.14	4564.04
471.32	4587.45
471.50	4868.31
471.68	4844.91
471.86	4877.68
472.04	4793.42
472.22	4968.96
472.40	4599.15
472.58	4615.54
472.77	4582.77
472.95	4615.54
473.13	4746.61
473.31	4840.23
473.49	4650.64
473.67	4837.89
473.85	4781.71
474.03	4971.30
474.21	4692.77
474.39	5062.58
474.57	5067.26
474.75	5128.11
474.93	4880.02
475.12	4833.21
475.30	4994.70
475.48	4821.50
475.66	4861.29
475.84	4971.30
476.02	4765.33
476.20	4695.11
476.38	4887.04
476.56	4971.30
476.74	5057.90
476.92	5186.63
477.10	5228.76
477.28	5518.98
477.46	5343.44
477.64	5418.34
477.82	5432.38
478.00	5444.09
478.18	5298.97
478.36	5275.57
478.54	5074.28
478.72	5437.06
478.90	5408.98
479.08	5507.28
479.26	5607.92
479.44	5640.69
479.62	5668.78
479.80	5727.29
479.98	5774.10
480.16	5650.05
480.34	5673.46
480.52	5446.43
480.70	5746.02
480.88	5687.50
481.06	5970.71
481.24	5963.68
481.41	6033.90
481.59	6127.52
481.77	6150.93
481.95	6195.40
482.13	6106.46
482.31	6073.69
482.49	6080.71
482.67	6099.44
482.85	6113.48
483.03	6162.63
483.21	6106.46
483.39	6143.91
483.57	6211.78
483.74	6113.48
483.92	6122.84
484.10	6118.16
484.28	6221.14
484.46	6431.79
484.64	6431.79
484.82	6274.98
485.00	6153.27
485.18	6090.07
485.35	5994.11
485.53	5582.18
485.71	5238.12
485.89	5001.72
486.07	5153.86
486.25	5729.63
486.43	5886.45
486.61	6164.97
486.78	6045.60
486.96	5921.56
487.14	6366.26
487.32	6401.37
487.50	6569.88
487.68	6827.34
487.85	6895.22
488.03	6946.71
488.21	6864.79
488.39	6633.08
488.57	6595.63
488.75	6635.42
488.92	6946.71
489.10	7063.74
489.28	7482.69
489.46	7527.16
489.64	7524.82
489.81	7431.20
489.99	7321.20
490.17	7569.29
490.35	7747.17
490.53	7475.67
490.70	7433.54
490.88	7155.02
491.06	7412.48
491.24	7485.03
491.41	7349.28
491.59	7133.95
491.77	6789.89
491.95	7047.35
492.13	7335.24
492.30	7513.12
492.48	7735.47
492.66	7850.16
492.84	7866.54
493.01	7906.33
493.19	7683.98
493.37	7777.60
493.54	7716.75
493.72	7733.13
493.90	8114.64
494.08	8266.77
494.25	8196.56
494.43	8217.62
494.61	8348.69
494.79	8580.40
494.96	8336.99
495.14	8255.07
495.32	8044.42
495.49	7946.12
495.67	8091.23
495.85	8603.81
496.02	8468.06
496.20	8601.47
496.38	8500.83
496.55	8489.12
496.73	8568.70
496.91	8535.93
497.09	8814.46
497.26	8814.46
497.44	8596.79
497.62	8374.44
497.79	8266.77
497.97	8105.28
498.14	7948.46
498.32	8334.65
498.50	8542.96
498.67	8659.98
498.85	8449.33
499.03	8545.30
499.20	8777.01
499.38	8765.31
499.56	8723.18
499.73	8610.83
499.91	8297.20
500.08	8124.00
500.26	8156.77
500.44	7936.76
500.61	8428.27
500.79	8381.46
500.97	8341.67
501.14	8238.69
501.32	7943.78
501.49	8093.57
501.67	8100.59
501.84	8255.07
502.02	8404.86
502.20	8414.23
502.37	8535.93
502.55	8631.90
502.72	8575.72
502.90	8772.33
503.07	8559.34
503.25	8285.50
503.43	8116.98
503.60	7740.15
503.78	7779.94
503.95	7990.59
504.13	8131.02
504.30	8601.47
504.48	8634.24
504.65	8575.72
504.83	8552.32
505.01	8971.27
505.18	8842.54
505.36	9132.77
505.53	8807.44
505.71	9165.54
505.88	9029.79
506.06	9027.45
506.23	8926.80
506.41	8720.84
506.58	8779.35
506.76	8889.35
506.93	8484.44
507.11	8760.63
507.28	8767.65
507.46	8676.37
507.63	8449.33
507.81	8294.86
507.98	8327.63
508.16	8564.02
508.33	8676.37
508.50	8982.98
508.68	8945.53
508.85	9167.88
509.03	9177.24
509.20	9275.54
509.38	9008.72
509.55	8887.01
509.73	8681.05
509.90	8957.23
510.08	9092.98
510.25	9125.75
510.42	8905.74
510.60	8940.85
510.77	9081.28
510.95	9064.89
511.12	9226.39
511.30	9348.10
511.47	9303.63
511.64	9458.10
511.82	9329.38
511.99	9312.99
512.17	9048.51
512.34	8830.84
512.51	8910.42
512.69	8821.48
512.86	9006.38
513.04	9057.87
513.21	9214.69
513.38	9071.92
513.56	9071.92
513.73	8734.88
513.90	8636.58
514.08	8507.85
514.25	8812.12
514.43	8961.91
514.60	8889.35
514.77	9076.60
514.95	9104.68
515.12	9083.62
515.29	8947.87
515.47	9081.28
515.64	9334.06
515.81	9146.81
515.99	9219.37
516.16	8629.56
516.33	8065.49
516.51	7630.15
516.68	7473.33
516.85	7248.64
517.03	7325.88
517.20	7925.05
517.37	8699.77
517.54	8929.14
517.72	8954.89
517.89	8250.39
518.06	7571.63
518.24	7588.02
518.41	8119.32
518.58	8582.74
518.75	8716.16
518.93	8840.20
519.10	8711.47
519.27	8657.64
519.45	8746.58
519.62	8990.00
519.79	9275.54
519.96	9202.99
520.14	9081.28
520.31	8779.35
520.48	8891.70
520.65	8781.69
520.83	9046.17
521.00	9355.12
521.17	9221.71
521.34	9081.28
521.52	9149.15
521.69	9310.65
521.86	9385.55
522.03	9476.83
522.20	9062.55
522.38	8826.16
522.55	8788.71
522.72	8922.12
522.89	8865.95
523.07	8933.82
523.24	9069.58
523.41	9343.42
523.58	9525.98
523.75	9462.79
523.92	9563.43
524.10	9364.48
524.27	9612.58
524.44	9504.92
524.61	9437.04
524.78	9425.34
524.96	9392.57
525.13	9163.20
525.30	9479.17
525.47	9554.07
525.64	9593.86
525.81	9305.97
525.98	8943.19
526.16	8669.34
526.33	8294.86
526.50	8170.81
526.67	8049.10
526.84	7969.52
527.01	8329.97
527.18	8531.25
527.36	8879.99
527.53	9128.09
527.70	9151.49
527.87	9331.72
528.04	9263.84
528.21	9163.20
528.38	9331.72
528.55	9717.90
528.72	9788.12
528.89	9699.18
529.07	9762.37
529.24	9448.74
529.41	9366.82
529.58	8868.29
529.75	8943.19
529.92	9324.69
530.09	9261.50
530.26	9675.77
530.43	9645.35
530.60	9668.75
530.77	9848.97
530.94	9958.98
531.11	9710.88
531.28	9619.60
531.46	9423.00
531.63	9413.63
531.80	9600.88
531.97	9362.14
532.14	9172.56
532.31	8889.35
532.48	8451.67
532.65	8521.89
532.82	8507.85
532.99	9132.77
533.16	9301.29
533.33	9589.17
533.50	9628.96
533.67	9263.84
533.84	9109.36
534.01	8982.98
534.18	9151.49
534.35	9247.46
534.52	9322.35
534.69	9249.80
534.86	9259.16
535.03	9394.91
535.20	9708.54
535.37	9596.20
535.54	9624.28
535.71	9657.05
535.88	9645.35
536.05	9511.94
536.22	9387.89
536.38	9195.96
536.55	9022.77
536.72	8659.98
536.89	8737.22
537.06	9095.32
537.23	9205.33
537.40	9362.14
537.57	9350.44
537.74	9202.99
537.91	9268.52
538.08	9067.24
538.25	9387.89
538.42	9130.43
538.59	9142.13
538.75	9050.85
538.92	9078.94
539.09	9245.12
539.26	8905.74
539.43	8957.23
539.60	8882.33
539.77	8861.27
539.94	8973.61
540.11	8999.36
540.28	8812.12
540.44	8432.95
540.61	8528.91
540.78	8828.50
540.95	9034.47
541.12	9163.20
541.29	9268.52
541.46	9193.62
541.62	9420.66
541.79	9397.25
541.96	9139.79
542.13	9170.22
542.30	9132.77
542.47	9235.75
542.63	9146.81
542.80	8990.00
542.97	8896.38
543.14	8980.64
543.31	8938.51
543.48	9142.13
543.64	9448.74
543.81	9731.95
543.98	9481.51
544.15	9357.46
544.32	9163.20
544.48	9076.60
544.65	9029.79
544.82	9231.07
544.99	9343.42
545.16	9191.28
545.32	9046.17
545.49	9397.25
545.66	10036.22
545.83	10024.51
546.00	9811.53
546.16	9455.76
546.33	9369.16
546.50	9095.32
546.67	9273.20
546.83	8987.66
547.00	9083.62
547.17	9109.36
547.34	8748.92
547.50	8690.41
547.67	8823.82
547.84	8842.54
548.00	8912.76
548.17	8973.61
548.34	9188.94
548.51	9137.45
548.67	9214.69
548.84	9217.03
549.01	9488.53
549.18	9039.15
549.34	8980.64
549.51	8994.68
549.68	9219.37
549.84	9125.75
550.01	8894.04
550.18	8971.27
550.34	8922.12
550.51	8840.20
550.68	8889.35
550.84	8809.78
551.01	9060.21
551.18	8753.60
551.34	8622.53
551.51	8819.14
551.68	9088.30
551.84	9273.20
552.01	9102.34
552.18	9121.07
552.34	8720.84
552.51	8631.90
552.68	8617.85
552.84	8620.19
553.01	8851.91
553.18	8748.92
553.34	8800.41
553.51	8739.56
553.67	8922.12
553.84	8978.30
554.01	8912.76
554.17	8798.07
554.34	8788.71
554.51	8730.20
554.67	8968.93
554.84	8999.36
555.00	9004.04
555.17	8594.45
555.33	8727.86
555.50	8814.46
555.67	8704.45
555.83	8748.92
556.00	8678.71
556.16	8933.82
556.33	8486.78
556.50	8339.33
556.66	8540.61
556.83	8229.32
556.99	8477.42
557.16	8533.59
557.32	8383.80
557.49	8629.56
557.65	8526.57
557.82	8608.49
557.98	8425.93
558.15	8561.68
558.32	8271.45
558.48	7992.93
558.65	7990.59
558.81	8098.25
558.98	7995.27
559.14	8203.58
559.31	8149.75
559.47	8318.26
559.64	7992.93
559.80	7985.91
559.97	8187.19
560.13	8187.19
560.30	8376.78
560.46	8519.55
560.63	8657.64
560.79	8512.53
560.96	8479.76
561.12	8320.60
561.29	7911.01
561.45	8039.74
561.61	8320.60
561.78	8294.86
561.94	8301.88
562.11	8365.07
562.27	8191.88
562.44	8304.22
562.60	8355.71
562.77	8421.25
562.93	8416.57
563.10	8243.37
563.26	8610.83
563.42	8322.94
563.59	8306.56
563.75	8037.40
563.92	8077.19
564.08	8226.98
564.24	8222.30
564.41	8344.01
564.57	8177.83
564.74	8135.70
564.90	7976.55
565.07	8189.53
565.23	8016.33
565.39	7936.76
565.56	7934.42
565.72	7662.91
565.88	7805.69
566.05	7723.77
566.21	7829.09
566.38	8121.66
566.54	8070.17
566.70	8037.40
566.87	8016.33
567.03	8140.38
567.19	8191.88
567.36	8124.00
567.52	8156.77
567.68	7969.52
567.85	7786.96
568.01	7400.77
568.17	7616.10
568.34	7503.76
568.50	7356.30
568.66	7433.54
568.83	7597.38
568.99	7674.62
569.15	7595.04
569.32	7454.61
569.48	7597.38
569.64	7440.56
569.81	7433.54
569.97	7393.75
570.13	7456.95
570.30	7541.21
570.46	7368.01
570.62	7398.43
570.78	7346.94
570.95	7136.29
571.11	7311.83
571.27	7466.31
571.43	7222.89
571.60	7581.00
571.76	7513.12
571.92	7583.34
572.09	7620.78
572.25	7602.06
572.41	7489.71
572.57	7541.21
572.74	7508.44
572.90	7515.46
573.06	7733.13
573.22	7573.97
573.38	7630.15
573.55	7487.37
573.71	7665.25
573.87	7433.54
574.03	7400.77
574.20	7379.71
574.36	7562.27
574.52	7311.83
574.68	7302.47
574.84	7302.47
575.01	7087.14
575.17	7232.26
575.33	7176.08
575.49	7412.48
575.65	7447.58
575.82	7265.02
575.98	7094.16
576.14	7260.34
576.30	7440.56
576.46	7435.88
576.62	7344.60
576.79	7520.14
576.95	7412.48
577.11	7494.40
577.27	7307.15
577.43	7323.54
577.59	7159.70
577.75	7162.04
577.92	6939.69
578.08	7204.17
578.24	6860.11
578.40	7110.55
578.56	7063.74
578.72	7417.16
578.88	7447.58
579.04	7494.40
579.21	7414.82
579.37	7286.09
579.53	7192.47
579.69	7379.71
579.85	7279.07
580.01	7379.71
580.17	7269.70
580.33	7339.92
580.49	7199.49
580.65	7349.28
580.82	7220.55
580.98	7316.51
581.14	7288.43
581.30	7283.75
581.46	7213.53
581.62	7236.94
581.78	7279.07
581.94	7548.23
582.10	7250.98
582.26	7290.77
582.42	7342.26
582.58	7438.22
582.74	7424.18
582.90	7346.94
583.06	7534.18
583.22	7445.24
583.38	7288.43
583.54	7375.03
583.70	7143.32
583.86	7365.67
584.02	7368.01
584.18	7351.62
584.34	7372.69
584.50	7358.64
584.66	7206.51
584.82	7262.68
584.98	7201.83
585.14	6942.03
585.30	6927.99
585.46	6878.83
585.62	6766.49
585.78	6953.73
585.94	6801.60
586.10	7084.80
586.26	6984.16
586.42	6937.35
586.58	6984.16
586.74	6993.52
586.90	6867.13
587.06	7082.46
587.22	6956.07
587.38	6754.79
587.54	6658.82
587.70	6712.66
587.86	6597.97
588.02	6333.49
588.18	6188.38
588.34	5984.75
588.49	5647.71
588.65	5298.97
588.81	5060.24
588.97	5261.52
589.13	5228.76
589.29	5245.14
589.45	5039.17
589.61	5238.12
589.77	5495.58
589.93	5654.73
590.08	5879.43
590.24	5991.77
590.40	5961.34
590.56	6125.18
590.72	5947.30
590.88	5837.30
591.04	5858.36
591.20	5973.05
591.35	5881.77
591.51	5942.62
591.67	5893.47
591.83	5762.40
591.99	5729.63
592.15	5790.49
592.31	6073.69
592.46	6024.54
592.62	6197.74
592.78	6171.99
592.94	6097.10
593.10	6139.23
593.26	6319.45
593.41	6476.26
593.57	6246.89
593.73	5895.81
593.89	5687.50
594.05	5605.58
594.20	5397.28
594.36	5568.13
594.52	5507.28
594.68	5476.85
594.84	5703.89
594.99	5937.94
595.15	6118.16
595.31	5916.87
595.47	5944.96
595.62	6120.50
595.78	6050.28
595.94	6148.59
596.10	6069.01
596.25	6022.20
596.41	5930.92
596.57	5956.66
596.73	6033.90
596.88	5968.37
597.04	6162.63
597.20	6111.14
597.36	5975.39
