SpectraSuite Data File
++++++++++++++++++++++++++++++++++++
Date: Fri Oct 04 11:40:02 GMT-05:00 2013
User: price-jones
Dark Spectrum Present: No
Reference Spectrum Present: No
Number of Sampled Component Spectra: 1
Spectrometers: USB2+H05261
Integration Time (usec): 100000 (USB2+H05261)
Spectra Averaged: 1 (USB2+H05261)
Boxcar Smoothing: 0 (USB2+H05261)
Correct for Electrical Dark: No (USB2+H05261)
Strobe/Lamp Enabled: No (USB2+H05261)
Correct for Detector Non-linearity: No (USB2+H05261)
Correct for Stray Light: No (USB2+H05261)
Number of Pixels in Processed Spectrum: 2048
>>>>>Begin Processed Spectral Data<<<<<
365.73	51.49
365.92	51.49
366.12	51.49
366.32	0.00
366.52	0.00
366.72	0.00
366.91	0.00
367.11	0.00
367.31	0.00
367.51	0.00
367.70	0.00
367.90	0.00
368.10	0.00
368.30	18.72
368.49	0.00
368.69	32.77
368.89	0.00
369.09	0.00
369.28	0.00
369.48	0.00
369.68	25.75
369.87	2.34
370.07	0.00
370.27	18.72
370.47	39.79
370.66	58.51
370.86	102.98
371.06	147.45
371.25	91.28
371.45	56.17
371.65	133.41
371.84	44.47
372.04	198.95
372.24	84.26
372.44	177.88
372.63	107.66
372.83	220.01
373.03	131.07
373.22	212.99
373.42	191.92
373.62	180.22
373.81	124.05
374.01	203.63
374.21	170.86
374.40	255.12
374.60	145.11
374.79	152.13
374.99	131.07
375.19	140.43
375.38	212.99
375.58	189.58
375.78	236.39
375.97	159.16
376.17	208.31
376.37	191.92
376.56	215.33
376.76	124.05
376.95	119.37
377.15	212.99
377.35	140.43
377.54	189.58
377.74	128.73
377.93	140.43
378.13	205.97
378.33	198.95
378.52	189.58
378.72	229.37
378.91	131.07
379.11	210.65
379.31	217.67
379.50	126.39
379.70	138.09
379.89	220.01
380.09	121.71
380.28	93.62
380.48	107.66
380.68	173.20
380.87	203.63
381.07	198.95
381.26	152.13
381.46	201.29
381.65	175.54
381.85	173.20
382.04	231.71
382.24	168.52
382.43	175.54
382.63	196.60
382.83	217.67
383.02	175.54
383.22	222.35
383.41	159.16
383.61	215.33
383.80	173.20
384.00	191.92
384.19	210.65
384.39	189.58
384.58	184.90
384.78	259.80
384.97	161.50
385.17	224.69
385.36	217.67
385.56	203.63
385.75	121.71
385.95	189.58
386.14	196.60
386.34	128.73
386.53	245.76
386.72	229.37
386.92	245.76
387.11	126.39
387.31	245.76
387.50	177.88
387.70	156.82
387.89	149.79
388.09	236.39
388.28	187.24
388.48	184.90
388.67	173.20
388.86	156.82
389.06	234.05
389.25	241.08
389.45	177.88
389.64	166.18
389.84	222.35
390.03	236.39
390.22	201.29
390.42	339.38
390.61	173.20
390.81	154.48
391.00	229.37
391.19	257.46
391.39	126.39
391.58	168.52
391.78	250.44
391.97	327.68
392.16	166.18
392.36	273.84
392.55	269.16
392.75	170.86
392.94	262.14
393.13	243.42
393.33	133.41
393.52	170.86
393.71	285.55
393.91	264.48
394.10	255.12
394.29	205.97
394.49	341.72
394.68	241.08
394.88	248.10
395.07	238.73
395.26	283.20
395.46	283.20
395.65	351.08
395.84	308.95
396.04	280.86
396.23	278.52
396.42	297.25
396.62	334.70
396.81	208.31
397.00	266.82
397.19	287.89
397.39	210.65
397.58	344.06
397.77	259.80
397.97	283.20
398.16	369.80
398.35	400.23
398.55	318.31
398.74	386.19
398.93	390.87
399.12	358.10
399.32	358.10
399.51	313.63
399.70	255.12
399.90	332.36
400.09	372.15
400.28	320.65
400.47	421.30
400.67	383.85
400.86	379.17
401.05	376.83
401.24	428.32
401.44	395.55
401.63	468.11
401.82	442.36
402.01	332.36
402.21	339.38
402.40	362.78
402.59	400.23
402.78	430.66
402.97	468.11
403.17	372.15
403.36	379.17
403.55	404.91
403.74	425.98
403.93	500.87
404.13	517.26
404.32	519.60
404.51	500.87
404.70	493.85
404.89	470.45
405.09	503.22
405.28	498.53
405.47	524.28
405.66	482.15
405.85	484.49
406.05	524.28
406.24	524.28
406.43	521.94
406.62	526.62
406.81	503.22
407.00	589.82
407.20	571.09
407.39	505.56
407.58	620.24
407.77	613.22
407.96	561.73
408.15	589.82
408.34	545.34
408.54	580.45
408.73	622.58
408.92	657.69
409.11	709.18
409.30	653.01
409.49	599.18
409.68	624.92
409.87	613.22
410.07	608.54
410.26	737.27
410.45	816.85
410.64	711.52
410.83	627.26
411.02	760.67
411.21	739.61
411.40	685.78
411.59	786.42
411.78	704.50
411.98	802.80
412.17	856.64
412.36	798.12
412.55	774.72
412.74	800.46
412.93	720.88
413.12	823.87
413.31	851.96
413.50	894.08
413.69	915.15
413.88	931.53
414.07	856.64
414.26	929.19
414.45	901.11
414.64	919.83
414.83	978.34
415.02	973.66
415.22	1043.88
415.41	924.51
415.60	964.30
415.79	983.02
415.98	1055.58
416.17	999.41
416.36	1050.90
416.55	1008.77
416.74	1001.75
416.93	1128.14
417.12	1130.48
417.31	994.73
417.50	1170.27
417.69	1200.69
417.88	1135.16
418.07	1111.75
418.26	1142.18
418.45	1088.35
418.64	1158.57
418.83	1242.82
419.02	1205.38
419.21	1233.46
419.39	1142.18
419.58	1221.76
419.77	1181.97
419.96	1273.25
420.15	1212.40
420.34	1210.06
420.53	1118.78
420.72	1273.25
420.91	1270.91
421.10	1270.91
421.29	1334.11
421.48	1235.80
421.67	1299.00
421.86	1231.12
422.05	1334.11
422.24	1345.81
422.43	1299.00
422.61	1280.27
422.80	1329.42
422.99	1303.68
423.18	1301.34
423.37	1329.42
423.56	1387.94
423.75	1380.92
423.94	1289.64
424.13	1153.88
424.32	1247.51
424.50	1289.64
424.69	1350.49
424.88	1350.49
425.07	1371.55
425.26	1357.51
425.45	1299.00
425.64	1409.00
425.83	1296.66
426.01	1343.47
426.20	1315.38
426.39	1455.81
426.58	1387.94
426.77	1366.87
426.96	1331.76
427.15	1500.28
427.33	1357.51
427.52	1430.07
427.71	1451.13
427.90	1413.68
428.09	1469.86
428.28	1373.89
428.46	1451.13
428.65	1516.67
428.84	1509.65
429.03	1521.35
429.22	1406.66
429.40	1514.33
429.59	1523.69
429.78	1533.05
429.97	1448.79
430.16	1469.86
430.34	1472.20
430.53	1526.03
430.72	1486.24
430.91	1511.99
431.10	1497.94
431.28	1619.65
431.47	1675.82
431.66	1607.95
431.85	1631.35
432.03	1645.40
432.22	1668.80
432.41	1530.71
432.60	1710.93
432.79	1673.48
432.97	1713.27
433.16	1575.18
433.35	1668.80
433.54	1724.97
433.72	1682.85
433.91	1739.02
434.10	1638.38
434.28	1689.87
434.47	1657.10
434.66	1748.38
434.85	1825.62
435.03	1858.39
435.22	1987.11
435.41	2153.29
435.59	2253.94
435.78	2033.93
435.97	1916.90
436.16	1874.77
436.34	1888.81
436.53	1788.17
436.72	1743.70
436.90	1774.13
437.09	1823.28
437.28	1781.15
437.46	1783.49
437.65	1891.15
437.84	1834.98
438.02	1856.04
438.21	1877.11
438.40	1830.30
438.58	1886.47
438.77	1963.71
438.96	1940.30
439.14	2001.16
439.33	2050.31
439.52	2031.58
439.70	2012.86
439.89	2066.69
440.08	2026.90
440.26	1961.37
440.45	2064.35
440.63	2024.56
440.82	2043.29
441.01	2071.37
441.19	2085.42
441.38	2146.27
441.57	2038.61
441.75	2188.40
441.94	2202.44
442.12	2181.38
442.31	2134.57
442.50	2118.18
442.68	2207.13
442.87	2207.13
443.05	2260.96
443.24	2211.81
443.43	2200.10
443.61	2160.31
443.80	2317.13
443.98	2235.21
444.17	2111.16
444.35	2176.70
444.54	2209.47
444.73	2239.89
444.91	2239.89
445.10	2324.15
445.28	2317.13
445.47	2183.72
445.65	2272.66
445.84	2258.62
446.02	2392.03
446.21	2270.32
446.39	2260.96
446.58	2284.36
446.77	2359.26
446.95	2289.04
447.14	2319.47
447.32	2312.45
447.51	2246.91
447.69	2385.01
447.88	2377.98
448.06	2303.09
448.25	2335.85
448.43	2338.20
448.62	2319.47
448.80	2434.16
448.99	2401.39
449.17	2389.69
449.36	2408.41
449.54	2478.63
449.73	2312.45
449.91	2438.84
450.10	2485.65
450.28	2429.48
450.46	2502.03
450.65	2382.67
450.83	2471.61
451.02	2392.03
451.20	2621.40
451.39	2581.61
451.57	2555.86
451.76	2443.52
451.94	2555.86
452.13	2544.16
452.31	2558.21
452.49	2513.74
452.68	2649.49
452.86	2640.12
453.05	2682.25
453.23	2656.51
453.42	2490.33
453.60	2551.18
453.78	2572.25
453.97	2581.61
454.15	2567.57
454.34	2597.99
454.52	2614.38
454.70	2597.99
454.89	2621.40
455.07	2668.21
455.26	2717.36
455.44	2722.04
455.62	2764.17
455.81	2670.55
455.99	2754.81
456.17	2635.44
456.36	2820.35
456.54	2818.00
456.73	2726.72
456.91	2850.77
457.09	2803.96
457.28	2864.82
457.46	2820.35
457.64	2890.56
457.83	2883.54
458.01	2906.95
458.19	2918.65
458.38	2937.37
458.56	2963.12
458.74	2862.48
458.93	2984.18
459.11	2782.90
459.29	2991.20
459.48	2785.24
459.66	2904.60
459.84	2972.48
460.03	3047.38
460.21	2963.12
460.39	3000.57
460.57	2942.05
460.76	3002.91
460.94	3091.85
461.12	2897.58
461.31	3087.17
461.49	2958.44
461.67	2965.46
461.85	3096.53
462.04	3038.02
462.22	3555.27
462.40	3122.27
462.59	3007.59
462.77	3054.40
462.95	3094.19
463.13	3138.66
463.32	3148.02
463.50	3239.30
463.68	3379.73
463.86	3213.56
464.05	3176.11
464.23	3155.04
464.41	3157.38
464.59	3115.25
464.78	3239.30
464.96	3112.91
465.14	3197.17
465.32	3215.90
465.50	3286.11
465.69	3358.67
465.87	3267.39
466.05	3309.52
466.23	3370.37
466.41	3288.45
466.60	3328.24
466.78	3243.98
466.96	3412.50
467.14	3433.57
467.32	3321.22
467.51	3311.86
467.69	3288.45
467.87	3440.59
468.05	3391.44
468.23	3372.71
468.41	3372.71
468.60	3332.92
468.78	3463.99
468.96	3379.73
469.14	3517.83
469.32	3536.55
469.50	3391.44
469.69	3548.25
469.87	3522.51
470.05	3602.08
470.23	3438.25
470.41	3576.34
470.59	3524.85
470.77	3442.93
470.95	3564.64
471.14	3691.02
471.32	3595.06
471.50	3648.90
471.68	3506.12
471.86	3639.53
472.04	3672.30
472.22	3749.54
472.40	3585.70
472.58	3728.47
472.77	3751.88
472.95	3794.01
473.13	3847.84
473.31	3859.54
473.49	3775.28
473.67	3808.05
473.85	3861.88
474.03	3826.78
474.21	4021.04
474.39	3852.52
474.57	3950.82
474.75	3983.59
474.93	4109.98
475.12	3974.23
475.30	3988.27
475.48	4060.83
475.66	4039.76
475.84	4102.96
476.02	4117.00
476.20	4067.85
476.38	4140.41
476.56	4276.16
476.74	4315.95
476.92	4217.65
477.10	4287.86
477.28	4339.35
477.46	4386.16
477.64	4388.50
477.82	4346.37
478.00	4442.34
478.18	4388.50
478.36	4365.10
478.54	4650.64
478.72	4540.64
478.90	4493.83
479.08	4559.36
479.26	4802.78
479.44	4643.62
479.62	4753.63
479.80	4671.71
479.98	4699.80
480.16	4802.78
480.34	4744.27
480.52	4762.99
480.70	5050.88
480.88	4877.68
481.06	4966.62
481.24	4952.57
481.41	4903.42
481.59	5041.51
481.77	5137.48
481.95	5177.26
482.13	5174.92
482.31	5217.05
482.49	5247.48
482.67	5301.31
482.85	5338.76
483.03	5455.79
483.21	5458.13
483.39	5504.94
483.57	5584.52
483.74	5490.90
483.92	5666.44
484.10	5589.20
484.28	5781.12
484.46	5830.27
484.64	5937.94
484.82	5755.38
485.00	5708.57
485.18	5954.32
485.35	6059.65
485.53	5888.79
485.71	6155.61
485.89	6232.85
486.07	6125.18
486.25	6221.14
486.43	6274.98
486.61	6153.27
486.78	6258.59
486.96	6427.11
487.14	6476.26
487.32	6380.30
487.50	6443.49
487.68	6647.12
487.85	6656.48
488.03	6644.78
488.21	6794.58
488.39	6682.23
488.57	6794.58
488.75	6902.24
488.92	7138.63
489.10	7098.84
489.28	7037.99
489.46	7016.93
489.64	6993.52
489.81	7180.76
489.99	7178.42
490.17	7281.41
490.35	7274.38
490.53	7435.88
490.70	7370.35
490.88	7478.01
491.06	7279.07
491.24	7377.37
491.41	7513.12
491.59	7534.18
491.77	7494.40
491.95	7634.83
492.13	7810.37
492.30	7852.50
492.48	7798.66
492.66	7793.98
492.84	7735.47
493.01	8018.68
493.19	7801.01
493.37	8091.23
493.54	8168.47
493.72	8077.19
493.90	8013.99
494.08	8287.84
494.25	8177.83
494.43	8369.76
494.61	8486.78
494.79	8421.25
494.96	8257.41
495.14	8369.76
495.32	8674.03
495.49	8505.51
495.67	8580.40
495.85	8564.02
496.02	8908.08
496.20	8638.92
496.38	8468.06
496.55	8585.08
496.73	8992.34
496.91	8980.64
497.09	9018.08
497.26	8992.34
497.44	8849.57
497.62	8910.42
497.79	9137.45
497.97	9202.99
498.14	9165.54
498.32	9275.54
498.50	9320.01
498.67	9301.29
498.85	9565.77
499.03	9118.73
499.20	9483.85
499.38	9305.97
499.56	9507.26
499.73	9858.34
499.91	9785.78
500.08	9619.60
500.26	9542.36
500.44	9554.07
500.61	9696.84
500.79	9633.64
500.97	9790.46
501.14	9956.64
501.32	9881.74
501.49	9753.01
501.67	9975.36
501.84	9968.34
502.02	9935.57
502.20	10230.48
502.37	10141.54
502.55	10293.68
502.72	10155.58
502.90	9984.73
503.07	10050.26
503.25	10312.40
503.43	10188.35
503.60	10239.84
503.78	10420.06
503.95	10368.57
504.13	10354.53
504.30	10410.70
504.48	10427.09
504.65	10457.51
504.83	10635.39
505.01	10649.44
505.18	10700.93
505.36	10595.61
505.53	10640.08
505.71	10614.33
505.88	10874.13
506.06	10651.78
506.23	10696.25
506.41	10663.48
506.58	10918.60
506.76	10747.74
506.93	10689.23
507.11	11075.42
507.28	10796.89
507.46	10876.47
507.63	11166.70
507.81	11213.51
507.98	10836.68
508.16	11030.94
508.33	11124.57
508.50	11016.90
508.68	11239.25
508.85	11185.42
509.03	11552.88
509.20	11370.32
509.38	11414.79
509.55	11410.11
509.73	11466.28
509.90	11337.56
510.08	11391.39
510.25	11489.69
510.42	11515.44
510.60	11775.24
510.77	11845.45
510.95	11859.49
511.12	11613.74
511.30	11613.74
511.47	11602.04
511.64	11798.64
511.82	12020.99
511.99	11960.14
512.17	12049.08
512.34	11873.54
512.51	11822.05
512.69	11873.54
512.86	12189.51
513.04	12259.73
513.21	12301.86
513.38	12119.29
513.56	12269.09
513.73	12170.79
513.90	12299.52
514.08	12009.29
514.25	12201.21
514.43	12257.39
514.60	12458.67
514.77	12386.12
514.95	12608.47
515.12	12596.76
515.29	12287.81
515.47	12655.28
515.64	12554.63
515.81	12526.55
515.99	12521.87
516.16	12772.30
516.33	12762.94
516.51	12755.92
516.68	12564.00
516.85	12697.41
517.03	12809.75
517.20	12685.70
517.37	12924.44
517.54	12924.44
517.72	13071.89
517.89	13130.41
518.06	13177.22
518.24	12973.59
518.41	12915.08
518.58	12985.29
518.75	13074.23
518.93	13458.08
519.10	13057.85
519.27	13240.41
519.45	13193.60
519.62	13242.75
519.79	13139.77
519.96	13462.76
520.14	13404.25
520.31	13474.46
520.48	13242.75
520.65	13338.71
520.83	13521.27
521.00	13284.88
521.17	13385.52
521.34	13383.18
521.52	13383.18
521.69	13668.73
521.86	13673.41
522.03	13841.93
522.20	13633.62
522.38	13642.98
522.55	13647.66
522.72	13734.26
522.89	13465.10
523.07	13830.23
523.24	13769.37
523.41	13729.58
523.58	13652.34
523.75	14197.69
523.92	13790.44
524.10	13928.53
524.27	13832.57
524.44	14005.77
524.61	13961.30
524.78	13881.72
524.96	13956.61
525.13	14120.45
525.30	14029.17
525.47	14029.17
525.64	14284.29
525.81	13994.06
525.98	14258.54
526.16	14314.72
526.33	14153.22
526.50	14223.44
526.67	14125.13
526.84	14532.39
527.01	14169.60
527.18	14490.26
527.36	14448.13
527.53	14305.35
527.70	14607.28
527.87	14717.29
528.04	14586.22
528.21	14623.67
528.38	14305.35
528.55	14469.19
528.72	14588.56
528.89	14586.22
529.07	14583.88
529.24	14761.76
529.41	14794.53
529.58	14867.08
529.75	14853.04
529.92	14590.90
530.09	14614.30
530.26	14794.53
530.43	14738.35
530.60	15183.06
530.77	14586.22
530.94	14743.03
531.11	15091.77
531.28	14956.02
531.46	15152.63
531.63	15176.03
531.80	15246.25
531.97	15117.52
532.14	15316.47
532.31	15321.15
532.48	15105.82
532.65	15386.68
532.82	14953.68
532.99	15487.32
533.16	15066.03
533.33	15264.97
533.50	15599.67
533.67	15295.40
533.84	15501.37
534.01	15363.28
534.18	15279.02
534.35	15580.95
534.52	15225.18
534.69	15335.19
534.86	15576.27
535.03	15257.95
535.20	15681.59
535.37	15536.48
535.54	15389.02
535.71	15452.22
535.88	15580.95
536.05	15452.22
536.22	15702.65
536.38	15941.39
536.55	15913.30
536.72	15726.06
536.89	15543.50
537.06	15679.25
537.23	15786.91
537.40	15510.73
537.57	15948.41
537.74	15793.94
537.91	16205.87
538.08	15861.81
538.25	15704.99
538.42	15817.34
538.59	15777.55
538.75	15836.06
538.92	15712.02
539.09	16159.06
539.26	16130.97
539.43	16058.42
539.60	16187.14
539.77	16060.76
539.94	16238.64
540.11	16201.19
540.28	16479.71
540.44	16301.83
540.61	16334.60
540.78	16287.79
540.95	16678.66
541.12	16634.19
541.29	16594.40
541.46	16603.76
541.62	16643.55
541.79	16723.13
541.96	16334.60
542.13	16905.69
542.30	16631.85
542.47	16898.67
542.63	16718.45
542.80	16877.60
542.97	16835.47
543.14	16908.03
543.31	16592.06
543.48	16964.20
543.64	16842.50
543.81	17319.96
543.98	17018.04
544.15	16809.73
544.32	17118.68
544.48	17069.53
544.65	16978.25
544.82	17139.74
544.99	17003.99
545.16	16947.82
545.32	16987.61
545.49	17687.43
545.66	18174.26
545.83	18232.77
546.00	17788.07
546.16	17568.06
546.33	17111.66
546.50	16793.34
546.67	17078.89
546.83	16973.56
547.00	17121.02
547.17	16856.54
547.34	17139.74
547.50	16844.84
547.67	17439.33
547.84	17111.66
548.00	17158.47
548.17	16931.44
548.34	17055.48
548.51	17275.49
548.67	17226.34
548.84	17451.03
549.01	16837.81
549.18	17336.35
549.34	17088.25
549.51	17095.27
549.68	16966.54
549.84	17238.05
550.01	17277.83
550.18	17160.81
550.34	17111.66
550.51	17383.16
550.68	17448.69
550.84	17025.06
551.01	17048.46
551.18	17233.36
551.34	17270.81
551.51	17092.93
551.68	17280.18
551.84	17348.05
552.01	17118.68
552.18	17483.80
552.34	17380.82
552.51	17366.78
552.68	16901.01
552.84	17483.80
553.01	17521.25
553.18	17195.92
553.34	17577.42
553.51	17451.03
553.67	17352.73
553.84	17631.26
554.01	17476.78
554.17	17078.89
554.34	17542.32
554.51	17383.16
554.67	17252.09
554.84	17446.35
555.00	17406.56
555.17	17572.74
555.33	17455.72
555.50	17532.95
555.67	17537.63
555.83	17355.07
556.00	17305.92
556.16	17570.40
556.33	17500.19
556.50	17483.80
556.66	17462.74
556.83	17331.67
556.99	17570.40
557.16	17495.50
557.32	17692.11
557.49	17542.32
557.65	17383.16
557.82	17385.50
557.98	17563.38
558.15	17551.68
558.32	17521.25
558.48	17830.20
558.65	17898.08
558.81	17994.04
558.98	17893.40
559.14	17434.65
559.31	17848.93
559.47	17738.92
559.64	17907.44
559.80	17343.37
559.97	17949.57
560.13	17455.72
560.30	17659.34
560.46	17720.20
560.63	17696.79
560.79	17612.53
560.96	17912.12
561.12	17930.84
561.29	17530.61
561.45	17666.36
561.61	17806.80
561.78	17830.20
561.94	17661.68
562.11	17736.58
562.27	17659.34
562.44	17720.20
562.60	17731.90
562.77	17851.27
562.93	17790.41
563.10	18040.85
563.26	17937.87
563.42	17916.80
563.59	17605.51
563.75	17516.57
563.92	17727.22
564.08	17776.37
564.24	17682.75
564.41	17708.49
564.57	17502.53
564.74	17806.80
564.90	17802.11
565.07	17886.37
565.23	18242.14
565.39	17806.80
565.56	18094.68
565.72	17727.22
565.88	17963.61
566.05	17951.91
566.21	17809.14
566.38	17839.56
566.54	17614.87
566.70	18022.12
566.87	18068.94
567.03	17865.31
567.19	18001.06
567.36	18178.94
567.52	17778.71
567.68	17846.58
567.85	17715.51
568.01	18008.08
568.17	17980.00
568.34	18235.11
568.50	17872.33
568.66	18047.87
568.83	18064.25
568.99	17619.55
569.15	17743.60
569.32	17731.90
569.48	17930.84
569.64	18232.77
569.81	18015.10
569.97	17865.31
570.13	17951.91
570.30	18071.28
570.46	17886.37
570.62	17755.30
570.78	17610.19
570.95	17806.80
571.11	18057.23
571.27	18190.64
571.43	17811.48
571.60	18052.55
571.76	18162.56
571.92	17944.89
572.09	18036.17
572.25	18099.36
572.41	17944.89
572.57	17954.25
572.74	17944.89
572.90	18036.17
573.06	18106.38
573.22	17879.35
573.38	17921.48
573.55	18029.15
573.71	18176.60
573.87	17954.25
574.03	18047.87
574.20	18064.25
574.36	17867.65
574.52	17851.27
574.68	17930.84
574.84	18284.26
575.01	18354.48
575.17	18101.70
575.33	17980.00
575.49	18012.76
575.65	18223.41
575.82	18279.58
575.98	18211.71
576.14	18246.82
576.30	18251.50
576.46	18019.78
576.62	18333.42
576.79	18305.33
576.95	18244.48
577.11	18106.38
577.27	18134.47
577.43	18108.72
577.59	18108.72
577.75	18019.78
577.92	18082.98
578.08	18024.47
578.24	18087.66
578.40	18038.51
578.56	18305.33
578.72	18111.07
578.88	18476.19
579.04	18410.65
579.21	18246.82
579.37	18050.21
579.53	18298.31
579.69	18171.92
579.85	17731.90
580.01	18040.85
580.17	18045.53
580.33	18230.43
580.49	18209.37
580.65	18200.01
580.82	18298.31
580.98	18251.50
581.14	18036.17
581.30	18485.55
581.46	18108.72
581.62	18148.51
581.78	17748.28
581.94	18270.22
582.10	18120.43
582.26	18228.09
582.42	18361.50
582.58	18267.88
582.74	18043.19
582.90	18291.29
583.06	18314.69
583.22	18352.14
583.38	18228.09
583.54	18293.63
583.70	18085.32
583.86	18253.84
584.02	18298.31
584.18	17898.08
584.34	18345.12
584.50	18335.76
584.66	18230.43
584.82	18242.14
584.98	18412.99
585.14	18026.81
585.30	18200.01
585.46	18188.30
585.62	18420.02
585.78	18246.82
585.94	18169.58
586.10	18307.67
586.26	18242.14
586.42	18256.18
586.58	18403.63
586.74	18225.75
586.90	18349.80
587.06	18363.84
587.22	18452.78
587.38	18256.18
587.54	18274.90
587.70	18331.08
587.86	18352.14
588.02	18061.91
588.18	18398.95
588.34	18548.75
588.49	18398.95
588.65	18125.11
588.81	18228.09
588.97	18139.15
589.13	18216.39
589.29	18101.70
589.45	18382.57
589.61	17984.68
589.77	18267.88
589.93	18494.91
590.08	18310.01
590.24	18574.49
590.40	18434.06
590.56	18609.60
590.72	18239.79
590.88	18127.45
591.04	18324.05
591.20	18576.83
591.35	18651.73
591.51	18661.09
591.67	18340.44
591.83	18429.38
591.99	18429.38
592.15	18310.01
592.31	18298.31
592.46	18265.54
592.62	18281.92
592.78	18382.57
592.94	18401.29
593.10	18356.82
593.26	18590.88
