SpectraSuite Data File
++++++++++++++++++++++++++++++++++++
Date: Fri Oct 04 11:39:54 GMT-05:00 2013
User: price-jones
Dark Spectrum Present: No
Reference Spectrum Present: No
Number of Sampled Component Spectra: 1
Spectrometers: USB2+H05261
Integration Time (usec): 100000 (USB2+H05261)
Spectra Averaged: 1 (USB2+H05261)
Boxcar Smoothing: 0 (USB2+H05261)
Correct for Electrical Dark: No (USB2+H05261)
Strobe/Lamp Enabled: No (USB2+H05261)
Correct for Detector Non-linearity: No (USB2+H05261)
Correct for Stray Light: No (USB2+H05261)
Number of Pixels in Processed Spectrum: 2048
>>>>>Begin Processed Spectral Data<<<<<
365.73	49.15
365.92	49.15
366.12	49.15
366.32	0.00
366.52	0.00
366.72	0.00
366.91	81.92
367.11	0.00
367.31	0.00
367.51	0.00
367.70	0.00
367.90	0.00
368.10	0.00
368.30	0.00
368.49	0.00
368.69	0.00
368.89	0.00
369.09	0.00
369.28	0.00
369.48	0.00
369.68	0.00
369.87	0.00
370.07	30.43
370.27	2.34
370.47	44.47
370.66	67.88
370.86	140.43
371.06	166.18
371.25	222.35
371.45	236.39
371.65	149.79
371.84	196.60
372.04	170.86
372.24	187.24
372.44	210.65
372.63	273.84
372.83	187.24
373.03	180.22
373.22	227.03
373.42	194.26
373.62	262.14
373.81	250.44
374.01	177.88
374.21	184.90
374.40	264.48
374.60	315.97
374.79	287.89
374.99	231.71
375.19	311.29
375.38	273.84
375.58	170.86
375.78	227.03
375.97	212.99
376.17	337.04
376.37	330.02
376.56	187.24
376.76	217.67
376.95	276.18
377.15	212.99
377.35	337.04
377.54	292.57
377.74	269.16
377.93	290.23
378.13	283.20
378.33	257.46
378.52	262.14
378.72	222.35
378.91	320.65
379.11	313.63
379.31	255.12
379.50	299.59
379.70	259.80
379.89	318.31
380.09	259.80
380.28	220.01
380.48	224.69
380.68	201.29
380.87	311.29
381.07	313.63
381.26	252.78
381.46	271.50
381.65	241.08
381.85	259.80
382.04	215.33
382.24	248.10
382.43	255.12
382.63	229.37
382.83	245.76
383.02	322.99
383.22	304.27
383.41	252.78
383.61	266.82
383.80	224.69
384.00	306.61
384.19	248.10
384.39	334.70
384.58	273.84
384.78	372.15
384.97	294.91
385.17	234.05
385.36	252.78
385.56	362.78
385.75	313.63
385.95	341.72
386.14	360.44
386.34	313.63
386.53	322.99
386.72	280.86
386.92	346.40
387.11	360.44
387.31	348.74
387.50	353.42
387.70	390.87
387.89	327.68
388.09	252.78
388.28	318.31
388.48	397.89
388.67	379.17
388.86	379.17
389.06	334.70
389.25	346.40
389.45	440.02
389.64	358.10
389.84	348.74
390.03	379.17
390.22	374.49
390.42	278.52
390.61	414.27
390.81	372.15
391.00	458.74
391.19	444.70
391.39	409.59
391.58	409.59
391.78	390.87
391.97	388.53
392.16	374.49
392.36	491.51
392.55	498.53
392.75	411.93
392.94	322.99
393.13	449.38
393.33	447.04
393.52	442.36
393.71	475.13
393.91	400.23
394.10	397.89
394.29	397.89
394.49	475.13
394.68	451.72
394.88	552.37
395.07	461.09
395.26	493.85
395.46	479.81
395.65	477.47
395.84	435.34
396.04	503.22
396.23	510.24
396.42	442.36
396.62	533.64
396.81	458.74
397.00	458.74
397.19	512.58
397.39	465.77
397.58	587.47
397.77	496.19
397.97	587.47
398.16	519.60
398.35	550.03
398.55	589.82
398.74	582.79
398.93	648.33
399.12	606.20
399.32	557.05
399.51	566.41
399.70	627.26
399.90	667.05
400.09	561.73
400.28	709.18
400.47	669.39
400.67	751.31
400.86	641.31
401.05	671.73
401.24	690.46
401.44	739.61
401.63	699.82
401.82	699.82
402.01	655.35
402.21	720.88
402.40	723.23
402.59	634.29
402.78	713.86
402.97	662.37
403.17	723.23
403.36	802.80
403.55	795.78
403.74	788.76
403.93	791.10
404.13	866.00
404.32	835.57
404.51	837.91
404.70	917.49
404.89	849.61
405.09	889.40
405.28	819.19
405.47	849.61
405.66	905.79
405.85	926.85
406.05	924.51
406.24	926.85
406.43	896.43
406.62	959.62
406.81	1055.58
407.00	1015.79
407.20	961.96
407.39	940.90
407.58	997.07
407.77	990.05
407.96	1060.26
408.15	1043.88
408.34	1034.52
408.54	1034.52
408.73	1067.28
408.92	1074.31
409.11	1097.71
409.30	1107.07
409.49	1118.78
409.68	1135.16
409.87	1139.84
410.07	1137.50
410.26	1207.72
410.45	1233.46
410.64	1238.14
410.83	1114.10
411.02	1217.08
411.21	1254.53
411.40	1259.21
411.59	1273.25
411.78	1334.11
411.98	1336.45
412.17	1287.29
412.36	1341.13
412.55	1317.72
412.74	1416.02
412.93	1371.55
413.12	1509.65
413.31	1509.65
413.50	1385.60
413.69	1486.24
413.88	1526.03
414.07	1537.73
414.26	1530.71
414.45	1582.20
414.64	1521.35
414.83	1579.86
415.02	1647.74
415.22	1610.29
415.41	1710.93
415.60	1584.54
415.79	1558.80
415.98	1734.34
416.17	1771.79
416.36	1788.17
416.55	1743.70
416.74	1748.38
416.93	1818.60
417.12	1881.79
417.31	1856.04
417.50	1762.42
417.69	1898.17
417.88	1818.60
418.07	1886.47
418.26	1968.39
418.45	1886.47
418.64	1947.33
418.83	2022.22
419.02	1944.99
419.21	2045.63
419.39	2033.93
419.58	1975.41
419.77	1975.41
419.96	2092.44
420.15	2069.03
420.34	2115.84
420.53	2054.99
420.72	2099.46
420.91	2136.91
421.10	2209.47
421.29	2209.47
421.48	2050.31
421.67	2244.57
421.86	2120.53
422.05	2186.06
422.24	2150.95
422.43	2345.22
422.61	2200.10
422.80	2265.64
422.99	2239.89
423.18	2328.83
423.37	2265.64
423.56	2406.07
423.75	2356.92
423.94	2169.68
424.13	2094.78
424.32	2167.34
424.50	2284.36
424.69	2296.07
424.88	2363.94
425.07	2279.68
425.26	2317.13
425.45	2380.32
425.64	2307.77
425.83	2377.98
426.01	2289.04
426.20	2356.92
426.39	2230.53
426.58	2331.17
426.77	2345.22
426.96	2408.41
427.15	2480.97
427.33	2417.77
427.52	2448.20
427.71	2471.61
427.90	2462.24
428.09	2473.95
428.28	2562.89
428.46	2506.71
428.65	2588.63
428.84	2619.06
429.03	2605.02
429.22	2579.27
429.40	2534.80
429.59	2441.18
429.78	2492.67
429.97	2469.27
430.16	2527.78
430.34	2642.46
430.53	2583.95
430.72	2689.28
430.91	2609.70
431.10	2637.78
431.28	2761.83
431.47	2747.79
431.66	2682.25
431.85	2698.64
432.03	2801.62
432.22	2747.79
432.41	2825.03
432.60	2705.66
432.79	2787.58
432.97	2846.09
433.16	2796.94
433.35	2715.02
433.54	2892.90
433.72	2836.73
433.91	2883.54
434.10	2796.94
434.28	2789.92
434.47	2956.10
434.66	2773.53
434.85	2956.10
435.03	2963.12
435.22	3080.14
435.41	3365.69
435.59	3391.44
435.78	3173.77
435.97	3096.53
436.16	3094.19
436.34	3023.97
436.53	3150.36
436.72	3077.80
436.90	3021.63
437.09	3052.06
437.28	3047.38
437.46	3061.42
437.65	3082.49
437.84	3166.74
438.02	3068.44
438.21	3115.25
438.40	3045.04
438.58	3129.30
438.77	3236.96
438.96	3290.79
439.14	3346.97
439.33	3208.87
439.52	3370.37
439.70	3447.61
439.89	3403.14
440.08	3384.41
440.26	3440.59
440.45	3438.25
440.63	3339.94
440.82	3501.44
441.01	3466.33
441.19	3461.65
441.38	3669.96
441.57	3761.24
441.75	3686.34
441.94	3705.07
442.12	3789.33
442.31	3737.84
442.50	3695.71
442.68	3770.60
442.87	3644.21
443.05	3695.71
443.24	3824.44
443.43	3873.59
443.61	3770.60
443.80	3859.54
443.98	3833.80
444.17	3665.28
444.35	3896.99
444.54	3833.80
444.73	3857.20
444.91	3880.61
445.10	3824.44
445.28	3878.27
445.47	3775.28
445.65	3831.46
445.84	3892.31
446.02	3889.97
446.21	3801.03
446.39	3845.50
446.58	4018.70
446.77	3831.46
446.95	3892.31
447.14	3798.69
447.32	3852.52
447.51	3875.93
447.69	3871.25
447.88	4086.58
448.06	4014.02
448.25	3964.87
448.43	3992.95
448.62	4063.17
448.80	3978.91
448.99	4060.83
449.17	4149.77
449.36	4011.68
449.54	4102.96
449.73	4133.39
449.91	4273.82
450.10	4304.25
450.28	4320.63
450.46	4325.31
450.65	4250.41
450.83	4248.07
451.02	4278.50
451.20	4252.75
451.39	4365.10
451.57	4173.18
451.76	4236.37
451.94	4191.90
452.13	4374.46
452.31	4381.48
452.49	4325.31
452.68	4243.39
452.86	4325.31
453.05	4372.12
453.23	4503.19
453.42	4360.42
453.60	4327.65
453.78	4409.57
453.97	4416.59
454.15	4390.84
454.34	4507.87
454.52	4496.17
454.70	4535.96
454.89	4409.57
455.07	4519.57
455.26	4599.15
455.44	4594.47
455.62	4580.43
455.81	4629.58
455.99	4627.24
456.17	4571.07
456.36	4699.80
456.54	4772.35
456.73	4606.17
456.91	4856.61
457.09	4830.87
457.28	4851.93
457.46	4877.68
457.64	5020.45
457.83	4748.95
458.01	4844.91
458.19	4950.23
458.38	4999.38
458.56	5006.41
458.74	5032.15
458.93	4919.81
459.11	4940.87
459.29	5041.51
459.48	5085.98
459.66	5102.37
459.84	4945.55
460.03	5109.39
460.21	5142.16
460.39	5109.39
460.57	5020.45
460.76	5118.75
460.94	5029.81
461.12	5137.48
461.31	5090.67
461.49	5071.94
461.67	4950.23
461.85	5345.78
462.04	5277.91
462.22	5790.49
462.40	5214.71
462.59	5441.75
462.77	5371.53
462.95	5313.02
463.13	5345.78
463.32	5420.68
463.50	5502.60
463.68	5289.61
463.86	5373.87
464.05	5313.02
464.23	5465.15
464.41	5497.92
464.59	5462.81
464.78	5547.07
464.96	5432.38
465.14	5469.83
465.32	5547.07
465.50	5628.99
465.69	5570.48
465.87	5488.56
466.05	5631.33
466.23	5544.73
466.41	5605.58
466.60	5659.42
466.78	5455.79
466.96	5584.52
467.14	5727.29
467.32	5724.95
467.51	5856.02
467.69	5771.76
467.87	5778.78
468.05	5841.98
468.23	5715.59
468.41	5715.59
468.60	5860.70
468.78	5708.57
468.96	5863.04
469.14	5825.59
469.32	6031.56
469.50	5905.17
469.69	6106.46
469.87	5914.53
470.05	5914.53
470.23	6043.26
470.41	6066.67
470.59	6190.72
470.77	6111.14
470.95	6146.25
471.14	6150.93
471.32	6090.07
471.50	6272.64
471.68	6221.14
471.86	6218.80
472.04	6335.83
472.22	6366.26
472.40	6431.79
472.58	6424.77
472.77	6406.05
472.95	6532.44
473.13	6736.06
473.31	6434.13
473.49	6544.14
473.67	6438.81
473.85	6537.12
474.03	6614.35
474.21	6612.01
474.39	6686.91
474.57	6726.70
474.75	6759.47
474.93	6822.66
475.12	6754.79
475.30	6747.76
475.48	6937.35
475.66	6951.39
475.84	6960.75
476.02	7000.54
476.20	7045.01
476.38	7201.83
476.56	7091.82
476.74	7262.68
476.92	7346.94
477.10	7248.64
477.28	7323.54
477.46	7283.75
477.64	7564.61
477.82	7485.03
478.00	7653.55
478.18	7581.00
478.36	7583.34
478.54	7740.15
478.72	7756.54
478.90	7793.98
479.08	7908.67
479.26	8072.51
479.44	8177.83
479.62	8147.40
479.80	8362.73
479.98	8334.65
480.16	8425.93
480.34	8306.56
480.52	8688.07
480.70	8439.97
480.88	8409.54
481.06	8629.56
481.24	8554.66
481.41	8594.45
481.59	8798.07
481.77	8856.59
481.95	8716.16
482.13	8985.32
482.31	9039.15
482.49	9090.64
482.67	9048.51
482.85	9191.28
483.03	9371.50
483.21	9404.27
483.39	9444.06
483.57	9497.89
483.74	9748.33
483.92	9617.26
484.10	9795.14
484.28	9762.37
484.46	10122.82
484.64	10279.63
484.82	10186.01
485.00	9966.00
485.18	10127.50
485.35	10553.48
485.53	10326.44
485.71	10363.89
485.89	10345.17
486.07	10548.79
486.25	10693.91
486.43	10630.71
486.61	10944.34
486.78	10841.36
486.96	10972.43
487.14	11190.10
487.32	11197.12
487.50	11290.74
487.68	11098.82
487.85	11494.37
488.03	11576.29
488.21	11721.40
488.39	11679.27
488.57	11812.68
488.75	11859.49
488.92	12053.76
489.10	12072.48
489.28	11875.88
489.46	12233.98
489.64	12011.63
489.81	12652.94
489.99	12461.01
490.17	12390.80
490.35	12542.93
490.53	12671.66
490.70	12631.87
490.88	12903.37
491.06	12685.70
491.24	12905.71
491.41	12807.41
491.59	13130.41
491.77	12973.59
491.95	13298.92
492.13	13390.20
492.30	13453.40
492.48	13394.89
492.66	13514.25
492.84	13635.96
493.01	13769.37
493.19	13708.52
493.37	13947.25
493.54	13830.23
493.72	13987.04
493.90	13860.65
494.08	14274.93
494.25	14413.02
494.43	14230.46
494.61	14572.18
494.79	14324.08
494.96	14719.63
495.14	14675.16
495.32	14761.76
495.49	14831.97
495.67	15047.30
495.85	15005.17
496.02	15126.88
496.20	15337.53
496.38	15133.90
496.55	15138.58
496.73	15419.45
496.91	15410.09
497.09	15510.73
497.26	15538.82
497.44	15288.38
497.62	15815.00
497.79	15866.49
497.97	15953.09
498.14	16091.18
498.32	15981.18
498.50	16137.99
498.67	16498.44
498.85	16175.44
499.03	16329.92
499.20	16411.84
499.38	16379.07
499.56	16840.15
499.73	16652.91
499.91	16671.64
500.08	16636.53
500.26	16407.16
500.44	16723.13
500.61	16952.50
500.79	17032.08
500.97	17050.80
501.14	17378.48
501.32	17099.95
501.49	17123.36
501.67	17174.85
501.84	17549.34
502.02	17357.41
502.20	17322.30
502.37	17568.06
502.55	17521.25
502.72	17547.00
502.90	17893.40
503.07	17469.76
503.25	17661.68
503.43	17982.34
503.60	17900.42
503.78	17970.63
503.95	17774.03
504.13	18134.47
504.30	18075.96
504.48	17987.02
504.65	18300.65
504.83	18319.37
505.01	18405.97
505.18	18494.91
505.36	18352.14
505.53	18633.00
505.71	18553.43
505.88	18946.64
506.06	18586.19
506.23	19145.58
506.41	18843.65
506.58	18726.63
506.76	19009.83
506.93	19119.84
507.11	19147.92
507.28	18951.32
507.46	19255.59
507.63	19311.76
507.81	19255.59
507.98	19433.47
508.16	19719.01
508.33	19449.85
508.50	19571.56
508.68	19723.69
508.85	19782.21
509.03	19831.36
509.20	20152.01
509.38	19974.13
509.55	20121.59
509.73	19847.74
509.90	20313.51
510.08	20336.91
510.25	20100.52
510.42	20161.37
510.60	20257.34
510.77	20659.91
510.95	20517.14
511.12	20570.97
511.30	20531.18
511.47	20692.68
511.64	20570.97
511.82	20884.60
511.99	20985.24
512.17	20922.05
512.34	20601.40
512.51	20971.20
512.69	21317.60
512.86	21013.33
513.04	21516.54
513.21	21287.17
513.38	21369.09
513.56	21462.71
513.73	21165.46
513.90	21184.19
514.08	21003.97
514.25	21504.84
514.43	21500.16
514.60	21804.43
514.77	21914.44
514.95	21991.67
515.12	21591.44
515.29	21617.19
515.47	21944.86
515.64	22508.93
515.81	21986.99
515.99	22335.73
516.16	22019.76
516.33	22148.49
516.51	22221.05
516.68	21905.07
516.85	22085.30
517.03	22199.98
517.20	22471.48
517.37	22558.08
517.54	22270.20
517.72	22429.35
517.89	22537.02
518.06	22698.52
518.24	22513.61
518.41	22775.75
518.58	22640.00
518.75	22745.33
518.93	22738.30
519.10	22679.79
519.27	22965.34
519.45	22993.42
519.62	23264.92
519.79	22958.31
519.96	23288.33
520.14	23267.27
520.31	22963.00
520.48	23335.14
520.65	23339.82
520.83	23831.33
521.00	23358.55
521.17	23185.35
521.34	23559.83
521.52	23573.88
521.69	23882.83
521.86	23976.45
522.03	23878.15
522.20	24067.73
522.38	23885.17
522.55	23922.62
522.72	23796.23
522.89	23931.98
523.07	24430.51
523.24	23854.74
523.41	24407.11
523.58	23857.08
523.75	24100.50
523.92	24224.54
524.10	24496.05
524.27	24404.77
524.44	24418.81
524.61	24790.95
524.78	24627.12
524.96	24570.94
525.13	24694.99
525.30	24704.35
525.47	24755.85
525.64	24505.41
525.81	24929.05
525.98	25355.02
526.16	24840.11
526.33	24723.08
526.50	25418.22
526.67	24929.05
526.84	24947.77
527.01	24994.58
527.18	25163.10
527.36	25392.47
527.53	25350.34
527.70	25338.64
527.87	25563.33
528.04	25170.12
528.21	25223.95
528.38	25163.10
528.55	25472.05
528.72	25528.22
528.89	25369.07
529.07	25635.89
529.24	25635.89
529.41	25720.15
529.58	25546.95
529.75	25315.23
529.92	25921.43
530.09	25502.48
530.26	25879.30
530.43	25818.45
530.60	25703.76
530.77	25771.64
530.94	26106.34
531.11	25673.34
531.28	25773.98
531.46	25853.56
531.63	26103.99
531.80	26265.49
531.97	26232.72
532.14	26272.51
532.31	26265.49
532.48	26270.17
532.65	26595.51
532.82	26487.84
532.99	26237.41
533.16	26319.32
533.33	26668.06
533.50	27012.12
533.67	26906.80
533.84	26218.68
534.01	26544.02
534.18	26157.83
534.35	26932.54
534.52	26569.76
534.69	26883.39
534.86	26731.26
535.03	26689.13
535.20	26874.03
535.37	26916.16
535.54	26869.35
535.71	26923.18
535.88	26785.09
536.05	27405.33
536.22	27335.12
536.38	27269.58
536.55	27318.73
536.72	27278.94
536.89	27051.91
537.06	27119.79
537.23	27342.14
537.40	27316.39
537.57	27276.60
537.74	27384.27
537.91	27704.92
538.08	27885.14
538.25	27428.74
538.42	27461.51
538.59	27601.94
538.75	27300.01
538.92	27697.90
539.09	27929.61
539.26	27623.00
539.43	27789.18
539.60	27894.50
539.77	27728.33
539.94	28086.43
540.11	27845.35
540.28	27854.72
540.44	28173.03
540.61	28254.95
540.78	28203.46
540.95	28212.82
541.12	28601.35
541.29	28411.76
541.46	28512.41
541.62	28362.61
541.79	28627.09
541.96	28503.04
542.13	28519.43
542.30	28570.92
542.47	29090.52
542.63	28737.10
542.80	28751.14
542.97	28793.27
543.14	29177.12
543.31	29399.47
543.48	28332.18
543.64	29209.89
543.81	29333.93
543.98	28985.19
544.15	29350.32
544.32	29549.26
544.48	29256.70
544.65	28973.49
544.82	29003.92
544.99	28786.25
545.16	28978.17
545.32	29193.50
545.49	30122.69
545.66	30312.28
545.83	30553.35
546.00	30473.78
546.16	29832.47
546.33	29401.81
546.50	29170.10
546.67	29282.44
546.83	29165.42
547.00	29376.06
547.17	29076.48
547.34	29567.99
547.50	29474.37
547.67	29516.50
547.84	29387.77
548.00	29378.40
548.17	29453.30
548.34	29497.77
548.51	29406.49
548.67	29916.73
548.84	29883.96
549.01	29876.94
549.18	29223.93
549.34	29743.53
549.51	29502.45
549.68	30190.57
549.84	29628.84
550.01	29593.73
550.18	29752.89
550.34	29788.00
550.51	29982.26
550.68	29914.39
550.84	29385.43
551.01	29818.42
551.18	29942.47
551.34	30005.67
551.51	30110.99
551.68	30228.02
551.84	30218.66
552.01	29848.85
552.18	30143.76
552.34	29832.47
552.51	30132.06
552.68	29944.81
552.84	30412.92
553.01	29827.79
553.18	30160.14
553.34	30263.13
553.51	30326.32
553.67	30225.68
553.84	30309.94
554.01	30785.07
554.17	30134.40
554.34	30199.93
554.51	30225.68
554.67	30228.02
554.84	30328.66
555.00	30127.38
555.17	30668.04
555.33	30483.14
555.50	30331.00
555.67	30499.52
555.83	30504.20
556.00	30387.18
556.16	30539.31
556.33	30515.90
556.50	30148.44
556.66	30558.03
556.83	30305.26
556.99	30677.40
557.16	30778.04
557.32	30581.44
557.49	30651.66
557.65	30223.34
557.82	30628.25
557.98	30277.17
558.15	29984.60
558.32	30923.16
558.48	30794.43
558.65	30646.97
558.81	30733.57
558.98	30609.53
559.14	30752.30
559.31	30698.47
559.47	30574.42
559.64	30934.86
559.80	30813.15
559.97	30408.24
560.13	30815.49
560.30	30824.86
560.46	30689.10
560.63	31016.78
560.79	30639.95
560.96	30834.22
561.12	31016.78
561.29	30693.79
561.45	30916.14
561.61	30728.89
561.78	31044.87
561.94	30738.26
562.11	30813.15
562.27	30958.27
562.44	30787.41
562.60	31246.15
562.77	30909.11
562.93	30555.69
563.10	30794.43
563.26	30752.30
563.42	31145.51
563.59	30728.89
563.75	31072.95
563.92	31367.86
564.08	30948.90
564.24	30614.21
564.41	30677.40
564.57	30644.63
564.74	30796.77
564.90	31189.98
565.07	30934.86
565.23	30834.22
565.39	31349.14
565.56	31197.00
565.72	30988.69
565.88	30920.82
566.05	30979.33
566.21	31026.14
566.38	30801.45
566.54	30850.60
566.70	31061.25
566.87	31538.72
567.03	31332.75
567.19	31318.71
567.36	31236.79
567.52	31023.80
567.68	31379.56
567.85	30906.77
568.01	31005.08
568.17	31136.15
568.34	31131.47
568.50	31119.76
568.66	31178.28
568.83	31164.23
568.99	30927.84
569.15	31159.55
569.32	30897.41
569.48	31122.10
569.64	31285.94
569.81	31257.85
569.97	31400.63
570.13	31545.74
570.30	31101.04
570.46	31314.03
570.62	31314.03
570.78	31318.71
570.95	31089.34
571.11	31124.44
571.27	31126.78
571.43	31030.82
571.60	31330.41
571.76	31084.65
571.92	31456.80
572.09	31206.36
572.25	31508.29
572.41	31178.28
572.57	31175.94
572.74	31482.55
572.90	31079.97
573.06	31101.04
573.22	31007.42
573.38	31555.10
573.55	31234.45
573.71	31641.70
573.87	31700.22
574.03	31274.24
574.20	31299.98
574.36	31386.58
574.52	31255.51
574.68	31159.55
574.84	31592.55
575.01	31622.98
575.17	31578.51
575.33	31922.57
575.49	31833.63
575.65	31901.50
575.82	31522.34
575.98	31447.44
576.14	31597.23
576.30	31461.48
576.46	31295.30
576.62	31545.74
576.79	31765.75
576.95	31384.24
577.11	31922.57
577.27	31512.97
577.43	31601.91
577.59	31473.18
577.75	31318.71
577.92	31409.99
578.08	31335.09
578.24	31531.70
578.40	31693.19
578.56	31732.98
578.72	31688.51
578.88	32409.40
579.04	32123.85
579.21	31805.54
579.37	31468.50
579.53	31892.14
579.69	31592.55
579.85	31311.69
580.01	31805.54
580.17	31405.31
580.33	31512.97
580.49	31309.35
580.65	31496.59
580.82	31847.67
580.98	31704.90
581.14	31615.96
581.30	31608.93
581.46	31419.35
581.62	31482.55
581.78	31278.92
581.94	31541.06
582.10	31318.71
582.26	31409.99
582.42	32130.87
582.58	31819.58
582.74	31527.02
582.90	31723.62
583.06	31754.05
583.22	31323.39
583.38	31990.44
583.54	31281.26
583.70	31564.46
583.86	31922.57
584.02	31529.36
584.18	32215.13
584.34	31892.14
584.50	31674.47
584.66	31821.92
584.82	31557.44
584.98	31618.30
585.14	31477.86
585.30	31744.69
585.46	31901.50
585.62	31531.70
585.78	31634.68
585.94	31084.65
586.10	31372.54
586.26	31580.85
586.42	31491.91
586.58	32198.75
586.74	31983.42
586.90	31723.62
587.06	31786.82
587.22	31770.43
587.38	31576.17
587.54	31695.53
587.70	32243.22
587.86	31688.51
588.02	31761.07
588.18	31969.38
588.34	31793.84
588.49	32023.21
588.65	31615.96
588.81	31777.45
588.97	31835.97
589.13	31562.12
589.29	31599.57
589.45	31817.24
589.61	31768.09
589.77	32407.06
589.93	31704.90
590.08	32189.39
590.24	31981.08
590.40	31697.88
590.56	31948.31
590.72	31454.46
590.88	31168.91
591.04	31433.39
591.20	32268.97
591.35	31861.71
591.51	32292.37
591.67	31990.44
