SpectraSuite Data File
++++++++++++++++++++++++++++++++++++
Date: Fri Oct 04 11:39:28 GMT-05:00 2013
User: price-jones
Dark Spectrum Present: No
Reference Spectrum Present: No
Number of Sampled Component Spectra: 1
Spectrometers: USB2+H05261
Integration Time (usec): 100000 (USB2+H05261)
Spectra Averaged: 1 (USB2+H05261)
Boxcar Smoothing: 0 (USB2+H05261)
Correct for Electrical Dark: No (USB2+H05261)
Strobe/Lamp Enabled: No (USB2+H05261)
Correct for Detector Non-linearity: No (USB2+H05261)
Correct for Stray Light: No (USB2+H05261)
Number of Pixels in Processed Spectrum: 2048
>>>>>Begin Processed Spectral Data<<<<<
365.73	21.06
365.92	21.06
366.12	21.06
366.32	0.00
366.52	0.00
366.72	0.00
366.91	0.00
367.11	16.38
367.31	0.00
367.51	0.00
367.70	0.00
367.90	4.68
368.10	18.72
368.30	0.00
368.49	0.00
368.69	7.02
368.89	0.00
369.09	0.00
369.28	0.00
369.48	0.00
369.68	0.00
369.87	11.70
370.07	0.00
370.27	0.00
370.47	58.51
370.66	121.71
370.86	163.84
371.06	175.54
371.25	196.60
371.45	170.86
371.65	149.79
371.84	135.75
372.04	142.77
372.24	210.65
372.44	201.29
372.63	269.16
372.83	259.80
373.03	227.03
373.22	250.44
373.42	231.71
373.62	191.92
373.81	175.54
374.01	236.39
374.21	262.14
374.40	227.03
374.60	243.42
374.79	252.78
374.99	191.92
375.19	196.60
375.38	236.39
375.58	292.57
375.78	227.03
375.97	262.14
376.17	285.55
376.37	191.92
376.56	264.48
376.76	187.24
376.95	198.95
377.15	241.08
377.35	304.27
377.54	339.38
377.74	259.80
377.93	262.14
378.13	189.58
378.33	266.82
378.52	241.08
378.72	271.50
378.91	257.46
379.11	266.82
379.31	198.95
379.50	222.35
379.70	238.73
379.89	215.33
380.09	184.90
380.28	194.26
380.48	238.73
380.68	245.76
380.87	220.01
381.07	255.12
381.26	283.20
381.46	278.52
381.65	259.80
381.85	159.16
382.04	201.29
382.24	243.42
382.43	234.05
382.63	252.78
382.83	248.10
383.02	252.78
383.22	259.80
383.41	271.50
383.61	205.97
383.80	231.71
384.00	227.03
384.19	259.80
384.39	255.12
384.58	315.97
384.78	262.14
384.97	320.65
385.17	262.14
385.36	210.65
385.56	306.61
385.75	273.84
385.95	252.78
386.14	327.68
386.34	250.44
386.53	224.69
386.72	245.76
386.92	238.73
387.11	283.20
387.31	290.23
387.50	287.89
387.70	294.91
387.89	292.57
388.09	325.33
388.28	271.50
388.48	271.50
388.67	341.72
388.86	231.71
389.06	269.16
389.25	306.61
389.45	332.36
389.64	313.63
389.84	337.04
390.03	332.36
390.22	315.97
390.42	264.48
390.61	362.78
390.81	327.68
391.00	271.50
391.19	313.63
391.39	348.74
391.58	306.61
391.78	318.31
391.97	339.38
392.16	308.95
392.36	299.59
392.55	418.96
392.75	332.36
392.94	348.74
393.13	358.10
393.33	360.44
393.52	365.12
393.71	367.46
393.91	381.51
394.10	372.15
394.29	416.62
394.49	355.76
394.68	339.38
394.88	449.38
395.07	437.68
395.26	454.06
395.46	407.25
395.65	381.51
395.84	468.11
396.04	472.79
396.23	407.25
396.42	475.13
396.62	330.02
396.81	430.66
397.00	461.09
397.19	465.77
397.39	454.06
397.58	386.19
397.77	482.15
397.97	475.13
398.16	458.74
398.35	484.49
398.55	512.58
398.74	514.92
398.93	491.51
399.12	566.41
399.32	482.15
399.51	543.00
399.70	510.24
399.90	561.73
400.09	564.07
400.28	535.98
400.47	585.13
400.67	613.22
400.86	645.99
401.05	533.64
401.24	589.82
401.44	610.88
401.63	571.09
401.82	645.99
402.01	636.63
402.21	643.65
402.40	667.05
402.59	610.88
402.78	629.60
402.97	645.99
403.17	627.26
403.36	683.44
403.55	718.54
403.74	685.78
403.93	695.14
404.13	786.42
404.32	702.16
404.51	730.25
404.70	763.01
404.89	737.27
405.09	755.99
405.28	833.23
405.47	753.65
405.66	819.19
405.85	844.93
406.05	772.38
406.24	807.48
406.43	851.96
406.62	858.98
406.81	866.00
407.00	851.96
407.20	819.19
407.39	992.39
407.58	922.17
407.77	891.74
407.96	978.34
408.15	905.79
408.34	1027.50
408.54	880.04
408.73	931.53
408.92	894.08
409.11	997.07
409.30	1039.20
409.49	894.08
409.68	985.37
409.87	1090.69
410.07	1078.99
410.26	968.98
410.45	1128.14
410.64	1018.13
410.83	1067.28
411.02	1163.25
411.21	1123.46
411.40	1186.65
411.59	1210.06
411.78	1142.18
411.98	1240.48
412.17	1224.10
412.36	1200.69
412.55	1303.68
412.74	1338.79
412.93	1315.38
413.12	1364.53
413.31	1371.55
413.50	1416.02
413.69	1401.98
413.88	1490.92
414.07	1462.83
414.26	1418.36
414.45	1500.28
414.64	1364.53
414.83	1474.54
415.02	1502.62
415.22	1535.39
415.41	1593.90
415.60	1563.48
415.79	1572.84
415.98	1673.48
416.17	1666.46
416.36	1645.40
416.55	1603.27
416.74	1720.29
416.93	1713.27
417.12	1743.70
417.31	1753.06
417.50	1633.69
417.69	1895.83
417.88	1769.44
418.07	1790.51
418.26	1797.53
418.45	1846.68
418.64	1982.43
418.83	1874.77
419.02	1872.43
419.21	1884.13
419.39	1898.17
419.58	1956.69
419.77	1785.83
419.96	1973.07
420.15	1966.05
420.34	1874.77
420.53	1895.83
420.72	1884.13
420.91	1947.33
421.10	2136.91
421.29	1977.75
421.48	1893.49
421.67	2043.29
421.86	2050.31
422.05	2193.08
422.24	2059.67
422.43	2111.16
422.61	2062.01
422.80	2085.42
422.99	2057.33
423.18	2174.36
423.37	2239.89
423.56	2157.97
423.75	2008.18
423.94	2071.37
424.13	2094.78
424.32	2111.16
424.50	2118.18
424.69	2174.36
424.88	2211.81
425.07	2031.58
425.26	2265.64
425.45	2211.81
425.64	2139.25
425.83	2221.17
426.01	2181.38
426.20	2209.47
426.39	2251.60
426.58	2218.83
426.77	2216.49
426.96	2312.45
427.15	2134.57
427.33	2286.70
427.52	2181.38
427.71	2392.03
427.90	2338.20
428.09	2368.62
428.28	2232.87
428.46	2324.15
428.65	2359.26
428.84	2588.63
429.03	2368.62
429.22	2356.92
429.40	2333.51
429.59	2420.11
429.78	2410.75
429.97	2260.96
430.16	2420.11
430.34	2420.11
430.53	2448.20
430.72	2567.57
430.91	2537.14
431.10	2403.73
431.28	2480.97
431.47	2537.14
431.66	2602.68
431.85	2551.18
432.03	2576.93
432.22	2590.97
432.41	2644.81
432.60	2647.15
432.79	2722.04
432.97	2649.49
433.16	2551.18
433.35	2586.29
433.54	2628.42
433.72	2708.00
433.91	2768.85
434.10	2539.48
434.28	2555.86
434.47	2745.45
434.66	2682.25
434.85	2733.75
435.03	2878.86
435.22	3019.29
435.41	3218.24
435.59	3180.79
435.78	3105.89
435.97	2995.89
436.16	3056.74
436.34	2792.26
436.53	2881.20
436.72	2951.42
436.90	2827.37
437.09	2832.05
437.28	2965.46
437.46	3000.57
437.65	2857.79
437.84	2995.89
438.02	2995.89
438.21	2916.31
438.40	3061.42
438.58	3014.61
438.77	3047.38
438.96	3000.57
439.14	3084.83
439.33	3227.60
439.52	3159.72
439.70	3213.56
439.89	3267.39
440.08	3353.99
440.26	3286.11
440.45	3192.49
440.63	3185.47
440.82	3290.79
441.01	3391.44
441.19	3265.05
441.38	3314.20
441.57	3384.41
441.75	3492.08
441.94	3550.59
442.12	3482.72
442.31	3555.27
442.50	3492.08
442.68	3480.38
442.87	3740.18
443.05	3391.44
443.24	3590.38
443.43	3646.55
443.61	3627.83
443.80	3632.51
443.98	3545.91
444.17	3529.53
444.35	3604.42
444.54	3728.47
444.73	3782.31
444.91	3723.79
445.10	3545.91
445.28	3709.75
445.47	3606.77
445.65	3882.95
445.84	3758.90
446.02	3749.54
446.21	3808.05
446.39	3688.68
446.58	3651.24
446.77	3686.34
446.95	3700.39
447.14	3672.30
447.32	3826.78
447.51	3742.52
447.69	3726.13
447.88	3742.52
448.06	3836.14
448.25	3714.43
448.43	3719.11
448.62	3852.52
448.80	3698.05
448.99	3812.73
449.17	3815.07
449.36	3737.84
449.54	3953.16
449.73	4067.85
449.91	4088.92
450.10	4007.00
450.28	4007.00
450.46	4060.83
450.65	4044.45
450.83	4065.51
451.02	4046.79
451.20	4102.96
451.39	4100.62
451.57	3934.44
451.76	4091.26
451.94	3978.91
452.13	4032.74
452.31	3971.89
452.49	4046.79
452.68	4159.13
452.86	4236.37
453.05	4224.67
453.23	4215.30
453.42	4236.37
453.60	4072.53
453.78	4191.90
453.97	4154.45
454.15	4086.58
454.34	4252.75
454.52	4367.44
454.70	4393.19
454.89	4290.20
455.07	4191.90
455.26	4386.16
455.44	4437.66
455.62	4355.74
455.81	4311.27
455.99	4479.79
456.17	4465.74
456.36	4440.00
456.54	4440.00
456.73	4601.49
456.91	4521.92
457.09	4568.73
457.28	4652.98
457.46	4512.55
457.64	4685.75
457.83	4624.90
458.01	4484.47
458.19	4713.84
458.38	4622.56
458.56	4748.95
458.74	4699.80
458.93	4685.75
459.11	4678.73
459.29	4744.27
459.48	4798.10
459.66	4688.09
459.84	4826.18
460.03	4727.88
460.21	4765.33
460.39	4842.57
460.57	4774.69
460.76	4730.22
460.94	4931.51
461.12	4985.34
461.31	4952.57
461.49	4739.58
461.67	4823.84
461.85	4978.32
462.04	4912.78
462.22	5198.33
462.40	4973.64
462.59	4919.81
462.77	5032.15
462.95	5118.75
463.13	5062.58
463.32	5144.50
463.50	5130.45
463.68	5069.60
463.86	5203.01
464.05	5177.26
464.23	5109.39
464.41	5310.68
464.59	5184.29
464.78	5259.18
464.96	5181.95
465.14	5053.22
465.32	5291.95
465.50	5210.03
465.69	5275.57
465.87	5322.38
466.05	5078.96
466.23	5362.17
466.41	5233.44
466.60	5500.26
466.78	5242.80
466.96	5277.91
467.14	5324.72
467.32	5341.10
467.51	5490.90
467.69	5310.68
467.87	5369.19
468.05	5359.83
468.23	5305.99
468.41	5336.42
468.60	5507.28
468.78	5514.30
468.96	5514.30
469.14	5645.37
469.32	5586.86
469.50	5547.07
469.69	5764.74
469.87	5675.80
470.05	5778.78
470.23	5713.25
470.41	5708.57
470.59	5743.67
470.77	5612.60
470.95	5575.16
471.14	5930.92
471.32	5572.82
471.50	5741.33
471.68	5832.62
471.86	5841.98
472.04	6026.88
472.22	6101.78
472.40	5781.12
472.58	6148.59
472.77	6092.41
472.95	6073.69
473.13	6242.21
473.31	6047.94
473.49	6150.93
473.67	6188.38
473.85	5977.73
474.03	6319.45
474.21	6132.20
474.39	6462.22
474.57	6356.90
474.75	6492.65
474.93	6476.26
475.12	6274.98
475.30	6384.98
475.48	6490.31
475.66	6747.76
475.84	6665.85
476.02	6607.33
476.20	6602.65
476.38	6911.60
476.56	6836.70
476.74	6876.49
476.92	6925.65
477.10	6829.68
477.28	6881.18
477.46	6944.37
477.64	7178.42
477.82	7206.51
478.00	7126.93
478.18	7089.48
478.36	7302.47
478.54	7393.75
478.72	7304.81
478.90	7489.71
479.08	7421.84
479.26	7583.34
479.44	7648.87
479.62	7466.31
479.80	7808.03
479.98	7880.58
480.16	7913.35
480.34	7892.29
480.52	7934.42
480.70	8086.55
480.88	7946.12
481.06	8114.64
481.24	8011.65
481.41	8163.79
481.59	8280.82
481.77	8472.74
481.95	8475.08
482.13	8503.17
482.31	8217.62
482.49	8627.21
482.67	8493.80
482.85	8622.53
483.03	8678.71
483.21	8910.42
483.39	8936.17
483.57	9170.22
483.74	8992.34
483.92	9210.01
484.10	9252.14
484.28	9303.63
484.46	9497.89
484.64	9202.99
484.82	9488.53
485.00	9518.96
485.18	9596.20
485.35	9720.24
485.53	9621.94
485.71	9769.40
485.89	10256.23
486.07	9858.34
486.25	10040.90
486.43	10113.45
486.61	10139.20
486.78	10150.90
486.96	10422.41
487.14	10516.03
487.32	10256.23
487.50	10497.30
487.68	10569.86
487.85	10614.33
488.03	10707.95
488.21	11080.10
488.39	10827.32
488.57	10930.30
488.75	11070.73
488.92	11358.62
489.10	11269.68
489.28	11562.25
489.46	11442.88
489.64	11459.26
489.81	11768.21
489.99	11805.66
490.17	11585.65
490.35	11941.41
490.53	11962.48
490.70	11929.71
490.88	12086.53
491.06	12215.26
491.24	12152.06
491.41	12215.26
491.59	12154.40
491.77	12388.46
491.95	12737.20
492.13	12648.26
492.30	12816.77
492.48	12601.44
492.66	12692.73
492.84	12788.69
493.01	13018.06
493.19	12989.97
493.37	12903.37
493.54	12957.21
493.72	13401.91
493.90	13252.11
494.08	13509.57
494.25	13404.25
494.43	13561.06
494.61	13727.24
494.79	13504.89
494.96	13542.34
495.14	13769.37
495.32	13799.80
495.49	13942.57
495.67	13785.76
495.85	14129.81
496.02	14408.34
496.20	14286.63
496.38	14321.74
496.55	14628.35
496.73	14473.87
496.91	14726.65
497.09	14640.05
497.26	14941.98
497.44	14633.03
497.62	14714.95
497.79	14986.45
497.97	15087.09
498.14	15049.64
498.32	15112.84
498.50	15054.33
498.67	15339.87
498.85	15199.44
499.03	15281.36
499.20	15438.17
499.38	15580.95
499.56	15435.83
499.73	15683.93
499.91	15641.80
500.08	15744.78
500.26	15602.01
500.44	15576.27
500.61	15852.45
500.79	15798.62
500.97	15976.50
501.14	16116.93
501.32	16194.17
501.49	16030.33
501.67	16121.61
501.84	16428.22
502.02	16149.70
502.20	16432.90
502.37	16524.18
502.55	16776.96
502.72	16554.61
502.90	16528.86
503.07	16482.05
503.25	16823.77
503.43	16931.44
503.60	16849.52
503.78	16636.53
503.95	16938.46
504.13	17025.06
504.30	16886.97
504.48	17195.92
504.65	17123.36
504.83	17088.25
505.01	17493.16
505.18	17046.12
505.36	17404.22
505.53	17427.63
505.71	17380.82
505.88	17572.74
506.06	17509.55
506.23	17811.48
506.41	17694.45
506.58	17720.20
506.76	17738.92
506.93	17591.47
507.11	17750.62
507.28	18228.09
507.46	18295.97
507.63	18242.14
507.81	18033.83
507.98	18068.94
508.16	18291.29
508.33	18415.34
508.50	18195.32
508.68	18274.90
508.85	18829.61
509.03	18665.77
509.20	18548.75
509.38	18476.19
509.55	18714.92
509.73	18644.71
509.90	18806.20
510.08	18728.97
510.25	18766.42
510.42	18939.62
510.60	19211.12
510.77	18988.77
510.95	19236.86
511.12	19077.71
511.30	19075.37
511.47	19571.56
511.64	19431.13
511.82	19620.71
511.99	19658.16
512.17	19686.25
512.34	19360.91
512.51	19566.88
512.69	19681.56
512.86	19557.52
513.04	20004.56
513.21	19999.88
513.38	20102.86
513.56	20027.96
513.73	20020.94
513.90	19934.34
514.08	19868.81
514.25	20252.66
514.43	20425.86
514.60	20285.42
514.77	20123.93
514.95	20322.87
515.12	20044.35
515.29	20449.26
515.47	20662.25
515.64	20594.37
515.81	20233.93
515.99	20664.59
516.16	21041.42
516.33	20868.22
516.51	20741.83
516.68	20613.10
516.85	20849.49
517.03	21097.59
517.20	21245.04
517.37	20982.90
517.54	21465.05
517.72	21252.06
517.89	21312.92
518.06	21111.63
518.24	21097.59
518.41	21570.38
518.58	21661.66
518.75	21095.25
518.93	21397.18
519.10	21294.19
519.27	21879.33
519.45	21610.17
519.62	21411.22
519.79	21401.86
519.96	21598.46
520.14	21876.99
520.31	21607.83
520.48	22026.78
520.65	21898.05
520.83	21809.11
521.00	22078.27
521.17	21802.09
521.34	21806.77
521.52	22434.03
521.69	22274.88
521.86	22431.69
522.03	22530.00
522.20	22256.15
522.38	22630.64
522.55	22307.65
522.72	22604.89
522.89	22593.19
523.07	22562.76
523.24	22883.42
523.41	22530.00
523.58	22752.35
523.75	22843.63
523.92	22600.21
524.10	22675.11
524.27	22806.18
524.44	23049.60
524.61	23269.61
524.78	22977.04
524.96	22806.18
525.13	23243.86
525.30	23192.37
525.47	23346.84
525.64	23260.24
525.81	23381.95
525.98	23597.28
526.16	23215.77
526.33	23234.50
526.50	23669.84
526.67	23321.10
526.84	23414.72
527.01	23206.41
527.18	23538.77
527.36	23775.16
527.53	23658.14
527.70	23768.14
527.87	23967.09
528.04	24163.69
528.21	24018.58
528.38	23674.52
528.55	23887.51
528.72	23941.34
528.89	23922.62
529.07	23810.27
529.24	24114.54
529.41	24444.56
529.58	24039.64
529.75	24086.45
529.92	24369.66
530.09	24374.34
530.26	23936.66
530.43	24390.72
530.60	24304.12
530.77	24322.85
530.94	24432.85
531.11	24362.64
531.28	24425.83
531.46	24446.90
531.63	24734.78
531.80	24465.62
531.97	24835.42
532.14	24870.53
532.31	24915.00
532.48	24496.05
532.65	24484.34
532.82	24645.84
532.99	24800.32
533.16	24840.11
533.33	24915.00
533.50	25167.78
533.67	24933.73
533.84	24924.36
534.01	24922.02
534.18	24992.24
534.35	25305.87
534.52	24961.81
534.69	25336.30
534.86	25207.57
535.03	25420.56
535.20	25223.95
535.37	25514.18
535.54	25551.63
535.71	25163.10
535.88	25301.19
536.05	25422.90
536.22	25436.94
536.38	25853.56
536.55	25376.09
536.72	26038.46
536.89	25736.53
537.06	25851.22
537.23	25586.74
537.40	25762.28
537.57	25759.94
537.74	25745.89
537.91	26022.08
538.08	25844.20
538.25	25479.07
538.42	25640.57
538.59	25986.97
538.75	26038.46
538.92	25937.82
539.09	26199.96
539.26	26103.99
539.43	26111.02
539.60	26242.09
539.77	26328.69
539.94	26452.73
540.11	26611.89
540.28	26405.92
540.44	26199.96
540.61	26312.30
540.78	26214.00
540.95	26560.40
541.12	26658.70
541.29	26850.63
541.46	26721.90
541.62	26581.46
541.79	26916.16
541.96	26806.16
542.13	26771.05
542.30	27061.27
542.47	26597.85
542.63	27133.83
542.80	27232.13
542.97	27527.04
543.14	27180.64
543.31	27463.85
543.48	27386.61
543.64	27845.35
543.81	27431.08
543.98	27440.44
544.15	27655.77
544.32	27641.73
544.48	27747.05
544.65	27440.44
544.82	27660.45
544.99	27417.04
545.16	27370.22
545.32	27894.50
545.49	27960.04
545.66	28498.36
545.83	28746.46
546.00	28690.29
546.16	27974.08
546.33	27658.11
546.50	27592.58
546.67	27435.76
546.83	27276.60
547.00	27199.37
547.17	27461.51
547.34	27765.78
547.50	27508.32
547.67	28023.23
547.84	27564.49
548.00	27578.53
548.17	27733.01
548.34	27915.57
548.51	28053.66
548.67	28044.30
548.84	27798.54
549.01	27896.85
549.18	27550.45
549.34	27669.81
549.51	27929.61
549.68	27899.19
549.84	27796.20
550.01	28032.60
550.18	27976.42
550.34	28168.35
550.51	28208.14
550.68	28053.66
550.84	27714.28
551.01	28114.52
551.18	27910.89
551.34	28088.77
551.51	28077.07
551.68	28168.35
551.84	28226.86
552.01	28034.94
552.18	28140.26
552.34	28072.39
552.51	28126.22
552.68	28327.50
552.84	28170.69
553.01	28030.26
553.18	28325.16
553.34	28086.43
553.51	27971.74
553.67	28460.91
553.84	28704.33
554.01	28601.35
554.17	28404.74
554.34	28526.45
554.51	28119.20
554.67	28505.38
554.84	28617.73
555.00	28208.14
555.17	28217.50
555.33	28648.16
555.50	28273.67
555.67	28348.57
555.83	28252.61
556.00	28184.73
556.16	28891.57
556.33	28009.19
556.50	28631.77
556.66	28828.38
556.83	28706.67
556.99	29006.26
557.16	28547.51
557.32	28467.94
557.49	28786.25
557.65	28678.58
557.82	28591.98
557.98	28142.60
558.15	28606.03
558.32	29116.26
558.48	28336.87
558.65	29130.31
558.81	29053.07
558.98	28781.57
559.14	28439.85
559.31	28446.87
559.47	28709.01
559.64	28844.76
559.80	28606.03
559.97	28973.49
560.13	28762.84
560.30	28861.15
560.46	28690.29
560.63	28842.42
560.79	28680.92
560.96	28886.89
561.12	28933.70
561.29	28788.59
561.45	28889.23
561.61	28975.83
561.78	29022.64
561.94	29050.73
562.11	28687.95
562.27	28907.96
562.44	28776.89
562.60	28683.27
562.77	29200.52
562.93	28879.87
563.10	29481.39
563.26	29261.38
563.42	29050.73
563.59	28933.70
563.75	28772.21
563.92	28929.02
564.08	28800.29
564.24	28809.65
564.41	28737.10
564.57	29113.92
564.74	29076.48
564.90	28950.09
565.07	28936.04
565.23	29188.82
565.39	29076.48
565.56	28793.27
565.72	28870.51
565.88	29160.73
566.05	28968.81
566.21	29116.26
566.38	29034.35
566.54	29153.71
566.70	29399.47
566.87	29642.88
567.03	29184.14
567.19	29357.34
567.36	29514.16
567.52	29158.39
567.68	29186.48
567.85	29097.54
568.01	29207.55
568.17	29355.00
568.34	29050.73
568.50	29443.94
568.66	28842.42
568.83	29081.16
568.99	28943.06
569.15	29357.34
569.32	29249.67
569.48	29357.34
569.64	29088.18
569.81	28959.45
569.97	29151.37
570.13	29404.15
570.30	29188.82
570.46	29472.03
570.62	29465.00
570.78	28943.06
570.95	29113.92
571.11	29111.58
571.27	29149.03
571.43	29249.67
571.60	29415.85
571.76	29631.18
571.92	29359.68
572.09	29282.44
572.25	29425.22
572.41	29050.73
572.57	29249.67
572.74	29565.65
572.90	29184.14
573.06	29727.14
573.22	29181.80
573.38	29095.20
573.55	29467.34
573.71	29474.37
573.87	29350.32
574.03	29088.18
574.20	29331.59
574.36	29364.36
574.52	29724.80
574.68	29809.06
574.84	29223.93
575.01	29546.92
575.17	29663.95
575.33	29371.38
575.49	29549.26
575.65	29757.57
575.82	29729.48
575.98	29181.80
576.14	29273.08
576.30	29301.17
576.46	29612.46
576.62	29862.90
576.79	29752.89
576.95	29481.39
577.11	29869.92
577.27	29347.98
577.43	29523.52
577.59	29219.25
577.75	29331.59
577.92	29551.60
578.08	29443.94
578.24	29200.52
578.40	29387.77
578.56	29575.01
578.72	29834.81
578.88	30005.67
579.04	29921.41
579.21	29797.36
579.37	29455.64
579.53	29425.22
579.69	29174.78
579.85	29298.83
580.01	29724.80
580.17	29172.44
580.33	29287.12
580.49	29488.41
580.65	29551.60
580.82	29834.81
580.98	29497.77
581.14	29373.72
581.30	29448.62
581.46	29565.65
581.62	29179.46
581.78	29331.59
581.94	29422.87
582.10	29591.39
582.26	29809.06
582.42	29607.78
582.58	29535.22
582.74	29530.54
582.90	29591.39
583.06	29806.72
583.22	29731.83
583.38	29839.49
583.54	29551.60
583.70	29497.77
583.86	29376.06
584.02	29624.16
584.18	29647.57
584.34	29546.92
584.50	29825.45
584.66	29589.05
584.82	29408.83
584.98	29645.23
585.14	29591.39
585.30	29425.22
585.46	29516.50
585.62	29116.26
585.78	29654.59
585.94	29490.75
586.10	29352.66
586.26	29387.77
586.42	29989.28
586.58	29682.67
586.74	29797.36
586.90	29792.68
587.06	29797.36
587.22	30099.29
587.38	29446.28
587.54	29905.02
587.70	29872.26
587.86	29895.66
588.02	29862.90
588.18	30157.80
588.34	30122.69
588.49	29687.36
588.65	29282.44
588.81	29675.65
588.97	29844.17
589.13	29846.51
589.29	29553.94
589.45	29603.10
589.61	29830.13
589.77	29507.13
589.93	30061.84
590.08	29937.79
590.24	29773.95
590.40	29848.85
590.56	29734.17
590.72	29553.94
590.88	29165.42
591.04	29680.33
591.20	29907.37
591.35	29919.07
591.51	30389.52
591.67	30134.40
591.83	30157.80
591.99	29947.15
