SpectraSuite Data File
++++++++++++++++++++++++++++++++++++
Date: Fri Oct 04 11:40:06 GMT-05:00 2013
User: price-jones
Dark Spectrum Present: No
Reference Spectrum Present: No
Number of Sampled Component Spectra: 1
Spectrometers: USB2+H05261
Integration Time (usec): 100000 (USB2+H05261)
Spectra Averaged: 1 (USB2+H05261)
Boxcar Smoothing: 0 (USB2+H05261)
Correct for Electrical Dark: No (USB2+H05261)
Strobe/Lamp Enabled: No (USB2+H05261)
Correct for Detector Non-linearity: No (USB2+H05261)
Correct for Stray Light: No (USB2+H05261)
Number of Pixels in Processed Spectrum: 2048
>>>>>Begin Processed Spectral Data<<<<<
365.73	37.45
365.92	37.45
366.12	37.45
366.32	0.00
366.52	0.00
366.72	0.00
366.91	0.00
367.11	0.00
367.31	0.00
367.51	0.00
367.70	0.00
367.90	0.00
368.10	0.00
368.30	0.00
368.49	0.00
368.69	0.00
368.89	0.00
369.09	0.00
369.28	0.00
369.48	0.00
369.68	11.70
369.87	23.41
370.07	0.00
370.27	93.62
370.47	154.48
370.66	468.11
370.86	470.45
371.06	671.73
371.25	713.86
371.45	521.94
371.65	608.54
371.84	491.51
372.04	482.15
372.24	533.64
372.44	526.62
372.63	592.16
372.83	594.50
373.03	477.47
373.22	421.30
373.42	512.58
373.62	559.39
373.81	610.88
374.01	624.92
374.21	533.64
374.40	582.79
374.60	559.39
374.79	601.52
374.99	718.54
375.19	690.46
375.38	671.73
375.58	697.48
375.78	683.44
375.97	713.86
376.17	664.71
376.37	634.29
376.56	695.14
376.76	770.04
376.95	784.08
377.15	873.02
377.35	837.91
377.54	835.57
377.74	919.83
377.93	901.11
378.13	889.40
378.33	861.32
378.52	765.36
378.72	814.51
378.91	699.82
379.11	711.52
379.31	599.18
379.50	660.03
379.70	720.88
379.89	866.00
380.09	861.32
380.28	807.48
380.48	917.49
380.68	802.80
380.87	861.32
381.07	765.36
381.26	720.88
381.46	692.80
381.65	704.50
381.85	669.39
382.04	631.94
382.24	645.99
382.43	631.94
382.63	528.96
382.83	622.58
383.02	580.45
383.22	648.33
383.41	585.13
383.61	587.47
383.80	699.82
384.00	732.59
384.19	870.68
384.39	875.36
384.58	809.83
384.78	840.25
384.97	842.59
385.17	784.08
385.36	781.74
385.56	802.80
385.75	765.36
385.95	800.46
386.14	903.45
386.34	812.17
386.53	833.23
386.72	753.65
386.92	812.17
387.11	940.90
387.31	858.98
387.50	889.40
387.70	894.08
387.89	903.45
388.09	891.74
388.28	837.91
388.48	917.49
388.67	926.85
388.86	1022.81
389.06	1022.81
389.25	1074.31
389.45	1102.39
389.64	1055.58
389.84	1114.10
390.03	1163.25
390.22	1109.41
390.42	1111.75
390.61	1118.78
390.81	1263.89
391.00	1235.80
391.19	1296.66
391.39	1277.93
391.58	1186.65
391.78	1027.50
391.97	1074.31
392.16	1020.47
392.36	1020.47
392.55	784.08
392.75	622.58
392.94	571.09
393.13	573.43
393.33	615.56
393.52	655.35
393.71	933.87
393.91	997.07
394.10	1081.33
394.29	1088.35
394.49	1205.38
394.68	1263.89
394.88	1277.93
395.07	1317.72
395.26	1404.32
395.46	1334.11
395.65	1205.38
395.84	1060.26
396.04	1048.56
396.23	819.19
396.42	746.63
396.62	709.18
396.81	678.76
397.00	861.32
397.19	1104.73
397.39	1350.49
397.58	1488.58
397.77	1430.07
397.97	1530.71
398.16	1610.29
398.35	1736.68
398.55	1598.59
398.74	1652.42
398.93	1837.32
399.12	1792.85
399.32	1727.32
399.51	1720.29
399.70	1888.81
399.90	1802.21
400.09	1799.87
400.28	1844.34
400.47	1827.96
400.67	1820.94
400.86	1947.33
401.05	1928.60
401.24	1973.07
401.44	1858.39
401.63	1926.26
401.82	2005.84
402.01	1933.28
402.21	1919.24
402.40	2066.69
402.59	1961.37
402.78	1827.96
402.97	1785.83
403.17	1865.41
403.36	1919.24
403.55	2024.56
403.74	2031.58
403.93	2019.88
404.13	1919.24
404.32	1830.30
404.51	1914.56
404.70	2024.56
404.89	1937.96
405.09	2005.84
405.28	1914.56
405.47	1947.33
405.66	1895.83
405.85	1942.64
406.05	1874.77
406.24	1839.66
406.43	1947.33
406.62	1923.92
406.81	1980.09
407.00	1944.99
407.20	1853.70
407.39	1891.15
407.58	2045.63
407.77	2012.86
407.96	2071.37
408.15	2165.00
408.34	2047.97
408.54	2324.15
408.73	2172.02
408.92	2209.47
409.11	2167.34
409.30	2115.84
409.49	1930.94
409.68	1881.79
409.87	1856.04
410.07	1834.98
410.26	2108.82
410.45	2118.18
410.64	2193.08
410.83	2167.34
411.02	2258.62
411.21	2396.71
411.40	2279.68
411.59	2260.96
411.78	2349.90
411.98	2275.00
412.17	2417.77
412.36	2242.23
412.55	2424.80
412.74	2312.45
412.93	2314.79
413.12	2277.34
413.31	2401.39
413.50	2347.56
413.69	2469.27
413.88	2251.60
414.07	2375.64
414.26	2408.41
414.45	2520.76
414.64	2401.39
414.83	2389.69
415.02	2382.67
415.22	2310.11
415.41	2532.46
415.60	2422.45
415.79	2686.94
415.98	2644.81
416.17	2726.72
416.36	2553.52
416.55	2614.38
416.74	2583.95
416.93	2459.90
417.12	2497.35
417.31	2380.32
417.50	2530.12
417.69	2670.55
417.88	2527.78
418.07	2548.84
418.26	2555.86
418.45	2583.95
418.64	2616.72
418.83	2691.62
419.02	2729.06
419.21	2813.32
419.39	2534.80
419.58	2431.82
419.77	2581.61
419.96	2567.57
420.15	2818.00
420.34	2696.30
420.53	2829.71
420.72	2918.65
420.91	2827.37
421.10	2696.30
421.29	2904.60
421.48	2689.28
421.67	2754.81
421.86	2698.64
422.05	2569.91
422.24	2389.69
422.43	2317.13
422.61	2551.18
422.80	2724.38
422.99	2768.85
423.18	2710.34
423.37	2588.63
423.56	2518.42
423.75	2473.95
423.94	2642.46
424.13	2406.07
424.32	2569.91
424.50	2630.76
424.69	2464.58
424.88	2600.34
425.07	2525.44
425.26	2579.27
425.45	2473.95
425.64	2436.50
425.83	2385.01
426.01	2581.61
426.20	2686.94
426.39	2581.61
426.58	2441.18
426.77	2338.20
426.96	2347.56
427.15	2349.90
427.33	2429.48
427.52	2623.74
427.71	2581.61
427.90	2553.52
428.09	2480.97
428.28	2511.39
428.46	2511.39
428.65	2361.60
428.84	2459.90
429.03	2359.26
429.22	2265.64
429.40	2200.10
429.59	2083.08
429.78	1834.98
429.97	1783.49
430.16	1874.77
430.34	1781.15
430.53	1994.14
430.72	1827.96
430.91	2118.18
431.10	2401.39
431.28	2705.66
431.47	2967.80
431.66	3105.89
431.85	2726.72
432.03	2572.25
432.22	2476.29
432.41	2480.97
432.60	2780.56
432.79	2722.04
432.97	2822.69
433.16	2832.05
433.35	2663.53
433.54	2401.39
433.72	2368.62
433.91	2377.98
434.10	2640.12
434.28	2696.30
434.47	2801.62
434.66	2920.99
434.85	2785.24
435.03	2782.90
435.22	2995.89
435.41	3157.38
435.59	3384.41
435.78	3232.28
435.97	3084.83
436.16	3084.83
436.34	3007.59
436.53	3023.97
436.72	3176.11
436.90	2860.13
437.09	2853.11
437.28	2972.48
437.46	2883.54
437.65	2888.22
437.84	2771.19
438.02	2473.95
438.21	2511.39
438.40	2612.04
438.58	2827.37
438.77	2876.52
438.96	2951.42
439.14	2979.50
439.33	3143.34
439.52	3178.45
439.70	3133.98
439.89	2986.52
440.08	2881.20
440.26	2911.63
440.45	3019.29
440.63	3227.60
440.82	3255.69
441.01	3431.23
441.19	3206.53
441.38	3358.67
441.57	3321.22
441.75	3538.89
441.94	3466.33
442.12	3407.82
442.31	3623.15
442.50	3592.72
442.68	3454.63
442.87	3405.48
443.05	3377.39
443.24	3534.21
443.43	3473.36
443.61	3658.26
443.80	3620.81
443.98	3468.67
444.17	3459.31
444.35	3503.78
444.54	3646.55
444.73	3489.74
444.91	3426.54
445.10	3412.50
445.28	3267.39
445.47	3267.39
445.65	3274.41
445.84	3225.26
446.02	3428.88
446.21	3487.40
446.39	3417.18
446.58	3475.70
446.77	3604.42
446.95	3576.34
447.14	3620.81
447.32	3899.33
447.51	3637.19
447.69	3515.48
447.88	3489.74
448.06	3445.27
448.25	3545.91
448.43	3599.74
448.62	3569.32
448.80	3632.51
448.99	3426.54
449.17	3655.92
449.36	3566.98
449.54	3698.05
449.73	3847.84
449.91	3737.84
450.10	3861.88
450.28	3955.51
450.46	3840.82
450.65	3875.93
450.83	3894.65
451.02	3904.01
451.20	3812.73
451.39	3786.99
451.57	3803.37
451.76	3754.22
451.94	3779.97
452.13	3684.00
452.31	3637.19
452.49	3426.54
452.68	3405.48
452.86	3337.60
453.05	3595.06
453.23	3510.80
453.42	3648.90
453.60	3679.32
453.78	3805.71
453.97	3772.94
454.15	3679.32
454.34	3606.77
454.52	3527.19
454.70	3599.74
454.89	3712.09
455.07	3695.71
455.26	3632.51
455.44	3707.41
455.62	3887.63
455.81	4032.74
455.99	3875.93
456.17	3798.69
456.36	3864.22
456.54	4042.11
456.73	3908.69
456.91	3927.42
457.09	4021.04
457.28	4105.30
457.46	3819.75
457.64	3922.74
457.83	3808.05
458.01	3588.04
458.19	3744.86
458.38	3836.14
458.56	3920.40
458.74	3988.27
458.93	3899.33
459.11	3810.39
459.29	3854.86
459.48	3768.26
459.66	3885.29
459.84	3946.14
460.03	4091.26
460.21	4060.83
460.39	3927.42
460.57	3850.18
460.76	3983.59
460.94	4051.47
461.12	4014.02
461.31	4060.83
461.49	4018.70
461.67	4030.40
461.85	4208.28
462.04	4037.42
462.22	4561.70
462.40	4215.30
462.59	4007.00
462.77	4135.73
462.95	4140.41
463.13	4046.79
463.32	4044.45
463.50	4091.26
463.68	4023.38
463.86	3920.40
464.05	3904.01
464.23	3920.40
464.41	3941.46
464.59	3838.48
464.78	3974.23
464.96	3852.52
465.14	3866.56
465.32	3957.85
465.50	4163.81
465.69	4149.77
465.87	4007.00
466.05	4053.81
466.23	3810.39
466.41	3735.50
466.60	3777.62
466.78	3714.43
466.96	3941.46
467.14	4126.36
467.32	3922.74
467.51	3817.41
467.69	3927.42
467.87	3824.44
468.05	3892.31
468.23	3894.65
468.41	3896.99
468.60	4102.96
468.78	3969.55
468.96	3899.33
469.14	3843.16
469.32	3990.61
469.50	3857.20
469.69	3983.59
469.87	3859.54
470.05	3836.14
470.23	3882.95
470.41	3698.05
470.59	3857.20
470.77	3824.44
470.95	3901.67
471.14	4072.53
471.32	4053.81
471.50	4227.01
471.68	4259.78
471.86	4269.14
472.04	4294.88
472.22	4276.16
472.40	4135.73
472.58	3964.87
472.77	4084.23
472.95	4021.04
473.13	4327.65
473.31	4042.11
473.49	4121.68
473.67	4280.84
473.85	4198.92
474.03	4367.44
474.21	4458.72
474.39	4489.15
474.57	4271.48
474.75	4334.67
474.93	4278.50
475.12	4308.93
475.30	4374.46
475.48	4337.01
475.66	4327.65
475.84	4198.92
476.02	4198.92
476.20	4271.48
476.38	4203.60
476.56	4393.19
476.74	4519.57
476.92	4409.57
477.10	4484.47
477.28	4660.01
477.46	4542.98
477.64	4617.88
477.82	4788.74
478.00	4645.96
478.18	4674.05
478.36	4554.68
478.54	4678.73
478.72	4545.32
478.90	4805.12
479.08	4765.33
479.26	4947.89
479.44	4954.91
479.62	4959.60
479.80	4802.78
479.98	4952.57
480.16	5067.26
480.34	4858.95
480.52	5029.81
480.70	5022.79
480.88	5109.39
481.06	5130.45
481.24	5247.48
481.41	5277.91
481.59	5352.81
481.77	5362.17
481.95	5123.43
482.13	5317.70
482.31	5167.90
482.49	5355.15
482.67	5135.14
482.85	5310.68
483.03	5465.15
483.21	5518.98
483.39	5373.87
483.57	5444.09
483.74	5352.81
483.92	5533.03
484.10	5327.06
484.28	5460.47
484.46	5612.60
484.64	5696.86
484.82	5530.69
485.00	5479.19
485.18	5373.87
485.35	5280.25
485.53	4812.14
485.71	4568.73
485.89	4386.16
486.07	4667.03
486.25	5048.54
486.43	5195.99
486.61	5408.98
486.78	5350.46
486.96	5289.61
487.14	5430.04
487.32	5561.11
487.50	5902.83
487.68	6047.94
487.85	6129.86
488.03	6090.07
488.21	5984.75
488.39	5858.36
488.57	5703.89
488.75	5579.84
488.92	6092.41
489.10	6221.14
489.28	6558.18
489.46	6497.33
489.64	6539.46
489.81	6738.40
489.99	6693.93
490.17	6656.48
490.35	6733.72
490.53	6527.75
490.70	6459.88
490.88	6455.20
491.06	6544.14
491.24	6750.10
491.41	6546.48
491.59	6127.52
491.77	6073.69
491.95	6291.36
492.13	6223.48
492.30	6640.10
492.48	6796.92
492.66	6944.37
492.84	6949.05
493.01	6951.39
493.19	6906.92
493.37	6806.28
493.54	6757.13
493.72	6630.74
493.90	6986.50
494.08	7061.40
494.25	7311.83
494.43	7314.17
494.61	7417.16
494.79	7365.67
494.96	7309.49
495.14	7152.68
495.32	6864.79
495.49	6839.05
495.67	6981.82
495.85	7295.45
496.02	7522.48
496.20	7557.59
496.38	7339.92
496.55	7311.83
496.73	7658.23
496.91	7768.24
497.09	7648.87
497.26	7836.11
497.44	7433.54
497.62	7555.25
497.79	7215.87
497.97	7110.55
498.14	7077.78
498.32	7152.68
498.50	7454.61
498.67	7478.01
498.85	7606.74
499.03	7623.12
499.20	7796.32
499.38	7737.81
499.56	7669.94
499.73	7534.18
499.91	7463.97
500.08	7253.32
500.26	7096.50
500.44	7112.89
500.61	7372.69
500.79	7300.13
500.97	7382.05
501.14	7288.43
501.32	7246.30
501.49	7054.37
501.67	7197.15
501.84	7110.55
502.02	7307.15
502.20	7531.84
502.37	7550.57
502.55	7445.24
502.72	7492.05
502.90	7667.60
503.07	7618.44
503.25	7370.35
503.43	7040.33
503.60	6906.92
503.78	6794.58
503.95	6869.47
504.13	7162.04
504.30	7480.35
504.48	7576.31
504.65	7501.42
504.83	7662.91
505.01	7719.09
505.18	7723.77
505.36	7829.09
505.53	7960.16
505.71	7927.39
505.88	8037.40
506.06	8035.06
506.23	8011.65
506.41	7770.58
506.58	7585.68
506.76	7742.49
506.93	7754.19
507.11	7513.12
507.28	7527.16
507.46	7398.43
507.63	7552.91
507.81	7447.58
507.98	7417.16
508.16	7581.00
508.33	7775.26
508.50	7761.22
508.68	8119.32
508.85	8241.03
509.03	8273.79
509.20	8107.62
509.38	7985.91
509.55	7709.72
509.73	7599.72
509.90	7833.77
510.08	8154.43
510.25	7948.46
510.42	7798.66
510.60	7985.91
510.77	8091.23
510.95	7960.16
511.12	8070.17
511.30	8149.75
511.47	8320.60
511.64	8325.29
511.82	8133.36
511.99	8049.10
512.17	7992.93
512.34	7887.61
512.51	7775.26
512.69	7719.09
512.86	7765.90
513.04	8072.51
513.21	7936.76
513.38	8088.89
513.56	7688.66
513.73	7641.85
513.90	7520.14
514.08	7695.68
514.25	7756.54
514.43	7831.43
514.60	7805.69
514.77	7934.42
514.95	7896.97
515.12	7803.35
515.29	7793.98
515.47	8180.17
515.64	8175.49
515.81	8234.00
515.99	8046.76
516.16	7513.12
516.33	7213.53
516.51	6567.54
516.68	6506.69
516.85	6497.33
517.03	6546.48
517.20	7002.88
517.37	7517.80
517.54	7955.48
517.72	7693.34
517.89	7332.90
518.06	6644.78
518.24	6972.46
518.41	7321.20
518.58	7515.46
518.75	7578.65
518.93	7679.30
519.10	7541.21
519.27	7655.89
519.45	7868.88
519.62	7967.18
519.79	7929.74
519.96	7941.44
520.14	7957.82
520.31	7761.22
520.48	7772.92
520.65	7573.97
520.83	8126.34
521.00	8336.99
521.17	8025.70
521.34	7927.39
521.52	7995.27
521.69	8187.19
521.86	8081.87
522.03	8191.88
522.20	8063.15
522.38	7723.77
522.55	7602.06
522.72	7770.58
522.89	7831.43
523.07	7812.71
523.24	7925.05
523.41	8152.09
523.58	8147.40
523.75	8325.29
523.92	8367.42
524.10	8411.89
524.27	8241.03
524.44	8308.90
524.61	8142.72
524.78	8252.73
524.96	8072.51
525.13	8023.36
525.30	8351.03
525.47	8355.71
525.64	8456.36
525.81	8191.88
525.98	7808.03
526.16	7506.10
526.33	7316.51
526.50	7110.55
526.67	7225.23
526.84	7318.86
527.01	7487.37
527.18	7662.91
527.36	7845.48
527.53	8131.02
527.70	8212.94
527.87	8009.31
528.04	7782.28
528.21	8124.00
528.38	8404.86
528.55	8336.99
528.72	8730.20
528.89	8891.70
529.07	8659.98
529.24	8439.97
529.41	8348.69
529.58	7957.82
529.75	8131.02
529.92	8205.92
530.09	8140.38
530.26	8358.05
530.43	8325.29
530.60	8470.40
530.77	8463.38
530.94	8369.76
531.11	8503.17
531.28	8217.62
531.46	8325.29
531.63	8383.80
531.80	8414.23
531.97	8198.90
532.14	8109.96
532.31	7665.25
532.48	7641.85
532.65	7550.57
532.82	7691.00
532.99	7985.91
533.16	7927.39
533.33	8388.48
533.50	8369.76
533.67	8215.28
533.84	7896.97
534.01	7882.92
534.18	7873.56
534.35	7801.01
534.52	8194.22
534.69	8311.24
534.86	8196.56
535.03	8381.46
535.20	8355.71
535.37	8582.74
535.54	8442.31
535.71	8540.61
535.88	8362.73
536.05	8283.16
536.22	8231.66
536.38	7906.33
536.55	8049.10
536.72	7836.11
536.89	7798.66
537.06	8135.70
537.23	8264.43
537.40	8336.99
537.57	8229.32
537.74	8322.94
537.91	8280.82
538.08	8210.60
538.25	8156.77
538.42	8271.45
538.59	8236.35
538.75	7999.95
538.92	7955.48
539.09	7885.26
539.26	7700.36
539.43	7871.22
539.60	7822.07
539.77	8023.36
539.94	7920.37
540.11	7651.21
540.28	7545.89
540.44	7337.58
540.61	7438.22
540.78	7744.83
540.95	7840.79
541.12	8091.23
541.29	8093.57
541.46	8159.11
541.62	8304.22
541.79	8262.09
541.96	7864.20
542.13	7808.03
542.30	8091.23
542.47	8236.35
542.63	7943.78
542.80	7934.42
542.97	7936.76
543.14	7770.58
543.31	7859.52
543.48	8079.53
543.64	8210.60
543.81	8393.16
543.98	8461.04
544.15	8203.58
544.32	7903.99
544.48	7955.48
544.65	8013.99
544.82	8163.79
544.99	8332.31
545.16	7857.18
545.32	7854.84
545.49	8414.23
545.66	8868.29
545.83	8816.80
546.00	8606.15
546.16	8142.72
546.33	8121.66
546.50	8152.09
546.67	8112.30
546.83	8044.42
547.00	8091.23
547.17	7964.84
547.34	7581.00
547.50	7653.55
547.67	7669.94
547.84	7803.35
548.00	7981.23
548.17	8180.17
548.34	8091.23
548.51	7985.91
548.67	8046.76
548.84	8283.16
549.01	8002.29
549.18	8102.93
549.34	8004.63
549.51	7801.01
549.68	7742.49
549.84	8030.38
550.01	7866.54
550.18	7939.10
550.34	7857.18
550.51	7868.88
550.68	7831.43
550.84	7646.53
551.01	7805.69
551.18	7637.17
551.34	7772.92
551.51	7927.39
551.68	7995.27
551.84	8049.10
552.01	7936.76
552.18	7791.64
552.34	7765.90
552.51	7557.59
552.68	7440.56
552.84	7672.28
553.01	7885.26
553.18	7765.90
553.34	7719.09
553.51	7749.51
553.67	7878.24
553.84	7978.89
554.01	7765.90
554.17	7789.30
554.34	7578.65
554.51	7784.62
554.67	7887.61
554.84	7978.89
555.00	7819.73
555.17	7976.55
555.33	7868.88
555.50	7651.21
555.67	7660.57
555.83	7566.95
556.00	7513.12
556.16	7754.19
556.33	7559.93
556.50	7463.97
556.66	7513.12
556.83	7300.13
556.99	7300.13
557.16	7337.58
557.32	7604.40
557.49	7726.11
557.65	7407.80
557.82	7449.93
557.98	7524.82
558.15	7328.22
558.32	7262.68
558.48	7218.21
558.65	7002.88
558.81	7164.38
558.98	7133.95
559.14	7253.32
559.31	7276.73
559.47	7293.11
559.64	7204.17
559.80	7206.51
559.97	7201.83
560.13	7183.10
560.30	7398.43
560.46	7501.42
560.63	7627.81
560.79	7686.32
560.96	7463.97
561.12	7447.58
561.29	7276.73
561.45	7140.97
561.61	6986.50
561.78	7435.88
561.94	7274.38
562.11	7269.70
562.27	7126.93
562.44	7384.39
562.60	7241.62
562.77	7321.20
562.93	7599.72
563.10	7351.62
563.26	7211.19
563.42	7218.21
563.59	7138.63
563.75	7304.81
563.92	7136.29
564.08	7037.99
564.24	7272.04
564.41	7297.79
564.57	7194.81
564.74	7066.08
564.90	7159.70
565.07	7201.83
565.23	6998.20
565.39	6890.54
565.56	6782.87
565.72	6684.57
565.88	6717.34
566.05	6911.60
566.21	6792.23
566.38	7016.93
566.54	6806.28
566.70	7136.29
566.87	7208.85
567.03	7133.95
567.19	7199.49
567.36	7094.16
567.52	7056.72
567.68	6839.05
567.85	6874.15
568.01	6537.12
568.17	6523.07
568.34	6649.46
568.50	6450.52
568.66	6518.39
568.83	6684.57
568.99	6668.19
569.15	6600.31
569.32	6464.56
569.48	6668.19
569.64	6764.15
569.81	6572.22
569.97	6637.76
570.13	6747.76
570.30	6469.24
570.46	6504.35
570.62	6466.90
570.78	6441.15
570.95	6279.66
571.11	6424.77
571.27	6392.00
571.43	6506.69
571.60	6658.82
571.76	6499.67
571.92	6675.21
572.09	6661.16
572.25	6670.53
572.41	6518.39
572.57	6661.16
572.74	6504.35
572.90	6459.88
573.06	6712.66
573.22	6579.25
573.38	6768.83
573.55	6607.33
573.71	6745.42
573.87	6775.85
574.03	6466.90
574.20	6602.65
574.36	6300.72
574.52	6361.58
574.68	6373.28
574.84	6370.94
575.01	6279.66
575.17	6394.34
575.33	6368.60
575.49	6370.94
575.65	6354.55
575.82	6485.62
575.98	6462.22
576.14	6408.39
576.30	6272.64
576.46	6513.71
576.62	6499.67
576.79	6502.01
576.95	6640.10
577.11	6314.77
577.27	6464.56
577.43	6450.52
577.59	6282.00
577.75	6193.06
577.92	6125.18
578.08	6061.99
578.24	6141.57
578.40	6326.47
578.56	6427.11
578.72	6352.21
578.88	6410.73
579.04	6420.09
579.21	6342.85
579.37	6363.92
579.53	6382.64
579.69	6394.34
579.85	6331.15
580.01	6572.22
580.17	6396.68
580.33	6279.66
580.49	6319.45
580.65	6502.01
580.82	6490.31
580.98	6424.77
581.14	6469.24
581.30	6471.58
581.46	6356.90
581.62	6328.81
581.78	6328.81
581.94	6497.33
582.10	6347.53
582.26	6630.74
582.42	6326.47
582.58	6443.49
582.74	6338.17
582.90	6555.84
583.06	6478.60
583.22	6303.06
583.38	6319.45
583.54	6382.64
583.70	6473.92
583.86	6312.42
584.02	6209.44
584.18	6375.62
584.34	6403.71
584.50	6394.34
584.66	6289.02
584.82	6181.35
584.98	6307.74
585.14	6272.64
585.30	6019.86
585.46	5921.56
585.62	6024.54
585.78	6003.47
585.94	5975.39
586.10	6059.65
586.26	6008.16
586.42	6094.76
586.58	6059.65
586.74	6195.40
586.90	6127.52
587.06	6136.88
587.22	6169.65
587.38	5849.00
587.54	5928.58
587.70	5893.47
587.86	5497.92
588.02	5575.16
588.18	5430.04
588.34	5172.58
588.49	4887.04
588.65	4479.79
588.81	4542.98
588.97	4741.93
589.13	4610.86
589.29	4470.42
589.45	4477.44
589.61	4535.96
589.77	4901.08
589.93	4990.02
590.08	5142.16
590.24	5118.75
590.40	5195.99
590.56	5259.18
590.72	5289.61
590.88	5231.10
591.04	5291.95
591.20	5191.31
591.35	5057.90
591.51	5107.05
591.67	5041.51
591.83	5004.07
591.99	5184.29
592.15	5055.56
592.31	5273.23
592.46	5331.74
592.62	5504.94
592.78	5362.17
592.94	5458.13
593.10	5434.72
593.26	5465.15
593.41	5638.35
593.57	5401.96
593.73	5205.35
593.89	5097.69
594.05	4990.02
594.20	4805.12
594.36	4711.50
594.52	4802.78
594.68	4889.38
594.84	5057.90
594.99	5074.28
595.15	5205.35
595.31	5303.65
595.47	5231.10
595.62	5219.39
595.78	5214.71
595.94	5315.36
596.10	5357.49
596.25	5357.49
596.41	5416.00
596.57	5088.32
596.73	5184.29
596.88	5366.85
597.04	5301.31
597.20	5294.29
597.36	5268.55
597.51	5310.68
