SpectraSuite Data File
++++++++++++++++++++++++++++++++++++
Date: Fri Oct 04 11:40:00 GMT-05:00 2013
User: price-jones
Dark Spectrum Present: No
Reference Spectrum Present: No
Number of Sampled Component Spectra: 1
Spectrometers: USB2+H05261
Integration Time (usec): 100000 (USB2+H05261)
Spectra Averaged: 1 (USB2+H05261)
Boxcar Smoothing: 0 (USB2+H05261)
Correct for Electrical Dark: No (USB2+H05261)
Strobe/Lamp Enabled: No (USB2+H05261)
Correct for Detector Non-linearity: No (USB2+H05261)
Correct for Stray Light: No (USB2+H05261)
Number of Pixels in Processed Spectrum: 2048
>>>>>Begin Processed Spectral Data<<<<<
365.73	28.09
365.92	28.09
366.12	28.09
366.32	0.00
366.52	0.00
366.72	0.00
366.91	0.00
367.11	49.15
367.31	0.00
367.51	0.00
367.70	0.00
367.90	0.00
368.10	0.00
368.30	0.00
368.49	0.00
368.69	0.00
368.89	0.00
369.09	0.00
369.28	0.00
369.48	0.00
369.68	9.36
369.87	0.00
370.07	14.04
370.27	30.43
370.47	53.83
370.66	58.51
370.86	135.75
371.06	142.77
371.25	91.28
371.45	79.58
371.65	184.90
371.84	67.88
372.04	154.48
372.24	124.05
372.44	168.52
372.63	107.66
372.83	220.01
373.03	173.20
373.22	159.16
373.42	191.92
373.62	229.37
373.81	154.48
374.01	189.58
374.21	168.52
374.40	170.86
374.60	175.54
374.79	156.82
374.99	201.29
375.19	196.60
375.38	238.73
375.58	196.60
375.78	203.63
375.97	133.41
376.17	212.99
376.37	224.69
376.56	168.52
376.76	163.84
376.95	126.39
377.15	205.97
377.35	220.01
377.54	180.22
377.74	257.46
377.93	152.13
378.13	140.43
378.33	175.54
378.52	138.09
378.72	234.05
378.91	236.39
379.11	173.20
379.31	173.20
379.50	152.13
379.70	147.45
379.89	210.65
380.09	149.79
380.28	128.73
380.48	201.29
380.68	177.88
380.87	175.54
381.07	168.52
381.26	241.08
381.46	138.09
381.65	227.03
381.85	119.37
382.04	250.44
382.24	208.31
382.43	222.35
382.63	163.84
382.83	198.95
383.02	255.12
383.22	205.97
383.41	161.50
383.61	194.26
383.80	234.05
384.00	159.16
384.19	154.48
384.39	215.33
384.58	161.50
384.78	140.43
384.97	182.56
385.17	210.65
385.36	126.39
385.56	255.12
385.75	180.22
385.95	194.26
386.14	159.16
386.34	198.95
386.53	234.05
386.72	191.92
386.92	278.52
387.11	234.05
387.31	184.90
387.50	168.52
387.70	166.18
387.89	255.12
388.09	168.52
388.28	231.71
388.48	156.82
388.67	201.29
388.86	229.37
389.06	196.60
389.25	255.12
389.45	175.54
389.64	236.39
389.84	166.18
390.03	180.22
390.22	222.35
390.42	201.29
390.61	215.33
390.81	149.79
391.00	259.80
391.19	292.57
391.39	229.37
391.58	257.46
391.78	201.29
391.97	187.24
392.16	245.76
392.36	259.80
392.55	250.44
392.75	287.89
392.94	215.33
393.13	304.27
393.33	255.12
393.52	278.52
393.71	262.14
393.91	287.89
394.10	264.48
394.29	250.44
394.49	315.97
394.68	262.14
394.88	322.99
395.07	334.70
395.26	308.95
395.46	313.63
395.65	383.85
395.84	348.74
396.04	409.59
396.23	304.27
396.42	304.27
396.62	327.68
396.81	344.06
397.00	301.93
397.19	257.46
397.39	322.99
397.58	299.59
397.77	322.99
397.97	348.74
398.16	234.05
398.35	250.44
398.55	346.40
398.74	365.12
398.93	367.46
399.12	308.95
399.32	395.55
399.51	369.80
399.70	346.40
399.90	395.55
400.09	351.08
400.28	435.34
400.47	360.44
400.67	442.36
400.86	351.08
401.05	407.25
401.24	444.70
401.44	358.10
401.63	388.53
401.82	435.34
402.01	397.89
402.21	409.59
402.40	421.30
402.59	444.70
402.78	475.13
402.97	437.68
403.17	484.49
403.36	500.87
403.55	428.32
403.74	444.70
403.93	531.30
404.13	636.63
404.32	561.73
404.51	552.37
404.70	610.88
404.89	512.58
405.09	648.33
405.28	538.32
405.47	538.32
405.66	585.13
405.85	580.45
406.05	575.77
406.24	603.86
406.43	580.45
406.62	653.01
406.81	690.46
407.00	669.39
407.20	624.92
407.39	566.41
407.58	645.99
407.77	620.24
407.96	678.76
408.15	702.16
408.34	711.52
408.54	643.65
408.73	688.12
408.92	713.86
409.11	718.54
409.30	720.88
409.49	655.35
409.68	760.67
409.87	861.32
410.07	791.10
410.26	833.23
410.45	835.57
410.64	800.46
410.83	816.85
411.02	882.38
411.21	807.48
411.40	889.40
411.59	933.87
411.78	856.64
411.98	793.44
412.17	844.93
412.36	896.43
412.55	978.34
412.74	936.21
412.93	961.96
413.12	978.34
413.31	1109.41
413.50	1004.09
413.69	1004.09
413.88	992.39
414.07	1076.65
414.26	1032.18
414.45	1041.54
414.64	1076.65
414.83	1086.01
415.02	1083.67
415.22	1153.88
415.41	1224.10
415.60	1097.71
415.79	1224.10
415.98	1170.27
416.17	1198.35
416.36	1212.40
416.55	1296.66
416.74	1191.33
416.93	1210.06
417.12	1320.06
417.31	1210.06
417.50	1268.57
417.69	1357.51
417.88	1306.02
418.07	1245.16
418.26	1240.48
418.45	1224.10
418.64	1357.51
418.83	1299.00
419.02	1350.49
419.21	1306.02
419.39	1348.15
419.58	1378.58
419.77	1404.32
419.96	1348.15
420.15	1409.00
420.34	1348.15
420.53	1479.22
420.72	1530.71
420.91	1511.99
421.10	1474.54
421.29	1483.90
421.48	1446.45
421.67	1575.18
421.86	1521.35
422.05	1586.88
422.24	1451.13
422.43	1488.58
422.61	1565.82
422.80	1528.37
422.99	1624.33
423.18	1509.65
423.37	1551.78
423.56	1530.71
423.75	1600.93
423.94	1551.78
424.13	1509.65
424.32	1500.28
424.50	1629.01
424.69	1584.54
424.88	1645.40
425.07	1607.95
425.26	1598.59
425.45	1575.18
425.64	1586.88
425.83	1629.01
426.01	1657.10
426.20	1633.69
426.39	1589.22
426.58	1645.40
426.77	1671.14
426.96	1626.67
427.15	1694.55
427.33	1652.42
427.52	1689.87
427.71	1612.63
427.90	1680.50
428.09	1713.27
428.28	1654.76
428.46	1746.04
428.65	1675.82
428.84	1783.49
429.03	1795.19
429.22	1764.76
429.40	1769.44
429.59	1846.68
429.78	1774.13
429.97	1692.21
430.16	1710.93
430.34	1755.40
430.53	1741.36
430.72	1884.13
430.91	1952.01
431.10	1870.09
431.28	1802.21
431.47	1930.94
431.66	1879.45
431.85	1813.92
432.03	1827.96
432.22	1914.56
432.41	1940.30
432.60	1928.60
432.79	1905.20
432.97	1919.24
433.16	1849.02
433.35	2010.52
433.54	1891.15
433.72	1998.82
433.91	1940.30
434.10	1987.11
434.28	1902.86
434.47	1982.43
434.66	2113.50
434.85	1966.05
435.03	2157.97
435.22	2321.81
435.41	2424.80
435.59	2469.27
435.78	2518.42
435.97	2296.07
436.16	2200.10
436.34	2167.34
436.53	2186.06
436.72	2169.68
436.90	2092.44
437.09	2125.21
437.28	2104.14
437.46	2160.31
437.65	2143.93
437.84	2181.38
438.02	2183.72
438.21	2244.57
438.40	2167.34
438.58	2347.56
438.77	2335.85
438.96	2197.76
439.14	2443.52
439.33	2356.92
439.52	2406.07
439.70	2385.01
439.89	2307.77
440.08	2413.09
440.26	2462.24
440.45	2413.09
440.63	2345.22
440.82	2452.88
441.01	2347.56
441.19	2478.63
441.38	2431.82
441.57	2431.82
441.75	2525.44
441.94	2497.35
442.12	2469.27
442.31	2597.99
442.50	2509.05
442.68	2583.95
442.87	2490.33
443.05	2588.63
443.24	2722.04
443.43	2647.15
443.61	2637.78
443.80	2682.25
443.98	2558.21
444.17	2595.65
444.35	2682.25
444.54	2682.25
444.73	2588.63
444.91	2663.53
445.10	2649.49
445.28	2726.72
445.47	2609.70
445.65	2565.23
445.84	2726.72
446.02	2705.66
446.21	2658.85
446.39	2719.70
446.58	2693.96
446.77	2818.00
446.95	2654.17
447.14	2747.79
447.32	2773.53
447.51	2703.32
447.69	2726.72
447.88	2654.17
448.06	2792.26
448.25	2789.92
448.43	2719.70
448.62	2717.36
448.80	2829.71
448.99	2794.60
449.17	2930.35
449.36	2738.43
449.54	2771.19
449.73	2867.16
449.91	2974.82
450.10	2963.12
450.28	2951.42
450.46	2916.31
450.65	2958.44
450.83	2946.73
451.02	2991.20
451.20	2920.99
451.39	3014.61
451.57	2991.20
451.76	3021.63
451.94	3026.31
452.13	3007.59
452.31	3098.87
452.49	3049.72
452.68	2925.67
452.86	3026.31
453.05	2967.80
453.23	3112.91
453.42	3073.12
453.60	3096.53
453.78	3005.25
453.97	3019.29
454.15	3035.67
454.34	2993.55
454.52	3136.32
454.70	3194.83
454.89	3070.78
455.07	3166.74
455.26	3187.81
455.44	3159.72
455.62	3204.19
455.81	3187.81
455.99	3353.99
456.17	3255.69
456.36	3255.69
456.54	3206.53
456.73	3318.88
456.91	3471.01
457.09	3328.24
457.28	3363.35
457.46	3232.28
457.64	3407.82
457.83	3370.37
458.01	3304.84
458.19	3346.97
458.38	3386.76
458.56	3461.65
458.74	3485.06
458.93	3405.48
459.11	3386.76
459.29	3442.93
459.48	3492.08
459.66	3508.46
459.84	3548.25
460.03	3810.39
460.21	3478.04
460.39	3583.36
460.57	3496.76
460.76	3592.72
460.94	3644.21
461.12	3517.83
461.31	3583.36
461.49	3599.74
461.67	3522.51
461.85	3618.47
462.04	3681.66
462.22	4011.68
462.40	3861.88
462.59	3623.15
462.77	3651.24
462.95	3578.68
463.13	3782.31
463.32	3794.01
463.50	3826.78
463.68	3782.31
463.86	3751.88
464.05	3723.79
464.23	3779.97
464.41	3756.56
464.59	3756.56
464.78	3885.29
464.96	3604.42
465.14	3707.41
465.32	3641.87
465.50	3831.46
465.69	3908.69
465.87	3810.39
466.05	3899.33
466.23	3946.14
466.41	3943.80
466.60	3887.63
466.78	3719.11
466.96	4030.40
467.14	3822.09
467.32	3882.95
467.51	4037.42
467.69	3880.61
467.87	4044.45
468.05	3943.80
468.23	3941.46
468.41	3906.35
468.60	3976.57
468.78	4067.85
468.96	3960.19
469.14	4030.40
469.32	4112.32
469.50	4112.32
469.69	4128.70
469.87	4187.22
470.05	4049.13
470.23	4109.98
470.41	4131.05
470.59	4056.15
470.77	4149.77
470.95	4180.20
471.14	4411.91
471.32	4243.39
471.50	4346.37
471.68	4241.05
471.86	4276.16
472.04	4290.20
472.22	4353.40
472.40	4400.21
472.58	4510.21
472.77	4454.04
472.95	4418.93
473.13	4631.92
473.31	4437.66
473.49	4517.23
473.67	4517.23
473.85	4580.43
474.03	4589.79
474.21	4594.47
474.39	4643.62
474.57	4676.39
474.75	4702.14
474.93	4713.84
475.12	4709.16
475.30	4781.71
475.48	4751.29
475.66	4699.80
475.84	4814.48
476.02	4835.55
476.20	4802.78
476.38	4908.10
476.56	5011.09
476.74	5022.79
476.92	5139.82
477.10	4994.70
477.28	5097.69
477.46	5055.56
477.64	5188.97
477.82	5268.55
478.00	5390.25
478.18	5219.39
478.36	5437.06
478.54	5483.88
478.72	5542.39
478.90	5502.60
479.08	5313.02
479.26	5628.99
479.44	5614.95
479.62	5640.69
479.80	5657.07
479.98	5530.69
480.16	5741.33
480.34	5657.07
480.52	5975.39
480.70	5846.66
480.88	5722.61
481.06	5916.87
481.24	5746.02
481.41	5853.68
481.59	6001.13
481.77	6024.54
481.95	6139.23
482.13	6296.04
482.31	6200.08
482.49	6270.30
482.67	6169.65
482.85	6375.62
483.03	6417.75
483.21	6562.86
483.39	6539.46
483.57	6637.76
483.74	6717.34
483.92	6803.94
484.10	6665.85
484.28	6768.83
484.46	7052.03
484.64	6993.52
484.82	6920.96
485.00	6932.67
485.18	7091.82
485.35	7169.06
485.53	7115.23
485.71	7229.91
485.89	7068.42
486.07	7279.07
486.25	7353.96
486.43	7414.82
486.61	7496.74
486.78	7655.89
486.96	7578.65
487.14	7740.15
487.32	7665.25
487.50	7683.98
487.68	7726.11
487.85	7756.54
488.03	8116.98
488.21	8133.36
488.39	8102.93
488.57	8360.39
488.75	8133.36
488.92	8461.04
489.10	8451.67
489.28	8547.64
489.46	8215.28
489.64	8182.51
489.81	8484.44
489.99	8655.30
490.17	8557.00
490.35	8802.75
490.53	8690.41
490.70	8791.05
490.88	8940.85
491.06	8912.76
491.24	8812.12
491.41	8891.70
491.59	9043.83
491.77	8966.59
491.95	9123.41
492.13	9167.88
492.30	9287.25
492.48	9149.15
492.66	9294.27
492.84	9231.07
493.01	9210.01
493.19	9605.56
493.37	9724.93
493.54	9584.49
493.72	9884.08
493.90	9696.84
494.08	9748.33
494.25	9865.36
494.43	10001.11
494.61	9898.13
494.79	10017.49
494.96	9984.73
495.14	9956.64
495.32	10214.10
495.49	10352.19
495.67	10207.08
495.85	10382.62
496.02	10228.14
496.20	10424.75
496.38	10471.56
496.55	10333.47
496.73	10626.03
496.91	10576.88
497.09	10876.47
497.26	10637.73
497.44	10738.38
497.62	10754.76
497.79	10965.41
497.97	10677.52
498.14	11000.52
498.32	11091.80
498.50	11009.88
498.67	11159.67
498.85	11253.30
499.03	11288.40
499.20	11087.12
499.38	11080.10
499.56	11194.78
499.73	11454.58
499.91	11407.77
500.08	11644.17
500.26	11248.61
500.44	11473.31
500.61	11559.91
500.79	11342.24
500.97	11667.57
501.14	11932.05
501.32	11887.58
501.49	11707.36
501.67	11749.49
501.84	11990.56
502.02	11913.33
502.20	12107.59
502.37	12086.53
502.55	12229.30
502.72	12311.22
502.90	12002.27
503.07	11932.05
503.25	12074.82
503.43	12161.42
503.60	12306.54
503.78	12133.34
503.95	12290.15
504.13	12521.87
504.30	12418.88
504.48	12533.57
504.65	12484.42
504.83	12659.96
505.01	12769.96
505.18	12489.10
505.36	12622.51
505.53	12652.94
505.71	12760.60
505.88	13011.04
506.06	12755.92
506.23	12854.22
506.41	12987.63
506.58	12959.55
506.76	13039.12
506.93	13090.62
507.11	12982.95
507.28	12840.18
507.46	13116.36
507.63	13327.01
507.81	13259.13
507.98	13186.58
508.16	13359.78
508.33	13284.88
508.50	13209.98
508.68	13467.44
508.85	13427.65
509.03	13366.80
509.20	13593.83
509.38	13547.02
509.55	13724.90
509.73	13797.46
509.90	14019.81
510.08	13575.11
510.25	13841.93
510.42	13710.86
510.60	13820.86
510.77	13666.39
510.95	13919.17
511.12	13802.14
511.30	14001.08
511.47	14366.21
511.64	14382.59
511.82	14361.53
511.99	14230.46
512.17	14331.10
512.34	14295.99
512.51	14427.06
512.69	14441.11
512.86	14534.73
513.04	14295.99
513.21	14700.90
513.38	14757.08
513.56	14616.65
513.73	14501.96
513.90	14609.62
514.08	14403.66
514.25	14684.52
514.43	14764.10
514.60	14920.92
514.77	15117.52
514.95	14754.74
515.12	15002.83
515.29	14677.50
515.47	15124.54
515.64	14963.04
515.81	15229.87
515.99	15051.99
516.16	15140.93
516.33	15279.02
516.51	15281.36
516.68	15164.33
516.85	15068.37
517.03	15513.07
517.20	15396.04
517.37	15421.79
517.54	15484.98
517.72	15543.50
517.89	15571.58
518.06	15398.38
518.24	15367.96
518.41	15644.14
518.58	15751.81
518.75	15688.61
518.93	15983.52
519.10	15578.61
519.27	15503.71
519.45	15578.61
519.62	15782.23
519.79	15669.89
519.96	15946.07
520.14	15955.43
520.31	16128.63
520.48	16269.06
520.65	16074.80
520.83	16285.45
521.00	16098.20
521.17	16067.78
521.34	16208.21
521.52	16018.63
521.69	16470.35
521.86	16526.52
522.03	16205.87
522.20	16475.03
522.38	16563.97
522.55	16308.85
522.72	16498.44
522.89	16528.86
523.07	16573.33
523.24	16329.92
523.41	16486.73
523.58	16491.41
523.75	16648.23
523.92	16641.21
524.10	16353.32
524.27	16901.01
524.44	16957.18
524.61	17008.67
524.78	16814.41
524.96	16933.78
525.13	17118.68
525.30	16966.54
525.47	17064.85
525.64	16996.97
525.81	17090.59
525.98	17078.89
526.16	16987.61
526.33	17212.30
526.50	17025.06
526.67	17284.86
526.84	16915.05
527.01	17067.19
527.18	17238.05
527.36	17130.38
527.53	17554.02
527.70	17472.10
527.87	17649.98
528.04	17509.55
528.21	17549.34
528.38	17095.27
528.55	17708.49
528.72	17331.67
528.89	17774.03
529.07	17266.13
529.24	17303.58
529.41	17671.04
529.58	17373.80
529.75	17748.28
529.92	17605.51
530.09	17565.72
530.26	17879.35
530.43	17743.60
530.60	17689.77
530.77	17603.17
530.94	17996.38
531.11	17977.65
531.28	17752.96
531.46	18068.94
531.63	17666.36
531.80	17930.84
531.97	18403.63
532.14	18169.58
532.31	18026.81
532.48	17874.67
532.65	18118.09
532.82	17972.97
532.99	18541.72
533.16	18125.11
533.33	18361.50
533.50	18476.19
533.67	18445.76
533.84	18452.78
534.01	18043.19
534.18	18239.79
534.35	18246.82
534.52	18361.50
534.69	18544.06
534.86	18728.97
535.03	18726.63
535.20	18555.77
535.37	18726.63
535.54	18635.35
535.71	18452.78
535.88	18684.50
536.05	18698.54
536.22	18930.25
536.38	18649.39
536.55	18541.72
536.72	18937.27
536.89	18651.73
537.06	18979.40
537.23	18890.46
537.40	18525.34
537.57	18836.63
537.74	18637.69
537.91	18932.59
538.08	18883.44
538.25	18574.49
538.42	18820.25
538.59	19037.92
538.75	19075.37
538.92	18850.67
539.09	19054.30
539.26	19342.19
539.43	19461.55
539.60	19220.48
539.77	19246.23
539.94	19283.67
540.11	19534.11
540.28	19534.11
540.44	19510.71
540.61	19459.21
540.78	19644.12
540.95	19971.79
541.12	19805.61
541.29	19798.59
541.46	20072.43
541.62	19604.33
541.79	19796.25
541.96	19805.61
542.13	19651.14
542.30	20030.30
542.47	19754.12
542.63	19824.34
542.80	19985.83
542.97	20280.74
543.14	20002.22
543.31	20088.82
543.48	20135.63
543.64	20126.27
543.81	20505.43
543.98	20023.28
544.15	20098.18
544.32	20486.71
544.48	20482.03
544.65	20313.51
544.82	20336.91
544.99	19899.23
545.16	20240.95
545.32	20285.42
545.49	20734.81
545.66	21132.70
545.83	21277.81
546.00	21202.91
546.16	20666.93
546.33	20589.69
546.50	20425.86
546.67	20388.41
546.83	20250.32
547.00	20142.65
547.17	20208.19
547.34	20070.09
547.50	20159.03
547.67	20437.56
547.84	20095.84
548.00	20510.11
548.17	20189.46
548.34	20266.70
548.51	20343.94
548.67	20573.31
548.84	20381.38
549.01	20542.88
549.18	20582.67
549.34	20442.24
549.51	20404.79
549.68	20655.23
549.84	20432.88
550.01	20603.74
550.18	20379.04
550.34	20554.58
550.51	21013.33
550.68	20463.30
550.84	20383.73
551.01	20608.42
551.18	20879.92
551.34	20449.26
551.51	20568.63
551.68	20439.90
551.84	20758.21
552.01	20533.52
552.18	20734.81
552.34	20599.05
552.51	20865.88
552.68	20779.28
552.84	20690.34
553.01	21008.65
553.18	20737.15
553.34	20936.09
553.51	20596.71
553.67	20587.35
553.84	21200.57
554.01	20959.50
554.17	20959.50
554.34	20772.25
554.51	20748.85
554.67	20671.61
554.84	21163.12
555.00	20713.74
555.17	20592.03
555.33	21158.44
555.50	20844.81
555.67	21083.55
555.83	20664.59
556.00	20739.49
556.16	21137.38
556.33	21102.27
556.50	20896.30
556.66	21130.36
556.83	21071.84
556.99	21151.42
557.16	21064.82
557.32	21273.13
557.49	20968.86
557.65	21153.76
557.82	21088.23
557.98	21151.42
558.15	21104.61
558.32	21312.92
558.48	20992.26
558.65	21146.74
558.81	21310.58
558.98	20870.56
559.14	21069.50
559.31	21097.59
559.47	20975.88
559.64	21254.40
559.80	21132.70
559.97	21539.95
560.13	21062.48
560.30	21069.50
560.46	21202.91
560.63	21247.38
560.79	21565.70
560.96	21425.26
561.12	21036.74
561.29	21312.92
561.45	21345.69
561.61	21455.69
561.78	21310.58
561.94	21212.28
562.11	21614.85
562.27	21252.06
562.44	21200.57
562.60	21443.99
562.77	21387.82
562.93	21418.24
563.10	21521.23
563.26	21219.30
563.42	21556.33
563.59	21319.94
563.75	21369.09
563.92	21640.59
564.08	21329.30
564.24	21385.47
564.41	21355.05
564.57	21355.05
564.74	21399.52
564.90	21289.51
565.07	21467.39
565.23	21556.33
565.39	21289.51
565.56	21561.02
565.72	21228.66
565.88	21364.41
566.05	21694.43
566.21	21174.83
566.38	21425.26
566.54	21357.39
566.70	21724.85
566.87	21509.52
567.03	21577.40
567.19	21921.46
567.36	21188.87
567.52	21195.89
567.68	21104.61
567.85	21493.14
568.01	21537.61
568.17	21158.44
568.34	21640.59
568.50	21432.29
568.66	21116.31
568.83	21654.64
568.99	21238.02
569.15	21500.16
569.32	21570.38
569.48	21741.24
569.64	21521.23
569.81	21329.30
569.97	21504.84
570.13	21610.17
570.30	21607.83
570.46	21617.19
570.62	21397.18
570.78	21263.77
570.95	21481.44
571.11	21404.20
571.27	21729.53
571.43	21289.51
571.60	21348.03
571.76	21385.47
571.92	21645.27
572.09	21518.89
572.25	21811.45
572.41	21532.93
572.57	21579.74
572.74	21504.84
572.90	21263.77
573.06	21734.21
573.22	21436.97
573.38	21804.43
573.55	21591.44
573.71	21511.86
573.87	21738.90
574.03	21713.15
574.20	21926.14
574.36	21481.44
574.52	21565.70
574.68	21441.65
574.84	21525.91
575.01	21507.18
575.17	21926.14
575.33	21619.53
575.49	21542.29
575.65	21837.20
575.82	22045.51
575.98	21804.43
576.14	21797.41
576.30	21781.03
576.46	21465.05
576.62	21769.32
576.79	21792.73
576.95	21881.67
577.11	21743.58
577.27	22001.04
577.43	21816.13
577.59	21876.99
577.75	21671.02
577.92	21682.72
578.08	21572.72
578.24	21439.31
578.40	21509.52
578.56	22052.53
578.72	21930.82
578.88	21774.00
579.04	21958.91
579.21	21652.30
579.37	21717.83
579.53	21448.67
579.69	21874.65
579.85	21563.36
580.01	21839.54
580.17	21879.33
580.33	21572.72
580.49	21977.63
580.65	22068.91
580.82	21844.22
580.98	21710.81
581.14	21563.36
581.30	21996.35
581.46	21598.46
581.62	21621.87
581.78	21745.92
581.94	21724.85
582.10	21879.33
582.26	21656.98
582.42	21778.68
582.58	22047.85
582.74	22054.87
582.90	22192.96
583.06	21947.20
583.22	21869.97
583.38	21755.28
583.54	21914.44
583.70	21806.77
583.86	21935.50
584.02	21827.84
584.18	21685.06
584.34	21809.11
584.50	21797.41
584.66	22066.57
584.82	22022.10
584.98	21977.63
585.14	21876.99
585.30	21575.06
585.46	21596.12
585.62	21605.49
585.78	21633.57
585.94	21935.50
586.10	21895.71
586.26	21884.01
586.42	22134.45
586.58	21874.65
586.74	21809.11
586.90	21591.44
587.06	21769.32
587.22	22047.85
587.38	21998.70
587.54	21664.00
587.70	22153.17
587.86	21926.14
588.02	22017.42
588.18	21958.91
588.34	21460.37
588.49	21839.54
588.65	21982.31
588.81	21572.72
588.97	22026.78
589.13	21795.07
589.29	21778.68
589.45	22178.92
589.61	21996.35
589.77	22265.52
589.93	22024.44
590.08	21853.58
590.24	22153.17
590.40	21830.18
590.56	21675.70
590.72	22155.51
590.88	22031.46
591.04	21738.90
591.20	21926.14
591.35	22188.28
591.51	22092.32
591.67	22015.08
591.83	22162.53
591.99	22256.15
592.15	21886.35
592.31	22319.35
592.46	22087.64
592.62	21940.18
