SpectraSuite Data File
++++++++++++++++++++++++++++++++++++
Date: Fri Oct 04 11:39:37 GMT-05:00 2013
User: price-jones
Dark Spectrum Present: No
Reference Spectrum Present: No
Number of Sampled Component Spectra: 1
Spectrometers: USB2+H05261
Integration Time (usec): 100000 (USB2+H05261)
Spectra Averaged: 1 (USB2+H05261)
Boxcar Smoothing: 0 (USB2+H05261)
Correct for Electrical Dark: No (USB2+H05261)
Strobe/Lamp Enabled: No (USB2+H05261)
Correct for Detector Non-linearity: No (USB2+H05261)
Correct for Stray Light: No (USB2+H05261)
Number of Pixels in Processed Spectrum: 2048
>>>>>Begin Processed Spectral Data<<<<<
365.73	67.88
365.92	67.88
366.12	67.88
366.32	0.00
366.52	0.00
366.72	0.00
366.91	11.70
367.11	0.00
367.31	0.00
367.51	0.00
367.70	0.00
367.90	0.00
368.10	0.00
368.30	0.00
368.49	0.00
368.69	16.38
368.89	0.00
369.09	0.00
369.28	0.00
369.48	0.00
369.68	11.70
369.87	0.00
370.07	56.17
370.27	58.51
370.47	93.62
370.66	266.82
370.86	212.99
371.06	344.06
371.25	339.38
371.45	299.59
371.65	320.65
371.84	327.68
372.04	400.23
372.24	386.19
372.44	402.57
372.63	358.10
372.83	461.09
373.03	353.42
373.22	442.36
373.42	449.38
373.62	493.85
373.81	400.23
374.01	512.58
374.21	561.73
374.40	397.89
374.60	414.27
374.79	421.30
374.99	463.43
375.19	519.60
375.38	468.11
375.58	388.53
375.78	538.32
375.97	538.32
376.17	543.00
376.37	505.56
376.56	535.98
376.76	472.79
376.95	386.19
377.15	538.32
377.35	486.83
377.54	587.47
377.74	456.40
377.93	465.77
378.13	491.51
378.33	564.07
378.52	594.50
378.72	489.17
378.91	510.24
379.11	514.92
379.31	554.71
379.50	510.24
379.70	596.84
379.89	550.03
380.09	510.24
380.28	430.66
380.48	554.71
380.68	610.88
380.87	557.05
381.07	610.88
381.26	629.60
381.46	571.09
381.65	622.58
381.85	528.96
382.04	552.37
382.24	601.52
382.43	610.88
382.63	505.56
382.83	559.39
383.02	599.18
383.22	643.65
383.41	552.37
383.61	657.69
383.80	662.37
384.00	634.29
384.19	627.26
384.39	643.65
384.58	608.54
384.78	580.45
384.97	596.84
385.17	678.76
385.36	727.91
385.56	653.01
385.75	660.03
385.95	739.61
386.14	643.65
386.34	688.12
386.53	716.20
386.72	695.14
386.92	734.93
387.11	688.12
387.31	676.41
387.50	706.84
387.70	709.18
387.89	716.20
388.09	739.61
388.28	615.56
388.48	732.59
388.67	812.17
388.86	774.72
389.06	781.74
389.25	800.46
389.45	772.38
389.64	765.36
389.84	856.64
390.03	868.34
390.22	819.19
390.42	823.87
390.61	812.17
390.81	767.70
391.00	854.30
391.19	842.59
391.39	823.87
391.58	889.40
391.78	910.47
391.97	795.78
392.16	903.45
392.36	828.55
392.55	863.66
392.75	957.28
392.94	919.83
393.13	854.30
393.33	922.17
393.52	936.21
393.71	919.83
393.91	957.28
394.10	884.72
394.29	905.79
394.49	997.07
394.68	987.71
394.88	954.94
395.07	985.37
395.26	990.05
395.46	947.92
395.65	1048.56
395.84	1109.41
396.04	1137.50
396.23	1027.50
396.42	1095.37
396.62	1006.43
396.81	1008.77
397.00	1057.92
397.19	1144.52
397.39	1118.78
397.58	1088.35
397.77	1088.35
397.97	1095.37
398.16	1125.80
398.35	1132.82
398.55	1191.33
398.74	1163.25
398.93	1156.22
399.12	1245.16
399.32	1109.41
399.51	1172.61
399.70	1200.69
399.90	1142.18
400.09	1233.46
400.28	1261.55
400.47	1273.25
400.67	1268.57
400.86	1282.61
401.05	1324.74
401.24	1366.87
401.44	1376.24
401.63	1348.15
401.82	1390.28
402.01	1336.45
402.21	1364.53
402.40	1437.09
402.59	1378.58
402.78	1455.81
402.97	1523.69
403.17	1481.56
403.36	1401.98
403.55	1430.07
403.74	1434.75
403.93	1476.88
404.13	1472.20
404.32	1572.84
404.51	1502.62
404.70	1652.42
404.89	1664.12
405.09	1668.80
405.28	1647.74
405.47	1509.65
405.66	1710.93
405.85	1643.06
406.05	1640.72
406.24	1703.91
406.43	1647.74
406.62	1717.95
406.81	1774.13
407.00	1659.44
407.20	1699.23
407.39	1781.15
407.58	1804.55
407.77	1827.96
407.96	1944.99
408.15	1900.52
408.34	1825.62
408.54	1907.54
408.73	1858.39
408.92	1846.68
409.11	1987.11
409.30	1991.80
409.49	2052.65
409.68	2069.03
409.87	1984.77
410.07	2064.35
410.26	2087.76
410.45	1984.77
410.64	2115.84
410.83	2136.91
411.02	2143.93
411.21	2211.81
411.40	2188.40
411.59	2232.87
411.78	2197.76
411.98	2141.59
412.17	2361.60
412.36	2321.81
412.55	2445.86
412.74	2356.92
412.93	2424.80
413.12	2427.14
413.31	2523.10
413.50	2513.74
413.69	2532.46
413.88	2602.68
414.07	2602.68
414.26	2504.37
414.45	2579.27
414.64	2527.78
414.83	2616.72
415.02	2661.19
415.22	2778.22
415.41	2850.77
415.60	2691.62
415.79	2878.86
415.98	2775.88
416.17	2813.32
416.36	2834.39
416.55	3014.61
416.74	2937.37
416.93	2939.71
417.12	3047.38
417.31	3075.46
417.50	2967.80
417.69	3063.76
417.88	3232.28
418.07	3068.44
418.26	3187.81
418.45	3239.30
418.64	3417.18
418.83	3353.99
419.02	3180.79
419.21	3281.43
419.39	3398.46
419.58	3173.77
419.77	3239.30
419.96	3328.24
420.15	3372.71
420.34	3494.42
420.53	3414.84
420.72	3391.44
420.91	3421.86
421.10	3520.17
421.29	3585.70
421.48	3407.82
421.67	3529.53
421.86	3557.61
422.05	3485.06
422.24	3585.70
422.43	3620.81
422.61	3712.09
422.80	3618.47
422.99	3592.72
423.18	3627.83
423.37	3735.50
423.56	3616.13
423.75	3712.09
423.94	3534.21
424.13	3456.97
424.32	3501.44
424.50	3634.85
424.69	3721.45
424.88	3796.35
425.07	3613.79
425.26	3674.64
425.45	3719.11
425.64	3667.62
425.83	3747.20
426.01	3829.12
426.20	3737.84
426.39	3840.82
426.58	3859.54
426.77	3864.22
426.96	3899.33
427.15	3836.14
427.33	3875.93
427.52	3836.14
427.71	3857.20
427.90	3911.04
428.09	4004.66
428.28	3948.48
428.46	3964.87
428.65	4007.00
428.84	4091.26
429.03	4208.28
429.22	3978.91
429.40	4124.02
429.59	4140.41
429.78	4098.28
429.97	4063.17
430.16	4025.72
430.34	4276.16
430.53	4271.48
430.72	4276.16
430.91	4229.35
431.10	4095.94
431.28	4126.36
431.47	4339.35
431.66	4383.82
431.85	4386.16
432.03	4432.97
432.22	4468.08
432.41	4337.01
432.60	4409.57
432.79	4519.57
432.97	4477.44
433.16	4528.94
433.35	4402.55
433.54	4477.44
433.72	4620.22
433.91	4592.13
434.10	4690.43
434.28	4592.13
434.47	4765.33
434.66	4688.09
434.85	4755.97
435.03	4847.25
435.22	4908.10
435.41	5308.34
435.59	5167.90
435.78	5097.69
435.97	4851.93
436.16	4938.53
436.34	4812.14
436.53	4861.29
436.72	5006.41
436.90	4737.24
437.09	4936.19
437.28	4812.14
437.46	5111.73
437.65	5153.86
437.84	5121.09
438.02	5055.56
438.21	5135.14
438.40	5018.11
438.58	5219.39
438.77	5305.99
438.96	5284.93
439.14	5366.85
439.33	5298.97
439.52	5313.02
439.70	5345.78
439.89	5338.76
440.08	5518.98
440.26	5577.50
440.45	5654.73
440.63	5589.20
440.82	5624.31
441.01	5734.31
441.19	5736.65
441.38	5720.27
441.57	5907.51
441.75	5874.74
441.94	5799.85
442.12	5870.06
442.31	5959.00
442.50	6076.03
442.68	5884.11
442.87	5858.36
443.05	6005.81
443.24	6094.76
443.43	6022.20
443.61	6200.08
443.80	6139.23
443.98	5994.11
444.17	5944.96
444.35	6029.22
444.54	6296.04
444.73	6155.61
444.91	6162.63
445.10	6251.57
445.28	6286.68
445.47	6146.25
445.65	6125.18
445.84	6253.91
446.02	6270.30
446.21	6438.81
446.39	6181.35
446.58	6235.19
446.77	6207.10
446.95	6176.67
447.14	6314.77
447.32	6274.98
447.51	6253.91
447.69	6258.59
447.88	6384.98
448.06	6352.21
448.25	6370.94
448.43	6211.78
448.62	6310.08
448.80	6317.11
448.99	6502.01
449.17	6434.13
449.36	6499.67
449.54	6656.48
449.73	6614.35
449.91	6604.99
450.10	6810.96
450.28	6626.06
450.46	6637.76
450.65	6736.06
450.83	6881.18
451.02	6806.28
451.20	6719.68
451.39	6754.79
451.57	6883.52
451.76	6768.83
451.94	6864.79
452.13	6885.86
452.31	6808.62
452.49	6815.64
452.68	7014.59
452.86	6951.39
453.05	7023.95
453.23	6960.75
453.42	6846.07
453.60	6759.47
453.78	7180.76
453.97	6993.52
454.15	7133.95
454.34	7087.14
454.52	7063.74
454.70	7150.34
454.89	7204.17
455.07	7112.89
455.26	7276.73
455.44	7293.11
455.62	7330.56
455.81	7241.62
455.99	7489.71
456.17	7449.93
456.36	7356.30
456.54	7398.43
456.73	7583.34
456.91	7674.62
457.09	7639.51
457.28	7939.10
457.46	7524.82
457.64	7805.69
457.83	7634.83
458.01	7653.55
458.19	7880.58
458.38	7819.73
458.56	7857.18
458.74	7838.45
458.93	7880.58
459.11	7882.92
459.29	7866.54
459.48	7927.39
459.66	7868.88
459.84	7948.46
460.03	8105.28
460.21	7992.93
460.39	8070.17
460.57	8049.10
460.76	8234.00
460.94	8131.02
461.12	8095.91
461.31	8116.98
461.49	8205.92
461.67	8065.49
461.85	8421.25
462.04	8285.50
462.22	8564.02
462.40	8432.95
462.59	8449.33
462.77	8416.57
462.95	8524.23
463.13	8531.25
463.32	8535.93
463.50	8449.33
463.68	8617.85
463.86	8610.83
464.05	8409.54
464.23	8547.64
464.41	8741.90
464.59	8624.87
464.78	8936.17
464.96	8702.11
465.14	8748.92
465.32	8826.16
465.50	8910.42
465.69	8858.93
465.87	8849.57
466.05	8954.89
466.23	8751.26
466.41	8887.01
466.60	9188.94
466.78	8882.33
466.96	8793.39
467.14	8865.95
467.32	8849.57
467.51	9334.06
467.69	8786.37
467.87	9153.84
468.05	9200.65
468.23	9090.64
468.41	9188.94
468.60	9296.61
468.78	9315.33
468.96	9158.52
469.14	9287.25
469.32	9308.31
469.50	9088.30
469.69	9516.62
469.87	9624.28
470.05	9376.19
470.23	9626.62
470.41	9596.20
470.59	9844.29
470.77	9572.79
470.95	9607.90
471.14	9767.06
471.32	9437.04
471.50	9837.27
471.68	9914.51
471.86	9832.59
472.04	9998.77
472.22	10176.65
472.40	9928.55
472.58	10080.69
472.77	10415.38
472.95	10300.70
473.13	10626.03
473.31	10335.81
473.49	10197.71
473.67	10370.91
473.85	10286.65
474.03	10555.82
474.21	10445.81
474.39	10724.33
474.57	10832.00
474.75	11042.65
474.93	11133.93
475.12	10846.04
475.30	10958.39
475.48	10808.59
475.66	10995.84
475.84	11126.91
476.02	11084.78
476.20	11379.68
476.38	11428.84
476.56	11719.06
476.74	11482.67
476.92	11510.75
477.10	11316.49
477.28	11506.07
477.46	11653.53
477.64	11754.17
477.82	11936.73
478.00	12044.40
478.18	12255.04
478.36	12250.36
478.54	12287.81
478.72	12446.97
478.90	12596.76
479.08	12587.40
479.26	12655.28
479.44	12793.37
479.62	12889.33
479.80	12952.52
479.98	12936.14
480.16	13104.66
480.34	13235.73
480.52	13509.57
480.70	13589.15
480.88	13422.97
481.06	13537.66
481.24	13298.92
481.41	14068.96
481.59	13837.25
481.77	13968.32
481.95	13944.91
482.13	14267.91
482.31	14190.67
482.49	14576.86
482.67	14504.30
482.85	14904.53
483.03	14960.70
483.21	14972.41
483.39	15115.18
483.57	15131.56
483.74	14958.36
483.92	15276.68
484.10	15417.11
484.28	15604.35
484.46	15843.09
484.64	16077.14
484.82	15889.90
485.00	15955.43
485.18	16219.91
485.35	16442.26
485.53	16343.96
485.71	16603.76
485.89	16826.11
486.07	16774.62
486.25	16538.23
486.43	16723.13
486.61	16837.81
486.78	17319.96
486.96	17436.99
487.14	17692.11
487.32	17701.47
487.50	17755.30
487.68	17544.66
487.85	18118.09
488.03	18356.82
488.21	18548.75
488.39	18420.02
488.57	18775.78
488.75	18848.33
488.92	19297.72
489.10	19056.64
489.28	19117.50
489.46	19578.58
489.64	19459.21
489.81	20060.73
489.99	19735.40
490.17	19679.22
490.35	20067.75
490.53	20086.48
490.70	20252.66
490.88	20219.89
491.06	20762.89
491.24	20821.41
491.41	20833.11
491.59	20908.01
491.77	21324.62
491.95	21008.65
492.13	21521.23
492.30	21352.71
492.48	21357.39
492.66	21317.60
492.84	21722.51
493.01	21610.17
493.19	22073.59
493.37	22258.49
493.54	22469.14
493.72	22565.10
493.90	22384.88
494.08	22970.02
494.25	22785.12
494.43	22644.68
494.61	22960.66
494.79	22860.01
494.96	23075.34
495.14	23157.26
495.32	23548.13
495.49	23850.06
495.67	23477.91
495.85	24032.62
496.02	24149.65
496.20	24044.32
496.38	24102.84
496.55	24671.59
496.73	24989.90
496.91	24601.37
497.09	25245.02
497.26	24987.56
497.44	24952.45
497.62	25521.20
497.79	25106.93
497.97	25226.29
498.14	25479.07
498.32	25797.38
498.50	25692.06
498.67	25937.82
498.85	25628.87
499.03	25893.35
499.20	26651.68
499.38	26249.11
499.56	26082.93
499.73	26998.08
499.91	26906.80
500.08	26927.86
500.26	26466.78
500.44	26735.94
500.61	26766.37
500.79	27171.28
500.97	27309.37
501.14	27438.10
501.32	27262.56
501.49	27536.40
501.67	27431.08
501.84	27276.60
502.02	27772.80
502.20	27976.42
502.37	27868.76
502.55	28006.85
502.72	27835.99
502.90	28238.56
503.07	27971.74
503.25	28222.18
503.43	28170.69
503.60	28741.78
503.78	28636.45
503.95	28816.68
504.13	28683.27
504.30	28751.14
504.48	28727.74
504.65	29069.45
504.83	29137.33
505.01	29163.08
505.18	29345.64
505.36	29656.93
505.53	29551.60
505.71	29572.67
505.88	29656.93
506.06	29776.30
506.23	29649.91
506.41	30080.56
506.58	30143.76
506.76	30101.63
506.93	30225.68
507.11	30263.13
507.28	30017.37
507.46	30462.07
507.63	30541.65
507.81	30553.35
507.98	30228.02
508.16	30452.71
508.33	30761.66
508.50	30902.09
508.68	31147.85
508.85	31262.54
509.03	31175.94
509.20	31297.64
509.38	31543.40
509.55	31681.49
509.73	31885.12
509.90	31922.57
510.08	32079.38
510.25	31838.31
510.42	31768.09
510.60	31882.78
510.77	32472.59
510.95	32631.75
511.12	32187.05
511.30	32128.53
511.47	32577.92
511.64	32718.35
511.82	32999.21
511.99	33024.96
512.17	33095.18
512.34	32425.78
512.51	33034.32
512.69	33312.84
512.86	33259.01
513.04	33130.28
513.21	33479.02
513.38	33727.12
513.56	33275.40
513.73	33553.92
513.90	33750.52
514.08	33228.59
514.25	34113.31
514.43	33666.27
514.60	34052.45
514.77	34017.35
514.95	34040.75
515.12	33860.53
515.29	33919.04
515.47	34473.75
515.64	34494.82
515.81	34562.69
515.99	34745.25
516.16	34808.45
516.33	34869.30
516.51	34918.45
516.68	34660.99
516.85	35012.07
517.03	35271.87
517.20	35140.80
517.37	35370.18
517.54	35559.76
517.72	35192.30
517.89	35021.44
518.06	35388.90
518.24	35189.95
518.41	35353.79
518.58	35681.47
518.75	35770.41
518.93	36123.83
519.10	35686.15
519.27	35777.43
519.45	35917.86
519.62	35854.67
519.79	36119.15
519.96	36161.28
520.14	36336.82
520.31	36095.74
520.48	36254.90
520.65	36500.65
520.83	36737.05
521.00	36730.03
521.17	36596.62
521.34	36280.64
521.52	36760.45
521.69	36783.86
521.86	37036.64
522.03	37191.11
522.20	37380.70
522.38	37141.96
522.55	36744.07
522.72	37167.71
522.89	37659.22
523.07	37699.01
523.24	37694.33
523.41	37729.44
523.58	37591.34
523.75	38223.29
523.92	37755.18
524.10	37904.98
524.27	37773.91
524.44	37895.61
524.61	38698.42
524.78	38033.71
524.96	38513.52
525.13	38307.55
525.30	38237.33
525.47	38866.94
525.64	38569.69
525.81	38447.98
525.98	38939.49
526.16	38761.61
526.33	38480.75
526.50	39049.50
526.67	38639.90
526.84	39206.31
527.01	38794.38
527.18	39154.82
527.36	39070.56
527.53	39386.54
527.70	39543.35
527.87	39625.27
528.04	39531.65
528.21	39351.43
528.38	39541.01
528.55	39234.40
528.72	39969.33
528.89	39978.69
529.07	40123.80
529.24	39423.98
529.41	39878.05
529.58	39885.07
529.75	39662.72
529.92	39475.48
530.09	40046.57
530.26	40189.34
530.43	40921.93
530.60	40428.07
530.77	40446.80
530.94	39868.69
531.11	39959.97
531.28	40210.40
531.46	40444.46
531.63	40282.96
531.80	40598.93
531.97	41078.74
532.14	40463.18
532.31	40973.42
532.48	40493.61
532.65	40711.28
532.82	41092.79
532.99	40776.81
533.16	40690.21
533.33	41495.36
533.50	41301.09
533.67	41296.41
533.84	41296.41
534.01	41116.19
534.18	41013.21
534.35	41151.30
534.52	40959.38
534.69	41701.32
534.86	41415.78
535.03	41481.31
535.20	41708.35
535.37	41493.02
535.54	41532.81
535.71	41708.35
535.88	41797.29
536.05	41467.27
536.22	41865.16
536.38	42178.79
536.55	42260.71
536.72	42064.11
536.89	41762.18
537.06	42045.38
537.23	42141.35
537.40	41918.99
537.57	42337.95
537.74	42302.84
537.91	42546.26
538.08	42689.03
538.25	42595.41
538.42	42520.51
538.59	42389.44
538.75	42389.44
538.92	42794.36
539.09	42892.66
539.26	42464.34
539.43	42838.83
539.60	42958.19
539.77	42995.64
539.94	43187.56
540.11	42997.98
540.28	43332.68
540.44	43098.62
540.61	43447.36
540.78	43342.04
540.95	43548.01
541.12	43339.70
541.29	44039.52
541.46	43093.94
541.62	43826.53
541.79	43931.86
541.96	43227.35
542.13	43562.05
542.30	43686.10
542.47	43889.73
542.63	43779.72
542.80	43426.30
542.97	44439.75
543.14	44086.33
543.31	44547.42
543.48	44266.55
543.64	44254.85
543.81	44645.72
543.98	44648.06
544.15	44121.44
544.32	44804.88
544.48	44816.58
544.65	44577.84
544.82	44502.95
544.99	43990.37
545.16	44776.79
545.32	44484.22
545.49	44825.94
545.66	45705.98
545.83	45577.25
546.00	45745.77
546.16	45242.56
546.33	44767.43
546.50	44896.16
546.67	45350.22
546.83	44577.84
547.00	44505.29
547.17	45228.51
547.34	44875.09
547.50	45188.72
547.67	45006.16
547.84	45418.10
548.00	45251.92
548.17	45420.44
548.34	45315.11
548.51	45551.51
548.67	45502.35
548.84	45624.06
549.01	45504.70
549.18	45165.32
549.34	45027.23
549.51	45141.91
549.68	45141.91
549.84	45258.94
550.01	45610.02
550.18	45272.98
550.34	45460.23
550.51	45734.07
550.68	45970.46
550.84	45485.97
551.01	46066.42
551.18	45495.33
551.34	45148.93
551.51	45010.84
551.68	45745.77
551.84	45886.20
552.01	45492.99
552.18	45825.35
552.34	45717.68
552.51	46148.34
552.68	45853.44
552.84	45801.94
553.01	45989.19
553.18	45614.70
553.34	46230.26
553.51	45839.39
553.67	46108.55
553.84	46562.62
554.01	46607.09
554.17	46026.63
554.34	46052.38
554.51	46007.91
554.67	46316.86
554.84	46169.41
555.00	46328.56
555.17	46101.53
555.33	46424.53
555.50	46036.00
555.67	46305.16
555.83	46281.75
556.00	46129.62
556.16	46199.83
556.33	46398.78
556.50	46295.80
556.66	46478.36
556.83	46258.35
556.99	46672.62
557.16	46902.00
557.32	46415.16
557.49	46639.86
557.65	46253.67
557.82	46342.61
557.98	46302.82
558.15	46246.65
558.32	46777.95
558.48	46389.42
558.65	46469.00
558.81	46611.77
558.98	46595.38
559.14	46738.16
559.31	46461.97
559.47	46763.90
559.64	46923.06
559.80	47267.12
559.97	46986.25
560.13	46564.96
560.30	47182.86
560.46	47091.58
560.63	46745.18
560.79	47007.32
560.96	47295.21
561.12	47000.30
561.29	47173.50
561.45	47323.29
561.61	47257.76
561.78	47140.73
561.94	47189.88
562.11	47337.33
562.27	46873.91
562.44	46880.93
562.60	47002.64
562.77	46820.08
562.93	46667.94
563.10	47428.62
563.26	46878.59
563.42	47522.24
563.59	47466.06
563.75	47232.01
563.92	47323.29
564.08	46820.08
564.24	47367.76
564.41	47173.50
564.57	46944.12
564.74	46777.95
564.90	47234.35
565.07	47622.88
565.23	47379.46
565.39	46988.60
565.56	47210.95
565.72	47239.03
565.88	47547.98
566.05	47306.91
566.21	47660.33
566.38	47173.50
566.54	47522.24
566.70	47398.19
566.87	47835.87
567.03	47274.14
567.19	47648.63
567.36	47533.94
567.52	47536.28
567.68	47615.86
567.85	47166.48
568.01	47428.62
568.17	47440.32
568.34	47826.51
568.50	47786.72
568.66	47346.70
568.83	47707.14
568.99	47566.71
569.15	47264.78
569.32	47107.96
569.48	47349.04
569.64	47742.25
569.81	47327.97
569.97	47526.92
570.13	47339.68
570.30	47339.68
570.46	47908.43
570.62	47370.10
570.78	47213.29
570.95	47316.27
571.11	47835.87
571.27	47232.01
571.43	47318.61
571.60	47796.08
571.76	47309.25
571.92	47849.91
572.09	48039.50
572.25	47735.23
572.41	47679.05
572.57	47845.23
572.74	47681.39
572.90	47332.65
573.06	47253.08
573.22	47515.22
573.38	47842.89
573.55	47407.55
573.71	48170.57
573.87	48114.39
574.03	47604.16
574.20	47742.25
574.36	47501.17
574.52	47821.83
574.68	47508.19
574.84	47819.49
575.01	47903.74
575.17	47868.64
575.33	47756.29
575.49	47477.77
575.65	48147.16
575.82	47660.33
575.98	47618.20
576.14	47908.43
576.30	47917.79
576.46	47870.98
576.62	47784.38
576.79	47756.29
576.95	47594.79
577.11	47896.72
577.27	47922.47
577.43	47629.90
577.59	47625.22
577.75	47620.54
577.92	47150.09
578.08	47569.05
578.24	47594.79
578.40	47657.99
578.56	47700.12
578.72	47838.21
578.88	48046.52
579.04	48037.16
579.21	48294.61
579.37	47913.11
579.53	47627.56
579.69	47690.76
579.85	47955.24
580.01	47594.79
580.17	47739.91
580.33	47285.84
580.49	47948.21
580.65	47686.07
580.82	47695.44
580.98	47789.06
581.14	47782.04
581.30	47929.49
581.46	47412.23
581.62	47414.57
581.78	47650.97
581.94	48172.91
582.10	47091.58
582.26	47522.24
582.42	47856.93
582.58	47824.17
582.74	48030.13
582.90	47758.63
583.06	47711.82
583.22	47611.18
583.38	47693.10
583.54	47826.51
583.70	47358.40
583.86	47496.49
584.02	47807.78
584.18	47908.43
584.34	48140.14
584.50	47847.57
584.66	47643.94
584.82	47426.28
584.98	47650.97
585.14	47679.05
585.30	47800.76
585.46	47470.75
585.62	47805.44
585.78	47732.89
585.94	47351.38
586.10	47657.99
586.26	48130.78
586.42	47995.03
586.58	47831.19
586.74	47735.23
586.90	47484.79
587.06	47693.10
587.22	47824.17
587.38	47873.32
587.54	48208.01
587.70	48081.63
587.86	48032.47
588.02	48198.65
588.18	47812.46
588.34	47887.36
588.49	47632.24
588.65	47569.05
588.81	47716.50
588.97	47971.62
589.13	47901.40
589.29	47739.91
589.45	48060.56
589.61	48128.44
589.77	48116.73
589.93	47838.21
590.08	48264.19
590.24	47737.57
590.40	48044.18
