SpectraSuite Data File
++++++++++++++++++++++++++++++++++++
Date: Fri Oct 04 11:39:51 GMT-05:00 2013
User: price-jones
Dark Spectrum Present: No
Reference Spectrum Present: No
Number of Sampled Component Spectra: 1
Spectrometers: USB2+H05261
Integration Time (usec): 100000 (USB2+H05261)
Spectra Averaged: 1 (USB2+H05261)
Boxcar Smoothing: 0 (USB2+H05261)
Correct for Electrical Dark: No (USB2+H05261)
Strobe/Lamp Enabled: No (USB2+H05261)
Correct for Detector Non-linearity: No (USB2+H05261)
Correct for Stray Light: No (USB2+H05261)
Number of Pixels in Processed Spectrum: 2048
>>>>>Begin Processed Spectral Data<<<<<
365.73	11.70
365.92	11.70
366.12	11.70
366.32	0.00
366.52	0.00
366.72	0.00
366.91	0.00
367.11	0.00
367.31	0.00
367.51	0.00
367.70	0.00
367.90	0.00
368.10	0.00
368.30	0.00
368.49	0.00
368.69	0.00
368.89	0.00
369.09	0.00
369.28	0.00
369.48	0.00
369.68	0.00
369.87	32.77
370.07	0.00
370.27	65.54
370.47	0.00
370.66	53.83
370.86	51.49
371.06	84.26
371.25	163.84
371.45	91.28
371.65	30.43
371.84	28.09
372.04	70.22
372.24	114.69
372.44	105.32
372.63	114.69
372.83	142.77
373.03	126.39
373.22	117.03
373.42	152.13
373.62	170.86
373.81	37.45
374.01	147.45
374.21	184.90
374.40	131.07
374.60	121.71
374.79	112.35
374.99	124.05
375.19	128.73
375.38	170.86
375.58	147.45
375.78	149.79
375.97	159.16
376.17	215.33
376.37	189.58
376.56	100.64
376.76	149.79
376.95	84.26
377.15	128.73
377.35	110.01
377.54	74.90
377.74	39.79
377.93	98.30
378.13	42.13
378.33	152.13
378.52	234.05
378.72	124.05
378.91	119.37
379.11	88.94
379.31	131.07
379.50	138.09
379.70	84.26
379.89	79.58
380.09	86.60
380.28	18.72
380.48	135.75
380.68	110.01
380.87	70.22
381.07	124.05
381.26	163.84
381.46	173.20
381.65	149.79
381.85	175.54
382.04	128.73
382.24	81.92
382.43	224.69
382.63	91.28
382.83	21.06
383.02	177.88
383.22	100.64
383.41	77.24
383.61	74.90
383.80	74.90
384.00	74.90
384.19	46.81
384.39	159.16
384.58	142.77
384.78	119.37
384.97	67.88
385.17	138.09
385.36	35.11
385.56	79.58
385.75	138.09
385.95	135.75
386.14	131.07
386.34	70.22
386.53	121.71
386.72	124.05
386.92	166.18
387.11	126.39
387.31	98.30
387.50	117.03
387.70	86.60
387.89	135.75
388.09	63.19
388.28	93.62
388.48	128.73
388.67	163.84
388.86	84.26
389.06	84.26
389.25	138.09
389.45	156.82
389.64	81.92
389.84	177.88
390.03	124.05
390.22	121.71
390.42	105.32
390.61	145.11
390.81	95.96
391.00	159.16
391.19	166.18
391.39	149.79
391.58	166.18
391.78	166.18
391.97	117.03
392.16	88.94
392.36	110.01
392.55	131.07
392.75	95.96
392.94	70.22
393.13	168.52
393.33	81.92
393.52	102.98
393.71	142.77
393.91	86.60
394.10	88.94
394.29	140.43
394.49	93.62
394.68	140.43
394.88	177.88
395.07	152.13
395.26	79.58
395.46	149.79
395.65	112.35
395.84	74.90
396.04	175.54
396.23	60.85
396.42	86.60
396.62	173.20
396.81	95.96
397.00	39.79
397.19	110.01
397.39	105.32
397.58	110.01
397.77	147.45
397.97	124.05
398.16	140.43
398.35	126.39
398.55	119.37
398.74	102.98
398.93	126.39
399.12	168.52
399.32	114.69
399.51	142.77
399.70	166.18
399.90	201.29
400.09	142.77
400.28	81.92
400.47	91.28
400.67	180.22
400.86	159.16
401.05	166.18
401.24	102.98
401.44	147.45
401.63	126.39
401.82	138.09
402.01	163.84
402.21	128.73
402.40	110.01
402.59	77.24
402.78	88.94
402.97	159.16
403.17	102.98
403.36	142.77
403.55	180.22
403.74	138.09
403.93	273.84
404.13	245.76
404.32	301.93
404.51	229.37
404.70	234.05
404.89	93.62
405.09	177.88
405.28	119.37
405.47	184.90
405.66	107.66
405.85	124.05
406.05	119.37
406.24	152.13
406.43	84.26
406.62	60.85
406.81	163.84
407.00	175.54
407.20	131.07
407.39	119.37
407.58	184.90
407.77	154.48
407.96	234.05
408.15	156.82
408.34	140.43
408.54	84.26
408.73	161.50
408.92	201.29
409.11	159.16
409.30	119.37
409.49	117.03
409.68	166.18
409.87	93.62
410.07	72.56
410.26	114.69
410.45	152.13
410.64	86.60
410.83	182.56
411.02	60.85
411.21	147.45
411.40	154.48
411.59	95.96
411.78	208.31
411.98	189.58
412.17	154.48
412.36	133.41
412.55	98.30
412.74	126.39
412.93	126.39
413.12	105.32
413.31	131.07
413.50	102.98
413.69	98.30
413.88	215.33
414.07	196.60
414.26	138.09
414.45	145.11
414.64	170.86
414.83	95.96
415.02	138.09
415.22	170.86
415.41	124.05
415.60	135.75
415.79	91.28
415.98	88.94
416.17	100.64
416.36	126.39
416.55	126.39
416.74	149.79
416.93	227.03
417.12	203.63
417.31	159.16
417.50	170.86
417.69	140.43
417.88	156.82
418.07	49.15
418.26	180.22
418.45	187.24
418.64	175.54
418.83	121.71
419.02	198.95
419.21	180.22
419.39	229.37
419.58	142.77
419.77	131.07
419.96	124.05
420.15	154.48
420.34	126.39
420.53	161.50
420.72	196.60
420.91	147.45
421.10	184.90
421.29	175.54
421.48	117.03
421.67	133.41
421.86	133.41
422.05	114.69
422.24	114.69
422.43	133.41
422.61	105.32
422.80	177.88
422.99	173.20
423.18	112.35
423.37	149.79
423.56	98.30
423.75	191.92
423.94	201.29
424.13	133.41
424.32	91.28
424.50	187.24
424.69	173.20
424.88	145.11
425.07	191.92
425.26	175.54
425.45	140.43
425.64	142.77
425.83	138.09
426.01	163.84
426.20	191.92
426.39	131.07
426.58	189.58
426.77	107.66
426.96	227.03
427.15	184.90
427.33	182.56
427.52	173.20
427.71	154.48
427.90	184.90
428.09	201.29
428.28	112.35
428.46	189.58
428.65	112.35
428.84	205.97
429.03	173.20
429.22	184.90
429.40	121.71
429.59	142.77
429.78	220.01
429.97	112.35
430.16	205.97
430.34	133.41
430.53	182.56
430.72	180.22
430.91	124.05
431.10	168.52
431.28	119.37
431.47	194.26
431.66	112.35
431.85	187.24
432.03	105.32
432.22	177.88
432.41	102.98
432.60	175.54
432.79	147.45
432.97	201.29
433.16	229.37
433.35	112.35
433.54	191.92
433.72	180.22
433.91	168.52
434.10	98.30
434.28	133.41
434.47	203.63
434.66	156.82
434.85	135.75
435.03	208.31
435.22	624.92
435.41	1160.91
435.59	1146.86
435.78	863.66
435.97	498.53
436.16	325.33
436.34	173.20
436.53	180.22
436.72	215.33
436.90	147.45
437.09	194.26
437.28	117.03
437.46	114.69
437.65	189.58
437.84	201.29
438.02	170.86
438.21	252.78
438.40	86.60
438.58	187.24
438.77	154.48
438.96	140.43
439.14	140.43
439.33	161.50
439.52	117.03
439.70	208.31
439.89	173.20
440.08	154.48
440.26	196.60
440.45	168.52
440.63	255.12
440.82	161.50
441.01	161.50
441.19	180.22
441.38	93.62
441.57	220.01
441.75	212.99
441.94	135.75
442.12	163.84
442.31	182.56
442.50	149.79
442.68	163.84
442.87	166.18
443.05	173.20
443.24	325.33
443.43	208.31
443.61	248.10
443.80	259.80
443.98	198.95
444.17	145.11
444.35	180.22
444.54	182.56
444.73	212.99
444.91	203.63
445.10	110.01
445.28	117.03
445.47	210.65
445.65	180.22
445.84	161.50
446.02	234.05
446.21	163.84
446.39	156.82
446.58	140.43
446.77	154.48
446.95	191.92
447.14	210.65
447.32	220.01
447.51	121.71
447.69	105.32
447.88	182.56
448.06	191.92
448.25	198.95
448.43	159.16
448.62	220.01
448.80	175.54
448.99	131.07
449.17	128.73
449.36	205.97
449.54	220.01
449.73	236.39
449.91	229.37
450.10	198.95
450.28	201.29
450.46	311.29
450.65	243.42
450.83	201.29
451.02	234.05
451.20	227.03
451.39	173.20
451.57	133.41
451.76	187.24
451.94	194.26
452.13	189.58
452.31	191.92
452.49	180.22
452.68	224.69
452.86	131.07
453.05	241.08
453.23	175.54
453.42	114.69
453.60	215.33
453.78	168.52
453.97	184.90
454.15	208.31
454.34	196.60
454.52	224.69
454.70	224.69
454.89	266.82
455.07	133.41
455.26	173.20
455.44	166.18
455.62	210.65
455.81	154.48
455.99	208.31
456.17	166.18
456.36	159.16
456.54	184.90
456.73	163.84
456.91	156.82
457.09	203.63
457.28	248.10
457.46	175.54
457.64	283.20
457.83	154.48
458.01	110.01
458.19	156.82
458.38	175.54
458.56	222.35
458.74	149.79
458.93	203.63
459.11	203.63
459.29	227.03
459.48	184.90
459.66	210.65
459.84	189.58
460.03	297.25
460.21	177.88
460.39	142.77
460.57	187.24
460.76	201.29
460.94	152.13
461.12	229.37
461.31	243.42
461.49	201.29
461.67	189.58
461.85	191.92
462.04	149.79
462.22	610.88
462.40	203.63
462.59	156.82
462.77	182.56
462.95	259.80
463.13	224.69
463.32	203.63
463.50	238.73
463.68	215.33
463.86	236.39
464.05	121.71
464.23	224.69
464.41	220.01
464.59	145.11
464.78	168.52
464.96	175.54
465.14	182.56
465.32	180.22
465.50	217.67
465.69	236.39
465.87	184.90
466.05	210.65
466.23	210.65
466.41	170.86
466.60	135.75
466.78	147.45
466.96	290.23
467.14	238.73
467.32	184.90
467.51	198.95
467.69	194.26
467.87	231.71
468.05	152.13
468.23	180.22
468.41	250.44
468.60	252.78
468.78	194.26
468.96	234.05
469.14	168.52
469.32	128.73
469.50	119.37
469.69	175.54
469.87	168.52
470.05	285.55
470.23	159.16
470.41	142.77
470.59	203.63
470.77	187.24
470.95	189.58
471.14	191.92
471.32	163.84
471.50	217.67
471.68	170.86
471.86	243.42
472.04	210.65
472.22	189.58
472.40	227.03
472.58	203.63
472.77	205.97
472.95	175.54
473.13	271.50
473.31	245.76
473.49	203.63
473.67	184.90
473.85	215.33
474.03	250.44
474.21	196.60
474.39	257.46
474.57	168.52
474.75	217.67
474.93	205.97
475.12	135.75
475.30	212.99
475.48	184.90
475.66	210.65
475.84	187.24
476.02	184.90
476.20	201.29
476.38	126.39
476.56	269.16
476.74	217.67
476.92	161.50
477.10	191.92
477.28	191.92
477.46	229.37
477.64	154.48
477.82	201.29
478.00	173.20
478.18	269.16
478.36	217.67
478.54	154.48
478.72	222.35
478.90	243.42
479.08	234.05
479.26	208.31
479.44	184.90
479.62	138.09
479.80	238.73
479.98	205.97
480.16	212.99
480.34	208.31
480.52	140.43
480.70	215.33
480.88	184.90
481.06	201.29
481.24	224.69
481.41	248.10
481.59	262.14
481.77	194.26
481.95	234.05
482.13	290.23
482.31	285.55
482.49	280.86
482.67	252.78
482.85	236.39
483.03	276.18
483.21	205.97
483.39	243.42
483.57	278.52
483.74	262.14
483.92	184.90
484.10	203.63
484.28	311.29
484.46	367.46
484.64	241.08
484.82	248.10
485.00	297.25
485.18	273.84
485.35	332.36
485.53	292.57
485.71	388.53
485.89	287.89
486.07	315.97
486.25	353.42
486.43	327.68
486.61	301.93
486.78	304.27
486.96	262.14
487.14	381.51
487.32	339.38
487.50	383.85
487.68	327.68
487.85	337.04
488.03	372.15
488.21	397.89
488.39	262.14
488.57	397.89
488.75	313.63
488.92	547.69
489.10	404.91
489.28	395.55
489.46	346.40
489.64	318.31
489.81	304.27
489.99	388.53
490.17	322.99
490.35	376.83
490.53	271.50
490.70	301.93
490.88	430.66
491.06	299.59
491.24	397.89
491.41	360.44
491.59	395.55
491.77	273.84
491.95	327.68
492.13	294.91
492.30	292.57
492.48	308.95
492.66	332.36
492.84	285.55
493.01	280.86
493.19	348.74
493.37	344.06
493.54	280.86
493.72	269.16
493.90	318.31
494.08	255.12
494.25	351.08
494.43	318.31
494.61	236.39
494.79	266.82
494.96	423.64
495.14	334.70
495.32	304.27
495.49	280.86
495.67	280.86
495.85	304.27
496.02	248.10
496.20	404.91
496.38	381.51
496.55	280.86
496.73	348.74
496.91	297.25
497.09	292.57
497.26	294.91
497.44	241.08
497.62	355.76
497.79	297.25
497.97	290.23
498.14	276.18
498.32	299.59
498.50	311.29
498.67	269.16
498.85	262.14
499.03	330.02
499.20	276.18
499.38	243.42
499.56	365.12
499.73	358.10
499.91	250.44
500.08	276.18
500.26	229.37
500.44	259.80
500.61	301.93
500.79	241.08
500.97	245.76
501.14	322.99
501.32	257.46
501.49	262.14
501.67	215.33
501.84	283.20
502.02	287.89
502.20	299.59
502.37	252.78
502.55	308.95
502.72	255.12
502.90	353.42
503.07	215.33
503.25	266.82
503.43	248.10
503.60	229.37
503.78	287.89
503.95	285.55
504.13	243.42
504.30	301.93
504.48	318.31
504.65	308.95
504.83	311.29
505.01	264.48
505.18	250.44
505.36	278.52
505.53	304.27
505.71	203.63
505.88	311.29
506.06	262.14
506.23	290.23
506.41	236.39
506.58	280.86
506.76	229.37
506.93	264.48
507.11	238.73
507.28	236.39
507.46	255.12
507.63	311.29
507.81	234.05
507.98	306.61
508.16	297.25
508.33	217.67
508.50	292.57
508.68	271.50
508.85	224.69
509.03	217.67
509.20	248.10
509.38	196.60
509.55	330.02
509.73	269.16
509.90	301.93
510.08	259.80
510.25	255.12
510.42	269.16
510.60	292.57
510.77	390.87
510.95	341.72
511.12	290.23
511.30	376.83
511.47	353.42
511.64	360.44
511.82	322.99
511.99	205.97
512.17	269.16
512.34	299.59
512.51	236.39
512.69	241.08
512.86	318.31
513.04	234.05
513.21	299.59
513.38	250.44
513.56	325.33
513.73	325.33
513.90	346.40
514.08	271.50
514.25	222.35
514.43	306.61
514.60	292.57
514.77	227.03
514.95	346.40
515.12	273.84
515.29	255.12
515.47	383.85
515.64	301.93
515.81	280.86
515.99	304.27
516.16	290.23
516.33	337.04
516.51	271.50
516.68	241.08
516.85	257.46
517.03	217.67
517.20	313.63
517.37	257.46
517.54	250.44
517.72	220.01
517.89	320.65
518.06	264.48
518.24	369.80
518.41	287.89
518.58	315.97
518.75	259.80
518.93	332.36
519.10	311.29
519.27	299.59
519.45	330.02
519.62	304.27
519.79	341.72
519.96	280.86
520.14	287.89
520.31	315.97
520.48	238.73
520.65	285.55
520.83	322.99
521.00	259.80
521.17	259.80
521.34	318.31
521.52	229.37
521.69	280.86
521.86	266.82
522.03	318.31
522.20	308.95
522.38	236.39
522.55	290.23
522.72	325.33
522.89	259.80
523.07	337.04
523.24	264.48
523.41	372.15
523.58	367.46
523.75	304.27
523.92	292.57
524.10	337.04
524.27	245.76
524.44	346.40
524.61	290.23
524.78	297.25
524.96	311.29
525.13	294.91
525.30	290.23
525.47	351.08
525.64	320.65
525.81	299.59
525.98	217.67
526.16	358.10
526.33	273.84
526.50	322.99
526.67	229.37
526.84	280.86
527.01	297.25
527.18	238.73
527.36	322.99
527.53	292.57
527.70	341.72
527.87	365.12
528.04	311.29
528.21	313.63
528.38	369.80
528.55	365.12
528.72	374.49
528.89	344.06
529.07	315.97
529.24	358.10
529.41	283.20
529.58	355.76
529.75	386.19
529.92	262.14
530.09	299.59
530.26	383.85
530.43	386.19
530.60	376.83
530.77	285.55
530.94	299.59
531.11	334.70
531.28	220.01
531.46	292.57
531.63	266.82
531.80	353.42
531.97	238.73
532.14	334.70
532.31	285.55
532.48	311.29
532.65	351.08
532.82	383.85
532.99	255.12
533.16	428.32
533.33	360.44
533.50	362.78
533.67	355.76
533.84	374.49
534.01	416.62
534.18	325.33
534.35	400.23
534.52	372.15
534.69	423.64
534.86	362.78
535.03	383.85
535.20	393.21
535.37	416.62
535.54	444.70
535.71	376.83
535.88	400.23
536.05	318.31
536.22	416.62
536.38	325.33
536.55	376.83
536.72	461.09
536.89	409.59
537.06	421.30
537.23	425.98
537.40	395.55
537.57	369.80
537.74	456.40
537.91	519.60
538.08	458.74
538.25	442.36
538.42	498.53
538.59	557.05
538.75	456.40
538.92	468.11
539.09	573.43
539.26	566.41
539.43	615.56
539.60	624.92
539.77	564.07
539.94	723.23
540.11	699.82
540.28	814.51
540.44	793.44
540.61	807.48
540.78	880.04
540.95	1036.86
541.12	1156.22
541.29	1238.14
541.46	1315.38
541.62	1334.11
541.79	1299.00
541.96	1385.60
542.13	1299.00
542.30	1313.04
542.47	1247.51
542.63	1268.57
542.80	1231.12
542.97	1277.93
543.14	1193.67
543.31	1219.42
543.48	1231.12
543.64	1217.08
543.81	1249.85
543.98	1163.25
544.15	1156.22
544.32	1306.02
544.48	1034.52
544.65	1083.67
544.82	1132.82
544.99	1067.28
545.16	1109.41
545.32	1123.46
545.49	1820.94
545.66	2567.57
545.83	3059.08
546.00	2827.37
546.16	2019.88
546.33	1521.35
546.50	1144.52
546.67	1093.03
546.83	936.21
547.00	821.53
547.17	795.78
547.34	800.46
547.50	807.48
547.67	802.80
547.84	823.87
548.00	814.51
548.17	716.20
548.34	777.06
548.51	741.95
548.67	704.50
548.84	697.48
549.01	704.50
549.18	711.52
549.34	624.92
549.51	636.63
549.68	683.44
549.84	662.37
550.01	545.34
550.18	674.07
550.34	667.05
550.51	519.60
550.68	711.52
550.84	557.05
551.01	543.00
551.18	568.75
551.34	498.53
551.51	528.96
551.68	510.24
551.84	564.07
552.01	475.13
552.18	528.96
552.34	463.43
552.51	496.19
552.68	519.60
552.84	528.96
553.01	404.91
553.18	510.24
553.34	449.38
553.51	414.27
553.67	512.58
553.84	416.62
554.01	437.68
554.17	425.98
554.34	411.93
554.51	299.59
554.67	407.25
554.84	442.36
555.00	409.59
555.17	447.04
555.33	400.23
555.50	334.70
555.67	425.98
555.83	407.25
556.00	299.59
556.16	491.51
556.33	421.30
556.50	411.93
556.66	337.04
556.83	376.83
556.99	367.46
557.16	402.57
557.32	320.65
557.49	351.08
557.65	283.20
557.82	430.66
557.98	283.20
558.15	376.83
558.32	287.89
558.48	332.36
558.65	330.02
558.81	322.99
558.98	369.80
559.14	346.40
559.31	355.76
559.47	299.59
559.64	325.33
559.80	365.12
559.97	276.18
560.13	315.97
560.30	353.42
560.46	315.97
560.63	367.46
560.79	278.52
560.96	299.59
561.12	290.23
561.29	320.65
561.45	299.59
561.61	348.74
561.78	416.62
561.94	327.68
562.11	313.63
562.27	308.95
562.44	292.57
562.60	393.21
562.77	304.27
562.93	390.87
563.10	365.12
563.26	376.83
563.42	344.06
563.59	344.06
563.75	294.91
563.92	313.63
564.08	322.99
564.24	348.74
564.41	409.59
564.57	322.99
564.74	257.46
564.90	262.14
565.07	325.33
565.23	332.36
565.39	241.08
565.56	262.14
565.72	294.91
565.88	299.59
566.05	308.95
566.21	283.20
566.38	280.86
566.54	259.80
566.70	255.12
566.87	372.15
567.03	386.19
567.19	379.17
567.36	322.99
567.52	273.84
567.68	390.87
567.85	404.91
568.01	259.80
568.17	362.78
568.34	367.46
568.50	332.36
568.66	259.80
568.83	362.78
568.99	266.82
569.15	299.59
569.32	393.21
569.48	318.31
569.64	383.85
569.81	252.78
569.97	381.51
570.13	348.74
570.30	337.04
570.46	276.18
570.62	259.80
570.78	269.16
570.95	252.78
571.11	418.96
571.27	245.76
571.43	285.55
571.60	374.49
571.76	271.50
571.92	308.95
572.09	301.93
572.25	276.18
572.41	381.51
572.57	334.70
572.74	379.17
572.90	416.62
573.06	327.68
573.22	372.15
573.38	330.02
573.55	367.46
573.71	327.68
573.87	327.68
574.03	311.29
574.20	313.63
574.36	313.63
574.52	372.15
574.68	306.61
574.84	383.85
575.01	290.23
575.17	332.36
575.33	334.70
575.49	308.95
575.65	299.59
575.82	383.85
575.98	374.49
576.14	301.93
576.30	404.91
576.46	601.52
576.62	858.98
576.79	917.49
576.95	709.18
577.11	484.49
577.27	507.90
577.43	440.02
577.59	400.23
577.75	400.23
577.92	372.15
578.08	327.68
578.24	334.70
578.40	479.81
578.56	613.22
578.72	765.36
578.88	788.76
579.04	697.48
579.21	552.37
579.37	564.07
579.53	388.53
579.69	402.57
579.85	433.00
580.01	636.63
580.17	526.62
580.33	447.04
580.49	540.66
580.65	468.11
580.82	447.04
580.98	428.32
581.14	428.32
581.30	430.66
581.46	433.00
581.62	514.92
581.78	397.89
581.94	505.56
582.10	498.53
582.26	498.53
582.42	463.43
582.58	507.90
582.74	503.22
582.90	587.47
583.06	456.40
583.22	491.51
583.38	505.56
583.54	512.58
583.70	636.63
583.86	458.74
584.02	517.26
584.18	533.64
584.34	535.98
584.50	463.43
584.66	526.62
584.82	447.04
584.98	482.15
585.14	479.81
585.30	435.34
585.46	468.11
585.62	451.72
585.78	430.66
585.94	470.45
586.10	484.49
586.26	475.13
586.42	547.69
586.58	550.03
586.74	564.07
586.90	650.67
587.06	697.48
587.22	709.18
587.38	688.12
587.54	620.24
587.70	498.53
587.86	526.62
588.02	519.60
588.18	524.28
588.34	491.51
588.49	325.33
588.65	409.59
588.81	374.49
588.97	444.70
589.13	449.38
589.29	390.87
589.45	428.32
589.61	430.66
589.77	449.38
589.93	454.06
590.08	320.65
590.24	411.93
590.40	351.08
590.56	411.93
590.72	463.43
590.88	447.04
591.04	421.30
591.20	425.98
591.35	425.98
591.51	435.34
591.67	449.38
591.83	428.32
591.99	475.13
592.15	496.19
592.31	505.56
592.46	510.24
592.62	514.92
592.78	554.71
592.94	564.07
593.10	489.17
593.26	496.19
593.41	559.39
593.57	461.09
593.73	454.06
593.89	418.96
594.05	418.96
594.20	400.23
594.36	407.25
594.52	351.08
594.68	346.40
594.84	365.12
594.99	425.98
595.15	374.49
595.31	418.96
595.47	404.91
595.62	369.80
595.78	306.61
595.94	390.87
596.10	435.34
596.25	430.66
596.41	416.62
596.57	374.49
596.73	308.95
596.88	386.19
597.04	348.74
597.20	435.34
597.36	451.72
597.51	409.59
597.67	379.17
597.83	437.68
597.99	341.72
598.14	442.36
598.30	461.09
598.46	454.06
598.61	505.56
598.77	458.74
598.93	381.51
599.09	411.93
599.24	421.30
599.40	510.24
599.56	442.36
599.71	395.55
599.87	461.09
600.03	461.09
600.18	418.96
600.34	470.45
600.50	414.27
600.65	400.23
600.81	449.38
600.97	374.49
601.12	416.62
601.28	435.34
601.44	388.53
601.59	358.10
601.75	393.21
601.91	416.62
602.06	383.85
602.22	449.38
602.37	374.49
602.53	334.70
602.69	367.46
602.84	332.36
603.00	337.04
603.16	386.19
603.31	383.85
603.47	325.33
603.62	238.73
603.78	318.31
603.94	355.76
604.09	320.65
604.25	346.40
604.40	428.32
604.56	353.42
604.71	320.65
604.87	325.33
605.03	395.55
605.18	365.12
605.34	346.40
605.49	433.00
605.65	365.12
605.80	397.89
605.96	430.66
606.12	386.19
606.27	358.10
606.43	451.72
606.58	442.36
606.74	456.40
606.89	390.87
607.05	496.19
607.20	444.70
607.36	498.53
607.51	386.19
607.67	468.11
607.82	521.94
607.98	456.40
608.13	486.83
608.29	475.13
608.44	486.83
608.60	543.00
608.75	557.05
608.91	594.50
609.06	519.60
609.22	667.05
609.37	737.27
609.53	645.99
609.68	730.25
609.84	763.01
609.99	933.87
610.15	968.98
610.30	1186.65
610.46	1540.07
610.61	1727.32
610.76	2214.15
610.92	2630.76
