SpectraSuite Data File
++++++++++++++++++++++++++++++++++++
Date: Fri Oct 04 11:40:05 GMT-05:00 2013
User: price-jones
Dark Spectrum Present: No
Reference Spectrum Present: No
Number of Sampled Component Spectra: 1
Spectrometers: USB2+H05261
Integration Time (usec): 100000 (USB2+H05261)
Spectra Averaged: 1 (USB2+H05261)
Boxcar Smoothing: 0 (USB2+H05261)
Correct for Electrical Dark: No (USB2+H05261)
Strobe/Lamp Enabled: No (USB2+H05261)
Correct for Detector Non-linearity: No (USB2+H05261)
Correct for Stray Light: No (USB2+H05261)
Number of Pixels in Processed Spectrum: 2048
>>>>>Begin Processed Spectral Data<<<<<
365.73	98.30
365.92	98.30
366.12	98.30
366.32	0.00
366.52	0.00
366.72	0.00
366.91	0.00
367.11	0.00
367.31	0.00
367.51	0.00
367.70	0.00
367.90	0.00
368.10	0.00
368.30	0.00
368.49	0.00
368.69	44.47
368.89	0.00
369.09	0.00
369.28	0.00
369.48	0.00
369.68	0.00
369.87	0.00
370.07	0.00
370.27	0.00
370.47	53.83
370.66	360.44
370.86	454.06
371.06	557.05
371.25	505.56
371.45	500.87
371.65	440.02
371.84	390.87
372.04	479.81
372.24	575.77
372.44	479.81
372.63	449.38
372.83	493.85
373.03	493.85
373.22	353.42
373.42	491.51
373.62	479.81
373.81	540.66
374.01	454.06
374.21	482.15
374.40	470.45
374.60	491.51
374.79	503.22
374.99	643.65
375.19	580.45
375.38	615.56
375.58	554.71
375.78	636.63
375.97	540.66
376.17	655.35
376.37	575.77
376.56	627.26
376.76	688.12
376.95	613.22
377.15	718.54
377.35	653.01
377.54	791.10
377.74	744.29
377.93	755.99
378.13	732.59
378.33	695.14
378.52	634.29
378.72	692.80
378.91	690.46
379.11	643.65
379.31	575.77
379.50	564.07
379.70	578.11
379.89	692.80
380.09	727.91
380.28	767.70
380.48	798.12
380.68	781.74
380.87	660.03
381.07	613.22
381.26	709.18
381.46	601.52
381.65	575.77
381.85	514.92
382.04	634.29
382.24	561.73
382.43	521.94
382.63	482.15
382.83	517.26
383.02	608.54
383.22	538.32
383.41	526.62
383.61	552.37
383.80	601.52
384.00	582.79
384.19	741.95
384.39	730.25
384.58	704.50
384.78	770.04
384.97	699.82
385.17	643.65
385.36	676.41
385.56	615.56
385.75	641.31
385.95	702.16
386.14	833.23
386.34	781.74
386.53	695.14
386.72	610.88
386.92	711.52
387.11	655.35
387.31	760.67
387.50	772.38
387.70	741.95
387.89	718.54
388.09	690.46
388.28	734.93
388.48	730.25
388.67	723.23
388.86	919.83
389.06	910.47
389.25	912.81
389.45	924.51
389.64	905.79
389.84	994.73
390.03	903.45
390.22	985.37
390.42	961.96
390.61	1062.60
390.81	999.41
391.00	1069.62
391.19	1020.47
391.39	1008.77
391.58	959.62
391.78	1050.90
391.97	830.89
392.16	809.83
392.36	823.87
392.55	716.20
392.75	540.66
392.94	564.07
393.13	559.39
393.33	535.98
393.52	660.03
393.71	678.76
393.91	873.02
394.10	880.04
394.29	926.85
394.49	994.73
394.68	1135.16
394.88	1259.21
395.07	1165.59
395.26	1090.69
395.46	1029.84
395.65	1109.41
395.84	952.60
396.04	868.34
396.23	678.76
396.42	564.07
396.62	613.22
396.81	683.44
397.00	802.80
397.19	1043.88
397.39	1064.94
397.58	1228.78
397.77	1226.44
397.97	1268.57
398.16	1245.16
398.35	1324.74
398.55	1336.45
398.74	1476.88
398.93	1544.75
399.12	1486.24
399.32	1483.90
399.51	1437.09
399.70	1514.33
399.90	1586.88
400.09	1479.22
400.28	1502.62
400.47	1558.80
400.67	1680.50
400.86	1624.33
401.05	1734.34
401.24	1764.76
401.44	1713.27
401.63	1771.79
401.82	1776.47
402.01	1591.56
402.21	1652.42
402.40	1722.63
402.59	1638.38
402.78	1570.50
402.97	1600.93
403.17	1596.25
403.36	1694.55
403.55	1795.19
403.74	1849.02
403.93	1650.08
404.13	1640.72
404.32	1544.75
404.51	1708.59
404.70	1788.17
404.89	1692.21
405.09	1741.36
405.28	1547.09
405.47	1673.48
405.66	1565.82
405.85	1708.59
406.05	1603.27
406.24	1598.59
406.43	1675.82
406.62	1638.38
406.81	1811.57
407.00	1746.04
407.20	1614.97
407.39	1708.59
407.58	1689.87
407.77	1781.15
407.96	1781.15
408.15	1996.48
408.34	1870.09
408.54	1959.03
408.73	1907.54
408.92	1895.83
409.11	1858.39
409.30	1734.34
409.49	1680.50
409.68	1556.46
409.87	1593.90
410.07	1509.65
410.26	1680.50
410.45	1797.53
410.64	1839.66
410.83	1818.60
411.02	1940.30
411.21	1956.69
411.40	1921.58
411.59	1987.11
411.78	1919.24
411.98	1991.80
412.17	1944.99
412.36	1888.81
412.55	1886.47
412.74	1984.77
412.93	1900.52
413.12	1844.34
413.31	2052.65
413.50	1961.37
413.69	1994.14
413.88	2057.33
414.07	2001.16
414.26	2043.29
414.45	1973.07
414.64	2010.52
414.83	2069.03
415.02	2066.69
415.22	2097.12
415.41	2076.06
415.60	2122.87
415.79	2150.95
415.98	2303.09
416.17	2258.62
416.36	2314.79
416.55	2218.83
416.74	2062.01
416.93	2040.95
417.12	2073.71
417.31	2050.31
417.50	1968.39
417.69	2207.13
417.88	2148.61
418.07	2216.49
418.26	2165.00
418.45	2228.19
418.64	2111.16
418.83	2230.53
419.02	2225.85
419.21	2160.31
419.39	2146.27
419.58	2104.14
419.77	2090.10
419.96	2094.78
420.15	2293.72
420.34	2321.81
420.53	2296.07
420.72	2476.29
420.91	2401.39
421.10	2417.77
421.29	2296.07
421.48	2267.98
421.67	2359.26
421.86	2260.96
422.05	2214.15
422.24	1994.14
422.43	2080.74
422.61	2193.08
422.80	2331.17
422.99	2211.81
423.18	2197.76
423.37	2202.44
423.56	2150.95
423.75	2176.70
423.94	2293.72
424.13	2097.12
424.32	2076.06
424.50	2118.18
424.69	2176.70
424.88	2253.94
425.07	2239.89
425.26	2183.72
425.45	2106.48
425.64	2038.61
425.83	2080.74
426.01	2181.38
426.20	2242.23
426.39	2307.77
426.58	2019.88
426.77	1944.99
426.96	1954.35
427.15	1961.37
427.33	2057.33
427.52	2085.42
427.71	2197.76
427.90	2090.10
428.09	2214.15
428.28	2022.22
428.46	2024.56
428.65	2017.54
428.84	2062.01
429.03	2155.63
429.22	1900.52
429.40	1799.87
429.59	1687.53
429.78	1579.86
429.97	1455.81
430.16	1593.90
430.34	1633.69
430.53	1561.14
430.72	1603.27
430.91	1699.23
431.10	1930.94
431.28	2223.51
431.47	2457.56
431.66	2534.80
431.85	2347.56
432.03	2275.00
432.22	2160.31
432.41	2197.76
432.60	2380.32
432.79	2473.95
432.97	2415.43
433.16	2375.64
433.35	2270.32
433.54	1998.82
433.72	1984.77
433.91	2062.01
434.10	2172.02
434.28	2298.41
434.47	2417.77
434.66	2429.48
434.85	2331.17
435.03	2401.39
435.22	2597.99
435.41	2726.72
435.59	2885.88
435.78	2715.02
435.97	2609.70
436.16	2750.13
436.34	2633.10
436.53	2567.57
436.72	2506.71
436.90	2532.46
437.09	2434.16
437.28	2434.16
437.46	2321.81
437.65	2415.43
437.84	2235.21
438.02	2167.34
438.21	2221.17
438.40	2195.42
438.58	2345.22
438.77	2441.18
438.96	2544.16
439.14	2541.82
439.33	2551.18
439.52	2661.19
439.70	2576.93
439.89	2495.01
440.08	2492.67
440.26	2548.84
440.45	2586.29
440.63	2780.56
440.82	2832.05
441.01	2902.26
441.19	2668.21
441.38	2782.90
441.57	2818.00
441.75	2993.55
441.94	2878.86
442.12	2904.60
442.31	2942.05
442.50	2963.12
442.68	2869.50
442.87	2836.73
443.05	2890.56
443.24	2864.82
443.43	2944.39
443.61	3080.14
443.80	3094.19
443.98	2923.33
444.17	2953.76
444.35	3054.40
444.54	3164.40
444.73	2977.16
444.91	2995.89
445.10	2724.38
445.28	2750.13
445.47	2691.62
445.65	2696.30
445.84	2778.22
446.02	2752.47
446.21	2843.75
446.39	2787.58
446.58	3023.97
446.77	2972.48
446.95	3000.57
447.14	3103.55
447.32	3232.28
447.51	3016.95
447.69	3000.57
447.88	3042.70
448.06	3033.33
448.25	2918.65
448.43	3075.46
448.62	2937.37
448.80	3087.17
448.99	3073.12
449.17	3070.78
449.36	2930.35
449.54	3227.60
449.73	3082.49
449.91	3302.50
450.10	3297.81
450.28	3328.24
450.46	3234.62
450.65	3265.05
450.83	3337.60
451.02	3253.34
451.20	3234.62
451.39	3222.92
451.57	3213.56
451.76	3141.00
451.94	3150.36
452.13	3096.53
452.31	3012.27
452.49	2820.35
452.68	2841.41
452.86	2874.18
453.05	3000.57
453.23	2932.69
453.42	3019.29
453.60	3014.61
453.78	3194.83
453.97	3098.87
454.15	3164.40
454.34	3089.51
454.52	3030.99
454.70	3059.08
454.89	3075.46
455.07	2967.80
455.26	3192.49
455.44	3328.24
455.62	3241.64
455.81	3258.03
455.99	3279.09
456.17	3173.77
456.36	3155.04
456.54	3403.14
456.73	3325.90
456.91	3370.37
457.09	3538.89
457.28	3398.46
457.46	3307.18
457.64	3269.73
457.83	3267.39
458.01	3066.10
458.19	3253.34
458.38	3112.91
458.56	3393.78
458.74	3344.63
458.93	3215.90
459.11	3339.94
459.29	3241.64
459.48	3239.30
459.66	3232.28
459.84	3290.79
460.03	3463.99
460.21	3272.07
460.39	3403.14
460.57	3382.07
460.76	3503.78
460.94	3391.44
461.12	3384.41
461.31	3440.59
461.49	3452.29
461.67	3243.98
461.85	3440.59
462.04	3445.27
462.22	3955.51
462.40	3574.00
462.59	3391.44
462.77	3463.99
462.95	3534.21
463.13	3330.58
463.32	3255.69
463.50	3358.67
463.68	3342.28
463.86	3330.58
464.05	3356.33
464.23	3389.10
464.41	3286.11
464.59	3082.49
464.78	3248.66
464.96	3368.03
465.14	3335.26
465.32	3377.39
465.50	3403.14
465.69	3480.38
465.87	3372.71
466.05	3375.05
466.23	3220.58
466.41	3166.74
466.60	3105.89
466.78	3239.30
466.96	3361.01
467.14	3375.05
467.32	3283.77
467.51	3449.95
467.69	3159.72
467.87	3176.11
468.05	3358.67
468.23	3335.26
468.41	3382.07
468.60	3398.46
468.78	3248.66
468.96	3279.09
469.14	3382.07
469.32	3236.96
469.50	3241.64
469.69	3307.18
469.87	3199.51
470.05	3248.66
470.23	3302.50
470.41	3197.17
470.59	3279.09
470.77	3335.26
470.95	3379.73
471.14	3435.91
471.32	3353.99
471.50	3527.19
471.68	3595.06
471.86	3707.41
472.04	3630.17
472.22	3574.00
472.40	3536.55
472.58	3351.65
472.77	3419.52
472.95	3473.36
473.13	3552.93
473.31	3508.46
473.49	3391.44
473.67	3522.51
473.85	3529.53
474.03	3665.28
474.21	3674.64
474.39	3595.06
474.57	3779.97
474.75	3782.31
474.93	3609.11
475.12	3557.61
475.30	3674.64
475.48	3548.25
475.66	3726.13
475.84	3449.95
476.02	3634.85
476.20	3569.32
476.38	3637.19
476.56	3770.60
476.74	3721.45
476.92	3817.41
477.10	3805.71
477.28	3953.16
477.46	3911.04
477.64	3904.01
477.82	4004.66
478.00	4030.40
478.18	3922.74
478.36	3955.51
478.54	4091.26
478.72	3964.87
478.90	4079.55
479.08	4086.58
479.26	4243.39
479.44	4124.02
479.62	4245.73
479.80	4201.26
479.98	4266.80
480.16	4257.43
480.34	4124.02
480.52	4212.96
480.70	4360.42
480.88	4219.99
481.06	4283.18
481.24	4395.53
481.41	4510.21
481.59	4519.57
481.77	4596.81
481.95	4432.97
482.13	4524.26
482.31	4484.47
482.49	4400.21
482.67	4404.89
482.85	4503.19
483.03	4603.83
483.21	4772.35
483.39	4683.41
483.57	4774.69
483.74	4528.94
483.92	4571.07
484.10	4596.81
484.28	4690.43
484.46	4807.46
484.64	4840.23
484.82	4641.28
485.00	4741.93
485.18	4629.58
485.35	4428.29
485.53	4215.30
485.71	3868.91
485.89	3754.22
486.07	3936.78
486.25	4210.62
486.43	4414.25
486.61	4386.16
486.78	4470.42
486.96	4615.54
487.14	4739.58
487.32	4650.64
487.50	4861.29
487.68	4966.62
487.85	5256.84
488.03	5156.20
488.21	5022.79
488.39	5004.07
488.57	4837.89
488.75	4746.61
488.92	5177.26
489.10	5240.46
489.28	5493.24
489.46	5652.39
489.64	5582.18
489.81	5727.29
489.99	5556.43
490.17	5596.22
490.35	5535.37
490.53	5565.79
490.70	5570.48
490.88	5348.12
491.06	5593.88
491.24	5481.53
491.41	5378.55
491.59	5186.63
491.77	5088.32
491.95	5062.58
492.13	5359.83
492.30	5453.45
492.48	5654.73
492.66	5729.63
492.84	5675.80
493.01	5813.89
493.19	5621.97
493.37	5858.36
493.54	5720.27
493.72	5844.32
493.90	5860.70
494.08	6190.72
494.25	6106.46
494.43	6375.62
494.61	6326.47
494.79	6181.35
494.96	6148.59
495.14	6171.99
495.32	5795.17
495.49	5717.93
495.67	5832.62
495.85	6291.36
496.02	6127.52
496.20	6296.04
496.38	6104.12
496.55	6139.23
496.73	6312.42
496.91	6211.78
497.09	6525.41
497.26	6525.41
497.44	6431.79
497.62	6218.80
497.79	6270.30
497.97	5921.56
498.14	5984.75
498.32	6031.56
498.50	6195.40
498.67	6403.71
498.85	6384.98
499.03	6242.21
499.20	6623.72
499.38	6338.17
499.56	6380.30
499.73	6324.13
499.91	6171.99
500.08	6097.10
500.26	5907.51
500.44	6228.17
500.61	6300.72
500.79	6090.07
500.97	5982.41
501.14	6080.71
501.32	5975.39
501.49	5874.74
501.67	6104.12
501.84	6183.70
502.02	6200.08
502.20	6286.68
502.37	6401.37
502.55	6305.40
502.72	6413.07
502.90	6469.24
503.07	6298.38
503.25	6076.03
503.43	5963.68
503.60	5734.31
503.78	5771.76
503.95	5891.13
504.13	6113.48
504.30	6333.49
504.48	6345.19
504.65	6403.71
504.83	6305.40
505.01	6242.21
505.18	6455.20
505.36	6562.86
505.53	6485.62
505.71	6822.66
505.88	6647.12
506.06	6642.44
506.23	6548.82
506.41	6296.04
506.58	6523.07
506.76	6513.71
506.93	6413.07
507.11	6424.77
507.28	6267.95
507.46	6377.96
507.63	6099.44
507.81	6111.14
507.98	6319.45
508.16	6230.51
508.33	6455.20
508.50	6623.72
508.68	6649.46
508.85	6881.18
509.03	6796.92
509.20	6890.54
509.38	6703.29
509.55	6558.18
509.73	6384.98
509.90	6665.85
510.08	6679.89
510.25	6710.32
510.42	6722.02
510.60	6590.95
510.77	6869.47
510.95	6892.88
511.12	6822.66
511.30	6829.68
511.47	6970.12
511.64	6918.62
511.82	6902.24
511.99	6679.89
512.17	6516.05
512.34	6462.22
512.51	6555.84
512.69	6672.87
512.86	6651.80
513.04	6801.60
513.21	6626.06
513.38	6754.79
513.56	6630.74
513.73	6293.70
513.90	6558.18
514.08	6497.33
514.25	6576.91
514.43	6609.67
514.60	6637.76
514.77	6609.67
514.95	6712.66
515.12	6679.89
515.29	6740.74
515.47	6909.26
515.64	6803.94
515.81	6874.15
515.99	6691.59
516.16	6326.47
516.33	5991.77
516.51	5816.23
516.68	5507.28
516.85	5371.53
517.03	5600.90
517.20	5827.93
517.37	6326.47
517.54	6679.89
517.72	6640.10
517.89	6258.59
518.06	5626.65
518.24	5701.54
518.41	6054.97
518.58	6406.05
518.75	6436.47
518.93	6534.78
519.10	6569.88
519.27	6607.33
519.45	6431.79
519.62	6658.82
519.79	6700.95
519.96	6932.67
520.14	6792.23
520.31	6612.01
520.48	6368.60
520.65	6560.52
520.83	6874.15
521.00	6932.67
521.17	6799.26
521.34	6775.85
521.52	6974.80
521.69	6960.75
521.86	6979.48
522.03	6953.73
522.20	6892.88
522.38	6394.34
522.55	6331.15
522.72	6586.27
522.89	6715.00
523.07	6738.40
523.24	6743.08
523.41	6895.22
523.58	7021.61
523.75	7169.06
523.92	7049.69
524.10	7321.20
524.27	6956.07
524.44	6878.83
524.61	6949.05
524.78	6906.92
524.96	6878.83
525.13	6787.55
525.30	7045.01
525.47	7026.29
525.64	7091.82
525.81	6883.52
525.98	6609.67
526.16	6319.45
526.33	6071.35
526.50	5996.45
526.67	5949.64
526.84	5940.28
527.01	6200.08
527.18	6518.39
527.36	6452.86
527.53	6719.68
527.70	6747.76
527.87	6853.09
528.04	6736.06
528.21	6710.32
528.38	6960.75
528.55	7201.83
528.72	7309.49
528.89	7119.91
529.07	7220.55
529.24	6993.52
529.41	6853.09
529.58	6616.69
529.75	6656.48
529.92	6773.51
530.09	6857.77
530.26	6995.86
530.43	7021.61
530.60	7026.29
530.77	7255.66
530.94	7358.64
531.11	6977.14
531.28	7143.32
531.46	6970.12
531.63	7082.46
531.80	6743.08
531.97	6923.30
532.14	6731.38
532.31	6527.75
532.48	6349.87
532.65	6349.87
532.82	6324.13
532.99	6670.53
533.16	6979.48
533.33	6932.67
533.50	6911.60
533.67	6731.38
533.84	6644.78
534.01	6752.45
534.18	6892.88
534.35	7030.97
534.52	6757.13
534.69	6949.05
534.86	6970.12
535.03	6993.52
535.20	7012.24
535.37	7194.81
535.54	7192.47
535.71	6899.90
535.88	7152.68
536.05	6916.28
536.22	6846.07
536.38	6829.68
536.55	6644.78
536.72	6628.40
536.89	6530.09
537.06	6647.12
537.23	6895.22
537.40	6876.49
537.57	6906.92
537.74	6883.52
537.91	6960.75
538.08	7000.54
538.25	6864.79
538.42	6874.15
538.59	6871.81
538.75	6693.93
538.92	6773.51
539.09	6719.68
539.26	6576.91
539.43	6609.67
539.60	6637.76
539.77	6637.76
539.94	6485.62
540.11	6441.15
540.28	6370.94
540.44	6384.98
540.61	6567.54
540.78	6518.39
540.95	6626.06
541.12	6871.81
541.29	6792.23
541.46	6930.33
541.62	7194.81
541.79	7026.29
541.96	6937.35
542.13	6801.60
542.30	6768.83
542.47	6953.73
542.63	6649.46
542.80	6712.66
542.97	6857.77
543.14	6834.36
543.31	6679.89
543.48	6743.08
543.64	6923.30
543.81	7098.84
543.98	6974.80
544.15	6939.69
544.32	6803.94
544.48	6682.23
544.65	6974.80
544.82	7033.31
544.99	6977.14
545.16	6806.28
545.32	6752.45
545.49	7152.68
545.66	7597.38
545.83	7728.45
546.00	7407.80
546.16	7112.89
546.33	7005.22
546.50	6768.83
546.67	7037.99
546.83	6780.53
547.00	6609.67
547.17	6665.85
547.34	6516.05
547.50	6590.95
547.67	6614.35
547.84	6649.46
548.00	6609.67
548.17	6726.70
548.34	6899.90
548.51	6707.98
548.67	6810.96
548.84	6895.22
549.01	6663.51
549.18	6684.57
549.34	6546.48
549.51	6614.35
549.68	6841.39
549.84	6558.18
550.01	6588.61
550.18	6604.99
550.34	6705.63
550.51	6572.22
550.68	6626.06
550.84	6464.56
551.01	6452.86
551.18	6427.11
551.34	6588.61
551.51	6642.44
551.68	6686.91
551.84	6736.06
552.01	6583.93
552.18	6640.10
552.34	6567.54
552.51	6338.17
552.68	6265.61
552.84	6527.75
553.01	6434.13
553.18	6518.39
553.34	6602.65
553.51	6619.04
553.67	6616.69
553.84	6567.54
554.01	6796.92
554.17	6452.86
554.34	6377.96
554.51	6569.88
554.67	6623.72
554.84	6764.15
555.00	6551.16
555.17	6532.44
555.33	6579.25
555.50	6539.46
555.67	6480.94
555.83	6396.68
556.00	6403.71
556.16	6399.02
556.33	6321.79
556.50	6307.74
556.66	6413.07
556.83	6195.40
556.99	6256.25
557.16	6438.81
557.32	6160.29
557.49	6394.34
557.65	6260.93
557.82	6422.43
557.98	6319.45
558.15	6127.52
558.32	6230.51
558.48	5968.37
558.65	5865.38
558.81	5977.73
558.98	6092.41
559.14	6003.47
559.31	5951.98
559.47	6169.65
559.64	6120.50
559.80	5998.79
559.97	6090.07
560.13	6090.07
560.30	6104.12
560.46	6307.74
560.63	6469.24
560.79	6342.85
560.96	6392.00
561.12	6090.07
561.29	5881.77
561.45	5928.58
561.61	6106.46
561.78	6258.59
561.94	6069.01
562.11	5968.37
562.27	6010.50
562.44	6087.73
562.60	6157.95
562.77	6171.99
562.93	6317.11
563.10	6310.08
563.26	6092.41
563.42	6113.48
563.59	6059.65
563.75	6047.94
563.92	6071.35
564.08	5961.34
564.24	6270.30
564.41	6101.78
564.57	6171.99
564.74	6073.69
564.90	5984.75
565.07	5935.60
565.23	5863.04
565.39	5720.27
565.56	5858.36
565.72	5795.17
565.88	5823.25
566.05	5738.99
566.21	5666.44
566.38	5916.87
566.54	5874.74
566.70	5954.32
566.87	6223.48
567.03	6087.73
567.19	5914.53
567.36	5877.09
567.52	5987.09
567.68	5706.23
567.85	5797.51
568.01	5724.95
568.17	5371.53
568.34	5430.04
568.50	5479.19
568.66	5441.75
568.83	5542.39
568.99	5397.28
569.15	5621.97
569.32	5598.56
569.48	5497.92
569.64	5518.98
569.81	5364.51
569.97	5481.53
570.13	5483.88
570.30	5430.04
570.46	5474.51
570.62	5425.36
570.78	5214.71
570.95	5305.99
571.11	5495.58
571.27	5411.32
571.43	5516.64
571.60	5565.79
571.76	5579.84
571.92	5530.69
572.09	5657.07
572.25	5589.20
572.41	5479.19
572.57	5575.16
572.74	5507.28
572.90	5563.45
573.06	5703.89
573.22	5631.33
573.38	5486.22
573.55	5600.90
573.71	5526.00
573.87	5696.86
574.03	5511.96
574.20	5366.85
574.36	5446.43
574.52	5418.34
574.68	5416.00
574.84	5483.88
575.01	5408.98
575.17	5418.34
575.33	5238.12
575.49	5221.74
575.65	5273.23
575.82	5371.53
575.98	5289.61
576.14	5418.34
576.30	5621.97
576.46	5558.77
576.62	5495.58
576.79	5577.50
576.95	5371.53
577.11	5413.66
577.27	5329.40
577.43	5418.34
577.59	5378.55
577.75	5280.25
577.92	5228.76
578.08	5048.54
578.24	5139.82
578.40	5254.50
578.56	5331.74
578.72	5352.81
578.88	5394.93
579.04	5273.23
579.21	5434.72
579.37	5483.88
579.53	5523.66
579.69	5416.00
579.85	5338.76
580.01	5444.09
580.17	5444.09
580.33	5266.21
580.49	5408.98
580.65	5453.45
580.82	5341.10
580.98	5481.53
581.14	5418.34
581.30	5488.56
581.46	5327.06
581.62	5493.24
581.78	5423.02
581.94	5598.56
582.10	5392.59
582.26	5439.40
582.42	5568.13
582.58	5446.43
582.74	5399.62
582.90	5430.04
583.06	5509.62
583.22	5408.98
583.38	5544.73
583.54	5303.65
583.70	5441.75
583.86	5540.05
584.02	5467.49
584.18	5460.47
584.34	5387.91
584.50	5390.25
584.66	5310.68
584.82	5184.29
584.98	5137.48
585.14	5256.84
585.30	5228.76
585.46	5144.50
585.62	5013.43
585.78	4992.36
585.94	5107.05
586.10	5359.83
586.26	5085.98
586.42	5268.55
586.58	5165.56
586.74	5165.56
586.90	5280.25
587.06	5224.08
587.22	5165.56
587.38	5067.26
587.54	4905.76
587.70	4821.50
587.86	4711.50
588.02	4592.13
588.18	4676.39
588.34	4432.97
588.49	4187.22
588.65	3985.93
588.81	3784.65
588.97	3960.19
589.13	3843.16
589.29	3829.12
589.45	3899.33
589.61	3822.09
589.77	4021.04
589.93	4250.41
590.08	4306.59
590.24	4348.72
590.40	4505.53
590.56	4505.53
590.72	4423.61
590.88	4334.67
591.04	4411.91
591.20	4428.29
591.35	4339.35
591.51	4456.38
591.67	4198.92
591.83	4224.67
591.99	4318.29
592.15	4257.43
592.31	4381.48
592.46	4372.12
592.62	4507.87
592.78	4437.66
592.94	4470.42
593.10	4582.77
593.26	4695.11
593.41	4748.95
593.57	4571.07
593.73	4334.67
593.89	4236.37
594.05	4112.32
594.20	4100.62
594.36	4168.49
594.52	3950.82
594.68	4112.32
594.84	4208.28
594.99	4411.91
595.15	4416.59
595.31	4444.68
595.47	4397.87
595.62	4447.02
595.78	4358.08
595.94	4669.37
596.10	4528.94
596.25	4498.51
596.41	4334.67
596.57	4432.97
596.73	4428.29
596.88	4526.60
597.04	4594.47
597.20	4379.14
597.36	4432.97
597.51	4409.57
597.67	4505.53
597.83	4636.60
