SpectraSuite Data File
++++++++++++++++++++++++++++++++++++
Date: Fri Oct 04 11:39:19 GMT-05:00 2013
User: price-jones
Dark Spectrum Present: No
Reference Spectrum Present: No
Number of Sampled Component Spectra: 1
Spectrometers: USB2+H05261
Integration Time (usec): 100000 (USB2+H05261)
Spectra Averaged: 1 (USB2+H05261)
Boxcar Smoothing: 0 (USB2+H05261)
Correct for Electrical Dark: No (USB2+H05261)
Strobe/Lamp Enabled: No (USB2+H05261)
Correct for Detector Non-linearity: No (USB2+H05261)
Correct for Stray Light: No (USB2+H05261)
Number of Pixels in Processed Spectrum: 2048
>>>>>Begin Processed Spectral Data<<<<<
365.73	91.28
365.92	91.28
366.12	91.28
366.32	0.00
366.52	0.00
366.72	0.00
366.91	0.00
367.11	56.17
367.31	0.00
367.51	0.00
367.70	14.04
367.90	2.34
368.10	0.00
368.30	0.00
368.49	0.00
368.69	0.00
368.89	0.00
369.09	0.00
369.28	0.00
369.48	0.00
369.68	0.00
369.87	14.04
370.07	0.00
370.27	14.04
370.47	95.96
370.66	231.71
370.86	205.97
371.06	337.04
371.25	311.29
371.45	250.44
371.65	234.05
371.84	292.57
372.04	304.27
372.24	308.95
372.44	355.76
372.63	346.40
372.83	322.99
373.03	243.42
373.22	290.23
373.42	325.33
373.62	285.55
373.81	280.86
374.01	372.15
374.21	425.98
374.40	355.76
374.60	404.91
374.79	461.09
374.99	292.57
375.19	372.15
375.38	381.51
375.58	322.99
375.78	437.68
375.97	428.32
376.17	493.85
376.37	418.96
376.56	306.61
376.76	337.04
376.95	451.72
377.15	400.23
377.35	379.17
377.54	330.02
377.74	430.66
377.93	475.13
378.13	395.55
378.33	383.85
378.52	468.11
378.72	418.96
378.91	374.49
379.11	397.89
379.31	444.70
379.50	433.00
379.70	433.00
379.89	496.19
380.09	362.78
380.28	381.51
380.48	428.32
380.68	425.98
380.87	362.78
381.07	479.81
381.26	531.30
381.46	454.06
381.65	461.09
381.85	484.49
382.04	458.74
382.24	507.90
382.43	512.58
382.63	477.47
382.83	440.02
383.02	521.94
383.22	496.19
383.41	440.02
383.61	543.00
383.80	528.96
384.00	531.30
384.19	449.38
384.39	486.83
384.58	461.09
384.78	402.57
384.97	507.90
385.17	507.90
385.36	545.34
385.56	540.66
385.75	575.77
385.95	585.13
386.14	568.75
386.34	524.28
386.53	566.41
386.72	512.58
386.92	613.22
387.11	552.37
387.31	540.66
387.50	582.79
387.70	566.41
387.89	505.56
388.09	589.82
388.28	669.39
388.48	615.56
388.67	645.99
388.86	573.43
389.06	578.11
389.25	685.78
389.45	580.45
389.64	601.52
389.84	622.58
390.03	622.58
390.22	627.26
390.42	660.03
390.61	641.31
390.81	657.69
391.00	594.50
391.19	692.80
391.39	620.24
391.58	634.29
391.78	606.20
391.97	716.20
392.16	573.43
392.36	664.71
392.55	795.78
392.75	681.10
392.94	739.61
393.13	737.27
393.33	739.61
393.52	758.33
393.71	711.52
393.91	716.20
394.10	704.50
394.29	727.91
394.49	770.04
394.68	734.93
394.88	723.23
395.07	791.10
395.26	755.99
395.46	765.36
395.65	809.83
395.84	873.02
396.04	901.11
396.23	889.40
396.42	753.65
396.62	891.74
396.81	786.42
397.00	812.17
397.19	828.55
397.39	943.24
397.58	873.02
397.77	856.64
397.97	823.87
398.16	915.15
398.35	931.53
398.55	912.81
398.74	880.04
398.93	870.68
399.12	994.73
399.32	983.02
399.51	952.60
399.70	943.24
399.90	1011.11
400.09	1050.90
400.28	1004.09
400.47	973.66
400.67	1025.15
400.86	1034.52
401.05	887.06
401.24	1102.39
401.44	1076.65
401.63	997.07
401.82	1128.14
402.01	1088.35
402.21	1090.69
402.40	1158.57
402.59	1086.01
402.78	1100.05
402.97	1210.06
403.17	1160.91
403.36	1121.12
403.55	1193.67
403.74	1118.78
403.93	1181.97
404.13	1296.66
404.32	1282.61
404.51	1308.36
404.70	1207.72
404.89	1254.53
405.09	1268.57
405.28	1270.91
405.47	1259.21
405.66	1301.34
405.85	1338.79
406.05	1338.79
406.24	1418.36
406.43	1411.34
406.62	1401.98
406.81	1537.73
407.00	1507.30
407.20	1348.15
407.39	1306.02
407.58	1488.58
407.77	1474.54
407.96	1526.03
408.15	1500.28
408.34	1392.62
408.54	1458.15
408.73	1490.92
408.92	1493.26
409.11	1575.18
409.30	1565.82
409.49	1544.75
409.68	1624.33
409.87	1547.09
410.07	1640.72
410.26	1619.65
410.45	1708.59
410.64	1811.57
410.83	1713.27
411.02	1757.74
411.21	1774.13
411.40	1722.63
411.59	1762.42
411.78	1734.34
411.98	1764.76
412.17	1842.00
412.36	1818.60
412.55	1914.56
412.74	1886.47
412.93	1914.56
413.12	1907.54
413.31	2017.54
413.50	1973.07
413.69	1940.30
413.88	2033.93
414.07	1944.99
414.26	2080.74
414.45	2115.84
414.64	2260.96
414.83	2150.95
415.02	2125.21
415.22	2183.72
415.41	2260.96
415.60	2216.49
415.79	2335.85
415.98	2307.77
416.17	2282.02
416.36	2193.08
416.55	2246.91
416.74	2333.51
416.93	2328.83
417.12	2415.43
417.31	2401.39
417.50	2410.75
417.69	2537.14
417.88	2455.22
418.07	2450.54
418.26	2476.29
418.45	2441.18
418.64	2609.70
418.83	2581.61
419.02	2534.80
419.21	2642.46
419.39	2597.99
419.58	2747.79
419.77	2562.89
419.96	2665.87
420.15	2757.15
420.34	2581.61
420.53	2626.08
420.72	2878.86
420.91	2740.77
421.10	2815.66
421.29	2878.86
421.48	2806.30
421.67	2869.50
421.86	2862.48
422.05	2970.14
422.24	2876.52
422.43	2806.30
422.61	2911.63
422.80	2780.56
422.99	2946.73
423.18	2974.82
423.37	2944.39
423.56	3047.38
423.75	2853.11
423.94	2867.16
424.13	2761.83
424.32	2698.64
424.50	2918.65
424.69	3028.65
424.88	3115.25
425.07	2897.58
425.26	2764.17
425.45	2930.35
425.64	2888.22
425.83	3047.38
426.01	2939.71
426.20	3021.63
426.39	3033.33
426.58	3000.57
426.77	3026.31
426.96	3075.46
427.15	3124.62
427.33	3129.30
427.52	3171.43
427.71	3082.49
427.90	3112.91
428.09	3145.68
428.28	3342.28
428.46	3262.71
428.65	3297.81
428.84	3358.67
429.03	3356.33
429.22	3398.46
429.40	3391.44
429.59	3286.11
429.78	3152.70
429.97	3148.02
430.16	3274.41
430.34	3435.91
430.53	3407.82
430.72	3346.97
430.91	3379.73
431.10	3433.57
431.28	3456.97
431.47	3522.51
431.66	3576.34
431.85	3571.66
432.03	3639.53
432.22	3543.57
432.41	3534.21
432.60	3604.42
432.79	3672.30
432.97	3433.57
433.16	3641.87
433.35	3508.46
433.54	3676.98
433.72	3672.30
433.91	3709.75
434.10	3712.09
434.28	3602.08
434.47	3688.68
434.66	3686.34
434.85	3772.94
435.03	3997.64
435.22	3941.46
435.41	4248.07
435.59	4255.09
435.78	4126.36
435.97	4072.53
436.16	4039.76
436.34	3871.25
436.53	3988.27
436.72	4074.87
436.90	3913.38
437.09	3988.27
437.28	3967.21
437.46	3927.42
437.65	4053.81
437.84	4079.55
438.02	4065.51
438.21	4161.47
438.40	4093.60
438.58	4173.18
438.77	4299.56
438.96	4198.92
439.14	4428.29
439.33	4409.57
439.52	4315.95
439.70	4219.99
439.89	4512.55
440.08	4325.31
440.26	4411.91
440.45	4512.55
440.63	4552.34
440.82	4594.47
441.01	4463.40
441.19	4594.47
441.38	4587.45
441.57	4706.82
441.75	4746.61
441.94	4891.72
442.12	4798.10
442.31	4926.83
442.50	5006.41
442.68	4833.21
442.87	4887.04
443.05	4880.02
443.24	4908.10
443.43	4929.17
443.61	4849.59
443.80	5032.15
443.98	4905.76
444.17	4828.53
444.35	5060.24
444.54	4961.94
444.73	5125.77
444.91	5102.37
445.10	4936.19
445.28	4821.50
445.47	5011.09
445.65	5090.67
445.84	5071.94
446.02	5128.11
446.21	4894.06
446.39	4957.25
446.58	5132.79
446.77	5107.05
446.95	4985.34
447.14	5163.22
447.32	5268.55
447.51	5027.47
447.69	5104.71
447.88	5128.11
448.06	5015.77
448.25	5160.88
448.43	5149.18
448.62	5125.77
448.80	5146.84
448.99	5298.97
449.17	5177.26
449.36	5174.92
449.54	5439.40
449.73	5427.70
449.91	5270.89
450.10	5263.86
450.28	5432.38
450.46	5378.55
450.65	5680.48
450.83	5446.43
451.02	5486.22
451.20	5518.98
451.39	5645.37
451.57	5437.06
451.76	5521.32
451.94	5591.54
452.13	5675.80
452.31	5593.88
452.49	5551.75
452.68	5612.60
452.86	5867.72
453.05	5605.58
453.23	5837.30
453.42	5715.59
453.60	5584.52
453.78	5636.01
453.97	5661.76
454.15	5729.63
454.34	5537.71
454.52	5996.45
454.70	5888.79
454.89	5914.53
455.07	6024.54
455.26	6061.99
455.44	6059.65
455.62	5795.17
455.81	5818.57
455.99	5947.30
456.17	6069.01
456.36	6064.33
456.54	6235.19
456.73	6230.51
456.91	6209.44
457.09	6270.30
457.28	6317.11
457.46	6356.90
457.64	6134.54
457.83	6303.06
458.01	6225.82
458.19	6314.77
458.38	6427.11
458.56	6345.19
458.74	6562.86
458.93	6157.95
459.11	6490.31
459.29	6457.54
459.48	6588.61
459.66	6518.39
459.84	6560.52
460.03	6862.45
460.21	6424.77
460.39	6621.38
460.57	6455.20
460.76	6530.09
460.94	6747.76
461.12	6651.80
461.31	6644.78
461.49	6633.08
461.67	6890.54
461.85	6787.55
462.04	6906.92
462.22	7346.94
462.40	6911.60
462.59	6787.55
462.77	6878.83
462.95	6904.58
463.13	6885.86
463.32	7030.97
463.50	6927.99
463.68	6977.14
463.86	6916.28
464.05	7000.54
464.23	6939.69
464.41	7105.87
464.59	6993.52
464.78	7103.53
464.96	7091.82
465.14	7028.63
465.32	7119.91
465.50	7370.35
465.69	7384.39
465.87	7248.64
466.05	7155.02
466.23	7166.72
466.41	7283.75
466.60	7623.12
466.78	7323.54
466.96	7440.56
467.14	7297.79
467.32	7426.52
467.51	7311.83
467.69	7468.65
467.87	7480.35
468.05	7456.95
468.23	7225.23
468.41	7344.60
468.60	7536.52
468.78	7723.77
468.96	7417.16
469.14	7571.63
469.32	7679.30
469.50	7463.97
469.69	7826.75
469.87	7775.26
470.05	7782.28
470.23	7852.50
470.41	7770.58
470.59	7988.25
470.77	7822.07
470.95	7936.76
471.14	8016.33
471.32	7784.62
471.50	8264.43
471.68	8124.00
471.86	8325.29
472.04	8177.83
472.22	8423.59
472.40	8142.72
472.58	8028.04
472.77	8297.20
472.95	8372.10
473.13	8702.11
473.31	8280.82
473.49	8418.91
473.67	8505.51
473.85	8418.91
474.03	8709.13
474.21	8599.13
474.39	8858.93
474.57	8915.10
474.75	8793.39
474.93	9092.98
475.12	8840.20
475.30	9025.11
475.48	8858.93
475.66	9083.62
475.84	9329.38
476.02	9245.12
476.20	9078.94
476.38	9308.31
476.56	9500.23
476.74	9537.68
476.92	9462.79
477.10	9430.02
477.28	9488.53
477.46	9554.07
477.64	9776.42
477.82	9736.63
478.00	10068.98
478.18	10052.60
478.36	10083.03
478.54	10136.86
478.72	10232.82
478.90	10162.61
479.08	10178.99
479.26	10427.09
479.44	10401.34
479.62	10658.80
479.80	10743.06
479.98	11117.54
480.16	10803.91
480.34	10939.66
480.52	10995.84
480.70	11180.74
480.88	11052.01
481.06	11169.04
481.24	11145.63
481.41	11426.50
481.59	11473.31
481.77	11576.29
481.95	11587.99
482.13	11751.83
482.31	11637.14
482.49	11861.84
482.67	11992.90
482.85	12243.34
483.03	12121.63
483.21	12360.37
483.39	12173.13
483.57	12231.64
483.74	12407.18
483.92	12566.34
484.10	12617.83
484.28	12947.84
484.46	13146.79
484.64	13219.35
484.82	12985.29
485.00	13053.17
485.18	13366.80
485.35	13301.26
485.53	13411.27
485.71	13776.39
485.89	14169.60
486.07	13888.74
486.25	13898.10
486.43	13671.07
486.61	14239.82
486.78	14277.27
486.96	14340.46
487.14	14513.66
487.32	14604.94
487.50	14897.51
487.68	14700.90
487.85	14986.45
488.03	15084.75
488.21	15311.78
488.39	15510.73
488.57	15719.04
488.75	15449.88
488.92	15791.59
489.10	15929.69
489.28	15700.31
489.46	16159.06
489.64	16166.08
489.81	16449.28
489.99	16308.85
490.17	16353.32
490.35	16613.12
490.53	16802.71
490.70	16842.50
490.88	17118.68
491.06	17191.23
491.24	17029.74
491.41	17165.49
491.59	17249.75
491.77	17701.47
491.95	17474.44
492.13	17668.70
492.30	17879.35
492.48	17596.15
492.66	17881.69
492.84	17905.10
493.01	17869.99
493.19	18202.35
493.37	18560.45
493.54	18448.10
493.72	18436.40
493.90	18661.09
494.08	18885.78
494.25	19143.24
494.43	19028.56
494.61	19257.93
494.79	19412.40
494.96	19381.98
495.14	19578.58
495.32	19609.01
495.49	19728.38
495.67	19580.92
495.85	19885.19
496.02	20044.35
496.20	20264.36
496.38	19960.09
496.55	20255.00
496.73	20554.58
496.91	20765.23
497.09	20861.19
497.26	20926.73
497.44	20662.25
497.62	20706.72
497.79	21010.99
497.97	21029.71
498.14	21273.13
498.32	21563.36
498.50	21394.84
498.67	21668.68
498.85	21708.47
499.03	21769.32
499.20	21766.98
499.38	21881.67
499.56	22040.82
499.73	22225.73
499.91	22574.47
500.08	22080.61
500.26	22317.01
500.44	22499.57
500.61	22824.90
500.79	22607.23
500.97	22349.78
501.14	22485.53
501.32	23009.81
501.49	23108.11
501.67	23033.21
501.84	22869.37
502.02	22831.93
502.20	23206.41
502.37	23569.19
502.55	23309.40
502.72	23356.21
502.90	23276.63
503.07	23197.05
503.25	23410.04
503.43	23520.04
503.60	23896.87
503.78	23971.77
503.95	23859.42
504.13	24189.44
504.30	24187.10
504.48	23990.49
504.65	24077.09
504.83	24245.61
505.01	24379.02
505.18	24526.47
505.36	24676.27
505.53	24814.36
505.71	24467.96
505.88	24699.67
506.06	24907.98
506.23	25186.50
506.41	24971.18
506.58	25137.35
506.76	25015.65
506.93	25198.21
507.11	24889.26
507.28	25558.65
507.46	25394.81
507.63	26038.46
507.81	25834.83
507.98	25553.97
508.16	25811.43
508.33	25687.38
508.50	25869.94
508.68	26075.91
508.85	26176.55
509.03	26382.52
509.20	26195.28
509.38	26614.23
509.55	26405.92
509.73	26703.17
509.90	26738.28
510.08	26766.37
510.25	26625.93
510.42	26939.57
510.60	27274.26
510.77	27159.58
510.95	27159.58
511.12	27044.89
511.30	27014.46
511.47	27140.85
511.64	27452.14
511.82	27274.26
511.99	27620.66
512.17	27480.23
512.34	27718.96
512.51	28079.41
512.69	28011.53
512.86	27796.20
513.04	27896.85
513.21	28067.70
513.38	28348.57
513.56	28142.60
513.73	28210.48
513.90	28205.80
514.08	28346.23
514.25	28577.94
514.43	28620.07
514.60	28837.74
514.77	28933.70
514.95	28886.89
515.12	28371.97
515.29	28727.74
515.47	29551.60
515.64	29289.46
515.81	28987.53
515.99	29436.92
516.16	29193.50
516.33	29865.24
516.51	29483.73
516.68	29027.32
516.85	29357.34
517.03	29565.65
517.20	29914.39
517.37	29383.09
517.54	30115.67
517.72	29862.90
517.89	29654.59
518.06	29909.71
518.24	30127.38
518.41	29951.84
518.58	30244.40
518.75	30103.97
518.93	30396.54
519.10	29979.92
519.27	30532.29
519.45	30047.80
519.62	30382.49
519.79	30590.80
519.96	30677.40
520.14	30984.01
520.31	30899.75
520.48	30859.96
520.65	30534.63
520.83	31061.25
521.00	30630.59
521.17	31187.64
521.34	31023.80
521.52	31276.58
521.69	31281.26
521.86	31707.24
522.03	31583.19
522.20	31885.12
522.38	31262.54
522.55	31590.21
522.72	31782.13
522.89	31524.68
523.07	32360.25
523.24	31999.80
523.41	32339.18
523.58	31906.18
523.75	32163.64
523.92	31868.73
524.10	32224.50
524.27	32458.55
524.44	32428.12
524.61	32364.93
524.78	32446.85
524.96	32510.04
525.13	32746.44
525.30	32697.28
525.47	32877.51
525.64	32891.55
525.81	33205.18
525.98	32755.80
526.16	33055.39
526.33	33209.86
526.50	33415.83
526.67	32854.10
526.84	33357.32
527.01	33263.69
527.18	33078.79
527.36	33158.37
527.53	33507.11
527.70	34103.95
527.87	33750.52
528.04	33855.85
528.21	34022.03
528.38	33446.26
528.55	33551.58
528.72	33680.31
528.89	34094.58
529.07	33787.97
529.24	33963.51
529.41	34141.39
529.58	34061.82
529.75	33717.76
529.92	33888.62
530.09	34101.61
530.26	34312.25
530.43	34366.09
530.60	34216.29
530.77	34473.75
530.94	34710.14
531.11	34487.79
531.28	34298.21
531.46	34436.30
531.63	34951.22
531.80	34909.09
531.97	35262.51
532.14	35292.94
532.31	34909.09
532.48	35143.14
532.65	34485.45
532.82	34951.22
532.99	35023.78
533.16	35395.92
533.33	35473.16
533.50	35667.42
533.67	35487.20
533.84	35117.40
534.01	34710.14
534.18	35236.77
534.35	35463.80
534.52	35187.61
534.69	36156.60
534.86	35934.24
535.03	35299.96
535.20	35880.41
535.37	35871.05
535.54	35894.46
535.71	35454.44
535.88	35906.16
536.05	36168.30
536.22	36034.89
536.38	36224.47
536.55	36411.71
536.72	36067.66
536.89	36034.89
537.06	36268.94
537.23	36212.77
537.40	36020.84
537.57	36723.01
537.74	36430.44
537.91	36673.85
538.08	36907.91
538.25	36144.89
538.42	36580.23
538.59	37083.45
538.75	36594.28
538.92	36507.68
539.09	36807.26
539.26	36718.32
539.43	37076.43
539.60	37207.50
539.77	37144.30
539.94	37460.27
540.11	37418.14
540.28	37432.19
540.44	37563.26
540.61	37125.58
540.78	37006.21
540.95	37471.98
541.12	37600.71
541.29	37717.73
541.46	38000.94
541.62	37841.78
541.79	37860.51
541.96	37654.54
542.13	37862.85
542.30	38087.54
542.47	38080.52
542.63	38022.00
542.80	38501.81
542.97	38391.81
543.14	38522.88
543.31	37935.40
543.48	38455.00
543.64	38553.30
543.81	38749.91
543.98	38932.47
544.15	38588.41
544.32	38955.88
544.48	39220.36
544.65	38899.70
544.82	38539.26
544.99	38328.61
545.16	38501.81
545.32	38747.57
545.49	39683.78
545.66	39531.65
545.83	39578.46
546.00	39604.20
546.16	39709.53
546.33	38946.51
546.50	38698.42
546.67	39313.98
546.83	38986.30
547.00	38913.75
547.17	39063.54
547.34	39049.50
547.50	39304.62
547.67	39590.16
547.84	39407.60
548.00	39358.45
548.17	39360.79
548.34	39562.08
548.51	39229.72
548.67	39707.19
548.84	39583.14
549.01	39599.52
549.18	39571.44
549.34	39817.19
549.51	39648.68
549.68	39283.55
549.84	39587.82
550.01	39723.57
550.18	39337.38
550.34	39725.91
550.51	40030.18
550.68	39758.68
550.84	39859.32
551.01	39819.53
551.18	39346.75
551.34	39400.58
551.51	39573.78
551.68	40018.48
551.84	40046.57
552.01	40357.86
552.18	40025.50
552.34	39814.85
552.51	40030.18
552.68	39683.78
552.84	39770.38
553.01	40037.20
553.18	40236.15
553.34	40240.83
553.51	40060.61
553.67	40275.94
553.84	40650.42
554.01	40921.93
554.17	40147.21
554.34	40828.30
554.51	40353.18
554.67	40299.34
554.84	40519.35
555.00	40247.85
555.17	40566.16
555.33	40760.43
555.50	40495.95
555.67	40612.98
555.83	40638.72
556.00	40636.38
556.16	40802.56
556.33	40638.72
556.50	40643.40
556.66	40863.41
556.83	40882.14
556.99	41209.81
557.16	41130.23
557.32	41408.76
557.49	40748.73
557.65	40992.14
557.82	40992.14
557.98	40491.27
558.15	40964.06
558.32	41282.37
558.48	40800.22
558.65	40856.39
558.81	41413.44
558.98	41230.88
559.14	41008.53
559.31	41013.21
559.47	40830.65
559.64	41464.93
559.80	40914.90
559.97	41469.61
560.13	41329.18
560.30	41123.21
560.46	41731.75
560.63	41696.64
560.79	41778.56
560.96	41610.04
561.12	41535.15
561.29	41837.08
561.45	40842.35
561.61	41596.00
561.78	41385.35
561.94	41497.70
562.11	41553.87
562.27	41263.64
562.44	41450.89
562.60	41633.45
562.77	41511.74
562.93	41539.83
563.10	41521.10
563.26	41972.83
563.42	42433.91
563.59	42337.95
563.75	41722.39
563.92	41998.57
564.08	41883.89
564.24	41303.43
564.41	41727.07
564.57	41680.26
564.74	41399.40
564.90	41834.74
565.07	41881.55
565.23	41975.17
565.39	42150.71
565.56	41837.08
565.72	41893.25
565.88	41806.65
566.05	42012.62
566.21	41507.06
566.38	41558.55
566.54	41844.10
566.70	42464.34
566.87	41918.99
567.03	42162.41
567.19	42316.89
567.36	42424.55
567.52	41848.78
567.68	42260.71
567.85	41612.38
568.01	42066.45
568.17	41935.38
568.34	42574.34
568.50	42359.02
568.66	42258.37
568.83	42499.45
568.99	41874.52
569.15	41972.83
569.32	41813.67
569.48	42019.64
569.64	41989.21
569.81	42061.77
569.97	41954.10
570.13	42141.35
570.30	42040.70
570.46	42270.08
570.62	42078.15
570.78	41926.02
570.95	42295.82
571.11	42244.33
571.27	42536.90
571.43	41907.29
571.60	42099.22
571.76	42038.36
571.92	42284.12
572.09	42347.31
572.25	42562.64
572.41	42513.49
572.57	42616.47
572.74	42522.85
572.90	42160.07
573.06	42850.53
573.22	42068.79
573.38	42267.73
573.55	42445.62
573.71	42988.62
573.87	42733.50
574.03	42267.73
574.20	42663.28
574.36	42405.83
574.52	42113.26
574.68	42010.28
574.84	42525.19
575.01	42639.88
575.17	42199.86
575.33	42134.32
575.49	42330.93
575.65	42712.44
575.82	42639.88
575.98	42405.83
576.14	42623.50
576.30	42586.05
576.46	42541.58
576.62	42660.94
576.79	42445.62
576.95	42656.26
577.11	42747.54
577.27	43335.02
577.43	42211.56
577.59	42382.42
577.75	43086.92
577.92	42597.75
578.08	42258.37
578.24	42539.24
578.40	42412.85
578.56	42518.17
578.72	42721.80
578.88	43536.30
579.04	43084.58
579.21	42995.64
579.37	42679.67
579.53	42923.08
579.69	42387.10
579.85	42803.72
580.01	42628.18
580.17	42738.18
580.33	42717.12
580.49	42632.86
580.65	42983.94
580.82	42621.16
580.98	42494.77
581.14	42663.28
581.30	42944.15
581.46	43089.26
581.62	42941.81
581.78	42782.65
581.94	42864.57
582.10	42464.34
582.26	42951.17
582.42	42562.64
582.58	42597.75
582.74	43344.38
582.90	43250.76
583.06	42880.95
583.22	42712.44
583.38	42864.57
583.54	42913.72
583.70	42726.48
583.86	42728.82
584.02	43058.84
584.18	42927.77
584.34	42976.92
584.50	43147.78
584.66	43157.14
584.82	43012.02
584.98	42890.32
585.14	43093.94
585.30	42644.56
585.46	42698.39
585.62	43068.20
585.78	42993.30
585.94	42939.47
586.10	43288.21
586.26	43262.46
586.42	43173.52
586.58	42883.30
586.74	43112.67
586.90	43171.18
587.06	43086.92
587.22	43379.49
587.38	43276.51
587.54	43423.96
587.70	43288.21
587.86	43349.06
588.02	43768.02
588.18	43681.42
588.34	43260.12
588.49	42925.42
588.65	42953.51
588.81	43091.60
588.97	43196.93
589.13	43208.63
589.29	43241.40
589.45	43421.62
589.61	43529.28
589.77	43332.68
589.93	43082.24
590.08	43613.54
590.24	43517.58
590.40	42883.30
590.56	43660.35
590.72	42906.70
590.88	42836.48
591.04	43086.92
