SpectraSuite Data File
++++++++++++++++++++++++++++++++++++
Date: Fri Oct 04 11:39:22 GMT-05:00 2013
User: price-jones
Dark Spectrum Present: No
Reference Spectrum Present: No
Number of Sampled Component Spectra: 1
Spectrometers: USB2+H05261
Integration Time (usec): 100000 (USB2+H05261)
Spectra Averaged: 1 (USB2+H05261)
Boxcar Smoothing: 0 (USB2+H05261)
Correct for Electrical Dark: No (USB2+H05261)
Strobe/Lamp Enabled: No (USB2+H05261)
Correct for Detector Non-linearity: No (USB2+H05261)
Correct for Stray Light: No (USB2+H05261)
Number of Pixels in Processed Spectrum: 2048
>>>>>Begin Processed Spectral Data<<<<<
365.73	21.06
365.92	21.06
366.12	21.06
366.32	0.00
366.52	0.00
366.72	0.00
366.91	0.00
367.11	0.00
367.31	0.00
367.51	0.00
367.70	0.00
367.90	60.85
368.10	0.00
368.30	0.00
368.49	0.00
368.69	30.43
368.89	0.00
369.09	0.00
369.28	0.00
369.48	0.00
369.68	0.00
369.87	9.36
370.07	0.00
370.27	56.17
370.47	2.34
370.66	222.35
370.86	245.76
371.06	292.57
371.25	257.46
371.45	262.14
371.65	252.78
371.84	194.26
372.04	318.31
372.24	248.10
372.44	297.25
372.63	327.68
372.83	308.95
373.03	266.82
373.22	322.99
373.42	294.91
373.62	259.80
373.81	339.38
374.01	290.23
374.21	365.12
374.40	311.29
374.60	327.68
374.79	334.70
374.99	369.80
375.19	421.30
375.38	351.08
375.58	306.61
375.78	430.66
375.97	358.10
376.17	461.09
376.37	362.78
376.56	341.72
376.76	430.66
376.95	409.59
377.15	486.83
377.35	337.04
377.54	430.66
377.74	444.70
377.93	365.12
378.13	414.27
378.33	395.55
378.52	456.40
378.72	428.32
378.91	510.24
379.11	397.89
379.31	449.38
379.50	393.21
379.70	489.17
379.89	484.49
380.09	425.98
380.28	437.68
380.48	465.77
380.68	397.89
380.87	397.89
381.07	414.27
381.26	456.40
381.46	425.98
381.65	416.62
381.85	367.46
382.04	404.91
382.24	512.58
382.43	449.38
382.63	456.40
382.83	470.45
383.02	472.79
383.22	479.81
383.41	430.66
383.61	428.32
383.80	493.85
384.00	524.28
384.19	550.03
384.39	381.51
384.58	433.00
384.78	510.24
384.97	524.28
385.17	571.09
385.36	585.13
385.56	535.98
385.75	491.51
385.95	547.69
386.14	505.56
386.34	543.00
386.53	568.75
386.72	517.26
386.92	510.24
387.11	559.39
387.31	545.34
387.50	510.24
387.70	557.05
387.89	564.07
388.09	561.73
388.28	594.50
388.48	543.00
388.67	582.79
388.86	573.43
389.06	573.43
389.25	596.84
389.45	603.86
389.64	688.12
389.84	634.29
390.03	641.31
390.22	617.90
390.42	578.11
390.61	547.69
390.81	643.65
391.00	568.75
391.19	601.52
391.39	606.20
391.58	657.69
391.78	702.16
391.97	608.54
392.16	603.86
392.36	741.95
392.55	758.33
392.75	629.60
392.94	741.95
393.13	653.01
393.33	711.52
393.52	589.82
393.71	676.41
393.91	781.74
394.10	624.92
394.29	706.84
394.49	798.12
394.68	763.01
394.88	753.65
395.07	763.01
395.26	760.67
395.46	795.78
395.65	800.46
395.84	779.40
396.04	884.72
396.23	774.72
396.42	807.48
396.62	807.48
396.81	854.30
397.00	819.19
397.19	866.00
397.39	894.08
397.58	812.17
397.77	844.93
397.97	938.55
398.16	954.94
398.35	929.19
398.55	896.43
398.74	908.13
398.93	1015.79
399.12	931.53
399.32	795.78
399.51	950.26
399.70	1013.45
399.90	889.40
400.09	973.66
400.28	968.98
400.47	947.92
400.67	1048.56
400.86	1039.20
401.05	1027.50
401.24	997.07
401.44	1139.84
401.63	1020.47
401.82	1116.44
402.01	1128.14
402.21	1137.50
402.40	1071.97
402.59	1139.84
402.78	1174.95
402.97	1193.67
403.17	1097.71
403.36	1160.91
403.55	1186.65
403.74	1240.48
403.93	1217.08
404.13	1313.04
404.32	1273.25
404.51	1200.69
404.70	1294.32
404.89	1219.42
405.09	1376.24
405.28	1282.61
405.47	1315.38
405.66	1327.08
405.85	1317.72
406.05	1341.13
406.24	1315.38
406.43	1401.98
406.62	1404.32
406.81	1533.05
407.00	1481.56
407.20	1380.92
407.39	1476.88
407.58	1486.24
407.77	1465.18
407.96	1554.12
408.15	1568.16
408.34	1420.71
408.54	1624.33
408.73	1570.50
408.92	1603.27
409.11	1659.44
409.30	1666.46
409.49	1570.50
409.68	1703.91
409.87	1678.16
410.07	1746.04
410.26	1717.95
410.45	1675.82
410.64	1891.15
410.83	1694.55
411.02	1713.27
411.21	1696.89
411.40	1762.42
411.59	1874.77
411.78	1797.53
411.98	1975.41
412.17	1881.79
412.36	1944.99
412.55	1947.33
412.74	2036.27
412.93	2015.20
413.12	1996.48
413.31	2022.22
413.50	2172.02
413.69	2019.88
413.88	2136.91
414.07	2218.83
414.26	2062.01
414.45	2179.04
414.64	2293.72
414.83	2275.00
415.02	2223.51
415.22	2209.47
415.41	2396.71
415.60	2366.28
415.79	2338.20
415.98	2366.28
416.17	2354.58
416.36	2363.94
416.55	2361.60
416.74	2427.14
416.93	2415.43
417.12	2495.01
417.31	2583.95
417.50	2497.35
417.69	2677.57
417.88	2518.42
418.07	2424.80
418.26	2605.02
418.45	2579.27
418.64	2799.28
418.83	2595.65
419.02	2640.12
419.21	2661.19
419.39	2796.94
419.58	2719.70
419.77	2736.09
419.96	2864.82
420.15	2881.20
420.34	2878.86
420.53	2949.08
420.72	2951.42
420.91	2892.90
421.10	2916.31
421.29	2918.65
421.48	2977.16
421.67	2935.03
421.86	2991.20
422.05	2974.82
422.24	2888.22
422.43	2895.24
422.61	2974.82
422.80	2965.46
422.99	3052.06
423.18	2937.37
423.37	3012.27
423.56	3059.08
423.75	3033.33
423.94	3033.33
424.13	2822.69
424.32	2967.80
424.50	3096.53
424.69	3103.55
424.88	3164.40
425.07	2998.23
425.26	3000.57
425.45	3206.53
425.64	3096.53
425.83	3162.06
426.01	3262.71
426.20	3389.10
426.39	3164.40
426.58	3122.27
426.77	3180.79
426.96	3220.58
427.15	3272.07
427.33	3213.56
427.52	3236.96
427.71	3302.50
427.90	3281.43
428.09	3234.62
428.28	3424.20
428.46	3417.18
428.65	3461.65
428.84	3407.82
429.03	3386.76
429.22	3375.05
429.40	3377.39
429.59	3482.72
429.78	3463.99
429.97	3349.31
430.16	3471.01
430.34	3398.46
430.53	3665.28
430.72	3679.32
430.91	3524.85
431.10	3421.86
431.28	3627.83
431.47	3667.62
431.66	3581.02
431.85	3494.42
432.03	3754.22
432.22	3843.16
432.41	3733.15
432.60	3775.28
432.79	3679.32
432.97	3735.50
433.16	3726.13
433.35	3840.82
433.54	3796.35
433.72	3812.73
433.91	3751.88
434.10	3836.14
434.28	3829.12
434.47	3904.01
434.66	4063.17
434.85	4028.06
435.03	4093.60
435.22	4259.78
435.41	4500.85
435.59	4386.16
435.78	4320.63
435.97	4243.39
436.16	4056.15
436.34	4117.00
436.53	4084.23
436.72	4203.60
436.90	4145.09
437.09	4283.18
437.28	4009.34
437.46	4084.23
437.65	4238.71
437.84	4266.80
438.02	4276.16
438.21	4234.03
438.40	4227.01
438.58	4447.02
438.77	4535.96
438.96	4407.23
439.14	4468.08
439.33	4414.25
439.52	4535.96
439.70	4657.67
439.89	4636.60
440.08	4697.46
440.26	4709.16
440.45	4645.96
440.63	4655.33
440.82	4788.74
441.01	4660.01
441.19	4849.59
441.38	4880.02
441.57	4943.21
441.75	4945.55
441.94	5032.15
442.12	4901.08
442.31	5118.75
442.50	4983.00
442.68	5160.88
442.87	5055.56
443.05	5055.56
443.24	5259.18
443.43	5221.74
443.61	5355.15
443.80	5313.02
443.98	5062.58
444.17	5062.58
444.35	5153.86
444.54	5256.84
444.73	5249.82
444.91	5270.89
445.10	5343.44
445.28	5275.57
445.47	5261.52
445.65	5245.14
445.84	5228.76
446.02	5341.10
446.21	5287.27
446.39	5315.36
446.58	5425.36
446.77	5509.62
446.95	5212.37
447.14	5406.64
447.32	5242.80
447.51	5249.82
447.69	5418.34
447.88	5432.38
448.06	5406.64
448.25	5572.82
448.43	5254.50
448.62	5434.72
448.80	5394.93
448.99	5434.72
449.17	5638.35
449.36	5628.99
449.54	5554.09
449.73	5628.99
449.91	5846.66
450.10	5624.31
450.28	5900.49
450.46	5720.27
450.65	5647.71
450.83	5668.78
451.02	5643.03
451.20	5666.44
451.39	5867.72
451.57	5762.40
451.76	5682.82
451.94	5816.23
452.13	5912.19
452.31	5839.64
452.49	5926.24
452.68	5797.51
452.86	6022.20
453.05	6003.47
453.23	6061.99
453.42	5982.41
453.60	5902.83
453.78	5975.39
453.97	6010.50
454.15	6026.88
454.34	6054.97
454.52	6176.67
454.70	6078.37
454.89	6214.12
455.07	6118.16
455.26	6246.89
455.44	6282.00
455.62	6080.71
455.81	6347.53
455.99	6422.43
456.17	6263.27
456.36	6326.47
456.54	6370.94
456.73	6534.78
456.91	6586.27
457.09	6593.29
457.28	6707.98
457.46	6583.93
457.64	6820.32
457.83	6607.33
458.01	6719.68
458.19	6857.77
458.38	6576.91
458.56	6602.65
458.74	6738.40
458.93	6668.19
459.11	6698.61
459.29	6707.98
459.48	6869.47
459.66	6782.87
459.84	7089.48
460.03	7005.22
460.21	7211.19
460.39	6972.46
460.57	6986.50
460.76	6916.28
460.94	7054.37
461.12	7007.56
461.31	7091.82
461.49	7021.61
461.67	7089.48
461.85	7360.98
462.04	7211.19
462.22	7536.52
462.40	7316.51
462.59	7227.57
462.77	7241.62
462.95	7433.54
463.13	7243.96
463.32	7344.60
463.50	7461.63
463.68	7470.99
463.86	7356.30
464.05	7335.24
464.23	7281.41
464.41	7590.36
464.59	7403.11
464.78	7468.65
464.96	7440.56
465.14	7382.05
465.32	7606.74
465.50	7735.47
465.69	7845.48
465.87	7545.89
466.05	7499.08
466.23	7639.51
466.41	7669.94
466.60	7878.24
466.78	7681.64
466.96	7569.29
467.14	7648.87
467.32	7840.79
467.51	7871.22
467.69	7740.15
467.87	7817.39
468.05	7836.11
468.23	7906.33
468.41	8023.36
468.60	7721.43
468.78	8051.44
468.96	8011.65
469.14	7990.59
469.32	8051.44
469.50	7911.01
469.69	8112.30
469.87	8243.37
470.05	8294.86
470.23	8180.17
470.41	8322.94
470.59	8290.18
470.77	8379.12
470.95	8451.67
471.14	8463.38
471.32	8098.25
471.50	8421.25
471.68	8362.73
471.86	8503.17
472.04	8636.58
472.22	8503.17
472.40	8774.67
472.58	8847.22
472.77	8652.96
472.95	8992.34
473.13	9130.43
473.31	8999.36
473.49	8786.37
473.67	8898.72
473.85	9095.32
474.03	9142.13
474.21	9029.79
474.39	9448.74
474.57	9308.31
474.75	9376.19
474.93	9348.10
475.12	9434.70
475.30	9334.06
475.48	9502.58
475.66	9448.74
475.84	9401.93
476.02	9741.31
476.20	9575.13
476.38	9940.26
476.56	10001.11
476.74	9902.81
476.92	10022.17
477.10	9916.85
477.28	10045.58
477.46	10099.41
477.64	10387.30
477.82	10274.95
478.00	10443.47
478.18	10544.11
478.36	10459.85
478.54	10778.17
478.72	10843.70
478.90	10745.40
479.08	10796.89
479.26	11115.20
479.44	11159.67
479.62	11154.99
479.80	11044.99
479.98	11267.34
480.16	11201.80
480.34	11169.04
480.52	11229.89
480.70	11730.76
480.88	11501.39
481.06	11854.81
481.24	11719.06
481.41	12011.63
481.59	12203.55
481.77	12044.40
481.95	12095.89
482.13	12386.12
482.31	12231.64
482.49	12624.85
482.67	12486.76
482.85	12674.00
483.03	12788.69
483.21	13046.15
483.39	13029.76
483.57	12978.27
483.74	13221.69
483.92	13214.66
484.10	13214.66
484.28	13593.83
484.46	13865.33
484.64	13987.04
484.82	13572.77
485.00	14047.90
485.18	14080.66
485.35	14558.13
485.53	14075.98
485.71	14441.11
485.89	14473.87
486.07	14452.81
486.25	14366.21
486.43	14471.53
486.61	15161.99
486.78	15143.27
486.96	14930.28
487.14	15293.06
487.32	15295.40
487.50	15410.09
487.68	15400.72
487.85	15559.88
488.03	15875.85
488.21	15932.03
488.39	15995.22
488.57	16592.06
488.75	16510.14
488.92	16727.81
489.10	16563.97
489.28	16769.94
489.46	16819.09
489.64	17076.55
489.81	17069.53
489.99	17064.85
490.17	17343.37
490.35	17598.49
490.53	17355.07
490.70	17884.03
490.88	17745.94
491.06	17975.31
491.24	17839.56
491.41	17762.33
491.59	18099.36
491.77	18057.23
491.95	18438.74
492.13	18366.18
492.30	18457.46
492.48	18862.38
492.66	18923.23
492.84	19016.85
493.01	19227.50
493.19	19166.65
493.37	19117.50
493.54	19421.77
493.72	19824.34
493.90	19431.13
494.08	19728.38
494.25	19861.79
494.43	19756.46
494.61	20404.79
494.79	20009.24
494.96	20025.62
495.14	20367.34
495.32	20147.33
495.49	20697.36
495.67	20861.19
495.85	20996.95
496.02	21109.29
496.20	21123.33
496.38	20992.26
496.55	20919.71
496.73	21937.84
496.91	21392.50
497.09	21912.10
497.26	21678.04
497.44	21727.19
497.62	21799.75
497.79	22111.04
497.97	21776.34
498.14	22391.91
498.32	22375.52
498.50	22431.69
498.67	22544.04
498.85	22895.12
499.03	23035.55
499.20	22576.81
499.38	22656.39
499.56	23290.67
499.73	22899.80
499.91	23356.21
500.08	23229.82
500.26	23208.75
500.44	23468.55
500.61	23871.12
500.79	23293.01
500.97	23683.88
501.14	24151.99
501.32	24091.13
501.49	24119.22
501.67	23995.17
501.84	24053.69
502.02	23948.36
502.20	24594.35
502.37	24306.46
502.55	24472.64
502.72	24587.33
502.90	24517.11
503.07	24489.03
503.25	24606.05
503.43	24517.11
503.60	24987.56
503.78	24945.43
503.95	24795.64
504.13	25062.46
504.30	24954.79
504.48	25160.76
504.65	25364.39
504.83	25439.28
505.01	25699.08
505.18	25654.61
505.36	25914.41
505.53	25738.87
505.71	25699.08
505.88	25891.01
506.06	25598.44
506.23	26251.45
506.41	26284.22
506.58	26225.70
506.76	26211.66
506.93	26595.51
507.11	26377.84
507.28	26398.90
507.46	26630.62
507.63	26808.50
507.81	27080.00
507.98	26780.41
508.16	26958.29
508.33	27419.38
508.50	27159.58
508.68	27213.41
508.85	27854.72
509.03	27119.79
509.20	27702.58
509.38	27812.59
509.55	27590.24
509.73	27700.24
509.90	28044.30
510.08	27866.42
510.25	28137.92
510.42	27700.24
510.60	28112.17
510.77	28479.64
510.95	28238.56
511.12	28173.03
511.30	28236.22
511.47	28765.18
511.64	28484.32
511.82	28847.10
511.99	28418.78
512.17	29160.73
512.34	28746.46
512.51	28877.53
512.69	28730.08
512.86	29268.40
513.04	29659.27
513.21	29490.75
513.38	29624.16
513.56	29539.90
513.73	29137.33
513.90	29788.00
514.08	29553.94
514.25	29635.86
514.43	30015.03
514.60	29876.94
514.77	30022.05
514.95	30068.86
515.12	29935.45
515.29	29895.66
515.47	30122.69
515.64	30487.82
515.81	30469.09
515.99	30518.25
516.16	30721.87
516.33	30857.62
516.51	30724.21
516.68	31037.84
516.85	30813.15
517.03	30717.19
517.20	31159.55
517.37	30761.66
517.54	30841.24
517.72	31096.36
517.89	31468.50
518.06	31211.04
518.24	30984.01
518.41	31180.62
518.58	31442.76
518.75	31117.42
518.93	31997.46
519.10	31592.55
519.27	31885.12
519.45	31669.79
519.62	31461.48
519.79	32175.34
519.96	32098.11
520.14	32252.58
520.31	32053.64
520.48	31920.23
520.65	32039.59
520.83	32203.43
521.00	32402.38
521.17	32336.84
521.34	32474.93
521.52	32779.20
521.69	32580.26
521.86	33134.96
522.03	32837.72
522.20	33039.00
522.38	33347.95
522.55	33001.55
522.72	32694.94
522.89	33317.53
523.07	33394.76
523.24	33322.21
523.41	33717.76
523.58	33275.40
523.75	33530.51
523.92	33460.30
524.10	33563.28
524.27	33879.25
524.44	34059.48
524.61	34022.03
524.78	34024.37
524.96	34089.90
525.13	34169.48
525.30	34012.66
525.47	34300.55
525.64	34087.56
525.81	34803.77
525.98	34670.36
526.16	34651.63
526.33	34450.35
526.50	34869.30
526.67	34403.53
526.84	34258.42
527.01	34340.34
527.18	34323.96
527.36	34679.72
527.53	35433.37
527.70	35508.27
527.87	35131.44
528.04	34897.39
528.21	34998.03
528.38	35526.99
528.55	35133.78
528.72	35091.65
528.89	35150.17
529.07	35388.90
529.24	35381.88
529.41	35674.45
529.58	35248.47
529.75	35248.47
529.92	35763.39
530.09	35330.39
530.26	35576.14
530.43	35852.33
530.60	35629.98
530.77	35707.21
530.94	35873.39
531.11	36168.30
531.28	35765.73
531.46	35812.54
531.63	36238.51
531.80	36341.50
531.97	36425.76
532.14	36594.28
532.31	36128.51
532.48	36554.49
532.65	36421.08
532.82	36385.97
532.99	36486.61
533.16	36631.72
533.33	36423.42
533.50	36692.58
533.67	36858.76
533.84	36245.54
534.01	37020.25
534.18	36725.35
534.35	36755.77
534.52	36566.19
534.69	37258.99
534.86	37284.73
535.03	37057.70
535.20	37411.12
535.37	37364.31
535.54	37661.56
535.71	36905.57
535.88	37652.20
536.05	37696.67
536.22	37699.01
536.38	37773.91
536.55	37750.50
536.72	37474.32
536.89	37727.10
537.06	37858.17
537.23	38127.33
537.40	37715.39
537.57	37626.45
537.74	37965.83
537.91	38429.26
538.08	38607.14
538.25	37940.08
538.42	38167.12
538.59	38092.22
538.75	37851.14
538.92	38113.28
539.09	38518.20
539.26	38436.28
539.43	38586.07
539.60	38642.24
539.77	38319.25
539.94	38586.07
540.11	38934.81
540.28	38775.66
540.44	38635.22
540.61	38794.38
540.78	38679.69
540.95	39030.77
541.12	39161.84
541.29	39384.19
541.46	39077.58
541.62	39332.70
541.79	39178.23
541.96	39012.05
542.13	39318.66
542.30	39498.88
542.47	39461.43
542.63	39739.96
542.80	39957.63
542.97	39929.54
543.14	39969.33
543.31	39643.99
543.48	39758.68
543.64	40301.68
543.81	40425.73
543.98	40570.85
544.15	40472.54
544.32	40765.11
544.48	40023.16
544.65	40154.23
544.82	40177.64
544.99	40058.27
545.16	40664.47
545.32	40465.52
545.49	40921.93
545.66	41441.53
545.83	41689.62
546.00	41706.01
546.16	41195.77
546.33	40666.81
546.50	39976.35
546.67	40528.72
546.83	40224.45
547.00	40521.69
547.17	40945.33
547.34	40722.98
547.50	40744.05
547.67	40575.53
547.84	40849.37
548.00	41027.25
548.17	40942.99
548.34	41078.74
548.51	40975.76
548.67	40954.69
548.84	41319.82
549.01	40591.91
549.18	40835.33
549.34	41053.00
549.51	40884.48
549.68	40882.14
549.84	40828.30
550.01	41249.60
550.18	40673.83
550.34	41565.57
550.51	41331.52
550.68	41701.32
550.84	41275.35
551.01	41221.52
551.18	40905.54
551.34	40811.92
551.51	41184.07
551.68	41153.64
551.84	41085.76
552.01	40987.46
552.18	41940.06
552.34	41202.79
552.51	41214.49
552.68	41532.81
552.84	41605.36
553.01	41698.98
553.18	41911.97
553.34	41968.15
553.51	41666.22
553.67	42024.32
553.84	42057.09
554.01	42073.47
554.17	41914.31
554.34	42333.27
554.51	41869.84
554.67	41823.03
554.84	41855.80
555.00	41422.80
555.17	42258.37
555.33	42007.94
555.50	42167.09
555.67	41895.59
555.83	41750.48
556.00	42038.36
556.16	42522.85
556.33	41951.76
556.50	42375.40
556.66	42513.49
556.83	42256.03
556.99	42735.84
557.16	42534.56
557.32	42492.43
557.49	42539.24
557.65	41799.63
557.82	42295.82
557.98	42141.35
558.15	42412.85
558.32	42731.16
558.48	42464.34
558.65	42410.51
558.81	43054.15
558.98	42679.67
559.14	42436.25
559.31	42019.64
559.47	42590.73
559.64	42632.86
559.80	42754.57
559.97	42897.34
560.13	42878.61
560.30	42904.36
560.46	42761.59
560.63	42806.06
560.79	42972.24
560.96	43178.20
561.12	42745.20
561.29	42469.02
561.45	42925.42
561.61	43133.73
561.78	42799.04
561.94	42923.08
562.11	43126.71
562.27	43079.90
562.44	42314.55
562.60	43140.75
562.77	43100.97
562.93	43145.44
563.10	43145.44
563.26	42567.32
563.42	43477.79
563.59	43337.36
563.75	42768.61
563.92	43517.58
564.08	43103.31
564.24	43402.89
564.41	42976.92
564.57	43199.27
564.74	43009.68
564.90	43508.22
565.07	43374.81
565.23	42906.70
565.39	43208.63
565.56	43480.13
565.72	42890.32
565.88	43161.82
566.05	43150.12
566.21	43189.91
566.38	43131.39
566.54	43384.17
566.70	43903.77
566.87	44215.06
567.03	43337.36
567.19	43735.25
567.36	43372.47
567.52	43335.02
567.68	43533.96
567.85	43388.85
568.01	43442.68
568.17	43260.12
568.34	43337.36
568.50	43044.79
568.66	43697.80
568.83	43381.83
568.99	43098.62
569.15	43711.84
569.32	43503.54
569.48	43552.69
569.64	43419.28
569.81	43131.39
569.97	43786.74
570.13	43627.59
570.30	43466.09
570.46	43650.99
570.62	43625.25
570.78	43948.24
570.95	42974.58
571.11	43440.34
571.27	43337.36
571.43	43606.52
571.60	43761.00
571.76	43587.80
571.92	43433.32
572.09	43349.06
572.25	43990.37
572.41	43660.35
572.57	43398.21
572.74	43697.80
572.90	43660.35
573.06	43791.42
573.22	43234.38
573.38	43814.83
573.55	43812.49
573.71	44254.85
573.87	43873.34
574.03	43573.75
574.20	43826.53
574.36	43681.42
574.52	43732.91
574.68	43842.92
574.84	44025.48
575.01	43871.00
575.17	43498.86
575.33	43674.40
575.49	43629.93
575.65	44039.52
575.82	44151.87
575.98	43398.21
576.14	44161.23
576.30	44030.16
576.46	43852.28
576.62	44002.07
576.79	44034.84
576.95	43878.02
577.11	44332.09
577.27	44027.82
577.43	43901.43
577.59	44341.45
577.75	43817.17
577.92	43732.91
578.08	43688.44
578.24	43709.50
578.40	44046.54
578.56	43885.04
578.72	43849.94
578.88	44577.84
579.04	44018.46
579.21	43892.07
579.37	43622.90
579.53	44308.68
579.69	44002.07
579.85	43922.49
580.01	44016.11
580.17	44343.79
580.33	43863.98
580.49	44215.06
580.65	44065.27
580.82	44350.81
580.98	43936.54
581.14	43842.92
581.30	44325.07
581.46	43777.38
581.62	43878.02
581.78	43267.14
581.94	44091.01
582.10	44334.43
582.26	43988.03
582.42	44406.98
582.58	44491.24
582.74	43964.62
582.90	44184.63
583.06	44650.40
583.22	44156.55
583.38	44229.10
583.54	43899.09
583.70	43772.70
583.86	44470.18
584.02	43906.11
584.18	44341.45
584.34	43901.43
584.50	44318.04
584.66	44002.07
584.82	43824.19
584.98	44186.97
585.14	43838.23
585.30	43585.46
585.46	43667.37
585.62	44294.64
585.78	44130.80
585.94	43908.45
586.10	44135.48
586.26	44390.60
586.42	44435.07
586.58	44699.55
586.74	44034.84
586.90	43901.43
587.06	44172.93
587.22	44296.98
587.38	43924.83
587.54	44528.69
587.70	44875.09
587.86	44505.29
588.02	44369.54
588.18	44781.47
588.34	44189.31
588.49	44453.79
588.65	43849.94
588.81	44594.23
588.97	44238.47
589.13	44112.08
589.29	44114.42
589.45	44404.64
589.61	44453.79
589.77	44617.63
589.93	44926.58
590.08	44591.89
590.24	44697.21
590.40	44421.03
590.56	44704.23
590.72	44411.67
590.88	44528.69
