SpectraSuite Data File
++++++++++++++++++++++++++++++++++++
Date: Fri Oct 04 11:39:32 GMT-05:00 2013
User: price-jones
Dark Spectrum Present: No
Reference Spectrum Present: No
Number of Sampled Component Spectra: 1
Spectrometers: USB2+H05261
Integration Time (usec): 100000 (USB2+H05261)
Spectra Averaged: 1 (USB2+H05261)
Boxcar Smoothing: 0 (USB2+H05261)
Correct for Electrical Dark: No (USB2+H05261)
Strobe/Lamp Enabled: No (USB2+H05261)
Correct for Detector Non-linearity: No (USB2+H05261)
Correct for Stray Light: No (USB2+H05261)
Number of Pixels in Processed Spectrum: 2048
>>>>>Begin Processed Spectral Data<<<<<
365.73	110.01
365.92	110.01
366.12	110.01
366.32	0.00
366.52	0.00
366.72	0.00
366.91	0.00
367.11	0.00
367.31	0.00
367.51	0.00
367.70	0.00
367.90	0.00
368.10	0.00
368.30	0.00
368.49	0.00
368.69	0.00
368.89	0.00
369.09	0.00
369.28	0.00
369.48	0.00
369.68	0.00
369.87	0.00
370.07	0.00
370.27	91.28
370.47	65.54
370.66	224.69
370.86	292.57
371.06	301.93
371.25	311.29
371.45	229.37
371.65	278.52
371.84	311.29
372.04	306.61
372.24	339.38
372.44	306.61
372.63	355.76
372.83	411.93
373.03	290.23
373.22	330.02
373.42	379.17
373.62	297.25
373.81	383.85
374.01	367.46
374.21	294.91
374.40	404.91
374.60	341.72
374.79	365.12
374.99	369.80
375.19	334.70
375.38	369.80
375.58	416.62
375.78	355.76
375.97	444.70
376.17	411.93
376.37	381.51
376.56	493.85
376.76	353.42
376.95	418.96
377.15	447.04
377.35	456.40
377.54	348.74
377.74	381.51
377.93	386.19
378.13	355.76
378.33	414.27
378.52	367.46
378.72	454.06
378.91	414.27
379.11	489.17
379.31	435.34
379.50	365.12
379.70	433.00
379.89	386.19
380.09	409.59
380.28	421.30
380.48	519.60
380.68	458.74
380.87	451.72
381.07	472.79
381.26	484.49
381.46	458.74
381.65	397.89
381.85	416.62
382.04	404.91
382.24	425.98
382.43	456.40
382.63	505.56
382.83	440.02
383.02	500.87
383.22	505.56
383.41	454.06
383.61	428.32
383.80	517.26
384.00	580.45
384.19	543.00
384.39	498.53
384.58	475.13
384.78	500.87
384.97	519.60
385.17	484.49
385.36	493.85
385.56	500.87
385.75	543.00
385.95	564.07
386.14	564.07
386.34	559.39
386.53	559.39
386.72	521.94
386.92	526.62
387.11	557.05
387.31	554.71
387.50	550.03
387.70	557.05
387.89	561.73
388.09	585.13
388.28	582.79
388.48	620.24
388.67	585.13
388.86	620.24
389.06	702.16
389.25	580.45
389.45	660.03
389.64	603.86
389.84	648.33
390.03	566.41
390.22	695.14
390.42	683.44
390.61	603.86
390.81	589.82
391.00	592.16
391.19	634.29
391.39	594.50
391.58	664.71
391.78	608.54
391.97	592.16
392.16	699.82
392.36	709.18
392.55	683.44
392.75	723.23
392.94	711.52
393.13	669.39
393.33	676.41
393.52	683.44
393.71	674.07
393.91	718.54
394.10	758.33
394.29	723.23
394.49	793.44
394.68	809.83
394.88	798.12
395.07	807.48
395.26	823.87
395.46	746.63
395.65	828.55
395.84	828.55
396.04	896.43
396.23	936.21
396.42	889.40
396.62	910.47
396.81	858.98
397.00	835.57
397.19	854.30
397.39	840.25
397.58	873.02
397.77	887.06
397.97	880.04
398.16	938.55
398.35	976.00
398.55	938.55
398.74	922.17
398.93	1025.15
399.12	887.06
399.32	917.49
399.51	997.07
399.70	973.66
399.90	954.94
400.09	1053.24
400.28	1086.01
400.47	1032.18
400.67	1069.62
400.86	1053.24
401.05	1057.92
401.24	1008.77
401.44	1025.15
401.63	1114.10
401.82	1090.69
402.01	1135.16
402.21	1100.05
402.40	1191.33
402.59	1224.10
402.78	1193.67
402.97	1198.35
403.17	1259.21
403.36	1188.99
403.55	1352.83
403.74	1226.44
403.93	1252.19
404.13	1324.74
404.32	1359.85
404.51	1404.32
404.70	1254.53
404.89	1313.04
405.09	1301.34
405.28	1256.87
405.47	1359.85
405.66	1453.47
405.85	1352.83
406.05	1387.94
406.24	1299.00
406.43	1355.17
406.62	1392.62
406.81	1511.99
407.00	1469.86
407.20	1502.62
407.39	1441.77
407.58	1448.79
407.77	1551.78
407.96	1633.69
408.15	1523.69
408.34	1584.54
408.54	1607.95
408.73	1614.97
408.92	1661.78
409.11	1682.85
409.30	1682.85
409.49	1647.74
409.68	1680.50
409.87	1687.53
410.07	1818.60
410.26	1818.60
410.45	1717.95
410.64	1809.23
410.83	1914.56
411.02	1820.94
411.21	1947.33
411.40	2005.84
411.59	1867.75
411.78	1987.11
411.98	1996.48
412.17	1996.48
412.36	1998.82
412.55	1975.41
412.74	2146.27
412.93	2179.04
413.12	2157.97
413.31	2277.34
413.50	2188.40
413.69	2174.36
413.88	2204.78
414.07	2188.40
414.26	2375.64
414.45	2188.40
414.64	2331.17
414.83	2352.24
415.02	2270.32
415.22	2452.88
415.41	2377.98
415.60	2340.54
415.79	2572.25
415.98	2590.97
416.17	2619.06
416.36	2478.63
416.55	2675.23
416.74	2527.78
416.93	2581.61
417.12	2693.96
417.31	2682.25
417.50	2761.83
417.69	2998.23
417.88	2829.71
418.07	2785.24
418.26	2757.15
418.45	2864.82
418.64	2909.29
418.83	2911.63
419.02	2892.90
419.21	2991.20
419.39	2965.46
419.58	2902.26
419.77	2972.48
419.96	3066.10
420.15	3098.87
420.34	2995.89
420.53	3007.59
420.72	3061.42
420.91	3091.85
421.10	3070.78
421.29	3087.17
421.48	3094.19
421.67	3365.69
421.86	3180.79
422.05	3262.71
422.24	3274.41
422.43	3339.94
422.61	3255.69
422.80	3321.22
422.99	3365.69
423.18	3342.28
423.37	3323.56
423.56	3325.90
423.75	3375.05
423.94	3332.92
424.13	3105.89
424.32	3222.92
424.50	3325.90
424.69	3342.28
424.88	3449.95
425.07	3288.45
425.26	3384.41
425.45	3225.26
425.64	3335.26
425.83	3330.58
426.01	3461.65
426.20	3435.91
426.39	3468.67
426.58	3358.67
426.77	3428.88
426.96	3473.36
427.15	3545.91
427.33	3492.08
427.52	3487.40
427.71	3592.72
427.90	3606.77
428.09	3599.74
428.28	3606.77
428.46	3599.74
428.65	3585.70
428.84	3632.51
429.03	3768.26
429.22	3676.98
429.40	3644.21
429.59	3784.65
429.78	3665.28
429.97	3604.42
430.16	3754.22
430.34	3662.94
430.53	3749.54
430.72	3838.48
430.91	3838.48
431.10	3749.54
431.28	3873.59
431.47	3960.19
431.66	4037.42
431.85	3889.97
432.03	4086.58
432.22	4035.08
432.41	4016.36
432.60	4133.39
432.79	3953.16
432.97	4007.00
433.16	4198.92
433.35	4049.13
433.54	4030.40
433.72	4203.60
433.91	4086.58
434.10	4114.66
434.28	4086.58
434.47	4194.24
434.66	4163.81
434.85	4283.18
435.03	4369.78
435.22	4634.26
435.41	4741.93
435.59	4636.60
435.78	4550.00
435.97	4601.49
436.16	4435.32
436.34	4477.44
436.53	4503.19
436.72	4674.05
436.90	4402.55
437.09	4486.81
437.28	4475.10
437.46	4557.02
437.65	4657.67
437.84	4702.14
438.02	4695.11
438.21	4622.56
438.40	4620.22
438.58	4830.87
438.77	4608.51
438.96	4697.46
439.14	4741.93
439.33	4936.19
439.52	5100.03
439.70	4943.21
439.89	4947.89
440.08	5004.07
440.26	4959.60
440.45	5001.72
440.63	5268.55
440.82	5247.48
441.01	5121.09
441.19	5193.65
441.38	5231.10
441.57	5345.78
441.75	5387.91
441.94	5338.76
442.12	5376.21
442.31	5432.38
442.50	5418.34
442.68	5591.54
442.87	5469.83
443.05	5394.93
443.24	5544.73
443.43	5579.84
443.61	5554.09
443.80	5898.15
443.98	5521.32
444.17	5385.57
444.35	5570.48
444.54	5582.18
444.73	5647.71
444.91	5703.89
445.10	5734.31
445.28	5753.04
445.47	5572.82
445.65	5825.59
445.84	5724.95
446.02	5659.42
446.21	5769.42
446.39	5699.20
446.58	5884.11
446.77	5823.25
446.95	5769.42
447.14	5692.18
447.32	5947.30
447.51	5713.25
447.69	5678.14
447.88	5762.40
448.06	5823.25
448.25	5818.57
448.43	5863.04
448.62	5701.54
448.80	5811.55
448.99	5863.04
449.17	5909.85
449.36	6015.18
449.54	6057.31
449.73	5994.11
449.91	6026.88
450.10	6216.46
450.28	6169.65
450.46	6176.67
450.65	6239.87
450.83	6333.49
451.02	6164.97
451.20	6200.08
451.39	6354.55
451.57	6235.19
451.76	6221.14
451.94	6277.32
452.13	6356.90
452.31	6354.55
452.49	6291.36
452.68	6296.04
452.86	6389.66
453.05	6576.91
453.23	6392.00
453.42	6335.83
453.60	6436.47
453.78	6293.70
453.97	6525.41
454.15	6464.56
454.34	6509.03
454.52	6597.97
454.70	6621.38
454.89	6602.65
455.07	6544.14
455.26	6675.21
455.44	6668.19
455.62	6595.63
455.81	6640.10
455.99	6712.66
456.17	6864.79
456.36	6595.63
456.54	6825.00
456.73	6946.71
456.91	7164.38
457.09	7119.91
457.28	7040.33
457.46	7176.08
457.64	7258.00
457.83	7246.30
458.01	7033.31
458.19	7084.80
458.38	7007.56
458.56	7250.98
458.74	7124.59
458.93	7077.78
459.11	7250.98
459.29	7171.40
459.48	7122.25
459.66	7337.58
459.84	7288.43
460.03	7442.90
460.21	7267.36
460.39	7419.50
460.57	7524.82
460.76	7552.91
460.94	7602.06
461.12	7461.63
461.31	7452.27
461.49	7562.27
461.67	7517.80
461.85	7705.04
462.04	7688.66
462.22	7747.17
462.40	7796.32
462.59	7597.38
462.77	7676.96
462.95	7674.62
463.13	7866.54
463.32	7950.80
463.50	7801.01
463.68	7943.78
463.86	8018.68
464.05	7946.12
464.23	7861.86
464.41	7918.03
464.59	7946.12
464.78	8128.68
464.96	7953.14
465.14	7983.57
465.32	8131.02
465.50	8128.68
465.69	8042.08
465.87	8046.76
466.05	8086.55
466.23	7967.18
466.41	8070.17
466.60	8336.99
466.78	7997.61
466.96	8446.99
467.14	8280.82
467.32	8205.92
467.51	8402.52
467.69	8191.88
467.87	8383.80
468.05	8444.65
468.23	8180.17
468.41	8252.73
468.60	8606.15
468.78	8601.47
468.96	8432.95
469.14	8613.17
469.32	8613.17
469.50	8437.63
469.69	8685.73
469.87	8711.47
470.05	8894.04
470.23	8812.12
470.41	8915.10
470.59	8915.10
470.77	8781.69
470.95	8821.48
471.14	9095.32
471.32	8861.27
471.50	9247.46
471.68	9174.90
471.86	9137.45
472.04	9224.05
472.22	9397.25
472.40	9029.79
472.58	9259.16
472.77	9284.91
472.95	9317.67
473.13	9570.45
473.31	9554.07
473.49	9390.23
473.67	9542.36
473.85	9537.68
474.03	9579.81
474.21	9533.00
474.39	9710.88
474.57	9900.47
474.75	10061.96
474.93	9987.07
475.12	9734.29
475.30	10076.01
475.48	9970.68
475.66	10061.96
475.84	10012.81
476.02	10235.16
476.20	10368.57
476.38	10499.64
476.56	10534.75
476.74	10303.04
476.92	10342.83
477.10	10757.10
477.28	10761.78
477.46	10604.97
477.64	10855.40
477.82	11042.65
478.00	11190.10
478.18	11311.81
478.36	11204.14
478.54	11304.79
478.72	11367.98
478.90	11520.12
479.08	11541.18
479.26	11655.87
479.44	11819.71
479.62	11770.55
479.80	11943.75
479.98	12037.38
480.16	12285.47
480.34	12182.49
480.52	12322.92
480.70	12388.46
480.88	12262.07
481.06	12276.11
481.24	12322.92
481.41	12638.89
481.59	12854.22
481.77	12868.27
481.95	12987.63
482.13	12861.24
482.31	13142.11
482.49	13277.86
482.67	13121.04
482.85	13554.04
483.03	13769.37
483.21	13612.56
483.39	13778.73
483.57	13841.93
483.74	13865.33
483.92	14108.75
484.10	14026.83
484.28	14424.72
484.46	14586.22
484.64	14771.12
484.82	14630.69
485.00	14574.52
485.18	14878.79
485.35	15061.35
485.53	15192.42
485.71	15255.61
485.89	15335.19
486.07	15379.66
486.25	15412.43
486.43	15501.37
486.61	15693.29
486.78	15791.59
486.96	15910.96
487.14	16222.25
487.32	16318.22
487.50	16442.26
487.68	16826.11
487.85	16648.23
488.03	17008.67
488.21	17216.98
488.39	17083.57
488.57	17167.83
488.75	17214.64
488.92	17577.42
489.10	17633.60
489.28	17605.51
489.46	17724.88
489.64	17909.78
489.81	18363.84
489.99	18317.03
490.17	18258.52
490.35	18352.14
490.53	18560.45
490.70	18822.59
490.88	18785.14
491.06	18958.34
491.24	18958.34
491.41	19009.83
491.59	19316.44
491.77	19199.41
491.95	19255.59
492.13	19391.34
492.30	19398.36
492.48	19906.26
492.66	19922.64
492.84	19845.40
493.01	20142.65
493.19	20121.59
493.37	20215.21
493.54	20568.63
493.72	20690.34
493.90	20753.53
494.08	20802.68
494.25	20933.75
494.43	21125.68
494.61	21238.02
494.79	21142.06
494.96	21062.48
495.14	21280.15
495.32	21605.49
495.49	21661.66
495.67	22094.66
495.85	22190.62
496.02	22010.40
496.20	22043.17
496.38	22153.17
496.55	22480.85
496.73	23002.78
496.91	22651.70
497.09	23054.28
497.26	22916.19
497.44	22827.24
497.62	22607.23
497.79	23477.91
497.97	23295.35
498.14	23487.28
498.32	23447.49
498.50	23735.37
498.67	23569.19
498.85	23768.14
499.03	23693.24
499.20	24297.10
499.38	24261.99
499.56	24280.72
499.73	24257.31
499.91	24453.92
500.08	24570.94
500.26	24498.39
500.44	24769.89
500.61	24821.38
500.79	24915.00
500.97	24837.76
501.14	25350.34
501.32	25617.16
501.49	25064.80
501.67	25558.65
501.84	25254.38
502.02	25055.43
502.20	25483.75
502.37	25432.26
502.55	25450.99
502.72	25799.73
502.90	26008.03
503.07	25675.68
503.25	25888.67
503.43	25902.71
503.60	26012.71
503.78	26672.74
503.95	26396.56
504.13	26529.97
504.30	26424.65
504.48	26171.87
504.65	26611.89
504.83	26946.59
505.01	26773.39
505.18	26635.30
505.36	27377.25
505.53	27014.46
505.71	27108.08
505.88	27335.12
506.06	26773.39
506.23	27831.31
506.41	27555.13
506.58	27597.26
506.76	27513.00
506.93	27791.52
507.11	27173.62
507.28	27803.22
507.46	28093.45
507.63	27857.06
507.81	28158.99
507.98	28044.30
508.16	27903.87
508.33	28212.82
508.50	28636.45
508.68	28336.87
508.85	28844.76
509.03	28561.56
509.20	28858.81
509.38	29186.48
509.55	29032.00
509.73	29001.58
509.90	29240.31
510.08	28982.85
510.25	29254.36
510.42	29528.20
510.60	29575.01
510.77	29895.66
510.95	29900.34
511.12	29254.36
511.30	29497.77
511.47	30096.95
511.64	30171.85
511.82	30148.44
511.99	30136.74
512.17	30274.83
512.34	30295.89
512.51	30618.89
512.69	30436.33
512.86	30326.32
513.04	30857.62
513.21	30462.07
513.38	31056.57
513.56	31005.08
513.73	30675.06
513.90	30672.72
514.08	30792.09
514.25	31154.87
514.43	31164.23
514.60	31372.54
514.77	31597.23
514.95	31260.20
515.12	31620.64
515.29	31290.62
515.47	31519.99
515.64	31814.90
515.81	31800.86
515.99	32437.48
516.16	32215.13
516.33	32107.47
516.51	32201.09
516.68	32182.37
516.85	31707.24
517.03	32753.46
517.20	32472.59
517.37	32362.59
517.54	32907.93
517.72	32451.53
517.89	32596.64
518.06	32376.63
518.24	32699.62
518.41	32533.45
518.58	32580.26
518.75	33003.89
518.93	33226.24
519.10	32933.68
519.27	33354.97
519.45	33254.33
519.62	33001.55
519.79	33200.50
519.96	33195.82
520.14	33694.35
520.31	33553.92
520.48	33844.15
520.65	33783.29
520.83	33975.22
521.00	33797.34
521.17	33787.97
521.34	33998.62
521.52	34066.50
521.69	33958.83
521.86	34583.76
522.03	34459.71
522.20	34756.96
522.38	34483.11
522.55	34408.22
522.72	34476.09
522.89	34717.17
523.07	34911.43
523.24	34651.63
523.41	34693.76
523.58	34471.41
523.75	34944.20
523.92	34995.69
524.10	34836.53
524.27	35124.42
524.44	35110.38
524.61	35770.41
524.78	35304.64
524.96	35028.46
525.13	35412.31
525.30	35625.29
525.47	35866.37
525.64	35777.43
525.81	36041.91
525.98	35938.93
526.16	35807.86
526.33	35768.07
526.50	36290.01
526.67	35754.02
526.84	35744.66
527.01	35887.43
527.18	36102.76
527.36	36257.24
527.53	36547.47
527.70	36769.82
527.87	36657.47
528.04	36437.46
528.21	36189.36
528.38	36758.11
528.55	36563.85
528.72	36842.37
528.89	37029.62
529.07	36524.06
529.24	37010.89
529.41	37156.00
529.58	36940.68
529.75	36797.90
529.92	36971.10
530.09	36825.99
530.26	37216.86
530.43	37013.23
530.60	37186.43
530.77	37104.51
530.94	37537.51
531.11	37191.11
531.28	37165.37
531.46	37359.63
531.63	37254.31
531.80	37708.37
531.97	38087.54
532.14	37993.92
532.31	37593.68
532.48	37743.48
532.65	38169.46
532.82	37940.08
532.99	38155.41
533.16	37696.67
533.33	38258.40
533.50	38146.05
533.67	38380.10
533.84	38237.33
534.01	38120.31
534.18	37989.24
534.35	38686.71
534.52	38330.95
534.69	38969.92
534.86	38403.51
535.03	38616.50
535.20	38602.46
535.37	38998.01
535.54	38565.01
535.71	38766.29
535.88	38506.49
536.05	38646.93
536.22	38995.67
536.38	39063.54
536.55	39262.49
536.72	39093.97
536.89	38820.13
537.06	38939.49
537.23	38974.60
537.40	39395.90
537.57	39299.94
537.74	39026.09
537.91	39543.35
538.08	39548.03
538.25	39351.43
538.42	39608.89
538.59	39196.95
538.75	39175.89
538.92	39618.25
539.09	39798.47
539.26	39892.09
539.43	40048.91
539.60	39676.76
539.77	39882.73
539.94	39849.96
540.11	40224.45
540.28	40006.78
540.44	40259.55
540.61	40048.91
540.78	40435.10
540.95	40832.99
541.12	40168.27
541.29	40540.42
541.46	40612.98
541.62	40577.87
541.79	40554.46
541.96	40577.87
542.13	40346.15
542.30	40851.71
542.47	40783.83
542.63	40968.74
542.80	40959.38
542.97	41446.21
543.14	41429.82
543.31	41219.17
543.48	40966.40
543.64	41195.77
543.81	41371.31
543.98	41404.08
544.15	41888.57
544.32	41640.47
544.48	42045.38
544.65	41605.36
544.82	41291.73
544.99	41123.21
545.16	41624.09
545.32	41340.88
545.49	42426.89
545.66	42738.18
545.83	42555.62
546.00	42979.26
546.16	42148.37
546.33	41680.26
546.50	41404.08
546.67	41816.01
546.83	41380.67
547.00	41383.01
547.17	42326.25
547.34	42340.29
547.50	42026.66
547.67	42504.13
547.84	42454.98
548.00	42122.62
548.17	42258.37
548.34	42064.11
548.51	42653.92
548.67	42370.72
548.84	42279.44
549.01	42337.95
549.18	42216.24
549.34	42218.58
549.51	42040.70
549.68	42073.47
549.84	41867.50
550.01	42225.60
550.18	42497.11
550.34	42529.87
550.51	42700.73
550.68	42792.01
550.84	42038.36
551.01	42817.76
551.18	42043.04
551.34	42031.34
551.51	42520.51
551.68	42548.60
551.84	42941.81
552.01	42557.96
552.18	42906.70
552.34	42733.50
552.51	42747.54
552.68	42419.87
552.84	42735.84
553.01	42796.70
553.18	42569.66
553.34	42885.64
553.51	42974.58
553.67	43145.44
553.84	43021.39
554.01	42930.11
554.17	42724.14
554.34	43438.00
554.51	42724.14
554.67	43271.82
554.84	43295.23
555.00	42873.93
555.17	43089.26
555.33	43323.32
555.50	43161.82
555.67	43035.43
555.83	43110.33
556.00	43543.33
556.16	43522.26
556.33	43442.68
556.50	43192.25
556.66	43587.80
556.83	42948.83
556.99	43810.15
557.16	43707.16
557.32	43709.50
557.49	43243.74
557.65	43318.64
557.82	43047.13
557.98	43421.62
558.15	44198.68
558.32	43810.15
558.48	43449.70
558.65	43489.49
558.81	43714.19
558.98	43667.37
559.14	44086.33
559.31	43220.33
559.47	43508.22
559.64	44142.50
559.80	43629.93
559.97	43878.02
560.13	43524.60
560.30	43931.86
560.46	43641.63
560.63	43697.80
560.79	43833.55
560.96	44364.85
561.12	44217.40
561.29	43580.78
561.45	44212.72
561.61	43948.24
561.78	44034.84
561.94	44367.20
562.11	44156.55
562.27	43826.53
562.44	44004.41
562.60	43973.98
562.77	43772.70
562.93	43927.17
563.10	44481.88
563.26	44109.74
563.42	44444.43
563.59	44233.78
563.75	44116.76
563.92	44189.31
564.08	43892.07
564.24	44304.00
564.41	44100.37
564.57	43576.09
564.74	43945.90
564.90	44418.69
565.07	44299.32
565.23	44027.82
565.39	44435.07
565.56	44112.08
565.72	44203.36
565.88	44292.30
566.05	44273.57
566.21	44144.84
566.38	43917.81
566.54	43997.39
566.70	44570.82
566.87	44442.09
567.03	44058.24
567.19	44369.54
567.36	44217.40
567.52	43845.26
567.68	44362.51
567.85	44399.96
568.01	44191.65
568.17	44083.99
568.34	44105.06
568.50	44406.98
568.66	44025.48
568.83	44727.64
568.99	44060.58
569.15	44421.03
569.32	43988.03
569.48	44280.60
569.64	44463.16
569.81	44294.64
569.97	44275.91
570.13	44776.79
570.30	44301.66
570.46	44322.72
570.62	44715.93
570.78	44399.96
570.95	44102.71
571.11	44046.54
571.27	44601.25
571.43	44058.24
571.60	44945.31
571.76	44369.54
571.92	44191.65
572.09	44928.92
572.25	44488.90
572.41	44947.65
572.57	44294.64
572.74	44732.32
572.90	44201.02
573.06	44172.93
573.22	44465.50
573.38	44603.59
573.55	44383.58
573.71	44919.56
573.87	44690.19
574.03	44292.30
574.20	44383.58
574.36	44718.28
574.52	44568.48
574.68	44271.23
574.84	44765.09
575.01	44362.51
575.17	44811.90
575.33	44531.03
575.49	44708.91
575.65	44753.38
575.82	44856.37
575.98	44332.09
576.14	44554.44
576.30	44322.72
576.46	44502.95
576.62	44673.81
576.79	44608.27
576.95	44259.53
577.11	44835.30
577.27	44701.89
577.43	44905.52
577.59	44746.36
577.75	44577.84
577.92	44217.40
578.08	44416.35
578.24	44004.41
578.40	45097.44
578.56	44687.85
578.72	44619.97
578.88	44935.95
579.04	45078.72
579.21	44708.91
579.37	44816.58
579.53	44903.18
579.69	44116.76
579.85	44601.25
580.01	44938.29
580.17	44493.58
580.33	44617.63
580.49	44650.40
580.65	44402.30
580.82	45006.16
580.98	44596.57
581.14	44547.42
581.30	44666.78
581.46	44350.81
581.62	44891.48
581.78	44233.78
581.94	44886.79
582.10	44701.89
582.26	45272.98
582.42	44896.16
582.58	45017.86
582.74	44865.73
582.90	44830.62
583.06	44519.33
583.22	44762.75
583.38	44816.58
583.54	44774.45
583.70	44528.69
583.86	44828.28
584.02	44357.83
584.18	45181.70
584.34	45118.51
584.50	44961.69
584.66	44989.78
584.82	44294.64
584.98	44896.16
585.14	44891.48
585.30	44273.57
585.46	44357.83
585.62	44437.41
585.78	44685.51
585.94	45083.40
586.10	45090.42
586.26	44463.16
586.42	45151.27
586.58	45111.49
586.74	45167.66
586.90	44694.87
587.06	44531.03
587.22	44673.81
587.38	44425.71
587.54	45125.53
587.70	45530.44
587.86	44847.00
588.02	45057.65
588.18	45270.64
588.34	44882.11
588.49	45177.02
588.65	44360.17
588.81	44477.20
588.97	44996.80
589.13	44767.43
589.29	44928.92
589.45	44715.93
589.61	44921.90
589.77	45305.75
589.93	44783.81
590.08	45052.97
590.24	44926.58
590.40	44935.95
590.56	45081.06
590.72	44783.81
590.88	44554.44
