SpectraSuite Data File
++++++++++++++++++++++++++++++++++++
Date: Fri Oct 04 11:39:34 GMT-05:00 2013
User: price-jones
Dark Spectrum Present: No
Reference Spectrum Present: No
Number of Sampled Component Spectra: 1
Spectrometers: USB2+H05261
Integration Time (usec): 100000 (USB2+H05261)
Spectra Averaged: 1 (USB2+H05261)
Boxcar Smoothing: 0 (USB2+H05261)
Correct for Electrical Dark: No (USB2+H05261)
Strobe/Lamp Enabled: No (USB2+H05261)
Correct for Detector Non-linearity: No (USB2+H05261)
Correct for Stray Light: No (USB2+H05261)
Number of Pixels in Processed Spectrum: 2048
>>>>>Begin Processed Spectral Data<<<<<
365.73	74.90
365.92	74.90
366.12	74.90
366.32	0.00
366.52	0.00
366.72	0.00
366.91	0.00
367.11	0.00
367.31	0.00
367.51	0.00
367.70	0.00
367.90	0.00
368.10	0.00
368.30	0.00
368.49	0.00
368.69	4.68
368.89	0.00
369.09	0.00
369.28	11.70
369.48	0.00
369.68	0.00
369.87	0.00
370.07	0.00
370.27	100.64
370.47	91.28
370.66	51.49
370.86	98.30
371.06	187.24
371.25	212.99
371.45	180.22
371.65	163.84
371.84	121.71
372.04	166.18
372.24	161.50
372.44	131.07
372.63	135.75
372.83	196.60
373.03	184.90
373.22	145.11
373.42	187.24
373.62	147.45
373.81	189.58
374.01	269.16
374.21	212.99
374.40	245.76
374.60	217.67
374.79	173.20
374.99	287.89
375.19	229.37
375.38	299.59
375.58	196.60
375.78	280.86
375.97	224.69
376.17	290.23
376.37	262.14
376.56	280.86
376.76	201.29
376.95	145.11
377.15	220.01
377.35	215.33
377.54	133.41
377.74	203.63
377.93	208.31
378.13	222.35
378.33	259.80
378.52	229.37
378.72	372.15
378.91	201.29
379.11	229.37
379.31	229.37
379.50	198.95
379.70	255.12
379.89	238.73
380.09	168.52
380.28	217.67
380.48	257.46
380.68	217.67
380.87	187.24
381.07	191.92
381.26	201.29
381.46	257.46
381.65	234.05
381.85	135.75
382.04	145.11
382.24	205.97
382.43	252.78
382.63	259.80
382.83	182.56
383.02	180.22
383.22	271.50
383.41	306.61
383.61	250.44
383.80	182.56
384.00	210.65
384.19	142.77
384.39	222.35
384.58	187.24
384.78	229.37
384.97	241.08
385.17	250.44
385.36	212.99
385.56	290.23
385.75	212.99
385.95	156.82
386.14	264.48
386.34	210.65
386.53	238.73
386.72	189.58
386.92	320.65
387.11	301.93
387.31	276.18
387.50	283.20
387.70	250.44
387.89	159.16
388.09	285.55
388.28	234.05
388.48	255.12
388.67	297.25
388.86	325.33
389.06	283.20
389.25	283.20
389.45	313.63
389.64	269.16
389.84	327.68
390.03	259.80
390.22	255.12
390.42	320.65
390.61	332.36
390.81	222.35
391.00	252.78
391.19	327.68
391.39	355.76
391.58	287.89
391.78	208.31
391.97	283.20
392.16	257.46
392.36	301.93
392.55	365.12
392.75	292.57
392.94	301.93
393.13	313.63
393.33	220.01
393.52	311.29
393.71	374.49
393.91	346.40
394.10	294.91
394.29	266.82
394.49	330.02
394.68	351.08
394.88	428.32
395.07	318.31
395.26	358.10
395.46	395.55
395.65	358.10
395.84	423.64
396.04	418.96
396.23	428.32
396.42	390.87
396.62	414.27
396.81	383.85
397.00	416.62
397.19	418.96
397.39	447.04
397.58	418.96
397.77	461.09
397.97	451.72
398.16	458.74
398.35	397.89
398.55	425.98
398.74	397.89
398.93	500.87
399.12	360.44
399.32	543.00
399.51	477.47
399.70	528.96
399.90	482.15
400.09	484.49
400.28	575.77
400.47	592.16
400.67	517.26
400.86	573.43
401.05	517.26
401.24	510.24
401.44	564.07
401.63	510.24
401.82	627.26
402.01	624.92
402.21	559.39
402.40	617.90
402.59	638.97
402.78	505.56
402.97	641.31
403.17	671.73
403.36	636.63
403.55	634.29
403.74	669.39
403.93	709.18
404.13	828.55
404.32	751.31
404.51	786.42
404.70	798.12
404.89	662.37
405.09	793.44
405.28	765.36
405.47	786.42
405.66	880.04
405.85	784.08
406.05	793.44
406.24	821.53
406.43	851.96
406.62	922.17
406.81	880.04
407.00	833.23
407.20	833.23
407.39	884.72
407.58	997.07
407.77	966.64
407.96	929.19
408.15	983.02
408.34	870.68
408.54	945.58
408.73	1008.77
408.92	1104.73
409.11	1025.15
409.30	1034.52
409.49	976.00
409.68	994.73
409.87	1083.67
410.07	1071.97
410.26	1130.48
410.45	1121.12
410.64	1100.05
410.83	1184.31
411.02	1170.27
411.21	1153.88
411.40	1219.42
411.59	1191.33
411.78	1207.72
411.98	1198.35
412.17	1245.16
412.36	1352.83
412.55	1406.66
412.74	1310.70
412.93	1373.89
413.12	1392.62
413.31	1411.34
413.50	1451.13
413.69	1352.83
413.88	1519.01
414.07	1409.00
414.26	1479.22
414.45	1479.22
414.64	1544.75
414.83	1626.67
415.02	1666.46
415.22	1572.84
415.41	1614.97
415.60	1556.46
415.79	1687.53
415.98	1706.25
416.17	1696.89
416.36	1661.78
416.55	1713.27
416.74	1760.08
416.93	1802.21
417.12	1650.08
417.31	1837.32
417.50	1790.51
417.69	1926.26
417.88	1867.75
418.07	1919.24
418.26	1884.13
418.45	1863.07
418.64	2038.61
418.83	1877.11
419.02	1832.64
419.21	1940.30
419.39	2122.87
419.58	1973.07
419.77	1933.28
419.96	2024.56
420.15	2167.34
420.34	2050.31
420.53	2043.29
420.72	2211.81
420.91	2237.55
421.10	2232.87
421.29	2129.89
421.48	2069.03
421.67	2162.66
421.86	2188.40
422.05	2188.40
422.24	2286.70
422.43	2214.15
422.61	2289.04
422.80	2242.23
422.99	2282.02
423.18	2258.62
423.37	2370.96
423.56	2286.70
423.75	2333.51
423.94	2310.11
424.13	2179.04
424.32	2160.31
424.50	2279.68
424.69	2260.96
424.88	2310.11
425.07	2373.30
425.26	2190.74
425.45	2300.75
425.64	2326.49
425.83	2373.30
426.01	2324.15
426.20	2352.24
426.39	2361.60
426.58	2457.56
426.77	2394.37
426.96	2373.30
427.15	2483.31
427.33	2469.27
427.52	2445.86
427.71	2413.09
427.90	2394.37
428.09	2530.12
428.28	2429.48
428.46	2480.97
428.65	2537.14
428.84	2647.15
429.03	2497.35
429.22	2403.73
429.40	2541.82
429.59	2562.89
429.78	2511.39
429.97	2459.90
430.16	2562.89
430.34	2621.40
430.53	2579.27
430.72	2616.72
430.91	2621.40
431.10	2715.02
431.28	2757.15
431.47	2682.25
431.66	2698.64
431.85	2771.19
432.03	2775.88
432.22	2818.00
432.41	2930.35
432.60	2792.26
432.79	2864.82
432.97	2818.00
433.16	2883.54
433.35	2689.28
433.54	2946.73
433.72	2869.50
433.91	2841.41
434.10	2853.11
434.28	2869.50
434.47	2871.84
434.66	2988.86
434.85	2864.82
435.03	3077.80
435.22	3274.41
435.41	3368.03
435.59	3522.51
435.78	3269.73
435.97	3023.97
436.16	2960.78
436.34	2986.52
436.53	3124.62
436.72	3295.47
436.90	3080.14
437.09	3047.38
437.28	3068.44
437.46	3171.43
437.65	3070.78
437.84	3232.28
438.02	3225.26
438.21	3304.84
438.40	3236.96
438.58	3382.07
438.77	3251.00
438.96	3342.28
439.14	3328.24
439.33	3503.78
439.52	3316.54
439.70	3473.36
439.89	3438.25
440.08	3442.93
440.26	3375.05
440.45	3393.78
440.63	3559.95
440.82	3506.12
441.01	3574.00
441.19	3552.93
441.38	3648.90
441.57	3705.07
441.75	3721.45
441.94	3756.56
442.12	3751.88
442.31	3822.09
442.50	3927.42
442.68	3721.45
442.87	3817.41
443.05	3751.88
443.24	3906.35
443.43	3939.12
443.61	3899.33
443.80	3950.82
443.98	3932.10
444.17	3812.73
444.35	3934.44
444.54	4011.68
444.73	3964.87
444.91	3992.95
445.10	3957.85
445.28	3845.50
445.47	3875.93
445.65	3896.99
445.84	4004.66
446.02	4077.21
446.21	3955.51
446.39	3894.65
446.58	4154.45
446.77	4070.19
446.95	3969.55
447.14	4056.15
447.32	3988.27
447.51	3948.48
447.69	4128.70
447.88	4067.85
448.06	3943.80
448.25	4028.06
448.43	3974.23
448.62	3999.98
448.80	4044.45
448.99	4152.11
449.17	4058.49
449.36	4138.07
449.54	4245.73
449.73	4219.99
449.91	4210.62
450.10	4203.60
450.28	4337.01
450.46	4301.90
450.65	4365.10
450.83	4369.78
451.02	4292.54
451.20	4313.61
451.39	4191.90
451.57	4280.84
451.76	4255.09
451.94	4273.82
452.13	4491.49
452.31	4440.00
452.49	4269.14
452.68	4358.08
452.86	4386.16
453.05	4440.00
453.23	4451.70
453.42	4451.70
453.60	4493.83
453.78	4369.78
453.97	4554.68
454.15	4458.72
454.34	4564.04
454.52	4491.49
454.70	4643.62
454.89	4585.11
455.07	4599.15
455.26	4486.81
455.44	4615.54
455.62	4528.94
455.81	4753.63
455.99	4674.05
456.17	4840.23
456.36	4856.61
456.54	4636.60
456.73	4765.33
456.91	4800.44
457.09	4760.65
457.28	4945.55
457.46	4814.48
457.64	4954.91
457.83	4910.44
458.01	5043.85
458.19	4968.96
458.38	4933.85
458.56	5001.72
458.74	5006.41
458.93	4968.96
459.11	5020.45
459.29	4917.47
459.48	5275.57
459.66	5135.14
459.84	5151.52
460.03	5266.21
460.21	5074.28
460.39	5233.44
460.57	5060.24
460.76	5193.65
460.94	5132.79
461.12	5390.25
461.31	5217.05
461.49	5238.12
461.67	5245.14
461.85	5448.77
462.04	5352.81
462.22	5434.72
462.40	5408.98
462.59	5308.34
462.77	5336.42
462.95	5490.90
463.13	5385.57
463.32	5596.22
463.50	5589.20
463.68	5636.01
463.86	5411.32
464.05	5385.57
464.23	5467.49
464.41	5451.11
464.59	5451.11
464.78	5678.14
464.96	5542.39
465.14	5462.81
465.32	5465.15
465.50	5589.20
465.69	5657.07
465.87	5544.73
466.05	5593.88
466.23	5619.63
466.41	5685.16
466.60	5912.19
466.78	5813.89
466.96	5619.63
467.14	5575.16
467.32	5778.78
467.51	5926.24
467.69	5710.91
467.87	5844.32
468.05	5982.41
468.23	5809.21
468.41	5935.60
468.60	5973.05
468.78	5921.56
468.96	5795.17
469.14	5933.26
469.32	6069.01
469.50	5987.09
469.69	6052.63
469.87	6108.80
470.05	6155.61
470.23	6113.48
470.41	6094.76
470.59	6153.27
470.77	6069.01
470.95	6143.91
471.14	6232.85
471.32	6115.82
471.50	6443.49
471.68	6410.73
471.86	6321.79
472.04	6331.15
472.22	6450.52
472.40	6436.47
472.58	6457.54
472.77	6443.49
472.95	6551.16
473.13	6626.06
473.31	6583.93
473.49	6392.00
473.67	6530.09
473.85	6574.56
474.03	6722.02
474.21	6766.49
474.39	6803.94
474.57	6834.36
474.75	6888.20
474.93	6977.14
475.12	6923.30
475.30	6956.07
475.48	6946.71
475.66	6988.84
475.84	6942.03
476.02	7052.03
476.20	7080.12
476.38	7337.58
476.56	7461.63
476.74	7218.21
476.92	7290.77
477.10	7276.73
477.28	7389.07
477.46	7564.61
477.64	7494.40
477.82	7597.38
478.00	7672.28
478.18	7613.76
478.36	7934.42
478.54	7864.20
478.72	7911.01
478.90	7960.16
479.08	8215.28
479.26	8002.29
479.44	8037.40
479.62	8308.90
479.80	8191.88
479.98	8283.16
480.16	8444.65
480.34	8393.16
480.52	8442.31
480.70	8564.02
480.88	8510.19
481.06	8671.68
481.24	8674.03
481.41	8713.81
481.59	9043.83
481.77	8929.14
481.95	9174.90
482.13	9125.75
482.31	9231.07
482.49	9273.20
482.67	9249.80
482.85	9399.59
483.03	9453.42
483.21	9343.42
483.39	9745.99
483.57	9568.11
483.74	9654.71
483.92	9863.02
484.10	9638.33
484.28	10202.40
484.46	10003.45
484.64	10270.27
484.82	10003.45
485.00	10101.75
485.18	10279.63
485.35	10670.50
485.53	10544.11
485.71	10499.64
485.89	10700.93
486.07	10574.54
486.25	10832.00
486.43	10785.19
486.61	10951.37
486.78	11119.89
486.96	11197.12
487.14	11428.84
487.32	11410.11
487.50	11250.96
487.68	11393.73
487.85	11506.07
488.03	11674.59
488.21	11887.58
488.39	11721.40
488.57	11859.49
488.75	11915.67
488.92	12271.43
489.10	12135.68
489.28	12402.50
489.46	12416.54
489.64	12414.20
489.81	12821.45
489.99	12479.74
490.17	12599.10
490.35	12514.84
490.53	12954.87
490.70	12844.86
490.88	13095.30
491.06	13160.83
491.24	12992.31
491.41	13357.44
491.59	13434.68
491.77	13195.94
491.95	13532.98
492.13	13563.40
492.30	13825.54
492.48	13853.63
492.66	13652.34
492.84	13781.07
493.01	13678.09
493.19	13858.31
493.37	14200.03
493.54	13886.40
493.72	14176.62
493.90	14253.86
494.08	14134.50
494.25	14560.47
494.43	14628.35
494.61	14743.03
494.79	14986.45
494.96	14724.31
495.14	14934.96
495.32	14860.06
495.49	14857.72
495.67	15112.84
495.85	15379.66
496.02	15321.15
496.20	15201.78
496.38	15602.01
496.55	15503.71
496.73	15833.72
496.91	15751.81
497.09	15742.44
497.26	15976.50
497.44	15747.12
497.62	15744.78
497.79	16327.58
497.97	16102.89
498.14	16231.62
498.32	16648.23
498.50	16500.78
498.67	16566.31
498.85	16390.77
499.03	16643.55
499.20	16886.97
499.38	16751.21
499.56	16828.45
499.73	16978.25
499.91	17193.58
500.08	17092.93
500.26	17008.67
500.44	17142.08
500.61	17062.51
500.79	17139.74
500.97	17109.32
501.14	17577.42
501.32	17757.64
501.49	17392.52
501.67	17673.39
501.84	17612.53
502.02	17689.77
502.20	17715.51
502.37	17825.52
502.55	17949.57
502.72	17806.80
502.90	17891.06
503.07	17848.93
503.25	18183.62
503.43	17879.35
503.60	18171.92
503.78	18162.56
503.95	18033.83
504.13	18469.17
504.30	18672.79
504.48	18527.68
504.65	18319.37
504.83	18778.12
505.01	18986.43
505.18	18740.67
505.36	19030.90
505.53	18551.09
505.71	18824.93
505.88	18853.02
506.06	18747.69
506.23	19154.94
506.41	19026.21
506.58	19070.68
506.76	19346.87
506.93	19262.61
507.11	19269.63
507.28	19339.85
507.46	19353.89
507.63	19433.47
507.81	19651.14
507.98	19454.53
508.16	19585.60
508.33	19541.13
508.50	19484.96
508.68	19934.34
508.85	20060.73
509.03	19976.47
509.20	20393.09
509.38	20250.32
509.55	20240.95
509.73	20357.98
509.90	20613.10
510.08	20563.95
510.25	20556.93
510.42	20800.34
510.60	20643.52
510.77	20547.56
510.95	20947.79
511.12	21109.29
511.30	20783.96
511.47	20833.11
511.64	20912.69
511.82	20978.22
511.99	21390.16
512.17	20947.79
512.34	21441.65
512.51	21483.78
512.69	21390.16
512.86	21303.56
513.04	21755.28
513.21	21720.17
513.38	21685.06
513.56	21750.60
513.73	21598.46
513.90	21680.38
514.08	21652.30
514.25	21963.59
514.43	21736.56
514.60	21996.35
514.77	22038.48
514.95	22176.58
515.12	22176.58
515.29	21963.59
515.47	22064.23
515.64	22139.13
515.81	22576.81
515.99	22635.32
516.16	22204.66
516.33	22541.70
516.51	22710.22
516.68	22427.01
516.85	22551.06
517.03	22787.46
517.20	22595.53
517.37	22642.34
517.54	22972.36
517.72	22906.82
517.89	22916.19
518.06	22740.64
518.24	22778.09
518.41	23314.08
518.58	23068.32
518.75	23190.03
518.93	23637.07
519.10	23047.26
519.27	23346.84
519.45	23281.31
519.62	23365.57
519.79	23421.74
519.96	23323.44
520.14	23349.18
520.31	23828.99
520.48	23585.58
520.65	23779.84
520.83	23812.61
521.00	23840.70
521.17	23641.75
521.34	23665.16
521.52	23939.00
521.69	23901.55
521.86	24243.27
522.03	24224.54
522.20	24233.91
522.38	24346.25
522.55	24393.06
522.72	24430.51
522.89	24402.43
523.07	24486.68
523.24	24386.04
523.41	24645.84
523.58	24301.78
523.75	24559.24
523.92	24542.86
524.10	24456.26
524.27	24606.05
524.44	24980.54
524.61	24985.22
524.78	25195.87
524.96	25282.47
525.13	25015.65
525.30	25015.65
525.47	25235.66
525.64	25135.01
525.81	25214.59
525.98	25441.62
526.16	25476.73
526.33	25191.19
526.50	25673.34
526.67	25270.76
526.84	25233.32
527.01	24905.64
527.18	25549.29
527.36	25755.26
527.53	25715.47
527.70	26045.48
527.87	25895.69
528.04	25710.78
528.21	25736.53
528.38	25638.23
528.55	25895.69
528.72	25886.32
528.89	25586.74
529.07	26031.44
529.24	25663.97
529.41	26342.73
529.58	25713.13
529.75	25914.41
529.92	26111.02
530.09	26408.26
530.26	26162.51
530.43	26391.88
530.60	26206.98
530.77	26604.87
530.94	26178.89
531.11	26075.91
531.28	26244.43
531.46	26752.32
531.63	26515.93
531.80	26436.35
531.97	26649.34
532.14	26883.39
532.31	26548.70
532.48	26600.19
532.65	27330.44
532.82	26642.32
532.99	26654.02
533.16	26621.25
533.33	27239.15
533.50	26885.73
533.67	27021.48
533.84	26867.01
534.01	26766.37
534.18	26810.84
534.35	27367.88
534.52	27033.19
534.69	27159.58
534.86	27541.08
535.03	27463.85
535.20	27393.63
535.37	27431.08
535.54	27531.72
535.71	27332.78
535.88	27030.85
536.05	27424.06
536.22	27534.06
536.38	27676.83
536.55	27679.18
536.72	27913.23
536.89	27971.74
537.06	27503.64
537.23	27997.49
537.40	27531.72
537.57	27655.77
537.74	27632.36
537.91	28074.73
538.08	27852.38
538.25	27796.20
538.42	27948.34
538.59	28364.95
538.75	28032.60
538.92	28126.22
539.09	28226.86
539.26	28287.71
539.43	28290.06
539.60	28526.45
539.77	28292.40
539.94	28376.66
540.11	28617.73
540.28	28379.00
540.44	28423.47
540.61	28648.16
540.78	28577.94
540.95	28606.03
541.12	28446.87
541.29	28709.01
541.46	28854.12
541.62	28648.16
541.79	28816.68
541.96	28982.85
542.13	28741.78
542.30	29081.16
542.47	29558.63
542.63	29460.32
542.80	29259.04
542.97	29724.80
543.14	29291.80
543.31	29362.02
543.48	29476.71
543.64	29699.06
543.81	30036.09
543.98	29514.16
544.15	30019.71
544.32	29867.58
544.48	29968.22
544.65	29376.06
544.82	29600.76
544.99	29413.51
545.16	29535.22
545.32	29570.33
545.49	30504.20
545.66	30792.09
545.83	31096.36
546.00	30824.86
546.16	30469.09
546.33	29965.88
546.50	29343.30
546.67	29949.50
546.83	29462.66
547.00	29956.52
547.17	30082.91
547.34	29970.56
547.50	30017.37
547.67	30157.80
547.84	29809.06
548.00	29853.53
548.17	30040.78
548.34	30017.37
548.51	30253.76
548.67	30178.87
548.84	30216.32
549.01	30298.23
549.18	30054.82
549.34	30396.54
549.51	29834.81
549.68	29944.81
549.84	29893.32
550.01	30270.15
550.18	30108.65
550.34	30092.27
550.51	30466.75
550.68	30717.19
550.84	30052.48
551.01	29970.56
551.18	30206.95
551.34	30185.89
551.51	30141.42
551.68	30513.56
551.84	30443.35
552.01	30003.33
552.18	30707.83
552.34	30422.28
552.51	30398.88
552.68	30387.18
552.84	30363.77
553.01	30536.97
553.18	30504.20
553.34	30560.37
553.51	30836.56
553.67	30946.56
553.84	30902.09
554.01	30618.89
554.17	30441.01
554.34	30651.66
554.51	30558.03
554.67	30773.36
554.84	31108.06
555.00	30998.06
555.17	30888.05
555.33	31358.50
555.50	30476.12
555.67	30925.50
555.83	30529.95
556.00	30986.35
556.16	31037.84
556.33	30656.34
556.50	30874.01
556.66	31161.89
556.83	30471.43
556.99	31178.28
557.16	31353.82
557.32	31487.23
557.49	31215.72
557.65	30752.30
557.82	31299.98
557.98	30874.01
558.15	31030.82
558.32	31323.39
558.48	30951.24
558.65	31131.47
558.81	31140.83
558.98	31126.78
559.14	30909.11
559.31	31065.93
559.47	31019.12
559.64	31070.61
559.80	31229.77
559.97	31147.85
560.13	31342.11
560.30	30998.06
560.46	31475.52
560.63	31725.96
560.79	31297.64
560.96	31154.87
561.12	31180.62
561.29	31194.66
561.45	31531.70
561.61	31505.95
561.78	31229.77
561.94	31632.34
562.11	31498.93
562.27	31220.41
562.44	31110.40
562.60	31026.14
562.77	31250.83
562.93	30965.29
563.10	31508.29
563.26	31627.66
563.42	32184.71
563.59	31679.15
563.75	31765.75
563.92	31861.71
564.08	31503.61
564.24	31548.08
564.41	31243.81
564.57	31260.20
564.74	31791.50
564.90	31573.83
565.07	31690.85
565.23	31332.75
565.39	31260.20
565.56	31536.38
565.72	31255.51
565.88	31770.43
566.05	31381.90
566.21	31351.48
566.38	31454.46
566.54	31571.49
566.70	31522.34
566.87	32130.87
567.03	31681.49
567.19	31974.06
567.36	31578.51
567.52	31398.29
567.68	31508.29
567.85	31519.99
568.01	31971.72
568.17	31496.59
568.34	31491.91
568.50	31957.67
568.66	31725.96
568.83	31761.07
568.99	31538.72
569.15	31414.67
569.32	31697.88
569.48	31386.58
569.64	32098.11
569.81	31943.63
569.97	31601.91
570.13	31742.35
570.30	31627.66
570.46	31901.50
570.62	31871.07
570.78	31592.55
570.95	32023.21
571.11	31424.03
571.27	31583.19
571.43	31557.44
571.60	31868.73
571.76	32137.90
571.92	31480.21
572.09	31749.37
572.25	31924.91
572.41	31978.74
572.57	32041.93
572.74	31910.86
572.90	31349.14
573.06	31374.88
573.22	31655.75
573.38	31835.97
573.55	31475.52
573.71	31889.80
573.87	32304.07
574.03	31798.52
574.20	31700.22
574.36	32130.87
574.52	31512.97
574.68	31889.80
574.84	31889.80
575.01	32023.21
575.17	31805.54
575.33	31536.38
575.49	31658.09
575.65	32521.74
575.82	32041.93
575.98	31887.46
576.14	32226.84
576.30	31864.05
576.46	31962.36
576.62	32058.32
576.79	32173.00
576.95	31842.99
577.11	32212.79
577.27	32048.96
577.43	32072.36
577.59	32081.72
577.75	31803.20
577.92	31496.59
578.08	31840.65
578.24	31452.12
578.40	32268.97
578.56	31821.92
578.72	32318.12
578.88	32240.88
579.04	32547.49
579.21	31711.92
579.37	31990.44
579.53	32147.26
579.69	31681.49
579.85	31988.10
580.01	31828.95
580.17	31882.78
580.33	32098.11
580.49	32093.43
580.65	32283.01
580.82	31920.23
580.98	31763.41
581.14	32055.98
581.30	32149.60
581.46	31784.48
581.62	31695.53
581.78	31770.43
581.94	31828.95
582.10	31468.50
582.26	32196.41
582.42	31817.24
582.58	32416.42
582.74	31683.83
582.90	32112.15
583.06	31936.61
583.22	31697.88
583.38	31955.33
583.54	31896.82
583.70	32039.59
583.86	31793.84
584.02	31861.71
584.18	32355.57
584.34	31875.76
584.50	32589.62
584.66	32060.66
584.82	31983.42
584.98	32280.67
585.14	31892.14
585.30	31950.65
585.46	32123.85
585.62	31871.07
585.78	31967.04
585.94	31967.04
586.10	31988.10
586.26	32332.16
586.42	32177.68
586.58	32442.17
586.74	31655.75
586.90	32004.49
587.06	31960.02
587.22	32493.66
587.38	31906.18
587.54	32222.16
587.70	32463.23
587.86	32304.07
588.02	32114.49
588.18	32240.88
588.34	31906.18
588.49	32250.24
588.65	31866.39
588.81	32205.77
588.97	32065.34
589.13	32034.91
589.29	31964.70
589.45	31964.70
589.61	32194.07
589.77	32175.34
589.93	32648.13
590.08	32577.92
590.24	32524.08
590.40	32161.30
590.56	32084.06
590.72	32297.05
590.88	32121.51
591.04	32411.74
591.20	32215.13
591.35	32283.01
591.51	32526.42
591.67	32460.89
591.83	32790.91
