SpectraSuite Data File
++++++++++++++++++++++++++++++++++++
Date: Fri Oct 04 11:39:58 GMT-05:00 2013
User: price-jones
Dark Spectrum Present: No
Reference Spectrum Present: No
Number of Sampled Component Spectra: 1
Spectrometers: USB2+H05261
Integration Time (usec): 100000 (USB2+H05261)
Spectra Averaged: 1 (USB2+H05261)
Boxcar Smoothing: 0 (USB2+H05261)
Correct for Electrical Dark: No (USB2+H05261)
Strobe/Lamp Enabled: No (USB2+H05261)
Correct for Detector Non-linearity: No (USB2+H05261)
Correct for Stray Light: No (USB2+H05261)
Number of Pixels in Processed Spectrum: 2048
>>>>>Begin Processed Spectral Data<<<<<
365.73	67.88
365.92	67.88
366.12	67.88
366.32	0.00
366.52	0.00
366.72	0.00
366.91	2.34
367.11	0.00
367.31	0.00
367.51	0.00
367.70	0.00
367.90	0.00
368.10	0.00
368.30	0.00
368.49	0.00
368.69	0.00
368.89	0.00
369.09	0.00
369.28	16.38
369.48	0.00
369.68	0.00
369.87	0.00
370.07	0.00
370.27	91.28
370.47	100.64
370.66	42.13
370.86	142.77
371.06	124.05
371.25	81.92
371.45	119.37
371.65	88.94
371.84	114.69
372.04	86.60
372.24	126.39
372.44	93.62
372.63	102.98
372.83	131.07
373.03	138.09
373.22	126.39
373.42	217.67
373.62	245.76
373.81	142.77
374.01	208.31
374.21	170.86
374.40	156.82
374.60	154.48
374.79	166.18
374.99	138.09
375.19	208.31
375.38	184.90
375.58	163.84
375.78	189.58
375.97	173.20
376.17	280.86
376.37	131.07
376.56	154.48
376.76	166.18
376.95	147.45
377.15	250.44
377.35	156.82
377.54	149.79
377.74	198.95
377.93	142.77
378.13	156.82
378.33	236.39
378.52	128.73
378.72	201.29
378.91	147.45
379.11	208.31
379.31	168.52
379.50	220.01
379.70	154.48
379.89	189.58
380.09	159.16
380.28	173.20
380.48	170.86
380.68	170.86
380.87	156.82
381.07	175.54
381.26	126.39
381.46	208.31
381.65	297.25
381.85	238.73
382.04	170.86
382.24	191.92
382.43	147.45
382.63	168.52
382.83	189.58
383.02	227.03
383.22	238.73
383.41	224.69
383.61	191.92
383.80	224.69
384.00	184.90
384.19	215.33
384.39	250.44
384.58	212.99
384.78	212.99
384.97	234.05
385.17	227.03
385.36	222.35
385.56	250.44
385.75	180.22
385.95	175.54
386.14	128.73
386.34	184.90
386.53	187.24
386.72	79.58
386.92	269.16
387.11	313.63
387.31	234.05
387.50	180.22
387.70	205.97
387.89	294.91
388.09	163.84
388.28	182.56
388.48	159.16
388.67	196.60
388.86	262.14
389.06	215.33
389.25	212.99
389.45	250.44
389.64	205.97
389.84	262.14
390.03	245.76
390.22	210.65
390.42	229.37
390.61	231.71
390.81	196.60
391.00	152.13
391.19	243.42
391.39	280.86
391.58	217.67
391.78	248.10
391.97	229.37
392.16	138.09
392.36	203.63
392.55	208.31
392.75	259.80
392.94	278.52
393.13	292.57
393.33	262.14
393.52	266.82
393.71	315.97
393.91	262.14
394.10	243.42
394.29	318.31
394.49	301.93
394.68	252.78
394.88	287.89
395.07	294.91
395.26	285.55
395.46	250.44
395.65	250.44
395.84	248.10
396.04	294.91
396.23	308.95
396.42	287.89
396.62	280.86
396.81	205.97
397.00	315.97
397.19	327.68
397.39	262.14
397.58	306.61
397.77	330.02
397.97	318.31
398.16	299.59
398.35	341.72
398.55	318.31
398.74	287.89
398.93	318.31
399.12	351.08
399.32	369.80
399.51	332.36
399.70	346.40
399.90	395.55
400.09	393.21
400.28	374.49
400.47	362.78
400.67	395.55
400.86	360.44
401.05	386.19
401.24	414.27
401.44	402.57
401.63	353.42
401.82	383.85
402.01	381.51
402.21	430.66
402.40	411.93
402.59	418.96
402.78	423.64
402.97	362.78
403.17	475.13
403.36	404.91
403.55	512.58
403.74	421.30
403.93	402.57
404.13	526.62
404.32	486.83
404.51	425.98
404.70	571.09
404.89	423.64
405.09	524.28
405.28	477.47
405.47	512.58
405.66	514.92
405.85	554.71
406.05	531.30
406.24	470.45
406.43	589.82
406.62	456.40
406.81	592.16
407.00	561.73
407.20	615.56
407.39	554.71
407.58	599.18
407.77	596.84
407.96	636.63
408.15	617.90
408.34	622.58
408.54	594.50
408.73	547.69
408.92	613.22
409.11	624.92
409.30	667.05
409.49	608.54
409.68	613.22
409.87	578.11
410.07	786.42
410.26	629.60
410.45	657.69
410.64	662.37
410.83	667.05
411.02	765.36
411.21	741.95
411.40	711.52
411.59	734.93
411.78	774.72
411.98	685.78
412.17	760.67
412.36	748.97
412.55	770.04
412.74	798.12
412.93	889.40
413.12	828.55
413.31	940.90
413.50	809.83
413.69	877.70
413.88	880.04
414.07	887.06
414.26	912.81
414.45	966.64
414.64	863.66
414.83	903.45
415.02	901.11
415.22	929.19
415.41	926.85
415.60	933.87
415.79	987.71
415.98	952.60
416.17	1015.79
416.36	980.68
416.55	938.55
416.74	1025.15
416.93	994.73
417.12	1109.41
417.31	1078.99
417.50	973.66
417.69	1130.48
417.88	1071.97
418.07	1123.46
418.26	1076.65
418.45	1093.03
418.64	1170.27
418.83	1069.62
419.02	1132.82
419.21	1060.26
419.39	1123.46
419.58	1095.37
419.77	1107.07
419.96	1097.71
420.15	1231.12
420.34	1095.37
420.53	1188.99
420.72	1114.10
420.91	1186.65
421.10	1200.69
421.29	1317.72
421.48	1226.44
421.67	1210.06
421.86	1196.01
422.05	1163.25
422.24	1235.80
422.43	1327.08
422.61	1259.21
422.80	1193.67
422.99	1327.08
423.18	1287.29
423.37	1348.15
423.56	1324.74
423.75	1350.49
423.94	1240.48
424.13	1226.44
424.32	1259.21
424.50	1310.70
424.69	1196.01
424.88	1364.53
425.07	1266.23
425.26	1329.42
425.45	1219.42
425.64	1373.89
425.83	1224.10
426.01	1334.11
426.20	1329.42
426.39	1338.79
426.58	1224.10
426.77	1315.38
426.96	1315.38
427.15	1322.40
427.33	1317.72
427.52	1254.53
427.71	1404.32
427.90	1430.07
428.09	1343.47
428.28	1441.77
428.46	1437.09
428.65	1404.32
428.84	1427.73
429.03	1495.60
429.22	1476.88
429.40	1362.19
429.59	1479.22
429.78	1324.74
429.97	1334.11
430.16	1497.94
430.34	1413.68
430.53	1446.45
430.72	1446.45
430.91	1479.22
431.10	1451.13
431.28	1413.68
431.47	1544.75
431.66	1547.09
431.85	1521.35
432.03	1621.99
432.22	1495.60
432.41	1547.09
432.60	1617.31
432.79	1582.20
432.97	1547.09
433.16	1530.71
433.35	1610.29
433.54	1605.61
433.72	1500.28
433.91	1570.50
434.10	1589.22
434.28	1629.01
434.47	1689.87
434.66	1584.54
434.85	1694.55
435.03	1839.66
435.22	1891.15
435.41	2076.06
435.59	2106.48
435.78	1973.07
435.97	1813.92
436.16	1699.23
436.34	1706.25
436.53	1762.42
436.72	1806.89
436.90	1769.44
437.09	1748.38
437.28	1708.59
437.46	1694.55
437.65	1755.40
437.84	1673.48
438.02	1729.66
438.21	1708.59
438.40	1771.79
438.58	1811.57
438.77	1804.55
438.96	1717.95
439.14	1912.22
439.33	1853.70
439.52	1872.43
439.70	1834.98
439.89	1987.11
440.08	1884.13
440.26	1980.09
440.45	1909.88
440.63	2071.37
440.82	1987.11
441.01	1963.71
441.19	1874.77
441.38	2005.84
441.57	2078.40
441.75	1952.01
441.94	2120.53
442.12	2062.01
442.31	2071.37
442.50	2094.78
442.68	2012.86
442.87	2036.27
443.05	2076.06
443.24	2202.44
443.43	2225.85
443.61	2207.13
443.80	2097.12
443.98	2106.48
444.17	2031.58
444.35	2204.78
444.54	2190.74
444.73	2188.40
444.91	2186.06
445.10	2113.50
445.28	2099.46
445.47	2214.15
445.65	2115.84
445.84	2099.46
446.02	2228.19
446.21	2090.10
446.39	2092.44
446.58	2181.38
446.77	2251.60
446.95	2129.89
447.14	2312.45
447.32	2221.17
447.51	2202.44
447.69	2242.23
447.88	2249.25
448.06	2214.15
448.25	2157.97
448.43	2237.55
448.62	2167.34
448.80	2272.66
448.99	2139.25
449.17	2289.04
449.36	2305.43
449.54	2324.15
449.73	2466.92
449.91	2263.30
450.10	2324.15
450.28	2530.12
450.46	2380.32
450.65	2396.71
450.83	2270.32
451.02	2359.26
451.20	2373.30
451.39	2296.07
451.57	2328.83
451.76	2352.24
451.94	2441.18
452.13	2487.99
452.31	2333.51
452.49	2345.22
452.68	2511.39
452.86	2457.56
453.05	2448.20
453.23	2317.13
453.42	2361.60
453.60	2448.20
453.78	2438.84
453.97	2406.07
454.15	2410.75
454.34	2551.18
454.52	2466.92
454.70	2506.71
454.89	2537.14
455.07	2509.05
455.26	2401.39
455.44	2621.40
455.62	2581.61
455.81	2579.27
455.99	2565.23
456.17	2583.95
456.36	2626.08
456.54	2649.49
456.73	2651.83
456.91	2672.89
457.09	2644.81
457.28	2810.98
457.46	2677.57
457.64	2834.39
457.83	2712.68
458.01	2731.41
458.19	2822.69
458.38	2633.10
458.56	2794.60
458.74	2635.44
458.93	2693.96
459.11	2700.98
459.29	2825.03
459.48	2834.39
459.66	2775.88
459.84	2794.60
460.03	2949.08
460.21	2724.38
460.39	2764.17
460.57	2782.90
460.76	2883.54
460.94	2888.22
461.12	2939.71
461.31	2939.71
461.49	2932.69
461.67	2913.97
461.85	2932.69
462.04	2860.13
462.22	3424.20
462.40	2846.09
462.59	2972.48
462.77	2949.08
462.95	2897.58
463.13	2998.23
463.32	3007.59
463.50	2780.56
463.68	3049.72
463.86	2920.99
464.05	3042.70
464.23	2967.80
464.41	3021.63
464.59	3089.51
464.78	2965.46
464.96	2981.84
465.14	2986.52
465.32	2970.14
465.50	3084.83
465.69	3183.13
465.87	3002.91
466.05	3138.66
466.23	3045.04
466.41	3112.91
466.60	3173.77
466.78	3152.70
466.96	3136.32
467.14	3143.34
467.32	3145.68
467.51	3056.74
467.69	3204.19
467.87	3173.77
468.05	3054.40
468.23	3002.91
468.41	3150.36
468.60	3368.03
468.78	3222.92
468.96	3148.02
469.14	3227.60
469.32	3279.09
469.50	3150.36
469.69	3356.33
469.87	3267.39
470.05	3361.01
470.23	3229.94
470.41	3248.66
470.59	3293.13
470.77	3400.80
470.95	3349.31
471.14	3421.86
471.32	3400.80
471.50	3513.14
471.68	3419.52
471.86	3431.23
472.04	3410.16
472.22	3463.99
472.40	3522.51
472.58	3393.78
472.77	3515.48
472.95	3576.34
473.13	3688.68
473.31	3524.85
473.49	3524.85
473.67	3555.27
473.85	3620.81
474.03	3716.77
474.21	3508.46
474.39	3543.57
474.57	3824.44
474.75	3836.14
474.93	3812.73
475.12	3761.24
475.30	3868.91
475.48	3808.05
475.66	3882.95
475.84	3838.48
476.02	3794.01
476.20	3908.69
476.38	3920.40
476.56	3992.95
476.74	4049.13
476.92	3983.59
477.10	3913.38
477.28	3981.25
477.46	4067.85
477.64	4044.45
477.82	4196.58
478.00	4227.01
478.18	4187.22
478.36	3995.29
478.54	4304.25
478.72	4280.84
478.90	4285.52
479.08	4311.27
479.26	4411.91
479.44	4320.63
479.62	4435.32
479.80	4327.65
479.98	4397.87
480.16	4503.19
480.34	4503.19
480.52	4568.73
480.70	4629.58
480.88	4491.49
481.06	4575.75
481.24	4671.71
481.41	4767.67
481.59	4802.78
481.77	4676.39
481.95	4856.61
482.13	5018.11
482.31	4847.25
482.49	4929.17
482.67	4980.66
482.85	4994.70
483.03	5158.54
483.21	5188.97
483.39	5132.79
483.57	5114.07
483.74	5165.56
483.92	5156.20
484.10	5203.01
484.28	5369.19
484.46	5408.98
484.64	5387.91
484.82	5425.36
485.00	5486.22
485.18	5523.66
485.35	5692.18
485.53	5596.22
485.71	5563.45
485.89	5640.69
486.07	5846.66
486.25	5881.77
486.43	5708.57
486.61	6008.16
486.78	5832.62
486.96	6017.52
487.14	5968.37
487.32	5858.36
487.50	6115.82
487.68	6005.81
487.85	6052.63
488.03	6319.45
488.21	6462.22
488.39	6368.60
488.57	6389.66
488.75	6347.53
488.92	6736.06
489.10	6525.41
489.28	6567.54
489.46	6663.51
489.64	6609.67
489.81	6724.36
489.99	6733.72
490.17	6796.92
490.35	6881.18
490.53	6808.62
490.70	7080.12
490.88	6862.45
491.06	7059.06
491.24	7143.32
491.41	7082.46
491.59	7133.95
491.77	6916.28
491.95	7152.68
492.13	7248.64
492.30	7445.24
492.48	7281.41
492.66	7363.33
492.84	7192.47
493.01	7445.24
493.19	7548.23
493.37	7461.63
493.54	7583.34
493.72	7522.48
493.90	7576.31
494.08	7590.36
494.25	7740.15
494.43	7693.34
494.61	7873.56
494.79	7817.39
494.96	7971.86
495.14	7861.86
495.32	7840.79
495.49	7932.08
495.67	8159.11
495.85	7974.21
496.02	8222.30
496.20	8049.10
496.38	8381.46
496.55	8084.21
496.73	8344.01
496.91	8264.43
497.09	8306.56
497.26	8362.73
497.44	8472.74
497.62	8407.20
497.79	8608.49
497.97	8376.78
498.14	8737.22
498.32	8819.14
498.50	8568.70
498.67	8720.84
498.85	8578.06
499.03	8709.13
499.20	8879.99
499.38	8767.65
499.56	8856.59
499.73	9027.45
499.91	8990.00
500.08	8964.25
500.26	9060.21
500.44	9062.55
500.61	9092.98
500.79	9198.31
500.97	9032.13
501.14	9280.22
501.32	9160.86
501.49	8980.64
501.67	9004.04
501.84	9404.27
502.02	9132.77
502.20	9441.72
502.37	9432.36
502.55	9387.89
502.72	9565.77
502.90	9427.68
503.07	9493.21
503.25	9348.10
503.43	9413.63
503.60	9446.40
503.78	9547.05
503.95	9682.80
504.13	9841.95
504.30	9783.44
504.48	9666.41
504.65	9647.69
504.83	9933.23
505.01	9844.29
505.18	9652.37
505.36	9996.43
505.53	9795.14
505.71	9902.81
505.88	10064.30
506.06	9982.38
506.23	10047.92
506.41	10181.33
506.58	9975.36
506.76	10036.22
506.93	10122.82
507.11	10211.76
507.28	10139.20
507.46	10129.84
507.63	10253.89
507.81	10525.39
507.98	10366.23
508.16	10424.75
508.33	10260.91
508.50	10593.26
508.68	10471.56
508.85	10626.03
509.03	10567.52
509.20	10546.45
509.38	10581.56
509.55	10607.31
509.73	10640.08
509.90	10789.87
510.08	10602.63
510.25	10710.29
510.42	10939.66
510.60	11054.35
510.77	10871.79
510.95	10995.84
511.12	10839.02
511.30	10698.59
511.47	11082.44
511.64	11021.58
511.82	11227.55
511.99	10965.41
512.17	10986.47
512.34	10953.71
512.51	11197.12
512.69	11030.94
512.86	11208.83
513.04	11035.63
513.21	11508.41
513.38	11281.38
513.56	11452.24
513.73	11335.21
513.90	11386.71
514.08	11246.27
514.25	11419.47
514.43	11625.44
514.60	11786.94
514.77	11679.27
514.95	11620.76
515.12	11648.85
515.29	11583.31
515.47	11620.76
515.64	11758.85
515.81	11522.46
515.99	11786.94
516.16	11922.69
516.33	11824.39
516.51	11721.40
516.68	11913.33
516.85	11854.81
517.03	12070.14
517.20	11967.16
517.37	12095.89
517.54	11990.56
517.72	12077.16
517.89	12070.14
518.06	12198.87
518.24	11880.56
518.41	11974.18
518.58	12196.53
518.75	12112.27
518.93	12292.49
519.10	12100.57
519.27	12182.49
519.45	12138.02
519.62	12161.42
519.79	12367.39
519.96	12107.59
520.14	12252.70
520.31	12341.64
520.48	12442.29
520.65	12428.24
520.83	12463.35
521.00	12439.95
521.17	12601.44
521.34	12416.54
521.52	12456.33
521.69	12446.97
521.86	12748.90
522.03	12608.47
522.20	12744.22
522.38	12751.24
522.55	12554.63
522.72	12851.88
522.89	12886.99
523.07	12858.90
523.24	12739.54
523.41	12849.54
523.58	12966.57
523.75	12994.65
523.92	12723.15
524.10	13036.78
524.27	12767.62
524.44	13057.85
524.61	13282.54
524.78	13247.43
524.96	13121.04
525.13	13128.06
525.30	13163.17
525.47	13350.42
525.64	13217.01
525.81	13280.20
525.98	13525.96
526.16	13027.42
526.33	13156.15
526.50	13495.53
526.67	13249.77
526.84	13341.05
527.01	13142.11
527.18	13238.07
527.36	13376.16
527.53	13561.06
527.70	13523.62
527.87	13781.07
528.04	13776.39
528.21	13600.85
528.38	13437.02
528.55	13664.05
528.72	13497.87
528.89	13717.88
529.07	13745.97
529.24	13472.12
529.41	13785.76
529.58	13776.39
529.75	13593.83
529.92	13752.99
530.09	13680.43
530.26	13769.37
530.43	13811.50
530.60	13699.16
530.77	13788.10
530.94	14232.80
531.11	14122.79
531.28	13748.31
531.46	13706.18
531.63	13954.27
531.80	14010.45
531.97	13820.86
532.14	13862.99
532.31	13905.12
532.48	14024.49
532.65	13865.33
532.82	13991.72
532.99	14230.46
533.16	14029.17
533.33	14335.78
533.50	14324.08
533.67	14387.27
533.84	14162.58
534.01	14101.73
534.18	14064.28
534.35	14090.02
534.52	14487.92
534.69	14436.42
534.86	14211.73
535.03	14277.27
535.20	14745.38
535.37	14490.26
535.54	14499.62
535.71	14424.72
535.88	14398.98
536.05	14483.24
536.22	14600.26
536.38	14483.24
536.55	14775.80
536.72	14370.89
536.89	14492.60
537.06	14513.66
537.23	14508.98
537.40	14714.95
537.57	14574.52
537.74	14621.33
537.91	14874.10
538.08	14827.29
538.25	14747.72
538.42	14761.76
538.59	14728.99
538.75	14544.09
538.92	14700.90
539.09	15077.73
539.26	15037.94
539.43	14822.61
539.60	15026.24
539.77	15007.52
539.94	14810.91
540.11	15014.54
540.28	15094.11
540.44	15391.36
540.61	15140.93
540.78	15222.84
540.95	15227.53
541.12	15435.83
541.29	15690.95
541.46	15508.39
541.62	15307.10
541.79	15662.86
541.96	15157.31
542.13	15545.84
542.30	15424.13
542.47	15744.78
542.63	15534.14
542.80	15693.29
542.97	15730.74
543.14	15662.86
543.31	15592.65
543.48	15557.54
543.64	16027.99
543.81	15604.35
543.98	15852.45
544.15	16098.20
544.32	15873.51
544.48	15967.13
544.65	15716.70
544.82	15613.71
544.99	15796.28
545.16	15913.30
545.32	15871.17
545.49	16620.14
545.66	16879.94
545.83	16793.34
546.00	16746.53
546.16	16535.88
546.33	16056.08
546.50	15648.82
546.67	15515.41
546.83	15576.27
547.00	15927.35
547.17	16056.08
547.34	16163.74
547.50	16095.86
547.67	16081.82
547.84	15955.43
548.00	15800.96
548.17	15988.20
548.34	15775.21
548.51	16114.59
548.67	16184.80
548.84	15831.38
549.01	15660.52
549.18	15695.63
549.34	15859.47
549.51	15744.78
549.68	15910.96
549.84	15892.24
550.01	16023.31
550.18	15948.41
550.34	16257.36
550.51	16086.50
550.68	15999.90
550.84	15957.77
551.01	16091.18
551.18	15981.18
551.34	15992.88
551.51	16116.93
551.68	15971.82
551.84	15903.94
552.01	16163.74
552.18	16243.32
552.34	15646.48
552.51	16027.99
552.68	16056.08
552.84	15829.04
553.01	16095.86
553.18	15953.09
553.34	16145.02
553.51	16170.76
553.67	16231.62
553.84	16166.08
554.01	16240.98
554.17	16173.10
554.34	16390.77
554.51	16341.62
554.67	16112.25
554.84	16187.14
555.00	16212.89
555.17	16231.62
555.33	16201.19
555.50	16013.95
555.67	16283.11
555.83	15934.37
556.00	16063.10
556.16	16468.01
556.33	15873.51
556.50	16343.96
556.66	16226.93
556.83	16196.51
556.99	16229.27
557.16	16533.54
557.32	16278.43
557.49	16388.43
557.65	15866.49
557.82	16245.66
557.98	16116.93
558.15	16383.75
558.32	16402.47
558.48	16002.24
558.65	16592.06
558.81	16568.65
558.98	16255.02
559.14	16173.10
559.31	16416.52
559.47	16510.14
559.64	16393.11
559.80	16231.62
559.97	16526.52
560.13	16292.47
560.30	16446.94
560.46	16430.56
560.63	16592.06
560.79	16203.53
560.96	16664.61
561.12	16559.29
561.29	16301.83
561.45	16404.81
561.61	16379.07
561.78	16608.44
561.94	16517.16
562.11	16589.72
562.27	16458.65
562.44	16430.56
562.60	15953.09
562.77	16453.97
562.93	16484.39
563.10	16259.70
563.26	16329.92
563.42	16563.97
563.59	16496.10
563.75	16519.50
563.92	16320.56
564.08	16393.11
564.24	16395.45
564.41	16416.52
564.57	16446.94
564.74	16369.71
564.90	16535.88
565.07	16638.87
565.23	16723.13
565.39	16730.15
565.56	16381.41
565.72	16533.54
565.88	16709.08
566.05	16620.14
566.21	16353.32
566.38	16367.37
566.54	16390.77
566.70	16418.86
566.87	16645.89
567.03	16627.17
567.19	16627.17
567.36	16610.78
567.52	16350.98
567.68	16549.93
567.85	16636.53
568.01	16702.06
568.17	16453.97
568.34	16549.93
568.50	16659.93
568.66	16514.82
568.83	16645.89
568.99	16723.13
569.15	16479.71
569.32	16713.77
569.48	16643.55
569.64	16271.40
569.81	16365.03
569.97	16540.57
570.13	16807.39
570.30	16491.41
570.46	17060.16
570.62	16730.15
570.78	16620.14
570.95	16451.63
571.11	16671.64
571.27	16542.91
571.43	16456.31
571.60	16793.34
571.76	16372.05
571.92	16793.34
572.09	16688.02
572.25	16933.78
572.41	16659.93
572.57	16681.00
572.74	16664.61
572.90	16339.28
573.06	16711.42
573.22	16889.31
573.38	16594.40
573.55	16507.80
573.71	16957.18
573.87	16491.41
574.03	16758.24
574.20	16769.94
574.36	16610.78
574.52	16800.37
574.68	16671.64
574.84	17025.06
575.01	16615.46
575.17	16767.60
575.33	16596.74
575.49	16863.56
575.65	16985.27
575.82	16800.37
575.98	16435.24
576.14	16968.88
576.30	16931.44
576.46	16833.13
576.62	16968.88
576.79	16886.97
576.95	16931.44
577.11	16964.20
577.27	17027.40
577.43	16631.85
577.59	16915.05
577.75	16697.38
577.92	16620.14
578.08	16912.71
578.24	16442.26
578.40	16835.47
578.56	17334.01
578.72	17011.01
578.88	17135.06
579.04	16982.93
579.21	16933.78
579.37	16875.26
579.53	16690.36
579.69	16533.54
579.85	16893.99
580.01	16734.83
580.17	16781.64
580.33	16783.98
580.49	16833.13
580.65	16788.66
580.82	16889.31
580.98	16673.98
581.14	16552.27
581.30	16812.07
581.46	16901.01
581.62	16538.23
581.78	16872.92
581.94	16954.84
582.10	16837.81
582.26	16589.72
582.42	16968.88
582.58	17057.82
582.74	17170.17
582.90	16748.87
583.06	16720.79
583.22	17003.99
583.38	16872.92
583.54	16606.10
583.70	16772.28
583.86	16842.50
584.02	17027.40
584.18	17263.79
584.34	16868.24
584.50	17053.14
584.66	16896.33
584.82	16685.68
584.98	16812.07
585.14	17003.99
585.30	16980.59
585.46	17067.19
585.62	16578.01
585.78	16966.54
585.94	16798.02
586.10	16610.78
586.26	16973.56
586.42	17050.80
586.58	17205.28
586.74	17050.80
586.90	16744.19
587.06	17025.06
587.22	16882.28
587.38	16814.41
587.54	17170.17
587.70	17186.55
587.86	17032.08
588.02	16987.61
588.18	16814.41
588.34	17043.78
588.49	16933.78
588.65	16744.19
588.81	16950.16
588.97	16800.37
589.13	16861.22
589.29	16915.05
589.45	16952.50
589.61	16898.67
589.77	17062.51
589.93	16959.52
590.08	16952.50
590.24	16992.29
590.40	17011.01
590.56	16999.31
590.72	16954.84
590.88	16498.44
591.04	16861.22
591.20	17179.53
591.35	17294.22
591.51	17226.34
591.67	17296.56
591.83	17216.98
591.99	17209.96
592.15	17039.10
592.31	17137.40
592.46	17046.12
592.62	17135.06
592.78	16903.35
592.94	16936.12
593.10	16865.90
593.26	17067.19
593.41	17427.63
