SpectraSuite Data File
++++++++++++++++++++++++++++++++++++
Date: Fri Oct 04 11:39:29 GMT-05:00 2013
User: price-jones
Dark Spectrum Present: No
Reference Spectrum Present: No
Number of Sampled Component Spectra: 1
Spectrometers: USB2+H05261
Integration Time (usec): 100000 (USB2+H05261)
Spectra Averaged: 1 (USB2+H05261)
Boxcar Smoothing: 0 (USB2+H05261)
Correct for Electrical Dark: No (USB2+H05261)
Strobe/Lamp Enabled: No (USB2+H05261)
Correct for Detector Non-linearity: No (USB2+H05261)
Correct for Stray Light: No (USB2+H05261)
Number of Pixels in Processed Spectrum: 2048
>>>>>Begin Processed Spectral Data<<<<<
365.73	93.62
365.92	93.62
366.12	93.62
366.32	0.00
366.52	0.00
366.72	91.28
366.91	0.00
367.11	0.00
367.31	0.00
367.51	0.00
367.70	0.00
367.90	0.00
368.10	0.00
368.30	0.00
368.49	0.00
368.69	0.00
368.89	0.00
369.09	2.34
369.28	0.00
369.48	4.68
369.68	53.83
369.87	4.68
370.07	11.70
370.27	37.45
370.47	23.41
370.66	74.90
370.86	142.77
371.06	182.56
371.25	140.43
371.45	86.60
371.65	184.90
371.84	88.94
372.04	133.41
372.24	138.09
372.44	142.77
372.63	166.18
372.83	257.46
373.03	173.20
373.22	159.16
373.42	156.82
373.62	159.16
373.81	168.52
374.01	189.58
374.21	252.78
374.40	215.33
374.60	241.08
374.79	81.92
374.99	245.76
375.19	173.20
375.38	205.97
375.58	238.73
375.78	224.69
375.97	238.73
376.17	266.82
376.37	208.31
376.56	161.50
376.76	112.35
376.95	212.99
377.15	187.24
377.35	180.22
377.54	201.29
377.74	234.05
377.93	187.24
378.13	220.01
378.33	227.03
378.52	187.24
378.72	184.90
378.91	198.95
379.11	189.58
379.31	142.77
379.50	180.22
379.70	182.56
379.89	175.54
380.09	264.48
380.28	210.65
380.48	224.69
380.68	262.14
380.87	168.52
381.07	196.60
381.26	234.05
381.46	215.33
381.65	217.67
381.85	262.14
382.04	210.65
382.24	294.91
382.43	252.78
382.63	201.29
382.83	203.63
383.02	238.73
383.22	315.97
383.41	255.12
383.61	229.37
383.80	182.56
384.00	313.63
384.19	182.56
384.39	231.71
384.58	229.37
384.78	236.39
384.97	285.55
385.17	196.60
385.36	255.12
385.56	212.99
385.75	248.10
385.95	285.55
386.14	252.78
386.34	196.60
386.53	259.80
386.72	220.01
386.92	255.12
387.11	252.78
387.31	266.82
387.50	255.12
387.70	278.52
387.89	238.73
388.09	276.18
388.28	308.95
388.48	243.42
388.67	222.35
388.86	294.91
389.06	266.82
389.25	322.99
389.45	283.20
389.64	252.78
389.84	271.50
390.03	339.38
390.22	266.82
390.42	259.80
390.61	220.01
390.81	318.31
391.00	301.93
391.19	386.19
391.39	297.25
391.58	325.33
391.78	332.36
391.97	330.02
392.16	334.70
392.36	372.15
392.55	304.27
392.75	248.10
392.94	287.89
393.13	381.51
393.33	283.20
393.52	205.97
393.71	327.68
393.91	339.38
394.10	372.15
394.29	318.31
394.49	304.27
394.68	379.17
394.88	339.38
395.07	334.70
395.26	320.65
395.46	330.02
395.65	393.21
395.84	381.51
396.04	454.06
396.23	456.40
396.42	404.91
396.62	421.30
396.81	374.49
397.00	388.53
397.19	433.00
397.39	447.04
397.58	477.47
397.77	402.57
397.97	454.06
398.16	400.23
398.35	416.62
398.55	409.59
398.74	442.36
398.93	496.19
399.12	498.53
399.32	510.24
399.51	454.06
399.70	451.72
399.90	500.87
400.09	442.36
400.28	552.37
400.47	594.50
400.67	543.00
400.86	435.34
401.05	498.53
401.24	491.51
401.44	510.24
401.63	503.22
401.82	507.90
402.01	543.00
402.21	524.28
402.40	606.20
402.59	552.37
402.78	491.51
402.97	564.07
403.17	517.26
403.36	648.33
403.55	638.97
403.74	608.54
403.93	643.65
404.13	704.50
404.32	629.60
404.51	681.10
404.70	681.10
404.89	543.00
405.09	636.63
405.28	688.12
405.47	608.54
405.66	683.44
405.85	690.46
406.05	671.73
406.24	784.08
406.43	734.93
406.62	772.38
406.81	788.76
407.00	880.04
407.20	779.40
407.39	821.53
407.58	791.10
407.77	798.12
407.96	795.78
408.15	870.68
408.34	828.55
408.54	870.68
408.73	772.38
408.92	945.58
409.11	894.08
409.30	910.47
409.49	851.96
409.68	997.07
409.87	978.34
410.07	938.55
410.26	971.32
410.45	1001.75
410.64	990.05
410.83	1029.84
411.02	1067.28
411.21	1060.26
411.40	1046.22
411.59	1081.33
411.78	1067.28
411.98	1151.54
412.17	1076.65
412.36	1071.97
412.55	1132.82
412.74	1123.46
412.93	1153.88
413.12	1097.71
413.31	1296.66
413.50	1196.01
413.69	1310.70
413.88	1256.87
414.07	1280.27
414.26	1301.34
414.45	1291.98
414.64	1313.04
414.83	1331.76
415.02	1327.08
415.22	1303.68
415.41	1455.81
415.60	1474.54
415.79	1362.19
415.98	1500.28
416.17	1446.45
416.36	1455.81
416.55	1427.73
416.74	1537.73
416.93	1488.58
417.12	1448.79
417.31	1430.07
417.50	1617.31
417.69	1652.42
417.88	1582.20
418.07	1584.54
418.26	1570.50
418.45	1504.96
418.64	1748.38
418.83	1678.16
419.02	1605.61
419.21	1610.29
419.39	1682.85
419.58	1755.40
419.77	1685.19
419.96	1832.64
420.15	1797.53
420.34	1806.89
420.53	1748.38
420.72	1832.64
420.91	1734.34
421.10	1806.89
421.29	1872.43
421.48	1750.72
421.67	1898.17
421.86	1914.56
422.05	1860.73
422.24	1813.92
422.43	1900.52
422.61	1933.28
422.80	1956.69
422.99	1902.86
423.18	1963.71
423.37	2057.33
423.56	1928.60
423.75	2022.22
423.94	1928.60
424.13	1790.51
424.32	1827.96
424.50	1944.99
424.69	1991.80
424.88	2148.61
425.07	1998.82
425.26	1949.67
425.45	1954.35
425.64	1989.46
425.83	1839.66
426.01	2090.10
426.20	1902.86
426.39	2038.61
426.58	1994.14
426.77	2024.56
426.96	2040.95
427.15	2104.14
427.33	2001.16
427.52	1942.64
427.71	2031.58
427.90	2150.95
428.09	2104.14
428.28	2045.63
428.46	2141.59
428.65	2087.76
428.84	2190.74
429.03	2139.25
429.22	2235.21
429.40	2141.59
429.59	2172.02
429.78	2218.83
429.97	2085.42
430.16	2101.80
430.34	2179.04
430.53	2286.70
430.72	2314.79
430.91	2195.42
431.10	2270.32
431.28	2275.00
431.47	2267.98
431.66	2324.15
431.85	2195.42
432.03	2342.88
432.22	2429.48
432.41	2478.63
432.60	2452.88
432.79	2401.39
432.97	2373.30
433.16	2354.58
433.35	2373.30
433.54	2389.69
433.72	2480.97
433.91	2476.29
434.10	2452.88
434.28	2506.71
434.47	2356.92
434.66	2532.46
434.85	2434.16
435.03	2612.04
435.22	2846.09
435.41	3038.02
435.59	2981.84
435.78	2899.92
435.97	2745.45
436.16	2696.30
436.34	2499.69
436.53	2626.08
436.72	2740.77
436.90	2626.08
437.09	2677.57
437.28	2551.18
437.46	2750.13
437.65	2649.49
437.84	2818.00
438.02	2729.06
438.21	2773.53
438.40	2738.43
438.58	2775.88
438.77	2803.96
438.96	2820.35
439.14	2813.32
439.33	2928.01
439.52	2853.11
439.70	2920.99
439.89	2979.50
440.08	2970.14
440.26	2928.01
440.45	2977.16
440.63	3087.17
440.82	2991.20
441.01	3030.99
441.19	3016.95
441.38	3101.21
441.57	3105.89
441.75	3117.59
441.94	3162.06
442.12	3290.79
442.31	3262.71
442.50	3204.19
442.68	3241.64
442.87	3187.81
443.05	3236.96
443.24	3466.33
443.43	3274.41
443.61	3309.52
443.80	3361.01
443.98	3183.13
444.17	3115.25
444.35	3337.60
444.54	3363.35
444.73	3316.54
444.91	3318.88
445.10	3344.63
445.28	3227.60
445.47	3260.37
445.65	3410.16
445.84	3489.74
446.02	3487.40
446.21	3288.45
446.39	3391.44
446.58	3440.59
446.77	3288.45
446.95	3372.71
447.14	3431.23
447.32	3426.54
447.51	3332.92
447.69	3356.33
447.88	3466.33
448.06	3452.29
448.25	3471.01
448.43	3349.31
448.62	3339.94
448.80	3478.04
448.99	3435.91
449.17	3634.85
449.36	3515.48
449.54	3590.38
449.73	3562.30
449.91	3632.51
450.10	3494.42
450.28	3658.26
450.46	3632.51
450.65	3585.70
450.83	3599.74
451.02	3623.15
451.20	3609.11
451.39	3630.17
451.57	3737.84
451.76	3609.11
451.94	3726.13
452.13	3698.05
452.31	3688.68
452.49	3590.38
452.68	3686.34
452.86	3763.58
453.05	3801.03
453.23	3749.54
453.42	3742.52
453.60	3761.24
453.78	3922.74
453.97	3772.94
454.15	3866.56
454.34	3801.03
454.52	4056.15
454.70	3911.04
454.89	3936.78
455.07	3913.38
455.26	3894.65
455.44	4025.72
455.62	4014.02
455.81	4074.87
455.99	3943.80
456.17	3990.61
456.36	4060.83
456.54	3999.98
456.73	4100.62
456.91	4224.67
457.09	4161.47
457.28	4299.56
457.46	4072.53
457.64	4187.22
457.83	4208.28
458.01	4086.58
458.19	4205.94
458.38	4219.99
458.56	4306.59
458.74	4266.80
458.93	4318.29
459.11	4243.39
459.29	4147.43
459.48	4386.16
459.66	4379.14
459.84	4273.82
460.03	4421.27
460.21	4332.33
460.39	4397.87
460.57	4334.67
460.76	4449.36
460.94	4472.76
461.12	4430.63
461.31	4596.81
461.49	4329.99
461.67	4407.23
461.85	4578.09
462.04	4540.64
462.22	4681.07
462.40	4461.06
462.59	4596.81
462.77	4571.07
462.95	4699.80
463.13	4575.75
463.32	4688.09
463.50	4716.18
463.68	4512.55
463.86	4542.98
464.05	4734.90
464.23	4512.55
464.41	4877.68
464.59	4713.84
464.78	4762.99
464.96	4678.73
465.14	4681.07
465.32	4652.98
465.50	4975.98
465.69	4875.34
465.87	4896.40
466.05	4966.62
466.23	4695.11
466.41	4812.14
466.60	4964.28
466.78	4858.95
466.96	4734.90
467.14	4791.08
467.32	4788.74
467.51	4854.27
467.69	4968.96
467.87	4908.10
468.05	4809.80
468.23	4943.21
468.41	4954.91
468.60	5193.65
468.78	5177.26
468.96	4971.30
469.14	5097.69
469.32	5219.39
469.50	4964.28
469.69	5055.56
469.87	5266.21
470.05	5294.29
470.23	5184.29
470.41	5109.39
470.59	5128.11
470.77	5107.05
470.95	5308.34
471.14	5355.15
471.32	5181.95
471.50	5364.51
471.68	5252.16
471.86	5425.36
472.04	5418.34
472.22	5404.30
472.40	5540.05
472.58	5554.09
472.77	5680.48
472.95	5446.43
473.13	5797.51
473.31	5558.77
473.49	5603.24
473.67	5640.69
473.85	5657.07
474.03	5823.25
474.21	5598.56
474.39	5755.38
474.57	5872.40
474.75	5919.21
474.93	6029.22
475.12	5799.85
475.30	5956.66
475.48	6019.86
475.66	5839.64
475.84	6139.23
476.02	6197.74
476.20	5935.60
476.38	6120.50
476.56	6183.70
476.74	6258.59
476.92	6263.27
477.10	6200.08
477.28	6347.53
477.46	6312.42
477.64	6382.64
477.82	6569.88
478.00	6485.62
478.18	6644.78
478.36	6724.36
478.54	6656.48
478.72	6780.53
478.90	6827.34
479.08	6855.43
479.26	6888.20
479.44	6829.68
479.62	6972.46
479.80	7063.74
479.98	7117.57
480.16	7138.63
480.34	7166.72
480.52	7227.57
480.70	7274.38
480.88	7220.55
481.06	7227.57
481.24	7258.00
481.41	7442.90
481.59	7550.57
481.77	7733.13
481.95	7702.70
482.13	7730.79
482.31	7555.25
482.49	7901.65
482.67	7878.24
482.85	7962.50
483.03	8002.29
483.21	7971.86
483.39	8215.28
483.57	8191.88
483.74	8236.35
483.92	8346.35
484.10	8390.82
484.28	8559.34
484.46	8601.47
484.64	8561.68
484.82	8521.89
485.00	8613.17
485.18	8674.03
485.35	8769.99
485.53	8975.95
485.71	8823.82
485.89	9123.41
486.07	9221.71
486.25	9046.17
486.43	9130.43
486.61	9193.62
486.78	9331.72
486.96	9284.91
487.14	9565.77
487.32	9701.52
487.50	9570.45
487.68	9738.97
487.85	9870.04
488.03	9717.90
488.21	9877.06
488.39	10073.67
488.57	9933.23
488.75	10202.40
488.92	10429.43
489.10	10375.59
489.28	10363.89
489.46	10518.37
489.64	10492.62
489.81	10738.38
489.99	10686.89
490.17	10850.72
490.35	10895.19
490.53	10824.98
490.70	10857.75
490.88	10918.60
491.06	11014.56
491.24	11068.39
491.41	11152.65
491.59	10963.07
491.77	11009.88
491.95	11435.86
492.13	11517.78
492.30	11482.67
492.48	11548.20
492.66	11421.81
492.84	11791.62
493.01	11817.36
493.19	11637.14
493.37	11922.69
493.54	11953.12
493.72	11866.52
493.90	11920.35
494.08	12229.30
494.25	12339.30
494.43	12294.83
494.61	12343.99
494.79	12374.41
494.96	12238.66
495.14	12762.94
495.32	12919.76
495.49	12716.13
495.67	12549.95
495.85	12589.74
496.02	13004.02
496.20	12954.87
496.38	13001.68
496.55	12898.69
496.73	13312.97
496.91	13081.25
497.09	13233.39
497.26	13479.15
497.44	13348.08
497.62	13495.53
497.79	13731.92
497.97	13525.96
498.14	13762.35
498.32	13893.42
498.50	13701.50
498.67	13851.29
498.85	14141.52
499.03	14160.24
499.20	14317.06
499.38	14410.68
499.56	14288.97
499.73	14230.46
499.91	14384.93
500.08	14413.02
500.26	14153.22
500.44	14462.17
500.61	14459.83
500.79	14345.14
500.97	14567.49
501.14	14771.12
501.32	14864.74
501.49	14736.01
501.67	14682.18
501.84	14862.40
502.02	14979.43
502.20	15049.64
502.37	15166.67
502.55	15201.78
502.72	14834.32
502.90	14963.04
503.07	15098.80
503.25	15129.22
503.43	15005.17
503.60	15566.90
503.78	15555.20
503.95	15358.60
504.13	15609.03
504.30	15543.50
504.48	15419.45
504.65	15578.61
504.83	15826.70
505.01	15578.61
505.18	15873.51
505.36	15999.90
505.53	15756.49
505.71	15971.82
505.88	16074.80
506.06	15763.51
506.23	16198.85
506.41	16409.50
506.58	16156.72
506.76	16168.42
506.93	16112.25
507.11	16292.47
507.28	16210.55
507.46	16526.52
507.63	16458.65
507.81	16432.90
507.98	16533.54
508.16	16723.13
508.33	16718.45
508.50	16465.67
508.68	16805.05
508.85	16964.20
509.03	16971.22
509.20	17036.76
509.38	17062.51
509.55	17198.26
509.73	16971.22
509.90	17034.42
510.08	17266.13
510.25	16975.91
510.42	17385.50
510.60	17467.42
510.77	17444.01
510.95	17378.48
511.12	17376.14
511.30	17418.27
511.47	17511.89
511.64	17991.70
511.82	17762.33
511.99	17661.68
512.17	17872.33
512.34	17909.78
512.51	17930.84
512.69	17977.65
512.86	17989.36
513.04	17949.57
513.21	18258.52
513.38	18223.41
513.56	18057.23
513.73	18462.15
513.90	18478.53
514.08	17900.42
514.25	18651.73
514.43	18602.58
514.60	18621.30
514.77	18312.35
514.95	18752.37
515.12	18686.84
515.29	18427.04
515.47	18778.12
515.64	18909.19
515.81	19077.71
515.99	19122.18
516.16	18939.62
516.33	18965.36
516.51	18827.27
516.68	19084.73
516.85	18941.96
517.03	19264.95
517.20	18930.25
517.37	19122.18
517.54	19534.11
517.72	19374.95
517.89	19445.17
518.06	19117.50
518.24	19346.87
518.41	19349.21
518.58	19487.30
518.75	19236.86
518.93	19700.29
519.10	19599.65
519.27	19651.14
519.45	19672.20
519.62	19618.37
519.79	19707.31
519.96	19637.09
520.14	19955.41
520.31	20163.72
520.48	20039.67
520.65	19658.16
520.83	19948.39
521.00	20051.37
521.17	20051.37
521.34	20027.96
521.52	20046.69
521.69	20280.74
521.86	20444.58
522.03	20339.26
522.20	20233.93
522.38	20725.44
522.55	20357.98
522.72	20435.22
522.89	20484.37
523.07	20655.23
523.24	20648.21
523.41	20624.80
523.58	20648.21
523.75	20936.09
523.92	20613.10
524.10	20734.81
524.27	20912.69
524.44	20973.54
524.61	21043.76
524.78	20926.73
524.96	21364.41
525.13	21223.98
525.30	21156.10
525.47	21212.28
525.64	21074.18
525.81	21532.93
525.98	21605.49
526.16	21378.45
526.33	21177.17
526.50	21664.00
526.67	21198.23
526.84	21497.82
527.01	21523.57
527.18	21624.21
527.36	21600.80
527.53	21539.95
527.70	21516.54
527.87	21624.21
528.04	21638.25
528.21	21944.86
528.38	21692.08
528.55	21855.92
528.72	21738.90
528.89	22335.73
529.07	21818.47
529.24	21795.07
529.41	21989.33
529.58	21977.63
529.75	21940.18
529.92	22237.43
530.09	22010.40
530.26	21961.25
530.43	22171.89
530.60	21823.16
530.77	22162.53
530.94	22162.53
531.11	22190.62
531.28	22431.69
531.46	21884.01
531.63	22251.47
531.80	22494.89
531.97	22665.75
532.14	22581.49
532.31	22225.73
532.48	22431.69
532.65	22501.91
532.82	22080.61
532.99	22469.14
533.16	22724.26
533.33	23094.07
533.50	23030.87
533.67	23035.55
533.84	22628.30
534.01	22742.99
534.18	22590.85
534.35	22691.49
534.52	23101.09
534.69	22974.70
534.86	23171.30
535.03	22822.56
535.20	22824.90
535.37	23016.83
535.54	23049.60
535.71	22890.44
535.88	23070.66
536.05	22810.86
536.22	23016.83
536.38	23564.51
536.55	23353.87
536.72	23590.26
536.89	23267.27
537.06	23428.76
537.23	23508.34
537.40	23569.19
537.57	23400.68
537.74	23218.11
537.91	23608.98
538.08	23770.48
538.25	23328.12
538.42	23775.16
538.59	23777.50
538.75	23524.72
538.92	23840.70
539.09	23646.43
539.26	24191.78
539.43	24034.96
539.60	23838.36
539.77	23962.40
539.94	24294.76
540.11	24147.31
540.28	24032.62
540.44	24147.31
540.61	24320.51
540.78	24006.87
540.95	24151.99
541.12	24290.08
541.29	24205.82
541.46	24313.48
541.62	24697.33
541.79	24306.46
541.96	24231.57
542.13	24680.95
542.30	24666.91
542.47	24610.73
542.63	24671.59
542.80	24774.57
542.97	25144.38
543.14	25015.65
543.31	24718.40
543.48	24727.76
543.64	25034.37
543.81	25160.76
543.98	25160.76
544.15	25331.62
544.32	25228.63
544.48	25198.21
544.65	25378.43
544.82	25081.18
544.99	25116.29
545.16	25083.52
545.32	25127.99
545.49	25626.53
545.66	25811.43
545.83	26082.93
546.00	26302.94
546.16	25642.91
546.33	25343.32
546.50	25092.88
546.67	25254.38
546.83	24687.97
547.00	25497.80
547.17	25153.74
547.34	25221.61
547.50	25273.10
547.67	25596.10
547.84	25160.76
548.00	25357.36
548.17	25570.35
548.34	25572.69
548.51	25680.36
548.67	25846.54
548.84	25324.60
549.01	25441.62
549.18	25563.33
549.34	25303.53
549.51	25469.71
549.68	25656.95
549.84	25338.64
550.01	25390.13
550.18	25675.68
550.34	25436.94
550.51	25678.02
550.68	25659.29
550.84	25179.48
551.01	25556.31
551.18	25422.90
551.34	25528.22
551.51	25399.49
551.68	25338.64
551.84	25472.05
552.01	25514.18
552.18	25755.26
552.34	25631.21
552.51	25799.73
552.68	25406.52
552.84	25930.80
553.01	25626.53
553.18	25975.27
553.34	25893.35
553.51	25671.00
553.67	25909.73
553.84	25993.99
554.01	25652.27
554.17	25949.52
554.34	25893.35
554.51	25930.80
554.67	25757.60
554.84	25909.73
555.00	25893.35
555.17	26101.65
555.33	26024.42
555.50	26052.50
555.67	26143.78
555.83	25748.23
556.00	25830.15
556.16	26029.10
556.33	25720.15
556.50	25659.29
556.66	26089.95
556.83	26064.21
556.99	26246.77
557.16	26230.38
557.32	25986.97
557.49	26445.71
557.65	25841.85
557.82	25937.82
557.98	25991.65
558.15	26115.70
558.32	26281.88
558.48	26064.21
558.65	26174.21
558.81	26473.80
558.98	26384.86
559.14	26162.51
559.31	26258.47
559.47	26106.34
559.64	26038.46
559.80	26480.82
559.97	26529.97
560.13	26057.18
560.30	26338.05
560.46	26258.47
560.63	26113.36
560.79	26494.86
560.96	26689.13
561.12	26469.12
561.29	26146.12
561.45	26167.19
561.61	26476.14
561.78	26693.81
561.94	26328.69
562.11	26511.25
562.27	26614.23
562.44	26616.57
562.60	26244.43
562.77	26742.96
562.93	26345.07
563.10	26721.90
563.26	26581.46
563.42	26506.57
563.59	26742.96
563.75	26441.03
563.92	26450.39
564.08	26197.62
564.24	26195.28
564.41	26464.44
564.57	26518.27
564.74	26171.87
564.90	26773.39
565.07	26457.42
565.23	26703.17
565.39	26569.76
565.56	26637.64
565.72	26417.63
565.88	26384.86
566.05	26647.00
566.21	26590.83
566.38	26661.04
566.54	26551.04
566.70	26850.63
566.87	26890.41
567.03	26628.27
567.19	26974.67
567.36	26799.13
567.52	26501.89
567.68	26703.17
567.85	26623.59
568.01	26822.54
568.17	26515.93
568.34	26525.29
568.50	27173.62
568.66	26707.85
568.83	26953.61
568.99	26721.90
569.15	26595.51
569.32	26670.40
569.48	26466.78
569.64	26686.79
569.81	26586.15
569.97	26946.59
570.13	26813.18
570.30	26639.98
570.46	27014.46
570.62	26836.58
570.78	26775.73
570.95	26628.27
571.11	26565.08
571.27	26539.33
571.43	26597.85
571.60	26806.16
571.76	26574.44
571.92	26796.79
572.09	27087.02
572.25	27070.64
572.41	26574.44
572.57	26588.49
572.74	27030.85
572.90	26520.61
573.06	26707.85
573.22	26672.74
573.38	26862.33
573.55	27091.70
573.71	27211.07
573.87	27035.53
574.03	27030.85
574.20	26742.96
574.36	26597.85
574.52	26892.76
574.68	26852.97
574.84	26541.68
575.01	26892.76
575.17	26904.46
575.33	26642.32
575.49	26895.10
575.65	26925.52
575.82	26998.08
575.98	26728.92
576.14	26981.70
576.30	27070.64
576.46	26747.64
576.62	26939.57
576.79	27442.78
576.95	27070.64
577.11	27323.41
577.27	26972.33
577.43	26920.84
577.59	26904.46
577.75	26829.56
577.92	26764.03
578.08	26867.01
578.24	26911.48
578.40	26902.12
578.56	27365.54
578.72	27456.82
578.88	27356.18
579.04	27325.75
579.21	27131.49
579.37	26920.84
579.53	26937.23
579.69	26815.52
579.85	26977.01
580.01	27351.50
580.17	27161.92
580.33	26939.57
580.49	27115.11
580.65	26813.18
580.82	26890.41
580.98	26794.45
581.14	26824.88
581.30	27419.38
581.46	26450.39
581.62	26979.36
581.78	27026.17
581.94	27398.31
582.10	26962.97
582.26	26991.06
582.42	26981.70
582.58	27232.13
582.74	27185.32
582.90	27061.27
583.06	27089.36
583.22	26974.67
583.38	26895.10
583.54	26972.33
583.70	27033.19
583.86	26864.67
584.02	26658.70
584.18	27246.18
584.34	27105.74
584.50	27276.60
584.66	27300.01
584.82	27049.57
584.98	27124.47
585.14	26581.46
585.30	26981.70
585.46	26899.78
585.62	27044.89
585.78	27077.66
585.94	27253.20
586.10	27159.58
586.26	27094.04
586.42	27208.73
586.58	27257.88
586.74	27115.11
586.90	26918.50
587.06	26962.97
587.22	27388.95
587.38	27005.10
587.54	27044.89
587.70	27185.32
587.86	27257.88
588.02	26958.29
588.18	27103.40
588.34	27220.43
588.49	26998.08
588.65	26553.38
588.81	26742.96
588.97	27131.49
589.13	26960.63
589.29	27150.21
589.45	27440.44
589.61	27304.69
589.77	27234.47
589.93	27297.67
590.08	27342.14
590.24	27662.79
590.40	26937.23
590.56	27337.46
590.72	27611.30
590.88	27192.34
591.04	27005.10
591.20	27358.52
591.35	27548.11
591.51	27580.87
591.67	27440.44
591.83	27339.80
591.99	27314.05
592.15	27470.87
