SpectraSuite Data File
++++++++++++++++++++++++++++++++++++
Date: Fri Oct 04 11:39:39 GMT-05:00 2013
User: price-jones
Dark Spectrum Present: No
Reference Spectrum Present: No
Number of Sampled Component Spectra: 1
Spectrometers: USB2+H05261
Integration Time (usec): 100000 (USB2+H05261)
Spectra Averaged: 1 (USB2+H05261)
Boxcar Smoothing: 0 (USB2+H05261)
Correct for Electrical Dark: No (USB2+H05261)
Strobe/Lamp Enabled: No (USB2+H05261)
Correct for Detector Non-linearity: No (USB2+H05261)
Correct for Stray Light: No (USB2+H05261)
Number of Pixels in Processed Spectrum: 2048
>>>>>Begin Processed Spectral Data<<<<<
365.73	63.19
365.92	63.19
366.12	63.19
366.32	0.00
366.52	0.00
366.72	0.00
366.91	9.36
367.11	0.00
367.31	0.00
367.51	0.00
367.70	0.00
367.90	0.00
368.10	0.00
368.30	0.00
368.49	0.00
368.69	0.00
368.89	0.00
369.09	0.00
369.28	0.00
369.48	0.00
369.68	0.00
369.87	67.88
370.07	0.00
370.27	25.75
370.47	161.50
370.66	255.12
370.86	278.52
371.06	285.55
371.25	341.72
371.45	306.61
371.65	346.40
371.84	355.76
372.04	341.72
372.24	414.27
372.44	355.76
372.63	318.31
372.83	407.25
373.03	362.78
373.22	351.08
373.42	414.27
373.62	484.49
373.81	353.42
374.01	491.51
374.21	386.19
374.40	362.78
374.60	416.62
374.79	449.38
374.99	458.74
375.19	440.02
375.38	414.27
375.58	393.21
375.78	479.81
375.97	395.55
376.17	421.30
376.37	463.43
376.56	482.15
376.76	507.90
376.95	493.85
377.15	465.77
377.35	440.02
377.54	411.93
377.74	456.40
377.93	524.28
378.13	484.49
378.33	454.06
378.52	479.81
378.72	578.11
378.91	489.17
379.11	451.72
379.31	528.96
379.50	517.26
379.70	505.56
379.89	512.58
380.09	465.77
380.28	535.98
380.48	540.66
380.68	442.36
380.87	482.15
381.07	533.64
381.26	538.32
381.46	444.70
381.65	500.87
381.85	587.47
382.04	566.41
382.24	540.66
382.43	489.17
382.63	599.18
382.83	631.94
383.02	603.86
383.22	564.07
383.41	587.47
383.61	643.65
383.80	547.69
384.00	627.26
384.19	575.77
384.39	585.13
384.58	585.13
384.78	566.41
384.97	664.71
385.17	620.24
385.36	730.25
385.56	610.88
385.75	634.29
385.95	669.39
386.14	678.76
386.34	594.50
386.53	608.54
386.72	603.86
386.92	631.94
387.11	622.58
387.31	641.31
387.50	657.69
387.70	711.52
387.89	713.86
388.09	704.50
388.28	690.46
388.48	674.07
388.67	692.80
388.86	648.33
389.06	699.82
389.25	781.74
389.45	657.69
389.64	788.76
389.84	730.25
390.03	746.63
390.22	683.44
390.42	727.91
390.61	706.84
390.81	723.23
391.00	744.29
391.19	812.17
391.39	779.40
391.58	784.08
391.78	802.80
391.97	753.65
392.16	812.17
392.36	929.19
392.55	786.42
392.75	861.32
392.94	866.00
393.13	938.55
393.33	837.91
393.52	854.30
393.71	847.27
393.91	943.24
394.10	908.13
394.29	798.12
394.49	868.34
394.68	866.00
394.88	959.62
395.07	903.45
395.26	837.91
395.46	922.17
395.65	912.81
395.84	896.43
396.04	950.26
396.23	959.62
396.42	866.00
396.62	992.39
396.81	983.02
397.00	1036.86
397.19	931.53
397.39	980.68
397.58	1055.58
397.77	973.66
397.97	976.00
398.16	1046.22
398.35	1069.62
398.55	1018.13
398.74	1036.86
398.93	1172.61
399.12	1097.71
399.32	990.05
399.51	1039.20
399.70	1156.22
399.90	1139.84
400.09	1104.73
400.28	1153.88
400.47	1139.84
400.67	1130.48
400.86	1233.46
401.05	1233.46
401.24	1125.80
401.44	1188.99
401.63	1224.10
401.82	1291.98
402.01	1313.04
402.21	1217.08
402.40	1245.16
402.59	1350.49
402.78	1380.92
402.97	1366.87
403.17	1416.02
403.36	1336.45
403.55	1348.15
403.74	1376.24
403.93	1355.17
404.13	1516.67
404.32	1493.26
404.51	1486.24
404.70	1500.28
404.89	1495.60
405.09	1551.78
405.28	1554.12
405.47	1551.78
405.66	1577.52
405.85	1607.95
406.05	1570.50
406.24	1607.95
406.43	1598.59
406.62	1603.27
406.81	1685.19
407.00	1561.14
407.20	1603.27
407.39	1533.05
407.58	1717.95
407.77	1732.00
407.96	1668.80
408.15	1722.63
408.34	1767.10
408.54	1832.64
408.73	1839.66
408.92	1764.76
409.11	1912.22
409.30	1860.73
409.49	1839.66
409.68	1820.94
409.87	1764.76
410.07	1877.11
410.26	1926.26
410.45	2043.29
410.64	1930.94
410.83	1975.41
411.02	2003.50
411.21	2188.40
411.40	2104.14
411.59	2160.31
411.78	2092.44
411.98	2036.27
412.17	2153.29
412.36	2047.97
412.55	2176.70
412.74	2263.30
412.93	2246.91
413.12	2134.57
413.31	2356.92
413.50	2312.45
413.69	2403.73
413.88	2349.90
414.07	2497.35
414.26	2462.24
414.45	2452.88
414.64	2586.29
414.83	2717.36
415.02	2471.61
415.22	2473.95
415.41	2684.59
415.60	2548.84
415.79	2675.23
415.98	2855.45
416.17	2750.13
416.36	2661.19
416.55	2839.07
416.74	2822.69
416.93	2960.78
417.12	2906.95
417.31	2904.60
417.50	2956.10
417.69	3117.59
417.88	2939.71
418.07	3070.78
418.26	2925.67
418.45	2991.20
418.64	3155.04
418.83	3133.98
419.02	3159.72
419.21	3262.71
419.39	3293.13
419.58	3119.93
419.77	3159.72
419.96	3361.01
420.15	3316.54
420.34	3276.75
420.53	3211.22
420.72	3276.75
420.91	3295.47
421.10	3412.50
421.29	3304.84
421.48	3325.90
421.67	3377.39
421.86	3358.67
422.05	3482.72
422.24	3384.41
422.43	3482.72
422.61	3461.65
422.80	3679.32
422.99	3503.78
423.18	3637.19
423.37	3524.85
423.56	3454.63
423.75	3517.83
423.94	3574.00
424.13	3391.44
424.32	3391.44
424.50	3606.77
424.69	3618.47
424.88	3520.17
425.07	3634.85
425.26	3503.78
425.45	3637.19
425.64	3583.36
425.83	3688.68
426.01	3775.28
426.20	3634.85
426.39	3581.02
426.58	3552.93
426.77	3763.58
426.96	3763.58
427.15	3672.30
427.33	3693.37
427.52	3822.09
427.71	3733.15
427.90	3733.15
428.09	3819.75
428.28	3777.62
428.46	3819.75
428.65	3981.25
428.84	3960.19
429.03	4007.00
429.22	3836.14
429.40	4086.58
429.59	4046.79
429.78	3971.89
429.97	3922.74
430.16	3894.65
430.34	3911.04
430.53	3988.27
430.72	3943.80
430.91	4032.74
431.10	3925.08
431.28	4063.17
431.47	4142.75
431.66	4231.69
431.85	4203.60
432.03	4311.27
432.22	4362.76
432.41	4346.37
432.60	4374.46
432.79	4252.75
432.97	4496.17
433.16	4210.62
433.35	4355.74
433.54	4381.48
433.72	4337.01
433.91	4388.50
434.10	4465.74
434.28	4411.91
434.47	4440.00
434.66	4554.68
434.85	4596.81
435.03	4610.86
435.22	4826.18
435.41	5027.47
435.59	5032.15
435.78	4844.91
435.97	4779.37
436.16	4898.74
436.34	4706.82
436.53	4798.10
436.72	4833.21
436.90	4671.71
437.09	4828.53
437.28	4737.24
437.46	4814.48
437.65	4830.87
437.84	4826.18
438.02	4856.61
438.21	4968.96
438.40	4814.48
438.58	4910.44
438.77	5071.94
438.96	5020.45
439.14	5231.10
439.33	5301.31
439.52	5252.16
439.70	5275.57
439.89	5317.70
440.08	5249.82
440.26	5348.12
440.45	5336.42
440.63	5401.96
440.82	5664.10
441.01	5476.85
441.19	5509.62
441.38	5614.95
441.57	5626.65
441.75	5638.35
441.94	5804.53
442.12	5849.00
442.31	5884.11
442.50	5832.62
442.68	5727.29
442.87	5940.28
443.05	6033.90
443.24	5900.49
443.43	5860.70
443.61	5916.87
443.80	6036.24
443.98	5825.59
444.17	5687.50
444.35	5991.77
444.54	6029.22
444.73	6052.63
444.91	6080.71
445.10	6108.80
445.28	5937.94
445.47	5937.94
445.65	6066.67
445.84	6176.67
446.02	6239.87
446.21	5902.83
446.39	6106.46
446.58	6073.69
446.77	6083.05
446.95	6015.18
447.14	6033.90
447.32	6218.80
447.51	6164.97
447.69	6225.82
447.88	5998.79
448.06	6024.54
448.25	6054.97
448.43	6141.57
448.62	6286.68
448.80	6176.67
448.99	6157.95
449.17	6396.68
449.36	6310.08
449.54	6476.26
449.73	6408.39
449.91	6396.68
450.10	6502.01
450.28	6586.27
450.46	6366.26
450.65	6546.48
450.83	6384.98
451.02	6614.35
451.20	6675.21
451.39	6553.50
451.57	6427.11
451.76	6429.45
451.94	6649.46
452.13	6874.15
452.31	6825.00
452.49	6672.87
452.68	6951.39
452.86	6792.23
453.05	6796.92
453.23	6902.24
453.42	6693.93
453.60	6719.68
453.78	6970.12
453.97	6787.55
454.15	6848.41
454.34	6899.90
454.52	7007.56
454.70	7033.31
454.89	7042.67
455.07	7066.08
455.26	7105.87
455.44	7103.53
455.62	7183.10
455.81	7122.25
455.99	7171.40
456.17	7222.89
456.36	7194.81
456.54	7311.83
456.73	7421.84
456.91	7590.36
457.09	7431.20
457.28	7655.89
457.46	7410.14
457.64	7651.21
457.83	7613.76
458.01	7576.31
458.19	7583.34
458.38	7496.74
458.56	7859.52
458.74	7644.19
458.93	7513.12
459.11	7754.19
459.29	7672.28
459.48	7758.88
459.66	7831.43
459.84	7838.45
460.03	7939.10
460.21	7983.57
460.39	7882.92
460.57	7868.88
460.76	7866.54
460.94	8140.38
461.12	7964.84
461.31	7688.66
461.49	7995.27
461.67	7925.05
461.85	8131.02
462.04	8152.09
462.22	8152.09
462.40	8276.13
462.59	8266.77
462.77	8428.27
462.95	8390.82
463.13	8416.57
463.32	8210.60
463.50	8489.12
463.68	8538.27
463.86	8484.44
464.05	8255.07
464.23	8299.54
464.41	8468.06
464.59	8374.44
464.78	8514.87
464.96	8589.77
465.14	8353.37
465.32	8774.67
465.50	8711.47
465.69	8688.07
465.87	8610.83
466.05	8613.17
466.23	8517.21
466.41	8664.66
466.60	8992.34
466.78	8507.85
466.96	8599.13
467.14	8552.32
467.32	8840.20
467.51	8849.57
467.69	8793.39
467.87	8704.45
468.05	9125.75
468.23	8816.80
468.41	8821.48
468.60	8805.10
468.78	9034.47
468.96	8978.30
469.14	8975.95
469.32	9195.96
469.50	8704.45
469.69	9027.45
469.87	9280.22
470.05	9172.56
470.23	9146.81
470.41	9423.00
470.59	9277.88
470.77	9341.08
470.95	9408.95
471.14	9514.28
471.32	9245.12
471.50	9874.72
471.68	9490.87
471.86	9937.91
472.04	9694.50
472.22	9877.06
472.40	9736.63
472.58	9565.77
472.77	9834.93
472.95	9631.30
473.13	10230.48
473.31	10017.49
473.49	9853.66
473.67	10078.35
473.85	10026.86
474.03	10272.61
474.21	9935.57
474.39	10410.70
474.57	10391.98
474.75	10356.87
474.93	10785.19
475.12	10626.03
475.30	10747.74
475.48	10466.88
475.66	10485.60
475.84	10885.83
476.02	10700.93
476.20	10895.19
476.38	11084.78
476.56	11178.40
476.74	11133.93
476.92	11059.03
477.10	11281.38
477.28	11269.68
477.46	11339.90
477.64	11370.32
477.82	11573.95
478.00	11812.68
478.18	11808.00
478.36	11803.32
478.54	12074.82
478.72	12032.69
478.90	12161.42
479.08	12292.49
479.26	12149.72
479.44	12477.40
479.62	12699.75
479.80	12596.76
479.98	12610.81
480.16	12865.92
480.34	12769.96
480.52	13109.34
480.70	12975.93
480.88	12924.44
481.06	13247.43
481.24	13284.88
481.41	13458.08
481.59	13703.84
481.77	13675.75
481.95	13813.84
482.13	13762.35
482.31	13710.86
482.49	14066.62
482.67	14223.44
482.85	14167.26
483.03	14267.91
483.21	14649.41
483.39	14836.66
483.57	14511.32
483.74	14640.05
483.92	14822.61
484.10	14679.84
484.28	15246.25
484.46	15468.60
484.64	15587.97
484.82	15222.84
485.00	15545.84
485.18	15917.98
485.35	15871.17
485.53	15969.48
485.71	15915.64
485.89	16425.88
486.07	16327.58
486.25	16133.31
486.43	16690.36
486.61	16823.77
486.78	16711.42
486.96	17018.04
487.14	17167.83
487.32	17345.71
487.50	17310.60
487.68	17376.14
487.85	17399.54
488.03	18045.53
488.21	18075.96
488.39	17980.00
488.57	18181.28
488.75	18190.64
488.92	18448.10
489.10	18534.70
489.28	18595.56
489.46	18735.99
489.64	18810.89
489.81	19311.76
489.99	19094.09
490.17	18941.96
490.35	19754.12
490.53	19370.27
490.70	19817.32
490.88	19501.34
491.06	19992.86
491.24	19749.44
491.41	20173.08
491.59	20306.49
491.77	20067.75
491.95	20566.29
492.13	20212.87
492.30	20615.44
492.48	20947.79
492.66	20947.79
492.84	21060.14
493.01	21153.76
493.19	21216.96
493.37	21446.33
493.54	21778.68
493.72	21743.58
493.90	21972.95
494.08	22178.92
494.25	22162.53
494.43	22417.65
494.61	22635.32
494.79	22508.93
494.96	22314.67
495.14	22511.27
495.32	23222.80
495.49	22970.02
495.67	22948.95
495.85	23115.13
496.02	23417.06
496.20	23571.54
496.38	23704.95
496.55	23606.64
496.73	24201.14
496.91	23772.82
497.09	24063.05
497.26	24320.51
497.44	24484.34
497.62	24114.54
497.79	24643.50
497.97	24545.20
498.14	24903.30
498.32	25139.69
498.50	24664.57
498.67	25142.03
498.85	25015.65
499.03	25605.46
499.20	25336.30
499.38	25844.20
499.56	25652.27
499.73	25848.88
499.91	25961.22
500.08	25993.99
500.26	26003.35
500.44	26302.94
500.61	26260.81
500.79	26122.72
500.97	26529.97
501.14	26747.64
501.32	27063.61
501.49	26618.91
501.67	26520.61
501.84	26836.58
502.02	26691.47
502.20	27395.97
502.37	27332.78
502.55	26899.78
502.72	27318.73
502.90	26958.29
503.07	26972.33
503.25	27491.93
503.43	27068.30
503.60	27573.85
503.78	28105.15
503.95	27747.05
504.13	27702.58
504.30	28041.96
504.48	27873.44
504.65	28355.59
504.83	28549.85
505.01	28655.18
505.18	28327.50
505.36	28872.85
505.53	28559.22
505.71	28540.49
505.88	29020.30
506.06	28580.28
506.23	29085.84
506.41	29151.37
506.58	29142.01
506.76	29095.20
506.93	29682.67
507.11	29099.88
507.28	29333.93
507.46	29474.37
507.63	29731.83
507.81	29743.53
507.98	29589.05
508.16	29706.08
508.33	29909.71
508.50	29984.60
508.68	30071.20
508.85	30244.40
509.03	30391.86
509.20	30281.85
509.38	30906.77
509.55	31122.10
509.73	30906.77
509.90	31012.10
510.08	31075.29
510.25	30628.25
510.42	31311.69
510.60	31314.03
510.77	31793.84
510.95	31557.44
511.12	31302.32
511.30	31421.69
511.47	31634.68
511.64	31765.75
511.82	32058.32
511.99	31789.16
512.17	31941.29
512.34	31995.12
512.51	32322.80
512.69	32177.68
512.86	32020.87
513.04	32610.68
513.21	32659.84
513.38	32638.77
513.56	32748.78
513.73	32584.94
513.90	32196.41
514.08	32666.86
514.25	33120.92
514.43	32943.04
514.60	33244.97
514.77	32912.61
514.95	33457.96
515.12	33413.49
515.29	32676.22
515.47	33362.00
515.64	33081.13
515.81	33235.61
515.99	33961.17
516.16	33951.81
516.33	33844.15
516.51	34106.29
516.68	34183.52
516.85	33876.91
517.03	34117.99
517.20	34260.76
517.37	33853.51
517.54	34785.04
517.72	34366.09
517.89	34555.67
518.06	34565.03
518.24	34897.39
518.41	34621.20
518.58	34518.22
518.75	34501.84
518.93	35384.22
519.10	35028.46
519.27	35122.08
519.45	35185.27
519.62	35192.30
519.79	34726.53
519.96	35096.33
520.14	35662.74
520.31	35482.52
520.48	35906.16
520.65	35103.35
520.83	35812.54
521.00	35541.03
521.17	35655.72
521.34	35550.40
521.52	35793.81
521.69	36180.00
521.86	36273.62
522.03	36556.83
522.20	36205.75
522.38	36208.09
522.55	36313.41
522.72	36011.48
522.89	36315.75
523.07	36952.38
523.24	37057.70
523.41	36940.68
523.58	36554.49
523.75	37081.11
523.92	36713.64
524.10	37174.73
524.27	36952.38
524.44	37123.24
524.61	37593.68
524.78	37448.57
524.96	37619.43
525.13	37296.44
525.30	37415.80
525.47	37373.67
525.64	37689.65
525.81	37635.81
525.98	38068.81
526.16	37947.11
526.33	37834.76
526.50	38253.72
526.67	37806.67
526.84	37970.51
527.01	37888.59
527.18	38321.59
527.36	38080.52
527.53	38274.78
527.70	38656.29
527.87	38696.08
528.04	38658.63
528.21	38160.09
528.38	38314.57
528.55	38698.42
528.72	38307.55
528.89	38792.04
529.07	38569.69
529.24	38562.67
529.41	38904.38
529.58	39103.33
529.75	39131.42
529.92	38546.28
530.09	38871.62
530.26	38972.26
530.43	39285.89
530.60	39276.53
530.77	39173.55
530.94	39920.18
531.11	39192.27
531.28	39779.74
531.46	39297.59
531.63	39452.07
531.80	39828.90
531.97	39597.18
532.14	39519.95
532.31	39297.59
532.48	39484.84
532.65	39941.24
532.82	39438.03
532.99	39435.69
533.16	39983.37
533.33	40018.48
533.50	40353.18
533.67	40203.38
533.84	39545.69
534.01	39828.90
534.18	39557.39
534.35	40570.85
534.52	39917.84
534.69	40685.53
534.86	40762.77
535.03	40589.57
535.20	40737.02
535.37	40446.80
535.54	40933.63
535.71	40718.30
535.88	40554.46
536.05	40987.46
536.22	40891.50
536.38	41008.53
536.55	40980.44
536.72	41282.37
536.89	40917.25
537.06	40739.36
537.23	40957.03
537.40	41078.74
537.57	41516.42
537.74	41237.90
537.91	41666.22
538.08	41436.84
538.25	41373.65
538.42	41944.74
538.59	41478.97
538.75	41422.80
538.92	41593.66
539.09	41720.05
539.26	42073.47
539.43	41858.14
539.60	41921.34
539.77	41729.41
539.94	42120.28
540.11	42265.39
540.28	42417.53
540.44	41970.49
540.61	42099.22
540.78	41855.80
540.95	42359.02
541.12	42581.37
541.29	42630.52
541.46	42796.70
541.62	42628.18
541.79	42368.38
541.96	42429.23
542.13	42471.36
542.30	42930.11
542.47	43370.13
542.63	42679.67
542.80	43613.54
542.97	43686.10
543.14	43019.05
543.31	43262.46
543.48	43264.80
543.64	43435.66
543.81	43475.45
543.98	43292.89
544.15	43622.90
544.32	43859.30
544.48	43805.47
544.65	43416.94
544.82	43330.34
544.99	43566.73
545.16	43655.67
545.32	43496.52
545.49	44418.69
545.66	44793.17
545.83	44634.02
546.00	44491.24
546.16	44369.54
546.33	44217.40
546.50	43400.55
546.67	43838.23
546.83	43922.49
547.00	44184.63
547.17	43985.69
547.34	43988.03
547.50	44261.87
547.67	44226.76
547.84	43838.23
548.00	44062.93
548.17	44444.43
548.34	44196.34
548.51	44243.15
548.67	44456.14
548.84	44339.11
549.01	44147.18
549.18	43908.45
549.34	44098.03
549.51	44472.52
549.68	44488.90
549.84	44430.39
550.01	44289.96
550.18	44425.71
550.34	44439.75
550.51	44390.60
550.68	44538.05
550.84	44020.80
551.01	44636.36
551.18	44739.34
551.34	44446.77
551.51	44524.01
551.68	44650.40
551.84	44573.16
552.01	44725.30
552.18	44898.50
552.34	44421.03
552.51	44491.24
552.68	44329.75
552.84	44825.94
553.01	44683.17
553.18	44715.93
553.34	44856.37
553.51	45214.47
553.67	44903.18
553.84	45532.78
554.01	45069.36
554.17	45411.07
554.34	45249.58
554.51	44992.12
554.67	45170.00
554.84	45453.20
555.00	45045.95
555.17	45418.10
555.33	45429.80
555.50	45254.26
555.67	45315.11
555.83	45322.13
556.00	45284.68
556.16	45420.44
556.33	45092.76
556.50	45177.02
556.66	45544.48
556.83	45397.03
556.99	46120.26
557.16	45141.91
557.32	45844.07
557.49	45478.95
557.65	45069.36
557.82	45357.24
557.98	45443.84
558.15	45174.68
558.32	45897.91
558.48	45544.48
558.65	45818.33
558.81	45862.80
558.98	45343.20
559.14	45687.26
559.31	45495.33
559.47	45923.65
559.64	45621.72
559.80	46000.89
559.97	46120.26
560.13	45656.83
560.30	46089.83
560.46	45958.76
560.63	45935.35
560.79	46122.60
560.96	46143.66
561.12	45713.00
561.29	46064.08
561.45	45808.96
561.61	46129.62
561.78	46316.86
561.94	45713.00
562.11	45954.08
562.27	46094.51
562.44	45834.71
562.60	45762.15
562.77	45958.76
562.93	46377.72
563.10	46005.57
563.26	45591.30
563.42	46153.02
563.59	46340.27
563.75	46244.30
563.92	46419.84
564.08	46251.33
564.24	46148.34
564.41	45933.01
564.57	45720.02
564.74	45792.58
564.90	46546.23
565.07	46117.92
565.23	46628.15
565.39	46108.55
565.56	46469.00
565.72	45930.67
565.88	46234.94
566.05	46120.26
566.21	46085.15
566.38	46199.83
566.54	46223.24
566.70	46508.79
566.87	46550.91
567.03	46466.66
567.19	46717.09
567.36	46167.07
567.52	46232.60
567.68	46288.77
567.85	46129.62
568.01	46171.75
568.17	46225.58
568.34	46506.44
568.50	46880.93
568.66	46607.09
568.83	46642.20
568.99	46286.43
569.15	46302.82
569.32	46026.63
569.48	46181.11
569.64	46782.63
569.81	46241.96
569.97	46178.77
570.13	46684.33
570.30	46518.15
570.46	46731.14
570.62	46192.81
570.78	46553.26
570.95	46246.65
571.11	46403.46
571.27	46211.54
571.43	46234.94
571.60	46747.52
571.76	46658.58
571.92	46703.05
572.09	46485.38
572.25	46958.17
572.41	46356.65
572.57	46635.17
572.74	46799.01
572.90	46089.83
573.06	46681.98
573.22	46799.01
573.38	46429.21
573.55	46869.23
573.71	47140.73
573.87	46883.27
574.03	46487.72
574.20	46499.42
574.36	46347.29
574.52	46504.10
574.68	46232.60
574.84	46850.50
575.01	46939.44
575.17	46555.60
575.33	46990.94
575.49	46440.91
575.65	46426.87
575.82	46548.57
575.98	46501.76
576.14	46841.14
576.30	46529.85
576.46	46396.44
576.62	46630.49
576.79	46791.99
576.95	46742.84
577.11	46693.69
577.27	47012.00
577.43	46780.29
577.59	47049.45
577.75	46536.87
577.92	46356.65
578.08	46602.41
578.24	46279.41
578.40	46389.42
578.56	46735.82
578.72	46850.50
578.88	47093.92
579.04	47222.65
579.21	46609.43
579.37	46651.56
579.53	46869.23
579.69	46380.06
579.85	46527.51
580.01	46443.25
580.17	46721.77
580.33	46803.69
580.49	46571.98
580.65	46644.54
580.82	47423.93
580.98	46777.95
581.14	46579.00
581.30	46768.58
581.46	46616.45
581.62	46822.42
581.78	46733.48
581.94	46703.05
582.10	46689.01
582.26	46742.84
582.42	46377.72
582.58	46705.39
582.74	46927.74
582.90	47164.14
583.06	47056.47
583.22	46569.64
583.38	46609.43
583.54	46731.14
583.70	46527.51
583.86	46890.29
584.02	46426.87
584.18	46883.27
584.34	46951.15
584.50	46820.08
584.66	46705.39
584.82	46571.98
584.98	46724.11
585.14	46356.65
585.30	46424.53
585.46	46529.85
585.62	46600.07
585.78	47079.88
585.94	46880.93
586.10	46588.36
586.26	46569.64
586.42	46843.48
586.58	46883.27
586.74	46681.98
586.90	46220.90
587.06	46424.53
587.22	46609.43
587.38	47042.43
587.54	46733.48
587.70	47105.62
587.86	47033.07
588.02	46616.45
588.18	46822.42
588.34	47096.26
588.49	46836.46
588.65	46862.21
588.81	46473.68
588.97	46686.67
589.13	46401.12
589.29	46967.53
589.45	47068.17
589.61	47283.50
589.77	47112.64
589.93	47463.72
590.08	46780.29
590.24	46864.55
590.40	47299.89
590.56	47114.98
