SpectraSuite Data File
++++++++++++++++++++++++++++++++++++
Date: Fri Oct 04 11:39:15 GMT-05:00 2013
User: price-jones
Dark Spectrum Present: No
Reference Spectrum Present: No
Number of Sampled Component Spectra: 1
Spectrometers: USB2+H05261
Integration Time (usec): 100000 (USB2+H05261)
Spectra Averaged: 1 (USB2+H05261)
Boxcar Smoothing: 0 (USB2+H05261)
Correct for Electrical Dark: No (USB2+H05261)
Strobe/Lamp Enabled: No (USB2+H05261)
Correct for Detector Non-linearity: No (USB2+H05261)
Correct for Stray Light: No (USB2+H05261)
Number of Pixels in Processed Spectrum: 2048
>>>>>Begin Processed Spectral Data<<<<<
365.73	67.88
365.92	67.88
366.12	67.88
366.32	0.00
366.52	0.00
366.72	0.00
366.91	65.54
367.11	0.00
367.31	0.00
367.51	0.00
367.70	0.00
367.90	0.00
368.10	0.00
368.30	0.00
368.49	0.00
368.69	18.72
368.89	0.00
369.09	0.00
369.28	0.00
369.48	2.34
369.68	0.00
369.87	0.00
370.07	0.00
370.27	14.04
370.47	30.43
370.66	112.35
370.86	262.14
371.06	285.55
371.25	257.46
371.45	346.40
371.65	297.25
371.84	234.05
372.04	236.39
372.24	241.08
372.44	257.46
372.63	292.57
372.83	369.80
373.03	290.23
373.22	351.08
373.42	269.16
373.62	287.89
373.81	327.68
374.01	390.87
374.21	365.12
374.40	355.76
374.60	315.97
374.79	409.59
374.99	348.74
375.19	409.59
375.38	386.19
375.58	327.68
375.78	320.65
375.97	320.65
376.17	395.55
376.37	383.85
376.56	318.31
376.76	400.23
376.95	271.50
377.15	402.57
377.35	348.74
377.54	315.97
377.74	449.38
377.93	381.51
378.13	376.83
378.33	365.12
378.52	428.32
378.72	442.36
378.91	355.76
379.11	456.40
379.31	353.42
379.50	425.98
379.70	425.98
379.89	416.62
380.09	390.87
380.28	402.57
380.48	430.66
380.68	383.85
380.87	404.91
381.07	491.51
381.26	425.98
381.46	409.59
381.65	414.27
381.85	409.59
382.04	386.19
382.24	428.32
382.43	360.44
382.63	409.59
382.83	404.91
383.02	486.83
383.22	500.87
383.41	409.59
383.61	521.94
383.80	428.32
384.00	425.98
384.19	440.02
384.39	456.40
384.58	414.27
384.78	489.17
384.97	531.30
385.17	437.68
385.36	369.80
385.56	440.02
385.75	421.30
385.95	507.90
386.14	400.23
386.34	554.71
386.53	477.47
386.72	514.92
386.92	538.32
387.11	519.60
387.31	510.24
387.50	433.00
387.70	512.58
387.89	430.66
388.09	580.45
388.28	472.79
388.48	456.40
388.67	601.52
388.86	528.96
389.06	496.19
389.25	486.83
389.45	564.07
389.64	543.00
389.84	610.88
390.03	596.84
390.22	571.09
390.42	538.32
390.61	568.75
390.81	627.26
391.00	571.09
391.19	629.60
391.39	620.24
391.58	531.30
391.78	615.56
391.97	653.01
392.16	645.99
392.36	720.88
392.55	730.25
392.75	643.65
392.94	660.03
393.13	692.80
393.33	653.01
393.52	610.88
393.71	662.37
393.91	622.58
394.10	589.82
394.29	709.18
394.49	587.47
394.68	662.37
394.88	692.80
395.07	676.41
395.26	720.88
395.46	711.52
395.65	674.07
395.84	716.20
396.04	786.42
396.23	683.44
396.42	667.05
396.62	758.33
396.81	720.88
397.00	706.84
397.19	734.93
397.39	730.25
397.58	777.06
397.77	767.70
397.97	737.27
398.16	795.78
398.35	837.91
398.55	748.97
398.74	823.87
398.93	877.70
399.12	819.19
399.32	781.74
399.51	791.10
399.70	882.38
399.90	826.21
400.09	910.47
400.28	929.19
400.47	849.61
400.67	884.72
400.86	823.87
401.05	947.92
401.24	983.02
401.44	1018.13
401.63	866.00
401.82	837.91
402.01	950.26
402.21	933.87
402.40	894.08
402.59	940.90
402.78	910.47
402.97	964.30
403.17	1018.13
403.36	1013.45
403.55	898.77
403.74	983.02
403.93	1090.69
404.13	1121.12
404.32	1086.01
404.51	1116.44
404.70	1135.16
404.89	1029.84
405.09	1170.27
405.28	1118.78
405.47	968.98
405.66	1100.05
405.85	1252.19
406.05	1177.29
406.24	1228.78
406.43	1235.80
406.62	1191.33
406.81	1263.89
407.00	1247.51
407.20	1256.87
407.39	1144.52
407.58	1252.19
407.77	1275.59
407.96	1329.42
408.15	1221.76
408.34	1296.66
408.54	1310.70
408.73	1287.29
408.92	1289.64
409.11	1397.30
409.30	1334.11
409.49	1343.47
409.68	1348.15
409.87	1320.06
410.07	1369.21
410.26	1425.39
410.45	1385.60
410.64	1434.75
410.83	1355.17
411.02	1348.15
411.21	1605.61
411.40	1446.45
411.59	1467.52
411.78	1455.81
411.98	1533.05
412.17	1605.61
412.36	1523.69
412.55	1593.90
412.74	1682.85
412.93	1584.54
413.12	1619.65
413.31	1666.46
413.50	1638.38
413.69	1757.74
413.88	1689.87
414.07	1746.04
414.26	1823.28
414.45	1774.13
414.64	1739.02
414.83	1849.02
415.02	1830.30
415.22	1907.54
415.41	1935.62
415.60	1820.94
415.79	1912.22
415.98	2022.22
416.17	1954.35
416.36	1966.05
416.55	1879.45
416.74	2005.84
416.93	2003.50
417.12	2054.99
417.31	2036.27
417.50	1893.49
417.69	2083.08
417.88	2099.46
418.07	2083.08
418.26	2104.14
418.45	2022.22
418.64	2197.76
418.83	2139.25
419.02	2326.49
419.21	2207.13
419.39	2251.60
419.58	2179.04
419.77	2246.91
419.96	2195.42
420.15	2207.13
420.34	2352.24
420.53	2328.83
420.72	2319.47
420.91	2476.29
421.10	2312.45
421.29	2473.95
421.48	2321.81
421.67	2366.28
421.86	2497.35
422.05	2476.29
422.24	2314.79
422.43	2497.35
422.61	2464.58
422.80	2497.35
422.99	2590.97
423.18	2441.18
423.37	2504.37
423.56	2602.68
423.75	2448.20
423.94	2513.74
424.13	2385.01
424.32	2466.92
424.50	2509.05
424.69	2480.97
424.88	2532.46
425.07	2464.58
425.26	2516.08
425.45	2560.55
425.64	2572.25
425.83	2532.46
426.01	2569.91
426.20	2539.48
426.39	2551.18
426.58	2569.91
426.77	2565.23
426.96	2565.23
427.15	2499.69
427.33	2663.53
427.52	2672.89
427.71	2719.70
427.90	2658.85
428.09	2668.21
428.28	2745.45
428.46	2689.28
428.65	2607.36
428.84	2759.49
429.03	2916.31
429.22	2670.55
429.40	2792.26
429.59	2843.75
429.78	2665.87
429.97	2609.70
430.16	2686.94
430.34	2729.06
430.53	2789.92
430.72	2939.71
430.91	2813.32
431.10	2850.77
431.28	2920.99
431.47	2967.80
431.66	2815.66
431.85	2862.48
432.03	3014.61
432.22	3112.91
432.41	2834.39
432.60	2925.67
432.79	2916.31
432.97	2911.63
433.16	3119.93
433.35	3084.83
433.54	3108.23
433.72	3084.83
433.91	3192.49
434.10	3094.19
434.28	3117.59
434.47	3136.32
434.66	3087.17
434.85	3138.66
435.03	3220.58
435.22	3281.43
435.41	3691.02
435.59	3552.93
435.78	3478.04
435.97	3356.33
436.16	3295.47
436.34	3290.79
436.53	3471.01
436.72	3424.20
436.90	3255.69
437.09	3325.90
437.28	3405.48
437.46	3456.97
437.65	3346.97
437.84	3400.80
438.02	3300.16
438.21	3419.52
438.40	3393.78
438.58	3463.99
438.77	3555.27
438.96	3534.21
439.14	3686.34
439.33	3602.08
439.52	3646.55
439.70	3574.00
439.89	3765.92
440.08	3595.06
440.26	3674.64
440.45	3810.39
440.63	3817.41
440.82	3791.67
441.01	3733.15
441.19	3906.35
441.38	4086.58
441.57	3913.38
441.75	3941.46
441.94	4032.74
442.12	4086.58
442.31	3981.25
442.50	4060.83
442.68	3999.98
442.87	4002.32
443.05	4067.85
443.24	4135.73
443.43	4217.65
443.61	4217.65
443.80	4327.65
443.98	4215.30
444.17	4025.72
444.35	4205.94
444.54	4191.90
444.73	4266.80
444.91	4271.48
445.10	4334.67
445.28	4292.54
445.47	4252.75
445.65	4313.61
445.84	4374.46
446.02	4276.16
446.21	3990.61
446.39	4210.62
446.58	4327.65
446.77	4219.99
446.95	4255.09
447.14	4175.52
447.32	4468.08
447.51	4287.86
447.69	4304.25
447.88	4290.20
448.06	4374.46
448.25	4329.99
448.43	4358.08
448.62	4348.72
448.80	4498.51
448.99	4477.44
449.17	4374.46
449.36	4351.06
449.54	4601.49
449.73	4582.77
449.91	4622.56
450.10	4627.24
450.28	4748.95
450.46	4669.37
450.65	4447.02
450.83	4542.98
451.02	4489.15
451.20	4636.60
451.39	4664.69
451.57	4620.22
451.76	4734.90
451.94	4720.86
452.13	4765.33
452.31	4683.41
452.49	4655.33
452.68	4798.10
452.86	4926.83
453.05	4863.63
453.23	4826.18
453.42	4755.97
453.60	4816.82
453.78	4835.55
453.97	4828.53
454.15	4713.84
454.34	4821.50
454.52	4786.40
454.70	5041.51
454.89	5036.83
455.07	4898.74
455.26	4997.04
455.44	4985.34
455.62	4929.17
455.81	5081.30
455.99	5186.63
456.17	5046.20
456.36	5160.88
456.54	5025.13
456.73	5268.55
456.91	5228.76
457.09	5327.06
457.28	5334.08
457.46	5114.07
457.64	5242.80
457.83	5160.88
458.01	5214.71
458.19	5467.49
458.38	5315.36
458.56	5593.88
458.74	5441.75
458.93	5460.47
459.11	5476.85
459.29	5383.23
459.48	5509.62
459.66	5610.26
459.84	5568.13
460.03	5540.05
460.21	5596.22
460.39	5568.13
460.57	5497.92
460.76	5717.93
460.94	5755.38
461.12	5631.33
461.31	5584.52
461.49	5664.10
461.67	5657.07
461.85	5912.19
462.04	5776.44
462.22	5900.49
462.40	5748.36
462.59	5748.36
462.77	5769.42
462.95	5795.17
463.13	5870.06
463.32	5982.41
463.50	5951.98
463.68	5947.30
463.86	5806.87
464.05	5795.17
464.23	5863.04
464.41	6090.07
464.59	5961.34
464.78	6164.97
464.96	6076.03
465.14	5804.53
465.32	6066.67
465.50	6164.97
465.69	6148.59
465.87	6230.51
466.05	6136.88
466.23	6186.04
466.41	6157.95
466.60	6469.24
466.78	6122.84
466.96	6218.80
467.14	6289.02
467.32	6382.64
467.51	6181.35
467.69	6022.20
467.87	6171.99
468.05	6256.25
468.23	6228.17
468.41	6342.85
468.60	6164.97
468.78	6312.42
468.96	6487.96
469.14	6466.90
469.32	6429.45
469.50	6328.81
469.69	6511.37
469.87	6665.85
470.05	6537.12
470.23	6576.91
470.41	6548.82
470.59	6600.31
470.77	6684.57
470.95	6602.65
471.14	6888.20
471.32	6724.36
471.50	6977.14
471.68	6895.22
471.86	6864.79
472.04	6775.85
472.22	7019.27
472.40	6822.66
472.58	6780.53
472.77	6888.20
472.95	7199.49
473.13	7269.70
473.31	7103.53
473.49	6965.43
473.67	7215.87
473.85	7328.22
474.03	7159.70
474.21	7456.95
474.39	7293.11
474.57	7309.49
474.75	7426.52
474.93	7573.97
475.12	7391.41
475.30	7360.98
475.48	7595.04
475.66	7660.57
475.84	7564.61
476.02	7702.70
476.20	7801.01
476.38	7723.77
476.56	7950.80
476.74	7950.80
476.92	7812.71
477.10	7955.48
477.28	8140.38
477.46	8102.93
477.64	8084.21
477.82	8266.77
478.00	8322.94
478.18	8540.61
478.36	8512.53
478.54	8695.09
478.72	8414.23
478.90	8685.73
479.08	8631.90
479.26	8744.24
479.44	8961.91
479.62	9090.64
479.80	8954.89
479.98	8912.76
480.16	9287.25
480.34	9109.36
480.52	9329.38
480.70	9352.78
480.88	9338.74
481.06	9376.19
481.24	9418.32
481.41	9568.11
481.59	9823.23
481.77	9830.25
481.95	9844.29
482.13	9778.76
482.31	9776.42
482.49	10129.84
482.67	10047.92
482.85	10043.24
483.03	10319.42
483.21	10345.17
483.39	10499.64
483.57	10211.76
483.74	10581.56
483.92	10651.78
484.10	10754.76
484.28	10761.78
484.46	10895.19
484.64	11126.91
484.82	11061.37
485.00	11398.41
485.18	11309.47
485.35	11185.42
485.53	11358.62
485.71	11480.33
485.89	11637.14
486.07	11552.88
486.25	11538.84
486.43	11693.32
486.61	11866.52
486.78	12091.21
486.96	12128.66
487.14	12358.03
487.32	12140.36
487.50	12404.84
487.68	12379.09
487.85	12517.18
488.03	12713.79
488.21	12879.97
488.39	12936.14
488.57	12922.10
488.75	12800.39
488.92	13350.42
489.10	13310.63
489.28	13252.11
489.46	13652.34
489.64	13427.65
489.81	13727.24
489.99	13614.90
490.17	13877.04
490.35	14146.20
490.53	13947.25
490.70	14003.43
490.88	14216.41
491.06	14485.58
491.24	14164.92
491.41	14438.76
491.59	14291.31
491.77	14743.03
491.95	14658.78
492.13	14733.67
492.30	14834.32
492.48	15108.16
492.66	14864.74
492.84	15087.09
493.01	15276.68
493.19	15297.74
493.37	15653.50
493.54	15681.59
493.72	15524.77
493.90	15644.14
494.08	15847.77
494.25	15943.73
494.43	16049.05
494.61	16013.95
494.79	16325.24
494.96	16561.63
495.14	16109.91
495.32	16465.67
495.49	16475.03
495.67	16788.66
495.85	16601.42
496.02	16786.32
496.20	17015.69
496.38	16781.64
496.55	17001.65
496.73	17308.26
496.91	17366.78
497.09	17219.32
497.26	17329.33
497.44	17551.68
497.62	17324.65
497.79	17823.18
497.97	17528.27
498.14	17818.50
498.32	18090.00
498.50	18136.81
498.67	18118.09
498.85	17982.34
499.03	18080.64
499.20	18532.36
499.38	18188.30
499.56	18333.42
499.73	18515.98
499.91	18909.19
500.08	18707.90
500.26	18396.61
500.44	18803.86
500.61	18869.40
500.79	18600.24
500.97	19152.60
501.14	19166.65
501.32	19129.20
501.49	19159.63
501.67	19400.70
501.84	19199.41
502.02	19080.05
502.20	19454.53
502.37	19798.59
502.55	19606.67
502.72	19721.35
502.90	19592.62
503.07	19555.18
503.25	19932.00
503.43	19873.49
503.60	20191.80
503.78	20006.90
503.95	19971.79
504.13	20376.70
504.30	20184.78
504.48	20135.63
504.65	20327.55
504.83	20397.77
505.01	20844.81
505.18	20180.10
505.36	20695.02
505.53	20615.44
505.71	20772.25
505.88	20865.88
506.06	20589.69
506.23	20847.15
506.41	20795.66
506.58	21521.23
506.76	21128.02
506.93	20884.60
507.11	20954.82
507.28	21287.17
507.46	21387.82
507.63	21425.26
507.81	21568.04
507.98	21724.85
508.16	21659.32
508.33	21652.30
508.50	21813.79
508.68	22001.04
508.85	21984.65
509.03	22024.44
509.20	22113.38
509.38	22277.22
509.55	22309.99
509.73	22396.59
509.90	22361.48
510.08	22396.59
510.25	22366.16
510.42	22677.45
510.60	22649.36
510.77	23019.17
510.95	22850.65
511.12	22707.88
511.30	22532.34
511.47	23220.45
511.64	22799.16
511.82	23271.95
511.99	22946.61
512.17	22843.63
512.34	23028.53
512.51	23304.71
512.69	23538.77
512.86	23293.01
513.04	23307.05
513.21	23431.10
513.38	23557.49
513.56	23796.23
513.73	23543.45
513.90	23690.90
514.08	23529.41
514.25	24004.53
514.43	24327.53
514.60	24177.73
514.77	24098.16
514.95	24327.53
515.12	24070.07
515.29	24266.67
515.47	24346.25
515.64	24439.87
515.81	24320.51
515.99	24617.75
516.16	24907.98
516.33	24687.97
516.51	24702.01
516.68	24622.44
516.85	24786.27
517.03	25198.21
517.20	24964.15
517.37	25104.59
517.54	24769.89
517.72	25017.99
517.89	24790.95
518.06	25207.57
518.24	25069.48
518.41	25191.19
518.58	25230.98
518.75	25060.12
518.93	25743.55
519.10	25898.03
519.27	25160.76
519.45	25450.99
519.62	25631.21
519.79	25532.90
519.96	25797.38
520.14	25837.17
520.31	25607.80
520.48	26068.89
520.65	25837.17
520.83	26204.64
521.00	26078.25
521.17	26096.97
521.34	26466.78
521.52	26478.48
521.69	26272.51
521.86	26590.83
522.03	26597.85
522.20	26408.26
522.38	26419.97
522.55	26375.50
522.72	26801.47
522.89	26780.41
523.07	27019.14
523.24	26808.50
523.41	27318.73
523.58	26892.76
523.75	27070.64
523.92	26808.50
524.10	27026.17
524.27	27065.96
524.44	27381.93
524.61	27309.37
524.78	27491.93
524.96	27407.67
525.13	27276.60
525.30	27618.32
525.47	27608.96
525.64	27412.35
525.81	27744.71
525.98	27761.09
526.16	27482.57
526.33	27627.68
526.50	28224.52
526.67	27955.36
526.84	28072.39
527.01	27873.44
527.18	28041.96
527.36	28182.39
527.53	28402.40
527.70	28435.17
527.87	28673.90
528.04	28446.87
528.21	28584.96
528.38	28261.97
528.55	28507.72
528.72	28166.01
528.89	28652.84
529.07	28224.52
529.24	28435.17
529.41	29193.50
529.58	28453.89
529.75	28446.87
529.92	28701.99
530.09	28938.38
530.26	28685.61
530.43	29020.30
530.60	28720.71
530.77	29153.71
530.94	29186.48
531.11	29146.69
531.28	29076.48
531.46	28835.40
531.63	29163.08
531.80	29329.25
531.97	29380.74
532.14	29626.50
532.31	29177.12
532.48	29598.41
532.65	29603.10
532.82	29228.61
532.99	29567.99
533.16	29401.81
533.33	29736.51
533.50	30295.89
533.67	29975.24
533.84	29642.88
534.01	29593.73
534.18	29862.90
534.35	29888.64
534.52	29912.05
534.69	30146.10
534.86	30347.39
535.03	30363.77
535.20	30054.82
535.37	29965.88
535.54	30239.72
535.71	30012.69
535.88	30188.23
536.05	30462.07
536.22	30398.88
536.38	30696.13
536.55	30244.40
536.72	30808.47
536.89	30391.86
537.06	30536.97
537.23	30789.75
537.40	30583.78
537.57	30752.30
537.74	30756.98
537.91	31058.91
538.08	31138.49
538.25	31005.08
538.42	31131.47
538.59	31318.71
538.75	31159.55
538.92	30726.55
539.09	31096.36
539.26	31002.74
539.43	30670.38
539.60	31552.76
539.77	31318.71
539.94	31407.65
540.11	31094.02
540.28	31339.77
540.44	31117.42
540.61	31466.16
540.78	31386.58
540.95	31515.31
541.12	31903.84
541.29	31840.65
541.46	32072.36
541.62	31805.54
541.79	31999.80
541.96	31468.50
542.13	31646.38
542.30	31585.53
542.47	31948.31
542.63	32547.49
542.80	32362.59
542.97	32531.11
543.14	32350.88
543.31	32184.71
543.48	32559.19
543.64	32175.34
543.81	32514.72
543.98	32790.91
544.15	32580.26
544.32	33343.27
544.48	33280.08
544.65	32575.58
544.82	32500.68
544.99	32266.63
545.16	32556.85
545.32	32800.27
545.49	33289.44
545.66	33912.02
545.83	33706.05
546.00	33816.06
546.16	33329.23
546.33	32877.51
546.50	32772.18
546.67	33172.41
546.83	32556.85
547.00	32818.99
547.17	32795.59
547.34	33223.90
547.50	32849.42
547.67	33497.75
547.84	33223.90
548.00	32971.13
548.17	33219.22
548.34	33109.22
548.51	33247.31
548.67	33326.89
548.84	33787.97
549.01	33532.86
549.18	33097.52
549.34	33310.50
549.51	33640.52
549.68	32978.15
549.84	33645.20
550.01	33352.63
550.18	33586.69
550.34	33532.86
550.51	33926.07
550.68	34005.64
550.84	33373.70
551.01	34059.48
551.18	33645.20
551.34	33291.78
551.51	33872.23
551.68	33549.24
551.84	33504.77
552.01	33752.87
552.18	34082.88
552.34	33610.09
552.51	33907.34
552.68	33727.12
552.84	33958.83
553.01	34174.16
553.18	34445.66
553.34	34110.97
553.51	34237.36
553.67	34284.17
553.84	34183.52
554.01	34127.35
554.17	34291.19
554.34	34286.51
554.51	33809.04
554.67	34410.56
554.84	34101.61
555.00	34478.43
555.17	34293.53
555.33	34216.29
555.50	34309.91
555.67	34476.09
555.83	34024.37
556.00	34485.45
556.16	34951.22
556.33	34607.16
556.50	34438.64
556.66	34665.67
556.83	34333.32
556.99	35377.20
557.16	34920.79
557.32	34721.85
557.49	34572.05
557.65	34347.36
557.82	34897.39
557.98	34642.27
558.15	34873.98
558.32	34377.79
558.48	34916.11
558.65	34983.99
558.81	35365.49
558.98	34869.30
559.14	35040.16
559.31	34766.32
559.47	34574.39
559.64	34752.27
559.80	34916.11
559.97	34726.53
560.13	34918.45
560.30	35065.91
560.46	35150.17
560.63	35292.94
560.79	35246.13
560.96	34979.31
561.12	35234.42
561.29	34934.84
561.45	34644.61
561.61	35040.16
561.78	35576.14
561.94	35171.23
562.11	35229.74
562.27	35030.80
562.44	35079.95
562.60	35007.39
562.77	35079.95
562.93	35019.10
563.10	35295.28
563.26	35026.12
563.42	35842.96
563.59	35290.60
563.75	35264.85
563.92	35204.00
564.08	35208.68
564.24	35599.55
564.41	35416.99
564.57	35314.00
564.74	35311.66
564.90	35468.48
565.07	35817.22
565.23	35508.27
565.39	35924.88
565.56	35658.06
565.72	35534.01
565.88	35559.76
566.05	35250.81
566.21	35494.22
566.38	35761.05
566.54	35620.61
566.70	36013.82
566.87	36226.81
567.03	35501.25
567.19	35964.67
567.36	35854.67
567.52	35253.15
567.68	36018.50
567.85	35796.15
568.01	35632.32
568.17	35559.76
568.34	35480.18
568.50	36084.04
568.66	35681.47
568.83	35786.79
568.99	36020.84
569.15	35739.98
569.32	35529.33
569.48	35379.54
569.64	35786.79
569.81	35583.16
569.97	35468.48
570.13	35983.40
570.30	35903.82
570.46	35791.47
570.62	35906.16
570.78	35807.86
570.95	35744.66
571.11	35990.42
571.27	35400.60
571.43	35798.49
571.60	35938.93
571.76	36114.47
571.92	36470.23
572.09	35938.93
572.25	35992.76
572.41	35917.86
572.57	36046.59
572.74	36041.91
572.90	35770.41
573.06	35798.49
573.22	35814.88
573.38	35725.94
573.55	35964.67
573.71	36397.67
573.87	35728.28
574.03	35964.67
574.20	36290.01
574.36	36233.83
574.52	35978.72
574.68	36184.68
574.84	36442.14
575.01	36306.39
575.17	36184.68
575.33	36591.94
575.49	36158.94
575.65	36631.72
575.82	36004.46
575.98	36025.53
576.14	36500.65
576.30	36575.55
576.46	36067.66
576.62	36119.15
576.79	36378.95
576.95	35896.80
577.11	36098.08
577.27	36400.01
577.43	36163.62
577.59	36311.07
577.75	36739.39
577.92	36189.36
578.08	35988.08
578.24	36147.23
578.40	36210.43
578.56	36423.42
578.72	36210.43
578.88	36744.07
579.04	36601.30
579.21	36779.18
579.37	36313.41
579.53	36697.26
579.69	36147.23
579.85	36222.13
580.01	36521.72
580.17	35667.42
580.33	36311.07
580.49	36226.81
580.65	36510.02
580.82	36463.21
580.98	36121.49
581.14	36144.89
581.30	36486.61
581.46	36074.68
581.62	36418.74
581.78	36371.92
581.94	36587.25
582.10	36404.69
582.26	37188.77
582.42	36512.36
582.58	36287.67
582.74	36343.84
582.90	36573.21
583.06	36444.48
583.22	36467.89
583.38	36423.42
583.54	36577.89
583.70	36292.35
583.86	36465.55
584.02	36823.65
584.18	36671.51
584.34	36594.28
584.50	36744.07
584.66	36587.25
584.82	36659.81
584.98	36793.22
585.14	36547.47
585.30	36484.27
585.46	36851.73
585.62	36409.37
585.78	36926.63
585.94	36332.14
586.10	36479.59
586.26	36072.34
586.42	36353.20
586.58	36847.05
586.74	36388.31
586.90	36374.27
587.06	36481.93
587.22	36872.80
587.38	36327.45
587.54	36793.22
587.70	36657.47
587.86	36629.38
588.02	36704.28
588.18	36500.65
588.34	36510.02
588.49	36940.68
588.65	36491.29
588.81	36748.75
588.97	36521.72
589.13	36460.87
589.29	36744.07
589.45	36830.67
589.61	37036.64
589.77	37006.21
589.93	36779.18
590.08	37357.29
590.24	36634.06
590.40	37144.30
590.56	36741.73
590.72	36893.86
590.88	36987.49
591.04	36519.38
591.20	37308.14
591.35	37095.15
