SpectraSuite Data File
++++++++++++++++++++++++++++++++++++
Date: Fri Oct 04 11:39:58 GMT-05:00 2013
User: price-jones
Dark Spectrum Present: No
Reference Spectrum Present: No
Number of Sampled Component Spectra: 1
Spectrometers: USB2+H05261
Integration Time (usec): 100000 (USB2+H05261)
Spectra Averaged: 1 (USB2+H05261)
Boxcar Smoothing: 0 (USB2+H05261)
Correct for Electrical Dark: No (USB2+H05261)
Strobe/Lamp Enabled: No (USB2+H05261)
Correct for Detector Non-linearity: No (USB2+H05261)
Correct for Stray Light: No (USB2+H05261)
Number of Pixels in Processed Spectrum: 2048
>>>>>Begin Processed Spectral Data<<<<<
365.73	72.56
365.92	72.56
366.12	72.56
366.32	0.00
366.52	0.00
366.72	0.00
366.91	0.00
367.11	0.00
367.31	0.00
367.51	0.00
367.70	0.00
367.90	0.00
368.10	0.00
368.30	0.00
368.49	0.00
368.69	21.06
368.89	0.00
369.09	0.00
369.28	0.00
369.48	0.00
369.68	4.68
369.87	21.06
370.07	37.45
370.27	16.38
370.47	77.24
370.66	77.24
370.86	46.81
371.06	140.43
371.25	93.62
371.45	65.54
371.65	180.22
371.84	79.58
372.04	154.48
372.24	102.98
372.44	180.22
372.63	138.09
372.83	189.58
373.03	177.88
373.22	70.22
373.42	156.82
373.62	161.50
373.81	191.92
374.01	124.05
374.21	205.97
374.40	135.75
374.60	161.50
374.79	147.45
374.99	128.73
375.19	212.99
375.38	173.20
375.58	149.79
375.78	196.60
375.97	159.16
376.17	271.50
376.37	133.41
376.56	131.07
376.76	152.13
376.95	184.90
377.15	180.22
377.35	173.20
377.54	198.95
377.74	147.45
377.93	145.11
378.13	102.98
378.33	227.03
378.52	81.92
378.72	170.86
378.91	135.75
379.11	177.88
379.31	191.92
379.50	102.98
379.70	205.97
379.89	126.39
380.09	154.48
380.28	194.26
380.48	131.07
380.68	173.20
380.87	191.92
381.07	224.69
381.26	147.45
381.46	187.24
381.65	182.56
381.85	175.54
382.04	131.07
382.24	161.50
382.43	149.79
382.63	147.45
382.83	222.35
383.02	203.63
383.22	161.50
383.41	210.65
383.61	166.18
383.80	166.18
384.00	168.52
384.19	201.29
384.39	133.41
384.58	215.33
384.78	212.99
384.97	205.97
385.17	156.82
385.36	173.20
385.56	220.01
385.75	149.79
385.95	121.71
386.14	100.64
386.34	217.67
386.53	189.58
386.72	168.52
386.92	220.01
387.11	264.48
387.31	154.48
387.50	133.41
387.70	173.20
387.89	191.92
388.09	119.37
388.28	194.26
388.48	198.95
388.67	161.50
388.86	184.90
389.06	187.24
389.25	245.76
389.45	212.99
389.64	187.24
389.84	243.42
390.03	189.58
390.22	285.55
390.42	187.24
390.61	187.24
390.81	173.20
391.00	224.69
391.19	196.60
391.39	175.54
391.58	238.73
391.78	229.37
391.97	243.42
392.16	163.84
392.36	308.95
392.55	294.91
392.75	208.31
392.94	224.69
393.13	255.12
393.33	196.60
393.52	266.82
393.71	320.65
393.91	220.01
394.10	273.84
394.29	201.29
394.49	220.01
394.68	245.76
394.88	212.99
395.07	294.91
395.26	273.84
395.46	294.91
395.65	313.63
395.84	264.48
396.04	308.95
396.23	231.71
396.42	311.29
396.62	318.31
396.81	299.59
397.00	322.99
397.19	191.92
397.39	271.50
397.58	365.12
397.77	280.86
397.97	299.59
398.16	304.27
398.35	344.06
398.55	327.68
398.74	318.31
398.93	383.85
399.12	257.46
399.32	273.84
399.51	327.68
399.70	285.55
399.90	287.89
400.09	283.20
400.28	351.08
400.47	393.21
400.67	318.31
400.86	341.72
401.05	381.51
401.24	311.29
401.44	416.62
401.63	348.74
401.82	418.96
402.01	383.85
402.21	395.55
402.40	341.72
402.59	365.12
402.78	367.46
402.97	388.53
403.17	489.17
403.36	369.80
403.55	400.23
403.74	416.62
403.93	395.55
404.13	447.04
404.32	482.15
404.51	514.92
404.70	531.30
404.89	390.87
405.09	470.45
405.28	435.34
405.47	423.64
405.66	535.98
405.85	470.45
406.05	463.43
406.24	472.79
406.43	503.22
406.62	461.09
406.81	538.32
407.00	463.43
407.20	543.00
407.39	475.13
407.58	498.53
407.77	526.62
407.96	543.00
408.15	550.03
408.34	489.17
408.54	496.19
408.73	638.97
408.92	578.11
409.11	517.26
409.30	486.83
409.49	559.39
409.68	681.10
409.87	571.09
410.07	657.69
410.26	599.18
410.45	568.75
410.64	559.39
410.83	664.71
411.02	535.98
411.21	655.35
411.40	697.48
411.59	641.31
411.78	753.65
411.98	657.69
412.17	634.29
412.36	709.18
412.55	748.97
412.74	709.18
412.93	798.12
413.12	723.23
413.31	741.95
413.50	837.91
413.69	758.33
413.88	828.55
414.07	781.74
414.26	798.12
414.45	781.74
414.64	863.66
414.83	828.55
415.02	837.91
415.22	889.40
415.41	889.40
415.60	840.25
415.79	891.74
415.98	889.40
416.17	891.74
416.36	940.90
416.55	880.04
416.74	898.77
416.93	915.15
417.12	1004.09
417.31	985.37
417.50	1034.52
417.69	1121.12
417.88	1046.22
418.07	985.37
418.26	926.85
418.45	959.62
418.64	1020.47
418.83	1032.18
419.02	971.32
419.21	1011.11
419.39	1109.41
419.58	994.73
419.77	1036.86
419.96	1095.37
420.15	1034.52
420.34	1041.54
420.53	1060.26
420.72	1149.20
420.91	1100.05
421.10	1083.67
421.29	1160.91
421.48	1081.33
421.67	1125.80
421.86	1064.94
422.05	1184.31
422.24	1125.80
422.43	1181.97
422.61	1081.33
422.80	1179.63
422.99	1174.95
423.18	1107.07
423.37	1193.67
423.56	1188.99
423.75	1137.50
423.94	1151.54
424.13	1104.73
424.32	1004.09
424.50	1151.54
424.69	1210.06
424.88	1203.04
425.07	1086.01
425.26	1102.39
425.45	1153.88
425.64	1160.91
425.83	1125.80
426.01	1228.78
426.20	1186.65
426.39	1261.55
426.58	1142.18
426.77	1174.95
426.96	1228.78
427.15	1203.04
427.33	1259.21
427.52	1254.53
427.71	1291.98
427.90	1303.68
428.09	1214.74
428.28	1207.72
428.46	1308.36
428.65	1261.55
428.84	1308.36
429.03	1313.04
429.22	1249.85
429.40	1331.76
429.59	1261.55
429.78	1334.11
429.97	1196.01
430.16	1226.44
430.34	1345.81
430.53	1313.04
430.72	1310.70
430.91	1343.47
431.10	1355.17
431.28	1341.13
431.47	1430.07
431.66	1369.21
431.85	1329.42
432.03	1373.89
432.22	1437.09
432.41	1310.70
432.60	1467.52
432.79	1383.26
432.97	1423.05
433.16	1469.86
433.35	1299.00
433.54	1467.52
433.72	1488.58
433.91	1430.07
434.10	1420.71
434.28	1474.54
434.47	1453.47
434.66	1563.48
434.85	1544.75
435.03	1500.28
435.22	1741.36
435.41	2120.53
435.59	1933.28
435.78	1816.26
435.97	1675.82
436.16	1495.60
436.34	1535.39
436.53	1507.30
436.72	1561.14
436.90	1556.46
437.09	1537.73
437.28	1593.90
437.46	1612.63
437.65	1530.71
437.84	1633.69
438.02	1664.12
438.21	1614.97
438.40	1533.05
438.58	1685.19
438.77	1696.89
438.96	1558.80
439.14	1605.61
439.33	1748.38
439.52	1743.70
439.70	1736.68
439.89	1795.19
440.08	1771.79
440.26	1724.97
440.45	1692.21
440.63	1806.89
440.82	1891.15
441.01	1760.08
441.19	1804.55
441.38	1748.38
441.57	1678.16
441.75	1727.32
441.94	1851.36
442.12	1797.53
442.31	1905.20
442.50	1886.47
442.68	1856.04
442.87	1825.62
443.05	1900.52
443.24	1874.77
443.43	1825.62
443.61	1879.45
443.80	1949.67
443.98	1895.83
444.17	1830.30
444.35	2001.16
444.54	1975.41
444.73	1940.30
444.91	1975.41
445.10	1944.99
445.28	1970.73
445.47	1984.77
445.65	1966.05
445.84	1966.05
446.02	1952.01
446.21	1996.48
446.39	2015.20
446.58	1891.15
446.77	2036.27
446.95	1956.69
447.14	2113.50
447.32	2038.61
447.51	1919.24
447.69	2083.08
447.88	1998.82
448.06	2003.50
448.25	2052.65
448.43	1961.37
448.62	1980.09
448.80	1973.07
448.99	2111.16
449.17	2076.06
449.36	2001.16
449.54	2097.12
449.73	2176.70
449.91	2118.18
450.10	2033.93
450.28	2141.59
450.46	2150.95
450.65	2059.67
450.83	2094.78
451.02	2181.38
451.20	2125.21
451.39	2099.46
451.57	2076.06
451.76	2197.76
451.94	2181.38
452.13	2160.31
452.31	2169.68
452.49	2040.95
452.68	2069.03
452.86	2094.78
453.05	2207.13
453.23	2279.68
453.42	2181.38
453.60	2127.55
453.78	2176.70
453.97	2190.74
454.15	2303.09
454.34	2251.60
454.52	2202.44
454.70	2394.37
454.89	2335.85
455.07	2307.77
455.26	2415.43
455.44	2387.35
455.62	2375.64
455.81	2296.07
455.99	2338.20
456.17	2347.56
456.36	2317.13
456.54	2307.77
456.73	2338.20
456.91	2462.24
457.09	2417.77
457.28	2469.27
457.46	2368.62
457.64	2382.67
457.83	2396.71
458.01	2326.49
458.19	2509.05
458.38	2349.90
458.56	2534.80
458.74	2459.90
458.93	2399.05
459.11	2429.48
459.29	2509.05
459.48	2583.95
459.66	2581.61
459.84	2499.69
460.03	2537.14
460.21	2429.48
460.39	2619.06
460.57	2532.46
460.76	2504.37
460.94	2436.50
461.12	2675.23
461.31	2562.89
461.49	2562.89
461.67	2506.71
461.85	2677.57
462.04	2672.89
462.22	3169.09
462.40	2672.89
462.59	2637.78
462.77	2679.91
462.95	2647.15
463.13	2644.81
463.32	2672.89
463.50	2771.19
463.68	2640.12
463.86	2710.34
464.05	2644.81
464.23	2806.30
464.41	2712.68
464.59	2729.06
464.78	2672.89
464.96	2628.42
465.14	2717.36
465.32	2787.58
465.50	2764.17
465.69	2759.49
465.87	2803.96
466.05	2700.98
466.23	2775.88
466.41	2832.05
466.60	2906.95
466.78	2761.83
466.96	2764.17
467.14	2829.71
467.32	2796.94
467.51	2939.71
467.69	2806.30
467.87	3000.57
468.05	2958.44
468.23	2867.16
468.41	2932.69
468.60	2874.18
468.78	2871.84
468.96	2944.39
469.14	2878.86
469.32	2888.22
469.50	2928.01
469.69	2916.31
469.87	2972.48
470.05	2890.56
470.23	2993.55
470.41	2986.52
470.59	2995.89
470.77	3045.04
470.95	3054.40
471.14	3073.12
471.32	3026.31
471.50	3148.02
471.68	3136.32
471.86	3030.99
472.04	3112.91
472.22	3103.55
472.40	3066.10
472.58	3131.64
472.77	3295.47
472.95	3096.53
473.13	3389.10
473.31	3162.06
473.49	3276.75
473.67	3351.65
473.85	3211.22
474.03	3293.13
474.21	3141.00
474.39	3288.45
474.57	3468.67
474.75	3281.43
474.93	3407.82
475.12	3372.71
475.30	3269.73
475.48	3370.37
475.66	3351.65
475.84	3368.03
476.02	3475.70
476.20	3529.53
476.38	3485.06
476.56	3569.32
476.74	3620.81
476.92	3534.21
477.10	3527.19
477.28	3719.11
477.46	3719.11
477.64	3770.60
477.82	3770.60
478.00	3803.37
478.18	3786.99
478.36	3843.16
478.54	3946.14
478.72	3819.75
478.90	3946.14
479.08	3892.31
479.26	3899.33
479.44	3948.48
479.62	4046.79
479.80	3831.46
479.98	4119.34
480.16	4007.00
480.34	4128.70
480.52	4079.55
480.70	4004.66
480.88	4234.03
481.06	4105.30
481.24	4339.35
481.41	4205.94
481.59	4332.33
481.77	4351.06
481.95	4383.82
482.13	4470.42
482.31	4369.78
482.49	4458.72
482.67	4353.40
482.85	4514.89
483.03	4454.04
483.21	4585.11
483.39	4587.45
483.57	4720.86
483.74	4671.71
483.92	4767.67
484.10	4650.64
484.28	4805.12
484.46	4947.89
484.64	4891.72
484.82	4821.50
485.00	5029.81
485.18	5083.64
485.35	5093.01
485.53	5097.69
485.71	5093.01
485.89	5247.48
486.07	5132.79
486.25	5142.16
486.43	5294.29
486.61	5270.89
486.78	5493.24
486.96	5455.79
487.14	5425.36
487.32	5451.11
487.50	5565.79
487.68	5682.82
487.85	5603.24
488.03	5652.39
488.21	5710.91
488.39	5790.49
488.57	5638.35
488.75	5706.23
488.92	5949.64
489.10	5858.36
489.28	5891.13
489.46	6064.33
489.64	5886.45
489.81	6061.99
489.99	6106.46
490.17	6160.29
490.35	6204.76
490.53	6164.97
490.70	6202.42
490.88	6342.85
491.06	6293.70
491.24	6375.62
491.41	6436.47
491.59	6443.49
491.77	6403.71
491.95	6518.39
492.13	6635.42
492.30	6490.31
492.48	6452.86
492.66	6560.52
492.84	6544.14
493.01	6670.53
493.19	6768.83
493.37	6752.45
493.54	6846.07
493.72	6677.55
493.90	6752.45
494.08	6836.70
494.25	6986.50
494.43	6932.67
494.61	6895.22
494.79	7042.67
494.96	6991.18
495.14	7047.35
495.32	7148.00
495.49	7019.27
495.67	7274.38
495.85	7176.08
496.02	7403.11
496.20	7454.61
496.38	7466.31
496.55	7508.44
496.73	7571.63
496.91	7562.27
497.09	7417.16
497.26	7435.88
497.44	7585.68
497.62	7705.04
497.79	7623.12
497.97	7520.14
498.14	7742.49
498.32	7744.83
498.50	7686.32
498.67	7925.05
498.85	7875.90
499.03	7889.95
499.20	7889.95
499.38	7922.71
499.56	8159.11
499.73	8084.21
499.91	8159.11
500.08	8285.50
500.26	8191.88
500.44	8088.89
500.61	8053.78
500.79	8138.04
500.97	8262.09
501.14	8329.97
501.32	8339.33
501.49	8219.96
501.67	8369.76
501.84	8259.75
502.02	8344.01
502.20	8411.89
502.37	8732.54
502.55	8578.06
502.72	8545.30
502.90	8564.02
503.07	8348.69
503.25	8596.79
503.43	8315.92
503.60	8791.05
503.78	8589.77
503.95	8720.84
504.13	8596.79
504.30	8580.40
504.48	8706.79
504.65	8690.41
504.83	8964.25
505.01	8826.16
505.18	8849.57
505.36	8706.79
505.53	8968.93
505.71	9029.79
505.88	9025.11
506.06	8830.84
506.23	9071.92
506.41	9186.60
506.58	9181.92
506.76	9153.84
506.93	9060.21
507.11	9071.92
507.28	9013.40
507.46	9121.07
507.63	9289.59
507.81	9289.59
507.98	9287.25
508.16	9284.91
508.33	9341.08
508.50	9544.70
508.68	9341.08
508.85	9584.49
509.03	9430.02
509.20	9460.45
509.38	9722.59
509.55	9731.95
509.73	9731.95
509.90	9549.39
510.08	9706.20
510.25	9575.13
510.42	9558.75
510.60	9563.43
510.77	10174.31
510.95	9650.03
511.12	9734.29
511.30	9666.41
511.47	9792.80
511.64	9753.01
511.82	9760.03
511.99	10003.45
512.17	10015.15
512.34	10127.50
512.51	10218.78
512.69	10029.20
512.86	10174.31
513.04	10115.80
513.21	10256.23
513.38	10195.37
513.56	10143.88
513.73	10106.43
513.90	10289.00
514.08	10303.04
514.25	10246.87
514.43	10544.11
514.60	10445.81
514.77	10427.09
514.95	10354.53
515.12	10340.49
515.29	10239.84
515.47	10476.24
515.64	10504.32
515.81	10457.51
515.99	10504.32
516.16	10619.01
516.33	10637.73
516.51	10494.96
516.68	10494.96
516.85	10677.52
517.03	10644.76
517.20	10724.33
517.37	10637.73
517.54	10832.00
517.72	11103.50
517.89	10682.20
518.06	10635.39
518.24	10883.49
518.41	10874.13
518.58	10780.51
518.75	10787.53
518.93	10925.62
519.10	10923.28
519.27	11012.22
519.45	10956.05
519.62	10932.64
519.79	10944.34
519.96	10953.71
520.14	11152.65
520.31	11143.29
520.48	11059.03
520.65	10981.79
520.83	11573.95
521.00	11234.57
521.17	11337.56
521.34	11452.24
521.52	11330.53
521.69	11555.22
521.86	11382.03
522.03	11548.20
522.20	11674.59
522.38	11419.47
522.55	11529.48
522.72	11531.82
522.89	11475.65
523.07	11562.25
523.24	11536.50
523.41	11721.40
523.58	11405.43
523.75	11506.07
523.92	11515.44
524.10	11712.04
524.27	11796.30
524.44	11597.35
524.61	11590.33
524.78	11775.24
524.96	11967.16
525.13	11866.52
525.30	11812.68
525.47	12046.74
525.64	11826.73
525.81	11864.18
525.98	11707.36
526.16	12044.40
526.33	11822.05
526.50	12095.89
526.67	11992.90
526.84	11976.52
527.01	11880.56
527.18	12058.44
527.36	12432.93
527.53	12156.74
527.70	11957.80
527.87	12086.53
528.04	12196.53
528.21	11964.82
528.38	12414.20
528.55	12114.61
528.72	12177.81
528.89	12250.36
529.07	12423.56
529.24	12271.43
529.41	12411.86
529.58	12311.22
529.75	12173.13
529.92	12290.15
530.09	12468.03
530.26	12194.19
530.43	12264.41
530.60	12409.52
530.77	12198.87
530.94	12320.58
531.11	12411.86
531.28	12304.20
531.46	12226.96
531.63	12592.08
531.80	12531.23
531.97	12484.42
532.14	12762.94
532.31	12517.18
532.48	12556.97
532.65	12599.10
532.82	12437.61
532.99	12425.90
533.16	12784.01
533.33	12996.99
533.50	12877.63
533.67	12924.44
533.84	12697.41
534.01	12636.55
534.18	12748.90
534.35	12699.75
534.52	12975.93
534.69	12915.08
534.86	13076.57
535.03	12720.81
535.20	12807.41
535.37	12891.67
535.54	12971.25
535.71	12896.35
535.88	13179.56
536.05	12678.68
536.22	13116.36
536.38	13055.51
536.55	12849.54
536.72	13095.30
536.89	12912.74
537.06	13046.15
537.23	13099.98
537.40	13132.75
537.57	12840.18
537.74	13078.91
537.91	13336.37
538.08	13390.20
538.25	13174.88
538.42	13408.93
538.59	13275.52
538.75	13207.64
538.92	13259.13
539.09	13275.52
539.26	13434.68
539.43	13607.87
539.60	13650.00
539.77	13348.08
539.94	13584.47
540.11	13701.50
540.28	13570.43
540.44	13647.66
540.61	13652.34
540.78	13738.94
540.95	13767.03
541.12	13781.07
541.29	14043.21
541.46	13954.27
541.62	14003.43
541.79	13980.02
541.96	13930.87
542.13	13832.57
542.30	13937.89
542.47	13956.61
542.63	14038.53
542.80	14075.98
542.97	14377.91
543.14	14457.49
543.31	14178.97
543.48	14036.19
543.64	14354.51
543.81	14132.15
543.98	14075.98
544.15	14288.97
544.32	14223.44
544.48	14263.22
544.65	13956.61
544.82	14263.22
544.99	13968.32
545.16	14141.52
545.32	14635.37
545.49	14782.82
545.66	15428.81
545.83	15445.20
546.00	15054.33
546.16	14523.02
546.33	14548.77
546.50	14370.89
546.67	14328.76
546.83	14052.58
547.00	14024.49
547.17	14106.41
547.34	14328.76
547.50	14441.11
547.67	14319.40
547.84	14347.48
548.00	14164.92
548.17	14541.75
548.34	14148.54
548.51	14448.13
548.67	14532.39
548.84	14178.97
549.01	14120.45
549.18	14483.24
549.34	14146.20
549.51	14544.09
549.68	14471.53
549.84	14209.39
550.01	14391.95
550.18	14307.69
550.34	14314.72
550.51	14291.31
550.68	14572.18
550.84	14225.78
551.01	14455.15
551.18	14108.75
551.34	14394.29
551.51	14260.88
551.68	14483.24
551.84	14532.39
552.01	14525.36
552.18	14200.03
552.34	14410.68
552.51	14389.61
552.68	14094.71
552.84	14293.65
553.01	14487.92
553.18	14527.71
553.34	14497.28
553.51	14150.88
553.67	14614.30
553.84	14483.24
554.01	14740.69
554.17	14422.38
554.34	14354.51
554.51	14410.68
554.67	14534.73
554.84	14377.91
555.00	14616.65
555.17	14492.60
555.33	14359.19
555.50	14508.98
555.67	14462.17
555.83	14485.58
556.00	14611.96
556.16	14604.94
556.33	14546.43
556.50	14375.57
556.66	14665.80
556.83	14647.07
556.99	14700.90
557.16	14691.54
557.32	14796.87
557.49	14848.36
557.65	14576.86
557.82	14583.88
557.98	14588.56
558.15	14349.82
558.32	14679.84
558.48	14869.42
558.65	14724.31
558.81	14754.74
558.98	14312.38
559.14	14541.75
559.31	14565.15
559.47	14553.45
559.64	14600.26
559.80	14876.44
559.97	15000.49
560.13	14424.72
560.30	14719.63
560.46	14796.87
560.63	14815.59
560.79	14801.55
560.96	14705.59
561.12	14834.32
561.29	14726.65
561.45	15002.83
561.61	14728.99
561.78	15009.86
561.94	14663.46
562.11	14705.59
562.27	14684.52
562.44	14780.48
562.60	14661.12
562.77	14803.89
562.93	14642.39
563.10	14724.31
563.26	14771.12
563.42	14855.38
563.59	14977.09
563.75	14841.34
563.92	14813.25
564.08	14712.61
564.24	14815.59
564.41	14869.42
564.57	14731.33
564.74	14740.69
564.90	14932.62
565.07	14705.59
565.23	14906.87
565.39	14916.23
565.56	14736.01
565.72	14520.68
565.88	14717.29
566.05	14642.39
566.21	14736.01
566.38	14923.26
566.54	14813.25
566.70	14878.79
566.87	15192.42
567.03	14792.19
567.19	15026.24
567.36	14944.32
567.52	14944.32
567.68	14647.07
567.85	14670.48
568.01	14885.81
568.17	14771.12
568.34	15012.20
568.50	14874.10
568.66	14743.03
568.83	14911.55
568.99	14862.40
569.15	14939.64
569.32	15000.49
569.48	14878.79
569.64	14918.57
569.81	14841.34
569.97	14850.70
570.13	15101.14
570.30	14841.34
570.46	15185.40
570.62	14881.13
570.78	14970.07
570.95	15089.43
571.11	14778.14
571.27	14696.22
571.43	14871.76
571.60	14923.26
571.76	15012.20
571.92	15030.92
572.09	14965.39
572.25	15147.95
572.41	15084.75
572.57	14991.13
572.74	15059.01
572.90	14909.21
573.06	14736.01
573.22	15094.11
573.38	14927.94
573.55	15033.26
573.71	15304.76
573.87	15094.11
574.03	14946.66
574.20	14937.30
574.36	14927.94
574.52	15073.05
574.68	14963.04
574.84	14888.15
575.01	14993.47
575.17	14972.41
575.33	15056.67
575.49	14876.44
575.65	15091.77
575.82	14960.70
575.98	15033.26
576.14	14892.83
576.30	15239.23
576.46	15264.97
576.62	15213.48
576.79	15300.08
576.95	15349.23
577.11	15138.58
577.27	15000.49
577.43	14864.74
577.59	14918.57
577.75	15140.93
577.92	14803.89
578.08	15131.56
578.24	14728.99
578.40	15101.14
578.56	15272.00
578.72	15124.54
578.88	15290.72
579.04	15197.10
579.21	15239.23
579.37	15199.44
579.53	14972.41
579.69	15286.04
579.85	15274.34
580.01	15281.36
580.17	15117.52
580.33	15133.90
580.49	14970.07
580.65	15389.02
580.82	15000.49
580.98	15101.14
581.14	15077.73
581.30	15236.89
581.46	14953.68
581.62	15213.48
581.78	15105.82
581.94	14944.32
582.10	15014.54
582.26	15290.72
582.42	15342.21
582.58	15091.77
582.74	15316.47
582.90	15346.89
583.06	15328.17
583.22	15059.01
583.38	15054.33
583.54	15356.25
583.70	15136.24
583.86	15197.10
584.02	15068.37
584.18	15260.29
584.34	15176.03
584.50	15126.88
584.66	15089.43
584.82	14979.43
584.98	15169.01
585.14	14967.73
585.30	15241.57
585.46	14988.79
585.62	15302.42
585.78	15440.51
585.94	15098.80
586.10	15131.56
586.26	15255.61
586.42	15382.00
586.58	15098.80
586.74	15442.85
586.90	15356.25
587.06	15204.12
587.22	15382.00
587.38	15538.82
587.54	15344.55
587.70	15084.75
587.86	15276.68
588.02	15253.27
588.18	15393.70
588.34	15286.04
588.49	15005.17
588.65	15318.81
588.81	15183.06
588.97	15164.33
589.13	15077.73
589.29	15077.73
589.45	15239.23
589.61	15384.34
589.77	15269.66
589.93	15356.25
590.08	15396.04
590.24	15199.44
590.40	15124.54
590.56	15370.30
590.72	15335.19
590.88	15087.09
591.04	15089.43
591.20	15281.36
591.35	15187.74
591.51	15412.43
591.67	15428.81
591.83	15337.53
591.99	15473.28
592.15	15353.91
592.31	15281.36
592.46	15157.31
592.62	15126.88
592.78	15173.69
592.94	15178.37
593.10	15190.08
593.26	15353.91
593.41	15461.58
593.57	15513.07
593.73	15379.66
593.89	15157.31
