SpectraSuite Data File
++++++++++++++++++++++++++++++++++++
Date: Fri Oct 04 11:39:56 GMT-05:00 2013
User: price-jones
Dark Spectrum Present: No
Reference Spectrum Present: No
Number of Sampled Component Spectra: 1
Spectrometers: USB2+H05261
Integration Time (usec): 100000 (USB2+H05261)
Spectra Averaged: 1 (USB2+H05261)
Boxcar Smoothing: 0 (USB2+H05261)
Correct for Electrical Dark: No (USB2+H05261)
Strobe/Lamp Enabled: No (USB2+H05261)
Correct for Detector Non-linearity: No (USB2+H05261)
Correct for Stray Light: No (USB2+H05261)
Number of Pixels in Processed Spectrum: 2048
>>>>>Begin Processed Spectral Data<<<<<
365.73	138.09
365.92	138.09
366.12	138.09
366.32	0.00
366.52	0.00
366.72	0.00
366.91	0.00
367.11	0.00
367.31	74.90
367.51	0.00
367.70	0.00
367.90	0.00
368.10	18.72
368.30	0.00
368.49	0.00
368.69	0.00
368.89	0.00
369.09	0.00
369.28	0.00
369.48	0.00
369.68	0.00
369.87	14.04
370.07	16.38
370.27	0.00
370.47	95.96
370.66	84.26
370.86	58.51
371.06	56.17
371.25	149.79
371.45	70.22
371.65	138.09
371.84	93.62
372.04	161.50
372.24	107.66
372.44	81.92
372.63	156.82
372.83	208.31
373.03	145.11
373.22	119.37
373.42	220.01
373.62	124.05
373.81	159.16
374.01	212.99
374.21	177.88
374.40	105.32
374.60	138.09
374.79	105.32
374.99	173.20
375.19	177.88
375.38	220.01
375.58	152.13
375.78	198.95
375.97	201.29
376.17	189.58
376.37	100.64
376.56	159.16
376.76	149.79
376.95	133.41
377.15	187.24
377.35	210.65
377.54	138.09
377.74	131.07
377.93	105.32
378.13	201.29
378.33	131.07
378.52	140.43
378.72	168.52
378.91	110.01
379.11	173.20
379.31	159.16
379.50	124.05
379.70	205.97
379.89	161.50
380.09	138.09
380.28	135.75
380.48	152.13
380.68	117.03
380.87	154.48
381.07	142.77
381.26	208.31
381.46	236.39
381.65	255.12
381.85	161.50
382.04	147.45
382.24	180.22
382.43	88.94
382.63	135.75
382.83	180.22
383.02	163.84
383.22	203.63
383.41	70.22
383.61	131.07
383.80	112.35
384.00	124.05
384.19	203.63
384.39	243.42
384.58	217.67
384.78	212.99
384.97	264.48
385.17	224.69
385.36	217.67
385.56	189.58
385.75	205.97
385.95	112.35
386.14	201.29
386.34	142.77
386.53	212.99
386.72	138.09
386.92	189.58
387.11	220.01
387.31	222.35
387.50	187.24
387.70	149.79
387.89	222.35
388.09	208.31
388.28	119.37
388.48	177.88
388.67	217.67
388.86	243.42
389.06	191.92
389.25	287.89
389.45	224.69
389.64	231.71
389.84	191.92
390.03	131.07
390.22	245.76
390.42	231.71
390.61	201.29
390.81	163.84
391.00	194.26
391.19	271.50
391.39	135.75
391.58	229.37
391.78	180.22
391.97	283.20
392.16	215.33
392.36	292.57
392.55	203.63
392.75	257.46
392.94	205.97
393.13	306.61
393.33	297.25
393.52	217.67
393.71	205.97
393.91	194.26
394.10	189.58
394.29	145.11
394.49	198.95
394.68	278.52
394.88	262.14
395.07	245.76
395.26	241.08
395.46	294.91
395.65	301.93
395.84	276.18
396.04	386.19
396.23	231.71
396.42	222.35
396.62	301.93
396.81	236.39
397.00	243.42
397.19	299.59
397.39	262.14
397.58	346.40
397.77	287.89
397.97	308.95
398.16	332.36
398.35	269.16
398.55	297.25
398.74	315.97
398.93	299.59
399.12	280.86
399.32	285.55
399.51	344.06
399.70	337.04
399.90	428.32
400.09	404.91
400.28	404.91
400.47	308.95
400.67	379.17
400.86	358.10
401.05	451.72
401.24	341.72
401.44	383.85
401.63	346.40
401.82	451.72
402.01	376.83
402.21	435.34
402.40	287.89
402.59	428.32
402.78	454.06
402.97	369.80
403.17	444.70
403.36	414.27
403.55	433.00
403.74	430.66
403.93	484.49
404.13	594.50
404.32	472.79
404.51	519.60
404.70	503.22
404.89	486.83
405.09	517.26
405.28	507.90
405.47	489.17
405.66	538.32
405.85	631.94
406.05	545.34
406.24	531.30
406.43	479.81
406.62	580.45
406.81	624.92
407.00	603.86
407.20	573.43
407.39	535.98
407.58	566.41
407.77	608.54
407.96	603.86
408.15	620.24
408.34	634.29
408.54	620.24
408.73	568.75
408.92	695.14
409.11	641.31
409.30	711.52
409.49	725.57
409.68	720.88
409.87	697.48
410.07	727.91
410.26	678.76
410.45	683.44
410.64	706.84
410.83	727.91
411.02	770.04
411.21	821.53
411.40	793.44
411.59	788.76
411.78	763.01
411.98	784.08
412.17	748.97
412.36	765.36
412.55	812.17
412.74	854.30
412.93	896.43
413.12	833.23
413.31	926.85
413.50	926.85
413.69	870.68
413.88	936.21
414.07	905.79
414.26	915.15
414.45	1064.94
414.64	924.51
414.83	985.37
415.02	1055.58
415.22	990.05
415.41	1086.01
415.60	1060.26
415.79	1025.15
415.98	1104.73
416.17	1078.99
416.36	1109.41
416.55	1055.58
416.74	1114.10
416.93	1118.78
417.12	1104.73
417.31	1100.05
417.50	1086.01
417.69	1210.06
417.88	1144.52
418.07	1170.27
418.26	1184.31
418.45	1149.20
418.64	1193.67
418.83	1263.89
419.02	1179.63
419.21	1226.44
419.39	1210.06
419.58	1254.53
419.77	1233.46
419.96	1163.25
420.15	1308.36
420.34	1289.64
420.53	1254.53
420.72	1352.83
420.91	1240.48
421.10	1350.49
421.29	1359.85
421.48	1289.64
421.67	1380.92
421.86	1270.91
422.05	1460.49
422.24	1352.83
422.43	1430.07
422.61	1371.55
422.80	1320.06
422.99	1329.42
423.18	1376.24
423.37	1455.81
423.56	1434.75
423.75	1348.15
423.94	1320.06
424.13	1256.87
424.32	1289.64
424.50	1303.68
424.69	1451.13
424.88	1502.62
425.07	1397.30
425.26	1310.70
425.45	1355.17
425.64	1476.88
425.83	1373.89
426.01	1540.07
426.20	1476.88
426.39	1451.13
426.58	1371.55
426.77	1418.36
426.96	1437.09
427.15	1390.28
427.33	1535.39
427.52	1423.05
427.71	1509.65
427.90	1493.26
428.09	1504.96
428.28	1493.26
428.46	1605.61
428.65	1500.28
428.84	1593.90
429.03	1570.50
429.22	1460.49
429.40	1551.78
429.59	1556.46
429.78	1507.30
429.97	1554.12
430.16	1465.18
430.34	1544.75
430.53	1657.10
430.72	1577.52
430.91	1589.22
431.10	1563.48
431.28	1526.03
431.47	1664.12
431.66	1659.44
431.85	1561.14
432.03	1671.14
432.22	1729.66
432.41	1614.97
432.60	1671.14
432.79	1636.03
432.97	1799.87
433.16	1652.42
433.35	1806.89
433.54	1823.28
433.72	1727.32
433.91	1659.44
434.10	1802.21
434.28	1750.72
434.47	1837.32
434.66	1788.17
434.85	1804.55
435.03	1863.07
435.22	2003.50
435.41	2303.09
435.59	2415.43
435.78	2204.78
435.97	2026.90
436.16	1998.82
436.34	1874.77
436.53	1844.34
436.72	1968.39
436.90	1895.83
437.09	1853.70
437.28	1792.85
437.46	1916.90
437.65	1905.20
437.84	2029.24
438.02	1982.43
438.21	1930.94
438.40	1881.79
438.58	2057.33
438.77	2043.29
438.96	2087.76
439.14	1947.33
439.33	2111.16
439.52	2099.46
439.70	2090.10
439.89	2150.95
440.08	2101.80
440.26	2155.63
440.45	2172.02
440.63	2183.72
440.82	2087.76
441.01	2127.55
441.19	2111.16
441.38	2272.66
441.57	2328.83
441.75	2289.04
441.94	2263.30
442.12	2293.72
442.31	2324.15
442.50	2445.86
442.68	2326.49
442.87	2279.68
443.05	2420.11
443.24	2422.45
443.43	2324.15
443.61	2293.72
443.80	2403.73
443.98	2312.45
444.17	2174.36
444.35	2265.64
444.54	2314.79
444.73	2452.88
444.91	2366.28
445.10	2338.20
445.28	2359.26
445.47	2345.22
445.65	2377.98
445.84	2485.65
446.02	2436.50
446.21	2387.35
446.39	2387.35
446.58	2499.69
446.77	2487.99
446.95	2394.37
447.14	2356.92
447.32	2476.29
447.51	2455.22
447.69	2424.80
447.88	2513.74
448.06	2457.56
448.25	2497.35
448.43	2448.20
448.62	2478.63
448.80	2457.56
448.99	2476.29
449.17	2385.01
449.36	2548.84
449.54	2600.34
449.73	2513.74
449.91	2527.78
450.10	2490.33
450.28	2581.61
450.46	2509.05
450.65	2541.82
450.83	2633.10
451.02	2576.93
451.20	2633.10
451.39	2698.64
451.57	2487.99
451.76	2607.36
451.94	2670.55
452.13	2668.21
452.31	2588.63
452.49	2705.66
452.68	2642.46
452.86	2616.72
453.05	2595.65
453.23	2768.85
453.42	2724.38
453.60	2558.21
453.78	2698.64
453.97	2548.84
454.15	2626.08
454.34	2761.83
454.52	2789.92
454.70	2836.73
454.89	2670.55
455.07	2787.58
455.26	2885.88
455.44	2782.90
455.62	2855.45
455.81	2883.54
455.99	2670.55
456.17	2801.62
456.36	2717.36
456.54	2946.73
456.73	2874.18
456.91	2906.95
457.09	2932.69
457.28	2970.14
457.46	2867.16
457.64	2970.14
457.83	2911.63
458.01	2918.65
458.19	2972.48
458.38	2951.42
458.56	2937.37
458.74	2935.03
458.93	2991.20
459.11	3096.53
459.29	2972.48
459.48	3049.72
459.66	3119.93
459.84	3084.83
460.03	3211.22
460.21	3164.40
460.39	3173.77
460.57	3192.49
460.76	3171.43
460.94	3159.72
461.12	3054.40
461.31	3239.30
461.49	3070.78
461.67	3246.32
461.85	3152.70
462.04	3194.83
462.22	3632.51
462.40	3185.47
462.59	3178.45
462.77	3173.77
462.95	3265.05
463.13	3201.85
463.32	3290.79
463.50	3342.28
463.68	3316.54
463.86	3316.54
464.05	3297.81
464.23	3236.96
464.41	3384.41
464.59	3300.16
464.78	3307.18
464.96	3248.66
465.14	3337.60
465.32	3389.10
465.50	3428.88
465.69	3358.67
465.87	3295.47
466.05	3407.82
466.23	3358.67
466.41	3318.88
466.60	3466.33
466.78	3349.31
466.96	3508.46
467.14	3400.80
467.32	3393.78
467.51	3346.97
467.69	3442.93
467.87	3527.19
468.05	3576.34
468.23	3318.88
468.41	3454.63
468.60	3438.25
468.78	3548.25
468.96	3581.02
469.14	3578.68
469.32	3627.83
469.50	3527.19
469.69	3508.46
469.87	3611.45
470.05	3641.87
470.23	3599.74
470.41	3726.13
470.59	3595.06
470.77	3712.09
470.95	3744.86
471.14	3817.41
471.32	3700.39
471.50	3859.54
471.68	3782.31
471.86	3887.63
472.04	3796.35
472.22	3850.18
472.40	3754.22
472.58	3779.97
472.77	3765.92
472.95	3978.91
473.13	4098.28
473.31	3927.42
473.49	3955.51
473.67	4088.92
473.85	3941.46
474.03	3962.53
474.21	3838.48
474.39	4238.71
474.57	4105.30
474.75	4131.05
474.93	4067.85
475.12	4119.34
475.30	4126.36
475.48	4117.00
475.66	4238.71
475.84	4222.33
476.02	4227.01
476.20	4086.58
476.38	4334.67
476.56	4493.83
476.74	4379.14
476.92	4365.10
477.10	4306.59
477.28	4517.23
477.46	4475.10
477.64	4512.55
477.82	4681.07
478.00	4540.64
478.18	4564.04
478.36	4685.75
478.54	4571.07
478.72	4631.92
478.90	4734.90
479.08	4779.37
479.26	4884.70
479.44	4826.18
479.62	4964.28
479.80	5004.07
479.98	5032.15
480.16	4868.31
480.34	5048.54
480.52	5036.83
480.70	5114.07
480.88	5062.58
481.06	5095.35
481.24	5205.35
481.41	5144.50
481.59	5362.17
481.77	5263.86
481.95	5294.29
482.13	5310.68
482.31	5385.57
482.49	5376.21
482.67	5584.52
482.85	5493.24
483.03	5579.84
483.21	5692.18
483.39	5633.67
483.57	5631.33
483.74	5589.20
483.92	5823.25
484.10	5879.43
484.28	5755.38
484.46	6167.31
484.64	5916.87
484.82	6038.58
485.00	6132.20
485.18	6136.88
485.35	6155.61
485.53	6293.70
485.71	6094.76
485.89	6249.23
486.07	6370.94
486.25	6427.11
486.43	6469.24
486.61	6644.78
486.78	6583.93
486.96	6494.99
487.14	6626.06
487.32	6778.19
487.50	6768.83
487.68	6743.08
487.85	6825.00
488.03	6925.65
488.21	7091.82
488.39	6843.73
488.57	6967.77
488.75	6935.01
488.92	7325.88
489.10	7185.44
489.28	7162.04
489.46	7328.22
489.64	7143.32
489.81	7424.18
489.99	7384.39
490.17	7506.10
490.35	7721.43
490.53	7400.77
490.70	7592.70
490.88	7438.22
491.06	7801.01
491.24	7765.90
491.41	7829.09
491.59	7850.16
491.77	7866.54
491.95	7999.95
492.13	8016.33
492.30	8004.63
492.48	8177.83
492.66	8196.56
492.84	8212.94
493.01	8297.20
493.19	8105.28
493.37	8266.77
493.54	8215.28
493.72	8210.60
493.90	8217.62
494.08	8493.80
494.25	8528.91
494.43	8454.02
494.61	8634.24
494.79	8589.77
494.96	8582.74
495.14	8706.79
495.32	8737.22
495.49	8922.12
495.67	8791.05
495.85	8985.32
496.02	8990.00
496.20	8847.22
496.38	9167.88
496.55	8954.89
496.73	9404.27
496.91	9221.71
497.09	9312.99
497.26	9427.68
497.44	9350.44
497.62	9348.10
497.79	9612.58
497.97	9420.66
498.14	9547.05
498.32	9380.87
498.50	9530.66
498.67	9750.67
498.85	9902.81
499.03	9837.27
499.20	9774.08
499.38	9633.64
499.56	9902.81
499.73	10085.37
499.91	9926.21
500.08	10047.92
500.26	9811.53
500.44	9722.59
500.61	10136.86
500.79	9923.87
500.97	9886.42
501.14	10300.70
501.32	10408.36
501.49	10277.29
501.67	10136.86
501.84	10223.46
502.02	10389.64
502.20	10539.43
502.37	10382.62
502.55	10384.96
502.72	10321.76
502.90	10345.17
503.07	10604.97
503.25	10541.77
503.43	10490.28
503.60	10693.91
503.78	10530.07
503.95	10527.73
504.13	10836.68
504.30	10822.64
504.48	10787.53
504.65	10906.90
504.83	11084.78
505.01	10799.23
505.18	10958.39
505.36	10651.78
505.53	10951.37
505.71	10864.77
505.88	11183.08
506.06	11035.63
506.23	11295.43
506.41	11000.52
506.58	11566.93
506.76	11096.48
506.93	11211.17
507.11	11108.18
507.28	11147.97
507.46	11201.80
507.63	11461.60
507.81	11522.46
507.98	11253.30
508.16	11690.98
508.33	11515.44
508.50	11562.25
508.68	11847.79
508.85	11777.58
509.03	11370.32
509.20	11716.72
509.38	11988.22
509.55	11613.74
509.73	11756.51
509.90	11726.08
510.08	11728.42
510.25	11932.05
510.42	11810.34
510.60	11875.88
510.77	11957.80
510.95	11946.09
511.12	11960.14
511.30	12166.10
511.47	12208.23
511.64	12222.28
511.82	12266.75
511.99	12236.32
512.17	12402.50
512.34	12252.70
512.51	12521.87
512.69	12301.86
512.86	12346.33
513.04	12432.93
513.21	12643.57
513.38	12461.01
513.56	12622.51
513.73	12449.31
513.90	12585.06
514.08	12545.27
514.25	12886.99
514.43	12809.75
514.60	12819.11
514.77	12865.92
514.95	12765.28
515.12	12678.68
515.29	12706.77
515.47	13097.64
515.64	13083.59
515.81	12894.01
515.99	13191.26
516.16	12982.95
516.33	13153.81
516.51	13107.00
516.68	13142.11
516.85	13252.11
517.03	13284.88
517.20	13408.93
517.37	13348.08
517.54	13460.42
517.72	13312.97
517.89	13462.76
518.06	13563.40
518.24	13514.25
518.41	13537.66
518.58	13415.95
518.75	13322.33
518.93	13558.72
519.10	13422.97
519.27	13652.34
519.45	13521.27
519.62	13640.64
519.79	13500.21
519.96	13532.98
520.14	13724.90
520.31	13446.38
520.48	13757.67
520.65	13575.11
520.83	13919.17
521.00	13886.40
521.17	13788.10
521.34	13722.56
521.52	13935.55
521.69	14083.00
521.86	14366.21
522.03	14202.37
522.20	14258.54
522.38	14211.73
522.55	14209.39
522.72	14244.50
522.89	14171.94
523.07	14347.48
523.24	14197.69
523.41	14300.67
523.58	14555.79
523.75	14356.85
523.92	14178.97
524.10	14516.00
524.27	14436.42
524.44	14520.68
524.61	14422.38
524.78	14895.17
524.96	14553.45
525.13	14647.07
525.30	14839.00
525.47	14824.95
525.64	14523.02
525.81	14726.65
525.98	14700.90
526.16	14827.29
526.33	14553.45
526.50	14682.18
526.67	15047.30
526.84	14750.06
527.01	14757.08
527.18	15033.26
527.36	14916.23
527.53	14712.61
527.70	15136.24
527.87	14998.15
528.04	15082.41
528.21	15061.35
528.38	14993.47
528.55	14941.98
528.72	15159.65
528.89	15140.93
529.07	15084.75
529.24	15283.70
529.41	15087.09
529.58	15040.28
529.75	14946.66
529.92	15222.84
530.09	15115.18
530.26	15199.44
530.43	15534.14
530.60	15435.83
530.77	15248.59
530.94	15367.96
531.11	15393.70
531.28	15246.25
531.46	15391.36
531.63	15529.45
531.80	15529.45
531.97	15410.09
532.14	15367.96
532.31	15489.67
532.48	15653.50
532.65	15679.25
532.82	15494.35
532.99	15751.81
533.16	15580.95
533.33	16219.91
533.50	15744.78
533.67	15826.70
533.84	15529.45
534.01	15679.25
534.18	15456.90
534.35	15737.76
534.52	15712.02
534.69	16067.78
534.86	15751.81
535.03	15782.23
535.20	15889.90
535.37	15981.18
535.54	16053.73
535.71	15892.24
535.88	16004.58
536.05	15807.98
536.22	15983.52
536.38	15948.41
536.55	16060.76
536.72	16189.49
536.89	15838.41
537.06	16004.58
537.23	16217.57
537.40	16187.14
537.57	16201.19
537.74	16334.60
537.91	16425.88
538.08	16395.45
538.25	16402.47
538.42	16250.34
538.59	16318.22
538.75	16273.74
538.92	16477.37
539.09	16496.10
539.26	16453.97
539.43	16308.85
539.60	16676.32
539.77	16449.28
539.94	16802.71
540.11	16683.34
540.28	16666.95
540.44	16507.80
540.61	16741.85
540.78	16592.06
540.95	16702.06
541.12	17025.06
541.29	17097.61
541.46	16950.16
541.62	17167.83
541.79	17256.77
541.96	16975.91
542.13	17053.14
542.30	17212.30
542.47	17308.26
542.63	17268.47
542.80	17448.69
542.97	17640.62
543.14	17514.23
543.31	17308.26
543.48	17338.69
543.64	17502.53
543.81	17572.74
543.98	17467.42
544.15	17413.59
544.32	17465.08
544.48	17502.53
544.65	17301.24
544.82	17680.41
544.99	17392.52
545.16	17408.90
545.32	17472.10
545.49	18080.64
545.66	18143.83
545.83	18567.47
546.00	18307.67
546.16	18090.00
546.33	17596.15
546.50	17481.46
546.67	17710.83
546.83	17343.37
547.00	17654.66
547.17	17455.72
547.34	17446.35
547.50	17528.27
547.67	17507.21
547.84	17317.62
548.00	17369.12
548.17	17467.42
548.34	17823.18
548.51	17743.60
548.67	17774.03
548.84	17502.53
549.01	17628.92
549.18	17479.12
549.34	17408.90
549.51	17408.90
549.68	17556.36
549.84	17376.14
550.01	17668.70
550.18	17572.74
550.34	17884.03
550.51	17738.92
550.68	17923.82
550.84	17804.46
551.01	17638.28
551.18	17535.29
551.34	17699.13
551.51	17757.64
551.68	17720.20
551.84	17710.83
552.01	17591.47
552.18	17738.92
552.34	17589.13
552.51	17865.31
552.68	17823.18
552.84	17888.71
553.01	17584.44
553.18	17633.60
553.34	17605.51
553.51	17832.54
553.67	17745.94
553.84	18064.25
554.01	18038.51
554.17	17785.73
554.34	17706.15
554.51	17806.80
554.67	17841.90
554.84	17745.94
555.00	17919.14
555.17	17626.57
555.33	17989.36
555.50	17547.00
555.67	17460.40
555.83	17853.61
556.00	17989.36
556.16	18134.47
556.33	17731.90
556.50	17895.74
556.66	17893.40
556.83	17745.94
556.99	17984.68
557.16	17886.37
557.32	18148.51
557.49	18162.56
557.65	17961.27
557.82	17762.33
557.98	17748.28
558.15	17745.94
558.32	17884.03
558.48	17884.03
558.65	18012.76
558.81	17869.99
558.98	17977.65
559.14	17940.21
559.31	17916.80
559.47	17998.72
559.64	17767.01
559.80	18094.68
559.97	17961.27
560.13	17965.95
560.30	18068.94
560.46	17902.76
560.63	17972.97
560.79	17940.21
560.96	18078.30
561.12	17905.10
561.29	18022.12
561.45	17958.93
561.61	18326.39
561.78	18225.75
561.94	18441.08
562.11	18122.77
562.27	18171.92
562.44	18333.42
562.60	18092.34
562.77	17970.63
562.93	18092.34
563.10	18338.10
563.26	18176.60
563.42	18293.63
563.59	18087.66
563.75	18188.30
563.92	18120.43
564.08	18228.09
564.24	18221.07
564.41	17968.29
564.57	18143.83
564.74	18174.26
564.90	18185.96
565.07	18431.72
565.23	18115.75
565.39	18066.60
565.56	18356.82
565.72	18235.11
565.88	18200.01
566.05	18202.35
566.21	18162.56
566.38	18185.96
566.54	18204.69
566.70	18022.12
566.87	18347.46
567.03	18333.42
567.19	18647.05
567.36	18235.11
567.52	18244.48
567.68	18380.23
567.85	18207.03
568.01	18368.52
568.17	18377.89
568.34	18431.72
568.50	18237.45
568.66	18401.29
568.83	18590.88
568.99	18040.85
569.15	18345.12
569.32	18190.64
569.48	18073.62
569.64	18342.78
569.81	18251.50
569.97	18216.39
570.13	18422.36
570.30	18405.97
570.46	18354.48
570.62	17996.38
570.78	18099.36
570.95	18225.75
571.11	18256.18
571.27	18174.26
571.43	18298.31
571.60	18298.31
571.76	18244.48
571.92	18153.20
572.09	18548.75
572.25	18452.78
572.41	18183.62
572.57	18618.96
572.74	18246.82
572.90	18169.58
573.06	18321.71
573.22	18471.51
573.38	18661.09
573.55	18324.05
573.71	18586.19
573.87	18518.32
574.03	18455.12
574.20	18410.65
574.36	18354.48
574.52	18281.92
574.68	18230.43
574.84	18576.83
575.01	18160.22
575.17	18331.08
575.33	18132.13
575.49	18389.59
575.65	18359.16
575.82	18380.23
575.98	18314.69
576.14	18347.46
576.30	18469.17
576.46	18602.58
576.62	18415.34
576.79	18618.96
576.95	18480.87
577.11	18499.59
577.27	18478.53
577.43	18504.28
577.59	18314.69
577.75	18427.04
577.92	18211.71
578.08	17984.68
578.24	18176.60
578.40	18651.73
578.56	18656.41
578.72	18569.81
578.88	18750.03
579.04	18457.46
579.21	18614.28
579.37	18473.85
579.53	18492.57
579.69	18382.57
579.85	18443.42
580.01	18541.72
580.17	18490.23
580.33	18523.00
580.49	18611.94
580.65	18595.56
580.82	18281.92
580.98	18462.15
581.14	18214.05
581.30	18078.30
581.46	18310.01
581.62	18527.68
581.78	18513.64
581.94	18272.56
582.10	18494.91
582.26	18434.06
582.42	18501.93
582.58	18948.98
582.74	18546.40
582.90	18478.53
583.06	18602.58
583.22	18480.87
583.38	18305.33
583.54	18607.26
583.70	18705.56
583.86	18441.08
584.02	18349.80
584.18	18902.17
584.34	18745.35
584.50	18913.87
584.66	18321.71
584.82	18628.32
584.98	18483.21
585.14	18349.80
585.30	18450.44
585.46	18771.10
585.62	18541.72
585.78	18349.80
585.94	18677.48
586.10	18246.82
586.26	18354.48
586.42	18492.57
586.58	18412.99
586.74	18754.71
586.90	18520.66
587.06	18457.46
587.22	18485.55
587.38	18249.16
587.54	18775.78
587.70	18649.39
587.86	18644.71
588.02	18490.23
588.18	18679.82
588.34	18682.16
588.49	18370.86
588.65	18239.79
588.81	18567.47
588.97	18394.27
589.13	18567.47
589.29	18466.83
589.45	18721.95
589.61	18462.15
589.77	18719.60
589.93	18497.25
590.08	18757.05
590.24	18689.18
590.40	18518.32
590.56	18707.90
590.72	18515.98
590.88	18480.87
591.04	18572.15
591.20	18665.77
591.35	18764.07
591.51	18785.14
591.67	18637.69
591.83	18747.69
591.99	18745.35
592.15	18541.72
592.31	18792.16
592.46	18824.93
592.62	18548.75
592.78	18515.98
592.94	18501.93
593.10	18656.41
