SpectraSuite Data File
++++++++++++++++++++++++++++++++++++
Date: Fri Oct 04 11:39:28 GMT-05:00 2013
User: price-jones
Dark Spectrum Present: No
Reference Spectrum Present: No
Number of Sampled Component Spectra: 1
Spectrometers: USB2+H05261
Integration Time (usec): 100000 (USB2+H05261)
Spectra Averaged: 1 (USB2+H05261)
Boxcar Smoothing: 0 (USB2+H05261)
Correct for Electrical Dark: No (USB2+H05261)
Strobe/Lamp Enabled: No (USB2+H05261)
Correct for Detector Non-linearity: No (USB2+H05261)
Correct for Stray Light: No (USB2+H05261)
Number of Pixels in Processed Spectrum: 2048
>>>>>Begin Processed Spectral Data<<<<<
365.73	39.79
365.92	39.79
366.12	39.79
366.32	0.00
366.52	0.00
366.72	0.00
366.91	0.00
367.11	0.00
367.31	0.00
367.51	0.00
367.70	0.00
367.90	0.00
368.10	0.00
368.30	0.00
368.49	0.00
368.69	0.00
368.89	0.00
369.09	0.00
369.28	0.00
369.48	0.00
369.68	0.00
369.87	0.00
370.07	0.00
370.27	152.13
370.47	79.58
370.66	117.03
370.86	105.32
371.06	142.77
371.25	159.16
371.45	98.30
371.65	173.20
371.84	140.43
372.04	131.07
372.24	201.29
372.44	161.50
372.63	241.08
372.83	217.67
373.03	205.97
373.22	196.60
373.42	269.16
373.62	201.29
373.81	161.50
374.01	238.73
374.21	290.23
374.40	182.56
374.60	280.86
374.79	198.95
374.99	264.48
375.19	224.69
375.38	238.73
375.58	248.10
375.78	238.73
375.97	224.69
376.17	241.08
376.37	231.71
376.56	131.07
376.76	257.46
376.95	227.03
377.15	168.52
377.35	222.35
377.54	234.05
377.74	215.33
377.93	203.63
378.13	238.73
378.33	238.73
378.52	210.65
378.72	266.82
378.91	252.78
379.11	250.44
379.31	241.08
379.50	196.60
379.70	238.73
379.89	245.76
380.09	280.86
380.28	271.50
380.48	262.14
380.68	294.91
380.87	238.73
381.07	215.33
381.26	271.50
381.46	339.38
381.65	255.12
381.85	182.56
382.04	220.01
382.24	196.60
382.43	224.69
382.63	231.71
382.83	313.63
383.02	290.23
383.22	271.50
383.41	208.31
383.61	264.48
383.80	327.68
384.00	227.03
384.19	250.44
384.39	280.86
384.58	257.46
384.78	311.29
384.97	285.55
385.17	257.46
385.36	271.50
385.56	334.70
385.75	262.14
385.95	257.46
386.14	332.36
386.34	238.73
386.53	315.97
386.72	290.23
386.92	278.52
387.11	372.15
387.31	283.20
387.50	304.27
387.70	304.27
387.89	337.04
388.09	278.52
388.28	339.38
388.48	311.29
388.67	248.10
388.86	294.91
389.06	243.42
389.25	344.06
389.45	208.31
389.64	271.50
389.84	341.72
390.03	339.38
390.22	299.59
390.42	325.33
390.61	308.95
390.81	381.51
391.00	297.25
391.19	386.19
391.39	400.23
391.58	332.36
391.78	283.20
391.97	271.50
392.16	325.33
392.36	461.09
392.55	428.32
392.75	379.17
392.94	322.99
393.13	388.53
393.33	332.36
393.52	362.78
393.71	456.40
393.91	418.96
394.10	339.38
394.29	433.00
394.49	395.55
394.68	421.30
394.88	409.59
395.07	482.15
395.26	425.98
395.46	491.51
395.65	418.96
395.84	397.89
396.04	491.51
396.23	489.17
396.42	512.58
396.62	414.27
396.81	433.00
397.00	559.39
397.19	486.83
397.39	489.17
397.58	421.30
397.77	493.85
397.97	538.32
398.16	503.22
398.35	566.41
398.55	517.26
398.74	521.94
398.93	615.56
399.12	564.07
399.32	468.11
399.51	491.51
399.70	535.98
399.90	613.22
400.09	543.00
400.28	631.94
400.47	514.92
400.67	580.45
400.86	617.90
401.05	617.90
401.24	606.20
401.44	599.18
401.63	662.37
401.82	692.80
402.01	603.86
402.21	620.24
402.40	681.10
402.59	631.94
402.78	653.01
402.97	664.71
403.17	690.46
403.36	711.52
403.55	688.12
403.74	636.63
403.93	751.31
404.13	807.48
404.32	774.72
404.51	805.14
404.70	833.23
404.89	727.91
405.09	823.87
405.28	770.04
405.47	770.04
405.66	807.48
405.85	795.78
406.05	786.42
406.24	777.06
406.43	940.90
406.62	924.51
406.81	950.26
407.00	894.08
407.20	917.49
407.39	919.83
407.58	990.05
407.77	980.68
407.96	1011.11
408.15	957.28
408.34	971.32
408.54	915.15
408.73	1011.11
408.92	950.26
409.11	971.32
409.30	961.96
409.49	1067.28
409.68	1041.54
409.87	1001.75
410.07	1078.99
410.26	1081.33
410.45	1093.03
410.64	1156.22
410.83	1111.75
411.02	1118.78
411.21	1093.03
411.40	1294.32
411.59	1205.38
411.78	1144.52
411.98	1224.10
412.17	1219.42
412.36	1256.87
412.55	1242.82
412.74	1294.32
412.93	1427.73
413.12	1350.49
413.31	1486.24
413.50	1476.88
413.69	1380.92
413.88	1432.41
414.07	1385.60
414.26	1472.20
414.45	1453.47
414.64	1537.73
414.83	1453.47
415.02	1516.67
415.22	1533.05
415.41	1577.52
415.60	1603.27
415.79	1614.97
415.98	1664.12
416.17	1696.89
416.36	1664.12
416.55	1746.04
416.74	1776.47
416.93	1811.57
417.12	1720.29
417.31	1724.97
417.50	1722.63
417.69	1715.61
417.88	1870.09
418.07	1851.36
418.26	1799.87
418.45	1877.11
418.64	1989.46
418.83	1989.46
419.02	1900.52
419.21	1928.60
419.39	1942.64
419.58	1921.58
419.77	1961.37
419.96	1991.80
420.15	2111.16
420.34	2017.54
420.53	2001.16
420.72	2083.08
420.91	2043.29
421.10	2071.37
421.29	2148.61
421.48	2024.56
421.67	2076.06
421.86	2043.29
422.05	2113.50
422.24	2200.10
422.43	2085.42
422.61	2087.76
422.80	2169.68
422.99	2115.84
423.18	2085.42
423.37	2106.48
423.56	2143.93
423.75	2165.00
423.94	2115.84
424.13	2062.01
424.32	2097.12
424.50	2143.93
424.69	2150.95
424.88	2207.13
425.07	2113.50
425.26	2183.72
425.45	2174.36
425.64	2190.74
425.83	2066.69
426.01	2218.83
426.20	2153.29
426.39	2265.64
426.58	2207.13
426.77	2204.78
426.96	2258.62
427.15	2293.72
427.33	2260.96
427.52	2408.41
427.71	2279.68
427.90	2277.34
428.09	2345.22
428.28	2319.47
428.46	2389.69
428.65	2506.71
428.84	2609.70
429.03	2504.37
429.22	2366.28
429.40	2495.01
429.59	2569.91
429.78	2413.09
429.97	2394.37
430.16	2499.69
430.34	2518.42
430.53	2588.63
430.72	2588.63
430.91	2497.35
431.10	2499.69
431.28	2495.01
431.47	2637.78
431.66	2658.85
431.85	2602.68
432.03	2609.70
432.22	2743.11
432.41	2644.81
432.60	2771.19
432.79	2672.89
432.97	2708.00
433.16	2679.91
433.35	2715.02
433.54	2665.87
433.72	2752.47
433.91	2698.64
434.10	2764.17
434.28	2710.34
434.47	2867.16
434.66	2874.18
434.85	2878.86
435.03	2911.63
435.22	3005.25
435.41	3243.98
435.59	3239.30
435.78	3136.32
435.97	3049.72
436.16	2913.97
436.34	2890.56
436.53	3000.57
436.72	2986.52
436.90	2916.31
437.09	2850.77
437.28	3021.63
437.46	2979.50
437.65	3084.83
437.84	3030.99
438.02	3005.25
438.21	3098.87
438.40	3119.93
438.58	3033.33
438.77	3152.70
438.96	2988.86
439.14	3258.03
439.33	3251.00
439.52	3307.18
439.70	3372.71
439.89	3398.46
440.08	3192.49
440.26	3353.99
440.45	3300.16
440.63	3417.18
440.82	3468.67
441.01	3379.73
441.19	3510.80
441.38	3529.53
441.57	3260.37
441.75	3515.48
441.94	3562.30
442.12	3616.13
442.31	3698.05
442.50	3616.13
442.68	3599.74
442.87	3574.00
443.05	3623.15
443.24	3679.32
443.43	3543.57
443.61	3742.52
443.80	3709.75
443.98	3686.34
444.17	3524.85
444.35	3803.37
444.54	3726.13
444.73	3667.62
444.91	3672.30
445.10	3730.81
445.28	3871.25
445.47	3676.98
445.65	3684.00
445.84	3768.26
446.02	3754.22
446.21	3852.52
446.39	3850.18
446.58	3831.46
446.77	3838.48
446.95	3770.60
447.14	3733.15
447.32	3934.44
447.51	3770.60
447.69	3606.77
447.88	3836.14
448.06	3868.91
448.25	3730.81
448.43	3864.22
448.62	3782.31
448.80	3915.72
448.99	3789.33
449.17	3939.12
449.36	3772.94
449.54	3946.14
449.73	4046.79
449.91	3911.04
450.10	3915.72
450.28	4079.55
450.46	4086.58
450.65	4149.77
450.83	4196.58
451.02	4208.28
451.20	4145.09
451.39	4189.56
451.57	4168.49
451.76	3978.91
451.94	4273.82
452.13	4287.86
452.31	4210.62
452.49	4154.45
452.68	4224.67
452.86	4205.94
453.05	4231.69
453.23	4259.78
453.42	4175.52
453.60	4297.22
453.78	4365.10
453.97	4304.25
454.15	4266.80
454.34	4184.88
454.52	4325.31
454.70	4292.54
454.89	4351.06
455.07	4404.89
455.26	4421.27
455.44	4585.11
455.62	4512.55
455.81	4603.83
455.99	4449.36
456.17	4521.92
456.36	4390.84
456.54	4690.43
456.73	4638.94
456.91	4723.20
457.09	4681.07
457.28	4807.46
457.46	4578.09
457.64	4765.33
457.83	4732.56
458.01	4634.26
458.19	4861.29
458.38	4830.87
458.56	4830.87
458.74	4777.03
458.93	4809.80
459.11	4865.97
459.29	4697.46
459.48	4760.65
459.66	4779.37
459.84	4957.25
460.03	5027.47
460.21	4816.82
460.39	4868.31
460.57	4891.72
460.76	4912.78
460.94	5006.41
461.12	4954.91
461.31	5022.79
461.49	5020.45
461.67	4926.83
461.85	5081.30
462.04	5057.90
462.22	5214.71
462.40	5074.28
462.59	5270.89
462.77	5172.58
462.95	5210.03
463.13	5050.88
463.32	5123.43
463.50	5109.39
463.68	5277.91
463.86	5170.24
464.05	5142.16
464.23	5289.61
464.41	5334.08
464.59	5179.61
464.78	5406.64
464.96	5212.37
465.14	5247.48
465.32	5256.84
465.50	5394.93
465.69	5427.70
465.87	5305.99
466.05	5301.31
466.23	5411.32
466.41	5579.84
466.60	5511.96
466.78	5563.45
466.96	5345.78
467.14	5441.75
467.32	5540.05
467.51	5561.11
467.69	5334.08
467.87	5441.75
468.05	5401.96
468.23	5451.11
468.41	5371.53
468.60	5652.39
468.78	5582.18
468.96	5619.63
469.14	5851.34
469.32	5654.73
469.50	5542.39
469.69	5827.93
469.87	5820.91
470.05	5795.17
470.23	5692.18
470.41	5799.85
470.59	5954.32
470.77	5846.66
470.95	5984.75
471.14	6005.81
471.32	5942.62
471.50	5973.05
471.68	6141.57
471.86	6169.65
472.04	6094.76
472.22	6249.23
472.40	6031.56
472.58	5966.03
472.77	6380.30
472.95	6113.48
473.13	6410.73
473.31	6204.76
473.49	6274.98
473.67	6307.74
473.85	6258.59
474.03	6473.92
474.21	6487.96
474.39	6455.20
474.57	6612.01
474.75	6544.14
474.93	6595.63
475.12	6476.26
475.30	6630.74
475.48	6558.18
475.66	6602.65
475.84	6733.72
476.02	6729.04
476.20	6773.51
476.38	6766.49
476.56	7049.69
476.74	6939.69
476.92	6836.70
477.10	7077.78
477.28	7171.40
477.46	7194.81
477.64	7094.16
477.82	7346.94
478.00	7412.48
478.18	7236.94
478.36	7578.65
478.54	7372.69
478.72	7585.68
478.90	7599.72
479.08	7632.49
479.26	7665.25
479.44	7707.38
479.62	7751.85
479.80	7789.30
479.98	7911.01
480.16	7932.08
480.34	7964.84
480.52	8109.96
480.70	7957.82
480.88	7892.29
481.06	8243.37
481.24	8065.49
481.41	8395.50
481.59	8575.72
481.77	8386.14
481.95	8547.64
482.13	8872.97
482.31	8521.89
482.49	8812.12
482.67	8730.20
482.85	8882.33
483.03	8905.74
483.21	9219.37
483.39	9006.38
483.57	9125.75
483.74	9434.70
483.92	9191.28
484.10	9317.67
484.28	9252.14
484.46	9495.55
484.64	9680.46
484.82	9518.96
485.00	9652.37
485.18	9865.36
485.35	9984.73
485.53	9977.70
485.71	9848.97
485.89	10143.88
486.07	10076.01
486.25	10314.74
486.43	10417.72
486.61	10441.13
486.78	10504.32
486.96	10614.33
487.14	10586.24
487.32	10668.16
487.50	10743.06
487.68	10733.70
487.85	11037.97
488.03	10995.84
488.21	11389.05
488.39	11145.63
488.57	11585.65
488.75	11199.46
488.92	11721.40
489.10	11688.64
489.28	11618.42
489.46	11730.76
489.64	11651.19
489.81	11857.15
489.99	11786.94
490.17	12149.72
490.35	12067.80
490.53	12147.38
490.70	12238.66
490.88	12376.75
491.06	12325.26
491.24	12262.07
491.41	12388.46
491.59	12718.47
491.77	12566.34
491.95	12821.45
492.13	13015.72
492.30	12851.88
492.48	12769.96
492.66	13078.91
492.84	13011.04
493.01	13137.43
493.19	13191.26
493.37	13518.93
493.54	13575.11
493.72	13408.93
493.90	13385.52
494.08	13827.88
494.25	14115.77
494.43	13874.70
494.61	13970.66
494.79	13862.99
494.96	14047.90
495.14	13984.70
495.32	14377.91
495.49	14022.15
495.67	14324.08
495.85	14331.10
496.02	14581.54
496.20	14551.11
496.38	14633.03
496.55	14803.89
496.73	15101.14
496.91	14803.89
497.09	15131.56
497.26	15110.50
497.44	15019.22
497.62	15091.77
497.79	15445.20
497.97	15264.97
498.14	15438.17
498.32	15557.54
498.50	15784.57
498.67	15562.22
498.85	15653.50
499.03	15838.41
499.20	15765.85
499.38	15695.63
499.56	15829.04
499.73	15946.07
499.91	16025.65
500.08	16128.63
500.26	15988.20
500.44	16044.37
500.61	16093.52
500.79	16023.31
500.97	16203.53
501.14	16617.80
501.32	16727.81
501.49	16519.50
501.67	16386.09
501.84	16922.07
502.02	16638.87
502.20	16837.81
502.37	16936.12
502.55	16889.31
502.72	16968.88
502.90	16856.54
503.07	17001.65
503.25	17022.72
503.43	17006.33
503.60	17240.39
503.78	17228.68
503.95	17305.92
504.13	17057.82
504.30	17247.41
504.48	17312.94
504.65	17635.94
504.83	17469.76
505.01	17736.58
505.18	17654.66
505.36	17884.03
505.53	17860.63
505.71	17811.48
505.88	18108.72
506.06	17776.37
506.23	18333.42
506.41	18097.02
506.58	18122.77
506.76	18335.76
506.93	18424.70
507.11	18237.45
507.28	18300.65
507.46	18441.08
507.63	18359.16
507.81	18845.99
507.98	18551.09
508.16	18553.43
508.33	18625.98
508.50	18817.91
508.68	18707.90
508.85	18803.86
509.03	18867.06
509.20	18906.85
509.38	19094.09
509.55	19192.39
509.73	19452.19
509.90	19110.47
510.08	19398.36
510.25	19372.61
510.42	19482.62
510.60	19403.04
510.77	19639.44
510.95	19527.09
511.12	19768.16
511.30	19452.19
511.47	20091.16
511.64	19878.17
511.82	19868.81
511.99	20088.82
512.17	20215.21
512.34	19784.55
512.51	19988.18
512.69	20357.98
512.86	20346.28
513.04	20610.76
513.21	20437.56
513.38	20496.07
513.56	20489.05
513.73	20276.06
513.90	20510.11
514.08	20350.96
514.25	20734.81
514.43	20910.35
514.60	20823.75
514.77	20954.82
514.95	20980.56
515.12	20472.67
515.29	20919.71
515.47	20889.28
515.64	21401.86
515.81	21125.68
515.99	21247.38
516.16	20996.95
516.33	21525.91
516.51	21172.49
516.68	21200.57
516.85	21125.68
517.03	21544.63
517.20	21469.73
517.37	21832.52
517.54	21734.21
517.72	21427.60
517.89	21523.57
518.06	21708.47
518.24	21479.10
518.41	21462.71
518.58	21846.56
518.75	22075.93
518.93	21996.35
519.10	21750.60
519.27	22008.06
519.45	22071.25
519.62	21874.65
519.79	21972.95
519.96	22317.01
520.14	22347.44
520.31	22054.87
520.48	22544.04
520.65	22059.55
520.83	22810.86
521.00	22469.14
521.17	22548.72
521.34	22576.81
521.52	22773.41
521.69	22766.39
521.86	23208.75
522.03	22899.80
522.20	22944.27
522.38	22806.18
522.55	23033.21
522.72	22916.19
522.89	22909.16
523.07	22885.76
523.24	23150.24
523.41	23440.47
523.58	23040.23
523.75	23400.68
523.92	23164.28
524.10	23381.95
524.27	23421.74
524.44	23470.89
524.61	23538.77
524.78	23721.33
524.96	23714.31
525.13	23545.79
525.30	23758.78
525.47	23723.67
525.64	23964.75
525.81	23915.59
525.98	24095.82
526.16	24299.44
526.33	23658.14
526.50	24135.60
526.67	23859.42
526.84	23709.63
527.01	23960.06
527.18	23939.00
527.36	23889.85
527.53	24219.86
527.70	24360.30
527.87	24166.03
528.04	24510.09
528.21	24453.92
528.38	23971.77
528.55	24428.17
528.72	24325.19
528.89	24549.88
529.07	24599.03
529.24	24498.39
529.41	24692.65
529.58	24748.82
529.75	24451.58
529.92	24648.18
530.09	24699.67
530.26	24706.70
530.43	24952.45
530.60	24987.56
530.77	24570.94
530.94	24985.22
531.11	24631.80
531.28	24985.22
531.46	25020.33
531.63	24903.30
531.80	24954.79
531.97	24694.99
532.14	25331.62
532.31	25050.75
532.48	24950.11
532.65	25394.81
532.82	25376.09
532.99	25582.06
533.16	25179.48
533.33	25586.74
533.50	25539.93
533.67	25401.83
533.84	25179.48
534.01	25254.38
534.18	25270.76
534.35	25802.07
534.52	25544.61
534.69	25872.28
534.86	25596.10
535.03	25390.13
535.20	26045.48
535.37	25860.58
535.54	26092.29
535.71	25914.41
535.88	25771.64
536.05	25841.85
536.22	26150.81
536.38	26094.63
536.55	26157.83
536.72	26267.83
536.89	25958.88
537.06	26345.07
537.23	26174.21
537.40	26066.55
537.57	26490.18
537.74	26001.01
537.91	26775.73
538.08	26438.69
538.25	26237.41
538.42	26391.88
538.59	26506.57
538.75	26436.35
538.92	26658.70
539.09	26593.17
539.26	26602.53
539.43	26663.38
539.60	27021.48
539.77	26794.45
539.94	26848.29
540.11	26881.05
540.28	26962.97
540.44	27058.93
540.61	27297.67
540.78	26639.98
540.95	27077.66
541.12	27246.18
541.29	27440.44
541.46	27407.67
541.62	27211.07
541.79	27653.43
541.96	27051.91
542.13	27028.51
542.30	27138.51
542.47	27791.52
542.63	27552.79
542.80	27552.79
542.97	27878.12
543.14	27756.41
543.31	27941.32
543.48	27592.58
543.64	27866.42
543.81	28079.41
543.98	27770.46
544.15	27824.29
544.32	28266.65
544.48	28142.60
544.65	27800.88
544.82	27964.72
544.99	27585.55
545.16	28198.77
545.32	27988.13
545.49	28940.72
545.66	28865.83
545.83	29415.85
546.00	28973.49
546.16	28538.15
546.33	28107.49
546.50	28004.51
546.67	28004.51
546.83	28037.28
547.00	28060.68
547.17	28357.93
547.34	28460.91
547.50	28741.78
547.67	28362.61
547.84	28219.84
548.00	28346.23
548.17	28353.25
548.34	28240.90
548.51	28414.10
548.67	28334.53
548.84	28753.48
549.01	28187.07
549.18	28484.32
549.34	28620.07
549.51	28264.31
549.68	28521.77
549.84	28348.57
550.01	28704.33
550.18	28484.32
550.34	28329.84
550.51	28748.80
550.68	28781.57
550.84	27978.76
551.01	28762.84
551.18	28481.98
551.34	28027.92
551.51	28591.98
551.68	28954.77
551.84	28205.80
552.01	28421.13
552.18	28573.26
552.34	28594.32
552.51	28500.70
552.68	28304.10
552.84	28519.43
553.01	29046.05
553.18	28891.57
553.34	28959.45
553.51	29001.58
553.67	28975.83
553.84	28884.55
554.01	28971.15
554.17	28950.09
554.34	28959.45
554.51	28701.99
554.67	28875.19
554.84	28849.44
555.00	29158.39
555.17	28746.46
555.33	29315.21
555.50	28510.07
555.67	28938.38
555.83	28774.55
556.00	29139.67
556.16	29371.38
556.33	29291.80
556.50	29247.33
556.66	29380.74
556.83	29024.98
556.99	29315.21
557.16	29490.75
557.32	29338.62
557.49	29420.53
557.65	29106.90
557.82	29326.91
557.98	28830.72
558.15	29174.78
558.32	29495.43
558.48	29252.02
558.65	29331.59
558.81	29177.12
558.98	29270.74
559.14	29488.41
559.31	29060.09
559.47	29462.66
559.64	29542.24
559.80	29614.80
559.97	29378.40
560.13	29509.47
560.30	29422.87
560.46	29862.90
560.63	29465.00
560.79	29584.37
560.96	29916.73
561.12	29675.65
561.29	29507.13
561.45	29752.89
561.61	29340.96
561.78	29617.14
561.94	29862.90
562.11	29486.07
562.27	29476.71
562.44	29518.84
562.60	29685.01
562.77	29460.32
562.93	29511.81
563.10	29677.99
563.26	29986.94
563.42	30059.50
563.59	29804.38
563.75	29890.98
563.92	29879.28
564.08	29888.64
564.24	29226.27
564.41	29350.32
564.57	29525.86
564.74	29453.30
564.90	29729.48
565.07	29699.06
565.23	29874.60
565.39	29488.41
565.56	29778.64
565.72	29624.16
565.88	29614.80
566.05	30162.48
566.21	29556.28
566.38	30139.08
566.54	29387.77
566.70	29851.19
566.87	29972.90
567.03	29706.08
567.19	30096.95
567.36	30146.10
567.52	29996.31
567.68	30284.19
567.85	29937.79
568.01	29757.57
568.17	29811.40
568.34	30010.35
568.50	29895.66
568.66	29893.32
568.83	30206.95
568.99	29876.94
569.15	29804.38
569.32	29909.71
569.48	29963.54
569.64	29764.59
569.81	29638.20
569.97	29809.06
570.13	30230.36
570.30	29675.65
570.46	30230.36
570.62	29989.28
570.78	29766.93
570.95	30277.17
571.11	30181.21
571.27	29956.52
571.43	29874.60
571.60	29790.34
571.76	29954.18
571.92	30115.67
572.09	30352.07
572.25	30246.74
572.41	30127.38
572.57	29879.28
572.74	30204.61
572.90	29514.16
573.06	30099.29
573.22	29780.98
573.38	30291.21
573.55	30057.16
573.71	30443.35
573.87	30328.66
574.03	29591.39
574.20	30178.87
574.36	30045.46
574.52	30127.38
574.68	29642.88
574.84	29923.75
575.01	30352.07
575.17	29834.81
575.33	29736.51
575.49	30012.69
575.65	29970.56
575.82	30162.48
575.98	29902.68
576.14	29998.65
576.30	30375.47
576.46	30162.48
576.62	30064.18
576.79	30209.29
576.95	30120.35
577.11	30331.00
577.27	30288.87
577.43	29851.19
577.59	30480.80
577.75	30110.99
577.92	29748.21
578.08	30066.52
578.24	29677.99
578.40	29928.43
578.56	30000.99
578.72	30443.35
578.88	30801.45
579.04	30654.00
579.21	30419.94
579.37	30136.74
579.53	30312.28
579.69	30024.39
579.85	30216.32
580.01	30499.52
580.17	30155.46
580.33	30441.01
580.49	30075.88
580.65	30565.06
580.82	30621.23
580.98	30302.92
581.14	29839.49
581.30	30157.80
581.46	30029.07
581.62	30232.70
581.78	29743.53
581.94	30197.59
582.10	30134.40
582.26	30359.09
582.42	30270.15
582.58	30576.76
582.74	30075.88
582.90	30588.46
583.06	30478.46
583.22	30209.29
583.38	30043.12
583.54	30218.66
583.70	30050.14
583.86	30218.66
584.02	30199.93
584.18	30260.79
584.34	30108.65
584.50	30462.07
584.66	30284.19
584.82	30075.88
584.98	30148.44
585.14	30064.18
585.30	30080.56
585.46	30188.23
585.62	30232.70
585.78	30274.83
585.94	29900.34
586.10	30118.01
586.26	30167.16
586.42	30185.89
586.58	30300.58
586.74	30497.18
586.90	30188.23
587.06	30092.27
587.22	30319.30
587.38	29876.94
587.54	30438.67
587.70	30164.82
587.86	30422.28
588.02	30431.65
588.18	30441.01
588.34	30478.46
588.49	30249.08
588.65	30265.47
588.81	30242.06
588.97	30403.56
589.13	30342.70
589.29	30265.47
589.45	30724.21
589.61	30349.73
589.77	30441.01
589.93	30410.58
590.08	30707.83
590.24	30469.09
590.40	30487.82
590.56	31077.63
590.72	30433.99
590.88	30265.47
591.04	30536.97
591.20	30146.10
591.35	30649.32
591.51	31009.76
591.67	30448.03
591.83	30625.91
