SpectraSuite Data File
++++++++++++++++++++++++++++++++++++
Date: Fri Oct 04 11:40:03 GMT-05:00 2013
User: price-jones
Dark Spectrum Present: No
Reference Spectrum Present: No
Number of Sampled Component Spectra: 1
Spectrometers: USB2+H05261
Integration Time (usec): 100000 (USB2+H05261)
Spectra Averaged: 1 (USB2+H05261)
Boxcar Smoothing: 0 (USB2+H05261)
Correct for Electrical Dark: No (USB2+H05261)
Strobe/Lamp Enabled: No (USB2+H05261)
Correct for Detector Non-linearity: No (USB2+H05261)
Correct for Stray Light: No (USB2+H05261)
Number of Pixels in Processed Spectrum: 2048
>>>>>Begin Processed Spectral Data<<<<<
365.73	11.70
365.92	11.70
366.12	11.70
366.32	0.00
366.52	0.00
366.72	0.00
366.91	0.00
367.11	0.00
367.31	0.00
367.51	0.00
367.70	7.02
367.90	35.11
368.10	0.00
368.30	0.00
368.49	0.00
368.69	0.00
368.89	0.00
369.09	0.00
369.28	21.06
369.48	0.00
369.68	0.00
369.87	28.09
370.07	0.00
370.27	9.36
370.47	70.22
370.66	77.24
370.86	42.13
371.06	95.96
371.25	140.43
371.45	49.15
371.65	74.90
371.84	56.17
372.04	98.30
372.24	107.66
372.44	81.92
372.63	121.71
372.83	67.88
373.03	173.20
373.22	86.60
373.42	112.35
373.62	140.43
373.81	112.35
374.01	147.45
374.21	154.48
374.40	114.69
374.60	142.77
374.79	182.56
374.99	133.41
375.19	95.96
375.38	166.18
375.58	145.11
375.78	154.48
375.97	117.03
376.17	168.52
376.37	229.37
376.56	88.94
376.76	93.62
376.95	163.84
377.15	173.20
377.35	88.94
377.54	149.79
377.74	88.94
377.93	49.15
378.13	84.26
378.33	142.77
378.52	187.24
378.72	147.45
378.91	180.22
379.11	95.96
379.31	133.41
379.50	121.71
379.70	117.03
379.89	131.07
380.09	105.32
380.28	107.66
380.48	205.97
380.68	105.32
380.87	189.58
381.07	107.66
381.26	145.11
381.46	201.29
381.65	231.71
381.85	147.45
382.04	77.24
382.24	173.20
382.43	159.16
382.63	140.43
382.83	58.51
383.02	170.86
383.22	98.30
383.41	124.05
383.61	72.56
383.80	124.05
384.00	166.18
384.19	107.66
384.39	201.29
384.58	117.03
384.78	180.22
384.97	133.41
385.17	126.39
385.36	170.86
385.56	161.50
385.75	142.77
385.95	124.05
386.14	182.56
386.34	184.90
386.53	184.90
386.72	100.64
386.92	163.84
387.11	194.26
387.31	149.79
387.50	154.48
387.70	133.41
387.89	189.58
388.09	154.48
388.28	119.37
388.48	110.01
388.67	210.65
388.86	142.77
389.06	91.28
389.25	205.97
389.45	102.98
389.64	133.41
389.84	131.07
390.03	264.48
390.22	168.52
390.42	152.13
390.61	175.54
390.81	70.22
391.00	110.01
391.19	166.18
391.39	189.58
391.58	215.33
391.78	173.20
391.97	170.86
392.16	112.35
392.36	222.35
392.55	177.88
392.75	184.90
392.94	168.52
393.13	224.69
393.33	114.69
393.52	215.33
393.71	220.01
393.91	231.71
394.10	128.73
394.29	231.71
394.49	180.22
394.68	187.24
394.88	189.58
395.07	184.90
395.26	189.58
395.46	196.60
395.65	252.78
395.84	212.99
396.04	313.63
396.23	205.97
396.42	152.13
396.62	222.35
396.81	241.08
397.00	245.76
397.19	234.05
397.39	201.29
397.58	234.05
397.77	189.58
397.97	257.46
398.16	215.33
398.35	287.89
398.55	177.88
398.74	259.80
398.93	212.99
399.12	128.73
399.32	262.14
399.51	238.73
399.70	285.55
399.90	262.14
400.09	287.89
400.28	262.14
400.47	196.60
400.67	299.59
400.86	283.20
401.05	320.65
401.24	285.55
401.44	241.08
401.63	285.55
401.82	294.91
402.01	311.29
402.21	273.84
402.40	271.50
402.59	299.59
402.78	252.78
402.97	252.78
403.17	299.59
403.36	332.36
403.55	299.59
403.74	365.12
403.93	283.20
404.13	365.12
404.32	360.44
404.51	372.15
404.70	390.87
404.89	325.33
405.09	402.57
405.28	301.93
405.47	334.70
405.66	381.51
405.85	339.38
406.05	308.95
406.24	315.97
406.43	325.33
406.62	362.78
406.81	402.57
407.00	386.19
407.20	348.74
407.39	367.46
407.58	416.62
407.77	416.62
407.96	421.30
408.15	414.27
408.34	416.62
408.54	374.49
408.73	407.25
408.92	409.59
409.11	379.17
409.30	397.89
409.49	447.04
409.68	414.27
409.87	519.60
410.07	400.23
410.26	428.32
410.45	489.17
410.64	458.74
410.83	465.77
411.02	503.22
411.21	425.98
411.40	416.62
411.59	456.40
411.78	456.40
411.98	397.89
412.17	517.26
412.36	444.70
412.55	512.58
412.74	531.30
412.93	568.75
413.12	418.96
413.31	554.71
413.50	507.90
413.69	564.07
413.88	575.77
414.07	554.71
414.26	620.24
414.45	643.65
414.64	519.60
414.83	622.58
415.02	587.47
415.22	610.88
415.41	585.13
415.60	601.52
415.79	622.58
415.98	587.47
416.17	678.76
416.36	610.88
416.55	634.29
416.74	608.54
416.93	758.33
417.12	706.84
417.31	599.18
417.50	575.77
417.69	727.91
417.88	713.86
418.07	645.99
418.26	676.41
418.45	657.69
418.64	744.29
418.83	704.50
419.02	671.73
419.21	751.31
419.39	725.57
419.58	702.16
419.77	678.76
419.96	809.83
420.15	634.29
420.34	641.31
420.53	798.12
420.72	695.14
420.91	816.85
421.10	842.59
421.29	805.14
421.48	793.44
421.67	800.46
421.86	711.52
422.05	774.72
422.24	746.63
422.43	744.29
422.61	702.16
422.80	685.78
422.99	774.72
423.18	723.23
423.37	840.25
423.56	898.77
423.75	844.93
423.94	800.46
424.13	746.63
424.32	765.36
424.50	772.38
424.69	816.85
424.88	791.10
425.07	669.39
425.26	826.21
425.45	784.08
425.64	779.40
425.83	800.46
426.01	880.04
426.20	760.67
426.39	821.53
426.58	767.70
426.77	763.01
426.96	870.68
427.15	828.55
427.33	781.74
427.52	774.72
427.71	912.81
427.90	880.04
428.09	802.80
428.28	844.93
428.46	863.66
428.65	870.68
428.84	985.37
429.03	929.19
429.22	875.36
429.40	863.66
429.59	929.19
429.78	959.62
429.97	861.32
430.16	919.83
430.34	905.79
430.53	966.64
430.72	837.91
430.91	957.28
431.10	826.21
431.28	990.05
431.47	961.96
431.66	1001.75
431.85	936.21
432.03	926.85
432.22	1013.45
432.41	1013.45
432.60	1025.15
432.79	877.70
432.97	940.90
433.16	961.96
433.35	894.08
433.54	873.02
433.72	929.19
433.91	1041.54
434.10	964.30
434.28	926.85
434.47	1011.11
434.66	976.00
434.85	1041.54
435.03	1137.50
435.22	1315.38
435.41	1657.10
435.59	1638.38
435.78	1526.03
435.97	1256.87
436.16	1090.69
436.34	1062.60
436.53	1008.77
436.72	1048.56
436.90	1062.60
437.09	1100.05
437.28	1013.45
437.46	1078.99
437.65	1125.80
437.84	1088.35
438.02	1034.52
438.21	1069.62
438.40	1132.82
438.58	1139.84
438.77	1174.95
438.96	1149.20
439.14	1149.20
439.33	1109.41
439.52	1167.93
439.70	1118.78
439.89	1228.78
440.08	1144.52
440.26	1193.67
440.45	1247.51
440.63	1219.42
440.82	1156.22
441.01	1086.01
441.19	1245.16
441.38	1196.01
441.57	1245.16
441.75	1320.06
441.94	1376.24
442.12	1263.89
442.31	1238.14
442.50	1261.55
442.68	1291.98
442.87	1256.87
443.05	1277.93
443.24	1336.45
443.43	1350.49
443.61	1376.24
443.80	1322.40
443.98	1245.16
444.17	1259.21
444.35	1235.80
444.54	1343.47
444.73	1439.43
444.91	1214.74
445.10	1259.21
445.28	1280.27
445.47	1362.19
445.65	1334.11
445.84	1348.15
446.02	1331.76
446.21	1341.13
446.39	1301.34
446.58	1357.51
446.77	1352.83
446.95	1399.64
447.14	1357.51
447.32	1439.43
447.51	1420.71
447.69	1390.28
447.88	1261.55
448.06	1385.60
448.25	1362.19
448.43	1348.15
448.62	1334.11
448.80	1383.26
448.99	1357.51
449.17	1336.45
449.36	1322.40
449.54	1432.41
449.73	1455.81
449.91	1469.86
450.10	1406.66
450.28	1434.75
450.46	1462.83
450.65	1446.45
450.83	1411.34
451.02	1427.73
451.20	1455.81
451.39	1430.07
451.57	1430.07
451.76	1394.96
451.94	1462.83
452.13	1579.86
452.31	1488.58
452.49	1455.81
452.68	1437.09
452.86	1596.25
453.05	1528.37
453.23	1474.54
453.42	1383.26
453.60	1474.54
453.78	1467.52
453.97	1385.60
454.15	1430.07
454.34	1430.07
454.52	1462.83
454.70	1493.26
454.89	1544.75
455.07	1568.16
455.26	1483.90
455.44	1610.29
455.62	1540.07
455.81	1610.29
455.99	1507.30
456.17	1497.94
456.36	1596.25
456.54	1659.44
456.73	1614.97
456.91	1699.23
457.09	1589.22
457.28	1645.40
457.46	1579.86
457.64	1652.42
457.83	1703.91
458.01	1556.46
458.19	1629.01
458.38	1575.18
458.56	1563.48
458.74	1626.67
458.93	1603.27
459.11	1610.29
459.29	1659.44
459.48	1636.03
459.66	1696.89
459.84	1657.10
460.03	1689.87
460.21	1638.38
460.39	1617.31
460.57	1856.04
460.76	1834.98
460.94	1783.49
461.12	1717.95
461.31	1788.17
461.49	1727.32
461.67	1699.23
461.85	1736.68
462.04	1661.78
462.22	2235.21
462.40	1797.53
462.59	1825.62
462.77	1788.17
462.95	1767.10
463.13	1722.63
463.32	1727.32
463.50	1827.96
463.68	1886.47
463.86	1764.76
464.05	1727.32
464.23	1827.96
464.41	1870.09
464.59	1715.61
464.78	1760.08
464.96	1823.28
465.14	1717.95
465.32	1799.87
465.50	1879.45
465.69	1863.07
465.87	1790.51
466.05	1834.98
466.23	1900.52
466.41	1837.32
466.60	1907.54
466.78	1823.28
466.96	1865.41
467.14	1825.62
467.32	1865.41
467.51	1923.92
467.69	1877.11
467.87	1902.86
468.05	1893.49
468.23	1902.86
468.41	1940.30
468.60	1914.56
468.78	1961.37
468.96	1935.62
469.14	1984.77
469.32	2052.65
469.50	1996.48
469.69	2010.52
469.87	1954.35
470.05	1984.77
470.23	2019.88
470.41	2010.52
470.59	1968.39
470.77	1963.71
470.95	1966.05
471.14	2221.17
471.32	1923.92
471.50	2139.25
471.68	2024.56
471.86	2066.69
472.04	1987.11
472.22	2125.21
472.40	2083.08
472.58	2115.84
472.77	2054.99
472.95	2179.04
473.13	2172.02
473.31	2148.61
473.49	2069.03
473.67	2087.76
473.85	2195.42
474.03	2237.55
474.21	2083.08
474.39	2279.68
474.57	2188.40
474.75	2253.94
474.93	2214.15
475.12	2263.30
475.30	2221.17
475.48	2267.98
475.66	2328.83
475.84	2366.28
476.02	2375.64
476.20	2431.82
476.38	2420.11
476.56	2445.86
476.74	2370.96
476.92	2321.81
477.10	2340.54
477.28	2361.60
477.46	2434.16
477.64	2420.11
477.82	2443.52
478.00	2457.56
478.18	2504.37
478.36	2487.99
478.54	2492.67
478.72	2527.78
478.90	2511.39
479.08	2509.05
479.26	2555.86
479.44	2757.15
479.62	2675.23
479.80	2637.78
479.98	2778.22
480.16	2661.19
480.34	2684.59
480.52	2698.64
480.70	2743.11
480.88	2628.42
481.06	2693.96
481.24	2787.58
481.41	2747.79
481.59	2864.82
481.77	2902.26
481.95	2888.22
482.13	2995.89
482.31	2902.26
482.49	2991.20
482.67	2876.52
482.85	3030.99
483.03	3108.23
483.21	2995.89
483.39	3066.10
483.57	3082.49
483.74	3023.97
483.92	3075.46
484.10	3091.85
484.28	3260.37
484.46	3218.24
484.64	3279.09
484.82	3262.71
485.00	3276.75
485.18	3339.94
485.35	3400.80
485.53	3389.10
485.71	3396.12
485.89	3384.41
486.07	3253.34
486.25	3513.14
486.43	3330.58
486.61	3435.91
486.78	3531.87
486.96	3527.19
487.14	3660.60
487.32	3688.68
487.50	3681.66
487.68	3693.37
487.85	3744.86
488.03	3707.41
488.21	3840.82
488.39	3712.09
488.57	3786.99
488.75	3829.12
488.92	4173.18
489.10	3808.05
489.28	3983.59
489.46	3847.84
489.64	3971.89
489.81	3990.61
489.99	3889.97
490.17	4009.34
490.35	4126.36
490.53	4117.00
490.70	4147.43
490.88	4025.72
491.06	4180.20
491.24	4196.58
491.41	4205.94
491.59	4219.99
491.77	4159.13
491.95	4297.22
492.13	4301.90
492.30	4250.41
492.48	4325.31
492.66	4264.46
492.84	4264.46
493.01	4491.49
493.19	4250.41
493.37	4414.25
493.54	4468.08
493.72	4496.17
493.90	4533.62
494.08	4510.21
494.25	4533.62
494.43	4643.62
494.61	4559.36
494.79	4472.76
494.96	4603.83
495.14	4652.98
495.32	4760.65
495.49	4781.71
495.67	4819.16
495.85	4762.99
496.02	4709.16
496.20	4891.72
496.38	4917.47
496.55	4840.23
496.73	4798.10
496.91	5018.11
497.09	5027.47
497.26	4992.36
497.44	4957.25
497.62	5085.98
497.79	5006.41
497.97	4894.06
498.14	5011.09
498.32	5078.96
498.50	4975.98
498.67	5083.64
498.85	5200.67
499.03	5107.05
499.20	5226.42
499.38	5240.46
499.56	5181.95
499.73	5060.24
499.91	5291.95
500.08	5249.82
500.26	5235.78
500.44	5373.87
500.61	5226.42
500.79	5289.61
500.97	5366.85
501.14	5497.92
501.32	5313.02
501.49	5378.55
501.67	5366.85
501.84	5446.43
502.02	5502.60
502.20	5582.18
502.37	5465.15
502.55	5467.49
502.72	5394.93
502.90	5500.26
503.07	5465.15
503.25	5544.73
503.43	5495.58
503.60	5626.65
503.78	5561.11
503.95	5521.32
504.13	5636.01
504.30	5706.23
504.48	5715.59
504.65	5694.52
504.83	5717.93
505.01	5633.67
505.18	5708.57
505.36	5638.35
505.53	5949.64
505.71	5816.23
505.88	5851.34
506.06	5905.17
506.23	5802.19
506.41	5797.51
506.58	5968.37
506.76	5928.58
506.93	5977.73
507.11	5956.66
507.28	5984.75
507.46	5914.53
507.63	5795.17
507.81	6019.86
507.98	6033.90
508.16	5846.66
508.33	6057.31
508.50	5949.64
508.68	6141.57
508.85	6195.40
509.03	5973.05
509.20	6265.61
509.38	6272.64
509.55	6214.12
509.73	6296.04
509.90	6188.38
510.08	6284.34
510.25	6188.38
510.42	6162.63
510.60	6427.11
510.77	6548.82
510.95	6340.51
511.12	6389.66
511.30	6436.47
511.47	6326.47
511.64	6345.19
511.82	6401.37
511.99	6476.26
512.17	6361.58
512.34	6406.05
512.51	6614.35
512.69	6651.80
512.86	6476.26
513.04	6527.75
513.21	6665.85
513.38	6626.06
513.56	6609.67
513.73	6553.50
513.90	6658.82
514.08	6511.37
514.25	6595.63
514.43	6614.35
514.60	6775.85
514.77	6710.32
514.95	6696.27
515.12	6700.95
515.29	6963.09
515.47	6874.15
515.64	6785.21
515.81	6691.59
515.99	7066.08
516.16	6909.26
516.33	6855.43
516.51	6953.73
516.68	6825.00
516.85	6834.36
517.03	7115.23
517.20	6956.07
517.37	6972.46
517.54	7056.72
517.72	7164.38
517.89	6949.05
518.06	6862.45
518.24	7059.06
518.41	6923.30
518.58	7028.63
518.75	7037.99
518.93	7096.50
519.10	7045.01
519.27	7145.66
519.45	6881.18
519.62	7157.36
519.79	6984.16
519.96	7016.93
520.14	7089.48
520.31	7087.14
520.48	7157.36
520.65	7026.29
520.83	7148.00
521.00	7403.11
521.17	7260.34
521.34	7335.24
521.52	7222.89
521.69	7260.34
521.86	7290.77
522.03	7272.04
522.20	7332.90
522.38	7426.52
522.55	7241.62
522.72	7269.70
522.89	7435.88
523.07	7508.44
523.24	7267.36
523.41	7492.05
523.58	7494.40
523.75	7440.56
523.92	7480.35
524.10	7599.72
524.27	7431.20
524.44	7641.85
524.61	7562.27
524.78	7702.70
524.96	7660.57
525.13	7691.00
525.30	7843.14
525.47	7611.42
525.64	7702.70
525.81	7653.55
525.98	7777.60
526.16	7569.29
526.33	7499.08
526.50	7714.41
526.67	7669.94
526.84	7756.54
527.01	7894.63
527.18	7611.42
527.36	7609.08
527.53	7761.22
527.70	7808.03
527.87	7679.30
528.04	7709.72
528.21	7824.41
528.38	7772.92
528.55	7836.11
528.72	7854.84
528.89	7796.32
529.07	7705.04
529.24	7913.35
529.41	7962.50
529.58	7939.10
529.75	7840.79
529.92	7967.18
530.09	7880.58
530.26	7896.97
530.43	8035.06
530.60	8145.06
530.77	7833.77
530.94	8046.76
531.11	8046.76
531.28	8100.59
531.46	8028.04
531.63	7908.67
531.80	7992.93
531.97	8086.55
532.14	8021.02
532.31	8009.31
532.48	7936.76
532.65	7946.12
532.82	8116.98
532.99	8264.43
533.16	8182.51
533.33	8224.64
533.50	8290.18
533.67	8201.24
533.84	8084.21
534.01	8187.19
534.18	8105.28
534.35	8348.69
534.52	8276.13
534.69	8224.64
534.86	8208.26
535.03	8177.83
535.20	8299.54
535.37	8306.56
535.54	8234.00
535.71	8109.96
535.88	8573.38
536.05	8257.41
536.22	8374.44
536.38	8580.40
536.55	8451.67
536.72	8470.40
536.89	8589.77
537.06	8374.44
537.23	8437.63
537.40	8465.72
537.57	8526.57
537.74	8493.80
537.91	8652.96
538.08	8603.81
538.25	8519.55
538.42	8617.85
538.59	8486.78
538.75	8657.64
538.92	8547.64
539.09	8603.81
539.26	8610.83
539.43	8552.32
539.60	8688.07
539.77	8798.07
539.94	8664.66
540.11	8954.89
540.28	8901.06
540.44	8933.82
540.61	8837.86
540.78	9083.62
540.95	8898.72
541.12	9191.28
541.29	9202.99
541.46	9247.46
541.62	9427.68
541.79	9268.52
541.96	9406.61
542.13	9324.69
542.30	9069.58
542.47	9334.06
542.63	9242.78
542.80	9291.93
542.97	9380.87
543.14	9336.40
543.31	9090.64
543.48	9486.19
543.64	9488.53
543.81	9352.78
543.98	9355.12
544.15	9322.35
544.32	9394.91
544.48	9392.57
544.65	9217.03
544.82	9486.19
544.99	9305.97
545.16	9383.21
545.32	9476.83
545.49	9785.78
545.66	10684.55
545.83	10890.51
546.00	10647.10
546.16	9907.49
546.33	9788.12
546.50	9263.84
546.67	9322.35
546.83	9231.07
547.00	9404.27
547.17	9343.42
547.34	9193.62
547.50	9261.50
547.67	9385.55
547.84	9036.81
548.00	9139.79
548.17	9476.83
548.34	9135.11
548.51	9275.54
548.67	9401.93
548.84	9357.46
549.01	9261.50
549.18	9404.27
549.34	9301.29
549.51	8971.27
549.68	9268.52
549.84	9167.88
550.01	9291.93
550.18	9270.86
550.34	9198.31
550.51	9219.37
550.68	9249.80
550.84	9128.09
551.01	9226.39
551.18	9254.48
551.34	8940.85
551.51	9092.98
551.68	9291.93
551.84	9425.34
552.01	8992.34
552.18	9528.32
552.34	9547.05
552.51	9277.88
552.68	9149.15
552.84	9305.97
553.01	9507.26
553.18	9217.03
553.34	9235.75
553.51	9352.78
553.67	9357.46
553.84	9254.48
554.01	9308.31
554.17	9392.57
554.34	9149.15
554.51	9420.66
554.67	9118.73
554.84	9270.86
555.00	9219.37
555.17	9245.12
555.33	9277.88
555.50	9130.43
555.67	9284.91
555.83	9029.79
556.00	9179.58
556.16	9558.75
556.33	9064.89
556.50	9207.67
556.66	9420.66
556.83	9366.82
556.99	9268.52
557.16	9383.21
557.32	9245.12
557.49	9334.06
557.65	9338.74
557.82	9315.33
557.98	9123.41
558.15	9310.65
558.32	9378.53
558.48	9324.69
558.65	9476.83
558.81	9472.15
558.98	9263.84
559.14	9453.42
559.31	9291.93
559.47	9345.76
559.64	9212.35
559.80	9394.91
559.97	9481.51
560.13	9221.71
560.30	9378.53
560.46	9139.79
560.63	9373.85
560.79	9357.46
560.96	9458.10
561.12	9046.17
561.29	9362.14
561.45	9453.42
561.61	9366.82
561.78	9345.76
561.94	9661.73
562.11	9399.59
562.27	9369.16
562.44	9179.58
562.60	9352.78
562.77	9067.24
562.93	9418.32
563.10	9430.02
563.26	9064.89
563.42	9411.29
563.59	9341.08
563.75	9397.25
563.92	9282.56
564.08	9444.06
564.24	9474.49
564.41	9308.31
564.57	9469.81
564.74	9507.26
564.90	9327.03
565.07	9301.29
565.23	9371.50
565.39	9415.98
565.56	9336.40
565.72	9092.98
565.88	9490.87
566.05	9301.29
566.21	9273.20
566.38	9270.86
566.54	9338.74
566.70	9336.40
566.87	9406.61
567.03	9392.57
567.19	9455.76
567.36	9406.61
567.52	9303.63
567.68	9268.52
567.85	9380.87
568.01	9455.76
568.17	9235.75
568.34	9308.31
568.50	9273.20
568.66	9324.69
568.83	9357.46
568.99	9238.09
569.15	9329.38
569.32	9380.87
569.48	9589.17
569.64	9432.36
569.81	9451.08
569.97	9331.72
570.13	9500.23
570.30	9378.53
570.46	9568.11
570.62	9387.89
570.78	9310.65
570.95	9247.46
571.11	9270.86
571.27	9348.10
571.43	9280.22
571.60	9544.70
571.76	9317.67
571.92	9408.95
572.09	9687.48
572.25	9451.08
572.41	9312.99
572.57	9305.97
572.74	9312.99
572.90	9380.87
573.06	9355.12
573.22	9420.66
573.38	9514.28
573.55	9547.05
573.71	9551.73
573.87	9518.96
574.03	9399.59
574.20	9502.58
574.36	9556.41
574.52	9521.30
574.68	9460.45
574.84	9425.34
575.01	9561.09
575.17	9558.75
575.33	9280.22
575.49	9359.80
575.65	9598.54
575.82	9404.27
575.98	9383.21
576.14	9432.36
576.30	9371.50
576.46	9619.60
576.62	9804.50
576.79	10024.51
576.95	9699.18
577.11	9610.24
577.27	9282.56
577.43	9549.39
577.59	9671.09
577.75	9584.49
577.92	9579.81
578.08	9483.85
578.24	9352.78
578.40	9441.72
578.56	9755.35
578.72	9635.99
578.88	9891.10
579.04	9727.27
579.21	9542.36
579.37	9444.06
579.53	9624.28
579.69	9504.92
579.85	9535.34
580.01	9635.99
580.17	9469.81
580.33	9486.19
580.49	9460.45
580.65	9521.30
580.82	9549.39
580.98	9624.28
581.14	9350.44
581.30	9727.27
581.46	9385.55
581.62	9439.38
581.78	9348.10
581.94	9673.43
582.10	9598.54
582.26	9661.73
582.42	9603.22
582.58	9696.84
582.74	9493.21
582.90	9628.96
583.06	9593.86
583.22	9516.62
583.38	9624.28
583.54	9813.87
583.70	9525.98
583.86	9563.43
584.02	9577.47
584.18	9521.30
584.34	9753.01
584.50	9722.59
584.66	9551.73
584.82	9451.08
584.98	9563.43
585.14	9500.23
585.30	9549.39
585.46	9516.62
585.62	9547.05
585.78	9760.03
585.94	9589.17
586.10	9568.11
586.26	9605.56
586.42	9703.86
586.58	9591.52
586.74	9680.46
586.90	9858.34
587.06	9568.11
587.22	10031.54
587.38	9734.29
587.54	9757.69
587.70	9973.02
587.86	9556.41
588.02	9853.66
588.18	9825.57
588.34	9738.97
588.49	9570.45
588.65	9610.24
588.81	9441.72
588.97	9551.73
589.13	9420.66
589.29	9605.56
589.45	9692.16
589.61	9411.29
589.77	9554.07
589.93	9654.71
590.08	9542.36
590.24	9568.11
590.40	9607.90
590.56	9638.33
590.72	9525.98
590.88	9537.68
591.04	9516.62
591.20	9703.86
591.35	9542.36
591.51	9640.67
591.67	9664.07
591.83	9577.47
591.99	9851.31
592.15	9858.34
592.31	9699.18
592.46	9579.81
592.62	9638.33
592.78	9530.66
592.94	9788.12
593.10	9671.09
593.26	9694.50
593.41	9764.72
593.57	9645.35
593.73	9699.18
593.89	9783.44
594.05	9591.52
594.20	9603.22
594.36	9631.30
594.52	9692.16
594.68	9572.79
594.84	9355.12
594.99	9610.24
595.15	9521.30
595.31	9652.37
595.47	9799.82
595.62	9486.19
595.78	9476.83
595.94	9577.47
596.10	9593.86
596.25	9647.69
596.41	9521.30
596.57	9530.66
596.73	9617.26
596.88	9511.94
597.04	9771.74
597.20	9626.62
597.36	9577.47
597.51	9612.58
597.67	9607.90
597.83	9565.77
597.99	9518.96
598.14	9497.89
598.30	9460.45
598.46	9451.08
598.61	9593.86
598.77	9462.79
598.93	9612.58
599.09	9626.62
599.24	9870.04
599.40	9638.33
599.56	9558.75
599.71	9626.62
599.87	9661.73
600.03	9572.79
