SpectraSuite Data File
++++++++++++++++++++++++++++++++++++
Date: Fri Oct 04 11:39:15 GMT-05:00 2013
User: price-jones
Dark Spectrum Present: No
Reference Spectrum Present: No
Number of Sampled Component Spectra: 1
Spectrometers: USB2+H05261
Integration Time (usec): 100000 (USB2+H05261)
Spectra Averaged: 1 (USB2+H05261)
Boxcar Smoothing: 0 (USB2+H05261)
Correct for Electrical Dark: No (USB2+H05261)
Strobe/Lamp Enabled: No (USB2+H05261)
Correct for Detector Non-linearity: No (USB2+H05261)
Correct for Stray Light: No (USB2+H05261)
Number of Pixels in Processed Spectrum: 2048
>>>>>Begin Processed Spectral Data<<<<<
365.73	51.49
365.92	51.49
366.12	51.49
366.32	4.68
366.52	0.00
366.72	0.00
366.91	0.00
367.11	0.00
367.31	0.00
367.51	0.00
367.70	0.00
367.90	35.11
368.10	0.00
368.30	0.00
368.49	0.00
368.69	0.00
368.89	0.00
369.09	0.00
369.28	0.00
369.48	0.00
369.68	7.02
369.87	0.00
370.07	0.00
370.27	37.45
370.47	65.54
370.66	198.95
370.86	161.50
371.06	210.65
371.25	241.08
371.45	337.04
371.65	266.82
371.84	131.07
372.04	198.95
372.24	285.55
372.44	262.14
372.63	238.73
372.83	276.18
373.03	292.57
373.22	259.80
373.42	337.04
373.62	259.80
373.81	299.59
374.01	393.21
374.21	308.95
374.40	287.89
374.60	390.87
374.79	325.33
374.99	337.04
375.19	325.33
375.38	355.76
375.58	330.02
375.78	379.17
375.97	379.17
376.17	388.53
376.37	351.08
376.56	442.36
376.76	325.33
376.95	301.93
377.15	400.23
377.35	348.74
377.54	369.80
377.74	322.99
377.93	376.83
378.13	390.87
378.33	341.72
378.52	355.76
378.72	400.23
378.91	388.53
379.11	388.53
379.31	339.38
379.50	320.65
379.70	322.99
379.89	355.76
380.09	411.93
380.28	383.85
380.48	411.93
380.68	299.59
380.87	292.57
381.07	407.25
381.26	468.11
381.46	458.74
381.65	456.40
381.85	402.57
382.04	393.21
382.24	383.85
382.43	393.21
382.63	348.74
382.83	379.17
383.02	456.40
383.22	493.85
383.41	381.51
383.61	381.51
383.80	430.66
384.00	425.98
384.19	472.79
384.39	421.30
384.58	402.57
384.78	505.56
384.97	470.45
385.17	454.06
385.36	435.34
385.56	440.02
385.75	395.55
385.95	503.22
386.14	482.15
386.34	414.27
386.53	423.64
386.72	463.43
386.92	444.70
387.11	440.02
387.31	449.38
387.50	477.47
387.70	493.85
387.89	477.47
388.09	454.06
388.28	491.51
388.48	510.24
388.67	486.83
388.86	573.43
389.06	564.07
389.25	535.98
389.45	559.39
389.64	526.62
389.84	608.54
390.03	507.90
390.22	559.39
390.42	592.16
390.61	528.96
390.81	433.00
391.00	517.26
391.19	622.58
391.39	500.87
391.58	634.29
391.78	645.99
391.97	503.22
392.16	524.28
392.36	622.58
392.55	683.44
392.75	568.75
392.94	634.29
393.13	557.05
393.33	638.97
393.52	606.20
393.71	653.01
393.91	671.73
394.10	592.16
394.29	634.29
394.49	624.92
394.68	655.35
394.88	631.94
395.07	662.37
395.26	681.10
395.46	657.69
395.65	702.16
395.84	671.73
396.04	676.41
396.23	695.14
396.42	741.95
396.62	692.80
396.81	702.16
397.00	713.86
397.19	655.35
397.39	748.97
397.58	695.14
397.77	748.97
397.97	753.65
398.16	725.57
398.35	800.46
398.55	699.82
398.74	770.04
398.93	795.78
399.12	795.78
399.32	681.10
399.51	786.42
399.70	819.19
399.90	823.87
400.09	901.11
400.28	826.21
400.47	849.61
400.67	805.14
400.86	870.68
401.05	809.83
401.24	903.45
401.44	844.93
401.63	915.15
401.82	868.34
402.01	791.10
402.21	816.85
402.40	922.17
402.59	976.00
402.78	964.30
402.97	887.06
403.17	905.79
403.36	985.37
403.55	999.41
403.74	992.39
403.93	1013.45
404.13	952.60
404.32	1050.90
404.51	1086.01
404.70	1022.81
404.89	1032.18
405.09	1074.31
405.28	1060.26
405.47	1039.20
405.66	1027.50
405.85	1130.48
406.05	1053.24
406.24	1032.18
406.43	1111.75
406.62	1167.93
406.81	1097.71
407.00	1177.29
407.20	1071.97
407.39	1217.08
407.58	1104.73
407.77	1198.35
407.96	1310.70
408.15	1221.76
408.34	1219.42
408.54	1270.91
408.73	1324.74
408.92	1266.23
409.11	1301.34
409.30	1259.21
409.49	1296.66
409.68	1310.70
409.87	1256.87
410.07	1331.76
410.26	1308.36
410.45	1336.45
410.64	1387.94
410.83	1301.34
411.02	1430.07
411.21	1369.21
411.40	1486.24
411.59	1465.18
411.78	1437.09
411.98	1467.52
412.17	1488.58
412.36	1476.88
412.55	1558.80
412.74	1533.05
412.93	1549.43
413.12	1582.20
413.31	1547.09
413.50	1509.65
413.69	1614.97
413.88	1614.97
414.07	1626.67
414.26	1624.33
414.45	1715.61
414.64	1715.61
414.83	1736.68
415.02	1785.83
415.22	1830.30
415.41	1858.39
415.60	1689.87
415.79	1753.06
415.98	1839.66
416.17	1757.74
416.36	1846.68
416.55	1874.77
416.74	1818.60
416.93	1895.83
417.12	1846.68
417.31	1863.07
417.50	1949.67
417.69	2057.33
417.88	2001.16
418.07	1933.28
418.26	1977.75
418.45	2001.16
418.64	2069.03
418.83	2033.93
419.02	2076.06
419.21	2031.58
419.39	2150.95
419.58	2066.69
419.77	2029.24
419.96	2094.78
420.15	2125.21
420.34	2057.33
420.53	2150.95
420.72	2139.25
420.91	2083.08
421.10	2209.47
421.29	2207.13
421.48	2209.47
421.67	2293.72
421.86	2312.45
422.05	2146.27
422.24	2221.17
422.43	2291.38
422.61	2263.30
422.80	2361.60
422.99	2307.77
423.18	2342.88
423.37	2298.41
423.56	2307.77
423.75	2352.24
423.94	2202.44
424.13	2249.25
424.32	2286.70
424.50	2237.55
424.69	2436.50
424.88	2373.30
425.07	2272.66
425.26	2326.49
425.45	2202.44
425.64	2207.13
425.83	2270.32
426.01	2368.62
426.20	2342.88
426.39	2300.75
426.58	2347.56
426.77	2429.48
426.96	2361.60
427.15	2417.77
427.33	2422.45
427.52	2473.95
427.71	2464.58
427.90	2443.52
428.09	2602.68
428.28	2530.12
428.46	2572.25
428.65	2530.12
428.84	2576.93
429.03	2633.10
429.22	2523.10
429.40	2630.76
429.59	2665.87
429.78	2466.92
429.97	2567.57
430.16	2605.02
430.34	2560.55
430.53	2633.10
430.72	2780.56
430.91	2579.27
431.10	2668.21
431.28	2766.51
431.47	2757.15
431.66	2757.15
431.85	2679.91
432.03	2787.58
432.22	2899.92
432.41	2829.71
432.60	2904.60
432.79	2846.09
432.97	2867.16
433.16	2965.46
433.35	2794.60
433.54	2913.97
433.72	2899.92
433.91	2722.04
434.10	2902.26
434.28	3000.57
434.47	2960.78
434.66	3007.59
434.85	2981.84
435.03	3033.33
435.22	3201.85
435.41	3396.12
435.59	3372.71
435.78	3232.28
435.97	3173.77
436.16	3220.58
436.34	3155.04
436.53	3126.96
436.72	3091.85
436.90	3173.77
437.09	3150.36
437.28	3131.64
437.46	3187.81
437.65	3152.70
437.84	3239.30
438.02	3227.60
438.21	3393.78
438.40	3208.87
438.58	3236.96
438.77	3361.01
438.96	3396.12
439.14	3372.71
439.33	3398.46
439.52	3431.23
439.70	3314.20
439.89	3482.72
440.08	3576.34
440.26	3449.95
440.45	3517.83
440.63	3588.04
440.82	3534.21
441.01	3508.46
441.19	3599.74
441.38	3688.68
441.57	3681.66
441.75	3810.39
441.94	3801.03
442.12	3784.65
442.31	3772.94
442.50	3737.84
442.68	3765.92
442.87	3873.59
443.05	3843.16
443.24	3861.88
443.43	3822.09
443.61	3864.22
443.80	4053.81
443.98	3763.58
444.17	3798.69
444.35	3829.12
444.54	4070.19
444.73	3967.21
444.91	3950.82
445.10	3955.51
445.28	3854.86
445.47	3908.69
445.65	4011.68
445.84	3922.74
446.02	4016.36
446.21	3875.93
446.39	3878.27
446.58	4072.53
446.77	4074.87
446.95	3920.40
447.14	4039.76
447.32	4058.49
447.51	4077.21
447.69	4049.13
447.88	3934.44
448.06	4170.83
448.25	4046.79
448.43	4051.47
448.62	4009.34
448.80	4074.87
448.99	4011.68
449.17	4109.98
449.36	4086.58
449.54	4161.47
449.73	4117.00
449.91	4189.56
450.10	4306.59
450.28	4447.02
450.46	4219.99
450.65	4287.86
450.83	4332.33
451.02	4346.37
451.20	4432.97
451.39	4395.53
451.57	4301.90
451.76	4236.37
451.94	4376.80
452.13	4550.00
452.31	4409.57
452.49	4411.91
452.68	4435.32
452.86	4367.44
453.05	4493.83
453.23	4447.02
453.42	4308.93
453.60	4463.40
453.78	4379.14
453.97	4386.16
454.15	4517.23
454.34	4517.23
454.52	4636.60
454.70	4601.49
454.89	4629.58
455.07	4571.07
455.26	4545.32
455.44	4732.56
455.62	4727.88
455.81	4552.34
455.99	4702.14
456.17	4662.35
456.36	4699.80
456.54	4760.65
456.73	4901.08
456.91	4945.55
457.09	4933.85
457.28	5004.07
457.46	4849.59
457.64	4826.18
457.83	4985.34
458.01	4856.61
458.19	5125.77
458.38	4931.51
458.56	5057.90
458.74	5100.03
458.93	5022.79
459.11	5102.37
459.29	4983.00
459.48	4971.30
459.66	5165.56
459.84	5242.80
460.03	5221.74
460.21	5268.55
460.39	5210.03
460.57	5135.14
460.76	5160.88
460.94	5385.57
461.12	5207.69
461.31	5327.06
461.49	5486.22
461.67	5231.10
461.85	5233.44
462.04	5334.08
462.22	5579.84
462.40	5341.10
462.59	5408.98
462.77	5341.10
462.95	5490.90
463.13	5387.91
463.32	5554.09
463.50	5394.93
463.68	5427.70
463.86	5596.22
464.05	5528.35
464.23	5432.38
464.41	5547.07
464.59	5432.38
464.78	5710.91
464.96	5607.92
465.14	5404.30
465.32	5572.82
465.50	5741.33
465.69	5722.61
465.87	5776.44
466.05	5668.78
466.23	5521.32
466.41	5636.01
466.60	5832.62
466.78	5668.78
466.96	5738.99
467.14	5823.25
467.32	5846.66
467.51	5909.85
467.69	5673.46
467.87	5734.31
468.05	5797.51
468.23	5813.89
468.41	5729.63
468.60	5933.26
468.78	5872.40
468.96	5839.64
469.14	6005.81
469.32	5949.64
469.50	5860.70
469.69	6113.48
469.87	6040.92
470.05	6143.91
470.23	6073.69
470.41	6033.90
470.59	6148.59
470.77	6127.52
470.95	6246.89
471.14	6228.17
471.32	6216.46
471.50	6431.79
471.68	6326.47
471.86	6160.29
472.04	6345.19
472.22	6502.01
472.40	6478.60
472.58	6679.89
472.77	6445.84
472.95	6551.16
473.13	6707.98
473.31	6579.25
473.49	6586.27
473.67	6677.55
473.85	6663.51
474.03	6750.10
474.21	6792.23
474.39	6850.75
474.57	6862.45
474.75	6974.80
474.93	6984.16
475.12	6949.05
475.30	7061.40
475.48	6965.43
475.66	7194.81
475.84	7138.63
476.02	7026.29
476.20	7140.97
476.38	7377.37
476.56	7501.42
476.74	7588.02
476.92	7220.55
477.10	7573.97
477.28	7480.35
477.46	7590.36
477.64	7733.13
477.82	7761.22
478.00	7819.73
478.18	7859.52
478.36	7913.35
478.54	7889.95
478.72	7946.12
478.90	7946.12
479.08	8241.03
479.26	8381.46
479.44	8084.21
479.62	8365.07
479.80	8238.69
479.98	8435.29
480.16	8418.91
480.34	8276.13
480.52	8559.34
480.70	8662.32
480.88	8526.57
481.06	8753.60
481.24	8737.22
481.41	8805.10
481.59	8861.27
481.77	8809.78
481.95	9029.79
482.13	9273.20
482.31	9092.98
482.49	9525.98
482.67	9331.72
482.85	9486.19
483.03	9516.62
483.21	9673.43
483.39	9841.95
483.57	9741.31
483.74	9830.25
483.92	10078.35
484.10	9907.49
484.28	10045.58
484.46	10272.61
484.64	10270.27
484.82	10064.30
485.00	10113.45
485.18	10532.41
485.35	10682.20
485.53	10630.71
485.71	10621.35
485.89	10806.25
486.07	10532.41
486.25	10850.72
486.43	10902.22
486.61	11152.65
486.78	11112.86
486.96	11410.11
487.14	11360.96
487.32	11344.58
487.50	11087.12
487.68	11463.94
487.85	11681.61
488.03	11871.20
488.21	11836.09
488.39	12049.08
488.57	11974.18
488.75	12058.44
488.92	12587.40
489.10	12173.13
489.28	12191.85
489.46	12542.93
489.64	12533.57
489.81	12720.81
489.99	12484.42
490.17	12889.33
490.35	13022.74
490.53	12968.91
490.70	13032.10
490.88	13212.32
491.06	13135.09
491.24	13128.06
491.41	13334.03
491.59	13549.36
491.77	13462.76
491.95	13708.52
492.13	13565.74
492.30	13600.85
492.48	13902.78
492.66	13830.23
492.84	13907.46
493.01	14333.44
493.19	14134.50
493.37	14368.55
493.54	14340.46
493.72	14331.10
493.90	14534.73
494.08	14799.21
494.25	14743.03
494.43	14834.32
494.61	14813.25
494.79	15119.86
494.96	14787.50
495.14	15094.11
495.32	15307.10
495.49	15321.15
495.67	15307.10
495.85	15435.83
496.02	15459.24
496.20	15648.82
496.38	15611.37
496.55	15690.95
496.73	16046.71
496.91	15927.35
497.09	16137.99
497.26	15943.73
497.44	15899.26
497.62	16187.14
497.79	16318.22
497.97	16367.37
498.14	16332.26
498.32	16554.61
498.50	16531.20
498.67	16954.84
498.85	17018.04
499.03	17001.65
499.20	16863.56
499.38	16837.81
499.56	16854.20
499.73	17165.49
499.91	17193.58
500.08	17434.65
500.26	17118.68
500.44	17486.14
500.61	17312.94
500.79	17673.39
500.97	17191.23
501.14	17869.99
501.32	17853.61
501.49	17802.11
501.67	17947.23
501.84	17891.06
502.02	18024.47
502.20	17797.43
502.37	18340.44
502.55	17991.70
502.72	18221.07
502.90	18310.01
503.07	18146.17
503.25	18202.35
503.43	18050.21
503.60	18356.82
503.78	18443.42
503.95	18707.90
504.13	18740.67
504.30	18530.02
504.48	18616.62
504.65	18731.31
504.83	18857.70
505.01	19253.25
505.18	19147.92
505.36	19222.82
505.53	18932.59
505.71	19213.46
505.88	19480.28
506.06	19030.90
506.23	19417.08
506.41	19716.67
506.58	19590.28
506.76	19573.90
506.93	19660.50
507.11	19527.09
507.28	19932.00
507.46	19524.75
507.63	19875.83
507.81	19702.63
507.98	19716.67
508.16	19955.41
508.33	20243.29
508.50	20168.40
508.68	20240.95
508.85	20367.34
509.03	20343.94
509.20	20446.92
509.38	20533.52
509.55	20875.24
509.73	20858.85
509.90	20929.07
510.08	20793.32
510.25	20851.83
510.42	20723.10
510.60	21106.95
510.77	21142.06
510.95	21198.23
511.12	20870.56
511.30	21104.61
511.47	21401.86
511.64	21453.35
511.82	21378.45
511.99	21238.02
512.17	21427.60
512.34	21703.79
512.51	21745.92
512.69	21373.77
512.86	21605.49
513.04	21757.62
513.21	21589.10
513.38	22281.90
513.56	21891.03
513.73	21886.35
513.90	21888.69
514.08	21846.56
514.25	22071.25
514.43	22501.91
514.60	22281.90
514.77	22347.44
514.95	22691.49
515.12	22256.15
515.29	22415.31
515.47	22384.88
515.64	22616.60
515.81	22752.35
515.99	22862.35
516.16	22995.76
516.33	22979.38
516.51	22967.68
516.68	22574.47
516.85	22569.79
517.03	22937.25
517.20	23129.17
517.37	22946.61
517.54	23117.47
517.72	23234.50
517.89	22979.38
518.06	23461.53
518.24	23426.42
518.41	23248.54
518.58	23449.83
518.75	23477.91
518.93	23503.66
519.10	23480.25
519.27	23999.85
519.45	23447.49
519.62	23597.28
519.79	23548.13
519.96	23798.57
520.14	23864.10
520.31	23747.08
520.48	24119.22
520.65	24133.26
520.83	24053.69
521.00	24276.04
521.17	24065.39
521.34	24215.18
521.52	24243.27
521.69	24343.91
521.86	24535.84
522.03	24568.60
522.20	24603.71
522.38	24807.34
522.55	24229.23
522.72	24830.74
522.89	24709.04
523.07	25364.39
523.24	25006.28
523.41	25090.54
523.58	24694.99
523.75	25214.59
523.92	25050.75
524.10	24847.13
524.27	25099.90
524.44	25635.89
524.61	25228.63
524.78	25268.42
524.96	25301.19
525.13	25441.62
525.30	25570.35
525.47	25357.36
525.64	25544.61
525.81	25584.40
525.98	25345.66
526.16	25708.44
526.33	25586.74
526.50	26040.80
526.67	25874.62
526.84	25575.03
527.01	25589.08
527.18	26143.78
527.36	26293.58
527.53	26249.11
527.70	26462.10
527.87	26040.80
528.04	26101.65
528.21	25865.26
528.38	26188.25
528.55	26298.26
528.72	26649.34
528.89	26370.82
529.07	26471.46
529.24	26120.38
529.41	26553.38
529.58	26146.12
529.75	26661.04
529.92	26649.34
530.09	26686.79
530.26	26909.14
530.43	26600.19
530.60	26766.37
530.77	26843.60
530.94	26960.63
531.11	26934.88
531.28	26925.52
531.46	26841.26
531.63	27168.94
531.80	27227.45
531.97	27215.75
532.14	27204.05
532.31	27077.66
532.48	27126.81
532.65	27016.80
532.82	27379.59
532.99	27199.37
533.16	27087.02
533.33	27529.38
533.50	27835.99
533.67	27304.69
533.84	27557.47
534.01	27365.54
534.18	27281.28
534.35	27791.52
534.52	27489.59
534.69	28142.60
534.86	27882.80
535.03	27772.80
535.20	27946.00
535.37	28123.88
535.54	28119.20
535.71	27840.67
535.88	28011.53
536.05	27997.49
536.22	28325.16
536.38	28013.87
536.55	28329.84
536.72	28664.54
536.89	28231.54
537.06	28584.96
537.23	28402.40
537.40	28067.70
537.57	28580.28
537.74	28650.50
537.91	28716.03
538.08	28631.77
538.25	28470.28
538.42	28247.93
538.59	28826.04
538.75	28814.34
538.92	28582.62
539.09	28886.89
539.26	28751.14
539.43	28821.36
539.60	28851.78
539.77	28727.74
539.94	29062.43
540.11	29120.95
540.28	29240.31
540.44	29125.63
540.61	29184.14
540.78	29343.30
540.95	29291.80
541.12	29385.43
541.29	29481.39
541.46	29771.61
541.62	29734.17
541.79	29518.84
541.96	29497.77
542.13	29429.90
542.30	29832.47
542.47	29715.44
542.63	29944.81
542.80	30000.99
542.97	29867.58
543.14	30293.55
543.31	29993.97
543.48	30167.16
543.64	30354.41
543.81	30092.27
543.98	30410.58
544.15	30223.34
544.32	30244.40
544.48	30759.32
544.65	30469.09
544.82	30103.97
544.99	29876.94
545.16	30551.01
545.32	30253.76
545.49	30625.91
545.66	31299.98
545.83	31234.45
546.00	31234.45
546.16	30946.56
546.33	30616.55
546.50	30726.55
546.67	30565.06
546.83	30335.68
547.00	30410.58
547.17	30487.82
547.34	30213.98
547.50	30377.81
547.67	30614.21
547.84	30623.57
548.00	31096.36
548.17	30927.84
548.34	30628.25
548.51	30974.65
548.67	31012.10
548.84	31094.02
549.01	30541.65
549.18	31110.40
549.34	30682.08
549.51	31007.42
549.68	30991.03
549.84	31070.61
550.01	31091.68
550.18	31084.65
550.34	31527.02
550.51	31531.70
550.68	31171.25
550.84	30792.09
551.01	31290.62
551.18	31096.36
551.34	30513.56
551.51	31124.44
551.68	31302.32
551.84	31260.20
552.01	31239.13
552.18	31316.37
552.34	31372.54
552.51	31328.07
552.68	31213.38
552.84	31309.35
553.01	31370.20
553.18	31232.11
553.34	31723.62
553.51	31988.10
553.67	31583.19
553.84	32151.94
554.01	32039.59
554.17	31821.92
554.34	31658.09
554.51	31248.49
554.67	31349.14
554.84	31838.31
555.00	31796.18
555.17	31583.19
555.33	31372.54
555.50	31618.30
555.67	31864.05
555.83	31321.05
556.00	31782.13
556.16	31964.70
556.33	32084.06
556.50	32165.98
556.66	31999.80
556.83	31810.22
556.99	32063.00
557.16	32521.74
557.32	32451.53
557.49	32030.23
557.65	31838.31
557.82	32514.72
557.98	31758.73
558.15	31655.75
558.32	32142.58
558.48	32030.23
558.65	32500.68
558.81	32491.32
558.98	32650.47
559.14	32074.70
559.31	32238.54
559.47	32283.01
559.64	32322.80
559.80	32383.65
559.97	32788.56
560.13	32371.95
560.30	32833.04
560.46	33102.20
560.63	32505.36
560.79	32507.70
560.96	32327.48
561.12	32818.99
561.29	32519.40
561.45	32472.59
561.61	32645.79
561.78	33064.75
561.94	32669.20
562.11	32589.62
562.27	32760.48
562.44	32119.17
562.60	32437.48
562.77	32701.96
562.93	32821.33
563.10	33085.81
563.26	32842.40
563.42	33282.42
563.59	32875.16
563.75	32884.53
563.92	32875.16
564.08	32584.94
564.24	32804.95
564.41	32484.30
564.57	32762.82
564.74	32622.39
564.90	32835.38
565.07	33221.56
565.23	32884.53
565.39	33125.60
565.56	32950.06
565.72	32769.84
565.88	32844.74
566.05	32694.94
566.21	32547.49
566.38	32804.95
566.54	32830.69
566.70	33317.53
566.87	33179.43
567.03	33347.95
567.19	33329.23
567.36	32896.23
567.52	32800.27
567.68	32947.72
567.85	32992.19
568.01	33102.20
568.17	33024.96
568.34	33287.10
568.50	33376.04
568.66	32980.49
568.83	33254.33
568.99	33390.08
569.15	33139.65
569.32	33099.86
569.48	32730.05
569.64	33270.72
569.81	33333.91
569.97	33460.30
570.13	33425.19
570.30	32879.85
570.46	33235.61
570.62	33083.47
570.78	33158.37
570.95	33610.09
571.11	33294.12
571.27	33141.99
571.43	33123.26
571.60	33472.00
571.76	33214.54
571.92	33684.99
572.09	33343.27
572.25	33493.07
572.41	33174.75
572.57	33242.63
572.74	33638.18
572.90	32950.06
573.06	33617.11
573.22	33212.20
573.38	33205.18
573.55	33401.79
573.71	33743.50
573.87	33497.75
574.03	33151.35
574.20	33605.41
574.36	33366.68
574.52	33635.84
574.68	33420.51
574.84	33642.86
575.01	33457.96
575.17	33476.68
575.33	33486.04
575.49	33390.08
575.65	33621.80
575.82	33369.02
575.98	33785.63
576.14	33757.55
576.30	33696.69
576.46	33600.73
576.62	33816.06
576.79	33574.98
576.95	33633.50
577.11	33715.42
577.27	33481.36
577.43	33837.12
577.59	33567.96
577.75	33897.98
577.92	33610.09
578.08	33214.54
578.24	33532.86
578.40	33635.84
578.56	33715.42
578.72	33738.82
578.88	33947.13
579.04	33958.83
579.21	33582.01
579.37	33790.31
579.53	33879.25
579.69	33614.77
579.85	33703.71
580.01	33778.61
580.17	33872.23
580.33	33642.86
580.49	33865.21
580.65	34092.24
580.82	33869.89
580.98	33942.45
581.14	33745.84
581.30	34010.32
581.46	33809.04
581.62	33582.01
581.78	33256.67
581.94	33865.21
582.10	33666.27
582.26	33902.66
582.42	34057.14
582.58	33799.68
582.74	34134.37
582.90	33776.27
583.06	34164.80
583.22	33745.84
583.38	34422.26
583.54	33977.56
583.70	33186.46
583.86	33795.00
584.02	33832.44
584.18	34368.43
584.34	34188.21
584.50	34328.64
584.66	33244.97
584.82	33773.93
584.98	34026.71
585.14	33968.19
585.30	33567.96
585.46	33638.18
585.62	33706.05
585.78	33668.61
585.94	33937.77
586.10	34319.28
586.26	34066.50
586.42	34199.91
586.58	34082.88
586.74	33848.83
586.90	33715.42
587.06	33446.26
587.22	34160.12
587.38	33603.07
587.54	33830.10
587.70	34029.05
587.86	34094.58
588.02	33813.72
588.18	34029.05
588.34	34050.11
588.49	33984.58
588.65	33982.24
588.81	34085.22
588.97	33780.95
589.13	34108.63
589.29	33752.87
589.45	34291.19
589.61	34106.29
589.77	34323.96
589.93	34410.56
590.08	34394.17
590.24	34476.09
590.40	33755.21
590.56	34249.06
590.72	33944.79
590.88	34061.82
591.04	34033.73
591.20	34078.20
591.35	34417.58
591.51	34459.71
