SpectraSuite Data File
++++++++++++++++++++++++++++++++++++
Date: Fri Oct 04 11:40:04 GMT-05:00 2013
User: price-jones
Dark Spectrum Present: No
Reference Spectrum Present: No
Number of Sampled Component Spectra: 1
Spectrometers: USB2+H05261
Integration Time (usec): 100000 (USB2+H05261)
Spectra Averaged: 1 (USB2+H05261)
Boxcar Smoothing: 0 (USB2+H05261)
Correct for Electrical Dark: No (USB2+H05261)
Strobe/Lamp Enabled: No (USB2+H05261)
Correct for Detector Non-linearity: No (USB2+H05261)
Correct for Stray Light: No (USB2+H05261)
Number of Pixels in Processed Spectrum: 2048
>>>>>Begin Processed Spectral Data<<<<<
365.73	28.09
365.92	28.09
366.12	28.09
366.32	0.00
366.52	0.00
366.72	0.00
366.91	0.00
367.11	0.00
367.31	0.00
367.51	0.00
367.70	0.00
367.90	4.68
368.10	9.36
368.30	0.00
368.49	0.00
368.69	0.00
368.89	0.00
369.09	0.00
369.28	0.00
369.48	18.72
369.68	0.00
369.87	0.00
370.07	0.00
370.27	39.79
370.47	0.00
370.66	0.00
370.86	23.41
371.06	93.62
371.25	74.90
371.45	51.49
371.65	86.60
371.84	25.75
372.04	93.62
372.24	91.28
372.44	51.49
372.63	135.75
372.83	161.50
373.03	147.45
373.22	107.66
373.42	102.98
373.62	102.98
373.81	119.37
374.01	147.45
374.21	184.90
374.40	166.18
374.60	205.97
374.79	159.16
374.99	196.60
375.19	107.66
375.38	210.65
375.58	32.77
375.78	166.18
375.97	117.03
376.17	198.95
376.37	128.73
376.56	119.37
376.76	39.79
376.95	105.32
377.15	189.58
377.35	133.41
377.54	105.32
377.74	44.47
377.93	58.51
378.13	63.19
378.33	135.75
378.52	117.03
378.72	124.05
378.91	135.75
379.11	126.39
379.31	84.26
379.50	60.85
379.70	84.26
379.89	100.64
380.09	187.24
380.28	131.07
380.48	131.07
380.68	91.28
380.87	131.07
381.07	110.01
381.26	112.35
381.46	81.92
381.65	138.09
381.85	152.13
382.04	65.54
382.24	133.41
382.43	126.39
382.63	81.92
382.83	126.39
383.02	124.05
383.22	79.58
383.41	46.81
383.61	189.58
383.80	114.69
384.00	84.26
384.19	74.90
384.39	56.17
384.58	37.45
384.78	138.09
384.97	102.98
385.17	110.01
385.36	98.30
385.56	135.75
385.75	58.51
385.95	77.24
386.14	159.16
386.34	95.96
386.53	196.60
386.72	84.26
386.92	100.64
387.11	175.54
387.31	189.58
387.50	145.11
387.70	60.85
387.89	156.82
388.09	88.94
388.28	121.71
388.48	105.32
388.67	140.43
388.86	67.88
389.06	91.28
389.25	112.35
389.45	180.22
389.64	91.28
389.84	119.37
390.03	95.96
390.22	140.43
390.42	135.75
390.61	173.20
390.81	86.60
391.00	147.45
391.19	173.20
391.39	177.88
391.58	166.18
391.78	166.18
391.97	102.98
392.16	32.77
392.36	95.96
392.55	117.03
392.75	126.39
392.94	131.07
393.13	128.73
393.33	39.79
393.52	70.22
393.71	212.99
393.91	51.49
394.10	135.75
394.29	100.64
394.49	86.60
394.68	142.77
394.88	145.11
395.07	60.85
395.26	163.84
395.46	149.79
395.65	198.95
395.84	131.07
396.04	210.65
396.23	46.81
396.42	63.19
396.62	114.69
396.81	133.41
397.00	112.35
397.19	110.01
397.39	140.43
397.58	138.09
397.77	93.62
397.97	124.05
398.16	126.39
398.35	117.03
398.55	60.85
398.74	149.79
398.93	177.88
399.12	175.54
399.32	182.56
399.51	131.07
399.70	147.45
399.90	154.48
400.09	46.81
400.28	60.85
400.47	95.96
400.67	159.16
400.86	114.69
401.05	84.26
401.24	128.73
401.44	175.54
401.63	142.77
401.82	81.92
402.01	93.62
402.21	168.52
402.40	194.26
402.59	142.77
402.78	117.03
402.97	138.09
403.17	173.20
403.36	93.62
403.55	135.75
403.74	128.73
403.93	201.29
404.13	271.50
404.32	257.46
404.51	241.08
404.70	217.67
404.89	145.11
405.09	208.31
405.28	135.75
405.47	166.18
405.66	112.35
405.85	126.39
406.05	133.41
406.24	198.95
406.43	114.69
406.62	166.18
406.81	210.65
407.00	166.18
407.20	154.48
407.39	124.05
407.58	147.45
407.77	175.54
407.96	117.03
408.15	128.73
408.34	166.18
408.54	72.56
408.73	142.77
408.92	152.13
409.11	98.30
409.30	128.73
409.49	138.09
409.68	220.01
409.87	114.69
410.07	105.32
410.26	117.03
410.45	147.45
410.64	170.86
410.83	107.66
411.02	131.07
411.21	140.43
411.40	147.45
411.59	102.98
411.78	161.50
411.98	133.41
412.17	159.16
412.36	119.37
412.55	142.77
412.74	168.52
412.93	194.26
413.12	114.69
413.31	220.01
413.50	147.45
413.69	126.39
413.88	184.90
414.07	198.95
414.26	173.20
414.45	152.13
414.64	154.48
414.83	133.41
415.02	147.45
415.22	149.79
415.41	117.03
415.60	194.26
415.79	142.77
415.98	121.71
416.17	177.88
416.36	163.84
416.55	168.52
416.74	175.54
416.93	175.54
417.12	74.90
417.31	112.35
417.50	177.88
417.69	278.52
417.88	166.18
418.07	88.94
418.26	135.75
418.45	166.18
418.64	236.39
418.83	154.48
419.02	105.32
419.21	175.54
419.39	131.07
419.58	212.99
419.77	187.24
419.96	196.60
420.15	175.54
420.34	159.16
420.53	203.63
420.72	241.08
420.91	154.48
421.10	128.73
421.29	191.92
421.48	117.03
421.67	121.71
421.86	170.86
422.05	81.92
422.24	170.86
422.43	234.05
422.61	166.18
422.80	168.52
422.99	145.11
423.18	112.35
423.37	220.01
423.56	220.01
423.75	259.80
423.94	135.75
424.13	128.73
424.32	147.45
424.50	147.45
424.69	91.28
424.88	224.69
425.07	168.52
425.26	184.90
425.45	205.97
425.64	88.94
425.83	191.92
426.01	131.07
426.20	131.07
426.39	147.45
426.58	217.67
426.77	156.82
426.96	227.03
427.15	194.26
427.33	177.88
427.52	105.32
427.71	173.20
427.90	149.79
428.09	210.65
428.28	149.79
428.46	201.29
428.65	184.90
428.84	128.73
429.03	262.14
429.22	98.30
429.40	238.73
429.59	168.52
429.78	189.58
429.97	163.84
430.16	107.66
430.34	163.84
430.53	187.24
430.72	175.54
430.91	175.54
431.10	194.26
431.28	182.56
431.47	168.52
431.66	135.75
431.85	184.90
432.03	142.77
432.22	203.63
432.41	117.03
432.60	234.05
432.79	180.22
432.97	229.37
433.16	145.11
433.35	168.52
433.54	138.09
433.72	163.84
433.91	168.52
434.10	184.90
434.28	236.39
434.47	217.67
434.66	231.71
434.85	163.84
435.03	278.52
435.22	638.97
435.41	1142.18
435.59	1231.12
435.78	866.00
435.97	580.45
436.16	337.04
436.34	238.73
436.53	203.63
436.72	217.67
436.90	149.79
437.09	163.84
437.28	191.92
437.46	212.99
437.65	159.16
437.84	180.22
438.02	220.01
438.21	198.95
438.40	161.50
438.58	175.54
438.77	217.67
438.96	187.24
439.14	149.79
439.33	208.31
439.52	189.58
439.70	229.37
439.89	173.20
440.08	217.67
440.26	159.16
440.45	210.65
440.63	187.24
440.82	238.73
441.01	222.35
441.19	215.33
441.38	222.35
441.57	210.65
441.75	271.50
441.94	189.58
442.12	187.24
442.31	182.56
442.50	124.05
442.68	142.77
442.87	222.35
443.05	180.22
443.24	168.52
443.43	222.35
443.61	217.67
443.80	252.78
443.98	184.90
444.17	215.33
444.35	138.09
444.54	175.54
444.73	205.97
444.91	229.37
445.10	145.11
445.28	91.28
445.47	191.92
445.65	114.69
445.84	177.88
446.02	182.56
446.21	126.39
446.39	187.24
446.58	212.99
446.77	194.26
446.95	147.45
447.14	196.60
447.32	161.50
447.51	180.22
447.69	229.37
447.88	203.63
448.06	215.33
448.25	175.54
448.43	187.24
448.62	215.33
448.80	189.58
448.99	198.95
449.17	180.22
449.36	175.54
449.54	198.95
449.73	196.60
449.91	198.95
450.10	248.10
450.28	189.58
450.46	271.50
450.65	269.16
450.83	273.84
451.02	271.50
451.20	210.65
451.39	255.12
451.57	156.82
451.76	234.05
451.94	210.65
452.13	252.78
452.31	257.46
452.49	191.92
452.68	203.63
452.86	187.24
453.05	170.86
453.23	173.20
453.42	163.84
453.60	194.26
453.78	257.46
453.97	182.56
454.15	201.29
454.34	201.29
454.52	191.92
454.70	259.80
454.89	215.33
455.07	224.69
455.26	203.63
455.44	250.44
455.62	203.63
455.81	189.58
455.99	191.92
456.17	203.63
456.36	248.10
456.54	187.24
456.73	196.60
456.91	266.82
457.09	252.78
457.28	236.39
457.46	180.22
457.64	208.31
457.83	187.24
458.01	154.48
458.19	161.50
458.38	283.20
458.56	304.27
458.74	210.65
458.93	196.60
459.11	322.99
459.29	149.79
459.48	154.48
459.66	241.08
459.84	208.31
460.03	294.91
460.21	269.16
460.39	205.97
460.57	276.18
460.76	215.33
460.94	210.65
461.12	236.39
461.31	255.12
461.49	168.52
461.67	170.86
461.85	182.56
462.04	203.63
462.22	709.18
462.40	234.05
462.59	283.20
462.77	236.39
462.95	217.67
463.13	189.58
463.32	262.14
463.50	210.65
463.68	215.33
463.86	257.46
464.05	285.55
464.23	257.46
464.41	149.79
464.59	147.45
464.78	145.11
464.96	208.31
465.14	280.86
465.32	149.79
465.50	191.92
465.69	196.60
465.87	187.24
466.05	229.37
466.23	149.79
466.41	175.54
466.60	177.88
466.78	177.88
466.96	283.20
467.14	222.35
467.32	311.29
467.51	215.33
467.69	184.90
467.87	241.08
468.05	271.50
468.23	297.25
468.41	245.76
468.60	194.26
468.78	248.10
468.96	243.42
469.14	259.80
469.32	210.65
469.50	175.54
469.69	201.29
469.87	248.10
470.05	250.44
470.23	147.45
470.41	138.09
470.59	257.46
470.77	229.37
470.95	248.10
471.14	138.09
471.32	259.80
471.50	287.89
471.68	227.03
471.86	208.31
472.04	191.92
472.22	215.33
472.40	173.20
472.58	182.56
472.77	248.10
472.95	257.46
473.13	250.44
473.31	248.10
473.49	257.46
473.67	215.33
473.85	222.35
474.03	257.46
474.21	227.03
474.39	229.37
474.57	231.71
474.75	245.76
474.93	210.65
475.12	210.65
475.30	250.44
475.48	346.40
475.66	271.50
475.84	184.90
476.02	187.24
476.20	236.39
476.38	133.41
476.56	276.18
476.74	196.60
476.92	273.84
477.10	208.31
477.28	294.91
477.46	257.46
477.64	313.63
477.82	308.95
478.00	231.71
478.18	217.67
478.36	262.14
478.54	250.44
478.72	264.48
478.90	257.46
479.08	212.99
479.26	229.37
479.44	248.10
479.62	212.99
479.80	248.10
479.98	177.88
480.16	252.78
480.34	280.86
480.52	224.69
480.70	285.55
480.88	231.71
481.06	196.60
481.24	222.35
481.41	315.97
481.59	271.50
481.77	264.48
481.95	201.29
482.13	367.46
482.31	318.31
482.49	290.23
482.67	339.38
482.85	255.12
483.03	306.61
483.21	332.36
483.39	287.89
483.57	264.48
483.74	353.42
483.92	355.76
484.10	252.78
484.28	374.49
484.46	444.70
484.64	320.65
484.82	404.91
485.00	362.78
485.18	337.04
485.35	330.02
485.53	341.72
485.71	353.42
485.89	383.85
486.07	388.53
486.25	372.15
486.43	414.27
486.61	449.38
486.78	390.87
486.96	383.85
487.14	346.40
487.32	344.06
487.50	411.93
487.68	447.04
487.85	358.10
488.03	465.77
488.21	507.90
488.39	341.72
488.57	409.59
488.75	313.63
488.92	645.99
489.10	369.80
489.28	503.22
489.46	337.04
489.64	449.38
489.81	423.64
489.99	388.53
490.17	444.70
490.35	433.00
490.53	449.38
490.70	381.51
490.88	360.44
491.06	374.49
491.24	411.93
491.41	472.79
491.59	388.53
491.77	318.31
491.95	425.98
492.13	407.25
492.30	404.91
492.48	435.34
492.66	409.59
492.84	369.80
493.01	425.98
493.19	409.59
493.37	379.17
493.54	395.55
493.72	407.25
493.90	383.85
494.08	400.23
494.25	386.19
494.43	393.21
494.61	344.06
494.79	355.76
494.96	414.27
495.14	383.85
495.32	308.95
495.49	404.91
495.67	381.51
495.85	334.70
496.02	334.70
496.20	421.30
496.38	395.55
496.55	475.13
496.73	400.23
496.91	381.51
497.09	486.83
497.26	433.00
497.44	313.63
497.62	315.97
497.79	337.04
497.97	339.38
498.14	337.04
498.32	393.21
498.50	306.61
498.67	372.15
498.85	440.02
499.03	376.83
499.20	322.99
499.38	341.72
499.56	360.44
499.73	348.74
499.91	376.83
500.08	386.19
500.26	395.55
500.44	341.72
500.61	430.66
500.79	468.11
500.97	411.93
501.14	402.57
501.32	301.93
501.49	402.57
501.67	320.65
501.84	351.08
502.02	348.74
502.20	383.85
502.37	416.62
502.55	355.76
502.72	437.68
502.90	423.64
503.07	348.74
503.25	301.93
503.43	362.78
503.60	407.25
503.78	362.78
503.95	369.80
504.13	365.12
504.30	433.00
504.48	416.62
504.65	369.80
504.83	341.72
505.01	381.51
505.18	351.08
505.36	421.30
505.53	320.65
505.71	395.55
505.88	416.62
506.06	339.38
506.23	433.00
506.41	308.95
506.58	433.00
506.76	341.72
506.93	348.74
507.11	383.85
507.28	397.89
507.46	337.04
507.63	313.63
507.81	435.34
507.98	339.38
508.16	301.93
508.33	400.23
508.50	313.63
508.68	444.70
508.85	411.93
509.03	325.33
509.20	322.99
509.38	383.85
509.55	430.66
509.73	379.17
509.90	468.11
510.08	383.85
510.25	428.32
510.42	315.97
510.60	383.85
510.77	386.19
510.95	437.68
511.12	381.51
511.30	367.46
511.47	365.12
511.64	409.59
511.82	386.19
511.99	245.76
512.17	428.32
512.34	358.10
512.51	400.23
512.69	440.02
512.86	388.53
513.04	344.06
513.21	411.93
513.38	400.23
513.56	414.27
513.73	362.78
513.90	376.83
514.08	423.64
514.25	425.98
514.43	360.44
514.60	376.83
514.77	440.02
514.95	428.32
515.12	372.15
515.29	475.13
515.47	479.81
515.64	388.53
515.81	374.49
515.99	444.70
516.16	402.57
516.33	390.87
516.51	376.83
516.68	397.89
516.85	376.83
517.03	388.53
517.20	416.62
517.37	379.17
517.54	386.19
517.72	362.78
517.89	404.91
518.06	334.70
518.24	440.02
518.41	449.38
518.58	351.08
518.75	311.29
518.93	388.53
519.10	318.31
519.27	400.23
519.45	325.33
519.62	390.87
519.79	451.72
519.96	411.93
520.14	458.74
520.31	400.23
520.48	374.49
520.65	360.44
520.83	465.77
521.00	416.62
521.17	353.42
521.34	477.47
521.52	430.66
521.69	430.66
521.86	395.55
522.03	472.79
522.20	383.85
522.38	428.32
522.55	425.98
522.72	374.49
522.89	447.04
523.07	496.19
523.24	397.89
523.41	318.31
523.58	358.10
523.75	461.09
523.92	299.59
524.10	367.46
524.27	444.70
524.44	411.93
524.61	397.89
524.78	409.59
524.96	409.59
525.13	435.34
525.30	449.38
525.47	521.94
525.64	355.76
525.81	379.17
525.98	430.66
526.16	416.62
526.33	451.72
526.50	479.81
526.67	334.70
526.84	463.43
527.01	425.98
527.18	442.36
527.36	451.72
527.53	376.83
527.70	456.40
527.87	414.27
528.04	496.19
528.21	400.23
528.38	444.70
528.55	440.02
528.72	486.83
528.89	402.57
529.07	433.00
529.24	451.72
529.41	517.26
529.58	388.53
529.75	449.38
529.92	440.02
530.09	454.06
530.26	519.60
530.43	421.30
530.60	402.57
530.77	477.47
530.94	433.00
531.11	395.55
531.28	475.13
531.46	416.62
531.63	470.45
531.80	463.43
531.97	479.81
532.14	449.38
532.31	428.32
532.48	503.22
532.65	461.09
532.82	400.23
532.99	507.90
533.16	449.38
533.33	468.11
533.50	493.85
533.67	484.49
533.84	496.19
534.01	519.60
534.18	425.98
534.35	416.62
534.52	433.00
534.69	510.24
534.86	519.60
535.03	528.96
535.20	486.83
535.37	582.79
535.54	449.38
535.71	491.51
535.88	550.03
536.05	489.17
536.22	451.72
536.38	475.13
536.55	540.66
536.72	578.11
536.89	449.38
537.06	498.53
537.23	500.87
537.40	535.98
537.57	582.79
537.74	545.34
537.91	650.67
538.08	615.56
538.25	578.11
538.42	566.41
538.59	634.29
538.75	582.79
538.92	634.29
539.09	634.29
539.26	655.35
539.43	648.33
539.60	697.48
539.77	784.08
539.94	760.67
540.11	840.25
540.28	866.00
540.44	882.38
540.61	926.85
540.78	1029.84
540.95	1083.67
541.12	1282.61
541.29	1320.06
541.46	1483.90
541.62	1420.71
541.79	1427.73
541.96	1329.42
542.13	1392.62
542.30	1336.45
542.47	1331.76
542.63	1259.21
542.80	1308.36
542.97	1310.70
543.14	1252.19
543.31	1343.47
543.48	1315.38
543.64	1263.89
543.81	1322.40
543.98	1306.02
544.15	1179.63
544.32	1219.42
544.48	1270.91
544.65	1179.63
544.82	1153.88
544.99	1308.36
545.16	1273.25
545.32	1219.42
545.49	1769.44
545.66	2677.57
545.83	3131.64
546.00	2832.05
546.16	2064.35
546.33	1533.05
546.50	1289.64
546.67	1144.52
546.83	1097.71
547.00	971.32
547.17	971.32
547.34	863.66
547.50	905.79
547.67	961.96
547.84	938.55
548.00	936.21
548.17	800.46
548.34	908.13
548.51	919.83
548.67	912.81
548.84	828.55
549.01	812.17
549.18	819.19
549.34	741.95
549.51	828.55
549.68	814.51
549.84	716.20
550.01	650.67
550.18	781.74
550.34	753.65
550.51	690.46
550.68	690.46
550.84	678.76
551.01	711.52
551.18	692.80
551.34	678.76
551.51	636.63
551.68	596.84
551.84	636.63
552.01	711.52
552.18	575.77
552.34	624.92
552.51	571.09
552.68	603.86
552.84	552.37
553.01	589.82
553.18	564.07
553.34	559.39
553.51	554.71
553.67	566.41
553.84	676.41
554.01	608.54
554.17	521.94
554.34	475.13
554.51	587.47
554.67	521.94
554.84	472.79
555.00	486.83
555.17	442.36
555.33	519.60
555.50	479.81
555.67	491.51
555.83	486.83
556.00	503.22
556.16	660.03
556.33	500.87
556.50	507.90
556.66	503.22
556.83	545.34
556.99	411.93
557.16	362.78
557.32	416.62
557.49	428.32
557.65	379.17
557.82	500.87
557.98	521.94
558.15	507.90
558.32	440.02
558.48	395.55
558.65	465.77
558.81	491.51
558.98	423.64
559.14	465.77
559.31	477.47
559.47	465.77
559.64	397.89
559.80	423.64
559.97	435.34
560.13	463.43
560.30	465.77
560.46	433.00
560.63	454.06
560.79	447.04
560.96	486.83
561.12	428.32
561.29	442.36
561.45	407.25
561.61	433.00
561.78	510.24
561.94	437.68
562.11	493.85
562.27	423.64
562.44	521.94
562.60	491.51
562.77	430.66
562.93	470.45
563.10	510.24
563.26	465.77
563.42	575.77
563.59	510.24
563.75	447.04
563.92	456.40
564.08	507.90
564.24	465.77
564.41	519.60
564.57	461.09
564.74	442.36
564.90	456.40
565.07	435.34
565.23	503.22
565.39	447.04
565.56	461.09
565.72	437.68
565.88	493.85
566.05	498.53
566.21	451.72
566.38	430.66
566.54	486.83
566.70	479.81
566.87	470.45
567.03	400.23
567.19	435.34
567.36	404.91
567.52	411.93
567.68	468.11
567.85	454.06
568.01	442.36
568.17	454.06
568.34	447.04
568.50	416.62
568.66	442.36
568.83	528.96
568.99	472.79
569.15	388.53
569.32	440.02
569.48	477.47
569.64	416.62
569.81	456.40
569.97	404.91
570.13	425.98
570.30	468.11
570.46	444.70
570.62	358.10
570.78	535.98
570.95	423.64
571.11	442.36
571.27	472.79
571.43	388.53
571.60	402.57
571.76	423.64
571.92	421.30
572.09	456.40
572.25	470.45
572.41	411.93
572.57	456.40
572.74	524.28
572.90	397.89
573.06	458.74
573.22	500.87
573.38	479.81
573.55	416.62
573.71	456.40
573.87	449.38
574.03	395.55
574.20	477.47
574.36	482.15
574.52	449.38
574.68	521.94
574.84	475.13
575.01	418.96
575.17	477.47
575.33	447.04
575.49	458.74
575.65	472.79
575.82	486.83
575.98	517.26
576.14	472.79
576.30	524.28
576.46	641.31
576.62	875.36
576.79	1006.43
576.95	798.12
577.11	702.16
577.27	564.07
577.43	545.34
577.59	547.69
577.75	512.58
577.92	507.90
578.08	468.11
578.24	472.79
578.40	500.87
578.56	685.78
578.72	889.40
578.88	936.21
579.04	800.46
579.21	648.33
579.37	608.54
579.53	578.11
579.69	615.56
579.85	594.50
580.01	709.18
580.17	571.09
580.33	573.43
580.49	617.90
580.65	608.54
580.82	507.90
580.98	517.26
581.14	552.37
581.30	599.18
581.46	538.32
581.62	547.69
581.78	554.71
581.94	589.82
582.10	589.82
582.26	608.54
582.42	573.43
582.58	732.59
582.74	535.98
582.90	631.94
583.06	662.37
583.22	655.35
583.38	664.71
583.54	676.41
583.70	683.44
583.86	711.52
584.02	575.77
584.18	653.01
584.34	636.63
584.50	566.41
584.66	622.58
584.82	603.86
584.98	554.71
585.14	507.90
585.30	589.82
585.46	524.28
585.62	496.19
585.78	580.45
585.94	631.94
586.10	533.64
586.26	660.03
586.42	664.71
586.58	629.60
586.74	650.67
586.90	692.80
587.06	746.63
587.22	819.19
587.38	770.04
587.54	737.27
587.70	702.16
587.86	629.60
588.02	641.31
588.18	608.54
588.34	510.24
588.49	568.75
588.65	557.05
588.81	571.09
588.97	447.04
589.13	524.28
589.29	528.96
589.45	531.30
589.61	526.62
589.77	580.45
589.93	535.98
590.08	533.64
590.24	608.54
590.40	594.50
590.56	596.84
590.72	512.58
590.88	538.32
591.04	587.47
591.20	648.33
591.35	629.60
591.51	526.62
591.67	514.92
591.83	543.00
591.99	587.47
592.15	606.20
592.31	662.37
592.46	627.26
592.62	645.99
592.78	601.52
592.94	734.93
593.10	671.73
593.26	615.56
593.41	660.03
593.57	613.22
593.73	634.29
593.89	585.13
594.05	547.69
594.20	514.92
594.36	489.17
594.52	505.56
594.68	535.98
594.84	510.24
594.99	557.05
595.15	561.73
595.31	489.17
595.47	589.82
595.62	484.49
595.78	451.72
595.94	479.81
596.10	669.39
596.25	491.51
596.41	599.18
596.57	428.32
596.73	486.83
596.88	484.49
597.04	545.34
597.20	475.13
597.36	528.96
597.51	479.81
597.67	475.13
597.83	500.87
597.99	552.37
598.14	512.58
598.30	545.34
598.46	582.79
598.61	543.00
598.77	638.97
598.93	491.51
599.09	540.66
599.24	568.75
599.40	596.84
599.56	582.79
599.71	442.36
599.87	514.92
600.03	550.03
600.18	507.90
600.34	587.47
600.50	540.66
600.65	503.22
600.81	582.79
600.97	489.17
601.12	463.43
601.28	491.51
601.44	484.49
601.59	470.45
601.75	449.38
601.91	463.43
602.06	510.24
602.22	533.64
602.37	461.09
602.53	376.83
602.69	489.17
602.84	428.32
603.00	489.17
603.16	547.69
603.31	524.28
603.47	507.90
603.62	451.72
603.78	414.27
603.94	425.98
604.09	444.70
604.25	557.05
604.40	477.47
604.56	533.64
604.71	510.24
604.87	421.30
605.03	470.45
605.18	440.02
605.34	512.58
605.49	461.09
605.65	531.30
605.80	482.15
605.96	437.68
606.12	521.94
606.27	526.62
606.43	449.38
606.58	500.87
606.74	477.47
606.89	528.96
607.05	472.79
607.20	566.41
607.36	599.18
607.51	489.17
607.67	545.34
607.82	653.01
607.98	608.54
608.13	615.56
608.29	540.66
608.44	603.86
608.60	641.31
608.75	657.69
608.91	622.58
609.06	676.41
609.22	636.63
609.37	795.78
609.53	767.70
609.68	763.01
609.84	887.06
609.99	1069.62
610.15	1193.67
610.30	1282.61
610.46	1483.90
610.61	1860.73
610.76	2223.51
610.92	2642.46
