SpectraSuite Data File
++++++++++++++++++++++++++++++++++++
Date: Fri Oct 04 11:39:26 GMT-05:00 2013
User: price-jones
Dark Spectrum Present: No
Reference Spectrum Present: No
Number of Sampled Component Spectra: 1
Spectrometers: USB2+H05261
Integration Time (usec): 100000 (USB2+H05261)
Spectra Averaged: 1 (USB2+H05261)
Boxcar Smoothing: 0 (USB2+H05261)
Correct for Electrical Dark: No (USB2+H05261)
Strobe/Lamp Enabled: No (USB2+H05261)
Correct for Detector Non-linearity: No (USB2+H05261)
Correct for Stray Light: No (USB2+H05261)
Number of Pixels in Processed Spectrum: 2048
>>>>>Begin Processed Spectral Data<<<<<
365.73	39.79
365.92	39.79
366.12	39.79
366.32	0.00
366.52	0.00
366.72	0.00
366.91	0.00
367.11	0.00
367.31	25.75
367.51	0.00
367.70	0.00
367.90	0.00
368.10	0.00
368.30	0.00
368.49	0.00
368.69	30.43
368.89	72.56
369.09	0.00
369.28	0.00
369.48	0.00
369.68	30.43
369.87	84.26
370.07	4.68
370.27	67.88
370.47	23.41
370.66	147.45
370.86	243.42
371.06	278.52
371.25	283.20
371.45	180.22
371.65	241.08
371.84	140.43
372.04	114.69
372.24	208.31
372.44	210.65
372.63	245.76
372.83	283.20
373.03	220.01
373.22	255.12
373.42	292.57
373.62	238.73
373.81	285.55
374.01	301.93
374.21	297.25
374.40	287.89
374.60	360.44
374.79	290.23
374.99	292.57
375.19	238.73
375.38	346.40
375.58	306.61
375.78	285.55
375.97	327.68
376.17	369.80
376.37	322.99
376.56	362.78
376.76	280.86
376.95	294.91
377.15	339.38
377.35	304.27
377.54	341.72
377.74	353.42
377.93	304.27
378.13	299.59
378.33	222.35
378.52	339.38
378.72	367.46
378.91	351.08
379.11	334.70
379.31	306.61
379.50	348.74
379.70	346.40
379.89	409.59
380.09	292.57
380.28	311.29
380.48	365.12
380.68	358.10
380.87	236.39
381.07	379.17
381.26	365.12
381.46	358.10
381.65	304.27
381.85	367.46
382.04	358.10
382.24	327.68
382.43	304.27
382.63	386.19
382.83	383.85
383.02	395.55
383.22	386.19
383.41	341.72
383.61	386.19
383.80	344.06
384.00	395.55
384.19	353.42
384.39	388.53
384.58	402.57
384.78	402.57
384.97	433.00
385.17	484.49
385.36	409.59
385.56	395.55
385.75	367.46
385.95	369.80
386.14	428.32
386.34	369.80
386.53	465.77
386.72	428.32
386.92	418.96
387.11	411.93
387.31	477.47
387.50	496.19
387.70	454.06
387.89	454.06
388.09	362.78
388.28	433.00
388.48	451.72
388.67	428.32
388.86	447.04
389.06	407.25
389.25	528.96
389.45	535.98
389.64	491.51
389.84	486.83
390.03	540.66
390.22	468.11
390.42	454.06
390.61	517.26
390.81	514.92
391.00	461.09
391.19	503.22
391.39	472.79
391.58	479.81
391.78	491.51
391.97	543.00
392.16	489.17
392.36	540.66
392.55	458.74
392.75	596.84
392.94	486.83
393.13	519.60
393.33	587.47
393.52	557.05
393.71	596.84
393.91	627.26
394.10	585.13
394.29	510.24
394.49	610.88
394.68	552.37
394.88	582.79
395.07	608.54
395.26	585.13
395.46	667.05
395.65	697.48
395.84	620.24
396.04	718.54
396.23	688.12
396.42	631.94
396.62	608.54
396.81	662.37
397.00	627.26
397.19	706.84
397.39	681.10
397.58	681.10
397.77	667.05
397.97	676.41
398.16	638.97
398.35	713.86
398.55	681.10
398.74	807.48
398.93	779.40
399.12	683.44
399.32	683.44
399.51	697.48
399.70	744.29
399.90	744.29
400.09	786.42
400.28	788.76
400.47	819.19
400.67	746.63
400.86	744.29
401.05	819.19
401.24	765.36
401.44	809.83
401.63	889.40
401.82	915.15
402.01	809.83
402.21	809.83
402.40	840.25
402.59	887.06
402.78	877.70
402.97	887.06
403.17	903.45
403.36	873.02
403.55	947.92
403.74	898.77
403.93	957.28
404.13	1149.20
404.32	1022.81
404.51	957.28
404.70	1088.35
404.89	1057.92
405.09	1100.05
405.28	1015.79
405.47	983.02
405.66	1027.50
405.85	1032.18
406.05	1048.56
406.24	1001.75
406.43	1114.10
406.62	1137.50
406.81	1200.69
407.00	1135.16
407.20	1074.31
407.39	1184.31
407.58	1167.93
407.77	1252.19
407.96	1224.10
408.15	1221.76
408.34	1261.55
408.54	1240.48
408.73	1261.55
408.92	1280.27
409.11	1380.92
409.30	1277.93
409.49	1301.34
409.68	1390.28
409.87	1334.11
410.07	1502.62
410.26	1425.39
410.45	1427.73
410.64	1481.56
410.83	1502.62
411.02	1371.55
411.21	1519.01
411.40	1474.54
411.59	1481.56
411.78	1614.97
411.98	1558.80
412.17	1554.12
412.36	1551.78
412.55	1643.06
412.74	1598.59
412.93	1661.78
413.12	1586.88
413.31	1813.92
413.50	1703.91
413.69	1739.02
413.88	1729.66
414.07	1739.02
414.26	1851.36
414.45	1685.19
414.64	1813.92
414.83	1811.57
415.02	1902.86
415.22	1820.94
415.41	2029.24
415.60	1851.36
415.79	1933.28
415.98	1977.75
416.17	2090.10
416.36	1994.14
416.55	2036.27
416.74	2097.12
416.93	2062.01
417.12	2040.95
417.31	2118.18
417.50	2150.95
417.69	2286.70
417.88	2139.25
418.07	2211.81
418.26	2230.53
418.45	2366.28
418.64	2354.58
418.83	2333.51
419.02	2310.11
419.21	2270.32
419.39	2267.98
419.58	2249.25
419.77	2380.32
419.96	2349.90
420.15	2455.22
420.34	2396.71
420.53	2471.61
420.72	2424.80
420.91	2452.88
421.10	2511.39
421.29	2527.78
421.48	2518.42
421.67	2576.93
421.86	2471.61
422.05	2597.99
422.24	2455.22
422.43	2487.99
422.61	2586.29
422.80	2534.80
422.99	2724.38
423.18	2605.02
423.37	2588.63
423.56	2710.34
423.75	2595.65
423.94	2700.98
424.13	2459.90
424.32	2513.74
424.50	2672.89
424.69	2597.99
424.88	2738.43
425.07	2651.83
425.26	2626.08
425.45	2651.83
425.64	2700.98
425.83	2642.46
426.01	2733.75
426.20	2698.64
426.39	2614.38
426.58	2773.53
426.77	2635.44
426.96	2806.30
427.15	2722.04
427.33	2895.24
427.52	2794.60
427.71	2782.90
427.90	2759.49
428.09	2794.60
428.28	2874.18
428.46	2902.26
428.65	2825.03
428.84	3014.61
429.03	2918.65
429.22	2841.41
429.40	2874.18
429.59	2871.84
429.78	2775.88
429.97	2869.50
430.16	2864.82
430.34	2864.82
430.53	3094.19
430.72	3033.33
430.91	3056.74
431.10	3023.97
431.28	3054.40
431.47	3042.70
431.66	3117.59
431.85	3056.74
432.03	3164.40
432.22	3349.31
432.41	3108.23
432.60	3276.75
432.79	3089.51
432.97	3180.79
433.16	3527.19
433.35	3159.72
433.54	3295.47
433.72	3297.81
433.91	3396.12
434.10	3351.65
434.28	3297.81
434.47	3281.43
434.66	3389.10
434.85	3403.14
435.03	3454.63
435.22	3597.40
435.41	3861.88
435.59	3978.91
435.78	3655.92
435.97	3655.92
436.16	3613.79
436.34	3510.80
436.53	3419.52
436.72	3574.00
436.90	3630.17
437.09	3541.23
437.28	3562.30
437.46	3599.74
437.65	3578.68
437.84	3557.61
438.02	3627.83
438.21	3602.08
438.40	3777.62
438.58	3784.65
438.77	3660.60
438.96	3714.43
439.14	3784.65
439.33	3901.67
439.52	3904.01
439.70	3922.74
439.89	3999.98
440.08	3988.27
440.26	3969.55
440.45	4016.36
440.63	4051.47
440.82	3981.25
441.01	3946.14
441.19	4084.23
441.38	4187.22
441.57	4210.62
441.75	4386.16
441.94	4236.37
442.12	4266.80
442.31	4449.36
442.50	4428.29
442.68	4301.90
442.87	4362.76
443.05	4379.14
443.24	4425.95
443.43	4514.89
443.61	4393.19
443.80	4578.09
443.98	4437.66
444.17	4255.09
444.35	4557.02
444.54	4334.67
444.73	4421.27
444.91	4547.66
445.10	4472.76
445.28	4528.94
445.47	4383.82
445.65	4596.81
445.84	4594.47
446.02	4531.28
446.21	4519.57
446.39	4514.89
446.58	4552.34
446.77	4624.90
446.95	4440.00
447.14	4461.06
447.32	4507.87
447.51	4554.68
447.69	4533.62
447.88	4603.83
448.06	4533.62
448.25	4386.16
448.43	4580.43
448.62	4554.68
448.80	4655.33
448.99	4718.52
449.17	4805.12
449.36	4648.30
449.54	4636.60
449.73	4884.70
449.91	4788.74
450.10	4856.61
450.28	4873.00
450.46	4882.36
450.65	4978.32
450.83	5015.77
451.02	5022.79
451.20	4910.44
451.39	4947.89
451.57	4819.16
451.76	4833.21
451.94	4908.10
452.13	4917.47
452.31	5060.24
452.49	4891.72
452.68	5029.81
452.86	4994.70
453.05	5144.50
453.23	5163.22
453.42	5020.45
453.60	5029.81
453.78	5067.26
453.97	4964.28
454.15	5067.26
454.34	5158.54
454.52	5135.14
454.70	5188.97
454.89	5172.58
455.07	5259.18
455.26	5242.80
455.44	5207.69
455.62	5275.57
455.81	5224.08
455.99	5366.85
456.17	5439.40
456.36	5423.02
456.54	5572.82
456.73	5504.94
456.91	5563.45
457.09	5526.00
457.28	5795.17
457.46	5446.43
457.64	5659.42
457.83	5528.35
458.01	5425.36
458.19	5851.34
458.38	5547.07
458.56	5757.72
458.74	5839.64
458.93	5551.75
459.11	5668.78
459.29	5790.49
459.48	5867.72
459.66	5720.27
459.84	5804.53
460.03	5893.47
460.21	5771.76
460.39	5832.62
460.57	5668.78
460.76	5795.17
460.94	5970.71
461.12	6010.50
461.31	5886.45
461.49	5867.72
461.67	6015.18
461.85	6190.72
462.04	6015.18
462.22	6260.93
462.40	6174.33
462.59	6010.50
462.77	6237.53
462.95	6193.06
463.13	6061.99
463.32	6230.51
463.50	6366.26
463.68	6200.08
463.86	6270.30
464.05	6214.12
464.23	6274.98
464.41	6326.47
464.59	6183.70
464.78	6427.11
464.96	6417.75
465.14	6310.08
465.32	6333.49
465.50	6394.34
465.69	6504.35
465.87	6298.38
466.05	6504.35
466.23	6413.07
466.41	6452.86
466.60	6644.78
466.78	6494.99
466.96	6464.56
467.14	6525.41
467.32	6686.91
467.51	6537.12
467.69	6471.58
467.87	6663.51
468.05	6541.80
468.23	6492.65
468.41	6637.76
468.60	6794.58
468.78	7026.29
468.96	6602.65
469.14	6743.08
469.32	6979.48
469.50	6703.29
469.69	6932.67
469.87	7033.31
470.05	6927.99
470.23	7040.33
470.41	6888.20
470.59	6937.35
470.77	7054.37
470.95	7126.93
471.14	7145.66
471.32	6939.69
471.50	7040.33
471.68	7068.42
471.86	7250.98
472.04	7166.72
472.22	7445.24
472.40	7246.30
472.58	7405.46
472.77	7370.35
472.95	7391.41
473.13	7801.01
473.31	7410.14
473.49	7527.16
473.67	7461.63
473.85	7611.42
474.03	7581.00
474.21	7611.42
474.39	7747.17
474.57	7817.39
474.75	7719.09
474.93	8105.28
475.12	7850.16
475.30	7845.48
475.48	7819.73
475.66	7934.42
475.84	8161.45
476.02	8119.32
476.20	8182.51
476.38	8449.33
476.56	8339.33
476.74	8245.71
476.92	8257.41
477.10	8404.86
477.28	8601.47
477.46	8538.27
477.64	8568.70
477.82	8779.35
478.00	8861.27
478.18	8971.27
478.36	8964.25
478.54	8975.95
478.72	9050.85
478.90	9062.55
479.08	9228.73
479.26	9247.46
479.44	9458.10
479.62	9523.64
479.80	9425.34
479.98	9542.36
480.16	9893.44
480.34	9696.84
480.52	9619.60
480.70	9689.82
480.88	9586.83
481.06	9832.59
481.24	9607.90
481.41	9870.04
481.59	9891.10
481.77	10225.80
481.95	10354.53
482.13	10153.24
482.31	10422.41
482.49	10621.35
482.67	10455.17
482.85	10850.72
483.03	10693.91
483.21	10754.76
483.39	11098.82
483.57	11150.31
483.74	10918.60
483.92	11098.82
484.10	11185.42
484.28	11288.40
484.46	11634.80
484.64	11658.21
484.82	11442.88
485.00	11445.22
485.18	11714.38
485.35	11742.47
485.53	11988.22
485.71	12042.06
485.89	12262.07
486.07	12229.30
486.25	12264.41
486.43	12262.07
486.61	12348.67
486.78	12723.15
486.96	12615.49
487.14	12795.71
487.32	12833.16
487.50	13025.08
487.68	13041.46
487.85	13186.58
488.03	13294.24
488.21	13617.24
488.39	13247.43
488.57	13415.95
488.75	13591.49
488.92	13991.72
489.10	13860.65
489.28	13963.64
489.46	14010.45
489.64	14045.55
489.81	14178.97
489.99	14530.05
490.17	14434.08
490.35	14902.19
490.53	14508.98
490.70	14941.98
490.88	14752.40
491.06	14836.66
491.24	14867.08
491.41	15267.31
491.59	15131.56
491.77	15143.27
491.95	15527.11
492.13	15534.14
492.30	15536.48
492.48	15627.76
492.66	15749.46
492.84	15737.76
493.01	15756.49
493.19	15899.26
493.37	16339.28
493.54	16133.31
493.72	16161.40
493.90	16306.51
494.08	16706.74
494.25	16657.59
494.43	16744.19
494.61	16814.41
494.79	17048.46
494.96	16847.18
495.14	16926.75
495.32	17179.53
495.49	17298.90
495.67	17263.79
495.85	17434.65
496.02	17439.33
496.20	17802.11
496.38	17743.60
496.55	17406.56
496.73	18150.85
496.91	18012.76
497.09	18043.19
497.26	18342.78
497.44	18019.78
497.62	18253.84
497.79	18436.40
497.97	18473.85
498.14	18625.98
498.32	18902.17
498.50	18609.60
498.67	18607.26
498.85	18668.11
499.03	19089.41
499.20	18829.61
499.38	19021.53
499.56	19396.02
499.73	19379.64
499.91	19527.09
500.08	19522.41
500.26	19332.82
500.44	19499.00
500.61	19714.33
500.79	19435.81
500.97	19932.00
501.14	19763.48
501.32	19927.32
501.49	19658.16
501.67	20086.48
501.84	20025.62
502.02	20039.67
502.20	20105.20
502.37	20669.27
502.55	20044.35
502.72	20470.33
502.90	20519.48
503.07	20198.82
503.25	20526.50
503.43	20629.48
503.60	20849.49
503.78	20807.36
503.95	20879.92
504.13	20664.59
504.30	20868.22
504.48	20713.74
504.65	21228.66
504.83	21338.66
505.01	21401.86
505.18	21308.24
505.36	21664.00
505.53	21413.56
505.71	21427.60
505.88	21827.84
506.06	21245.04
506.23	21944.86
506.41	21895.71
506.58	21624.21
506.76	21900.39
506.93	22225.73
507.11	21961.25
507.28	22150.83
507.46	21940.18
507.63	22146.15
507.81	22017.42
507.98	22370.84
508.16	22618.94
508.33	22242.11
508.50	22630.64
508.68	22909.16
508.85	23197.05
509.03	22939.59
509.20	23044.91
509.38	23075.34
509.55	22890.44
509.73	23150.24
509.90	23016.83
510.08	23159.60
510.25	22963.00
510.42	23480.25
510.60	23520.04
510.77	23515.36
510.95	23419.40
511.12	23407.70
511.30	23878.15
511.47	24215.18
511.64	23482.59
511.82	24100.50
511.99	23901.55
512.17	24063.05
512.34	24114.54
512.51	24236.25
512.69	23969.43
512.86	24329.87
513.04	24425.83
513.21	24711.38
513.38	24615.41
513.56	24435.19
513.73	24327.53
513.90	24519.45
514.08	24631.80
514.25	24678.61
514.43	24514.77
514.60	24802.66
514.77	25029.69
514.95	25006.28
515.12	25078.84
515.29	24889.26
515.47	24783.93
515.64	25116.29
515.81	25303.53
515.99	25825.47
516.16	25813.77
516.33	25544.61
516.51	25717.81
516.68	25717.81
516.85	25678.02
517.03	25565.67
517.20	25720.15
517.37	25968.24
517.54	25879.30
517.72	25802.07
517.89	25511.84
518.06	25841.85
518.24	26024.42
518.41	26153.15
518.58	26242.09
518.75	26239.75
518.93	26274.85
519.10	26471.46
519.27	26541.68
519.45	26408.26
519.62	26661.04
519.79	26707.85
519.96	26548.70
520.14	27145.53
520.31	26373.16
520.48	26981.70
520.65	26586.15
520.83	27110.43
521.00	26953.61
521.17	26944.25
521.34	27040.21
521.52	27150.21
521.69	27274.26
521.86	27592.58
522.03	27194.68
522.20	27278.94
522.38	27449.80
522.55	27257.88
522.72	27332.78
522.89	27721.30
523.07	27915.57
523.24	27955.36
523.41	28158.99
523.58	27800.88
523.75	27889.82
523.92	28039.62
524.10	27999.83
524.27	28510.07
524.44	28250.27
524.61	28786.25
524.78	28465.60
524.96	28580.28
525.13	28355.59
525.30	28435.17
525.47	28828.38
525.64	28402.40
525.81	28500.70
525.98	28481.98
526.16	28723.05
526.33	28650.50
526.50	28664.54
526.67	28245.58
526.84	29099.88
527.01	28545.17
527.18	28697.31
527.36	28905.62
527.53	29111.58
527.70	29345.64
527.87	29347.98
528.04	28680.92
528.21	29624.16
528.38	29282.44
528.55	29317.55
528.72	29249.67
528.89	29022.64
529.07	29507.13
529.24	29584.37
529.41	29940.13
529.58	29324.57
529.75	29731.83
529.92	29659.27
530.09	29752.89
530.26	29720.12
530.43	29935.45
530.60	29773.95
530.77	29883.96
530.94	30052.48
531.11	29556.28
531.28	29816.08
531.46	29640.54
531.63	30038.44
531.80	30125.04
531.97	30270.15
532.14	30361.43
532.31	30199.93
532.48	30471.43
532.65	30705.49
532.82	30218.66
532.99	30204.61
533.16	30635.27
533.33	30724.21
533.50	30632.93
533.67	30696.13
533.84	30239.72
534.01	30225.68
534.18	30967.63
534.35	30677.40
534.52	30930.18
534.69	30932.52
534.86	31297.64
535.03	30817.83
535.20	30778.04
535.37	30923.16
535.54	31189.98
535.71	30859.96
535.88	30913.80
536.05	31007.42
536.22	31136.15
536.38	31267.22
536.55	31222.75
536.72	31468.50
536.89	31154.87
537.06	30848.26
537.23	31505.95
537.40	31166.57
537.57	31257.85
537.74	31651.06
537.91	31702.56
538.08	31768.09
538.25	31395.95
538.42	31234.45
538.59	31758.73
538.75	31431.05
538.92	31674.47
539.09	31578.51
539.26	32002.14
539.43	31952.99
539.60	31913.20
539.77	32109.81
539.94	32254.92
540.11	32060.66
540.28	32191.73
540.44	32283.01
540.61	32294.71
540.78	32491.32
540.95	32769.84
541.12	32360.25
541.29	32697.28
541.46	32823.67
541.62	32856.44
541.79	32959.42
541.96	32683.24
542.13	32453.87
542.30	32603.66
542.47	32708.99
542.63	33102.20
542.80	32830.69
542.97	33088.15
543.14	33195.82
543.31	33411.15
543.48	33209.86
543.64	33544.56
543.81	33277.74
543.98	33635.84
544.15	33598.39
544.32	33457.96
544.48	33708.40
544.65	33371.36
544.82	33113.90
544.99	33289.44
545.16	33883.94
545.32	33219.22
545.49	34270.12
545.66	34707.80
545.83	34763.98
546.00	34962.92
546.16	34167.14
546.33	33696.69
546.50	33425.19
546.67	33797.34
546.83	33551.58
547.00	33647.54
547.17	33963.51
547.34	33820.74
547.50	33830.10
547.67	34204.59
547.84	34106.29
548.00	33984.58
548.17	33795.00
548.34	34164.80
548.51	34129.69
548.67	34464.39
548.84	34075.86
549.01	34410.56
549.18	34057.14
549.34	34087.56
549.51	34326.30
549.68	34089.90
549.84	33909.68
550.01	34391.83
550.18	33909.68
550.34	34403.53
550.51	33919.04
550.68	34394.17
550.84	34099.26
551.01	34520.56
551.18	34066.50
551.34	33909.68
551.51	34359.06
551.68	34204.59
551.84	34691.42
552.01	33855.85
552.18	34689.08
552.34	34309.91
552.51	34342.68
552.68	34204.59
552.84	34668.02
553.01	34567.37
553.18	34817.81
553.34	34953.56
553.51	34202.25
553.67	34866.96
553.84	34923.13
554.01	35093.99
554.17	34857.60
554.34	34820.15
554.51	34813.13
554.67	34848.24
554.84	34925.47
555.00	34806.11
555.17	35234.42
555.33	34670.36
555.50	34656.31
555.67	35056.54
555.83	34944.20
556.00	34864.62
556.16	35079.95
556.33	34892.71
556.50	34567.37
556.66	35072.93
556.83	35110.38
556.99	35414.65
557.16	35260.17
557.32	35211.02
557.49	35199.32
557.65	34986.33
557.82	35304.64
557.98	35005.05
558.15	35220.38
558.32	35438.05
558.48	35122.08
558.65	35442.73
558.81	35751.68
558.98	35288.26
559.14	35133.78
559.31	34803.77
559.47	35379.54
559.64	35194.64
559.80	35342.09
559.97	35821.90
560.13	35370.18
560.30	35271.87
560.46	35828.92
560.63	35215.70
560.79	35522.31
560.96	35587.85
561.12	35779.77
561.29	35171.23
561.45	35896.80
561.61	35218.04
561.78	35505.93
561.94	35704.87
562.11	35590.19
562.27	35583.16
562.44	35585.50
562.60	35704.87
562.77	35651.04
562.93	35271.87
563.10	36058.29
563.26	35754.02
563.42	35952.97
563.59	35590.19
563.75	35784.45
563.92	35749.34
564.08	35421.67
564.24	35456.78
564.41	35356.13
564.57	35601.89
564.74	35459.12
564.90	35791.47
565.07	35849.99
565.23	35739.98
565.39	35782.11
565.56	35491.88
565.72	35601.89
565.88	35658.06
566.05	35651.04
566.21	35732.96
566.38	35622.95
566.54	36144.89
566.70	35955.31
566.87	35864.03
567.03	35845.30
567.19	35978.72
567.36	35941.27
567.52	35716.58
567.68	36065.31
567.85	35817.22
568.01	35892.12
568.17	35768.07
568.34	35983.40
568.50	35948.29
568.66	35564.44
568.83	35999.78
568.99	35744.66
569.15	35955.31
569.32	36072.34
569.48	35519.97
569.64	36046.59
569.81	35842.96
569.97	35711.89
570.13	36002.12
570.30	36002.12
570.46	36013.82
570.62	35988.08
570.78	35945.95
570.95	35854.67
571.11	35913.18
571.27	35793.81
571.43	35777.43
571.60	35842.96
571.76	36107.44
571.92	36048.93
572.09	36493.63
572.25	36098.08
572.41	36154.26
572.57	35873.39
572.74	36002.12
572.90	35978.72
573.06	36072.34
573.22	35887.43
573.38	36191.70
573.55	36327.45
573.71	36154.26
573.87	36856.42
574.03	36236.17
574.20	36442.14
574.36	35800.83
574.52	36503.00
574.68	36170.64
574.84	36287.67
575.01	36086.38
575.17	36044.25
575.33	35756.36
575.49	36142.55
575.65	36390.65
575.82	36769.82
575.98	36292.35
576.14	36231.49
576.30	36254.90
576.46	36334.48
576.62	36191.70
576.79	36308.73
576.95	36378.95
577.11	36254.90
577.27	36273.62
577.43	36402.35
577.59	36149.57
577.75	36093.40
577.92	35541.03
578.08	35831.26
578.24	36299.37
578.40	36301.71
578.56	36297.03
578.72	36428.10
578.88	36400.01
579.04	36734.71
579.21	36486.61
579.37	36013.82
579.53	36077.02
579.69	36306.39
579.85	36570.87
580.01	36266.60
580.17	36065.31
580.33	36304.05
580.49	36119.15
580.65	36645.77
580.82	35990.42
580.98	36039.57
581.14	36374.27
581.30	36287.67
581.46	36084.04
581.62	36212.77
581.78	35842.96
581.94	36093.40
582.10	36189.36
582.26	36381.29
582.42	36392.99
582.58	36739.39
582.74	36533.42
582.90	36465.55
583.06	36790.88
583.22	36376.61
583.38	36371.92
583.54	36453.84
583.70	36102.76
583.86	36392.99
584.02	36203.41
584.18	36542.78
584.34	36643.43
584.50	36245.54
584.66	36648.11
584.82	35887.43
584.98	36849.39
585.14	36297.03
585.30	36397.67
585.46	36055.95
585.62	36144.89
585.78	36336.82
585.94	36130.85
586.10	36297.03
586.26	36641.09
586.42	36659.81
586.58	36538.10
586.74	36425.76
586.90	36044.25
587.06	36355.54
587.22	36484.27
587.38	36503.00
587.54	36507.68
587.70	36671.51
587.86	36512.36
588.02	36184.68
588.18	36488.95
588.34	36088.72
588.49	36088.72
588.65	36463.21
588.81	36294.69
588.97	36233.83
589.13	36107.44
589.29	36772.16
589.45	36769.82
589.61	36407.03
589.77	36575.55
589.93	36718.32
590.08	37020.25
590.24	36540.44
590.40	36840.03
590.56	36297.03
590.72	36510.02
590.88	36505.34
591.04	36706.62
591.20	36720.66
591.35	36928.97
