SpectraSuite Data File
++++++++++++++++++++++++++++++++++++
Date: Fri Oct 04 11:39:41 GMT-05:00 2013
User: price-jones
Dark Spectrum Present: No
Reference Spectrum Present: No
Number of Sampled Component Spectra: 1
Spectrometers: USB2+H05261
Integration Time (usec): 100000 (USB2+H05261)
Spectra Averaged: 1 (USB2+H05261)
Boxcar Smoothing: 0 (USB2+H05261)
Correct for Electrical Dark: No (USB2+H05261)
Strobe/Lamp Enabled: No (USB2+H05261)
Correct for Detector Non-linearity: No (USB2+H05261)
Correct for Stray Light: No (USB2+H05261)
Number of Pixels in Processed Spectrum: 2048
>>>>>Begin Processed Spectral Data<<<<<
365.73	53.83
365.92	53.83
366.12	53.83
366.32	0.00
366.52	0.00
366.72	7.02
366.91	0.00
367.11	0.00
367.31	16.38
367.51	0.00
367.70	0.00
367.90	32.77
368.10	0.00
368.30	0.00
368.49	0.00
368.69	0.00
368.89	0.00
369.09	23.41
369.28	11.70
369.48	2.34
369.68	0.00
369.87	0.00
370.07	14.04
370.27	30.43
370.47	114.69
370.66	187.24
370.86	212.99
371.06	280.86
371.25	280.86
371.45	269.16
371.65	320.65
371.84	313.63
372.04	285.55
372.24	222.35
372.44	297.25
372.63	344.06
372.83	304.27
373.03	278.52
373.22	299.59
373.42	304.27
373.62	344.06
373.81	322.99
374.01	367.46
374.21	381.51
374.40	292.57
374.60	404.91
374.79	299.59
374.99	351.08
375.19	308.95
375.38	325.33
375.58	358.10
375.78	404.91
375.97	393.21
376.17	543.00
376.37	358.10
376.56	395.55
376.76	339.38
376.95	376.83
377.15	397.89
377.35	454.06
377.54	367.46
377.74	367.46
377.93	379.17
378.13	379.17
378.33	388.53
378.52	334.70
378.72	442.36
378.91	402.57
379.11	493.85
379.31	374.49
379.50	416.62
379.70	383.85
379.89	425.98
380.09	386.19
380.28	374.49
380.48	411.93
380.68	369.80
380.87	444.70
381.07	447.04
381.26	533.64
381.46	463.43
381.65	402.57
381.85	430.66
382.04	367.46
382.24	409.59
382.43	409.59
382.63	409.59
382.83	430.66
383.02	465.77
383.22	543.00
383.41	444.70
383.61	461.09
383.80	493.85
384.00	456.40
384.19	407.25
384.39	433.00
384.58	454.06
384.78	451.72
384.97	486.83
385.17	402.57
385.36	477.47
385.56	393.21
385.75	458.74
385.95	496.19
386.14	526.62
386.34	444.70
386.53	486.83
386.72	493.85
386.92	503.22
387.11	521.94
387.31	505.56
387.50	519.60
387.70	561.73
387.89	496.19
388.09	554.71
388.28	533.64
388.48	491.51
388.67	526.62
388.86	606.20
389.06	596.84
389.25	550.03
389.45	470.45
389.64	634.29
389.84	552.37
390.03	643.65
390.22	631.94
390.42	547.69
390.61	580.45
390.81	552.37
391.00	601.52
391.19	660.03
391.39	704.50
391.58	690.46
391.78	657.69
391.97	608.54
392.16	634.29
392.36	669.39
392.55	681.10
392.75	648.33
392.94	704.50
393.13	643.65
393.33	643.65
393.52	631.94
393.71	617.90
393.91	690.46
394.10	727.91
394.29	669.39
394.49	702.16
394.68	674.07
394.88	692.80
395.07	767.70
395.26	828.55
395.46	858.98
395.65	798.12
395.84	866.00
396.04	844.93
396.23	795.78
396.42	816.85
396.62	821.53
396.81	763.01
397.00	760.67
397.19	821.53
397.39	851.96
397.58	704.50
397.77	781.74
397.97	877.70
398.16	880.04
398.35	856.64
398.55	842.59
398.74	908.13
398.93	884.72
399.12	910.47
399.32	1001.75
399.51	926.85
399.70	947.92
399.90	945.58
400.09	901.11
400.28	924.51
400.47	999.41
400.67	1069.62
400.86	994.73
401.05	1041.54
401.24	1057.92
401.44	1062.60
401.63	1013.45
401.82	1125.80
402.01	994.73
402.21	985.37
402.40	1083.67
402.59	1114.10
402.78	1055.58
402.97	1116.44
403.17	1179.63
403.36	1100.05
403.55	1214.74
403.74	1245.16
403.93	1291.98
404.13	1240.48
404.32	1207.72
404.51	1252.19
404.70	1256.87
404.89	1139.84
405.09	1238.14
405.28	1383.26
405.47	1345.81
405.66	1383.26
405.85	1439.43
406.05	1371.55
406.24	1350.49
406.43	1334.11
406.62	1444.11
406.81	1409.00
407.00	1378.58
407.20	1401.98
407.39	1392.62
407.58	1544.75
407.77	1511.99
407.96	1544.75
408.15	1614.97
408.34	1451.13
408.54	1570.50
408.73	1577.52
408.92	1565.82
409.11	1584.54
409.30	1696.89
409.49	1696.89
409.68	1680.50
409.87	1502.62
410.07	1673.48
410.26	1706.25
410.45	1842.00
410.64	1762.42
410.83	1818.60
411.02	1858.39
411.21	1944.99
411.40	1851.36
411.59	1846.68
411.78	1961.37
411.98	1863.07
412.17	1991.80
412.36	2001.16
412.55	2012.86
412.74	2040.95
412.93	2129.89
413.12	1989.46
413.31	2197.76
413.50	2174.36
413.69	2209.47
413.88	2197.76
414.07	2218.83
414.26	2272.66
414.45	2165.00
414.64	2338.20
414.83	2333.51
415.02	2284.36
415.22	2497.35
415.41	2473.95
415.60	2537.14
415.79	2499.69
415.98	2490.33
416.17	2516.08
416.36	2509.05
416.55	2602.68
416.74	2579.27
416.93	2590.97
417.12	2619.06
417.31	2745.45
417.50	2754.81
417.69	2810.98
417.88	2757.15
418.07	2778.22
418.26	2864.82
418.45	2857.79
418.64	2944.39
418.83	2904.60
419.02	2932.69
419.21	2977.16
419.39	2895.24
419.58	2916.31
419.77	2888.22
419.96	2874.18
420.15	3112.91
420.34	3002.91
420.53	3124.62
420.72	3077.80
420.91	3014.61
421.10	3136.32
421.29	3356.33
421.48	3206.53
421.67	3398.46
421.86	3194.83
422.05	3274.41
422.24	3180.79
422.43	3293.13
422.61	3169.09
422.80	3183.13
422.99	3372.71
423.18	3349.31
423.37	3253.34
423.56	3293.13
423.75	3351.65
423.94	3251.00
424.13	3129.30
424.32	3155.04
424.50	3449.95
424.69	3269.73
424.88	3492.08
425.07	3471.01
425.26	3288.45
425.45	3318.88
425.64	3253.34
425.83	3480.38
426.01	3339.94
426.20	3435.91
426.39	3417.18
426.58	3424.20
426.77	3452.29
426.96	3515.48
427.15	3351.65
427.33	3536.55
427.52	3421.86
427.71	3487.40
427.90	3522.51
428.09	3611.45
428.28	3529.53
428.46	3585.70
428.65	3590.38
428.84	3726.13
429.03	3861.88
429.22	3644.21
429.40	3634.85
429.59	3801.03
429.78	3599.74
429.97	3698.05
430.16	3667.62
430.34	3714.43
430.53	3772.94
430.72	3866.56
430.91	3599.74
431.10	3763.58
431.28	3971.89
431.47	4032.74
431.66	3936.78
431.85	4049.13
432.03	3955.51
432.22	4088.92
432.41	3922.74
432.60	4119.34
432.79	3929.76
432.97	4121.68
433.16	3964.87
433.35	4030.40
433.54	4210.62
433.72	4156.79
433.91	4098.28
434.10	4231.69
434.28	4205.94
434.47	4245.73
434.66	4297.22
434.85	4271.48
435.03	4428.29
435.22	4393.19
435.41	4828.53
435.59	4603.83
435.78	4720.86
435.97	4575.75
436.16	4454.04
436.34	4519.57
436.53	4447.02
436.72	4465.74
436.90	4365.10
437.09	4681.07
437.28	4411.91
437.46	4465.74
437.65	4400.21
437.84	4557.02
438.02	4671.71
438.21	4622.56
438.40	4643.62
438.58	4739.58
438.77	4833.21
438.96	4856.61
439.14	4847.25
439.33	4814.48
439.52	4905.76
439.70	4964.28
439.89	4849.59
440.08	5067.26
440.26	4931.51
440.45	5062.58
440.63	5125.77
440.82	5083.64
441.01	5139.82
441.19	5191.31
441.38	5254.50
441.57	5156.20
441.75	5327.06
441.94	5413.66
442.12	5504.94
442.31	5364.51
442.50	5387.91
442.68	5434.72
442.87	5547.07
443.05	5378.55
443.24	5535.37
443.43	5568.13
443.61	5741.33
443.80	5771.76
443.98	5385.57
444.17	5390.25
444.35	5668.78
444.54	5827.93
444.73	5673.46
444.91	5682.82
445.10	5729.63
445.28	5617.29
445.47	5563.45
445.65	5701.54
445.84	5743.67
446.02	5734.31
446.21	5699.20
446.39	5741.33
446.58	5657.07
446.77	5785.80
446.95	5647.71
447.14	5797.51
447.32	5818.57
447.51	5757.72
447.69	5753.04
447.88	5666.44
448.06	5570.48
448.25	5783.46
448.43	5659.42
448.62	5893.47
448.80	5783.46
448.99	5961.34
449.17	5818.57
449.36	5893.47
449.54	5942.62
449.73	6230.51
449.91	6054.97
450.10	6099.44
450.28	6197.74
450.46	6314.77
450.65	6115.82
450.83	6148.59
451.02	6174.33
451.20	6202.42
451.39	6171.99
451.57	6303.06
451.76	6258.59
451.94	6305.40
452.13	6263.27
452.31	6424.77
452.49	6207.10
452.68	6333.49
452.86	6333.49
453.05	6352.21
453.23	6417.75
453.42	6373.28
453.60	6403.71
453.78	6506.69
453.97	6380.30
454.15	6326.47
454.34	6375.62
454.52	6551.16
454.70	6551.16
454.89	6476.26
455.07	6567.54
455.26	6780.53
455.44	6729.04
455.62	6722.02
455.81	6623.72
455.99	6724.36
456.17	6633.08
456.36	6942.03
456.54	6930.33
456.73	6916.28
456.91	7082.46
457.09	7012.24
457.28	7213.53
457.46	6993.52
457.64	7096.50
457.83	7110.55
458.01	6951.39
458.19	7384.39
458.38	7180.76
458.56	7133.95
458.74	7286.09
458.93	7227.57
459.11	7255.66
459.29	7332.90
459.48	7412.48
459.66	7262.68
459.84	7232.26
460.03	7463.97
460.21	7368.01
460.39	7445.24
460.57	7265.02
460.76	7609.08
460.94	7510.78
461.12	7590.36
461.31	7585.68
461.49	7428.86
461.67	7311.83
461.85	7618.44
462.04	7658.23
462.22	8355.71
462.40	7641.85
462.59	7815.05
462.77	7786.96
462.95	7648.87
463.13	7756.54
463.32	7878.24
463.50	7941.44
463.68	7805.69
463.86	7957.82
464.05	7850.16
464.23	7981.23
464.41	7873.56
464.59	7920.37
464.78	8128.68
464.96	8142.72
465.14	7920.37
465.32	8145.06
465.50	8065.49
465.69	8198.90
465.87	8173.15
466.05	8168.47
466.23	8287.84
466.41	8203.58
466.60	8470.40
466.78	7967.18
466.96	8002.29
467.14	8131.02
467.32	8276.13
467.51	8423.59
467.69	8154.43
467.87	8264.43
468.05	8622.53
468.23	8194.22
468.41	8372.10
468.60	8173.15
468.78	8517.21
468.96	8308.90
469.14	8599.13
469.32	8528.91
469.50	8379.12
469.69	8641.26
469.87	8402.52
470.05	8734.88
470.23	8655.30
470.41	8814.46
470.59	8938.51
470.77	8718.50
470.95	8924.46
471.14	8854.25
471.32	8816.80
471.50	8919.78
471.68	9125.75
471.86	9231.07
472.04	9188.94
472.22	9249.80
472.40	9174.90
472.58	9308.31
472.77	9238.09
472.95	9570.45
473.13	9769.40
473.31	9516.62
473.49	9315.33
473.67	9341.08
473.85	9448.74
474.03	9738.97
474.21	9727.27
474.39	9860.68
474.57	9591.52
474.75	9970.68
474.93	9841.95
475.12	9851.31
475.30	9989.41
475.48	10085.37
475.66	10228.14
475.84	10087.71
476.02	10263.25
476.20	10160.27
476.38	10443.47
476.56	10490.28
476.74	10511.35
476.92	10609.65
477.10	10665.82
477.28	10623.69
477.46	10417.72
477.64	10836.68
477.82	10892.85
478.00	11316.49
478.18	11173.72
478.36	11262.66
478.54	11421.81
478.72	11358.62
478.90	11536.50
479.08	11468.62
479.26	11513.10
479.44	11784.60
479.62	11763.53
479.80	11763.53
479.98	12187.17
480.16	11871.20
480.34	12020.99
480.52	12168.45
480.70	12276.11
480.88	12175.47
481.06	12339.30
481.24	12622.51
481.41	12386.12
481.59	12638.89
481.77	12816.77
481.95	12966.57
482.13	12910.40
482.31	13247.43
482.49	13217.01
482.67	13373.82
482.85	13537.66
483.03	13764.69
483.21	13692.13
483.39	13813.84
483.57	13909.80
483.74	13902.78
483.92	13937.89
484.10	13956.61
484.28	14389.61
484.46	14469.19
484.64	14689.20
484.82	14445.79
485.00	14803.89
485.18	15014.54
485.35	14944.32
485.53	14930.28
485.71	15117.52
485.89	15573.92
486.07	15707.34
486.25	15360.94
486.43	15517.75
486.61	15920.32
486.78	16081.82
486.96	15903.94
487.14	16187.14
487.32	16018.63
487.50	16566.31
487.68	16362.69
487.85	16388.43
488.03	17123.36
488.21	17074.21
488.39	16863.56
488.57	17385.50
488.75	17036.76
488.92	17554.02
489.10	17685.09
489.28	17743.60
489.46	17612.53
489.64	17745.94
489.81	18146.17
489.99	18317.03
490.17	18099.36
490.35	18579.17
490.53	18291.29
490.70	18686.84
490.88	18644.71
491.06	18794.50
491.24	18705.56
491.41	19009.83
491.59	19122.18
491.77	19129.20
491.95	19618.37
492.13	19548.15
492.30	19747.10
492.48	19941.36
492.66	19740.08
492.84	19676.88
493.01	20170.74
493.19	19969.45
493.37	20379.04
493.54	20620.12
493.72	20627.14
493.90	20519.48
494.08	21090.57
494.25	21062.48
494.43	20912.69
494.61	20788.64
494.79	21123.33
494.96	21326.96
495.14	21549.31
495.32	21619.53
495.49	21731.87
495.67	21682.72
495.85	22043.17
496.02	21846.56
496.20	21991.67
496.38	22115.72
496.55	22345.09
496.73	22635.32
496.91	22249.13
497.09	22789.80
497.26	22820.22
497.44	22902.14
497.62	22864.69
497.79	23253.22
497.97	23337.48
498.14	23702.61
498.32	23545.79
498.50	23707.29
498.67	23653.45
498.85	23669.84
499.03	24142.63
499.20	24198.80
499.38	23964.75
499.56	24355.61
499.73	24587.33
499.91	24526.47
500.08	24645.84
500.26	24367.32
500.44	24563.92
500.61	24835.42
500.79	24629.46
500.97	24893.94
501.14	25343.32
501.32	25111.61
501.49	25041.39
501.67	25268.42
501.84	25156.08
502.02	25460.35
502.20	25729.51
502.37	25982.29
502.55	25699.08
502.72	25598.44
502.90	25930.80
503.07	25804.41
503.25	25867.60
503.43	25671.00
503.60	26410.60
503.78	26274.85
503.95	26125.06
504.13	26366.13
504.30	26291.24
504.48	26408.26
504.65	26338.05
504.83	27026.17
505.01	27304.69
505.18	27344.48
505.36	27002.76
505.53	26897.44
505.71	27316.39
505.88	27206.39
506.06	27068.30
506.23	27515.34
506.41	27534.06
506.58	27508.32
506.76	27997.49
506.93	27871.10
507.11	27599.60
507.28	27770.46
507.46	27552.79
507.63	28056.00
507.81	28566.24
507.98	28072.39
508.16	28128.56
508.33	28386.02
508.50	28175.37
508.68	28299.42
508.85	28533.47
509.03	28383.68
509.20	28886.89
509.38	29240.31
509.55	28966.47
509.73	29216.91
509.90	29055.41
510.08	29057.75
510.25	29179.46
510.42	29340.96
510.60	29457.98
510.77	29453.30
510.95	29596.07
511.12	29425.22
511.30	29549.26
511.47	29722.46
511.64	29771.61
511.82	29706.08
511.99	30000.99
512.17	30300.58
512.34	29928.43
512.51	30433.99
512.69	30368.45
512.86	30302.92
513.04	30852.94
513.21	30639.95
513.38	30565.06
513.56	30539.31
513.73	30623.57
513.90	30895.07
514.08	30740.60
514.25	31583.19
514.43	31028.48
514.60	31126.78
514.77	31372.54
514.95	31648.72
515.12	31367.86
515.29	30911.46
515.47	31812.56
515.64	31672.13
515.81	32044.27
515.99	32044.27
516.16	32257.26
516.33	32123.85
516.51	32322.80
516.68	31864.05
516.85	32098.11
517.03	32519.40
517.20	32135.56
517.37	32498.34
517.54	32615.37
517.72	32713.67
517.89	32388.33
518.06	32755.80
518.24	32711.33
518.41	32905.59
518.58	32622.39
518.75	32914.95
518.93	33362.00
519.10	32992.19
519.27	33277.74
519.45	33111.56
519.62	32847.08
519.79	33256.67
519.96	33153.69
520.14	33640.52
520.31	33537.54
520.48	33883.94
520.65	33408.81
520.83	34087.56
521.00	33558.60
521.17	33441.57
521.34	33680.31
521.52	34183.52
521.69	34113.31
521.86	34195.23
522.03	34298.21
522.20	34632.91
522.38	34347.36
522.55	34377.79
522.72	34878.66
522.89	34660.99
523.07	34721.85
523.24	34864.62
523.41	34873.98
523.58	34665.67
523.75	35283.58
523.92	34700.78
524.10	34878.66
524.27	34815.47
524.44	35868.71
524.61	35590.19
524.78	35688.49
524.96	35297.62
525.13	35449.75
525.30	35440.39
525.47	35473.16
525.64	35644.02
525.81	35835.94
525.98	36105.10
526.16	35739.98
526.33	35992.76
526.50	36463.21
526.67	35615.93
526.84	35784.45
527.01	35814.88
527.18	36105.10
527.36	36135.53
527.53	36596.62
527.70	36510.02
527.87	36811.95
528.04	36149.57
528.21	36332.14
528.38	36486.61
528.55	36666.83
528.72	36676.19
528.89	36524.06
529.07	36287.67
529.24	36800.24
529.41	37158.34
529.58	36830.67
529.75	36732.37
529.92	37041.32
530.09	37294.10
530.26	36957.06
530.43	37163.03
530.60	37329.20
530.77	37289.42
530.94	37509.43
531.11	36842.37
531.28	37113.87
531.46	37322.18
531.63	37425.17
531.80	37986.89
531.97	37689.65
532.14	37757.52
532.31	37460.27
532.48	37827.74
532.65	37982.21
532.82	37900.29
532.99	37827.74
533.16	37471.98
533.33	38050.09
533.50	38714.80
533.67	38305.21
533.84	37619.43
534.01	37572.62
534.18	37989.24
534.35	38553.30
534.52	38515.86
534.69	38433.94
534.86	38742.89
535.03	38124.99
535.20	38476.07
535.37	38497.13
535.54	38632.88
535.71	38253.72
535.88	38735.87
536.05	38976.94
536.22	38995.67
536.38	39302.28
536.55	39077.58
536.72	39246.10
536.89	39096.31
537.06	38747.57
537.23	39124.40
537.40	39232.06
537.57	39529.31
537.74	39522.29
537.91	39548.03
538.08	39564.42
538.25	39679.10
538.42	39243.76
538.59	39662.72
538.75	39028.43
538.92	39672.08
539.09	39798.47
539.26	39683.78
539.43	39264.83
539.60	40289.98
539.77	39849.96
539.94	40390.62
540.11	39852.30
540.28	39964.65
540.44	39966.99
540.61	40332.11
540.78	40442.12
540.95	40247.85
541.12	40268.92
541.29	40453.82
541.46	40336.79
541.62	40575.53
541.79	40715.96
541.96	40280.62
542.13	40509.99
542.30	41228.54
542.47	40980.44
542.63	40847.03
542.80	40952.35
542.97	41127.89
543.14	41109.17
543.31	41202.79
543.48	41200.45
543.64	41605.36
543.81	41825.37
543.98	41329.18
544.15	41453.23
544.32	41507.06
544.48	41406.42
544.65	41373.65
544.82	41113.85
544.99	41132.57
545.16	41350.24
545.32	41771.54
545.49	42667.97
545.66	42045.38
545.83	42693.71
546.00	42616.47
546.16	42068.79
546.33	42036.02
546.50	41017.89
546.67	41591.32
546.83	41544.51
547.00	41855.80
547.17	41610.04
547.34	41916.65
547.50	41902.61
547.67	42274.76
547.84	41825.37
548.00	42106.24
548.17	41773.88
548.34	41778.56
548.51	42494.77
548.67	42438.59
548.84	42223.26
549.01	42153.05
549.18	42061.77
549.34	42174.11
549.51	42026.66
549.68	42403.49
549.84	41593.66
550.01	42253.69
550.18	42410.51
550.34	42667.97
550.51	42850.53
550.68	42803.72
550.84	42064.11
551.01	42593.07
551.18	42614.13
551.34	42476.04
551.51	42302.84
551.68	42454.98
551.84	42815.42
552.01	42637.54
552.18	42557.96
552.34	42307.52
552.51	42600.09
552.68	42267.73
552.84	42707.76
553.01	43100.97
553.18	42740.52
553.34	43150.12
553.51	42625.84
553.67	43019.05
553.84	42880.95
554.01	42911.38
554.17	42773.29
554.34	42967.55
554.51	43189.91
554.67	43047.13
554.84	42909.04
555.00	43241.40
555.17	43430.98
555.33	43332.68
555.50	42733.50
555.67	43147.78
555.83	43351.40
556.00	43246.08
556.16	43622.90
556.33	43044.79
556.50	42944.15
556.66	43676.74
556.83	42895.00
556.99	43737.59
557.16	43540.99
557.32	43580.78
557.49	43707.16
557.65	43051.81
557.82	43330.34
557.98	43206.29
558.15	43597.16
558.32	43313.95
558.48	43505.88
558.65	43503.54
558.81	43658.01
558.98	43377.15
559.14	43292.89
559.31	43234.38
559.47	43423.96
559.64	43625.25
559.80	43641.63
559.97	43559.71
560.13	43618.22
560.30	44041.86
560.46	43981.01
560.63	43995.05
560.79	43653.33
560.96	44229.10
561.12	43819.51
561.29	43597.16
561.45	44133.14
561.61	43648.65
561.78	43793.76
561.94	44088.67
562.11	43742.27
562.27	44041.86
562.44	44409.32
562.60	43517.58
562.77	43948.24
562.93	43562.05
563.10	43957.60
563.26	43679.08
563.42	44622.31
563.59	44587.21
563.75	43899.09
563.92	44098.03
564.08	44030.16
564.24	43849.94
564.41	43737.59
564.57	44105.06
564.74	43576.09
564.90	43529.28
565.07	44477.20
565.23	44062.93
565.39	43941.22
565.56	44294.64
565.72	44364.85
565.88	43957.60
566.05	43634.61
566.21	44091.01
566.38	44285.28
566.54	43756.32
566.70	44219.74
566.87	44582.52
567.03	44051.22
567.19	44589.55
567.36	44222.08
567.52	43859.30
567.68	44268.89
567.85	44074.63
568.01	44332.09
568.17	43641.63
568.34	44147.18
568.50	44318.04
568.66	44027.82
568.83	44053.56
568.99	44086.33
569.15	44505.29
569.32	44308.68
569.48	44186.97
569.64	44561.46
569.81	44158.89
569.97	44336.77
570.13	44449.11
570.30	44385.92
570.46	44854.03
570.62	44240.81
570.78	44566.14
570.95	44062.93
571.11	43973.98
571.27	43983.35
571.43	44048.88
571.60	44486.56
571.76	44350.81
571.92	44411.67
572.09	44596.57
572.25	44299.32
572.41	44526.35
572.57	44596.57
572.74	44392.94
572.90	44329.75
573.06	44170.59
573.22	44500.61
573.38	44177.61
573.55	44252.51
573.71	44722.96
573.87	44381.24
574.03	44495.92
574.20	44374.22
574.36	44069.95
574.52	44594.23
574.68	44573.16
574.84	44591.89
575.01	44039.52
575.17	44369.54
575.33	44498.26
575.49	44341.45
575.65	44538.05
575.82	44500.61
575.98	44107.40
576.14	44701.89
576.30	44301.66
576.46	44289.96
576.62	44559.12
576.79	44758.06
576.95	44109.74
577.11	45141.91
577.27	44346.13
577.43	44444.43
577.59	44456.14
577.75	44311.02
577.92	44259.53
578.08	44165.91
578.24	44575.50
578.40	44584.86
578.56	44615.29
578.72	44559.12
578.88	45191.06
579.04	45062.33
579.21	44208.04
579.37	44495.92
579.53	44659.76
579.69	44418.69
579.85	44367.20
580.01	44048.88
580.17	44507.63
580.33	44666.78
580.49	44486.56
580.65	44507.63
580.82	44767.43
580.98	44460.82
581.14	44713.59
581.30	44781.47
581.46	44280.60
581.62	44643.38
581.78	44083.99
581.94	44549.76
582.10	44315.70
582.26	44907.86
582.42	44552.10
582.58	44720.62
582.74	44481.88
582.90	44648.06
583.06	44725.30
583.22	44603.59
583.38	44311.02
583.54	44521.67
583.70	44343.79
583.86	44257.19
584.02	44582.52
584.18	44987.44
584.34	44954.67
584.50	44690.19
584.66	44545.08
584.82	44414.01
584.98	44577.84
585.14	44509.97
585.30	44381.24
585.46	44608.27
585.62	44399.96
585.78	45029.57
585.94	44292.30
586.10	44811.90
586.26	44849.35
586.42	45024.89
586.58	44706.57
586.74	44493.58
586.90	44509.97
587.06	44402.30
587.22	44643.38
587.38	44521.67
587.54	44619.97
587.70	44938.29
587.86	45373.63
588.02	44931.26
588.18	45081.06
588.34	44568.48
588.49	44758.06
588.65	44626.99
588.81	44591.89
588.97	44603.59
589.13	44910.20
589.29	44758.06
589.45	44634.02
589.61	44641.04
589.77	45104.46
589.93	45340.86
590.08	45048.29
590.24	44720.62
590.40	44577.84
590.56	44779.13
590.72	44734.66
590.88	44615.29
