SpectraSuite Data File
++++++++++++++++++++++++++++++++++++
Date: Fri Oct 04 11:40:06 GMT-05:00 2013
User: price-jones
Dark Spectrum Present: No
Reference Spectrum Present: No
Number of Sampled Component Spectra: 1
Spectrometers: USB2+H05261
Integration Time (usec): 100000 (USB2+H05261)
Spectra Averaged: 1 (USB2+H05261)
Boxcar Smoothing: 0 (USB2+H05261)
Correct for Electrical Dark: No (USB2+H05261)
Strobe/Lamp Enabled: No (USB2+H05261)
Correct for Detector Non-linearity: No (USB2+H05261)
Correct for Stray Light: No (USB2+H05261)
Number of Pixels in Processed Spectrum: 2048
>>>>>Begin Processed Spectral Data<<<<<
365.73	121.71
365.92	121.71
366.12	121.71
366.32	0.00
366.52	0.00
366.72	0.00
366.91	0.00
367.11	0.00
367.31	0.00
367.51	0.00
367.70	0.00
367.90	0.00
368.10	0.00
368.30	0.00
368.49	0.00
368.69	0.00
368.89	0.00
369.09	0.00
369.28	0.00
369.48	0.00
369.68	30.43
369.87	16.38
370.07	0.00
370.27	84.26
370.47	175.54
370.66	395.55
370.86	528.96
371.06	650.67
371.25	645.99
371.45	589.82
371.65	554.71
371.84	507.90
372.04	512.58
372.24	599.18
372.44	566.41
372.63	582.79
372.83	599.18
373.03	498.53
373.22	482.15
373.42	503.22
373.62	599.18
373.81	533.64
374.01	615.56
374.21	543.00
374.40	613.22
374.60	547.69
374.79	585.13
374.99	653.01
375.19	653.01
375.38	732.59
375.58	690.46
375.78	653.01
375.97	695.14
376.17	671.73
376.37	681.10
376.56	657.69
376.76	795.78
376.95	732.59
377.15	851.96
377.35	837.91
377.54	851.96
377.74	887.06
377.93	929.19
378.13	873.02
378.33	856.64
378.52	702.16
378.72	755.99
378.91	767.70
379.11	706.84
379.31	690.46
379.50	676.41
379.70	706.84
379.89	851.96
380.09	774.72
380.28	880.04
380.48	800.46
380.68	837.91
380.87	758.33
381.07	809.83
381.26	777.06
381.46	713.86
381.65	734.93
381.85	685.78
382.04	692.80
382.24	606.20
382.43	669.39
382.63	594.50
382.83	514.92
383.02	608.54
383.22	592.16
383.41	521.94
383.61	592.16
383.80	688.12
384.00	770.04
384.19	840.25
384.39	830.89
384.58	851.96
384.78	868.34
384.97	741.95
385.17	835.57
385.36	718.54
385.56	774.72
385.75	725.57
385.95	819.19
386.14	887.06
386.34	884.72
386.53	807.48
386.72	732.59
386.92	777.06
387.11	800.46
387.31	858.98
387.50	835.57
387.70	814.51
387.89	851.96
388.09	734.93
388.28	805.14
388.48	805.14
388.67	866.00
388.86	985.37
389.06	966.64
389.25	1027.50
389.45	1029.84
389.64	1088.35
389.84	1074.31
390.03	1046.22
390.22	1086.01
390.42	1057.92
390.61	1081.33
390.81	1165.59
391.00	1181.97
391.19	1214.74
391.39	1181.97
391.58	1100.05
391.78	1090.69
391.97	992.39
392.16	861.32
392.36	997.07
392.55	711.52
392.75	545.34
392.94	545.34
393.13	566.41
393.33	596.84
393.52	732.59
393.71	823.87
393.91	891.74
394.10	971.32
394.29	1104.73
394.49	1125.80
394.68	1282.61
394.88	1301.34
395.07	1228.78
395.26	1287.29
395.46	1275.59
395.65	1247.51
395.84	1088.35
396.04	966.64
396.23	734.93
396.42	702.16
396.62	699.82
396.81	802.80
397.00	912.81
397.19	1158.57
397.39	1196.01
397.58	1472.20
397.77	1486.24
397.97	1572.84
398.16	1483.90
398.35	1636.03
398.55	1584.54
398.74	1661.78
398.93	1643.06
399.12	1596.25
399.32	1664.12
399.51	1629.01
399.70	1799.87
399.90	1741.36
400.09	1732.00
400.28	1778.81
400.47	1762.42
400.67	1849.02
400.86	1804.55
401.05	1926.26
401.24	1844.34
401.44	1886.47
401.63	1914.56
401.82	1886.47
402.01	1856.04
402.21	1980.09
402.40	1933.28
402.59	1811.57
402.78	1746.04
402.97	1762.42
403.17	1853.70
403.36	1916.90
403.55	1998.82
403.74	1949.67
403.93	1994.14
404.13	1802.21
404.32	1750.72
404.51	1893.49
404.70	2052.65
404.89	1902.86
405.09	1956.69
405.28	1898.17
405.47	1827.96
405.66	1912.22
405.85	1795.19
406.05	1757.74
406.24	1778.81
406.43	1816.26
406.62	1881.79
406.81	2036.27
407.00	1900.52
407.20	1853.70
407.39	1797.53
407.58	1893.49
407.77	2029.24
407.96	1987.11
408.15	2033.93
408.34	2153.29
408.54	2078.40
408.73	2218.83
408.92	2167.34
409.11	2113.50
409.30	1919.24
409.49	1879.45
409.68	1739.02
409.87	1708.59
410.07	1804.55
410.26	1926.26
410.45	2005.84
410.64	2136.91
410.83	2132.23
411.02	2200.10
411.21	2244.57
411.40	2303.09
411.59	2235.21
411.78	2347.56
411.98	2256.28
412.17	2176.70
412.36	2246.91
412.55	2111.16
412.74	2228.19
412.93	2223.51
413.12	2071.37
413.31	2342.88
413.50	2342.88
413.69	2368.62
413.88	2424.80
414.07	2275.00
414.26	2328.83
414.45	2263.30
414.64	2427.14
414.83	2333.51
415.02	2328.83
415.22	2333.51
415.41	2282.02
415.60	2438.84
415.79	2546.50
415.98	2597.99
416.17	2558.21
416.36	2466.92
416.55	2422.45
416.74	2413.09
416.93	2368.62
417.12	2321.81
417.31	2312.45
417.50	2403.73
417.69	2509.05
417.88	2457.56
418.07	2490.33
418.26	2368.62
418.45	2380.32
418.64	2562.89
418.83	2588.63
419.02	2593.31
419.21	2464.58
419.39	2527.78
419.58	2331.17
419.77	2321.81
419.96	2452.88
420.15	2513.74
420.34	2642.46
420.53	2675.23
420.72	2677.57
420.91	2651.83
421.10	2677.57
421.29	2588.63
421.48	2588.63
421.67	2731.41
421.86	2506.71
422.05	2487.99
422.24	2249.25
422.43	2307.77
422.61	2394.37
422.80	2581.61
422.99	2504.37
423.18	2539.48
423.37	2586.29
423.56	2502.03
423.75	2490.33
423.94	2565.23
424.13	2473.95
424.32	2333.51
424.50	2375.64
424.69	2506.71
424.88	2448.20
425.07	2434.16
425.26	2387.35
425.45	2452.88
425.64	2450.54
425.83	2375.64
426.01	2448.20
426.20	2626.08
426.39	2555.86
426.58	2366.28
426.77	2181.38
426.96	2282.02
427.15	2153.29
427.33	2434.16
427.52	2338.20
427.71	2506.71
427.90	2333.51
428.09	2373.30
428.28	2382.67
428.46	2340.54
428.65	2340.54
428.84	2321.81
429.03	2361.60
429.22	2256.28
429.40	2050.31
429.59	1954.35
429.78	1839.66
429.97	1727.32
430.16	1846.68
430.34	1842.00
430.53	1757.74
430.72	1813.92
430.91	2047.97
431.10	2385.01
431.28	2546.50
431.47	2834.39
431.66	2883.54
431.85	2518.42
432.03	2417.77
432.22	2382.67
432.41	2476.29
432.60	2705.66
432.79	2761.83
432.97	2818.00
433.16	2726.72
433.35	2544.16
433.54	2387.35
433.72	2223.51
433.91	2352.24
434.10	2431.82
434.28	2672.89
434.47	2712.68
434.66	2743.11
434.85	2710.34
435.03	2733.75
435.22	2930.35
435.41	3222.92
435.59	3094.19
435.78	3091.85
435.97	2977.16
436.16	2909.29
436.34	2949.08
436.53	2930.35
436.72	2846.09
436.90	2738.43
437.09	2717.36
437.28	2799.28
437.46	2806.30
437.65	2916.31
437.84	2651.83
438.02	2403.73
438.21	2399.05
438.40	2455.22
438.58	2661.19
438.77	2792.26
438.96	2897.58
439.14	2829.71
439.33	3009.93
439.52	2977.16
439.70	2890.56
439.89	2815.66
440.08	2810.98
440.26	2829.71
440.45	2972.48
440.63	2923.33
440.82	3346.97
441.01	3103.55
441.19	3166.74
441.38	3155.04
441.57	3426.54
441.75	3433.57
441.94	3393.78
442.12	3272.07
442.31	3412.50
442.50	3419.52
442.68	3316.54
442.87	3396.12
443.05	3222.92
443.24	3307.18
443.43	3508.46
443.61	3346.97
443.80	3627.83
443.98	3398.46
444.17	3295.47
444.35	3379.73
444.54	3562.30
444.73	3494.42
444.91	3391.44
445.10	3241.64
445.28	3077.80
445.47	3023.97
445.65	3155.04
445.84	3215.90
446.02	3126.96
446.21	3290.79
446.39	3358.67
446.58	3260.37
446.77	3279.09
446.95	3361.01
447.14	3454.63
447.32	3613.79
447.51	3564.64
447.69	3302.50
447.88	3384.41
448.06	3475.70
448.25	3412.50
448.43	3368.03
448.62	3417.18
448.80	3342.28
448.99	3468.67
449.17	3597.40
449.36	3407.82
449.54	3592.72
449.73	3548.25
449.91	3702.73
450.10	3712.09
450.28	3922.74
450.46	3850.18
450.65	3770.60
450.83	3744.86
451.02	3658.26
451.20	3501.44
451.39	3503.78
451.57	3585.70
451.76	3684.00
451.94	3669.96
452.13	3691.02
452.31	3506.12
452.49	3213.56
452.68	3267.39
452.86	3286.11
453.05	3361.01
453.23	3260.37
453.42	3557.61
453.60	3524.85
453.78	3588.04
453.97	3503.78
454.15	3590.38
454.34	3398.46
454.52	3571.66
454.70	3473.36
454.89	3548.25
455.07	3513.14
455.26	3538.89
455.44	3723.79
455.62	3646.55
455.81	3789.33
455.99	3798.69
456.17	3702.73
456.36	3684.00
456.54	3819.75
456.73	3707.41
456.91	3707.41
457.09	3786.99
457.28	3946.14
457.46	3920.40
457.64	3723.79
457.83	3531.87
458.01	3494.42
458.19	3700.39
458.38	3786.99
458.56	3747.20
458.74	3698.05
458.93	3571.66
459.11	3754.22
459.29	3684.00
459.48	3742.52
459.66	3824.44
459.84	3803.37
460.03	3852.52
460.21	3843.16
460.39	3829.12
460.57	3653.58
460.76	3892.31
460.94	3887.63
461.12	3974.23
461.31	3796.35
461.49	3976.57
461.67	4025.72
461.85	3929.76
462.04	3868.91
462.22	4212.96
462.40	3918.06
462.59	3889.97
462.77	3960.19
462.95	3908.69
463.13	3920.40
463.32	3873.59
463.50	3815.07
463.68	3810.39
463.86	3749.54
464.05	3843.16
464.23	3847.84
464.41	3653.58
464.59	3843.16
464.78	3831.46
464.96	3784.65
465.14	3786.99
465.32	3941.46
465.50	3955.51
465.69	3918.06
465.87	3810.39
466.05	3817.41
466.23	3618.47
466.41	3566.98
466.60	3632.51
466.78	3700.39
466.96	3627.83
467.14	3803.37
467.32	3847.84
467.51	3908.69
467.69	3705.07
467.87	3868.91
468.05	3838.48
468.23	3882.95
468.41	3824.44
468.60	3852.52
468.78	3904.01
468.96	3812.73
469.14	3889.97
469.32	3768.26
469.50	3576.34
469.69	3695.71
469.87	3723.79
470.05	3726.13
470.23	3684.00
470.41	3574.00
470.59	3784.65
470.77	3770.60
470.95	3709.75
471.14	3826.78
471.32	3852.52
471.50	4093.60
471.68	4180.20
471.86	4018.70
472.04	4102.96
472.22	4149.77
472.40	3939.12
472.58	3882.95
472.77	3868.91
472.95	4070.19
473.13	3971.89
473.31	3878.27
473.49	4025.72
473.67	3950.82
473.85	4088.92
474.03	4079.55
474.21	4161.47
474.39	4168.49
474.57	4308.93
474.75	4203.60
474.93	4255.09
475.12	3908.69
475.30	4184.88
475.48	4133.39
475.66	4030.40
475.84	4168.49
476.02	4063.17
476.20	3997.64
476.38	4091.26
476.56	4329.99
476.74	4301.90
476.92	4292.54
477.10	4332.33
477.28	4512.55
477.46	4411.91
477.64	4470.42
477.82	4554.68
478.00	4601.49
478.18	4528.94
478.36	4552.34
478.54	4568.73
478.72	4622.56
478.90	4557.02
479.08	4823.84
479.26	4784.06
479.44	4791.08
479.62	4585.11
479.80	4844.91
479.98	4758.31
480.16	4858.95
480.34	4788.74
480.52	4828.53
480.70	4919.81
480.88	4933.85
481.06	4940.87
481.24	4844.91
481.41	5128.11
481.59	5217.05
481.77	5247.48
481.95	5032.15
482.13	5032.15
482.31	4896.40
482.49	5195.99
482.67	5088.32
482.85	5123.43
483.03	5247.48
483.21	5301.31
483.39	5373.87
483.57	5165.56
483.74	5100.03
483.92	5320.04
484.10	5249.82
484.28	5434.72
484.46	5404.30
484.64	5338.76
484.82	5390.25
485.00	5378.55
485.18	5331.74
485.35	4915.12
485.53	4648.30
485.71	4386.16
485.89	4360.42
486.07	4358.08
486.25	4924.49
486.43	4896.40
486.61	5111.73
486.78	5027.47
486.96	4966.62
487.14	5455.79
487.32	5313.02
487.50	5605.58
487.68	5762.40
487.85	5753.04
488.03	5849.00
488.21	5788.14
488.39	5636.01
488.57	5694.52
488.75	5521.32
488.92	5893.47
489.10	5853.68
489.28	6193.06
489.46	6193.06
489.64	6270.30
489.81	6291.36
489.99	6296.04
490.17	6396.68
490.35	6497.33
490.53	6317.11
490.70	6162.63
490.88	6221.14
491.06	6321.79
491.24	6359.24
491.41	6298.38
491.59	6017.52
491.77	5893.47
491.95	5884.11
492.13	6164.97
492.30	6473.92
492.48	6579.25
492.66	6682.23
492.84	6752.45
493.01	6633.08
493.19	6527.75
493.37	6541.80
493.54	6520.73
493.72	6445.84
493.90	6799.26
494.08	6729.04
494.25	6951.39
494.43	6834.36
494.61	7089.48
494.79	7246.30
494.96	7098.84
495.14	6958.41
495.32	6707.98
495.49	6691.59
495.67	6925.65
495.85	7070.76
496.02	7129.27
496.20	7208.85
496.38	7143.32
496.55	6939.69
496.73	7138.63
496.91	7314.17
497.09	7265.02
497.26	7379.71
497.44	7353.96
497.62	7309.49
497.79	6918.62
497.97	6647.12
498.14	6841.39
498.32	6909.26
498.50	7129.27
498.67	7379.71
498.85	7293.11
499.03	7227.57
499.20	7398.43
499.38	7363.33
499.56	7382.05
499.73	7075.44
499.91	7066.08
500.08	7049.69
500.26	6864.79
500.44	7012.24
500.61	7096.50
500.79	7133.95
500.97	6775.85
501.14	6827.34
501.32	6979.48
501.49	7030.97
501.67	6977.14
501.84	7112.89
502.02	7047.35
502.20	7206.51
502.37	7133.95
502.55	7035.65
502.72	7239.28
502.90	7370.35
503.07	7363.33
503.25	6935.01
503.43	6974.80
503.60	6621.38
503.78	6633.08
503.95	6766.49
504.13	6946.71
504.30	7300.13
504.48	7353.96
504.65	7206.51
504.83	7283.75
505.01	7424.18
505.18	7527.16
505.36	7562.27
505.53	7623.12
505.71	7705.04
505.88	7850.16
506.06	7698.02
506.23	7496.74
506.41	7239.28
506.58	7386.73
506.76	7555.25
506.93	7269.70
507.11	7213.53
507.28	7356.30
507.46	7192.47
507.63	7318.86
507.81	7220.55
507.98	7351.62
508.16	7309.49
508.33	7344.60
508.50	7442.90
508.68	7616.10
508.85	7772.92
509.03	7915.69
509.20	7751.85
509.38	7646.53
509.55	7473.33
509.73	7386.73
509.90	7683.98
510.08	7772.92
510.25	7616.10
510.42	7482.69
510.60	7625.47
510.77	7723.77
510.95	7779.94
511.12	7688.66
511.30	8035.06
511.47	8039.74
511.64	8070.17
511.82	7936.76
511.99	7655.89
512.17	7700.36
512.34	7578.65
512.51	7522.48
512.69	7517.80
512.86	7625.47
513.04	7672.28
513.21	7648.87
513.38	7667.60
513.56	7435.88
513.73	7344.60
513.90	7449.93
514.08	7456.95
514.25	7463.97
514.43	7644.19
514.60	7541.21
514.77	7571.63
514.95	7695.68
515.12	7510.78
515.29	7824.41
515.47	7840.79
515.64	8067.83
515.81	7911.01
515.99	7791.64
516.16	7337.58
516.33	6834.36
516.51	6478.60
516.68	6282.00
516.85	6239.87
517.03	6235.19
517.20	6780.53
517.37	7232.26
517.54	7419.50
517.72	7625.47
517.89	6885.86
518.06	6305.40
518.24	6431.79
518.41	7073.10
518.58	7302.47
518.75	7346.94
518.93	7225.23
519.10	7562.27
519.27	7536.52
519.45	7311.83
519.62	7592.70
519.79	7906.33
519.96	8009.31
520.14	7768.24
520.31	7339.92
520.48	7658.23
520.65	7412.48
520.83	7728.45
521.00	7756.54
521.17	7744.83
521.34	7962.50
521.52	7815.05
521.69	7889.95
521.86	8248.05
522.03	7995.27
522.20	7733.13
522.38	7527.16
522.55	7297.79
522.72	7389.07
522.89	7459.29
523.07	7606.74
523.24	7712.07
523.41	7662.91
523.58	7819.73
523.75	8128.68
523.92	7948.46
524.10	8070.17
524.27	7974.21
524.44	7840.79
524.61	8105.28
524.78	7695.68
524.96	7854.84
525.13	8028.04
525.30	7803.35
525.47	8056.12
525.64	8184.85
525.81	8035.06
525.98	7503.76
526.16	7356.30
526.33	7068.42
526.50	6827.34
526.67	6843.73
526.84	6920.96
527.01	7077.78
527.18	7396.09
527.36	7470.99
527.53	7674.62
527.70	8046.76
527.87	7765.90
528.04	7641.85
528.21	7623.12
528.38	8116.98
528.55	8095.91
528.72	8297.20
528.89	8234.00
529.07	8205.92
529.24	8219.96
529.41	7852.50
529.58	7634.83
529.75	7648.87
529.92	7623.12
530.09	8039.74
530.26	8105.28
530.43	8315.92
530.60	8194.22
530.77	8156.77
530.94	8241.03
531.11	8102.93
531.28	8147.40
531.46	7974.21
531.63	8126.34
531.80	7988.25
531.97	7740.15
532.14	7627.81
532.31	7344.60
532.48	7337.58
532.65	7234.60
532.82	7517.80
532.99	7679.30
533.16	7763.56
533.33	8145.06
533.50	7871.22
533.67	7744.83
533.84	7531.84
534.01	7747.17
534.18	7964.84
534.35	7899.31
534.52	7786.96
534.69	7925.05
534.86	7988.25
535.03	8109.96
535.20	8049.10
535.37	8044.42
535.54	8313.58
535.71	8280.82
535.88	8016.33
536.05	7754.19
536.22	7927.39
536.38	7840.79
536.55	7534.18
536.72	7513.12
536.89	7449.93
537.06	7676.96
537.23	7852.50
537.40	7822.07
537.57	8037.40
537.74	8009.31
537.91	8049.10
538.08	7793.98
538.25	8077.19
538.42	8072.51
538.59	7889.95
538.75	7695.68
538.92	7852.50
539.09	7896.97
539.26	7700.36
539.43	7513.12
539.60	7583.34
539.77	7674.62
539.94	7599.72
540.11	7548.23
540.28	7122.25
540.44	7293.11
540.61	7445.24
540.78	7517.80
540.95	7527.16
541.12	7618.44
541.29	7878.24
541.46	7955.48
541.62	7913.35
541.79	8025.70
541.96	7880.58
542.13	7627.81
542.30	7868.88
542.47	7826.75
542.63	7667.60
542.80	7592.70
542.97	7693.34
543.14	7646.53
543.31	7555.25
543.48	7824.41
543.64	7962.50
543.81	8285.50
543.98	8072.51
544.15	7772.92
544.32	7705.04
544.48	7840.79
544.65	7957.82
544.82	8004.63
544.99	7730.79
545.16	7665.25
545.32	7742.49
545.49	8051.44
545.66	8318.26
545.83	8439.97
546.00	8037.40
546.16	7976.55
546.33	7817.39
546.50	7817.39
546.67	7667.60
546.83	7786.96
547.00	7742.49
547.17	7588.02
547.34	7421.84
547.50	7405.46
547.67	7695.68
547.84	7541.21
548.00	7644.19
548.17	7796.32
548.34	7763.56
548.51	7833.77
548.67	7702.70
548.84	7843.14
549.01	7822.07
549.18	7653.55
549.34	7791.64
549.51	7559.93
549.68	7761.22
549.84	7449.93
550.01	7627.81
550.18	7602.06
550.34	7576.31
550.51	7599.72
550.68	7606.74
550.84	7658.23
551.01	7599.72
551.18	7487.37
551.34	7492.05
551.51	7541.21
551.68	7606.74
551.84	7735.47
552.01	7693.34
552.18	7550.57
552.34	7155.02
552.51	7279.07
552.68	7241.62
552.84	7283.75
553.01	7426.52
553.18	7623.12
553.34	7459.29
553.51	7765.90
553.67	7573.97
553.84	7667.60
554.01	7459.29
554.17	7655.89
554.34	7438.22
554.51	7674.62
554.67	7496.74
554.84	7623.12
555.00	7520.14
555.17	7258.00
555.33	7370.35
555.50	7468.65
555.67	7272.04
555.83	7407.80
556.00	7208.85
556.16	7382.05
556.33	7063.74
556.50	7356.30
556.66	7014.59
556.83	7091.82
556.99	7414.82
557.16	7258.00
557.32	7030.97
557.49	7089.48
557.65	7169.06
557.82	7391.41
557.98	7281.41
558.15	7204.17
558.32	6953.73
558.48	6668.19
558.65	6740.74
558.81	6743.08
558.98	6937.35
559.14	7091.82
559.31	6995.86
559.47	6892.88
559.64	6862.45
559.80	6958.41
559.97	6960.75
560.13	6841.39
560.30	7148.00
560.46	7236.94
560.63	7391.41
560.79	7272.04
560.96	7215.87
561.12	7019.27
561.29	6881.18
561.45	6757.13
561.61	6867.13
561.78	7049.69
561.94	7030.97
562.11	6953.73
562.27	7021.61
562.44	7075.44
562.60	7103.53
562.77	7080.12
562.93	7054.37
563.10	7169.06
563.26	6937.35
563.42	6909.26
563.59	6960.75
563.75	6715.00
563.92	6932.67
564.08	6949.05
564.24	6899.90
564.41	7012.24
564.57	6991.18
564.74	6991.18
564.90	6822.66
565.07	6836.70
565.23	6822.66
565.39	6532.44
565.56	6705.63
565.72	6429.45
565.88	6544.14
566.05	6619.04
566.21	6757.13
566.38	6820.32
566.54	6715.00
566.70	6825.00
566.87	6899.90
567.03	6684.57
567.19	6942.03
567.36	6815.64
567.52	6707.98
567.68	6649.46
567.85	6612.01
568.01	6387.32
568.17	6319.45
568.34	6235.19
568.50	6328.81
568.66	6272.64
568.83	6274.98
568.99	6387.32
569.15	6450.52
569.32	6384.98
569.48	6338.17
569.64	6244.55
569.81	6272.64
569.97	6380.30
570.13	6410.73
570.30	6324.13
570.46	6361.58
570.62	6127.52
570.78	6181.35
570.95	6038.58
571.11	6197.74
571.27	6333.49
571.43	6368.60
571.60	6331.15
571.76	6300.72
571.92	6370.94
572.09	6499.67
572.25	6593.29
572.41	6265.61
572.57	6326.47
572.74	6546.48
572.90	6368.60
573.06	6382.64
573.22	6319.45
573.38	6333.49
573.55	6293.70
573.71	6476.26
573.87	6296.04
574.03	6155.61
574.20	6232.85
574.36	6157.95
574.52	6310.08
574.68	6193.06
574.84	6207.10
575.01	6036.24
575.17	6073.69
575.33	6040.92
575.49	6073.69
575.65	6195.40
575.82	6050.28
575.98	6054.97
576.14	5942.62
576.30	6277.32
576.46	6291.36
576.62	6380.30
576.79	6368.60
576.95	6143.91
577.11	6195.40
577.27	6171.99
577.43	6258.59
577.59	6258.59
577.75	5984.75
577.92	5940.28
578.08	6031.56
578.24	5914.53
578.40	6047.94
578.56	6167.31
578.72	6127.52
578.88	6127.52
579.04	6087.73
579.21	6162.63
579.37	6179.01
579.53	6036.24
579.69	6132.20
579.85	6115.82
580.01	6274.98
580.17	6267.95
580.33	6176.67
580.49	6195.40
580.65	6200.08
580.82	6083.05
580.98	6120.50
581.14	6209.44
581.30	6179.01
581.46	6043.26
581.62	6153.27
581.78	6115.82
581.94	6211.78
582.10	6223.48
582.26	6324.13
582.42	6387.32
582.58	6282.00
582.74	6272.64
582.90	6260.93
583.06	6057.31
583.22	6085.39
583.38	6122.84
583.54	6162.63
583.70	6239.87
583.86	6190.72
584.02	6125.18
584.18	6167.31
584.34	6106.46
584.50	6134.54
584.66	6167.31
584.82	5982.41
584.98	6015.18
585.14	5973.05
585.30	5881.77
585.46	5806.87
585.62	5715.59
585.78	5902.83
585.94	5706.23
586.10	5806.87
586.26	5830.27
586.42	5877.09
586.58	5806.87
586.74	5788.14
586.90	5940.28
587.06	5886.45
587.22	5895.81
587.38	5596.22
587.54	5734.31
587.70	5486.22
587.86	5423.02
588.02	5303.65
588.18	5149.18
588.34	5039.17
588.49	4634.26
588.65	4334.67
588.81	4301.90
588.97	4463.40
589.13	4341.69
589.29	4290.20
589.45	4264.46
589.61	4355.74
589.77	4730.22
589.93	4784.06
590.08	5022.79
590.24	4819.16
590.40	5015.77
590.56	4961.94
590.72	5128.11
590.88	4997.04
591.04	4985.34
591.20	5046.20
591.35	4973.64
591.51	4891.72
591.67	4905.76
591.83	4945.55
591.99	4957.25
592.15	4917.47
592.31	4978.32
592.46	5067.26
592.62	5135.14
592.78	5212.37
592.94	5158.54
593.10	5210.03
593.26	5195.99
593.41	5310.68
593.57	5261.52
593.73	5022.79
593.89	4938.53
594.05	4770.01
594.20	4585.11
594.36	4568.73
594.52	4606.17
594.68	4624.90
594.84	4898.74
594.99	5064.92
595.15	5046.20
595.31	5153.86
595.47	4964.28
595.62	5025.13
595.78	5252.16
595.94	5226.42
596.10	5048.54
596.25	5348.12
596.41	5153.86
596.57	4896.40
596.73	5050.88
596.88	5036.83
597.04	5252.16
597.20	5198.33
597.36	5043.85
597.51	4896.40
