SpectraSuite Data File
++++++++++++++++++++++++++++++++++++
Date: Fri Oct 04 11:39:16 GMT-05:00 2013
User: price-jones
Dark Spectrum Present: No
Reference Spectrum Present: No
Number of Sampled Component Spectra: 1
Spectrometers: USB2+H05261
Integration Time (usec): 100000 (USB2+H05261)
Spectra Averaged: 1 (USB2+H05261)
Boxcar Smoothing: 0 (USB2+H05261)
Correct for Electrical Dark: No (USB2+H05261)
Strobe/Lamp Enabled: No (USB2+H05261)
Correct for Detector Non-linearity: No (USB2+H05261)
Correct for Stray Light: No (USB2+H05261)
Number of Pixels in Processed Spectrum: 2048
>>>>>Begin Processed Spectral Data<<<<<
365.73	100.64
365.92	100.64
366.12	100.64
366.32	0.00
366.52	0.00
366.72	0.00
366.91	0.00
367.11	0.00
367.31	16.38
367.51	0.00
367.70	0.00
367.90	0.00
368.10	0.00
368.30	0.00
368.49	0.00
368.69	0.00
368.89	0.00
369.09	0.00
369.28	0.00
369.48	0.00
369.68	9.36
369.87	0.00
370.07	63.19
370.27	2.34
370.47	84.26
370.66	170.86
370.86	290.23
371.06	234.05
371.25	250.44
371.45	278.52
371.65	264.48
371.84	248.10
372.04	234.05
372.24	325.33
372.44	294.91
372.63	372.15
372.83	418.96
373.03	290.23
373.22	308.95
373.42	348.74
373.62	266.82
373.81	360.44
374.01	348.74
374.21	386.19
374.40	348.74
374.60	325.33
374.79	374.49
374.99	397.89
375.19	337.04
375.38	341.72
375.58	381.51
375.78	404.91
375.97	376.83
376.17	465.77
376.37	430.66
376.56	440.02
376.76	365.12
376.95	353.42
377.15	421.30
377.35	418.96
377.54	416.62
377.74	381.51
377.93	416.62
378.13	425.98
378.33	421.30
378.52	381.51
378.72	447.04
378.91	379.17
379.11	362.78
379.31	475.13
379.50	348.74
379.70	416.62
379.89	433.00
380.09	358.10
380.28	472.79
380.48	379.17
380.68	388.53
380.87	409.59
381.07	477.47
381.26	503.22
381.46	414.27
381.65	458.74
381.85	465.77
382.04	421.30
382.24	372.15
382.43	400.23
382.63	430.66
382.83	482.15
383.02	482.15
383.22	475.13
383.41	461.09
383.61	458.74
383.80	521.94
384.00	430.66
384.19	503.22
384.39	454.06
384.58	498.53
384.78	486.83
384.97	533.64
385.17	461.09
385.36	512.58
385.56	475.13
385.75	545.34
385.95	573.43
386.14	554.71
386.34	491.51
386.53	538.32
386.72	498.53
386.92	571.09
387.11	615.56
387.31	575.77
387.50	561.73
387.70	631.94
387.89	521.94
388.09	550.03
388.28	505.56
388.48	624.92
388.67	578.11
388.86	550.03
389.06	582.79
389.25	484.49
389.45	645.99
389.64	645.99
389.84	585.13
390.03	631.94
390.22	692.80
390.42	676.41
390.61	631.94
390.81	547.69
391.00	678.76
391.19	685.78
391.39	653.01
391.58	629.60
391.78	655.35
391.97	725.57
392.16	650.67
392.36	704.50
392.55	720.88
392.75	688.12
392.94	706.84
393.13	697.48
393.33	671.73
393.52	688.12
393.71	706.84
393.91	730.25
394.10	681.10
394.29	683.44
394.49	723.23
394.68	802.80
394.88	720.88
395.07	812.17
395.26	727.91
395.46	758.33
395.65	840.25
395.84	840.25
396.04	884.72
396.23	784.08
396.42	821.53
396.62	763.01
396.81	833.23
397.00	849.61
397.19	816.85
397.39	870.68
397.58	896.43
397.77	915.15
397.97	854.30
398.16	915.15
398.35	908.13
398.55	807.48
398.74	898.77
398.93	1022.81
399.12	887.06
399.32	961.96
399.51	905.79
399.70	971.32
399.90	1013.45
400.09	1041.54
400.28	1123.46
400.47	1055.58
400.67	1029.84
400.86	1062.60
401.05	966.64
401.24	997.07
401.44	1032.18
401.63	983.02
401.82	1015.79
402.01	929.19
402.21	1015.79
402.40	1050.90
402.59	1050.90
402.78	1041.54
402.97	1125.80
403.17	1039.20
403.36	1200.69
403.55	1184.31
403.74	1196.01
403.93	1205.38
404.13	1270.91
404.32	1247.51
404.51	1214.74
404.70	1249.85
404.89	1247.51
405.09	1224.10
405.28	1242.82
405.47	1266.23
405.66	1270.91
405.85	1245.16
406.05	1327.08
406.24	1177.29
406.43	1378.58
406.62	1366.87
406.81	1469.86
407.00	1282.61
407.20	1336.45
407.39	1380.92
407.58	1378.58
407.77	1490.92
407.96	1378.58
408.15	1483.90
408.34	1425.39
408.54	1409.00
408.73	1453.47
408.92	1448.79
409.11	1458.15
409.30	1617.31
409.49	1600.93
409.68	1598.59
409.87	1579.86
410.07	1558.80
410.26	1671.14
410.45	1568.16
410.64	1572.84
410.83	1626.67
411.02	1596.25
411.21	1760.08
411.40	1760.08
411.59	1687.53
411.78	1619.65
411.98	1664.12
412.17	1802.21
412.36	1844.34
412.55	1879.45
412.74	1792.85
412.93	1872.43
413.12	1739.02
413.31	1987.11
413.50	1940.30
413.69	1956.69
413.88	2040.95
414.07	1991.80
414.26	1956.69
414.45	2108.82
414.64	1952.01
414.83	2024.56
415.02	2108.82
415.22	2094.78
415.41	2214.15
415.60	2148.61
415.79	2246.91
415.98	2113.50
416.17	2200.10
416.36	2108.82
416.55	2235.21
416.74	2237.55
416.93	2366.28
417.12	2275.00
417.31	2420.11
417.50	2275.00
417.69	2363.94
417.88	2375.64
418.07	2352.24
418.26	2408.41
418.45	2450.54
418.64	2696.30
418.83	2590.97
419.02	2686.94
419.21	2623.74
419.39	2602.68
419.58	2532.46
419.77	2595.65
419.96	2541.82
420.15	2764.17
420.34	2565.23
420.53	2600.34
420.72	2672.89
420.91	2642.46
421.10	2745.45
421.29	2785.24
421.48	2780.56
421.67	2761.83
421.86	2794.60
422.05	2895.24
422.24	2780.56
422.43	2841.41
422.61	2813.32
422.80	2799.28
422.99	2867.16
423.18	2841.41
423.37	2899.92
423.56	2874.18
423.75	2904.60
423.94	2832.05
424.13	2663.53
424.32	2642.46
424.50	2874.18
424.69	2925.67
424.88	2906.95
425.07	2813.32
425.26	2846.09
425.45	2832.05
425.64	2834.39
425.83	2998.23
426.01	2850.77
426.20	2871.84
426.39	2960.78
426.58	2815.66
426.77	2810.98
426.96	3098.87
427.15	2928.01
427.33	3052.06
427.52	2885.88
427.71	3169.09
427.90	3042.70
428.09	3061.42
428.28	2918.65
428.46	3030.99
428.65	3213.56
428.84	3208.87
429.03	3213.56
429.22	3136.32
429.40	3133.98
429.59	3208.87
429.78	3122.27
429.97	2974.82
430.16	3192.49
430.34	3239.30
430.53	3330.58
430.72	3353.99
430.91	3314.20
431.10	3281.43
431.28	3417.18
431.47	3431.23
431.66	3382.07
431.85	3300.16
432.03	3520.17
432.22	3569.32
432.41	3442.93
432.60	3400.80
432.79	3482.72
432.97	3522.51
433.16	3463.99
433.35	3503.78
433.54	3468.67
433.72	3583.36
433.91	3609.11
434.10	3646.55
434.28	3627.83
434.47	3559.95
434.66	3590.38
434.85	3576.34
435.03	3709.75
435.22	3871.25
435.41	3929.76
435.59	3941.46
435.78	3829.12
435.97	3904.01
436.16	3894.65
436.34	3779.97
436.53	3726.13
436.72	3889.97
436.90	3873.59
437.09	3836.14
437.28	3747.20
437.46	3763.58
437.65	3971.89
437.84	3934.44
438.02	3932.10
438.21	3995.29
438.40	3934.44
438.58	3988.27
438.77	4140.41
438.96	4051.47
439.14	4126.36
439.33	4152.11
439.52	4088.92
439.70	4259.78
439.89	4266.80
440.08	4304.25
440.26	4187.22
440.45	4205.94
440.63	4400.21
440.82	4411.91
441.01	4458.72
441.19	4353.40
441.38	4624.90
441.57	4568.73
441.75	4620.22
441.94	4622.56
442.12	4627.24
442.31	4690.43
442.50	4704.48
442.68	4631.92
442.87	4828.53
443.05	4905.76
443.24	4746.61
443.43	4823.84
443.61	4732.56
443.80	5015.77
443.98	4800.44
444.17	4620.22
444.35	4959.60
444.54	4901.08
444.73	4901.08
444.91	4828.53
445.10	4856.61
445.28	4968.96
445.47	4840.23
445.65	4828.53
445.84	5081.30
446.02	4952.57
446.21	4840.23
446.39	4985.34
446.58	4987.68
446.77	4926.83
446.95	4896.40
447.14	4980.66
447.32	5107.05
447.51	4980.66
447.69	4807.46
447.88	5097.69
448.06	4847.25
448.25	4786.40
448.43	4933.85
448.62	4980.66
448.80	5004.07
448.99	5011.09
449.17	4990.02
449.36	5034.49
449.54	5362.17
449.73	5259.18
449.91	5261.52
450.10	5383.23
450.28	5310.68
450.46	5282.59
450.65	5249.82
450.83	5327.06
451.02	5404.30
451.20	5458.13
451.39	5298.97
451.57	5210.03
451.76	5357.49
451.94	5432.38
452.13	5518.98
452.31	5355.15
452.49	5404.30
452.68	5383.23
452.86	5341.10
453.05	5462.81
453.23	5556.43
453.42	5490.90
453.60	5481.53
453.78	5516.64
453.97	5586.86
454.15	5603.24
454.34	5619.63
454.52	5652.39
454.70	5668.78
454.89	5664.10
455.07	5710.91
455.26	5736.65
455.44	5748.36
455.62	5760.06
455.81	5767.08
455.99	5771.76
456.17	5816.23
456.36	5954.32
456.54	6033.90
456.73	6153.27
456.91	6099.44
457.09	6239.87
457.28	6115.82
457.46	5963.68
457.64	6108.80
457.83	6104.12
458.01	6104.12
458.19	6179.01
458.38	6012.84
458.56	6146.25
458.74	6197.74
458.93	6342.85
459.11	6183.70
459.29	6230.51
459.48	6366.26
459.66	6164.97
459.84	6366.26
460.03	6356.90
460.21	6581.59
460.39	6502.01
460.57	6377.96
460.76	6516.05
460.94	6443.49
461.12	6642.44
461.31	6518.39
461.49	6434.13
461.67	6504.35
461.85	6705.63
462.04	6733.72
462.22	7143.32
462.40	6686.91
462.59	6761.81
462.77	6792.23
462.95	6590.95
463.13	6883.52
463.32	6923.30
463.50	6782.87
463.68	6768.83
463.86	6906.92
464.05	6820.32
464.23	6841.39
464.41	6848.41
464.59	6930.33
464.78	6909.26
464.96	6883.52
465.14	6869.47
465.32	7136.29
465.50	7166.72
465.69	7171.40
465.87	6909.26
466.05	7080.12
466.23	6986.50
466.41	7098.84
466.60	7351.62
466.78	7166.72
466.96	7028.63
467.14	7145.66
467.32	7061.40
467.51	7232.26
467.69	7169.06
467.87	7176.08
468.05	7112.89
468.23	7267.36
468.41	7232.26
468.60	7452.27
468.78	7311.83
468.96	7152.68
469.14	7522.48
469.32	7468.65
469.50	7384.39
469.69	7461.63
469.87	7639.51
470.05	7744.83
470.23	7695.68
470.41	7627.81
470.59	7583.34
470.77	7639.51
470.95	7646.53
471.14	7831.43
471.32	7688.66
471.50	8105.28
471.68	7815.05
471.86	8025.70
472.04	7934.42
472.22	8004.63
472.40	7843.14
472.58	8138.04
472.77	8025.70
472.95	8109.96
473.13	8599.13
473.31	8072.51
473.49	8163.79
473.67	8276.13
473.85	8376.78
474.03	8229.32
474.21	8306.56
474.39	8360.39
474.57	8709.13
474.75	8411.89
474.93	8723.18
475.12	8732.54
475.30	8702.11
475.48	8622.53
475.66	8800.41
475.84	8767.65
476.02	8828.50
476.20	8872.97
476.38	9139.79
476.56	9165.54
476.74	9298.95
476.92	9135.11
477.10	8959.57
477.28	9334.06
477.46	9123.41
477.64	9355.12
477.82	9643.01
478.00	9687.48
478.18	9703.86
478.36	9785.78
478.54	9895.78
478.72	9987.07
478.90	10066.64
479.08	10157.92
479.26	10204.74
479.44	10118.14
479.62	10303.04
479.80	10293.68
479.98	10286.65
480.16	10703.27
480.34	10621.35
480.52	10740.72
480.70	10899.87
480.88	10583.90
481.06	10932.64
481.24	10860.09
481.41	10916.26
481.59	10846.04
481.77	11250.96
481.95	11279.04
482.13	11609.06
482.31	11426.50
482.49	11611.40
482.67	11658.21
482.85	11786.94
483.03	11845.45
483.21	11962.48
483.39	12063.12
483.57	12189.51
483.74	12257.39
483.92	12339.30
484.10	12196.53
484.28	12472.71
484.46	12922.10
484.64	12760.60
484.82	12767.62
485.00	12664.64
485.18	12985.29
485.35	13373.82
485.53	13132.75
485.71	12936.14
485.89	13547.02
486.07	13650.00
486.25	13582.13
486.43	13577.45
486.61	13900.44
486.78	13919.17
486.96	14188.33
487.14	14167.26
487.32	14059.60
487.50	14197.69
487.68	14455.15
487.85	14583.88
488.03	14789.85
488.21	14909.21
488.39	14764.10
488.57	15374.98
488.75	15037.94
488.92	15382.00
489.10	15637.12
489.28	15644.14
489.46	15812.66
489.64	15662.86
489.81	16119.27
489.99	16053.73
490.17	16079.48
490.35	16240.98
490.53	16231.62
490.70	16451.63
490.88	16725.47
491.06	16819.09
491.24	16531.20
491.41	16720.79
491.59	16744.19
491.77	16835.47
491.95	17013.35
492.13	16854.20
492.30	17041.44
492.48	17310.60
492.66	17397.20
492.84	17348.05
493.01	17701.47
493.19	17490.82
493.37	17668.70
493.54	18244.48
493.72	17996.38
493.90	18143.83
494.08	18628.32
494.25	18345.12
494.43	18724.29
494.61	18845.99
494.79	19108.13
494.96	18618.96
495.14	18773.44
495.32	18916.21
495.49	19171.33
495.67	19314.10
495.85	19674.54
496.02	19597.31
496.20	19377.30
496.38	19695.61
496.55	19616.03
496.73	20013.92
496.91	20123.93
497.09	20173.08
497.26	20133.29
497.44	20327.55
497.62	20287.76
497.79	20472.67
497.97	20369.68
498.14	20465.64
498.32	20938.43
498.50	20769.91
498.67	20982.90
498.85	20819.07
499.03	21046.10
499.20	21137.38
499.38	21205.25
499.56	21209.93
499.73	21378.45
499.91	21624.21
500.08	21886.35
500.26	21626.55
500.44	21764.64
500.61	21867.63
500.79	21907.41
500.97	21853.58
501.14	22040.82
501.32	22279.56
501.49	22214.02
501.67	22197.64
501.84	22703.20
502.02	22270.20
502.20	22427.01
502.37	22609.58
502.55	22892.78
502.72	22513.61
502.90	22787.46
503.07	22785.12
503.25	23105.77
503.43	22904.48
503.60	23267.27
503.78	23229.82
503.95	23316.42
504.13	23353.87
504.30	23646.43
504.48	23115.13
504.65	23360.89
504.83	23873.46
505.01	23969.43
505.18	24121.56
505.36	24226.89
505.53	23688.56
505.71	24257.31
505.88	24322.85
506.06	24126.24
506.23	24191.78
506.41	24418.81
506.58	24622.44
506.76	24360.30
506.93	24655.20
507.11	24594.35
507.28	24680.95
507.46	24652.86
507.63	24833.08
507.81	24870.53
507.98	25156.08
508.16	25032.03
508.33	25020.33
508.50	25060.12
508.68	25102.25
508.85	25708.44
509.03	25523.54
509.20	25500.14
509.38	25797.38
509.55	25663.97
509.73	25605.46
509.90	25855.90
510.08	25970.58
510.25	26061.87
510.42	25851.22
510.60	26256.13
510.77	26302.94
510.95	26859.99
511.12	25972.92
511.30	26071.23
511.47	26625.93
511.64	26595.51
511.82	27037.87
511.99	26623.59
512.17	27035.53
512.34	26569.76
512.51	27164.26
512.69	27150.21
512.86	27407.67
513.04	27604.28
513.21	27431.08
513.38	27531.72
513.56	27538.74
513.73	27349.16
513.90	27676.83
514.08	27480.23
514.25	27569.17
514.43	27611.30
514.60	27967.06
514.77	28247.93
514.95	28144.94
515.12	28077.07
515.29	27800.88
515.47	28011.53
515.64	28252.61
515.81	28004.51
515.99	28479.64
516.16	28369.63
516.33	28627.09
516.51	28577.94
516.68	28711.35
516.85	28730.08
517.03	29139.67
517.20	28627.09
517.37	29247.33
517.54	29088.18
517.72	28954.77
517.89	28968.81
518.06	29151.37
518.24	29221.59
518.41	28943.06
518.58	29275.42
518.75	29589.05
518.93	29500.11
519.10	29177.12
519.27	29783.32
519.45	29418.19
519.62	29376.06
519.79	29883.96
519.96	29919.07
520.14	30141.42
520.31	29701.40
520.48	30153.12
520.65	30108.65
520.83	30382.49
521.00	30459.73
521.17	30171.85
521.34	30188.23
521.52	30506.54
521.69	30850.60
521.86	30857.62
522.03	30883.37
522.20	31133.81
522.38	30852.94
522.55	30733.57
522.72	30850.60
522.89	31117.42
523.07	31466.16
523.24	31428.71
523.41	31197.00
523.58	30991.03
523.75	31377.22
523.92	30948.90
524.10	31445.10
524.27	31456.80
524.44	31438.08
524.61	31775.11
524.78	31775.11
524.96	31573.83
525.13	31810.22
525.30	31889.80
525.47	32332.16
525.64	31683.83
525.81	32170.66
525.98	32701.96
526.16	32247.90
526.33	32268.97
526.50	32692.60
526.67	32563.87
526.84	32224.50
527.01	32093.43
527.18	32662.18
527.36	32865.80
527.53	32950.06
527.70	33184.12
527.87	32613.02
528.04	33050.70
528.21	33055.39
528.38	32503.02
528.55	33153.69
528.72	33081.13
528.89	33071.77
529.07	33020.28
529.24	32790.91
529.41	33394.76
529.58	33184.12
529.75	33357.32
529.92	33532.86
530.09	33577.33
530.26	33380.72
530.43	33493.07
530.60	33495.41
530.77	33282.42
530.94	34204.59
531.11	33610.09
531.28	34015.01
531.46	33654.56
531.63	33975.22
531.80	34314.59
531.97	34153.10
532.14	34054.79
532.31	33766.91
532.48	34279.49
532.65	34567.37
532.82	33654.56
532.99	34352.04
533.16	34143.74
533.33	34714.83
533.50	34841.21
533.67	34749.93
533.84	34639.93
534.01	34689.08
534.18	34176.50
534.35	34768.66
534.52	34380.13
534.69	34946.54
534.86	34763.98
535.03	34822.49
535.20	35161.87
535.37	35103.35
535.54	34836.53
535.71	35187.61
535.88	34684.40
536.05	35351.45
536.22	34778.02
536.38	35388.90
536.55	35372.52
536.72	35519.97
536.89	35358.47
537.06	35669.76
537.23	35292.94
537.40	35786.79
537.57	35491.88
537.74	35756.36
537.91	36210.43
538.08	35854.67
538.25	35878.07
538.42	35903.82
538.59	35744.66
538.75	35665.08
538.92	35835.94
539.09	36182.34
539.26	36041.91
539.43	36100.42
539.60	36123.83
539.77	35871.05
539.94	36966.42
540.11	36257.24
540.28	35828.92
540.44	36444.48
540.61	36584.91
540.78	36584.91
540.95	36889.18
541.12	36603.64
541.29	36964.08
541.46	36701.94
541.62	36563.85
541.79	36706.62
541.96	37006.21
542.13	36751.09
542.30	36926.63
542.47	37048.34
542.63	37441.55
542.80	37219.20
542.97	37621.77
543.14	37368.99
543.31	37504.74
543.48	37682.62
543.64	37514.11
543.81	37420.48
543.98	37654.54
544.15	37975.19
544.32	37886.25
544.48	38249.03
544.65	37699.01
544.82	37794.97
544.99	37221.54
545.16	37453.25
545.32	37909.66
545.49	38567.35
545.66	38829.49
545.83	39012.05
546.00	39482.50
546.16	38469.04
546.33	38302.87
546.50	37773.91
546.67	38106.26
546.83	37727.10
547.00	38007.96
547.17	38010.30
547.34	38321.59
547.50	38377.76
547.67	38614.16
547.84	38206.90
548.00	38426.92
548.17	38471.39
548.34	38401.17
548.51	38387.13
548.67	38555.64
548.84	38644.59
549.01	38967.58
549.18	38314.57
549.34	38749.91
549.51	38799.06
549.68	38469.04
549.84	38904.38
550.01	38726.50
550.18	38616.50
550.34	38864.60
550.51	39042.48
550.68	38754.59
550.84	38574.37
551.01	38862.26
551.18	38958.22
551.34	38543.94
551.51	38756.93
551.68	39299.94
551.84	38939.49
552.01	39281.21
552.18	39103.33
552.34	39264.83
552.51	39489.52
552.68	38820.13
552.84	39187.59
553.01	40074.65
553.18	39152.48
553.34	39313.98
553.51	39313.98
553.67	39234.40
553.84	40100.40
554.01	39735.27
554.17	39541.01
554.34	39669.74
554.51	39393.56
554.67	39856.98
554.84	39391.22
555.00	39398.24
555.17	39620.59
555.33	39704.85
555.50	40023.16
555.67	39899.11
555.83	39969.33
556.00	39519.95
556.16	40231.47
556.33	39749.32
556.50	39789.11
556.66	39845.28
556.83	39889.75
556.99	40224.45
557.16	40076.99
557.32	40526.38
557.49	40311.05
557.65	40060.61
557.82	40315.73
557.98	40074.65
558.15	40346.15
558.32	40212.74
558.48	40088.70
558.65	40783.83
558.81	40474.88
558.98	40271.26
559.14	40278.28
559.31	40292.32
559.47	39920.18
559.64	40098.06
559.80	40364.88
559.97	40603.61
560.13	40350.84
560.30	40896.18
560.46	40959.38
560.63	40540.42
560.79	40741.71
560.96	40753.41
561.12	40737.02
561.29	40360.20
561.45	40538.08
561.61	40587.23
561.78	40502.97
561.94	40622.34
562.11	40762.77
562.27	41118.53
562.44	40889.16
562.60	40669.15
562.77	40701.92
562.93	41008.53
563.10	40975.76
563.26	40060.61
563.42	40655.11
563.59	41240.24
563.75	40781.49
563.92	40900.86
564.08	40746.39
564.24	41076.40
564.41	41249.60
564.57	41045.97
564.74	40797.88
564.90	40851.71
565.07	41118.53
565.23	41301.09
565.39	41287.05
565.56	41134.92
565.72	41158.32
565.88	41251.94
566.05	40985.12
566.21	40587.23
566.38	41153.64
566.54	41383.01
566.70	41457.91
566.87	41656.85
567.03	41350.24
567.19	41755.16
567.36	41060.02
567.52	41462.59
567.68	41090.44
567.85	41298.75
568.01	41614.72
568.17	41287.05
568.34	41752.82
568.50	41289.39
568.66	41507.06
568.83	42078.15
568.99	41574.94
569.15	41361.95
569.32	41106.83
569.48	40664.47
569.64	41429.82
569.81	41668.56
569.97	41371.31
570.13	41851.12
570.30	40896.18
570.46	41507.06
570.62	41296.41
570.78	41528.13
570.95	40919.59
571.11	41359.61
571.27	41383.01
571.43	41317.48
571.60	41289.39
571.76	41504.72
571.92	41914.31
572.09	41743.45
572.25	41886.23
572.41	41757.50
572.57	41420.46
572.74	41743.45
572.90	41544.51
573.06	41113.85
573.22	41736.43
573.38	41291.73
573.55	41783.24
573.71	42019.64
573.87	41773.88
574.03	41247.26
574.20	42012.62
574.36	41635.79
574.52	41734.09
574.68	42052.41
574.84	41727.07
575.01	42050.06
575.17	41617.07
575.33	41701.32
575.49	41839.42
575.65	41975.17
575.82	41603.02
575.98	41654.51
576.14	42454.98
576.30	42293.48
576.46	41722.39
576.62	41759.84
576.79	41804.31
576.95	41727.07
577.11	42092.19
577.27	42300.50
577.43	41874.52
577.59	41837.08
577.75	41949.42
577.92	41572.60
578.08	41734.09
578.24	41523.44
578.40	41659.20
578.56	41638.13
578.72	41724.73
578.88	42546.26
579.04	42370.72
579.21	42031.34
579.37	42323.91
579.53	42529.87
579.69	42033.68
579.85	41841.76
580.01	41808.99
580.17	41647.49
580.33	42272.42
580.49	42036.02
580.65	42391.78
580.82	42141.35
580.98	41958.78
581.14	42113.26
581.30	42253.69
581.46	41923.68
581.62	42237.31
581.78	41591.32
581.94	41574.94
582.10	41897.93
582.26	42288.80
582.42	42260.71
582.58	42225.60
582.74	42483.06
582.90	42014.96
583.06	42490.09
583.22	42019.64
583.38	42131.98
583.54	42370.72
583.70	42225.60
583.86	42017.30
584.02	42064.11
584.18	42719.46
584.34	42396.46
584.50	42492.43
584.66	42270.08
584.82	42258.37
584.98	42312.20
585.14	41958.78
585.30	41930.70
585.46	42029.00
585.62	41930.70
585.78	42005.59
585.94	41914.31
586.10	42216.24
586.26	41816.01
586.42	42674.99
586.58	42745.20
586.74	42384.76
586.90	41811.33
587.06	42087.51
587.22	42539.24
587.38	41914.31
587.54	42298.16
587.70	42651.58
587.86	42281.78
588.02	42543.92
588.18	42941.81
588.34	42131.98
588.49	42583.71
588.65	42127.30
588.81	42644.56
588.97	42302.84
589.13	42682.01
589.29	42398.80
589.45	42263.05
589.61	42604.77
589.77	42401.14
589.93	42588.39
590.08	42965.21
590.24	43037.77
590.40	42813.08
590.56	42911.38
590.72	42445.62
590.88	42249.01
591.04	42604.77
