SpectraSuite Data File
++++++++++++++++++++++++++++++++++++
Date: Fri Oct 04 11:39:56 GMT-05:00 2013
User: price-jones
Dark Spectrum Present: No
Reference Spectrum Present: No
Number of Sampled Component Spectra: 1
Spectrometers: USB2+H05261
Integration Time (usec): 100000 (USB2+H05261)
Spectra Averaged: 1 (USB2+H05261)
Boxcar Smoothing: 0 (USB2+H05261)
Correct for Electrical Dark: No (USB2+H05261)
Strobe/Lamp Enabled: No (USB2+H05261)
Correct for Detector Non-linearity: No (USB2+H05261)
Correct for Stray Light: No (USB2+H05261)
Number of Pixels in Processed Spectrum: 2048
>>>>>Begin Processed Spectral Data<<<<<
365.73	107.66
365.92	107.66
366.12	107.66
366.32	0.00
366.52	0.00
366.72	0.00
366.91	0.00
367.11	0.00
367.31	0.00
367.51	0.00
367.70	0.00
367.90	0.00
368.10	0.00
368.30	0.00
368.49	0.00
368.69	0.00
368.89	0.00
369.09	0.00
369.28	0.00
369.48	0.00
369.68	0.00
369.87	0.00
370.07	0.00
370.27	0.00
370.47	60.85
370.66	159.16
370.86	198.95
371.06	182.56
371.25	215.33
371.45	180.22
371.65	248.10
371.84	133.41
372.04	229.37
372.24	205.97
372.44	203.63
372.63	220.01
372.83	245.76
373.03	278.52
373.22	201.29
373.42	189.58
373.62	278.52
373.81	250.44
374.01	212.99
374.21	257.46
374.40	220.01
374.60	322.99
374.79	280.86
374.99	278.52
375.19	287.89
375.38	299.59
375.58	318.31
375.78	304.27
375.97	245.76
376.17	381.51
376.37	198.95
376.56	278.52
376.76	285.55
376.95	250.44
377.15	297.25
377.35	304.27
377.54	283.20
377.74	217.67
377.93	194.26
378.13	234.05
378.33	292.57
378.52	236.39
378.72	236.39
378.91	241.08
379.11	222.35
379.31	220.01
379.50	255.12
379.70	182.56
379.89	285.55
380.09	241.08
380.28	264.48
380.48	301.93
380.68	315.97
380.87	205.97
381.07	259.80
381.26	287.89
381.46	337.04
381.65	248.10
381.85	292.57
382.04	308.95
382.24	294.91
382.43	313.63
382.63	292.57
382.83	215.33
383.02	294.91
383.22	315.97
383.41	351.08
383.61	313.63
383.80	238.73
384.00	308.95
384.19	292.57
384.39	311.29
384.58	301.93
384.78	280.86
384.97	320.65
385.17	358.10
385.36	325.33
385.56	355.76
385.75	271.50
385.95	320.65
386.14	334.70
386.34	365.12
386.53	332.36
386.72	318.31
386.92	325.33
387.11	280.86
387.31	369.80
387.50	320.65
387.70	322.99
387.89	346.40
388.09	266.82
388.28	337.04
388.48	315.97
388.67	362.78
388.86	348.74
389.06	402.57
389.25	425.98
389.45	327.68
389.64	425.98
389.84	337.04
390.03	290.23
390.22	437.68
390.42	348.74
390.61	388.53
390.81	360.44
391.00	404.91
391.19	395.55
391.39	416.62
391.58	447.04
391.78	425.98
391.97	402.57
392.16	418.96
392.36	512.58
392.55	407.25
392.75	402.57
392.94	543.00
393.13	465.77
393.33	423.64
393.52	470.45
393.71	484.49
393.91	425.98
394.10	451.72
394.29	435.34
394.49	400.23
394.68	449.38
394.88	449.38
395.07	428.32
395.26	458.74
395.46	500.87
395.65	524.28
395.84	535.98
396.04	578.11
396.23	519.60
396.42	500.87
396.62	538.32
396.81	479.81
397.00	496.19
397.19	505.56
397.39	540.66
397.58	573.43
397.77	505.56
397.97	547.69
398.16	564.07
398.35	510.24
398.55	517.26
398.74	531.30
398.93	599.18
399.12	552.37
399.32	547.69
399.51	601.52
399.70	638.97
399.90	631.94
400.09	601.52
400.28	589.82
400.47	653.01
400.67	676.41
400.86	589.82
401.05	734.93
401.24	706.84
401.44	758.33
401.63	692.80
401.82	767.70
402.01	718.54
402.21	704.50
402.40	741.95
402.59	688.12
402.78	709.18
402.97	655.35
403.17	737.27
403.36	786.42
403.55	819.19
403.74	840.25
403.93	774.72
404.13	809.83
404.32	877.70
404.51	866.00
404.70	917.49
404.89	823.87
405.09	873.02
405.28	931.53
405.47	929.19
405.66	891.74
405.85	880.04
406.05	947.92
406.24	940.90
406.43	978.34
406.62	973.66
406.81	950.26
407.00	966.64
407.20	908.13
407.39	1039.20
407.58	966.64
407.77	1039.20
407.96	961.96
408.15	1039.20
408.34	1041.54
408.54	1004.09
408.73	1029.84
408.92	1109.41
409.11	1151.54
409.30	1160.91
409.49	1041.54
409.68	1153.88
409.87	1219.42
410.07	1041.54
410.26	1226.44
410.45	1196.01
410.64	1055.58
410.83	1294.32
411.02	1205.38
411.21	1240.48
411.40	1303.68
411.59	1256.87
411.78	1324.74
411.98	1303.68
412.17	1306.02
412.36	1343.47
412.55	1359.85
412.74	1350.49
412.93	1474.54
413.12	1359.85
413.31	1469.86
413.50	1423.05
413.69	1444.11
413.88	1516.67
414.07	1474.54
414.26	1516.67
414.45	1467.52
414.64	1589.22
414.83	1624.33
415.02	1542.41
415.22	1577.52
415.41	1629.01
415.60	1556.46
415.79	1715.61
415.98	1591.56
416.17	1673.48
416.36	1626.67
416.55	1687.53
416.74	1689.87
416.93	1755.40
417.12	1797.53
417.31	1879.45
417.50	1916.90
417.69	1977.75
417.88	2029.24
418.07	1795.19
418.26	1891.15
418.45	1923.92
418.64	1893.49
418.83	1928.60
419.02	1930.94
419.21	1921.58
419.39	2045.63
419.58	1907.54
419.77	1914.56
419.96	1914.56
420.15	2099.46
420.34	1980.09
420.53	1968.39
420.72	2118.18
420.91	2080.74
421.10	2085.42
421.29	2094.78
421.48	2010.52
421.67	2069.03
421.86	2076.06
422.05	2258.62
422.24	2211.81
422.43	2186.06
422.61	2118.18
422.80	2097.12
422.99	2232.87
423.18	2134.57
423.37	2188.40
423.56	2134.57
423.75	2118.18
423.94	2270.32
424.13	2146.27
424.32	2022.22
424.50	2204.78
424.69	2258.62
424.88	2270.32
425.07	2066.69
425.26	2237.55
425.45	2237.55
425.64	2190.74
425.83	2230.53
426.01	2239.89
426.20	2235.21
426.39	2258.62
426.58	2258.62
426.77	2260.96
426.96	2342.88
427.15	2263.30
427.33	2338.20
427.52	2326.49
427.71	2317.13
427.90	2406.07
428.09	2466.92
428.28	2326.49
428.46	2342.88
428.65	2401.39
428.84	2422.45
429.03	2480.97
429.22	2352.24
429.40	2389.69
429.59	2312.45
429.78	2345.22
429.97	2324.15
430.16	2480.97
430.34	2396.71
430.53	2619.06
430.72	2478.63
430.91	2555.86
431.10	2502.03
431.28	2607.36
431.47	2654.17
431.66	2637.78
431.85	2509.05
432.03	2661.19
432.22	2736.09
432.41	2644.81
432.60	2752.47
432.79	2647.15
432.97	2761.83
433.16	2803.96
433.35	2717.36
433.54	2712.68
433.72	2698.64
433.91	2682.25
434.10	2724.38
434.28	2745.45
434.47	2867.16
434.66	2719.70
434.85	2846.09
435.03	3033.33
435.22	3080.14
435.41	3353.99
435.59	3262.71
435.78	3185.47
435.97	3087.17
436.16	2986.52
436.34	2916.31
436.53	3009.93
436.72	3063.76
436.90	2979.50
437.09	3021.63
437.28	2867.16
437.46	2967.80
437.65	3052.06
437.84	3059.08
438.02	2960.78
438.21	3077.80
438.40	2972.48
438.58	3199.51
438.77	3171.43
438.96	3246.32
439.14	3178.45
439.33	3307.18
439.52	3234.62
439.70	3276.75
439.89	3201.85
440.08	3243.98
440.26	3211.22
440.45	3262.71
440.63	3389.10
440.82	3492.08
441.01	3330.58
441.19	3300.16
441.38	3414.84
441.57	3496.76
441.75	3513.14
441.94	3524.85
442.12	3510.80
442.31	3501.44
442.50	3606.77
442.68	3679.32
442.87	3604.42
443.05	3658.26
443.24	3737.84
443.43	3712.09
443.61	3896.99
443.80	3702.73
443.98	3459.31
444.17	3503.78
444.35	3751.88
444.54	3684.00
444.73	3637.19
444.91	3812.73
445.10	3658.26
445.28	3873.59
445.47	3625.49
445.65	3805.71
445.84	3810.39
446.02	3721.45
446.21	3665.28
446.39	3817.41
446.58	3817.41
446.77	3833.80
446.95	3810.39
447.14	3716.77
447.32	3899.33
447.51	3864.22
447.69	3796.35
447.88	3817.41
448.06	3833.80
448.25	3770.60
448.43	3742.52
448.62	3810.39
448.80	3932.10
448.99	3758.90
449.17	3896.99
449.36	3974.23
449.54	4004.66
449.73	3999.98
449.91	4004.66
450.10	3913.38
450.28	4112.32
450.46	4086.58
450.65	3948.48
450.83	4140.41
451.02	4032.74
451.20	4173.18
451.39	3943.80
451.57	4079.55
451.76	3854.86
451.94	4100.62
452.13	4042.11
452.31	4065.51
452.49	4086.58
452.68	4198.92
452.86	4114.66
453.05	4332.33
453.23	4238.71
453.42	4145.09
453.60	4170.83
453.78	4191.90
453.97	4245.73
454.15	4234.03
454.34	4154.45
454.52	4346.37
454.70	4290.20
454.89	4409.57
455.07	4351.06
455.26	4318.29
455.44	4444.68
455.62	4451.70
455.81	4397.87
455.99	4365.10
456.17	4526.60
456.36	4411.91
456.54	4528.94
456.73	4564.04
456.91	4624.90
457.09	4620.22
457.28	4690.43
457.46	4578.09
457.64	4409.57
457.83	4587.45
458.01	4601.49
458.19	4802.78
458.38	4669.37
458.56	4657.67
458.74	4641.28
458.93	4622.56
459.11	4744.27
459.29	4592.13
459.48	4669.37
459.66	4849.59
459.84	4851.93
460.03	5006.41
460.21	4805.12
460.39	4966.62
460.57	4755.97
460.76	4971.30
460.94	4947.89
461.12	4987.68
461.31	4926.83
461.49	4926.83
461.67	4891.72
461.85	5041.51
462.04	4966.62
462.22	5460.47
462.40	5153.86
462.59	4964.28
462.77	5139.82
462.95	5074.28
463.13	4957.25
463.32	5076.62
463.50	5228.76
463.68	5198.33
463.86	5172.58
464.05	5177.26
464.23	5121.09
464.41	5231.10
464.59	5111.73
464.78	5160.88
464.96	5179.61
465.14	5188.97
465.32	5217.05
465.50	5135.14
465.69	5305.99
465.87	5280.25
466.05	5313.02
466.23	5441.75
466.41	5320.04
466.60	5427.70
466.78	5364.51
466.96	5343.44
467.14	5313.02
467.32	5329.40
467.51	5408.98
467.69	5387.91
467.87	5416.00
468.05	5607.92
468.23	5570.48
468.41	5394.93
468.60	5434.72
468.78	5453.45
468.96	5556.43
469.14	5561.11
469.32	5577.50
469.50	5509.62
469.69	5643.03
469.87	5570.48
470.05	5724.95
470.23	5760.06
470.41	5783.46
470.59	5664.10
470.77	5837.30
470.95	5872.40
471.14	5949.64
471.32	5788.14
471.50	6061.99
471.68	5928.58
471.86	6118.16
472.04	5905.17
472.22	6038.58
472.40	5919.21
472.58	6120.50
472.77	5944.96
472.95	6097.10
473.13	6431.79
473.31	5980.07
473.49	6181.35
473.67	6251.57
473.85	6258.59
474.03	6090.07
474.21	6307.74
474.39	6499.67
474.57	6377.96
474.75	6352.21
474.93	6511.37
475.12	6438.81
475.30	6485.62
475.48	6310.08
475.66	6602.65
475.84	6581.59
476.02	6750.10
476.20	6677.55
476.38	6719.68
476.56	6803.94
476.74	6820.32
476.92	6787.55
477.10	6876.49
477.28	6993.52
477.46	7047.35
477.64	7037.99
477.82	7211.19
478.00	7351.62
478.18	7246.30
478.36	7148.00
478.54	7290.77
478.72	7307.15
478.90	7260.34
479.08	7522.48
479.26	7576.31
479.44	7536.52
479.62	7522.48
479.80	7747.17
479.98	7784.62
480.16	7775.26
480.34	7936.76
480.52	7882.92
480.70	7744.83
480.88	7882.92
481.06	8025.70
481.24	8067.83
481.41	8280.82
481.59	8381.46
481.77	8346.35
481.95	8510.19
482.13	8552.32
482.31	8299.54
482.49	8571.04
482.67	8498.49
482.85	8643.60
483.03	9048.51
483.21	8868.29
483.39	8924.46
483.57	9025.11
483.74	9029.79
483.92	8992.34
484.10	9142.13
484.28	9348.10
484.46	9476.83
484.64	9554.07
484.82	9245.12
485.00	9628.96
485.18	9593.86
485.35	9708.54
485.53	9806.84
485.71	9895.78
485.89	10059.62
486.07	10026.86
486.25	10083.03
486.43	9853.66
486.61	10033.88
486.78	10106.43
486.96	10274.95
487.14	10445.81
487.32	10267.93
487.50	10501.98
487.68	10415.38
487.85	10686.89
488.03	10787.53
488.21	10988.82
488.39	11000.52
488.57	10951.37
488.75	11215.85
488.92	11386.71
489.10	11152.65
489.28	11222.87
489.46	11485.01
489.64	11454.58
489.81	11850.13
489.99	11480.33
490.17	11850.13
490.35	11847.79
490.53	11971.84
490.70	12149.72
490.88	11833.75
491.06	12095.89
491.24	12175.47
491.41	12336.96
491.59	12285.47
491.77	12250.36
491.95	12465.69
492.13	12784.01
492.30	12643.57
492.48	12545.27
492.66	12491.44
492.84	12704.43
493.01	12861.24
493.19	12798.05
493.37	13198.28
493.54	13081.25
493.72	13273.18
493.90	12975.93
494.08	13247.43
494.25	13516.59
494.43	13397.23
494.61	13722.56
494.79	13748.31
494.96	13834.91
495.14	13776.39
495.32	14094.71
495.49	13886.40
495.67	14183.65
495.85	14075.98
496.02	14370.89
496.20	14260.88
496.38	14183.65
496.55	14326.42
496.73	14764.10
496.91	14586.22
497.09	14410.68
497.26	14731.33
497.44	14581.54
497.62	14593.24
497.79	15014.54
497.97	14951.34
498.14	15061.35
498.32	15000.49
498.50	15218.16
498.67	15410.09
498.85	15269.66
499.03	15194.76
499.20	15232.21
499.38	15346.89
499.56	15583.29
499.73	15571.58
499.91	15527.11
500.08	15915.64
500.26	15590.31
500.44	15796.28
500.61	15447.54
500.79	15861.81
500.97	16091.18
501.14	16191.83
501.32	16182.46
501.49	16217.57
501.67	16418.86
501.84	16325.24
502.02	16666.95
502.20	16418.86
502.37	16379.07
502.55	16486.73
502.72	16634.19
502.90	16468.01
503.07	16503.12
503.25	16657.59
503.43	16826.11
503.60	16826.11
503.78	16835.47
503.95	16573.33
504.13	16929.09
504.30	16695.04
504.48	16898.67
504.65	16819.09
504.83	17282.52
505.01	17128.04
505.18	17249.75
505.36	17556.36
505.53	17539.97
505.71	17287.20
505.88	17420.61
506.06	17207.62
506.23	17631.26
506.41	17778.71
506.58	17638.28
506.76	17781.05
506.93	18174.26
507.11	17619.55
507.28	17839.56
507.46	18155.54
507.63	17713.17
507.81	18525.34
507.98	18129.79
508.16	18387.25
508.33	18050.21
508.50	18499.59
508.68	18349.80
508.85	18792.16
509.03	18427.04
509.20	18792.16
509.38	18642.37
509.55	18871.74
509.73	18944.30
509.90	18810.89
510.08	18654.07
510.25	18965.36
510.42	18883.44
510.60	19295.38
510.77	19309.42
510.95	19297.72
511.12	19307.08
511.30	19119.84
511.47	19447.51
511.64	19349.21
511.82	19576.24
511.99	19393.68
512.17	19311.76
512.34	19145.58
512.51	19454.53
512.69	19580.92
512.86	19721.35
513.04	19669.86
513.21	19985.83
513.38	19796.25
513.56	19749.44
513.73	19871.15
513.90	19697.95
514.08	19964.77
514.25	20315.85
514.43	20079.46
514.60	20147.33
514.77	20369.68
514.95	20432.88
515.12	20086.48
515.29	20039.67
515.47	20645.87
515.64	20510.11
515.81	20491.39
515.99	20276.06
516.16	20814.38
516.33	20606.08
516.51	20542.88
516.68	20386.07
516.85	21013.33
517.03	20903.32
517.20	20833.11
517.37	20938.43
517.54	21216.96
517.72	20929.07
517.89	21120.99
518.06	21132.70
518.24	20931.41
518.41	21029.71
518.58	21352.71
518.75	21235.68
518.93	21427.60
519.10	21561.02
519.27	21460.37
519.45	21649.96
519.62	21715.49
519.79	21532.93
519.96	21507.18
520.14	21656.98
520.31	21649.96
520.48	21888.69
520.65	21439.31
520.83	21766.98
521.00	21682.72
521.17	21633.57
521.34	21940.18
521.52	22015.08
521.69	22223.39
521.86	22319.35
522.03	22286.58
522.20	22008.06
522.38	22221.05
522.55	22099.34
522.72	22305.31
522.89	22424.67
523.07	22731.28
523.24	22422.33
523.41	22513.61
523.58	22277.22
523.75	22862.35
523.92	22614.26
524.10	22497.23
524.27	22721.92
524.44	22944.27
524.61	23187.69
524.78	22618.94
524.96	22721.92
525.13	22651.70
525.30	22822.56
525.47	23016.83
525.64	23075.34
525.81	23108.11
525.98	23267.27
526.16	22974.70
526.33	23358.55
526.50	23363.23
526.67	22934.91
526.84	23152.58
527.01	23124.49
527.18	23587.92
527.36	23257.90
527.53	23494.30
527.70	24023.26
527.87	23721.33
528.04	23733.03
528.21	23754.10
528.38	23424.08
528.55	23601.96
528.72	23576.22
528.89	24147.31
529.07	23702.61
529.24	23843.04
529.41	23859.42
529.58	23744.73
529.75	23878.15
529.92	23761.12
530.09	23627.71
530.26	23969.43
530.43	23828.99
530.60	24219.86
530.77	23990.49
530.94	24407.11
531.11	24414.13
531.28	23840.70
531.46	24201.14
531.63	24226.89
531.80	24133.26
531.97	24641.16
532.14	24823.72
532.31	24182.42
532.48	24393.06
532.65	24503.07
532.82	24332.21
532.99	24467.96
533.16	24109.86
533.33	24879.89
533.50	24629.46
533.67	24575.62
533.84	24680.95
534.01	24797.98
534.18	24685.63
534.35	24819.04
534.52	24521.79
534.69	25198.21
534.86	24776.91
535.03	24837.76
535.20	25144.38
535.37	24783.93
535.54	25050.75
535.71	24519.45
535.88	25015.65
536.05	24723.08
536.22	25329.28
536.38	25088.20
536.55	25418.22
536.72	25387.79
536.89	25212.25
537.06	25127.99
537.23	25364.39
537.40	25315.23
537.57	25015.65
537.74	25659.29
537.91	25757.60
538.08	25511.84
538.25	25469.71
538.42	25591.42
538.59	25546.95
538.75	25179.48
538.92	25450.99
539.09	25844.20
539.26	25750.57
539.43	25816.11
539.60	25727.17
539.77	25977.61
539.94	25977.61
540.11	26071.23
540.28	26324.01
540.44	25752.91
540.61	25790.36
540.78	25886.32
540.95	26115.70
541.12	26221.02
541.29	26859.99
541.46	26574.44
541.62	26618.91
541.79	26611.89
541.96	26651.68
542.13	26263.15
542.30	26445.71
542.47	26572.10
542.63	26883.39
542.80	26705.51
542.97	26927.86
543.14	27005.10
543.31	26948.93
543.48	26792.11
543.64	26852.97
543.81	27051.91
543.98	27154.90
544.15	27374.91
544.32	27417.04
544.48	26984.04
544.65	26881.05
544.82	26881.05
544.99	26871.69
545.16	27304.69
545.32	27119.79
545.49	27847.69
545.66	28217.50
545.83	28074.73
546.00	27978.76
546.16	27714.28
546.33	27538.74
546.50	26967.65
546.67	27285.97
546.83	26745.30
547.00	27023.83
547.17	27019.14
547.34	27295.33
547.50	27407.67
547.67	27779.82
547.84	27115.11
548.00	27108.08
548.17	27665.13
548.34	27496.61
548.51	27194.68
548.67	27314.05
548.84	27400.65
549.01	27367.88
549.18	27468.53
549.34	27302.35
549.51	27697.90
549.68	27559.81
549.84	27187.66
550.01	27161.92
550.18	27346.82
550.34	27613.64
550.51	27517.68
550.68	27566.83
550.84	27742.37
551.01	27688.54
551.18	27417.04
551.34	27412.35
551.51	27337.46
551.68	27721.30
551.84	27667.47
552.01	27381.93
552.18	27255.54
552.34	27566.83
552.51	27372.57
552.68	27503.64
552.84	27695.56
553.01	27599.60
553.18	27632.36
553.34	27702.58
553.51	27475.55
553.67	28322.82
553.84	27758.75
554.01	28144.94
554.17	27828.97
554.34	28091.11
554.51	27955.36
554.67	27964.72
554.84	28016.21
555.00	27541.08
555.17	28053.66
555.33	27847.69
555.50	28072.39
555.67	27751.73
555.83	28231.54
556.00	28180.05
556.16	27946.00
556.33	27908.55
556.50	27693.22
556.66	27978.76
556.83	27777.48
556.99	27988.13
557.16	28219.84
557.32	28198.77
557.49	28163.67
557.65	27885.14
557.82	27892.16
557.98	27960.04
558.15	28011.53
558.32	28294.74
558.48	28266.65
558.65	28556.88
558.81	28030.26
558.98	27812.59
559.14	28135.58
559.31	28231.54
559.47	28098.13
559.64	28294.74
559.80	27931.95
559.97	28343.89
560.13	28294.74
560.30	28510.07
560.46	28315.80
560.63	28273.67
560.79	28844.76
560.96	28645.82
561.12	28044.30
561.29	28336.87
561.45	28018.55
561.61	28547.51
561.78	28306.44
561.94	28294.74
562.11	28500.70
562.27	28079.41
562.44	28411.76
562.60	28458.57
562.77	28299.42
562.93	28458.57
563.10	28716.03
563.26	28643.48
563.42	28517.09
563.59	28662.20
563.75	28547.51
563.92	28804.97
564.08	28374.31
564.24	28313.46
564.41	28236.22
564.57	28360.27
564.74	28549.85
564.90	28439.85
565.07	28627.09
565.23	28540.49
565.39	28500.70
565.56	28690.29
565.72	28386.02
565.88	28524.11
566.05	28173.03
566.21	28760.50
566.38	28587.30
566.54	28552.20
566.70	28505.38
566.87	28957.11
567.03	28833.06
567.19	28816.68
567.36	28329.84
567.52	28599.01
567.68	28765.18
567.85	27995.15
568.01	28290.06
568.17	28388.36
568.34	28622.41
568.50	28816.68
568.66	28376.66
568.83	29177.12
568.99	28411.76
569.15	28364.95
569.32	28233.88
569.48	28563.90
569.64	28746.46
569.81	28563.90
569.97	28701.99
570.13	28657.52
570.30	28989.88
570.46	28870.51
570.62	28837.74
570.78	28519.43
570.95	28744.12
571.11	28355.59
571.27	28507.72
571.43	28786.25
571.60	28634.11
571.76	28809.65
571.92	28856.46
572.09	28783.91
572.25	28868.17
572.41	28512.41
572.57	29078.82
572.74	29050.73
572.90	28627.09
573.06	28959.45
573.22	28701.99
573.38	28603.69
573.55	28762.84
573.71	29034.35
573.87	29039.03
574.03	28690.29
574.20	28512.41
574.36	28753.48
574.52	28538.15
574.68	28886.89
574.84	28814.34
575.01	28664.54
575.17	28624.75
575.33	28620.07
575.49	28528.79
575.65	29123.29
575.82	29050.73
575.98	29111.58
576.14	28617.73
576.30	29142.01
576.46	28868.17
576.62	28926.68
576.79	29179.46
576.95	28819.02
577.11	28690.29
577.27	29109.24
577.43	28940.72
577.59	28694.97
577.75	28758.16
577.92	28561.56
578.08	28594.32
578.24	28533.47
578.40	28830.72
578.56	28837.74
578.72	29127.97
578.88	29024.98
579.04	29380.74
579.21	29043.71
579.37	28826.04
579.53	28662.20
579.69	28882.21
579.85	28664.54
580.01	29099.88
580.17	29163.08
580.33	29039.03
580.49	28713.69
580.65	28968.81
580.82	29048.39
580.98	28877.53
581.14	28943.06
581.30	28879.87
581.46	28772.21
581.62	28638.80
581.78	28659.86
581.94	28886.89
582.10	28746.46
582.26	28900.94
582.42	29289.46
582.58	28980.51
582.74	29191.16
582.90	28973.49
583.06	28980.51
583.22	28804.97
583.38	28386.02
583.54	29039.03
583.70	29198.18
583.86	28957.11
584.02	28552.20
584.18	29308.19
584.34	29102.22
584.50	29212.23
584.66	28884.55
584.82	28666.88
584.98	28643.48
585.14	28943.06
585.30	28758.16
585.46	28994.56
585.62	28533.47
585.78	29053.07
585.94	28804.97
586.10	28847.10
586.26	28802.63
586.42	28854.12
586.58	29383.09
586.74	28917.32
586.90	28685.61
587.06	28905.62
587.22	29064.77
587.38	29074.13
587.54	29116.26
587.70	28917.32
587.86	29167.76
588.02	28952.43
588.18	29134.99
588.34	28858.81
588.49	28875.19
588.65	28753.48
588.81	29144.35
588.97	28566.24
589.13	29436.92
589.29	28694.97
589.45	28968.81
589.61	29097.54
589.77	29074.13
589.93	29399.47
590.08	29029.66
590.24	29083.50
590.40	29343.30
590.56	29074.13
590.72	29230.95
590.88	28512.41
591.04	29024.98
591.20	29088.18
591.35	29631.18
591.51	29530.54
591.67	29228.61
591.83	29305.85
