SpectraSuite Data File
++++++++++++++++++++++++++++++++++++
Date: Fri Oct 04 11:39:31 GMT-05:00 2013
User: price-jones
Dark Spectrum Present: No
Reference Spectrum Present: No
Number of Sampled Component Spectra: 1
Spectrometers: USB2+H05261
Integration Time (usec): 100000 (USB2+H05261)
Spectra Averaged: 1 (USB2+H05261)
Boxcar Smoothing: 0 (USB2+H05261)
Correct for Electrical Dark: No (USB2+H05261)
Strobe/Lamp Enabled: No (USB2+H05261)
Correct for Detector Non-linearity: No (USB2+H05261)
Correct for Stray Light: No (USB2+H05261)
Number of Pixels in Processed Spectrum: 2048
>>>>>Begin Processed Spectral Data<<<<<
365.73	77.24
365.92	77.24
366.12	77.24
366.32	0.00
366.52	0.00
366.72	0.00
366.91	0.00
367.11	0.00
367.31	0.00
367.51	4.68
367.70	0.00
367.90	0.00
368.10	0.00
368.30	0.00
368.49	0.00
368.69	42.13
368.89	0.00
369.09	0.00
369.28	0.00
369.48	0.00
369.68	63.19
369.87	0.00
370.07	39.79
370.27	30.43
370.47	44.47
370.66	110.01
370.86	177.88
371.06	191.92
371.25	201.29
371.45	140.43
371.65	212.99
371.84	114.69
372.04	177.88
372.24	201.29
372.44	105.32
372.63	238.73
372.83	163.84
373.03	187.24
373.22	163.84
373.42	142.77
373.62	166.18
373.81	163.84
374.01	227.03
374.21	173.20
374.40	91.28
374.60	229.37
374.79	217.67
374.99	215.33
375.19	250.44
375.38	299.59
375.58	152.13
375.78	212.99
375.97	215.33
376.17	231.71
376.37	147.45
376.56	191.92
376.76	252.78
376.95	201.29
377.15	252.78
377.35	191.92
377.54	208.31
377.74	166.18
377.93	262.14
378.13	273.84
378.33	266.82
378.52	245.76
378.72	266.82
378.91	166.18
379.11	243.42
379.31	194.26
379.50	140.43
379.70	238.73
379.89	142.77
380.09	236.39
380.28	227.03
380.48	215.33
380.68	173.20
380.87	236.39
381.07	159.16
381.26	231.71
381.46	238.73
381.65	236.39
381.85	170.86
382.04	278.52
382.24	255.12
382.43	248.10
382.63	205.97
382.83	259.80
383.02	304.27
383.22	283.20
383.41	229.37
383.61	278.52
383.80	227.03
384.00	252.78
384.19	231.71
384.39	210.65
384.58	271.50
384.78	196.60
384.97	257.46
385.17	238.73
385.36	241.08
385.56	252.78
385.75	205.97
385.95	238.73
386.14	234.05
386.34	315.97
386.53	271.50
386.72	278.52
386.92	325.33
387.11	304.27
387.31	271.50
387.50	290.23
387.70	290.23
387.89	301.93
388.09	201.29
388.28	278.52
388.48	259.80
388.67	236.39
388.86	255.12
389.06	315.97
389.25	271.50
389.45	243.42
389.64	315.97
389.84	308.95
390.03	280.86
390.22	334.70
390.42	294.91
390.61	266.82
390.81	276.18
391.00	330.02
391.19	346.40
391.39	278.52
391.58	348.74
391.78	346.40
391.97	301.93
392.16	299.59
392.36	308.95
392.55	332.36
392.75	259.80
392.94	360.44
393.13	367.46
393.33	332.36
393.52	414.27
393.71	318.31
393.91	280.86
394.10	313.63
394.29	304.27
394.49	341.72
394.68	341.72
394.88	348.74
395.07	322.99
395.26	348.74
395.46	447.04
395.65	395.55
395.84	355.76
396.04	496.19
396.23	444.70
396.42	397.89
396.62	433.00
396.81	400.23
397.00	423.64
397.19	386.19
397.39	395.55
397.58	425.98
397.77	339.38
397.97	362.78
398.16	442.36
398.35	416.62
398.55	386.19
398.74	500.87
398.93	491.51
399.12	470.45
399.32	407.25
399.51	435.34
399.70	538.32
399.90	414.27
400.09	493.85
400.28	533.64
400.47	461.09
400.67	514.92
400.86	622.58
401.05	606.20
401.24	528.96
401.44	582.79
401.63	503.22
401.82	608.54
402.01	606.20
402.21	585.13
402.40	603.86
402.59	552.37
402.78	596.84
402.97	580.45
403.17	582.79
403.36	533.64
403.55	627.26
403.74	688.12
403.93	706.84
404.13	678.76
404.32	655.35
404.51	711.52
404.70	737.27
404.89	674.07
405.09	819.19
405.28	842.59
405.47	746.63
405.66	751.31
405.85	755.99
406.05	842.59
406.24	819.19
406.43	772.38
406.62	880.04
406.81	866.00
407.00	847.27
407.20	748.97
407.39	828.55
407.58	884.72
407.77	877.70
407.96	929.19
408.15	926.85
408.34	873.02
408.54	966.64
408.73	922.17
408.92	952.60
409.11	945.58
409.30	929.19
409.49	919.83
409.68	912.81
409.87	1025.15
410.07	973.66
410.26	1022.81
410.45	1034.52
410.64	1020.47
410.83	1116.44
411.02	1067.28
411.21	1100.05
411.40	1071.97
411.59	1167.93
411.78	1200.69
411.98	1132.82
412.17	1123.46
412.36	1104.73
412.55	1249.85
412.74	1259.21
412.93	1263.89
413.12	1261.55
413.31	1432.41
413.50	1348.15
413.69	1397.30
413.88	1404.32
414.07	1317.72
414.26	1369.21
414.45	1390.28
414.64	1416.02
414.83	1462.83
415.02	1409.00
415.22	1474.54
415.41	1572.84
415.60	1486.24
415.79	1385.60
415.98	1544.75
416.17	1497.94
416.36	1434.75
416.55	1563.48
416.74	1717.95
416.93	1600.93
417.12	1528.37
417.31	1753.06
417.50	1696.89
417.69	1703.91
417.88	1687.53
418.07	1713.27
418.26	1680.50
418.45	1806.89
418.64	1682.85
418.83	1860.73
419.02	1811.57
419.21	1851.36
419.39	1783.49
419.58	1769.44
419.77	1839.66
419.96	1891.15
420.15	1858.39
420.34	1891.15
420.53	1856.04
420.72	1877.11
420.91	1802.21
421.10	1900.52
421.29	1879.45
421.48	1998.82
421.67	2071.37
421.86	1900.52
422.05	1914.56
422.24	1966.05
422.43	2078.40
422.61	1994.14
422.80	2057.33
422.99	1998.82
423.18	2033.93
423.37	2064.35
423.56	2024.56
423.75	2062.01
423.94	1949.67
424.13	1954.35
424.32	1902.86
424.50	2033.93
424.69	2071.37
424.88	2125.21
425.07	2097.12
425.26	2031.58
425.45	2083.08
425.64	2230.53
425.83	2186.06
426.01	2127.55
426.20	2160.31
426.39	2125.21
426.58	2090.10
426.77	2139.25
426.96	2204.78
427.15	2146.27
427.33	2225.85
427.52	2146.27
427.71	2193.08
427.90	2284.36
428.09	2282.02
428.28	2181.38
428.46	2394.37
428.65	2375.64
428.84	2293.72
429.03	2338.20
429.22	2232.87
429.40	2235.21
429.59	2380.32
429.78	2289.04
429.97	2314.79
430.16	2359.26
430.34	2363.94
430.53	2480.97
430.72	2375.64
430.91	2317.13
431.10	2466.92
431.28	2621.40
431.47	2415.43
431.66	2539.48
431.85	2335.85
432.03	2401.39
432.22	2672.89
432.41	2581.61
432.60	2523.10
432.79	2431.82
432.97	2530.12
433.16	2581.61
433.35	2511.39
433.54	2597.99
433.72	2476.29
433.91	2654.17
434.10	2609.70
434.28	2661.19
434.47	2630.76
434.66	2705.66
434.85	2677.57
435.03	2843.75
435.22	2862.48
435.41	3126.96
435.59	3164.40
435.78	2928.01
435.97	2871.84
436.16	2726.72
436.34	2761.83
436.53	2766.51
436.72	2764.17
436.90	2834.39
437.09	2789.92
437.28	2731.41
437.46	2743.11
437.65	2818.00
437.84	2813.32
438.02	2935.03
438.21	2892.90
438.40	2888.22
438.58	2867.16
438.77	2967.80
438.96	2986.52
439.14	2904.60
439.33	2993.55
439.52	2953.76
439.70	2935.03
439.89	3082.49
440.08	3096.53
440.26	2981.84
440.45	3082.49
440.63	3236.96
440.82	3246.32
441.01	3112.91
441.19	3243.98
441.38	3311.86
441.57	3304.84
441.75	3342.28
441.94	3398.46
442.12	3358.67
442.31	3328.24
442.50	3412.50
442.68	3323.56
442.87	3314.20
443.05	3389.10
443.24	3566.98
443.43	3431.23
443.61	3426.54
443.80	3566.98
443.98	3398.46
444.17	3265.05
444.35	3559.95
444.54	3559.95
444.73	3508.46
444.91	3606.77
445.10	3485.06
445.28	3569.32
445.47	3487.40
445.65	3417.18
445.84	3623.15
446.02	3595.06
446.21	3515.48
446.39	3452.29
446.58	3676.98
446.77	3665.28
446.95	3613.79
447.14	3545.91
447.32	3597.40
447.51	3466.33
447.69	3641.87
447.88	3559.95
448.06	3522.51
448.25	3513.14
448.43	3513.14
448.62	3674.64
448.80	3691.02
448.99	3768.26
449.17	3702.73
449.36	3714.43
449.54	3786.99
449.73	3817.41
449.91	3843.16
450.10	3737.84
450.28	3920.40
450.46	3892.31
450.65	3786.99
450.83	3887.63
451.02	3840.82
451.20	4023.38
451.39	3854.86
451.57	3873.59
451.76	3885.29
451.94	3794.01
452.13	3927.42
452.31	4072.53
452.49	3946.14
452.68	3908.69
452.86	3908.69
453.05	3960.19
453.23	4025.72
453.42	4035.08
453.60	3936.78
453.78	4058.49
453.97	3875.93
454.15	4067.85
454.34	4002.32
454.52	4058.49
454.70	4098.28
454.89	4180.20
455.07	4152.11
455.26	4198.92
455.44	4285.52
455.62	4105.30
455.81	4072.53
455.99	4149.77
456.17	4283.18
456.36	4243.39
456.54	4313.61
456.73	4224.67
456.91	4322.97
457.09	4404.89
457.28	4507.87
457.46	4283.18
457.64	4416.59
457.83	4531.28
458.01	4386.16
458.19	4472.76
458.38	4444.68
458.56	4493.83
458.74	4496.17
458.93	4432.97
459.11	4374.46
459.29	4587.45
459.48	4585.11
459.66	4477.44
459.84	4718.52
460.03	4688.09
460.21	4566.39
460.39	4645.96
460.57	4730.22
460.76	4751.29
460.94	4601.49
461.12	4709.16
461.31	4697.46
461.49	4795.76
461.67	4704.48
461.85	4587.45
462.04	4943.21
462.22	4713.84
462.40	4968.96
462.59	4983.00
462.77	4720.86
462.95	4678.73
463.13	4784.06
463.32	4990.02
463.50	4891.72
463.68	5053.22
463.86	4894.06
464.05	4807.46
464.23	4858.95
464.41	4961.94
464.59	4760.65
464.78	5093.01
464.96	4805.12
465.14	4933.85
465.32	5034.49
465.50	5041.51
465.69	5034.49
465.87	5069.60
466.05	5018.11
466.23	5006.41
466.41	5083.64
466.60	5130.45
466.78	5085.98
466.96	5177.26
467.14	5186.63
467.32	5172.58
467.51	5195.99
467.69	5128.11
467.87	5322.38
468.05	5210.03
468.23	5139.82
468.41	5362.17
468.60	5240.46
468.78	5301.31
468.96	5315.36
469.14	5425.36
469.32	5486.22
469.50	5231.10
469.69	5406.64
469.87	5397.28
470.05	5397.28
470.23	5465.15
470.41	5467.49
470.59	5547.07
470.77	5425.36
470.95	5570.48
471.14	5586.86
471.32	5568.13
471.50	5689.84
471.68	5720.27
471.86	5607.92
472.04	5689.84
472.22	5820.91
472.40	5736.65
472.58	5755.38
472.77	5668.78
472.95	5863.04
473.13	5987.09
473.31	5804.53
473.49	5811.55
473.67	5839.64
473.85	6019.86
474.03	6022.20
474.21	6029.22
474.39	6071.35
474.57	6143.91
474.75	6289.02
474.93	6239.87
475.12	6181.35
475.30	6270.30
475.48	6333.49
475.66	6260.93
475.84	6333.49
476.02	6188.38
476.20	6356.90
476.38	6392.00
476.56	6672.87
476.74	6424.77
476.92	6707.98
477.10	6502.01
477.28	6789.89
477.46	6682.23
477.64	6750.10
477.82	6787.55
478.00	7042.67
478.18	7094.16
478.36	7218.21
478.54	7037.99
478.72	7131.61
478.90	7138.63
479.08	7253.32
479.26	7133.95
479.44	7335.24
479.62	7342.26
479.80	7258.00
479.98	7363.33
480.16	7396.09
480.34	7375.03
480.52	7665.25
480.70	7564.61
480.88	7590.36
481.06	7749.51
481.24	7709.72
481.41	7803.35
481.59	7892.29
481.77	7784.62
481.95	7941.44
482.13	8037.40
482.31	8236.35
482.49	8138.04
482.67	8388.48
482.85	8461.04
483.03	8589.77
483.21	8674.03
483.39	8645.94
483.57	8446.99
483.74	8648.28
483.92	8730.20
484.10	8854.25
484.28	8912.76
484.46	9034.47
484.64	9287.25
484.82	9018.08
485.00	9151.49
485.18	9233.41
485.35	9359.80
485.53	9205.33
485.71	9430.02
485.89	9551.73
486.07	9523.64
486.25	9694.50
486.43	9727.27
486.61	9741.31
486.78	9970.68
486.96	10059.62
487.14	10228.14
487.32	10167.29
487.50	10078.35
487.68	10200.05
487.85	10375.59
488.03	10228.14
488.21	10544.11
488.39	10635.39
488.57	10611.99
488.75	10686.89
488.92	10991.16
489.10	11080.10
489.28	10888.17
489.46	10862.43
489.64	10918.60
489.81	11183.08
489.99	11234.57
490.17	11222.87
490.35	11400.75
490.53	11365.64
490.70	11618.42
490.88	11646.51
491.06	11686.29
491.24	11686.29
491.41	11604.38
491.59	11894.60
491.77	12016.31
491.95	12140.36
492.13	12051.42
492.30	12049.08
492.48	12084.19
492.66	12369.73
492.84	12369.73
493.01	12381.43
493.19	12386.12
493.37	12596.76
493.54	12737.20
493.72	12793.37
493.90	12840.18
494.08	12989.97
494.25	13025.08
494.43	12989.97
494.61	13121.04
494.79	13296.58
494.96	13149.13
495.14	13511.91
495.32	13556.38
495.49	13282.54
495.67	13420.63
495.85	13806.82
496.02	13895.76
496.20	13954.27
496.38	13568.09
496.55	13738.94
496.73	13947.25
496.91	13956.61
497.09	14125.13
497.26	14043.21
497.44	14040.87
497.62	14445.79
497.79	14501.96
497.97	14359.19
498.14	14569.83
498.32	14766.44
498.50	14614.30
498.67	14871.76
498.85	14651.75
499.03	14850.70
499.20	14967.73
499.38	14876.44
499.56	15131.56
499.73	15211.14
499.91	15143.27
500.08	15286.04
500.26	15056.67
500.44	15178.37
500.61	15594.99
500.79	15398.38
500.97	15459.24
501.14	15452.22
501.32	15611.37
501.49	15454.56
501.67	15442.85
501.84	15658.18
502.02	15840.75
502.20	15772.87
502.37	15538.82
502.55	15791.59
502.72	15822.02
502.90	16224.59
503.07	15992.88
503.25	15953.09
503.43	15871.17
503.60	16205.87
503.78	16182.46
503.95	16161.40
504.13	16587.38
504.30	16463.33
504.48	16187.14
504.65	16400.13
504.83	16596.74
505.01	16875.26
505.18	16671.64
505.36	16868.24
505.53	16578.01
505.71	16966.54
505.88	16982.93
506.06	16673.98
506.23	16964.20
506.41	17020.38
506.58	17106.98
506.76	17294.22
506.93	17273.15
507.11	17305.92
507.28	17298.90
507.46	17532.95
507.63	17715.51
507.81	17692.11
507.98	17462.74
508.16	17481.46
508.33	17593.81
508.50	17420.61
508.68	17893.40
508.85	18036.17
509.03	17776.37
509.20	18003.40
509.38	17713.17
509.55	17963.61
509.73	18235.11
509.90	18176.60
510.08	18153.20
510.25	18494.91
510.42	18354.48
510.60	18448.10
510.77	18504.28
510.95	18796.84
511.12	18438.74
511.30	18436.40
511.47	18623.64
511.64	18581.51
511.82	18806.20
511.99	18579.17
512.17	18827.27
512.34	19115.16
512.51	19044.94
512.69	19077.71
512.86	19119.84
513.04	19342.19
513.21	19016.85
513.38	19264.95
513.56	19515.39
513.73	19250.91
513.90	19520.07
514.08	19124.52
514.25	19578.58
514.43	19431.13
514.60	19620.71
514.77	19557.52
514.95	19988.18
515.12	19454.53
515.29	19597.31
515.47	19798.59
515.64	19803.27
515.81	19997.54
515.99	20070.09
516.16	20222.23
516.33	20152.01
516.51	20266.70
516.68	19805.61
516.85	20126.27
517.03	20219.89
517.20	20100.52
517.37	20458.62
517.54	20280.74
517.72	20168.40
517.89	20517.14
518.06	20233.93
518.24	20379.04
518.41	20233.93
518.58	20650.55
518.75	20430.54
518.93	20931.41
519.10	20479.69
519.27	20709.06
519.45	20561.61
519.62	20783.96
519.79	20570.97
519.96	21060.14
520.14	21214.62
520.31	21137.38
520.48	21062.48
520.65	21460.37
520.83	21090.57
521.00	21214.62
521.17	21240.36
521.34	21308.24
521.52	21259.09
521.69	21415.90
521.86	21699.11
522.03	21699.11
522.20	21844.22
522.38	21769.32
522.55	21785.71
522.72	21558.67
522.89	21584.42
523.07	21991.67
523.24	21872.31
523.41	22068.91
523.58	21638.25
523.75	22078.27
523.92	22050.19
524.10	21942.52
524.27	21923.80
524.44	22157.85
524.61	22515.95
524.78	22356.80
524.96	22471.48
525.13	22190.62
525.30	22244.45
525.47	22476.16
525.64	22148.49
525.81	22380.20
525.98	22679.79
526.16	22441.06
526.33	22335.73
526.50	22443.40
526.67	22546.38
526.84	22682.13
527.01	22712.56
527.18	22897.46
527.36	22845.97
527.53	22616.60
527.70	23187.69
527.87	22787.46
528.04	23108.11
528.21	22981.72
528.38	23222.80
528.55	22998.10
528.72	23033.21
528.89	23161.94
529.07	23311.74
529.24	23297.69
529.41	23316.42
529.58	23531.75
529.75	22890.44
529.92	23229.82
530.09	23349.18
530.26	23367.91
530.43	23534.09
530.60	23290.67
530.77	23332.80
530.94	23557.49
531.11	23386.63
531.28	23466.21
531.46	23459.19
531.63	23585.58
531.80	23793.89
531.97	23920.28
532.14	23976.45
532.31	23707.29
532.48	23744.73
532.65	24196.46
532.82	23964.75
532.99	23716.65
533.16	23840.70
533.33	24400.08
533.50	24243.27
533.67	24278.38
533.84	24105.18
534.01	24077.09
534.18	23639.41
534.35	24446.90
534.52	24521.79
534.69	24386.04
534.86	24603.71
535.03	24177.73
535.20	24554.56
535.37	24306.46
535.54	24493.71
535.71	24364.98
535.88	24332.21
536.05	24339.23
536.22	24648.18
536.38	24687.97
536.55	24879.89
536.72	24816.70
536.89	24830.74
537.06	24493.71
537.23	24781.59
537.40	24790.95
537.57	24795.64
537.74	24893.94
537.91	24905.64
538.08	25104.59
538.25	25064.80
538.42	25130.33
538.59	24929.05
538.75	25006.28
538.92	24889.26
539.09	24847.13
539.26	25336.30
539.43	25371.41
539.60	25097.56
539.77	25003.94
539.94	25390.13
540.11	25120.97
540.28	25530.56
540.44	25376.09
540.61	25668.66
540.78	25443.96
540.95	25708.44
541.12	25577.37
541.29	26118.04
541.46	25881.64
541.62	25909.73
541.79	25802.07
541.96	25589.08
542.13	25724.83
542.30	25879.30
542.47	26150.81
542.63	26314.64
542.80	26258.47
542.97	26120.38
543.14	26544.02
543.31	26340.39
543.48	25970.58
543.64	26443.37
543.81	26501.89
543.98	26150.81
544.15	26551.04
544.32	26710.19
544.48	26291.24
544.65	26539.33
544.82	26401.24
544.99	26190.59
545.16	26349.75
545.32	26356.77
545.49	27030.85
545.66	27615.98
545.83	27683.86
546.00	27440.44
546.16	27124.47
546.33	26859.99
546.50	26412.95
546.67	26569.76
546.83	26539.33
547.00	26712.53
547.17	26740.62
547.34	26541.68
547.50	26876.37
547.67	26867.01
547.84	26455.08
548.00	26843.60
548.17	26794.45
548.34	27115.11
548.51	26944.25
548.67	27145.53
548.84	26843.60
549.01	26937.23
549.18	26845.94
549.34	26838.92
549.51	26817.86
549.68	26937.23
549.84	26740.62
550.01	26888.07
550.18	26927.86
550.34	26759.34
550.51	27138.51
550.68	27484.91
550.84	26560.40
551.01	27192.34
551.18	27098.72
551.34	27037.87
551.51	27108.08
551.68	27356.18
551.84	27124.47
552.01	26740.62
552.18	27082.34
552.34	27152.55
552.51	27145.53
552.68	26981.70
552.84	27255.54
553.01	27447.46
553.18	27140.85
553.34	27154.90
553.51	27262.56
553.67	27414.69
553.84	27466.19
554.01	27887.48
554.17	27491.93
554.34	27213.41
554.51	27571.51
554.67	27658.11
554.84	27168.94
555.00	27648.75
555.17	27578.53
555.33	27662.79
555.50	27297.67
555.67	27552.79
555.83	27035.53
556.00	27290.65
556.16	27569.17
556.33	27538.74
556.50	27571.51
556.66	27665.13
556.83	27417.04
556.99	27803.22
557.16	28025.57
557.32	28243.24
557.49	27826.63
557.65	27505.98
557.82	27676.83
557.98	27632.36
558.15	27480.23
558.32	27601.94
558.48	27721.30
558.65	27812.59
558.81	27835.99
558.98	27871.10
559.14	27840.67
559.31	27452.14
559.47	27735.35
559.64	27814.93
559.80	28257.29
559.97	27967.06
560.13	27714.28
560.30	27412.35
560.46	27950.68
560.63	27873.44
560.79	28205.80
560.96	28048.98
561.12	27817.27
561.29	27749.39
561.45	28133.24
561.61	28123.88
561.78	27782.16
561.94	28112.17
562.11	27997.49
562.27	28002.17
562.44	27627.68
562.60	28074.73
562.77	28259.63
562.93	28060.68
563.10	28278.35
563.26	28079.41
563.42	28285.37
563.59	27814.93
563.75	28072.39
563.92	28184.73
564.08	28098.13
564.24	27529.38
564.41	28327.50
564.57	27744.71
564.74	28128.56
564.90	28060.68
565.07	27868.76
565.23	28320.48
565.39	28088.77
565.56	28208.14
565.72	27791.52
565.88	27953.02
566.05	28081.75
566.21	27873.44
566.38	28002.17
566.54	27983.44
566.70	28245.58
566.87	28020.89
567.03	27948.34
567.19	28549.85
567.36	28112.17
567.52	28144.94
567.68	28315.80
567.85	28367.29
568.01	28386.02
568.17	28020.89
568.34	28278.35
568.50	28285.37
568.66	27913.23
568.83	28512.41
568.99	27985.79
569.15	28088.77
569.32	28222.18
569.48	28079.41
569.64	28095.79
569.81	28549.85
569.97	28240.90
570.13	28105.15
570.30	28238.56
570.46	28224.52
570.62	28500.70
570.78	28133.24
570.95	27892.16
571.11	28250.27
571.27	28144.94
571.43	28041.96
571.60	28439.85
571.76	28254.95
571.92	28416.44
572.09	28610.71
572.25	28341.55
572.41	28100.47
572.57	28219.84
572.74	28512.41
572.90	28584.96
573.06	28268.99
573.22	28109.83
573.38	28435.17
573.55	28355.59
573.71	28449.21
573.87	28306.44
574.03	28371.97
574.20	28322.82
574.36	28109.83
574.52	28411.76
574.68	28224.52
574.84	28430.49
575.01	28570.92
575.17	28507.72
575.33	28158.99
575.49	28231.54
575.65	28346.23
575.82	28416.44
575.98	28343.89
576.14	28737.10
576.30	28240.90
576.46	28634.11
576.62	28687.95
576.79	28367.29
576.95	28212.82
577.11	28606.03
577.27	28435.17
577.43	28503.04
577.59	28360.27
577.75	28278.35
577.92	28439.85
578.08	28294.74
578.24	28196.43
578.40	28194.09
578.56	28397.72
578.72	28622.41
578.88	29010.94
579.04	28290.06
579.21	28648.16
579.37	28449.21
579.53	28563.90
579.69	28371.97
579.85	28151.96
580.01	28393.04
580.17	28442.19
580.33	28608.37
580.49	28814.34
580.65	28587.30
580.82	28428.15
580.98	28975.83
581.14	28603.69
581.30	28664.54
581.46	28252.61
581.62	28297.08
581.78	28072.39
581.94	28402.40
582.10	28414.10
582.26	28535.81
582.42	28613.05
582.58	28519.43
582.74	28418.78
582.90	28362.61
583.06	28500.70
583.22	28306.44
583.38	28430.49
583.54	28570.92
583.70	28608.37
583.86	28430.49
584.02	28589.64
584.18	28769.86
584.34	28589.64
584.50	28584.96
584.66	28631.77
584.82	28173.03
584.98	28449.21
585.14	28376.66
585.30	28266.65
585.46	28643.48
585.62	28577.94
585.78	28711.35
585.94	28512.41
586.10	28748.80
586.26	28315.80
586.42	28510.07
586.58	28814.34
586.74	28521.77
586.90	28622.41
587.06	28484.32
587.22	28397.72
587.38	28676.24
587.54	28769.86
587.70	28481.98
587.86	28877.53
588.02	28514.75
588.18	28472.62
588.34	28481.98
588.49	28662.20
588.65	28194.09
588.81	28421.13
588.97	28814.34
589.13	28489.00
589.29	28746.46
589.45	28664.54
589.61	28734.76
589.77	29179.46
589.93	28793.27
590.08	28720.71
590.24	28730.08
590.40	28889.23
590.56	28809.65
590.72	28837.74
590.88	28503.04
591.04	28697.31
591.20	28898.59
591.35	29064.77
591.51	28680.92
591.67	29184.14
591.83	29116.26
591.99	28779.23
