SpectraSuite Data File
++++++++++++++++++++++++++++++++++++
Date: Fri Oct 04 11:39:52 GMT-05:00 2013
User: price-jones
Dark Spectrum Present: No
Reference Spectrum Present: No
Number of Sampled Component Spectra: 1
Spectrometers: USB2+H05261
Integration Time (usec): 100000 (USB2+H05261)
Spectra Averaged: 1 (USB2+H05261)
Boxcar Smoothing: 0 (USB2+H05261)
Correct for Electrical Dark: No (USB2+H05261)
Strobe/Lamp Enabled: No (USB2+H05261)
Correct for Detector Non-linearity: No (USB2+H05261)
Correct for Stray Light: No (USB2+H05261)
Number of Pixels in Processed Spectrum: 2048
>>>>>Begin Processed Spectral Data<<<<<
365.73	77.24
365.92	77.24
366.12	77.24
366.32	0.00
366.52	0.00
366.72	0.00
366.91	0.00
367.11	0.00
367.31	0.00
367.51	0.00
367.70	0.00
367.90	0.00
368.10	2.34
368.30	0.00
368.49	0.00
368.69	0.00
368.89	0.00
369.09	0.00
369.28	0.00
369.48	0.00
369.68	2.34
369.87	23.41
370.07	0.00
370.27	0.00
370.47	77.24
370.66	88.94
370.86	7.02
371.06	88.94
371.25	102.98
371.45	70.22
371.65	16.38
371.84	189.58
372.04	51.49
372.24	107.66
372.44	74.90
372.63	114.69
372.83	84.26
373.03	107.66
373.22	121.71
373.42	63.19
373.62	91.28
373.81	124.05
374.01	159.16
374.21	135.75
374.40	126.39
374.60	161.50
374.79	194.26
374.99	140.43
375.19	173.20
375.38	184.90
375.58	152.13
375.78	119.37
375.97	198.95
376.17	271.50
376.37	159.16
376.56	168.52
376.76	102.98
376.95	149.79
377.15	168.52
377.35	126.39
377.54	107.66
377.74	67.88
377.93	107.66
378.13	110.01
378.33	152.13
378.52	84.26
378.72	131.07
378.91	110.01
379.11	138.09
379.31	88.94
379.50	112.35
379.70	60.85
379.89	74.90
380.09	93.62
380.28	117.03
380.48	107.66
380.68	107.66
380.87	100.64
381.07	156.82
381.26	135.75
381.46	114.69
381.65	72.56
381.85	98.30
382.04	133.41
382.24	180.22
382.43	121.71
382.63	95.96
382.83	81.92
383.02	124.05
383.22	147.45
383.41	138.09
383.61	100.64
383.80	74.90
384.00	142.77
384.19	110.01
384.39	121.71
384.58	88.94
384.78	112.35
384.97	166.18
385.17	131.07
385.36	100.64
385.56	81.92
385.75	42.13
385.95	161.50
386.14	119.37
386.34	117.03
386.53	140.43
386.72	70.22
386.92	177.88
387.11	72.56
387.31	124.05
387.50	119.37
387.70	86.60
387.89	180.22
388.09	112.35
388.28	135.75
388.48	147.45
388.67	161.50
388.86	105.32
389.06	124.05
389.25	210.65
389.45	105.32
389.64	119.37
389.84	163.84
390.03	175.54
390.22	166.18
390.42	107.66
390.61	145.11
390.81	152.13
391.00	114.69
391.19	166.18
391.39	145.11
391.58	168.52
391.78	154.48
391.97	102.98
392.16	102.98
392.36	194.26
392.55	124.05
392.75	175.54
392.94	117.03
393.13	135.75
393.33	77.24
393.52	81.92
393.71	180.22
393.91	117.03
394.10	182.56
394.29	112.35
394.49	177.88
394.68	142.77
394.88	191.92
395.07	255.12
395.26	152.13
395.46	208.31
395.65	159.16
395.84	224.69
396.04	194.26
396.23	133.41
396.42	131.07
396.62	241.08
396.81	147.45
397.00	154.48
397.19	145.11
397.39	163.84
397.58	198.95
397.77	140.43
397.97	147.45
398.16	175.54
398.35	175.54
398.55	166.18
398.74	177.88
398.93	194.26
399.12	147.45
399.32	187.24
399.51	159.16
399.70	217.67
399.90	149.79
400.09	182.56
400.28	145.11
400.47	100.64
400.67	236.39
400.86	234.05
401.05	166.18
401.24	203.63
401.44	236.39
401.63	234.05
401.82	220.01
402.01	131.07
402.21	229.37
402.40	215.33
402.59	173.20
402.78	177.88
402.97	212.99
403.17	152.13
403.36	241.08
403.55	231.71
403.74	194.26
403.93	119.37
404.13	210.65
404.32	259.80
404.51	231.71
404.70	250.44
404.89	149.79
405.09	234.05
405.28	180.22
405.47	98.30
405.66	196.60
405.85	217.67
406.05	208.31
406.24	252.78
406.43	259.80
406.62	208.31
406.81	220.01
407.00	229.37
407.20	205.97
407.39	220.01
407.58	224.69
407.77	257.46
407.96	273.84
408.15	161.50
408.34	245.76
408.54	245.76
408.73	236.39
408.92	227.03
409.11	255.12
409.30	212.99
409.49	215.33
409.68	184.90
409.87	238.73
410.07	241.08
410.26	142.77
410.45	201.29
410.64	231.71
410.83	243.42
411.02	271.50
411.21	266.82
411.40	299.59
411.59	248.10
411.78	234.05
411.98	299.59
412.17	231.71
412.36	191.92
412.55	266.82
412.74	332.36
412.93	313.63
413.12	255.12
413.31	243.42
413.50	346.40
413.69	290.23
413.88	308.95
414.07	285.55
414.26	397.89
414.45	337.04
414.64	280.86
414.83	327.68
415.02	346.40
415.22	351.08
415.41	332.36
415.60	325.33
415.79	355.76
415.98	348.74
416.17	294.91
416.36	234.05
416.55	308.95
416.74	376.83
416.93	383.85
417.12	320.65
417.31	318.31
417.50	322.99
417.69	383.85
417.88	334.70
418.07	290.23
418.26	353.42
418.45	278.52
418.64	330.02
418.83	433.00
419.02	365.12
419.21	315.97
419.39	351.08
419.58	353.42
419.77	397.89
419.96	348.74
420.15	400.23
420.34	337.04
420.53	433.00
420.72	325.33
420.91	339.38
421.10	339.38
421.29	351.08
421.48	325.33
421.67	337.04
421.86	404.91
422.05	353.42
422.24	337.04
422.43	393.21
422.61	360.44
422.80	409.59
422.99	348.74
423.18	348.74
423.37	369.80
423.56	332.36
423.75	437.68
423.94	325.33
424.13	362.78
424.32	442.36
424.50	411.93
424.69	388.53
424.88	433.00
425.07	327.68
425.26	425.98
425.45	395.55
425.64	463.43
425.83	421.30
426.01	414.27
426.20	442.36
426.39	421.30
426.58	362.78
426.77	414.27
426.96	358.10
427.15	409.59
427.33	517.26
427.52	463.43
427.71	416.62
427.90	461.09
428.09	404.91
428.28	421.30
428.46	374.49
428.65	435.34
428.84	491.51
429.03	505.56
429.22	393.21
429.40	437.68
429.59	411.93
429.78	456.40
429.97	376.83
430.16	437.68
430.34	461.09
430.53	421.30
430.72	484.49
430.91	503.22
431.10	468.11
431.28	507.90
431.47	451.72
431.66	442.36
431.85	402.57
432.03	463.43
432.22	498.53
432.41	437.68
432.60	428.32
432.79	500.87
432.97	528.96
433.16	491.51
433.35	433.00
433.54	543.00
433.72	435.34
433.91	430.66
434.10	498.53
434.28	526.62
434.47	514.92
434.66	472.79
434.85	489.17
435.03	585.13
435.22	805.14
435.41	1050.90
435.59	1121.12
435.78	947.92
435.97	753.65
436.16	624.92
436.34	514.92
436.53	585.13
436.72	514.92
436.90	500.87
437.09	547.69
437.28	505.56
437.46	531.30
437.65	461.09
437.84	468.11
438.02	472.79
438.21	503.22
438.40	479.81
438.58	470.45
438.77	554.71
438.96	463.43
439.14	491.51
439.33	503.22
439.52	524.28
439.70	559.39
439.89	535.98
440.08	493.85
440.26	599.18
440.45	587.47
440.63	528.96
440.82	517.26
441.01	578.11
441.19	538.32
441.38	524.28
441.57	526.62
441.75	603.86
441.94	688.12
442.12	547.69
442.31	561.73
442.50	521.94
442.68	547.69
442.87	543.00
443.05	578.11
443.24	479.81
443.43	573.43
443.61	484.49
443.80	613.22
443.98	634.29
444.17	521.94
444.35	547.69
444.54	566.41
444.73	629.60
444.91	594.50
445.10	573.43
445.28	594.50
445.47	650.67
445.65	575.77
445.84	653.01
446.02	528.96
446.21	547.69
446.39	589.82
446.58	615.56
446.77	657.69
446.95	554.71
447.14	571.09
447.32	606.20
447.51	585.13
447.69	559.39
447.88	566.41
448.06	620.24
448.25	655.35
448.43	636.63
448.62	631.94
448.80	613.22
448.99	615.56
449.17	594.50
449.36	559.39
449.54	613.22
449.73	601.52
449.91	641.31
450.10	624.92
450.28	718.54
450.46	683.44
450.65	678.76
450.83	599.18
451.02	641.31
451.20	720.88
451.39	631.94
451.57	636.63
451.76	587.47
451.94	610.88
452.13	704.50
452.31	702.16
452.49	653.01
452.68	662.37
452.86	690.46
453.05	671.73
453.23	699.82
453.42	674.07
453.60	692.80
453.78	699.82
453.97	657.69
454.15	674.07
454.34	631.94
454.52	727.91
454.70	671.73
454.89	585.13
455.07	547.69
455.26	741.95
455.44	634.29
455.62	704.50
455.81	748.97
455.99	772.38
456.17	709.18
456.36	730.25
456.54	737.27
456.73	655.35
456.91	702.16
457.09	725.57
457.28	774.72
457.46	688.12
457.64	800.46
457.83	716.20
458.01	690.46
458.19	690.46
458.38	655.35
458.56	692.80
458.74	681.10
458.93	695.14
459.11	814.51
459.29	650.67
459.48	713.86
459.66	793.44
459.84	805.14
460.03	779.40
460.21	671.73
460.39	734.93
460.57	744.29
460.76	795.78
460.94	711.52
461.12	798.12
461.31	863.66
461.49	774.72
461.67	685.78
461.85	739.61
462.04	727.91
462.22	1172.61
462.40	784.08
462.59	819.19
462.77	791.10
462.95	800.46
463.13	781.74
463.32	828.55
463.50	823.87
463.68	858.98
463.86	732.59
464.05	748.97
464.23	699.82
464.41	788.76
464.59	720.88
464.78	692.80
464.96	807.48
465.14	795.78
465.32	826.21
465.50	821.53
465.69	781.74
465.87	772.38
466.05	856.64
466.23	812.17
466.41	795.78
466.60	805.14
466.78	807.48
466.96	847.27
467.14	842.59
467.32	849.61
467.51	875.36
467.69	870.68
467.87	887.06
468.05	793.44
468.23	849.61
468.41	837.91
468.60	863.66
468.78	805.14
468.96	896.43
469.14	889.40
469.32	770.04
469.50	889.40
469.69	854.30
469.87	847.27
470.05	840.25
470.23	798.12
470.41	816.85
470.59	908.13
470.77	901.11
470.95	823.87
471.14	910.47
471.32	851.96
471.50	968.98
471.68	919.83
471.86	891.74
472.04	842.59
472.22	847.27
472.40	844.93
472.58	938.55
472.77	894.08
472.95	863.66
473.13	938.55
473.31	938.55
473.49	863.66
473.67	877.70
473.85	947.92
474.03	926.85
474.21	880.04
474.39	1034.52
474.57	992.39
474.75	1001.75
474.93	844.93
475.12	917.49
475.30	1022.81
475.48	1004.09
475.66	964.30
475.84	961.96
476.02	954.94
476.20	994.73
476.38	908.13
476.56	1015.79
476.74	1090.69
476.92	1011.11
477.10	1011.11
477.28	971.32
477.46	1048.56
477.64	1067.28
477.82	1050.90
478.00	1018.13
478.18	1048.56
478.36	1067.28
478.54	1071.97
478.72	1086.01
478.90	1062.60
479.08	1027.50
479.26	1050.90
479.44	1128.14
479.62	1088.35
479.80	1130.48
479.98	1095.37
480.16	1163.25
480.34	1221.76
480.52	1100.05
480.70	1142.18
480.88	1060.26
481.06	1153.88
481.24	1231.12
481.41	1097.71
481.59	1212.40
481.77	1214.74
481.95	1184.31
482.13	1273.25
482.31	1261.55
482.49	1200.69
482.67	1214.74
482.85	1261.55
483.03	1336.45
483.21	1245.16
483.39	1240.48
483.57	1315.38
483.74	1392.62
483.92	1245.16
484.10	1256.87
484.28	1291.98
484.46	1380.92
484.64	1317.72
484.82	1364.53
485.00	1448.79
485.18	1359.85
485.35	1399.64
485.53	1371.55
485.71	1507.30
485.89	1458.15
486.07	1533.05
486.25	1554.12
486.43	1488.58
486.61	1481.56
486.78	1451.13
486.96	1444.11
487.14	1607.95
487.32	1486.24
487.50	1544.75
487.68	1500.28
487.85	1535.39
488.03	1533.05
488.21	1535.39
488.39	1540.07
488.57	1537.73
488.75	1561.14
488.92	1919.24
489.10	1582.20
489.28	1710.93
489.46	1582.20
489.64	1633.69
489.81	1657.10
489.99	1685.19
490.17	1694.55
490.35	1732.00
490.53	1640.72
490.70	1626.67
490.88	1792.85
491.06	1659.44
491.24	1570.50
491.41	1708.59
491.59	1706.25
491.77	1701.57
491.95	1696.89
492.13	1715.61
492.30	1834.98
492.48	1802.21
492.66	1781.15
492.84	1743.70
493.01	1799.87
493.19	1858.39
493.37	1846.68
493.54	1781.15
493.72	1797.53
493.90	1818.60
494.08	1844.34
494.25	1806.89
494.43	1799.87
494.61	1937.96
494.79	1809.23
494.96	1907.54
495.14	1879.45
495.32	1842.00
495.49	2036.27
495.67	1912.22
495.85	1844.34
496.02	1893.49
496.20	1912.22
496.38	1909.88
496.55	1914.56
496.73	2073.71
496.91	1956.69
497.09	1947.33
497.26	2036.27
497.44	1942.64
497.62	1980.09
497.79	2083.08
497.97	1970.73
498.14	2150.95
498.32	1942.64
498.50	2015.20
498.67	2078.40
498.85	2040.95
499.03	2001.16
499.20	1996.48
499.38	2045.63
499.56	2076.06
499.73	2097.12
499.91	2186.06
500.08	2134.57
500.26	2071.37
500.44	2029.24
500.61	2118.18
500.79	2059.67
500.97	2071.37
501.14	2200.10
501.32	2094.78
501.49	2347.56
501.67	2036.27
501.84	2153.29
502.02	2094.78
502.20	2211.81
502.37	2066.69
502.55	2204.78
502.72	2097.12
502.90	2078.40
503.07	2172.02
503.25	2260.96
503.43	2326.49
503.60	2176.70
503.78	2209.47
503.95	2200.10
504.13	2129.89
504.30	2275.00
504.48	2237.55
504.65	2263.30
504.83	2237.55
505.01	2242.23
505.18	2157.97
505.36	2324.15
505.53	2160.31
505.71	2321.81
505.88	2410.75
506.06	2300.75
506.23	2272.66
506.41	2300.75
506.58	2324.15
506.76	2370.96
506.93	2319.47
507.11	2319.47
507.28	2375.64
507.46	2275.00
507.63	2363.94
507.81	2317.13
507.98	2359.26
508.16	2319.47
508.33	2237.55
508.50	2347.56
508.68	2310.11
508.85	2459.90
509.03	2408.41
509.20	2443.52
509.38	2429.48
509.55	2462.24
509.73	2441.18
509.90	2544.16
510.08	2415.43
510.25	2373.30
510.42	2342.88
510.60	2462.24
510.77	2541.82
510.95	2516.08
511.12	2394.37
511.30	2520.76
511.47	2511.39
511.64	2541.82
511.82	2480.97
511.99	2389.69
512.17	2483.31
512.34	2588.63
512.51	2551.18
512.69	2546.50
512.86	2647.15
513.04	2586.29
513.21	2628.42
513.38	2693.96
513.56	2534.80
513.73	2612.04
513.90	2527.78
514.08	2583.95
514.25	2642.46
514.43	2544.16
514.60	2696.30
514.77	2640.12
514.95	2656.51
515.12	2654.17
515.29	2644.81
515.47	2724.38
515.64	2612.04
515.81	2626.08
515.99	2731.41
516.16	2764.17
516.33	2722.04
516.51	2661.19
516.68	2614.38
516.85	2593.31
517.03	2586.29
517.20	2675.23
517.37	2771.19
517.54	2689.28
517.72	2689.28
517.89	2700.98
518.06	2703.32
518.24	2773.53
518.41	2874.18
518.58	2855.45
518.75	2710.34
518.93	2794.60
519.10	2836.73
519.27	2677.57
519.45	2848.43
519.62	2747.79
519.79	2787.58
519.96	2693.96
520.14	2883.54
520.31	2794.60
520.48	2822.69
520.65	2906.95
520.83	2759.49
521.00	2888.22
521.17	2794.60
521.34	2808.64
521.52	2839.07
521.69	2822.69
521.86	2768.85
522.03	2911.63
522.20	2839.07
522.38	2902.26
522.55	2939.71
522.72	2834.39
522.89	2871.84
523.07	2864.82
523.24	2850.77
523.41	2960.78
523.58	2904.60
523.75	2874.18
523.92	2925.67
524.10	2967.80
524.27	2916.31
524.44	2939.71
524.61	2928.01
524.78	2930.35
524.96	2993.55
525.13	2902.26
525.30	3005.25
525.47	2855.45
525.64	3082.49
525.81	3012.27
525.98	2918.65
526.16	3030.99
526.33	2979.50
526.50	3014.61
526.67	2813.32
526.84	2918.65
527.01	2892.90
527.18	2958.44
527.36	3012.27
527.53	2988.86
527.70	2977.16
527.87	2949.08
528.04	3035.67
528.21	2923.33
528.38	3124.62
528.55	3030.99
528.72	3000.57
528.89	3131.64
529.07	3047.38
529.24	3077.80
529.41	3082.49
529.58	3049.72
529.75	2970.14
529.92	2930.35
530.09	2944.39
530.26	3187.81
530.43	3096.53
530.60	3101.21
530.77	3063.76
530.94	3157.38
531.11	3094.19
531.28	3038.02
531.46	3091.85
531.63	3173.77
531.80	3091.85
531.97	3084.83
532.14	3194.83
532.31	3201.85
532.48	3204.19
532.65	3040.36
532.82	3096.53
532.99	3197.17
533.16	3201.85
533.33	3234.62
533.50	3300.16
533.67	3108.23
533.84	3152.70
534.01	3260.37
534.18	3262.71
534.35	3136.32
534.52	3136.32
534.69	3267.39
534.86	3117.59
535.03	3176.11
535.20	3096.53
535.37	3185.47
535.54	3124.62
535.71	3225.26
535.88	3267.39
536.05	3239.30
536.22	3087.17
536.38	3136.32
536.55	3304.84
536.72	3178.45
536.89	3302.50
537.06	3243.98
537.23	3351.65
537.40	3258.03
537.57	3335.26
537.74	3335.26
537.91	3330.58
538.08	3386.76
538.25	3267.39
538.42	3243.98
538.59	3428.88
538.75	3332.92
538.92	3337.60
539.09	3372.71
539.26	3396.12
539.43	3393.78
539.60	3482.72
539.77	3445.27
539.94	3496.76
540.11	3606.77
540.28	3541.23
540.44	3747.20
540.61	3637.19
540.78	3761.24
540.95	3756.56
541.12	3843.16
541.29	3953.16
541.46	4042.11
541.62	4100.62
541.79	4009.34
541.96	3911.04
542.13	4042.11
542.30	3913.38
542.47	4014.02
542.63	3941.46
542.80	3990.61
542.97	4035.08
543.14	3911.04
543.31	3971.89
543.48	4028.06
543.64	3929.76
543.81	3999.98
543.98	4100.62
544.15	3918.06
544.32	3927.42
544.48	3985.93
544.65	3946.14
544.82	4016.36
544.99	3896.99
545.16	4009.34
545.32	4072.53
545.49	4407.23
545.66	5069.60
545.83	5453.45
546.00	5224.08
546.16	4594.47
546.33	4191.90
546.50	4023.38
546.67	3861.88
546.83	3843.16
547.00	3854.86
547.17	3765.92
547.34	3702.73
547.50	3791.67
547.67	3789.33
547.84	3772.94
548.00	3623.15
548.17	3754.22
548.34	3714.43
548.51	3913.38
548.67	3796.35
548.84	3695.71
549.01	3775.28
549.18	3868.91
549.34	3754.22
549.51	3681.66
549.68	3786.99
549.84	3733.15
550.01	3550.59
550.18	3740.18
550.34	3721.45
550.51	3709.75
550.68	3634.85
550.84	3751.88
551.01	3611.45
551.18	3669.96
551.34	3648.90
551.51	3684.00
551.68	3613.79
551.84	3627.83
552.01	3590.38
552.18	3623.15
552.34	3571.66
552.51	3473.36
552.68	3639.53
552.84	3597.40
553.01	3496.76
553.18	3609.11
553.34	3494.42
553.51	3496.76
553.67	3562.30
553.84	3548.25
554.01	3602.08
554.17	3559.95
554.34	3653.58
554.51	3646.55
554.67	3522.51
554.84	3545.91
555.00	3585.70
555.17	3503.78
555.33	3564.64
555.50	3613.79
555.67	3527.19
555.83	3478.04
556.00	3391.44
556.16	3599.74
556.33	3524.85
556.50	3510.80
556.66	3510.80
556.83	3588.04
556.99	3515.48
557.16	3574.00
557.32	3538.89
557.49	3571.66
557.65	3412.50
557.82	3641.87
557.98	3588.04
558.15	3529.53
558.32	3557.61
558.48	3627.83
558.65	3576.34
558.81	3527.19
558.98	3566.98
559.14	3651.24
559.31	3445.27
559.47	3604.42
559.64	3480.38
559.80	3489.74
559.97	3541.23
560.13	3524.85
560.30	3606.77
560.46	3494.42
560.63	3478.04
560.79	3627.83
560.96	3468.67
561.12	3524.85
561.29	3534.21
561.45	3576.34
561.61	3564.64
561.78	3585.70
561.94	3590.38
562.11	3541.23
562.27	3545.91
562.44	3543.57
562.60	3599.74
562.77	3494.42
562.93	3653.58
563.10	3503.78
563.26	3597.40
563.42	3660.60
563.59	3562.30
563.75	3669.96
563.92	3543.57
564.08	3510.80
564.24	3646.55
564.41	3630.17
564.57	3609.11
564.74	3487.40
564.90	3595.06
565.07	3667.62
565.23	3623.15
565.39	3569.32
565.56	3620.81
565.72	3625.49
565.88	3637.19
566.05	3665.28
566.21	3581.02
566.38	3590.38
566.54	3480.38
566.70	3513.14
566.87	3639.53
567.03	3737.84
567.19	3613.79
567.36	3595.06
567.52	3618.47
567.68	3398.46
567.85	3571.66
568.01	3515.48
568.17	3520.17
568.34	3543.57
568.50	3597.40
568.66	3548.25
568.83	3749.54
568.99	3576.34
569.15	3585.70
569.32	3534.21
569.48	3550.59
569.64	3552.93
569.81	3527.19
569.97	3566.98
570.13	3604.42
570.30	3473.36
570.46	3641.87
570.62	3665.28
570.78	3667.62
570.95	3503.78
571.11	3571.66
571.27	3676.98
571.43	3634.85
571.60	3559.95
571.76	3613.79
571.92	3534.21
572.09	3742.52
572.25	3637.19
572.41	3538.89
572.57	3618.47
572.74	3730.81
572.90	3602.08
573.06	3545.91
573.22	3595.06
573.38	3676.98
573.55	3623.15
573.71	3639.53
573.87	3613.79
574.03	3557.61
574.20	3541.23
574.36	3552.93
574.52	3578.68
574.68	3503.78
574.84	3508.46
575.01	3669.96
575.17	3730.81
575.33	3534.21
575.49	3646.55
575.65	3630.17
575.82	3543.57
575.98	3478.04
576.14	3557.61
576.30	3557.61
576.46	3899.33
576.62	3854.86
576.79	3976.57
576.95	3845.50
577.11	3660.60
577.27	3644.21
577.43	3660.60
577.59	3637.19
577.75	3679.32
577.92	3412.50
578.08	3571.66
578.24	3623.15
578.40	3655.92
578.56	3765.92
578.72	3831.46
578.88	3962.53
579.04	3719.11
579.21	3723.79
579.37	3660.60
579.53	3545.91
579.69	3833.80
579.85	3768.26
580.01	3693.37
580.17	3688.68
580.33	3803.37
580.49	3702.73
580.65	3751.88
580.82	3653.58
580.98	3847.84
581.14	3693.37
581.30	3730.81
581.46	3737.84
581.62	3789.33
581.78	3672.30
581.94	3604.42
582.10	3686.34
582.26	3590.38
582.42	3674.64
582.58	3756.56
582.74	3812.73
582.90	3754.22
583.06	3819.75
583.22	3688.68
583.38	3712.09
583.54	3693.37
583.70	3840.82
583.86	3721.45
584.02	3726.13
584.18	3693.37
584.34	3765.92
584.50	3845.50
584.66	3768.26
584.82	3674.64
584.98	3665.28
585.14	3824.44
585.30	3786.99
585.46	3684.00
585.62	3831.46
585.78	3604.42
585.94	3637.19
586.10	3648.90
586.26	3655.92
586.42	3698.05
586.58	3726.13
586.74	3887.63
586.90	3784.65
587.06	3894.65
587.22	3934.44
587.38	3866.56
587.54	3852.52
587.70	3850.18
587.86	3747.20
588.02	3765.92
588.18	3845.50
588.34	3592.72
588.49	3714.43
588.65	3819.75
588.81	3658.26
588.97	3618.47
589.13	3693.37
589.29	3728.47
589.45	3641.87
589.61	3597.40
589.77	3719.11
589.93	3679.32
590.08	3595.06
590.24	3667.62
590.40	3758.90
590.56	3606.77
590.72	3772.94
590.88	3644.21
591.04	3728.47
591.20	3700.39
591.35	3735.50
591.51	3653.58
591.67	3723.79
591.83	3801.03
591.99	3815.07
592.15	3639.53
592.31	3831.46
592.46	3712.09
592.62	3707.41
592.78	3653.58
592.94	3819.75
593.10	3779.97
593.26	3756.56
593.41	3744.86
593.57	3747.20
593.73	3812.73
593.89	3679.32
594.05	3606.77
594.20	3562.30
594.36	3726.13
594.52	3543.57
594.68	3510.80
594.84	3662.94
594.99	3695.71
595.15	3658.26
595.31	3686.34
595.47	3714.43
595.62	3550.59
595.78	3599.74
595.94	3648.90
596.10	3489.74
596.25	3548.25
596.41	3660.60
596.57	3566.98
596.73	3728.47
596.88	3595.06
597.04	3770.60
597.20	3658.26
597.36	3698.05
597.51	3595.06
597.67	3669.96
597.83	3585.70
597.99	3648.90
598.14	3702.73
598.30	3571.66
598.46	3644.21
598.61	3723.79
598.77	3613.79
598.93	3709.75
599.09	3730.81
599.24	3625.49
599.40	3714.43
599.56	3688.68
599.71	3709.75
599.87	3559.95
600.03	3669.96
600.18	3733.15
600.34	3503.78
600.50	3632.51
600.65	3735.50
600.81	3676.98
600.97	3482.72
601.12	3543.57
601.28	3674.64
601.44	3574.00
601.59	3590.38
601.75	3623.15
601.91	3653.58
602.06	3684.00
602.22	3559.95
602.37	3611.45
602.53	3611.45
