SpectraSuite Data File
++++++++++++++++++++++++++++++++++++
Date: Fri Oct 04 11:39:28 GMT-05:00 2013
User: price-jones
Dark Spectrum Present: No
Reference Spectrum Present: No
Number of Sampled Component Spectra: 1
Spectrometers: USB2+H05261
Integration Time (usec): 100000 (USB2+H05261)
Spectra Averaged: 1 (USB2+H05261)
Boxcar Smoothing: 0 (USB2+H05261)
Correct for Electrical Dark: No (USB2+H05261)
Strobe/Lamp Enabled: No (USB2+H05261)
Correct for Detector Non-linearity: No (USB2+H05261)
Correct for Stray Light: No (USB2+H05261)
Number of Pixels in Processed Spectrum: 2048
>>>>>Begin Processed Spectral Data<<<<<
365.73	63.19
365.92	63.19
366.12	63.19
366.32	0.00
366.52	0.00
366.72	0.00
366.91	2.34
367.11	0.00
367.31	0.00
367.51	0.00
367.70	4.68
367.90	32.77
368.10	0.00
368.30	0.00
368.49	0.00
368.69	0.00
368.89	0.00
369.09	0.00
369.28	63.19
369.48	23.41
369.68	0.00
369.87	11.70
370.07	0.00
370.27	23.41
370.47	37.45
370.66	81.92
370.86	74.90
371.06	149.79
371.25	208.31
371.45	131.07
371.65	121.71
371.84	112.35
372.04	203.63
372.24	163.84
372.44	201.29
372.63	117.03
372.83	273.84
373.03	117.03
373.22	177.88
373.42	241.08
373.62	264.48
373.81	264.48
374.01	250.44
374.21	217.67
374.40	163.84
374.60	191.92
374.79	163.84
374.99	210.65
375.19	234.05
375.38	266.82
375.58	175.54
375.78	224.69
375.97	257.46
376.17	227.03
376.37	234.05
376.56	250.44
376.76	194.26
376.95	138.09
377.15	332.36
377.35	222.35
377.54	292.57
377.74	215.33
377.93	212.99
378.13	189.58
378.33	243.42
378.52	241.08
378.72	269.16
378.91	259.80
379.11	229.37
379.31	229.37
379.50	180.22
379.70	210.65
379.89	259.80
380.09	243.42
380.28	227.03
380.48	236.39
380.68	191.92
380.87	231.71
381.07	229.37
381.26	278.52
381.46	250.44
381.65	234.05
381.85	269.16
382.04	248.10
382.24	259.80
382.43	231.71
382.63	283.20
382.83	250.44
383.02	194.26
383.22	262.14
383.41	210.65
383.61	250.44
383.80	234.05
384.00	292.57
384.19	231.71
384.39	259.80
384.58	259.80
384.78	292.57
384.97	222.35
385.17	287.89
385.36	224.69
385.56	271.50
385.75	306.61
385.95	332.36
386.14	269.16
386.34	231.71
386.53	205.97
386.72	234.05
386.92	292.57
387.11	297.25
387.31	292.57
387.50	290.23
387.70	255.12
387.89	266.82
388.09	334.70
388.28	294.91
388.48	308.95
388.67	313.63
388.86	257.46
389.06	290.23
389.25	278.52
389.45	287.89
389.64	372.15
389.84	351.08
390.03	294.91
390.22	311.29
390.42	297.25
390.61	234.05
390.81	388.53
391.00	390.87
391.19	318.31
391.39	278.52
391.58	301.93
391.78	322.99
391.97	355.76
392.16	301.93
392.36	381.51
392.55	369.80
392.75	292.57
392.94	304.27
393.13	344.06
393.33	367.46
393.52	344.06
393.71	447.04
393.91	362.78
394.10	287.89
394.29	372.15
394.49	376.83
394.68	479.81
394.88	437.68
395.07	386.19
395.26	423.64
395.46	430.66
395.65	458.74
395.84	425.98
396.04	433.00
396.23	407.25
396.42	433.00
396.62	407.25
396.81	379.17
397.00	449.38
397.19	456.40
397.39	400.23
397.58	479.81
397.77	372.15
397.97	379.17
398.16	423.64
398.35	437.68
398.55	437.68
398.74	533.64
398.93	493.85
399.12	437.68
399.32	482.15
399.51	489.17
399.70	510.24
399.90	463.43
400.09	521.94
400.28	547.69
400.47	519.60
400.67	592.16
400.86	545.34
401.05	655.35
401.24	554.71
401.44	531.30
401.63	568.75
401.82	601.52
402.01	594.50
402.21	545.34
402.40	599.18
402.59	601.52
402.78	678.76
402.97	601.52
403.17	690.46
403.36	592.16
403.55	573.43
403.74	683.44
403.93	636.63
404.13	779.40
404.32	674.07
404.51	734.93
404.70	711.52
404.89	690.46
405.09	819.19
405.28	777.06
405.47	744.29
405.66	809.83
405.85	770.04
406.05	711.52
406.24	727.91
406.43	884.72
406.62	837.91
406.81	779.40
407.00	940.90
407.20	751.31
407.39	863.66
407.58	809.83
407.77	868.34
407.96	985.37
408.15	936.21
408.34	880.04
408.54	952.60
408.73	898.77
408.92	933.87
409.11	1015.79
409.30	1097.71
409.49	936.21
409.68	1001.75
409.87	990.05
410.07	1069.62
410.26	1078.99
410.45	1008.77
410.64	966.64
410.83	1128.14
411.02	1015.79
411.21	1177.29
411.40	1071.97
411.59	1193.67
411.78	1203.04
411.98	1135.16
412.17	1191.33
412.36	1238.14
412.55	1242.82
412.74	1247.51
412.93	1254.53
413.12	1259.21
413.31	1369.21
413.50	1397.30
413.69	1409.00
413.88	1423.05
414.07	1387.94
414.26	1434.75
414.45	1362.19
414.64	1397.30
414.83	1434.75
415.02	1469.86
415.22	1551.78
415.41	1521.35
415.60	1486.24
415.79	1537.73
415.98	1586.88
416.17	1556.46
416.36	1521.35
416.55	1589.22
416.74	1589.22
416.93	1610.29
417.12	1638.38
417.31	1668.80
417.50	1696.89
417.69	1750.72
417.88	1755.40
418.07	1708.59
418.26	1809.23
418.45	1795.19
418.64	1872.43
418.83	1710.93
419.02	1774.13
419.21	1893.49
419.39	1858.39
419.58	1783.49
419.77	1671.14
419.96	1874.77
420.15	2010.52
420.34	1921.58
420.53	1888.81
420.72	1937.96
420.91	1952.01
421.10	1916.90
421.29	1856.04
421.48	1989.46
421.67	1998.82
421.86	2010.52
422.05	1952.01
422.24	2010.52
422.43	1905.20
422.61	2031.58
422.80	2022.22
422.99	2087.76
423.18	2003.50
423.37	2012.86
423.56	2113.50
423.75	2094.78
423.94	2064.35
424.13	1928.60
424.32	1975.41
424.50	2087.76
424.69	2228.19
424.88	2167.34
425.07	2017.54
425.26	2052.65
425.45	2085.42
425.64	2080.74
425.83	2031.58
426.01	2118.18
426.20	2073.71
426.39	2263.30
426.58	2010.52
426.77	2104.14
426.96	2202.44
427.15	2132.23
427.33	2237.55
427.52	2258.62
427.71	2197.76
427.90	2172.02
428.09	2207.13
428.28	2176.70
428.46	2354.58
428.65	2333.51
428.84	2190.74
429.03	2466.92
429.22	2293.72
429.40	2300.75
429.59	2207.13
429.78	2263.30
429.97	2167.34
430.16	2284.36
430.34	2377.98
430.53	2232.87
430.72	2347.56
430.91	2251.60
431.10	2319.47
431.28	2495.01
431.47	2427.14
431.66	2586.29
431.85	2441.18
432.03	2511.39
432.22	2565.23
432.41	2532.46
432.60	2490.33
432.79	2588.63
432.97	2579.27
433.16	2665.87
433.35	2626.08
433.54	2544.16
433.72	2539.48
433.91	2569.91
434.10	2532.46
434.28	2637.78
434.47	2867.16
434.66	2703.32
434.85	2661.19
435.03	2815.66
435.22	2920.99
435.41	3183.13
435.59	3136.32
435.78	2991.20
435.97	2913.97
436.16	2808.64
436.34	2764.17
436.53	2825.03
436.72	3014.61
436.90	2768.85
437.09	2773.53
437.28	2700.98
437.46	2665.87
437.65	2888.22
437.84	2839.07
438.02	2881.20
438.21	2885.88
438.40	2834.39
438.58	3021.63
438.77	3068.44
438.96	3007.59
439.14	3084.83
439.33	3007.59
439.52	3108.23
439.70	3117.59
439.89	3082.49
440.08	3122.27
440.26	3112.91
440.45	3157.38
440.63	3260.37
440.82	3288.45
441.01	3258.03
441.19	3176.11
441.38	3265.05
441.57	3288.45
441.75	3393.78
441.94	3485.06
442.12	3475.70
442.31	3424.20
442.50	3377.39
442.68	3447.61
442.87	3419.52
443.05	3543.57
443.24	3499.10
443.43	3412.50
443.61	3550.59
443.80	3613.79
443.98	3480.38
444.17	3386.76
444.35	3571.66
444.54	3517.83
444.73	3487.40
444.91	3588.04
445.10	3538.89
445.28	3496.76
445.47	3459.31
445.65	3510.80
445.84	3590.38
446.02	3595.06
446.21	3618.47
446.39	3660.60
446.58	3665.28
446.77	3597.40
446.95	3623.15
447.14	3653.58
447.32	3571.66
447.51	3705.07
447.69	3681.66
447.88	3742.52
448.06	3513.14
448.25	3660.60
448.43	3705.07
448.62	3632.51
448.80	3733.15
448.99	3719.11
449.17	3637.19
449.36	3665.28
449.54	3843.16
449.73	3735.50
449.91	3779.97
450.10	3826.78
450.28	3936.78
450.46	3831.46
450.65	3794.01
450.83	3737.84
451.02	3779.97
451.20	3981.25
451.39	3946.14
451.57	3843.16
451.76	3936.78
451.94	3861.88
452.13	3953.16
452.31	3941.46
452.49	3889.97
452.68	3943.80
452.86	4067.85
453.05	4091.26
453.23	4049.13
453.42	3957.85
453.60	3941.46
453.78	3999.98
453.97	3885.29
454.15	4044.45
454.34	4175.52
454.52	4086.58
454.70	3939.12
454.89	4044.45
455.07	4212.96
455.26	4140.41
455.44	4262.12
455.62	4159.13
455.81	4250.41
455.99	4344.03
456.17	4154.45
456.36	4390.84
456.54	4348.72
456.73	4341.69
456.91	4395.53
457.09	4505.53
457.28	4538.30
457.46	4365.10
457.64	4507.87
457.83	4552.34
458.01	4367.44
458.19	4461.06
458.38	4442.34
458.56	4631.92
458.74	4622.56
458.93	4468.08
459.11	4524.26
459.29	4603.83
459.48	4634.26
459.66	4711.50
459.84	4601.49
460.03	4681.07
460.21	4596.81
460.39	4538.30
460.57	4683.41
460.76	4858.95
460.94	4870.65
461.12	4784.06
461.31	4645.96
461.49	4830.87
461.67	4662.35
461.85	4762.99
462.04	4779.37
462.22	4954.91
462.40	4854.27
462.59	4931.51
462.77	4870.65
462.95	4947.89
463.13	4915.12
463.32	4959.60
463.50	4931.51
463.68	4983.00
463.86	5004.07
464.05	4758.31
464.23	5114.07
464.41	5104.71
464.59	4873.00
464.78	4938.53
464.96	4973.64
465.14	4870.65
465.32	4980.66
465.50	5235.78
465.69	5125.77
465.87	4931.51
466.05	4938.53
466.23	5100.03
466.41	5128.11
466.60	5296.63
466.78	5088.32
466.96	5289.61
467.14	5207.69
467.32	5280.25
467.51	5172.58
467.69	5245.14
467.87	5287.27
468.05	5219.39
468.23	5390.25
468.41	5259.18
468.60	5174.92
468.78	5462.81
468.96	5270.89
469.14	5416.00
469.32	5280.25
469.50	5217.05
469.69	5465.15
469.87	5570.48
470.05	5551.75
470.23	5584.52
470.41	5540.05
470.59	5488.56
470.77	5474.51
470.95	5570.48
471.14	5621.97
471.32	5530.69
471.50	5830.27
471.68	5783.46
471.86	5736.65
472.04	5804.53
472.22	5888.79
472.40	5781.12
472.58	5849.00
472.77	5841.98
472.95	5900.49
473.13	6272.64
473.31	5987.09
473.49	5781.12
473.67	5867.72
473.85	6083.05
474.03	5942.62
474.21	6022.20
474.39	6202.42
474.57	6204.76
474.75	6036.24
474.93	6260.93
475.12	6324.13
475.30	6354.55
475.48	6195.40
475.66	6434.13
475.84	6354.55
476.02	6478.60
476.20	6284.34
476.38	6665.85
476.56	6525.41
476.74	6595.63
476.92	6513.71
477.10	6635.42
477.28	6839.05
477.46	6789.89
477.64	6703.29
477.82	6932.67
478.00	7108.21
478.18	7183.10
478.36	6939.69
478.54	7152.68
478.72	7040.33
478.90	7337.58
479.08	7227.57
479.26	7288.43
479.44	7440.56
479.62	7377.37
479.80	7541.21
479.98	7513.12
480.16	7723.77
480.34	7545.89
480.52	7747.17
480.70	7824.41
480.88	7723.77
481.06	7768.24
481.24	7583.34
481.41	8025.70
481.59	8086.55
481.77	7969.52
481.95	8222.30
482.13	8145.06
482.31	8121.66
482.49	8313.58
482.67	8491.46
482.85	8599.13
483.03	8393.16
483.21	8463.38
483.39	8809.78
483.57	8587.43
483.74	8594.45
483.92	8746.58
484.10	8849.57
484.28	9060.21
484.46	9198.31
484.64	9114.05
484.82	9064.89
485.00	9097.66
485.18	9172.56
485.35	9378.53
485.53	9322.35
485.71	9643.01
485.89	9769.40
486.07	9540.02
486.25	9661.73
486.43	9675.77
486.61	9764.72
486.78	9944.94
486.96	9909.83
487.14	10218.78
487.32	10326.44
487.50	10176.65
487.68	10389.64
487.85	10354.53
488.03	10607.31
488.21	10544.11
488.39	10509.01
488.57	10806.25
488.75	10841.36
488.92	11047.33
489.10	11082.44
489.28	10988.82
489.46	11133.93
489.64	11063.71
489.81	11367.98
489.99	11328.19
490.17	11407.77
490.35	11459.26
490.53	11702.68
490.70	11506.07
490.88	11562.25
491.06	11885.24
491.24	11838.43
491.41	11543.52
491.59	12156.74
491.77	11896.94
491.95	12341.64
492.13	12119.29
492.30	12365.05
492.48	12304.20
492.66	12327.60
492.84	12367.39
493.01	12645.91
493.19	12589.74
493.37	12772.30
493.54	12781.67
493.72	12915.08
493.90	12681.02
494.08	12912.74
494.25	12964.23
494.43	13193.60
494.61	13280.20
494.79	13163.17
494.96	13329.35
495.14	13422.97
495.32	13497.87
495.49	13460.42
495.67	13717.88
495.85	13771.71
496.02	13767.03
496.20	13771.71
496.38	13792.78
496.55	13949.59
496.73	14253.86
496.91	13935.55
497.09	14214.07
497.26	14148.54
497.44	14113.43
497.62	14356.85
497.79	14122.79
497.97	14417.70
498.14	14846.02
498.32	14602.60
498.50	14820.27
498.67	14698.56
498.85	14824.95
499.03	14984.11
499.20	14813.25
499.38	14970.07
499.56	15260.29
499.73	15016.88
499.91	15300.08
500.08	15386.68
500.26	15246.25
500.44	15297.74
500.61	15463.92
500.79	15466.26
500.97	15431.15
501.14	15578.61
501.32	15534.14
501.49	15594.99
501.67	15557.54
501.84	15740.10
502.02	15630.10
502.20	15957.77
502.37	15901.60
502.55	16219.91
502.72	16201.19
502.90	15981.18
503.07	16121.61
503.25	16137.99
503.43	16159.06
503.60	16311.19
503.78	16255.02
503.95	16524.18
504.13	16238.64
504.30	16353.32
504.48	16699.72
504.65	16748.87
504.83	16673.98
505.01	16905.69
505.18	16812.07
505.36	16844.84
505.53	16709.08
505.71	16931.44
505.88	16882.28
506.06	16699.72
506.23	17191.23
506.41	17226.34
506.58	17404.22
506.76	17249.75
506.93	17338.69
507.11	17326.99
507.28	17539.97
507.46	17453.37
507.63	17474.44
507.81	17792.75
507.98	17373.80
508.16	17460.40
508.33	17542.32
508.50	17530.61
508.68	17579.76
508.85	17877.01
509.03	18162.56
509.20	17872.33
509.38	17940.21
509.55	18235.11
509.73	18267.88
509.90	18258.52
510.08	18036.17
510.25	18214.05
510.42	18586.19
510.60	18473.85
510.77	18555.77
510.95	18691.52
511.12	18415.34
511.30	18593.22
511.47	18806.20
511.64	18747.69
511.82	18771.10
511.99	18532.36
512.17	18963.02
512.34	18740.67
512.51	18895.14
512.69	18913.87
512.86	19136.22
513.04	19161.97
513.21	19215.80
513.38	19391.34
513.56	19407.72
513.73	19335.17
513.90	19325.80
514.08	19438.15
514.25	19524.75
514.43	19672.20
514.60	19747.10
514.77	19850.08
514.95	20025.62
515.12	19843.06
515.29	19480.28
515.47	19971.79
515.64	20278.40
515.81	19992.86
515.99	20327.55
516.16	20472.67
516.33	20130.95
516.51	20224.57
516.68	20114.56
516.85	20152.01
517.03	19995.20
517.20	20416.49
517.37	20655.23
517.54	20343.94
517.72	20353.30
517.89	20386.07
518.06	20493.73
518.24	20540.54
518.41	20475.01
518.58	20170.74
518.75	20765.23
518.93	20688.00
519.10	20739.49
519.27	20882.26
519.45	20769.91
519.62	20805.02
519.79	20900.98
519.96	20620.12
520.14	20868.22
520.31	21174.83
520.48	21235.68
520.65	21317.60
520.83	21312.92
521.00	21261.43
521.17	21219.30
521.34	21481.44
521.52	21432.29
521.69	21231.00
521.86	21525.91
522.03	21734.21
522.20	21909.75
522.38	21570.38
522.55	21638.25
522.72	22073.59
522.89	21479.10
523.07	22120.40
523.24	22045.51
523.41	21832.52
523.58	21935.50
523.75	22183.60
523.92	21991.67
524.10	22352.12
524.27	22052.53
524.44	22396.59
524.61	22530.00
524.78	22260.84
524.96	22251.47
525.13	22436.38
525.30	22731.28
525.47	22338.07
525.64	22754.69
525.81	22689.15
525.98	22424.67
526.16	22747.67
526.33	22504.25
526.50	22864.69
526.67	22581.49
526.84	22946.61
527.01	22527.66
527.18	23044.91
527.36	22890.44
527.53	22899.80
527.70	23267.27
527.87	22871.72
528.04	23384.29
528.21	23243.86
528.38	22768.73
528.55	23183.01
528.72	23009.81
528.89	23103.43
529.07	23075.34
529.24	22857.67
529.41	23061.30
529.58	23145.56
529.75	23105.77
529.92	23278.97
530.09	23234.50
530.26	23498.98
530.43	23417.06
530.60	23501.32
530.77	23520.04
530.94	23805.59
531.11	23510.68
531.28	23407.70
531.46	23580.90
531.63	23700.26
531.80	23590.26
531.97	23971.77
532.14	24023.26
532.31	23779.84
532.48	24060.71
532.65	23768.14
532.82	23843.04
532.99	24051.34
533.16	23929.64
533.33	24341.57
533.50	24187.10
533.67	24154.33
533.84	24243.27
534.01	24049.00
534.18	24175.39
534.35	24870.53
534.52	24383.70
534.69	24769.89
534.86	24254.97
535.03	24395.40
535.20	24655.20
535.37	24704.35
535.54	24577.97
535.71	24346.25
535.88	25006.28
536.05	24746.48
536.22	24655.20
536.38	24964.15
536.55	24608.39
536.72	24615.41
536.89	24907.98
537.06	24634.14
537.23	25006.28
537.40	24622.44
537.57	24861.17
537.74	25010.96
537.91	25202.89
538.08	25235.66
538.25	25097.56
538.42	24830.74
538.59	25280.13
538.75	24968.84
538.92	25357.36
539.09	25041.39
539.26	25296.51
539.43	25296.51
539.60	25453.33
539.77	25617.16
539.94	25703.76
540.11	25504.82
540.28	25909.73
540.44	25364.39
540.61	25511.84
540.78	25607.80
540.95	25993.99
541.12	26019.74
541.29	25827.81
541.46	26045.48
541.62	26094.63
541.79	26443.37
541.96	25806.75
542.13	26141.44
542.30	25708.44
542.47	26181.23
542.63	26153.15
542.80	26010.37
542.97	26363.79
543.14	26541.68
543.31	26443.37
543.48	26476.14
543.64	26609.55
543.81	26389.54
543.98	26216.34
544.15	26426.99
544.32	26609.55
544.48	26534.65
544.65	26616.57
544.82	26752.32
544.99	26623.59
545.16	26728.92
545.32	26859.99
545.49	27360.86
545.66	27707.26
545.83	27723.65
546.00	27700.24
546.16	26909.14
546.33	26998.08
546.50	26661.04
546.67	26843.60
546.83	26621.25
547.00	26913.82
547.17	26714.87
547.34	26504.23
547.50	27154.90
547.67	27115.11
547.84	26518.27
548.00	27084.68
548.17	27023.83
548.34	27012.12
548.51	27147.87
548.67	26850.63
548.84	26965.31
549.01	26829.56
549.18	27117.45
549.34	26710.19
549.51	26698.49
549.68	27271.92
549.84	27077.66
550.01	27077.66
550.18	26953.61
550.34	27019.14
550.51	27367.88
550.68	27143.19
550.84	26906.80
551.01	27290.65
551.18	27026.17
551.34	27346.82
551.51	27035.53
551.68	27047.23
551.84	27557.47
552.01	27033.19
552.18	27580.87
552.34	27126.81
552.51	27271.92
552.68	27386.61
552.84	26995.74
553.01	27323.41
553.18	27470.87
553.34	27395.97
553.51	27173.62
553.67	27515.34
553.84	27735.35
554.01	27538.74
554.17	27206.39
554.34	27463.85
554.51	27688.54
554.67	27349.16
554.84	27658.11
555.00	27634.71
555.17	27594.92
555.33	27723.65
555.50	27623.00
555.67	27637.05
555.83	27728.33
556.00	27545.76
556.16	27803.22
556.33	27503.64
556.50	27929.61
556.66	27796.20
556.83	27960.04
556.99	27740.03
557.16	27625.34
557.32	27967.06
557.49	27969.40
557.65	27428.74
557.82	27604.28
557.98	27569.17
558.15	27894.50
558.32	27878.12
558.48	27873.44
558.65	28224.52
558.81	28156.64
558.98	27819.61
559.14	28229.20
559.31	27922.59
559.47	27854.72
559.64	28268.99
559.80	27754.07
559.97	27941.32
560.13	27922.59
560.30	28194.09
560.46	28173.03
560.63	27805.56
560.79	27728.33
560.96	28217.50
561.12	28229.20
561.29	27906.21
561.45	28236.22
561.61	28140.26
561.78	28233.88
561.94	27964.72
562.11	28297.08
562.27	28191.75
562.44	27859.40
562.60	27854.72
562.77	28369.63
562.93	27927.27
563.10	28205.80
563.26	27784.50
563.42	28025.57
563.59	28315.80
563.75	28360.27
563.92	28524.11
564.08	28102.81
564.24	28189.41
564.41	28360.27
564.57	28224.52
564.74	28039.62
564.90	28268.99
565.07	28208.14
565.23	28287.71
565.39	27960.04
565.56	28231.54
565.72	28208.14
565.88	28287.71
566.05	28334.53
566.21	28009.19
566.38	28184.73
566.54	28311.12
566.70	28205.80
566.87	28397.72
567.03	28233.88
567.19	28456.23
567.36	28657.52
567.52	27971.74
567.68	28507.72
567.85	28311.12
568.01	28276.01
568.17	28538.15
568.34	28732.42
568.50	28453.89
568.66	28470.28
568.83	28690.29
568.99	27917.91
569.15	28343.89
569.32	28210.48
569.48	27964.72
569.64	28142.60
569.81	28458.57
569.97	28264.31
570.13	28313.46
570.30	28184.73
570.46	28231.54
570.62	28519.43
570.78	28091.11
570.95	28114.52
571.11	28325.16
571.27	28287.71
571.43	28332.18
571.60	28449.21
571.76	28222.18
571.92	28428.15
572.09	28477.30
572.25	28519.43
572.41	28561.56
572.57	28268.99
572.74	28718.37
572.90	28453.89
573.06	28311.12
573.22	28336.87
573.38	28589.64
573.55	28472.62
573.71	28676.24
573.87	28819.02
574.03	28662.20
574.20	28739.44
574.36	28278.35
574.52	28334.53
574.68	28549.85
574.84	28327.50
575.01	28402.40
575.17	28467.94
575.33	28283.03
575.49	28369.63
575.65	28652.84
575.82	28629.43
575.98	28411.76
576.14	28563.90
576.30	29060.09
576.46	28659.86
576.62	28568.58
576.79	28966.47
576.95	28348.57
577.11	28772.21
577.27	28435.17
577.43	28861.15
577.59	28744.12
577.75	28669.22
577.92	28687.95
578.08	28088.77
578.24	28741.78
578.40	28531.13
578.56	28730.08
578.72	28641.14
578.88	29088.18
579.04	28762.84
579.21	28638.80
579.37	28638.80
579.53	28814.34
579.69	28439.85
579.85	28381.34
580.01	28767.52
580.17	28425.81
580.33	28790.93
580.49	29074.13
580.65	28950.09
580.82	28652.84
580.98	28809.65
581.14	28627.09
581.30	29137.33
581.46	28608.37
581.62	28765.18
581.78	27852.38
581.94	28456.23
582.10	28460.91
582.26	28830.72
582.42	28950.09
582.58	28980.51
582.74	28914.98
582.90	28903.28
583.06	28783.91
583.22	28645.82
583.38	28819.02
583.54	28751.14
583.70	28589.64
583.86	28865.83
584.02	28346.23
584.18	28348.57
584.34	28837.74
584.50	29062.43
584.66	28776.89
584.82	28570.92
584.98	28910.30
585.14	28699.65
585.30	28386.02
585.46	28638.80
585.62	28486.66
585.78	28383.68
585.94	29118.60
586.10	28940.72
586.26	28865.83
586.42	29315.21
586.58	28793.27
586.74	28744.12
586.90	28608.37
587.06	28357.93
587.22	28746.46
587.38	28727.74
587.54	28790.93
587.70	28697.31
587.86	29083.50
588.02	28809.65
588.18	29502.45
588.34	28699.65
588.49	28615.39
588.65	28797.95
588.81	28510.07
588.97	28379.00
589.13	28725.39
589.29	28701.99
589.45	28636.45
589.61	28774.55
589.77	29151.37
589.93	28797.95
590.08	29160.73
590.24	29237.97
590.40	29149.03
590.56	28886.89
590.72	29076.48
590.88	28833.06
591.04	28446.87
591.20	28957.11
591.35	29022.64
591.51	29575.01
591.67	28980.51
591.83	29165.42
591.99	28924.34
