SpectraSuite Data File
++++++++++++++++++++++++++++++++++++
Date: Fri Oct 04 11:39:31 GMT-05:00 2013
User: price-jones
Dark Spectrum Present: No
Reference Spectrum Present: No
Number of Sampled Component Spectra: 1
Spectrometers: USB2+H05261
Integration Time (usec): 100000 (USB2+H05261)
Spectra Averaged: 1 (USB2+H05261)
Boxcar Smoothing: 0 (USB2+H05261)
Correct for Electrical Dark: No (USB2+H05261)
Strobe/Lamp Enabled: No (USB2+H05261)
Correct for Detector Non-linearity: No (USB2+H05261)
Correct for Stray Light: No (USB2+H05261)
Number of Pixels in Processed Spectrum: 2048
>>>>>Begin Processed Spectral Data<<<<<
365.73	28.09
365.92	28.09
366.12	28.09
366.32	0.00
366.52	0.00
366.72	23.41
366.91	0.00
367.11	0.00
367.31	0.00
367.51	0.00
367.70	0.00
367.90	46.81
368.10	0.00
368.30	25.75
368.49	0.00
368.69	0.00
368.89	0.00
369.09	0.00
369.28	0.00
369.48	25.75
369.68	0.00
369.87	23.41
370.07	0.00
370.27	72.56
370.47	65.54
370.66	241.08
370.86	234.05
371.06	334.70
371.25	315.97
371.45	353.42
371.65	306.61
371.84	327.68
372.04	304.27
372.24	276.18
372.44	374.49
372.63	369.80
372.83	299.59
373.03	334.70
373.22	304.27
373.42	341.72
373.62	362.78
373.81	386.19
374.01	437.68
374.21	346.40
374.40	278.52
374.60	428.32
374.79	346.40
374.99	315.97
375.19	411.93
375.38	407.25
375.58	339.38
375.78	456.40
375.97	472.79
376.17	376.83
376.37	428.32
376.56	447.04
376.76	465.77
376.95	489.17
377.15	442.36
377.35	383.85
377.54	444.70
377.74	486.83
377.93	484.49
378.13	416.62
378.33	475.13
378.52	430.66
378.72	440.02
378.91	454.06
379.11	421.30
379.31	489.17
379.50	454.06
379.70	458.74
379.89	496.19
380.09	454.06
380.28	484.49
380.48	510.24
380.68	505.56
380.87	514.92
381.07	575.77
381.26	470.45
381.46	559.39
381.65	433.00
381.85	449.38
382.04	447.04
382.24	472.79
382.43	517.26
382.63	489.17
382.83	498.53
383.02	510.24
383.22	550.03
383.41	531.30
383.61	571.09
383.80	559.39
384.00	479.81
384.19	545.34
384.39	599.18
384.58	517.26
384.78	566.41
384.97	531.30
385.17	559.39
385.36	552.37
385.56	561.73
385.75	550.03
385.95	561.73
386.14	643.65
386.34	517.26
386.53	589.82
386.72	543.00
386.92	638.97
387.11	486.83
387.31	671.73
387.50	538.32
387.70	557.05
387.89	575.77
388.09	676.41
388.28	613.22
388.48	585.13
388.67	650.67
388.86	683.44
389.06	704.50
389.25	671.73
389.45	638.97
389.64	622.58
389.84	718.54
390.03	709.18
390.22	709.18
390.42	669.39
390.61	695.14
390.81	692.80
391.00	739.61
391.19	784.08
391.39	681.10
391.58	685.78
391.78	727.91
391.97	795.78
392.16	751.31
392.36	720.88
392.55	704.50
392.75	791.10
392.94	809.83
393.13	807.48
393.33	725.57
393.52	795.78
393.71	849.61
393.91	894.08
394.10	737.27
394.29	828.55
394.49	802.80
394.68	856.64
394.88	858.98
395.07	922.17
395.26	807.48
395.46	875.36
395.65	910.47
395.84	908.13
396.04	929.19
396.23	931.53
396.42	842.59
396.62	908.13
396.81	947.92
397.00	936.21
397.19	952.60
397.39	896.43
397.58	1029.84
397.77	950.26
397.97	1022.81
398.16	978.34
398.35	966.64
398.55	961.96
398.74	1074.31
398.93	1067.28
399.12	1125.80
399.32	1043.88
399.51	1067.28
399.70	1081.33
399.90	1025.15
400.09	1153.88
400.28	1064.94
400.47	1165.59
400.67	1165.59
400.86	1095.37
401.05	1177.29
401.24	1139.84
401.44	1203.04
401.63	1156.22
401.82	1118.78
402.01	1226.44
402.21	1228.78
402.40	1233.46
402.59	1214.74
402.78	1299.00
402.97	1299.00
403.17	1249.85
403.36	1221.76
403.55	1231.12
403.74	1313.04
403.93	1345.81
404.13	1430.07
404.32	1357.51
404.51	1362.19
404.70	1500.28
404.89	1430.07
405.09	1451.13
405.28	1497.94
405.47	1502.62
405.66	1481.56
405.85	1432.41
406.05	1509.65
406.24	1535.39
406.43	1612.63
406.62	1596.25
406.81	1516.67
407.00	1519.01
407.20	1624.33
407.39	1614.97
407.58	1584.54
407.77	1668.80
407.96	1710.93
408.15	1722.63
408.34	1710.93
408.54	1614.97
408.73	1708.59
408.92	1708.59
409.11	1816.26
409.30	1816.26
409.49	1776.47
409.68	1820.94
409.87	1746.04
410.07	1811.57
410.26	1926.26
410.45	1902.86
410.64	1881.79
410.83	1921.58
411.02	1947.33
411.21	1984.77
411.40	2054.99
411.59	2181.38
411.78	2029.24
411.98	2043.29
412.17	2073.71
412.36	2167.34
412.55	2127.55
412.74	2289.04
412.93	2246.91
413.12	2223.51
413.31	2347.56
413.50	2328.83
413.69	2277.34
413.88	2298.41
414.07	2319.47
414.26	2415.43
414.45	2385.01
414.64	2448.20
414.83	2537.14
415.02	2574.59
415.22	2532.46
415.41	2495.01
415.60	2569.91
415.79	2560.55
415.98	2637.78
416.17	2649.49
416.36	2626.08
416.55	2698.64
416.74	2672.89
416.93	2752.47
417.12	2883.54
417.31	2890.56
417.50	2768.85
417.69	2946.73
417.88	2867.16
418.07	2949.08
418.26	2963.12
418.45	2906.95
418.64	3052.06
418.83	3070.78
419.02	2956.10
419.21	3096.53
419.39	3066.10
419.58	2920.99
419.77	3035.67
419.96	3023.97
420.15	3126.96
420.34	3222.92
420.53	3089.51
420.72	3199.51
420.91	3169.09
421.10	3332.92
421.29	3283.77
421.48	3227.60
421.67	3286.11
421.86	3335.26
422.05	3372.71
422.24	3283.77
422.43	3258.03
422.61	3456.97
422.80	3311.86
422.99	3487.40
423.18	3403.14
423.37	3365.69
423.56	3356.33
423.75	3496.76
423.94	3503.78
424.13	3117.59
424.32	3227.60
424.50	3410.16
424.69	3496.76
424.88	3611.45
425.07	3311.86
425.26	3368.03
425.45	3475.70
425.64	3414.84
425.83	3524.85
426.01	3529.53
426.20	3400.80
426.39	3583.36
426.58	3550.59
426.77	3578.68
426.96	3543.57
427.15	3655.92
427.33	3555.27
427.52	3606.77
427.71	3763.58
427.90	3763.58
428.09	3744.86
428.28	3768.26
428.46	3833.80
428.65	3751.88
428.84	3829.12
429.03	3880.61
429.22	3796.35
429.40	3714.43
429.59	3953.16
429.78	3681.66
429.97	3651.24
430.16	3702.73
430.34	3955.51
430.53	3997.64
430.72	3892.31
430.91	3918.06
431.10	3712.09
431.28	3990.61
431.47	4217.65
431.66	4140.41
431.85	3974.23
432.03	4175.52
432.22	4257.43
432.41	4065.51
432.60	4107.64
432.79	4077.21
432.97	4173.18
433.16	4138.07
433.35	4205.94
433.54	4283.18
433.72	4210.62
433.91	4168.49
434.10	4234.03
434.28	4287.86
434.47	4325.31
434.66	4390.84
434.85	4440.00
435.03	4367.44
435.22	4596.81
435.41	4865.97
435.59	4816.82
435.78	4739.58
435.97	4547.66
436.16	4517.23
436.34	4496.17
436.53	4449.36
436.72	4685.75
436.90	4580.43
437.09	4582.77
437.28	4561.70
437.46	4512.55
437.65	4571.07
437.84	4678.73
438.02	4823.84
438.21	4585.11
438.40	4709.16
438.58	4931.51
438.77	4954.91
438.96	4940.87
439.14	5018.11
439.33	4950.23
439.52	5027.47
439.70	4873.00
439.89	5259.18
440.08	5172.58
440.26	5214.71
440.45	5142.16
440.63	5331.74
440.82	5350.46
441.01	5298.97
441.19	5284.93
441.38	5441.75
441.57	5441.75
441.75	5542.39
441.94	5526.00
442.12	5476.85
442.31	5582.18
442.50	5600.90
442.68	5633.67
442.87	5668.78
443.05	5685.16
443.24	5891.13
443.43	5804.53
443.61	5757.72
443.80	6045.60
443.98	5734.31
444.17	5533.03
444.35	5708.57
444.54	5923.90
444.73	5837.30
444.91	5856.02
445.10	5841.98
445.28	5799.85
445.47	5823.25
445.65	5741.33
445.84	5776.44
446.02	6036.24
446.21	5893.47
446.39	5839.64
446.58	5949.64
446.77	5799.85
446.95	5783.46
447.14	5863.04
447.32	5912.19
447.51	5942.62
447.69	5935.60
447.88	5940.28
448.06	5940.28
448.25	5949.64
448.43	6090.07
448.62	5949.64
448.80	6078.37
448.99	6010.50
449.17	6033.90
449.36	5888.79
449.54	6118.16
449.73	6122.84
449.91	6331.15
450.10	6291.36
450.28	6342.85
450.46	6450.52
450.65	6270.30
450.83	6349.87
451.02	6392.00
451.20	6506.69
451.39	6399.02
451.57	6452.86
451.76	6195.40
451.94	6541.80
452.13	6431.79
452.31	6424.77
452.49	6394.34
452.68	6331.15
452.86	6441.15
453.05	6588.61
453.23	6707.98
453.42	6560.52
453.60	6628.40
453.78	6686.91
453.97	6520.73
454.15	6686.91
454.34	6593.29
454.52	6612.01
454.70	6551.16
454.89	6806.28
455.07	6853.09
455.26	6925.65
455.44	6799.26
455.62	6829.68
455.81	6813.30
455.99	6839.05
456.17	7119.91
456.36	6935.01
456.54	7138.63
456.73	7208.85
456.91	7246.30
457.09	7236.94
457.28	7321.20
457.46	7098.84
457.64	7466.31
457.83	7440.56
458.01	7302.47
458.19	7318.86
458.38	7169.06
458.56	7412.48
458.74	7421.84
458.93	7302.47
459.11	7449.93
459.29	7620.78
459.48	7426.52
459.66	7307.15
459.84	7573.97
460.03	7838.45
460.21	7782.28
460.39	7548.23
460.57	7454.61
460.76	7808.03
460.94	7786.96
461.12	7999.95
461.31	7721.43
461.49	7866.54
461.67	7847.82
461.85	7896.97
462.04	7805.69
462.22	7981.23
462.40	7861.86
462.59	7875.90
462.77	7838.45
462.95	8046.76
463.13	7969.52
463.32	8142.72
463.50	7911.01
463.68	8187.19
463.86	8065.49
464.05	7939.10
464.23	8079.53
464.41	8374.44
464.59	8049.10
464.78	8245.71
464.96	8161.45
465.14	8053.78
465.32	8360.39
465.50	8449.33
465.69	8334.65
465.87	8149.75
466.05	8496.14
466.23	8269.11
466.41	8369.76
466.60	8699.77
466.78	8306.56
466.96	8409.54
467.14	8507.85
467.32	8540.61
467.51	8507.85
467.69	8566.36
467.87	8484.44
468.05	8592.11
468.23	8603.81
468.41	8648.28
468.60	8540.61
468.78	8702.11
468.96	8781.69
469.14	8833.18
469.32	8746.58
469.50	8669.34
469.69	8875.31
469.87	9116.39
470.05	8971.27
470.23	8975.95
470.41	8978.30
470.59	9158.52
470.77	9114.05
470.95	9121.07
471.14	9305.97
471.32	8936.17
471.50	9249.80
471.68	9380.87
471.86	9273.20
472.04	9591.52
472.22	9425.34
472.40	9217.03
472.58	9563.43
472.77	9570.45
472.95	9654.71
473.13	9713.22
473.31	9476.83
473.49	9776.42
473.67	9619.60
473.85	9685.14
474.03	9973.02
474.21	9980.04
474.39	9891.10
474.57	10223.46
474.75	10239.84
474.93	10263.25
475.12	10043.24
475.30	10340.49
475.48	10167.29
475.66	10277.29
475.84	10202.40
476.02	10394.32
476.20	10579.22
476.38	10787.53
476.56	10754.76
476.74	10960.73
476.92	10913.92
477.10	10984.13
477.28	10988.82
477.46	10977.11
477.64	11194.78
477.82	11279.04
478.00	11573.95
478.18	11419.47
478.36	11323.51
478.54	11637.14
478.72	11538.84
478.90	11733.11
479.08	11922.69
479.26	11913.33
479.44	12208.23
479.62	11941.41
479.80	12208.23
479.98	12035.03
480.16	12468.03
480.34	12575.70
480.52	12732.51
480.70	12657.62
480.88	12425.90
481.06	12924.44
481.24	12844.86
481.41	13015.72
481.59	13121.04
481.77	13121.04
481.95	13446.38
482.13	13156.15
482.31	13455.74
482.49	13745.97
482.67	13551.70
482.85	13846.61
483.03	14066.62
483.21	14139.18
483.39	14178.97
483.57	14176.62
483.74	14630.69
483.92	14516.00
484.10	14516.00
484.28	14740.69
484.46	15047.30
484.64	15133.90
484.82	14757.08
485.00	15040.28
485.18	15370.30
485.35	15573.92
485.53	15524.77
485.71	15709.68
485.89	16035.01
486.07	15885.22
486.25	16009.26
486.43	15929.69
486.61	16156.72
486.78	16453.97
486.96	16449.28
487.14	16503.12
487.32	16669.30
487.50	16849.52
487.68	16783.98
487.85	17128.04
488.03	17434.65
488.21	17900.42
488.39	17453.37
488.57	17652.32
488.75	17617.21
488.92	18125.11
489.10	18288.95
489.28	18260.86
489.46	18242.14
489.64	18373.21
489.81	18391.93
489.99	18623.64
490.17	18452.78
490.35	19028.56
490.53	19019.19
490.70	19278.99
490.88	19241.54
491.06	19440.49
491.24	19592.62
491.41	19587.94
491.59	19634.75
491.77	19840.72
491.95	20023.28
492.13	20170.74
492.30	20212.87
492.48	20510.11
492.66	20173.08
492.84	20402.45
493.01	20547.56
493.19	20538.20
493.37	20919.71
493.54	20987.58
493.72	21160.78
493.90	21053.12
494.08	21362.07
494.25	21745.92
494.43	21752.94
494.61	21757.62
494.79	21982.31
494.96	21846.56
495.14	22075.93
495.32	22272.54
495.49	22333.39
495.67	22656.39
495.85	22434.03
496.02	22738.30
496.20	22520.63
496.38	22642.34
496.55	22937.25
496.73	23304.71
496.91	23241.52
497.09	23349.18
497.26	23868.78
497.44	23613.66
497.62	23828.99
497.79	23924.96
497.97	23950.70
498.14	24222.20
498.32	24552.22
498.50	24280.72
498.67	24732.44
498.85	24521.79
499.03	24819.04
499.20	24802.66
499.38	24905.64
499.56	24641.16
499.73	25046.07
499.91	25345.66
500.08	25261.40
500.26	25371.41
500.44	25352.68
500.61	25481.41
500.79	25479.07
500.97	25598.44
501.14	26005.69
501.32	26073.57
501.49	25830.15
501.67	26106.34
501.84	26129.74
502.02	26096.97
502.20	26457.42
502.37	26572.10
502.55	26174.21
502.72	26504.23
502.90	26389.54
503.07	26745.30
503.25	26845.94
503.43	26712.53
503.60	27274.26
503.78	26937.23
503.95	27115.11
504.13	27007.44
504.30	27145.53
504.48	27505.98
504.65	27716.62
504.83	27225.11
505.01	27543.42
505.18	27924.93
505.36	27583.21
505.53	28032.60
505.71	28041.96
505.88	27967.06
506.06	27878.12
506.23	28238.56
506.41	28381.34
506.58	28472.62
506.76	28624.75
506.93	28540.49
507.11	28287.71
507.28	28458.57
507.46	28896.25
507.63	29074.13
507.81	29067.11
507.98	28744.12
508.16	29233.29
508.33	29050.73
508.50	29565.65
508.68	29355.00
508.85	29689.70
509.03	29425.22
509.20	29514.16
509.38	30141.42
509.55	30073.54
509.73	29961.20
509.90	30190.57
510.08	29954.18
510.25	30012.69
510.42	30279.51
510.60	30373.13
510.77	30583.78
510.95	30721.87
511.12	30518.25
511.30	30415.26
511.47	30895.07
511.64	30768.68
511.82	31178.28
511.99	31035.50
512.17	31063.59
512.34	31311.69
512.51	30834.22
512.69	31321.05
512.86	31302.32
513.04	31627.66
513.21	31974.06
513.38	31697.88
513.56	31756.39
513.73	31660.43
513.90	32357.91
514.08	31667.45
514.25	32023.21
514.43	32044.27
514.60	32308.76
514.77	32006.83
514.95	32266.63
515.12	31702.56
515.29	32304.07
515.47	32645.79
515.64	32947.72
515.81	32762.82
515.99	32746.44
516.16	33130.28
516.33	32926.66
516.51	33027.30
516.68	33280.08
516.85	33268.37
517.03	33031.98
517.20	33558.60
517.37	33448.60
517.54	33413.49
517.72	33457.96
517.89	33565.62
518.06	33799.68
518.24	33916.70
518.41	33607.75
518.58	33832.44
518.75	33907.34
518.93	34022.03
519.10	33755.21
519.27	34483.11
519.45	33993.94
519.62	33893.30
519.79	34342.68
519.96	33919.04
520.14	34817.81
520.31	34312.25
520.48	34309.91
520.65	34621.20
520.83	35194.64
521.00	35068.25
521.17	34663.33
521.34	34829.51
521.52	35028.46
521.69	35014.41
521.86	35379.54
522.03	35400.60
522.20	35349.11
522.38	36055.95
522.55	35894.46
522.72	35590.19
522.89	35388.90
523.07	35662.74
523.24	36165.96
523.41	35700.19
523.58	35693.17
523.75	36016.16
523.92	36201.07
524.10	36259.58
524.27	36306.39
524.44	36577.89
524.61	36624.70
524.78	36584.91
524.96	36552.15
525.13	36556.83
525.30	36950.04
525.47	36285.33
525.64	36353.20
525.81	36919.61
525.98	37207.50
526.16	36620.02
526.33	36849.39
526.50	37205.16
526.67	36624.70
526.84	37029.62
527.01	36680.88
527.18	37343.25
527.36	37455.59
527.53	37312.82
527.70	37935.40
527.87	38099.24
528.04	37502.40
528.21	37743.48
528.38	37825.40
528.55	37771.57
528.72	37315.16
528.89	37853.48
529.07	37715.39
529.24	37961.15
529.41	38272.44
529.58	37743.48
529.75	37865.19
529.92	37965.83
530.09	38005.62
530.26	38232.65
530.43	38359.04
530.60	38110.94
530.77	38352.02
530.94	38227.97
531.11	38356.70
531.28	38312.23
531.46	38588.41
531.63	38848.21
531.80	39070.56
531.97	39079.92
532.14	39042.48
532.31	38651.61
532.48	38845.87
532.65	38712.46
532.82	38717.14
532.99	38532.24
533.16	38766.29
533.33	39585.48
533.50	39529.31
533.67	39625.27
533.84	39386.54
534.01	38983.96
534.18	38768.63
534.35	39838.26
534.52	39356.11
534.69	39779.74
534.86	40109.76
535.03	39482.50
535.20	39674.42
535.37	39852.30
535.54	39653.36
535.71	39632.29
535.88	39875.71
536.05	39941.24
536.22	39779.74
536.38	40353.18
536.55	40465.52
536.72	40076.99
536.89	40215.08
537.06	40037.20
537.23	40488.93
537.40	40273.60
537.57	40325.09
537.74	40495.95
537.91	40439.78
538.08	40863.41
538.25	40505.31
538.42	40531.06
538.59	41397.06
538.75	40121.46
538.92	40547.44
539.09	41022.57
539.26	40734.68
539.43	41038.95
539.60	41062.36
539.77	41085.76
539.94	41277.69
540.11	41020.23
540.28	41633.45
540.44	41373.65
540.61	41392.37
540.78	41553.87
540.95	41729.41
541.12	41537.49
541.29	41872.18
541.46	42305.18
541.62	41720.05
541.79	41853.46
541.96	41478.97
542.13	41652.17
542.30	41907.29
542.47	41883.89
542.63	42174.11
542.80	42134.32
542.97	42050.06
543.14	42394.12
543.31	42169.43
543.48	42291.14
543.64	42698.39
543.81	42506.47
543.98	42920.74
544.15	42361.36
544.32	42890.32
544.48	43098.62
544.65	42501.79
544.82	42398.80
544.99	42539.24
545.16	42457.32
545.32	42445.62
545.49	43615.88
545.66	44285.28
545.83	43966.96
546.00	44048.88
546.16	43122.03
546.33	43119.69
546.50	42454.98
546.67	42770.95
546.83	42801.38
547.00	43281.19
547.17	43185.22
547.34	42927.77
547.50	43559.71
547.67	43580.78
547.84	43112.67
548.00	43222.67
548.17	43447.36
548.34	43227.35
548.51	43384.17
548.67	43086.92
548.84	43852.28
549.01	43405.23
549.18	43695.46
549.34	43449.70
549.51	43569.07
549.68	43140.75
549.84	43112.67
550.01	43716.53
550.18	43501.20
550.34	43833.55
550.51	43807.81
550.68	43653.33
550.84	43618.22
551.01	44002.07
551.18	43388.85
551.34	43079.90
551.51	43725.89
551.68	43931.86
551.84	43856.96
552.01	44156.55
552.18	44266.55
552.34	43620.56
552.51	44168.25
552.68	43845.26
552.84	44226.76
553.01	44062.93
553.18	44091.01
553.34	43924.83
553.51	44341.45
553.67	44416.35
553.84	44257.19
554.01	44509.97
554.17	44657.42
554.34	44264.21
554.51	44240.81
554.67	45050.63
554.84	44186.97
555.00	44458.48
555.17	44587.21
555.33	44402.30
555.50	43871.00
555.67	44406.98
555.83	44079.31
556.00	44538.05
556.16	44486.56
556.33	44444.43
556.50	44678.49
556.66	44596.57
556.83	45081.06
556.99	44919.56
557.16	45235.53
557.32	45144.25
557.49	44746.36
557.65	44186.97
557.82	44437.41
557.98	44729.98
558.15	44987.44
558.32	44865.73
558.48	44699.55
558.65	44669.12
558.81	44905.52
558.98	45207.45
559.14	44722.96
559.31	44947.65
559.47	44921.90
559.64	45167.66
559.80	45394.69
559.97	44928.92
560.13	44814.24
560.30	45113.83
560.46	44964.03
560.63	45013.18
560.79	44947.65
560.96	45102.12
561.12	44793.17
561.29	45141.91
561.45	45085.74
561.61	45303.41
561.78	45148.93
561.94	45413.41
562.11	45324.47
562.27	45179.36
562.44	44949.99
562.60	45326.81
562.77	45081.06
562.93	45181.70
563.10	45511.72
563.26	45006.16
563.42	45574.91
563.59	45373.63
563.75	45755.13
563.92	45476.61
564.08	45336.18
564.24	45696.62
564.41	45111.49
564.57	45069.36
564.74	45158.30
564.90	45263.62
565.07	45595.98
565.23	45916.63
565.39	45310.43
565.56	45717.68
565.72	45502.35
565.88	45703.64
566.05	45879.18
566.21	45640.45
566.38	45179.36
566.54	45727.05
566.70	46157.70
566.87	46263.03
567.03	45792.58
567.19	46319.20
567.36	45492.99
567.52	45172.34
567.68	45453.20
567.85	45593.64
568.01	45439.16
568.17	45666.19
568.34	45659.17
568.50	45982.16
568.66	45696.62
568.83	45670.87
568.99	45347.88
569.15	45507.04
569.32	45474.27
569.48	45282.34
569.64	45937.69
569.81	45598.32
569.97	45528.10
570.13	45984.51
570.30	45415.76
570.46	45989.19
570.62	45970.46
570.78	45705.98
570.95	45624.06
571.11	45804.28
571.27	45350.22
571.43	45869.82
571.60	45780.88
571.76	46202.18
571.92	45738.75
572.09	46237.28
572.25	45811.31
572.41	46108.55
572.57	45954.08
572.74	46127.28
572.90	45949.40
573.06	45738.75
573.22	45429.80
573.38	46124.94
573.55	46256.01
573.71	46223.24
573.87	46075.79
574.03	45900.25
574.20	45991.53
574.36	45783.22
574.52	45963.44
574.68	45975.14
574.84	45408.73
575.01	46143.66
575.17	45883.86
575.33	45771.52
575.49	46160.05
575.65	46141.32
575.82	46506.44
575.98	45968.12
576.14	46117.92
576.30	46330.90
576.46	45663.85
576.62	45949.40
576.79	45872.16
576.95	46057.06
577.11	46141.32
577.27	46141.32
577.43	45914.29
577.59	45581.93
577.75	45846.41
577.92	45546.82
578.08	45991.53
578.24	45954.08
578.40	45846.41
578.56	46054.72
578.72	46354.31
578.88	46286.43
579.04	46192.81
579.21	45989.19
579.37	46174.09
579.53	45944.72
579.69	45965.78
579.85	46017.27
580.01	46073.45
580.17	45823.01
580.33	45968.12
580.49	46176.43
580.65	46342.61
580.82	46368.35
580.98	46389.42
581.14	45949.40
581.30	45937.69
581.46	45897.91
581.62	46012.59
581.78	45797.26
581.94	45783.22
582.10	45581.93
582.26	46199.83
582.42	46433.89
582.58	45488.31
582.74	45895.56
582.90	46220.90
583.06	46286.43
583.22	46270.05
583.38	45900.25
583.54	46157.70
583.70	46122.60
583.86	45921.31
584.02	46094.51
584.18	46230.26
584.34	46508.79
584.50	46089.83
584.66	45970.46
584.82	46075.79
584.98	45993.87
585.14	46129.62
585.30	46258.35
585.46	45792.58
585.62	45780.88
585.78	45940.04
585.94	45645.13
586.10	45977.48
586.26	46171.75
586.42	46529.85
586.58	46286.43
586.74	46103.87
586.90	46293.46
587.06	45879.18
587.22	46068.76
587.38	46192.81
587.54	46717.09
587.70	46174.09
587.86	46064.08
588.02	46356.65
588.18	46501.76
588.34	46454.95
588.49	45975.14
588.65	45989.19
588.81	46368.35
588.97	46038.34
589.13	45958.76
589.29	46136.64
589.45	46017.27
589.61	46298.14
589.77	47037.75
589.93	46284.09
590.08	46447.93
590.24	46361.33
590.40	46405.80
590.56	46483.04
590.72	46190.47
