SpectraSuite Data File
++++++++++++++++++++++++++++++++++++
Date: Fri Oct 04 11:34:01 GMT-05:00 2013
User: price-jones
Dark Spectrum Present: No
Reference Spectrum Present: No
Number of Sampled Component Spectra: 1
Spectrometers: USB2+H05261
Integration Time (usec): 100000 (USB2+H05261)
Spectra Averaged: 1 (USB2+H05261)
Boxcar Smoothing: 0 (USB2+H05261)
Correct for Electrical Dark: No (USB2+H05261)
Strobe/Lamp Enabled: No (USB2+H05261)
Correct for Detector Non-linearity: No (USB2+H05261)
Correct for Stray Light: No (USB2+H05261)
Number of Pixels in Processed Spectrum: 2048
>>>>>Begin Processed Spectral Data<<<<<
365.73	74.90
365.92	74.90
366.12	74.90
366.32	32.77
366.52	67.88
366.72	7.02
366.91	0.00
367.11	25.75
367.31	0.00
367.51	0.00
367.70	0.00
367.90	0.00
368.10	0.00
368.30	18.72
368.49	0.00
368.69	7.02
368.89	0.00
369.09	0.00
369.28	0.00
369.48	0.00
369.68	0.00
369.87	49.15
370.07	84.26
370.27	16.38
370.47	53.83
370.66	135.75
370.86	2.34
371.06	58.51
371.25	154.48
371.45	95.96
371.65	37.45
371.84	51.49
372.04	107.66
372.24	154.48
372.44	147.45
372.63	131.07
372.83	250.44
373.03	128.73
373.22	135.75
373.42	170.86
373.62	203.63
373.81	128.73
374.01	124.05
374.21	191.92
374.40	161.50
374.60	283.20
374.79	159.16
374.99	135.75
375.19	117.03
375.38	95.96
375.58	189.58
375.78	241.08
375.97	180.22
376.17	194.26
376.37	182.56
376.56	154.48
376.76	131.07
376.95	126.39
377.15	187.24
377.35	177.88
377.54	147.45
377.74	128.73
377.93	168.52
378.13	84.26
378.33	142.77
378.52	182.56
378.72	142.77
378.91	149.79
379.11	187.24
379.31	58.51
379.50	173.20
379.70	140.43
379.89	131.07
380.09	117.03
380.28	140.43
380.48	142.77
380.68	95.96
380.87	110.01
381.07	189.58
381.26	252.78
381.46	210.65
381.65	198.95
381.85	112.35
382.04	107.66
382.24	159.16
382.43	128.73
382.63	154.48
382.83	121.71
383.02	107.66
383.22	84.26
383.41	79.58
383.61	124.05
383.80	135.75
384.00	161.50
384.19	128.73
384.39	168.52
384.58	191.92
384.78	121.71
384.97	189.58
385.17	100.64
385.36	119.37
385.56	191.92
385.75	74.90
385.95	112.35
386.14	114.69
386.34	142.77
386.53	145.11
386.72	126.39
386.92	159.16
387.11	91.28
387.31	93.62
387.50	135.75
387.70	58.51
387.89	117.03
388.09	159.16
388.28	121.71
388.48	145.11
388.67	49.15
388.86	175.54
389.06	117.03
389.25	231.71
389.45	145.11
389.64	117.03
389.84	100.64
390.03	166.18
390.22	135.75
390.42	154.48
390.61	119.37
390.81	145.11
391.00	112.35
391.19	175.54
391.39	177.88
391.58	84.26
391.78	135.75
391.97	128.73
392.16	124.05
392.36	170.86
392.55	175.54
392.75	163.84
392.94	121.71
393.13	112.35
393.33	72.56
393.52	159.16
393.71	198.95
393.91	159.16
394.10	177.88
394.29	114.69
394.49	138.09
394.68	187.24
394.88	215.33
395.07	191.92
395.26	133.41
395.46	100.64
395.65	121.71
395.84	177.88
396.04	257.46
396.23	67.88
396.42	149.79
396.62	100.64
396.81	140.43
397.00	156.82
397.19	91.28
397.39	175.54
397.58	100.64
397.77	110.01
397.97	102.98
398.16	126.39
398.35	124.05
398.55	107.66
398.74	191.92
398.93	128.73
399.12	152.13
399.32	177.88
399.51	175.54
399.70	133.41
399.90	102.98
400.09	166.18
400.28	189.58
400.47	154.48
400.67	128.73
400.86	138.09
401.05	152.13
401.24	149.79
401.44	189.58
401.63	145.11
401.82	147.45
402.01	166.18
402.21	163.84
402.40	168.52
402.59	166.18
402.78	175.54
402.97	84.26
403.17	152.13
403.36	215.33
403.55	173.20
403.74	173.20
403.93	194.26
404.13	212.99
404.32	196.60
404.51	227.03
404.70	248.10
404.89	187.24
405.09	212.99
405.28	196.60
405.47	180.22
405.66	128.73
405.85	152.13
406.05	117.03
406.24	133.41
406.43	215.33
406.62	145.11
406.81	194.26
407.00	196.60
407.20	180.22
407.39	102.98
407.58	222.35
407.77	168.52
407.96	208.31
408.15	222.35
408.34	224.69
408.54	149.79
408.73	135.75
408.92	224.69
409.11	100.64
409.30	117.03
409.49	114.69
409.68	147.45
409.87	177.88
410.07	98.30
410.26	159.16
410.45	161.50
410.64	138.09
410.83	84.26
411.02	107.66
411.21	187.24
411.40	217.67
411.59	177.88
411.78	140.43
411.98	32.77
412.17	70.22
412.36	93.62
412.55	126.39
412.74	177.88
412.93	198.95
413.12	152.13
413.31	196.60
413.50	205.97
413.69	142.77
413.88	198.95
414.07	107.66
414.26	184.90
414.45	182.56
414.64	224.69
414.83	128.73
415.02	124.05
415.22	145.11
415.41	245.76
415.60	203.63
415.79	142.77
415.98	212.99
416.17	95.96
416.36	184.90
416.55	81.92
416.74	135.75
416.93	205.97
417.12	156.82
417.31	187.24
417.50	152.13
417.69	269.16
417.88	210.65
418.07	187.24
418.26	205.97
418.45	128.73
418.64	205.97
418.83	196.60
419.02	217.67
419.21	227.03
419.39	257.46
419.58	198.95
419.77	217.67
419.96	227.03
420.15	168.52
420.34	212.99
420.53	241.08
420.72	187.24
420.91	184.90
421.10	119.37
421.29	114.69
421.48	156.82
421.67	191.92
421.86	126.39
422.05	156.82
422.24	159.16
422.43	191.92
422.61	159.16
422.80	142.77
422.99	170.86
423.18	166.18
423.37	198.95
423.56	203.63
423.75	210.65
423.94	159.16
424.13	128.73
424.32	145.11
424.50	145.11
424.69	147.45
424.88	208.31
425.07	189.58
425.26	250.44
425.45	238.73
425.64	304.27
425.83	294.91
426.01	234.05
426.20	156.82
426.39	210.65
426.58	194.26
426.77	255.12
426.96	173.20
427.15	182.56
427.33	135.75
427.52	220.01
427.71	128.73
427.90	198.95
428.09	140.43
428.28	140.43
428.46	105.32
428.65	180.22
428.84	196.60
429.03	149.79
429.22	173.20
429.40	189.58
429.59	117.03
429.78	215.33
429.97	95.96
430.16	170.86
430.34	65.54
430.53	114.69
430.72	142.77
430.91	201.29
431.10	145.11
431.28	175.54
431.47	184.90
431.66	135.75
431.85	187.24
432.03	180.22
432.22	189.58
432.41	191.92
432.60	238.73
432.79	196.60
432.97	313.63
433.16	313.63
433.35	222.35
433.54	229.37
433.72	145.11
433.91	166.18
434.10	159.16
434.28	220.01
434.47	217.67
434.66	217.67
434.85	229.37
435.03	152.13
435.22	304.27
435.41	475.13
435.59	510.24
435.78	367.46
435.97	241.08
436.16	234.05
436.34	168.52
436.53	227.03
436.72	234.05
436.90	220.01
437.09	145.11
437.28	168.52
437.46	154.48
437.65	175.54
437.84	163.84
438.02	236.39
438.21	149.79
438.40	248.10
438.58	159.16
438.77	198.95
438.96	156.82
439.14	161.50
439.33	203.63
439.52	177.88
439.70	110.01
439.89	215.33
440.08	255.12
440.26	126.39
440.45	180.22
440.63	173.20
440.82	135.75
441.01	163.84
441.19	198.95
441.38	180.22
441.57	220.01
441.75	126.39
441.94	163.84
442.12	194.26
442.31	126.39
442.50	203.63
442.68	208.31
442.87	131.07
443.05	180.22
443.24	217.67
443.43	262.14
443.61	243.42
443.80	217.67
443.98	177.88
444.17	222.35
444.35	262.14
444.54	187.24
444.73	170.86
444.91	299.59
445.10	208.31
445.28	180.22
445.47	121.71
445.65	231.71
445.84	266.82
446.02	245.76
446.21	180.22
446.39	217.67
446.58	217.67
446.77	198.95
446.95	191.92
447.14	203.63
447.32	191.92
447.51	191.92
447.69	177.88
447.88	220.01
448.06	191.92
448.25	184.90
448.43	145.11
448.62	121.71
448.80	147.45
448.99	156.82
449.17	161.50
449.36	131.07
449.54	140.43
449.73	102.98
449.91	140.43
450.10	138.09
450.28	217.67
450.46	187.24
450.65	229.37
450.83	215.33
451.02	168.52
451.20	224.69
451.39	173.20
451.57	194.26
451.76	177.88
451.94	180.22
452.13	203.63
452.31	332.36
452.49	301.93
452.68	149.79
452.86	163.84
453.05	266.82
453.23	170.86
453.42	208.31
453.60	205.97
453.78	135.75
453.97	166.18
454.15	91.28
454.34	152.13
454.52	224.69
454.70	241.08
454.89	259.80
455.07	196.60
455.26	252.78
455.44	184.90
455.62	182.56
455.81	238.73
455.99	184.90
456.17	166.18
456.36	147.45
456.54	152.13
456.73	196.60
456.91	159.16
457.09	196.60
457.28	215.33
457.46	177.88
457.64	182.56
457.83	196.60
458.01	154.48
458.19	255.12
458.38	187.24
458.56	100.64
458.74	166.18
458.93	196.60
459.11	117.03
459.29	175.54
459.48	236.39
459.66	191.92
459.84	166.18
460.03	208.31
460.21	177.88
460.39	196.60
460.57	168.52
460.76	145.11
460.94	231.71
461.12	215.33
461.31	140.43
461.49	224.69
461.67	217.67
461.85	166.18
462.04	208.31
462.22	589.82
462.40	152.13
462.59	140.43
462.77	161.50
462.95	182.56
463.13	79.58
463.32	173.20
463.50	196.60
463.68	149.79
463.86	196.60
464.05	217.67
464.23	152.13
464.41	217.67
464.59	224.69
464.78	159.16
464.96	177.88
465.14	285.55
465.32	236.39
465.50	168.52
465.69	212.99
465.87	198.95
466.05	276.18
466.23	173.20
466.41	168.52
466.60	205.97
466.78	166.18
466.96	156.82
467.14	191.92
467.32	217.67
467.51	294.91
467.69	266.82
467.87	198.95
468.05	191.92
468.23	191.92
468.41	238.73
468.60	154.48
468.78	161.50
468.96	257.46
469.14	252.78
469.32	201.29
469.50	222.35
469.69	142.77
469.87	259.80
470.05	173.20
470.23	182.56
470.41	168.52
470.59	198.95
470.77	177.88
470.95	271.50
471.14	152.13
471.32	241.08
471.50	222.35
471.68	212.99
471.86	154.48
472.04	110.01
472.22	126.39
472.40	175.54
472.58	215.33
472.77	182.56
472.95	198.95
473.13	255.12
473.31	234.05
473.49	119.37
473.67	163.84
473.85	224.69
474.03	198.95
474.21	210.65
474.39	184.90
474.57	255.12
474.75	227.03
474.93	114.69
475.12	250.44
475.30	250.44
475.48	154.48
475.66	198.95
475.84	133.41
476.02	149.79
476.20	177.88
476.38	184.90
476.56	229.37
476.74	201.29
476.92	159.16
477.10	196.60
477.28	203.63
477.46	187.24
477.64	203.63
477.82	135.75
478.00	180.22
478.18	227.03
478.36	182.56
478.54	222.35
478.72	189.58
478.90	177.88
479.08	170.86
479.26	203.63
479.44	145.11
479.62	271.50
479.80	187.24
479.98	255.12
480.16	191.92
480.34	189.58
480.52	126.39
480.70	220.01
480.88	133.41
481.06	243.42
481.24	224.69
481.41	220.01
481.59	250.44
481.77	198.95
481.95	250.44
482.13	308.95
482.31	191.92
482.49	173.20
482.67	252.78
482.85	227.03
483.03	163.84
483.21	215.33
483.39	126.39
483.57	180.22
483.74	280.86
483.92	276.18
484.10	220.01
484.28	220.01
484.46	325.33
484.64	208.31
484.82	212.99
485.00	234.05
485.18	168.52
485.35	269.16
485.53	184.90
485.71	280.86
485.89	224.69
486.07	257.46
486.25	276.18
486.43	301.93
486.61	231.71
486.78	210.65
486.96	234.05
487.14	238.73
487.32	210.65
487.50	297.25
487.68	294.91
487.85	306.61
488.03	259.80
488.21	264.48
488.39	236.39
488.57	287.89
488.75	234.05
488.92	423.64
489.10	194.26
489.28	243.42
489.46	276.18
489.64	257.46
489.81	273.84
489.99	154.48
490.17	208.31
490.35	266.82
490.53	238.73
490.70	208.31
490.88	259.80
491.06	194.26
491.24	259.80
491.41	250.44
491.59	191.92
491.77	306.61
491.95	231.71
492.13	212.99
492.30	243.42
492.48	252.78
492.66	250.44
492.84	224.69
493.01	252.78
493.19	248.10
493.37	299.59
493.54	259.80
493.72	201.29
493.90	283.20
494.08	215.33
494.25	238.73
494.43	224.69
494.61	224.69
494.79	229.37
494.96	224.69
495.14	203.63
495.32	234.05
495.49	245.76
495.67	236.39
495.85	203.63
496.02	332.36
496.20	205.97
496.38	297.25
496.55	269.16
496.73	257.46
496.91	262.14
497.09	332.36
497.26	220.01
497.44	257.46
497.62	187.24
497.79	285.55
497.97	248.10
498.14	292.57
498.32	241.08
498.50	220.01
498.67	227.03
498.85	248.10
499.03	236.39
499.20	276.18
499.38	234.05
499.56	252.78
499.73	306.61
499.91	273.84
500.08	250.44
500.26	189.58
500.44	234.05
500.61	287.89
500.79	245.76
500.97	175.54
501.14	304.27
501.32	245.76
501.49	241.08
501.67	229.37
501.84	259.80
502.02	262.14
502.20	306.61
502.37	266.82
502.55	227.03
502.72	257.46
502.90	220.01
503.07	243.42
503.25	222.35
503.43	229.37
503.60	292.57
503.78	257.46
503.95	243.42
504.13	234.05
504.30	271.50
504.48	313.63
504.65	278.52
504.83	191.92
505.01	234.05
505.18	220.01
505.36	119.37
505.53	262.14
505.71	208.31
505.88	264.48
506.06	243.42
506.23	271.50
506.41	245.76
506.58	257.46
506.76	255.12
506.93	264.48
507.11	266.82
507.28	222.35
507.46	306.61
507.63	297.25
507.81	259.80
507.98	177.88
508.16	236.39
508.33	229.37
508.50	180.22
508.68	276.18
508.85	332.36
509.03	294.91
509.20	173.20
509.38	269.16
509.55	325.33
509.73	287.89
509.90	294.91
510.08	227.03
510.25	273.84
510.42	278.52
510.60	194.26
510.77	255.12
510.95	369.80
511.12	236.39
511.30	287.89
511.47	351.08
511.64	313.63
511.82	255.12
511.99	280.86
512.17	189.58
512.34	271.50
512.51	276.18
512.69	224.69
512.86	290.23
513.04	147.45
513.21	259.80
513.38	299.59
513.56	266.82
513.73	210.65
513.90	227.03
514.08	215.33
514.25	283.20
514.43	229.37
514.60	294.91
514.77	241.08
514.95	255.12
515.12	308.95
515.29	227.03
515.47	245.76
515.64	229.37
515.81	234.05
515.99	259.80
516.16	285.55
516.33	278.52
516.51	217.67
516.68	208.31
516.85	243.42
517.03	210.65
517.20	285.55
517.37	245.76
517.54	313.63
517.72	250.44
517.89	201.29
518.06	304.27
518.24	290.23
518.41	262.14
518.58	276.18
518.75	306.61
518.93	280.86
519.10	220.01
519.27	264.48
519.45	248.10
519.62	264.48
519.79	294.91
519.96	203.63
520.14	241.08
520.31	292.57
520.48	257.46
520.65	250.44
520.83	315.97
521.00	327.68
521.17	290.23
521.34	301.93
521.52	212.99
521.69	259.80
521.86	259.80
522.03	306.61
522.20	304.27
522.38	220.01
522.55	285.55
522.72	229.37
522.89	292.57
523.07	220.01
523.24	322.99
523.41	236.39
523.58	313.63
523.75	304.27
523.92	269.16
524.10	257.46
524.27	283.20
524.44	250.44
524.61	227.03
524.78	255.12
524.96	205.97
525.13	180.22
525.30	266.82
525.47	451.72
525.64	325.33
525.81	262.14
525.98	224.69
526.16	320.65
526.33	287.89
526.50	220.01
526.67	243.42
526.84	215.33
527.01	234.05
527.18	245.76
527.36	308.95
527.53	222.35
527.70	304.27
527.87	257.46
528.04	290.23
528.21	205.97
528.38	269.16
528.55	299.59
528.72	304.27
528.89	278.52
529.07	189.58
529.24	227.03
529.41	325.33
529.58	271.50
529.75	304.27
529.92	236.39
530.09	341.72
530.26	313.63
530.43	365.12
530.60	255.12
530.77	238.73
530.94	308.95
531.11	294.91
531.28	332.36
531.46	273.84
531.63	241.08
531.80	290.23
531.97	262.14
532.14	238.73
532.31	287.89
532.48	318.31
532.65	386.19
532.82	463.43
532.99	425.98
533.16	407.25
533.33	372.15
533.50	337.04
533.67	390.87
533.84	423.64
534.01	486.83
534.18	418.96
534.35	313.63
534.52	362.78
534.69	315.97
534.86	318.31
535.03	269.16
535.20	301.93
535.37	283.20
535.54	304.27
535.71	304.27
535.88	318.31
536.05	294.91
536.22	259.80
536.38	234.05
536.55	376.83
536.72	276.18
536.89	318.31
537.06	332.36
537.23	238.73
537.40	252.78
537.57	222.35
537.74	255.12
537.91	294.91
538.08	318.31
538.25	365.12
538.42	362.78
538.59	369.80
538.75	248.10
538.92	301.93
539.09	374.49
539.26	379.17
539.43	629.60
539.60	1074.31
539.77	1640.72
539.94	1563.48
540.11	1125.80
540.28	823.87
540.44	653.01
540.61	491.51
540.78	493.85
540.95	477.47
541.12	543.00
541.29	531.30
541.46	599.18
541.62	510.24
541.79	538.32
541.96	559.39
542.13	559.39
542.30	491.51
542.47	528.96
542.63	470.45
542.80	489.17
542.97	491.51
543.14	484.49
543.31	538.32
543.48	507.90
543.64	507.90
543.81	571.09
543.98	507.90
544.15	475.13
544.32	507.90
544.48	437.68
544.65	526.62
544.82	543.00
544.99	442.36
545.16	456.40
545.32	571.09
545.49	807.48
545.66	952.60
545.83	1036.86
546.00	926.85
546.16	746.63
546.33	716.20
546.50	578.11
546.67	437.68
546.83	442.36
547.00	458.74
547.17	379.17
547.34	358.10
547.50	397.89
547.67	374.49
547.84	421.30
548.00	423.64
548.17	358.10
548.34	313.63
548.51	379.17
548.67	423.64
548.84	339.38
549.01	400.23
549.18	327.68
549.34	372.15
549.51	367.46
549.68	388.53
549.84	346.40
550.01	344.06
550.18	383.85
550.34	409.59
550.51	280.86
550.68	304.27
550.84	367.46
551.01	346.40
551.18	344.06
551.34	315.97
551.51	292.57
551.68	365.12
551.84	362.78
552.01	325.33
552.18	273.84
552.34	290.23
552.51	248.10
552.68	299.59
552.84	383.85
553.01	334.70
553.18	402.57
553.34	301.93
553.51	184.90
553.67	320.65
553.84	306.61
554.01	379.17
554.17	337.04
554.34	264.48
554.51	278.52
554.67	327.68
554.84	248.10
555.00	287.89
555.17	320.65
555.33	241.08
555.50	259.80
555.67	257.46
555.83	234.05
556.00	337.04
556.16	447.04
556.33	290.23
556.50	269.16
556.66	285.55
556.83	330.02
556.99	292.57
557.16	304.27
557.32	358.10
557.49	292.57
557.65	212.99
557.82	257.46
557.98	262.14
558.15	264.48
558.32	344.06
558.48	250.44
558.65	201.29
558.81	283.20
558.98	285.55
559.14	337.04
559.31	252.78
559.47	301.93
559.64	280.86
559.80	262.14
559.97	180.22
560.13	311.29
560.30	241.08
560.46	287.89
560.63	257.46
560.79	236.39
560.96	238.73
561.12	212.99
561.29	250.44
561.45	243.42
561.61	229.37
561.78	297.25
561.94	262.14
562.11	299.59
562.27	301.93
562.44	292.57
562.60	245.76
562.77	273.84
562.93	292.57
563.10	245.76
563.26	276.18
563.42	255.12
563.59	304.27
563.75	290.23
563.92	337.04
564.08	236.39
564.24	269.16
564.41	365.12
564.57	301.93
564.74	215.33
564.90	306.61
565.07	301.93
565.23	278.52
565.39	315.97
565.56	301.93
565.72	287.89
565.88	313.63
566.05	313.63
566.21	292.57
566.38	248.10
566.54	287.89
566.70	245.76
566.87	194.26
567.03	210.65
567.19	229.37
567.36	278.52
567.52	266.82
567.68	196.60
567.85	269.16
568.01	290.23
568.17	227.03
568.34	248.10
568.50	348.74
568.66	358.10
568.83	339.38
568.99	283.20
569.15	243.42
569.32	271.50
569.48	315.97
569.64	262.14
569.81	299.59
569.97	264.48
570.13	306.61
570.30	231.71
570.46	236.39
570.62	346.40
570.78	273.84
570.95	315.97
571.11	252.78
571.27	229.37
571.43	201.29
571.60	266.82
571.76	266.82
571.92	215.33
572.09	229.37
572.25	299.59
572.41	273.84
572.57	264.48
572.74	344.06
572.90	264.48
573.06	280.86
573.22	271.50
573.38	278.52
573.55	248.10
573.71	313.63
573.87	248.10
574.03	259.80
574.20	217.67
574.36	341.72
574.52	339.38
574.68	322.99
574.84	285.55
575.01	285.55
575.17	273.84
575.33	224.69
575.49	271.50
575.65	290.23
575.82	425.98
575.98	550.03
576.14	734.93
576.30	751.31
576.46	683.44
576.62	561.73
576.79	575.77
576.95	454.06
577.11	372.15
577.27	273.84
577.43	327.68
577.59	337.04
577.75	360.44
577.92	259.80
578.08	290.23
578.24	341.72
578.40	334.70
578.56	437.68
578.72	442.36
578.88	489.17
579.04	402.57
579.21	454.06
579.37	414.27
579.53	308.95
579.69	355.76
579.85	409.59
580.01	468.11
580.17	477.47
580.33	489.17
580.49	379.17
580.65	407.25
580.82	386.19
580.98	322.99
581.14	367.46
581.30	386.19
581.46	486.83
581.62	552.37
581.78	669.39
581.94	678.76
582.10	624.92
582.26	510.24
582.42	491.51
582.58	514.92
582.74	465.77
582.90	500.87
583.06	528.96
583.22	512.58
583.38	566.41
583.54	538.32
583.70	627.26
583.86	690.46
584.02	791.10
584.18	980.68
584.34	1170.27
584.50	2911.63
584.66	21451.01
584.82	54923.01
584.98	64722.83
585.14	62068.67
585.30	47894.38
585.46	29109.24
585.62	18150.85
585.78	8439.97
585.94	3445.27
586.10	1724.97
586.26	1097.71
586.42	826.21
586.58	664.71
586.74	641.31
586.90	699.82
587.06	709.18
587.22	610.88
587.38	667.05
587.54	1226.44
587.70	3475.70
587.86	5738.99
588.02	6431.79
588.18	4538.30
588.34	2967.80
588.49	1980.09
588.65	1294.32
588.81	727.91
588.97	458.74
589.13	430.66
589.29	407.25
589.45	404.91
589.61	440.02
589.77	491.51
589.93	428.32
590.08	472.79
590.24	517.26
590.40	533.64
590.56	397.89
590.72	433.00
590.88	355.76
591.04	367.46
591.20	423.64
591.35	507.90
591.51	344.06
591.67	440.02
591.83	442.36
591.99	372.15
592.15	411.93
592.31	379.17
592.46	311.29
592.62	386.19
592.78	400.23
592.94	362.78
593.10	414.27
593.26	425.98
593.41	386.19
593.57	344.06
593.73	594.50
593.89	2768.85
594.05	7222.89
594.20	11044.99
594.36	10298.36
594.52	6740.74
594.68	4456.38
594.84	2796.94
594.99	1664.12
595.15	826.21
595.31	540.66
595.47	428.32
595.62	327.68
595.78	407.25
595.94	362.78
596.10	428.32
596.25	386.19
596.41	418.96
596.57	283.20
596.73	390.87
596.88	545.34
597.04	1362.19
597.20	2366.28
597.36	2822.69
597.51	2045.63
597.67	1341.13
597.83	1039.20
597.99	779.40
598.14	524.28
598.30	454.06
598.46	430.66
598.61	440.02
598.77	400.23
598.93	372.15
599.09	400.23
599.24	320.65
599.40	400.23
599.56	259.80
599.71	294.91
599.87	271.50
600.03	315.97
600.18	332.36
600.34	278.52
600.50	304.27
600.65	294.91
600.81	339.38
600.97	248.10
601.12	313.63
601.28	325.33
601.44	252.78
601.59	283.20
601.75	301.93
601.91	257.46
602.06	327.68
602.22	355.76
602.37	786.42
602.53	1664.12
602.69	2759.49
602.84	2813.32
603.00	2111.16
603.16	1488.58
603.31	1107.07
603.47	662.37
603.62	449.38
603.78	411.93
603.94	358.10
604.09	301.93
604.25	341.72
604.40	332.36
604.56	259.80
604.71	292.57
604.87	346.40
605.03	252.78
605.18	283.20
605.34	283.20
605.49	348.74
605.65	332.36
605.80	344.06
605.96	327.68
606.12	381.51
606.27	402.57
606.43	416.62
606.58	458.74
606.74	800.46
606.89	3096.53
607.05	6977.14
607.20	9231.07
607.36	7611.42
607.51	5149.18
607.67	3506.12
607.82	2349.90
607.98	1451.13
608.13	732.59
608.29	601.52
608.44	447.04
608.60	500.87
608.75	601.52
608.91	1200.69
609.06	5205.35
609.22	12046.74
609.37	16046.71
609.53	13755.33
609.68	9554.07
609.84	6204.76
609.99	4304.25
610.15	2352.24
