SpectraSuite Data File
++++++++++++++++++++++++++++++++++++
Date: Fri Oct 04 12:13:33 GMT-05:00 2013
User: price-jones
Dark Spectrum Present: No
Reference Spectrum Present: No
Number of Sampled Component Spectra: 1
Spectrometers: USB2+H05261
Integration Time (usec): 10000 (USB2+H05261)
Spectra Averaged: 1 (USB2+H05261)
Boxcar Smoothing: 0 (USB2+H05261)
Correct for Electrical Dark: No (USB2+H05261)
Strobe/Lamp Enabled: No (USB2+H05261)
Correct for Detector Non-linearity: No (USB2+H05261)
Correct for Stray Light: No (USB2+H05261)
Number of Pixels in Processed Spectrum: 2048
>>>>>Begin Processed Spectral Data<<<<<
365.73	16.38
365.92	16.38
366.12	16.38
366.32	0.00
366.52	0.00
366.72	0.00
366.91	0.00
367.11	0.00
367.31	0.00
367.51	0.00
367.70	0.00
367.90	0.00
368.10	0.00
368.30	0.00
368.49	0.00
368.69	0.00
368.89	0.00
369.09	0.00
369.28	0.00
369.48	0.00
369.68	0.00
369.87	0.00
370.07	0.00
370.27	11.70
370.47	0.00
370.66	0.00
370.86	0.00
371.06	0.00
371.25	0.00
371.45	0.00
371.65	0.00
371.84	18.72
372.04	49.15
372.24	67.88
372.44	53.83
372.63	46.81
372.83	46.81
373.03	0.00
373.22	7.02
373.42	7.02
373.62	25.75
373.81	53.83
374.01	74.90
374.21	131.07
374.40	4.68
374.60	81.92
374.79	25.75
374.99	67.88
375.19	100.64
375.38	39.79
375.58	72.56
375.78	100.64
375.97	32.77
376.17	16.38
376.37	77.24
376.56	39.79
376.76	63.19
376.95	25.75
377.15	42.13
377.35	98.30
377.54	126.39
377.74	98.30
377.93	51.49
378.13	30.43
378.33	93.62
378.52	95.96
378.72	81.92
378.91	4.68
379.11	49.15
379.31	23.41
379.50	9.36
379.70	58.51
379.89	32.77
380.09	32.77
380.28	51.49
380.48	0.00
380.68	25.75
380.87	74.90
381.07	49.15
381.26	0.00
381.46	0.00
381.65	49.15
381.85	28.09
382.04	49.15
382.24	25.75
382.43	25.75
382.63	70.22
382.83	37.45
383.02	23.41
383.22	0.00
383.41	79.58
383.61	58.51
383.80	81.92
384.00	18.72
384.19	56.17
384.39	77.24
384.58	60.85
384.78	100.64
384.97	88.94
385.17	23.41
385.36	32.77
385.56	65.54
385.75	63.19
385.95	67.88
386.14	65.54
386.34	56.17
386.53	93.62
386.72	86.60
386.92	18.72
387.11	100.64
387.31	0.00
387.50	180.22
387.70	42.13
387.89	105.32
388.09	95.96
388.28	60.85
388.48	70.22
388.67	25.75
388.86	135.75
389.06	35.11
389.25	53.83
389.45	63.19
389.64	81.92
389.84	46.81
390.03	95.96
390.22	28.09
390.42	46.81
390.61	88.94
390.81	154.48
391.00	28.09
391.19	124.05
391.39	67.88
391.58	56.17
391.78	63.19
391.97	42.13
392.16	49.15
392.36	46.81
392.55	0.00
392.75	67.88
392.94	88.94
393.13	74.90
393.33	16.38
393.52	72.56
393.71	9.36
393.91	2.34
394.10	84.26
394.29	72.56
394.49	63.19
394.68	93.62
394.88	105.32
395.07	161.50
395.26	138.09
395.46	37.45
395.65	65.54
395.84	77.24
396.04	30.43
396.23	145.11
396.42	28.09
396.62	121.71
396.81	58.51
397.00	37.45
397.19	0.00
397.39	44.47
397.58	121.71
397.77	138.09
397.97	161.50
398.16	117.03
398.35	133.41
398.55	107.66
398.74	138.09
398.93	107.66
399.12	93.62
399.32	159.16
399.51	95.96
399.70	100.64
399.90	112.35
400.09	84.26
400.28	124.05
400.47	74.90
400.67	154.48
400.86	114.69
401.05	63.19
401.24	102.98
401.44	124.05
401.63	23.41
401.82	72.56
402.01	147.45
402.21	49.15
402.40	135.75
402.59	112.35
402.78	135.75
402.97	119.37
403.17	49.15
403.36	65.54
403.55	156.82
403.74	140.43
403.93	163.84
404.13	79.58
404.32	112.35
404.51	105.32
404.70	149.79
404.89	72.56
405.09	168.52
405.28	128.73
405.47	135.75
405.66	124.05
405.85	133.41
406.05	138.09
406.24	114.69
406.43	88.94
406.62	135.75
406.81	131.07
407.00	131.07
407.20	124.05
407.39	173.20
407.58	133.41
407.77	128.73
407.96	126.39
408.15	159.16
408.34	72.56
408.54	131.07
408.73	149.79
408.92	173.20
409.11	173.20
409.30	117.03
409.49	112.35
409.68	46.81
409.87	100.64
410.07	166.18
410.26	133.41
410.45	198.95
410.64	177.88
410.83	117.03
411.02	95.96
411.21	182.56
411.40	70.22
411.59	191.92
411.78	119.37
411.98	184.90
412.17	124.05
412.36	133.41
412.55	107.66
412.74	72.56
412.93	77.24
413.12	147.45
413.31	166.18
413.50	91.28
413.69	215.33
413.88	152.13
414.07	117.03
414.26	102.98
414.45	231.71
414.64	74.90
414.83	161.50
415.02	156.82
415.22	100.64
415.41	152.13
415.60	112.35
415.79	147.45
415.98	166.18
416.17	203.63
416.36	184.90
416.55	142.77
416.74	63.19
416.93	236.39
417.12	177.88
417.31	194.26
417.50	182.56
417.69	156.82
417.88	170.86
418.07	128.73
418.26	220.01
418.45	138.09
418.64	203.63
418.83	224.69
419.02	229.37
419.21	208.31
419.39	154.48
419.58	173.20
419.77	170.86
419.96	117.03
420.15	152.13
420.34	173.20
420.53	180.22
420.72	156.82
420.91	177.88
421.10	145.11
421.29	189.58
421.48	159.16
421.67	105.32
421.86	191.92
422.05	121.71
422.24	168.52
422.43	119.37
422.61	163.84
422.80	173.20
422.99	131.07
423.18	184.90
423.37	154.48
423.56	133.41
423.75	147.45
423.94	217.67
424.13	163.84
424.32	105.32
424.50	154.48
424.69	110.01
424.88	180.22
425.07	217.67
425.26	147.45
425.45	117.03
425.64	156.82
425.83	180.22
426.01	182.56
426.20	198.95
426.39	215.33
426.58	84.26
426.77	145.11
426.96	198.95
427.15	191.92
427.33	126.39
427.52	156.82
427.71	159.16
427.90	145.11
428.09	161.50
428.28	180.22
428.46	102.98
428.65	91.28
428.84	117.03
429.03	131.07
429.22	201.29
429.40	156.82
429.59	86.60
429.78	191.92
429.97	77.24
430.16	102.98
430.34	86.60
430.53	58.51
430.72	84.26
430.91	88.94
431.10	187.24
431.28	203.63
431.47	131.07
431.66	161.50
431.85	177.88
432.03	133.41
432.22	161.50
432.41	198.95
432.60	166.18
432.79	128.73
432.97	107.66
433.16	187.24
433.35	177.88
433.54	166.18
433.72	173.20
433.91	180.22
434.10	119.37
434.28	212.99
434.47	131.07
434.66	152.13
434.85	126.39
435.03	227.03
435.22	124.05
435.41	196.60
435.59	170.86
435.78	191.92
435.97	163.84
436.16	217.67
436.34	81.92
436.53	227.03
436.72	201.29
436.90	205.97
437.09	220.01
437.28	184.90
437.46	217.67
437.65	170.86
437.84	175.54
438.02	67.88
438.21	133.41
438.40	168.52
438.58	182.56
438.77	147.45
438.96	191.92
439.14	142.77
439.33	191.92
439.52	198.95
439.70	189.58
439.89	184.90
440.08	154.48
440.26	177.88
440.45	224.69
440.63	245.76
440.82	215.33
441.01	217.67
441.19	107.66
441.38	163.84
441.57	196.60
441.75	180.22
441.94	257.46
442.12	175.54
442.31	231.71
442.50	161.50
442.68	201.29
442.87	234.05
443.05	252.78
443.24	170.86
443.43	140.43
443.61	205.97
443.80	241.08
443.98	255.12
444.17	187.24
444.35	248.10
444.54	227.03
444.73	238.73
444.91	147.45
445.10	159.16
445.28	161.50
445.47	255.12
445.65	205.97
445.84	318.31
446.02	241.08
446.21	170.86
446.39	220.01
446.58	255.12
446.77	229.37
446.95	196.60
447.14	210.65
447.32	229.37
447.51	212.99
447.69	208.31
447.88	264.48
448.06	212.99
448.25	257.46
448.43	208.31
448.62	245.76
448.80	170.86
448.99	159.16
449.17	175.54
449.36	276.18
449.54	220.01
449.73	182.56
449.91	145.11
450.10	205.97
450.28	215.33
450.46	271.50
450.65	236.39
450.83	255.12
451.02	227.03
451.20	255.12
451.39	248.10
451.57	273.84
451.76	227.03
451.94	294.91
452.13	236.39
452.31	259.80
452.49	175.54
452.68	201.29
452.86	257.46
453.05	203.63
453.23	166.18
453.42	220.01
453.60	255.12
453.78	271.50
453.97	252.78
454.15	194.26
454.34	271.50
454.52	224.69
454.70	234.05
454.89	187.24
455.07	241.08
455.26	198.95
455.44	208.31
455.62	215.33
455.81	252.78
455.99	269.16
456.17	208.31
456.36	264.48
456.54	224.69
456.73	245.76
456.91	208.31
457.09	217.67
457.28	259.80
457.46	250.44
457.64	208.31
457.83	189.58
458.01	264.48
458.19	241.08
458.38	191.92
458.56	290.23
458.74	224.69
458.93	205.97
459.11	269.16
459.29	217.67
459.48	212.99
459.66	264.48
459.84	217.67
460.03	252.78
460.21	210.65
460.39	266.82
460.57	198.95
460.76	248.10
460.94	292.57
461.12	278.52
461.31	301.93
461.49	220.01
461.67	318.31
461.85	189.58
462.04	205.97
462.22	280.86
462.40	250.44
462.59	276.18
462.77	203.63
462.95	205.97
463.13	238.73
463.32	205.97
463.50	255.12
463.68	84.26
463.86	266.82
464.05	210.65
464.23	196.60
464.41	241.08
464.59	217.67
464.78	229.37
464.96	273.84
465.14	245.76
465.32	287.89
465.50	224.69
465.69	189.58
465.87	201.29
466.05	222.35
466.23	227.03
466.41	220.01
466.60	278.52
466.78	264.48
466.96	194.26
467.14	222.35
467.32	191.92
467.51	285.55
467.69	215.33
467.87	306.61
468.05	276.18
468.23	229.37
468.41	278.52
468.60	220.01
468.78	315.97
468.96	255.12
469.14	241.08
469.32	257.46
469.50	208.31
469.69	191.92
469.87	273.84
470.05	205.97
470.23	227.03
470.41	212.99
470.59	250.44
470.77	250.44
470.95	252.78
471.14	278.52
471.32	255.12
471.50	278.52
471.68	175.54
471.86	210.65
472.04	262.14
472.22	191.92
472.40	194.26
472.58	187.24
472.77	273.84
472.95	210.65
473.13	184.90
473.31	191.92
473.49	203.63
473.67	208.31
473.85	234.05
474.03	266.82
474.21	229.37
474.39	287.89
474.57	177.88
474.75	234.05
474.93	269.16
475.12	304.27
475.30	294.91
475.48	243.42
475.66	238.73
475.84	297.25
476.02	217.67
476.20	308.95
476.38	250.44
476.56	208.31
476.74	320.65
476.92	264.48
477.10	248.10
477.28	205.97
477.46	234.05
477.64	297.25
477.82	252.78
478.00	269.16
478.18	273.84
478.36	292.57
478.54	255.12
478.72	276.18
478.90	294.91
479.08	311.29
479.26	229.37
479.44	318.31
479.62	262.14
479.80	252.78
479.98	220.01
480.16	365.12
480.34	297.25
480.52	278.52
480.70	337.04
480.88	348.74
481.06	308.95
481.24	383.85
481.41	334.70
481.59	308.95
481.77	306.61
481.95	334.70
482.13	334.70
482.31	262.14
482.49	285.55
482.67	287.89
482.85	271.50
483.03	234.05
483.21	257.46
483.39	280.86
483.57	341.72
483.74	297.25
483.92	311.29
484.10	344.06
484.28	344.06
484.46	341.72
484.64	416.62
484.82	376.83
485.00	348.74
485.18	320.65
485.35	330.02
485.53	276.18
485.71	259.80
485.89	276.18
486.07	234.05
486.25	301.93
486.43	318.31
486.61	276.18
486.78	362.78
486.96	304.27
487.14	318.31
487.32	287.89
487.50	360.44
487.68	393.21
487.85	332.36
488.03	330.02
488.21	318.31
488.39	390.87
488.57	365.12
488.75	325.33
488.92	416.62
489.10	346.40
489.28	393.21
489.46	325.33
489.64	297.25
489.81	348.74
489.99	351.08
490.17	367.46
490.35	416.62
490.53	374.49
490.70	353.42
490.88	458.74
491.06	472.79
491.24	367.46
491.41	409.59
491.59	409.59
491.77	308.95
491.95	362.78
492.13	362.78
492.30	318.31
492.48	423.64
492.66	411.93
492.84	414.27
493.01	449.38
493.19	341.72
493.37	421.30
493.54	395.55
493.72	416.62
493.90	397.89
494.08	472.79
494.25	428.32
494.43	425.98
494.61	491.51
494.79	390.87
494.96	409.59
495.14	383.85
495.32	362.78
495.49	458.74
495.67	400.23
495.85	388.53
496.02	428.32
496.20	512.58
496.38	379.17
496.55	386.19
496.73	365.12
496.91	440.02
497.09	528.96
497.26	458.74
497.44	416.62
497.62	456.40
497.79	395.55
497.97	358.10
498.14	339.38
498.32	423.64
498.50	489.17
498.67	461.09
498.85	486.83
499.03	442.36
499.20	383.85
499.38	470.45
499.56	423.64
499.73	449.38
499.91	418.96
500.08	442.36
500.26	355.76
500.44	414.27
500.61	435.34
500.79	472.79
500.97	369.80
501.14	416.62
501.32	425.98
501.49	416.62
501.67	365.12
501.84	381.51
502.02	365.12
502.20	465.77
502.37	465.77
502.55	447.04
502.72	428.32
502.90	477.47
503.07	468.11
503.25	400.23
503.43	346.40
503.60	376.83
503.78	435.34
503.95	383.85
504.13	475.13
504.30	444.70
504.48	421.30
504.65	479.81
504.83	390.87
505.01	454.06
505.18	423.64
505.36	491.51
505.53	451.72
505.71	395.55
505.88	472.79
506.06	435.34
506.23	482.15
506.41	442.36
506.58	428.32
506.76	449.38
506.93	381.51
507.11	470.45
507.28	461.09
507.46	486.83
507.63	418.96
507.81	395.55
507.98	388.53
508.16	411.93
508.33	444.70
508.50	435.34
508.68	500.87
508.85	489.17
509.03	479.81
509.20	484.49
509.38	414.27
509.55	407.25
509.73	472.79
509.90	390.87
510.08	461.09
510.25	425.98
510.42	411.93
510.60	458.74
510.77	526.62
510.95	531.30
511.12	573.43
511.30	456.40
511.47	543.00
511.64	418.96
511.82	505.56
511.99	414.27
512.17	414.27
512.34	479.81
512.51	388.53
512.69	418.96
512.86	442.36
513.04	458.74
513.21	437.68
513.38	449.38
513.56	416.62
513.73	400.23
513.90	475.13
514.08	477.47
514.25	440.02
514.43	484.49
514.60	524.28
514.77	360.44
514.95	472.79
515.12	465.77
515.29	550.03
515.47	486.83
515.64	477.47
515.81	416.62
515.99	444.70
516.16	383.85
516.33	351.08
516.51	337.04
516.68	416.62
516.85	327.68
517.03	341.72
517.20	374.49
517.37	388.53
517.54	500.87
517.72	477.47
517.89	435.34
518.06	433.00
518.24	423.64
518.41	451.72
518.58	416.62
518.75	425.98
518.93	472.79
519.10	407.25
519.27	456.40
519.45	472.79
519.62	545.34
519.79	402.57
519.96	482.15
520.14	484.49
520.31	489.17
520.48	409.59
520.65	463.43
520.83	433.00
521.00	479.81
521.17	486.83
521.34	479.81
521.52	442.36
521.69	444.70
521.86	479.81
522.03	489.17
522.20	503.22
522.38	404.91
522.55	418.96
522.72	442.36
522.89	435.34
523.07	402.57
523.24	400.23
523.41	430.66
523.58	437.68
523.75	540.66
523.92	538.32
524.10	526.62
524.27	465.77
524.44	545.34
524.61	491.51
524.78	554.71
524.96	447.04
525.13	437.68
525.30	489.17
525.47	390.87
525.64	435.34
525.81	477.47
525.98	486.83
526.16	472.79
526.33	433.00
526.50	362.78
526.67	353.42
526.84	425.98
527.01	489.17
527.18	444.70
527.36	489.17
527.53	402.57
527.70	491.51
527.87	470.45
528.04	484.49
528.21	449.38
528.38	418.96
528.55	535.98
528.72	444.70
528.89	514.92
529.07	517.26
529.24	407.25
529.41	416.62
529.58	475.13
529.75	381.51
529.92	538.32
530.09	444.70
530.26	608.54
530.43	498.53
530.60	414.27
530.77	456.40
530.94	538.32
531.11	514.92
531.28	477.47
531.46	484.49
531.63	388.53
531.80	454.06
531.97	500.87
532.14	482.15
532.31	428.32
532.48	458.74
532.65	510.24
532.82	505.56
532.99	456.40
533.16	493.85
533.33	411.93
533.50	400.23
533.67	440.02
533.84	465.77
534.01	484.49
534.18	498.53
534.35	510.24
534.52	489.17
534.69	554.71
534.86	587.47
535.03	482.15
535.20	465.77
535.37	496.19
535.54	535.98
535.71	500.87
535.88	479.81
536.05	486.83
536.22	454.06
536.38	500.87
536.55	425.98
536.72	500.87
536.89	425.98
537.06	470.45
537.23	465.77
537.40	477.47
537.57	447.04
537.74	547.69
537.91	545.34
538.08	477.47
538.25	484.49
538.42	465.77
538.59	437.68
538.75	486.83
538.92	475.13
539.09	442.36
539.26	388.53
539.43	470.45
539.60	514.92
539.77	489.17
539.94	465.77
540.11	430.66
540.28	437.68
540.44	461.09
540.61	390.87
540.78	404.91
540.95	463.43
541.12	372.15
541.29	463.43
541.46	496.19
541.62	411.93
541.79	489.17
541.96	458.74
542.13	374.49
542.30	428.32
542.47	449.38
542.63	381.51
542.80	449.38
542.97	486.83
543.14	425.98
543.31	395.55
543.48	463.43
543.64	491.51
543.81	507.90
543.98	482.15
544.15	461.09
544.32	395.55
544.48	435.34
544.65	447.04
544.82	437.68
544.99	505.56
545.16	421.30
545.32	442.36
545.49	468.11
545.66	451.72
545.83	519.60
546.00	498.53
546.16	465.77
546.33	465.77
546.50	425.98
546.67	395.55
546.83	451.72
547.00	477.47
547.17	456.40
547.34	475.13
547.50	440.02
547.67	447.04
547.84	482.15
548.00	498.53
548.17	456.40
548.34	407.25
548.51	524.28
548.67	397.89
548.84	414.27
549.01	458.74
549.18	484.49
549.34	418.96
549.51	482.15
549.68	395.55
549.84	456.40
550.01	449.38
550.18	491.51
550.34	440.02
550.51	519.60
550.68	503.22
550.84	470.45
551.01	409.59
551.18	409.59
551.34	461.09
551.51	440.02
551.68	491.51
551.84	510.24
552.01	425.98
552.18	449.38
552.34	440.02
552.51	444.70
552.68	435.34
552.84	493.85
553.01	442.36
553.18	449.38
553.34	463.43
553.51	355.76
553.67	430.66
553.84	493.85
554.01	388.53
554.17	456.40
554.34	503.22
554.51	430.66
554.67	444.70
554.84	507.90
555.00	503.22
555.17	430.66
555.33	376.83
555.50	526.62
555.67	411.93
555.83	486.83
556.00	500.87
556.16	390.87
556.33	449.38
556.50	479.81
556.66	461.09
556.83	475.13
556.99	428.32
557.16	449.38
557.32	468.11
557.49	475.13
557.65	531.30
557.82	491.51
557.98	423.64
558.15	468.11
558.32	430.66
558.48	430.66
558.65	444.70
558.81	367.46
558.98	461.09
559.14	468.11
559.31	468.11
559.47	428.32
559.64	397.89
559.80	374.49
559.97	472.79
560.13	425.98
560.30	407.25
560.46	416.62
560.63	472.79
560.79	407.25
560.96	454.06
561.12	470.45
561.29	409.59
561.45	451.72
561.61	461.09
561.78	482.15
561.94	447.04
562.11	433.00
562.27	458.74
562.44	470.45
562.60	397.89
562.77	421.30
562.93	444.70
563.10	437.68
563.26	402.57
563.42	465.77
563.59	386.19
563.75	407.25
563.92	418.96
564.08	475.13
564.24	433.00
564.41	383.85
564.57	425.98
564.74	479.81
564.90	423.64
565.07	358.10
565.23	470.45
565.39	435.34
565.56	372.15
565.72	428.32
565.88	360.44
566.05	362.78
566.21	461.09
566.38	425.98
566.54	461.09
566.70	388.53
566.87	362.78
567.03	414.27
567.19	332.36
567.36	425.98
567.52	447.04
567.68	423.64
567.85	421.30
568.01	475.13
568.17	344.06
568.34	402.57
568.50	404.91
568.66	376.83
568.83	344.06
568.99	428.32
569.15	454.06
569.32	482.15
569.48	423.64
569.64	337.04
569.81	425.98
569.97	325.33
570.13	444.70
570.30	421.30
570.46	365.12
570.62	440.02
570.78	416.62
570.95	454.06
571.11	411.93
571.27	374.49
571.43	400.23
571.60	400.23
571.76	437.68
571.92	386.19
572.09	395.55
572.25	376.83
572.41	358.10
572.57	418.96
572.74	507.90
572.90	360.44
573.06	397.89
573.22	400.23
573.38	362.78
573.55	365.12
573.71	393.21
573.87	320.65
574.03	322.99
574.20	372.15
574.36	362.78
574.52	425.98
574.68	379.17
574.84	374.49
575.01	451.72
575.17	308.95
575.33	463.43
575.49	397.89
575.65	339.38
575.82	383.85
575.98	322.99
576.14	372.15
576.30	411.93
576.46	358.10
576.62	344.06
576.79	355.76
576.95	500.87
577.11	285.55
577.27	409.59
577.43	437.68
577.59	425.98
577.75	440.02
577.92	346.40
578.08	318.31
578.24	292.57
578.40	409.59
578.56	409.59
578.72	341.72
578.88	360.44
579.04	388.53
579.21	423.64
579.37	339.38
579.53	320.65
579.69	355.76
579.85	428.32
580.01	407.25
580.17	428.32
580.33	311.29
580.49	348.74
580.65	383.85
580.82	416.62
580.98	411.93
581.14	362.78
581.30	411.93
581.46	351.08
581.62	369.80
581.78	376.83
581.94	365.12
582.10	416.62
582.26	421.30
582.42	444.70
582.58	376.83
582.74	416.62
582.90	362.78
583.06	409.59
583.22	423.64
583.38	365.12
583.54	358.10
583.70	388.53
583.86	374.49
584.02	362.78
584.18	376.83
584.34	306.61
584.50	381.51
584.66	425.98
584.82	374.49
584.98	320.65
585.14	393.21
585.30	334.70
585.46	301.93
585.62	344.06
585.78	369.80
585.94	400.23
586.10	313.63
586.26	374.49
586.42	290.23
586.58	273.84
586.74	351.08
586.90	407.25
587.06	351.08
587.22	421.30
587.38	386.19
587.54	386.19
587.70	362.78
587.86	245.76
588.02	341.72
588.18	365.12
588.34	313.63
588.49	276.18
588.65	184.90
588.81	234.05
588.97	308.95
589.13	304.27
589.29	222.35
589.45	273.84
589.61	250.44
589.77	304.27
589.93	325.33
590.08	290.23
590.24	301.93
590.40	285.55
590.56	348.74
590.72	367.46
590.88	332.36
591.04	327.68
591.20	334.70
591.35	318.31
591.51	285.55
591.67	271.50
591.83	245.76
591.99	250.44
592.15	308.95
592.31	292.57
592.46	308.95
592.62	358.10
592.78	339.38
592.94	308.95
593.10	280.86
593.26	330.02
593.41	435.34
593.57	358.10
593.73	292.57
593.89	306.61
594.05	210.65
594.20	306.61
594.36	301.93
594.52	320.65
594.68	262.14
594.84	315.97
594.99	301.93
595.15	311.29
595.31	252.78
595.47	283.20
595.62	337.04
595.78	330.02
595.94	320.65
596.10	337.04
596.25	344.06
596.41	327.68
596.57	308.95
596.73	334.70
596.88	301.93
597.04	362.78
597.20	203.63
597.36	334.70
597.51	280.86
597.67	367.46
597.83	369.80
597.99	278.52
598.14	255.12
598.30	409.59
598.46	348.74
598.61	292.57
598.77	322.99
598.93	301.93
599.09	369.80
599.24	374.49
599.40	351.08
599.56	332.36
599.71	332.36
599.87	325.33
600.03	374.49
600.18	337.04
600.34	320.65
600.50	285.55
600.65	353.42
600.81	346.40
600.97	407.25
601.12	325.33
601.28	386.19
601.44	339.38
601.59	308.95
601.75	297.25
601.91	273.84
602.06	306.61
602.22	252.78
602.37	262.14
602.53	369.80
602.69	376.83
602.84	332.36
603.00	348.74
603.16	325.33
603.31	397.89
603.47	318.31
603.62	411.93
603.78	311.29
603.94	306.61
604.09	334.70
604.25	325.33
604.40	311.29
604.56	301.93
604.71	264.48
604.87	301.93
605.03	292.57
605.18	374.49
605.34	369.80
605.49	397.89
605.65	348.74
605.80	301.93
605.96	327.68
606.12	327.68
606.27	376.83
606.43	353.42
606.58	416.62
606.74	327.68
606.89	308.95
607.05	292.57
607.20	339.38
607.36	344.06
607.51	379.17
607.67	280.86
607.82	327.68
607.98	304.27
608.13	330.02
608.29	337.04
608.44	337.04
608.60	287.89
608.75	348.74
608.91	367.46
609.06	360.44
609.22	348.74
609.37	276.18
609.53	278.52
609.68	273.84
609.84	339.38
609.99	334.70
610.15	330.02
610.30	304.27
610.46	294.91
610.61	308.95
610.76	313.63
610.92	346.40
611.07	313.63
611.23	306.61
611.38	308.95
611.54	325.33
611.69	306.61
611.84	278.52
612.00	332.36
612.15	365.12
612.31	285.55
612.46	290.23
612.62	245.76
