SpectraSuite Data File
++++++++++++++++++++++++++++++++++++
Date: Fri Oct 04 12:13:49 GMT-05:00 2013
User: price-jones
Dark Spectrum Present: No
Reference Spectrum Present: No
Number of Sampled Component Spectra: 1
Spectrometers: USB2+H05261
Integration Time (usec): 1000000 (USB2+H05261)
Spectra Averaged: 1 (USB2+H05261)
Boxcar Smoothing: 0 (USB2+H05261)
Correct for Electrical Dark: No (USB2+H05261)
Strobe/Lamp Enabled: No (USB2+H05261)
Correct for Detector Non-linearity: No (USB2+H05261)
Correct for Stray Light: No (USB2+H05261)
Number of Pixels in Processed Spectrum: 2048
>>>>>Begin Processed Spectral Data<<<<<
365.73	67.88
365.92	67.88
366.12	67.88
366.32	0.00
366.52	0.00
366.72	320.65
366.91	98.30
367.11	271.50
367.31	250.44
367.51	358.10
367.70	297.25
367.90	493.85
368.10	348.74
368.30	397.89
368.49	126.39
368.69	376.83
368.89	304.27
369.09	147.45
369.28	248.10
369.48	70.22
369.68	259.80
369.87	337.04
370.07	220.01
370.27	564.07
370.47	451.72
370.66	304.27
370.86	566.41
371.06	713.86
371.25	894.08
371.45	341.72
371.65	702.16
371.84	372.15
372.04	322.99
372.24	489.17
372.44	484.49
372.63	540.66
372.83	809.83
373.03	512.58
373.22	397.89
373.42	383.85
373.62	402.57
373.81	613.22
374.01	746.63
374.21	704.50
374.40	372.15
374.60	685.78
374.79	547.69
374.99	456.40
375.19	594.50
375.38	608.54
375.58	524.28
375.78	688.12
375.97	678.76
376.17	926.85
376.37	411.93
376.56	631.94
376.76	376.83
376.95	365.12
377.15	575.77
377.35	582.79
377.54	594.50
377.74	367.46
377.93	355.76
378.13	526.62
378.33	685.78
378.52	484.49
378.72	748.97
378.91	592.16
379.11	489.17
379.31	475.13
379.50	381.51
379.70	730.25
379.89	695.14
380.09	435.34
380.28	325.33
380.48	540.66
380.68	433.00
380.87	255.12
381.07	564.07
381.26	767.70
381.46	709.18
381.65	617.90
381.85	407.25
382.04	407.25
382.24	667.05
382.43	505.56
382.63	322.99
382.83	433.00
383.02	678.76
383.22	800.46
383.41	416.62
383.61	519.60
383.80	395.55
384.00	461.09
384.19	444.70
384.39	538.32
384.58	475.13
384.78	617.90
384.97	575.77
385.17	552.37
385.36	428.32
385.56	547.69
385.75	369.80
385.95	484.49
386.14	683.44
386.34	404.91
386.53	554.71
386.72	418.96
386.92	753.65
387.11	662.37
387.31	582.79
387.50	395.55
387.70	362.78
387.89	540.66
388.09	400.23
388.28	351.08
388.48	425.98
388.67	631.94
388.86	430.66
389.06	507.90
389.25	596.84
389.45	596.84
389.64	566.41
389.84	695.14
390.03	608.54
390.22	599.18
390.42	517.26
390.61	430.66
390.81	332.36
391.00	468.11
391.19	730.25
391.39	524.28
391.58	641.31
391.78	589.82
391.97	603.86
392.16	390.87
392.36	763.01
392.55	777.06
392.75	437.68
392.94	374.49
393.13	660.03
393.33	376.83
393.52	505.56
393.71	753.65
393.91	559.39
394.10	400.23
394.29	449.38
394.49	468.11
394.68	681.10
394.88	898.77
395.07	723.23
395.26	594.50
395.46	592.16
395.65	730.25
395.84	645.99
396.04	1181.97
396.23	514.92
396.42	386.19
396.62	582.79
396.81	596.84
397.00	526.62
397.19	575.77
397.39	505.56
397.58	844.93
397.77	510.24
397.97	493.85
398.16	531.30
398.35	608.54
398.55	479.81
398.74	568.75
398.93	727.91
399.12	503.22
399.32	634.29
399.51	552.37
399.70	685.78
399.90	704.50
400.09	667.05
400.28	800.46
400.47	496.19
400.67	767.70
400.86	638.97
401.05	697.48
401.24	770.04
401.44	690.46
401.63	739.61
401.82	819.19
402.01	479.81
402.21	667.05
402.40	596.84
402.59	507.90
402.78	543.00
402.97	512.58
403.17	592.16
403.36	664.71
403.55	519.60
403.74	500.87
403.93	629.60
404.13	854.30
404.32	589.82
404.51	624.92
404.70	786.42
404.89	500.87
405.09	1001.75
405.28	535.98
405.47	486.83
405.66	662.37
405.85	763.01
406.05	617.90
406.24	664.71
406.43	676.41
406.62	671.73
406.81	1055.58
407.00	840.25
407.20	641.31
407.39	603.86
407.58	580.45
407.77	725.57
407.96	917.49
408.15	842.59
408.34	734.93
408.54	741.95
408.73	660.03
408.92	674.07
409.11	814.51
409.30	863.66
409.49	552.37
409.68	674.07
409.87	664.71
410.07	533.64
410.26	603.86
410.45	627.26
410.64	580.45
410.83	734.93
411.02	601.52
411.21	763.01
411.40	863.66
411.59	613.22
411.78	561.73
411.98	592.16
412.17	484.49
412.36	655.35
412.55	582.79
412.74	875.36
412.93	1039.20
413.12	550.03
413.31	842.59
413.50	699.82
413.69	645.99
413.88	915.15
414.07	643.65
414.26	667.05
414.45	650.67
414.64	772.38
414.83	779.40
415.02	812.17
415.22	812.17
415.41	947.92
415.60	638.97
415.79	678.76
415.98	952.60
416.17	730.25
416.36	667.05
416.55	561.73
416.74	847.27
416.93	971.32
417.12	622.58
417.31	622.58
417.50	624.92
417.69	1081.33
417.88	858.98
418.07	622.58
418.26	765.36
418.45	699.82
418.64	1205.38
418.83	950.26
419.02	896.43
419.21	779.40
419.39	889.40
419.58	725.57
419.77	753.65
419.96	947.92
420.15	1022.81
420.34	725.57
420.53	835.57
420.72	943.24
420.91	751.31
421.10	685.78
421.29	835.57
421.48	814.51
421.67	912.81
421.86	592.16
422.05	641.31
422.24	690.46
422.43	699.82
422.61	608.54
422.80	657.69
422.99	702.16
423.18	669.39
423.37	903.45
423.56	835.57
423.75	816.85
423.94	582.79
424.13	688.12
424.32	596.84
424.50	653.01
424.69	737.27
424.88	1034.52
425.07	765.36
425.26	844.93
425.45	1060.26
425.64	826.21
425.83	826.21
426.01	1158.57
426.20	833.23
426.39	727.91
426.58	615.56
426.77	713.86
426.96	891.74
427.15	791.10
427.33	706.84
427.52	723.23
427.71	734.93
427.90	828.55
428.09	683.44
428.28	620.24
428.46	716.20
428.65	887.06
428.84	929.19
429.03	1125.80
429.22	627.26
429.40	589.82
429.59	505.56
429.78	1144.52
429.97	648.33
430.16	645.99
430.34	594.50
430.53	608.54
430.72	603.86
430.91	828.55
431.10	587.47
431.28	751.31
431.47	875.36
431.66	837.91
431.85	835.57
432.03	706.84
432.22	1193.67
432.41	734.93
432.60	1043.88
432.79	681.10
432.97	1109.41
433.16	912.81
433.35	802.80
433.54	805.14
433.72	978.34
433.91	1025.15
434.10	755.99
434.28	884.72
434.47	826.21
434.66	980.68
434.85	716.20
435.03	793.44
435.22	973.66
435.41	1196.01
435.59	978.34
435.78	891.74
435.97	779.40
436.16	912.81
436.34	767.70
436.53	891.74
436.72	976.00
436.90	964.30
437.09	868.34
437.28	751.31
437.46	720.88
437.65	933.87
437.84	896.43
438.02	821.53
438.21	940.90
438.40	695.14
438.58	578.11
438.77	828.55
438.96	821.53
439.14	730.25
439.33	985.37
439.52	807.48
439.70	830.89
439.89	1004.09
440.08	854.30
440.26	854.30
440.45	1170.27
440.63	851.96
440.82	896.43
441.01	861.32
441.19	814.51
441.38	774.72
441.57	840.25
441.75	1076.65
441.94	1093.03
442.12	877.70
442.31	786.42
442.50	910.47
442.68	791.10
442.87	901.11
443.05	835.57
443.24	994.73
443.43	1158.57
443.61	1186.65
443.80	880.04
443.98	861.32
444.17	805.14
444.35	1104.73
444.54	816.85
444.73	849.61
444.91	1193.67
445.10	669.39
445.28	795.78
445.47	870.68
445.65	854.30
445.84	795.78
446.02	844.93
446.21	734.93
446.39	777.06
446.58	919.83
446.77	828.55
446.95	823.87
447.14	1015.79
447.32	1181.97
447.51	929.19
447.69	950.26
447.88	842.59
448.06	1247.51
448.25	959.62
448.43	800.46
448.62	720.88
448.80	994.73
448.99	980.68
449.17	851.96
449.36	880.04
449.54	1060.26
449.73	767.70
449.91	983.02
450.10	917.49
450.28	1401.98
450.46	1273.25
450.65	1135.16
450.83	1050.90
451.02	973.66
451.20	959.62
451.39	861.32
451.57	903.45
451.76	849.61
451.94	936.21
452.13	1132.82
452.31	1088.35
452.49	1032.18
452.68	688.12
452.86	1006.43
453.05	1331.76
453.23	917.49
453.42	720.88
453.60	882.38
453.78	1039.20
453.97	814.51
454.15	814.51
454.34	919.83
454.52	767.70
454.70	1212.40
454.89	1107.07
455.07	746.63
455.26	1093.03
455.44	1100.05
455.62	936.21
455.81	1078.99
455.99	1015.79
456.17	1090.69
456.36	999.41
456.54	887.06
456.73	868.34
456.91	823.87
457.09	947.92
457.28	1118.78
457.46	924.51
457.64	1165.59
457.83	903.45
458.01	847.27
458.19	931.53
458.38	868.34
458.56	992.39
458.74	788.76
458.93	1104.73
459.11	1004.09
459.29	823.87
459.48	1093.03
459.66	1324.74
459.84	1036.86
460.03	1701.57
460.21	1156.22
460.39	980.68
460.57	1256.87
460.76	999.41
460.94	891.74
461.12	1287.29
461.31	1212.40
461.49	971.32
461.67	856.64
461.85	1078.99
462.04	919.83
462.22	5816.23
462.40	1238.14
462.59	1214.74
462.77	891.74
462.95	1048.56
463.13	849.61
463.32	1128.14
463.50	1027.50
463.68	1116.44
463.86	1048.56
464.05	837.91
464.23	1207.72
464.41	1102.39
464.59	880.04
464.78	851.96
464.96	844.93
465.14	1022.81
465.32	987.71
465.50	1086.01
465.69	1076.65
465.87	821.53
466.05	1090.69
466.23	795.78
466.41	940.90
466.60	922.17
466.78	961.96
466.96	1104.73
467.14	945.58
467.32	1193.67
467.51	1057.92
467.69	1107.07
467.87	1313.04
468.05	985.37
468.23	1336.45
468.41	1118.78
468.60	915.15
468.78	1095.37
468.96	1221.76
469.14	1160.91
469.32	812.17
469.50	866.00
469.69	1076.65
469.87	1114.10
470.05	971.32
470.23	1025.15
470.41	812.17
470.59	1015.79
470.77	1069.62
470.95	1006.43
471.14	1172.61
471.32	992.39
471.50	1369.21
471.68	1055.58
471.86	1121.12
472.04	919.83
472.22	997.07
472.40	751.31
472.58	894.08
472.77	767.70
472.95	1018.13
473.13	1387.94
473.31	1313.04
473.49	791.10
473.67	861.32
473.85	1137.50
474.03	1207.72
474.21	940.90
474.39	1299.00
474.57	1331.76
474.75	1029.84
474.93	987.71
475.12	870.68
475.30	929.19
475.48	1064.94
475.66	1060.26
475.84	1050.90
476.02	992.39
476.20	1186.65
476.38	1039.20
476.56	1629.01
476.74	1081.33
476.92	987.71
477.10	1107.07
477.28	1266.23
477.46	1041.54
477.64	1245.16
477.82	1071.97
478.00	1018.13
478.18	1116.44
478.36	1032.18
478.54	1020.47
478.72	1015.79
478.90	1116.44
479.08	1128.14
479.26	1174.95
479.44	1090.69
479.62	945.58
479.80	1048.56
479.98	945.58
480.16	1034.52
480.34	1362.19
480.52	1130.48
480.70	1240.48
480.88	1067.28
481.06	994.73
481.24	1137.50
481.41	1055.58
481.59	1303.68
481.77	1137.50
481.95	1100.05
482.13	1341.13
482.31	1093.03
482.49	973.66
482.67	1226.44
482.85	1299.00
483.03	1259.21
483.21	1270.91
483.39	1050.90
483.57	1224.10
483.74	1479.22
483.92	1231.12
484.10	1116.44
484.28	1357.51
484.46	1820.94
484.64	1160.91
484.82	1212.40
485.00	1118.78
485.18	1144.52
485.35	1221.76
485.53	1008.77
485.71	1296.66
485.89	908.13
486.07	1027.50
486.25	1621.99
486.43	1329.42
486.61	1380.92
486.78	1336.45
486.96	1006.43
487.14	1088.35
487.32	1144.52
487.50	1205.38
487.68	1394.96
487.85	1071.97
488.03	1373.89
488.21	1570.50
488.39	1231.12
488.57	1392.62
488.75	1242.82
488.92	4086.58
489.10	1394.96
489.28	1694.55
489.46	1198.35
489.64	1306.02
489.81	1380.92
489.99	1474.54
490.17	1327.08
490.35	2052.65
490.53	1380.92
490.70	1296.66
490.88	1497.94
491.06	1355.17
491.24	1563.48
491.41	1701.57
491.59	1439.43
491.77	1097.71
491.95	1261.55
492.13	1266.23
492.30	1331.76
492.48	1331.76
492.66	1451.13
492.84	1245.16
493.01	1472.20
493.19	1238.14
493.37	1743.70
493.54	1689.87
493.72	1479.22
493.90	1378.58
494.08	1313.04
494.25	1540.07
494.43	1664.12
494.61	1469.86
494.79	1418.36
494.96	1397.30
495.14	1589.22
495.32	1280.27
495.49	1540.07
495.67	1500.28
495.85	1357.51
496.02	1369.21
496.20	1629.01
496.38	1577.52
496.55	1528.37
496.73	1633.69
496.91	1418.36
497.09	1626.67
497.26	1519.01
497.44	1579.86
497.62	1556.46
497.79	1432.41
497.97	1526.03
498.14	1572.84
498.32	1547.09
498.50	1514.33
498.67	1416.02
498.85	1600.93
499.03	1636.03
499.20	1544.75
499.38	1476.88
499.56	1502.62
499.73	1912.22
499.91	1708.59
500.08	1706.25
500.26	1521.35
500.44	1427.73
500.61	1544.75
500.79	1448.79
500.97	1624.33
501.14	1809.23
501.32	1537.73
501.49	1694.55
501.67	1551.78
501.84	1607.95
502.02	1371.55
502.20	1919.24
502.37	1558.80
502.55	1558.80
502.72	1437.09
502.90	1743.70
503.07	1633.69
503.25	1633.69
503.43	1455.81
503.60	1530.71
503.78	1551.78
503.95	1483.90
504.13	1397.30
504.30	1633.69
504.48	1762.42
504.65	1863.07
504.83	1748.38
505.01	1519.01
505.18	1706.25
505.36	1535.39
505.53	1607.95
505.71	1542.41
505.88	1710.93
506.06	1584.54
506.23	1500.28
506.41	1500.28
506.58	1584.54
506.76	1514.33
506.93	1469.86
507.11	1713.27
507.28	1427.73
507.46	1413.68
507.63	1621.99
507.81	1540.07
507.98	1598.59
508.16	1584.54
508.33	1680.50
508.50	1771.79
508.68	1540.07
508.85	1678.16
509.03	1514.33
509.20	1549.43
509.38	1701.57
509.55	1886.47
509.73	1795.19
509.90	1792.85
510.08	1397.30
510.25	1706.25
510.42	1483.90
510.60	1687.53
510.77	1750.72
510.95	1832.64
511.12	1746.04
511.30	1928.60
511.47	1914.56
511.64	2209.47
511.82	1640.72
511.99	1685.19
512.17	1643.06
512.34	1521.35
512.51	1430.07
512.69	1563.48
512.86	1879.45
513.04	1488.58
513.21	1610.29
513.38	1526.03
513.56	1542.41
513.73	1511.99
513.90	1455.81
514.08	1425.39
514.25	1645.40
514.43	1703.91
514.60	1544.75
514.77	1638.38
514.95	1804.55
515.12	1497.94
515.29	1689.87
515.47	1785.83
515.64	1701.57
515.81	1743.70
515.99	1909.88
516.16	1713.27
516.33	1685.19
516.51	1561.14
516.68	1383.26
516.85	1348.15
517.03	1306.02
517.20	1666.46
517.37	1652.42
517.54	1755.40
517.72	1556.46
517.89	1282.61
518.06	1380.92
518.24	1926.26
518.41	1989.46
518.58	1839.66
518.75	1425.39
518.93	1689.87
519.10	1783.49
519.27	1682.85
519.45	1703.91
519.62	1776.47
519.79	1736.68
519.96	1511.99
520.14	1699.23
520.31	1881.79
520.48	1633.69
520.65	1790.51
520.83	1893.49
521.00	1781.15
521.17	1743.70
521.34	1661.78
521.52	1788.17
521.69	1713.27
521.86	1610.29
522.03	1881.79
522.20	1989.46
522.38	1617.31
522.55	1820.94
522.72	1547.09
522.89	1760.08
523.07	2155.63
523.24	1696.89
523.41	1661.78
523.58	1741.36
523.75	1739.02
523.92	1537.73
524.10	1636.03
524.27	1706.25
524.44	1610.29
524.61	1970.73
524.78	1542.41
524.96	1806.89
525.13	1755.40
525.30	2031.58
525.47	1860.73
525.64	1778.81
525.81	1675.82
525.98	1666.46
526.16	1668.80
526.33	1502.62
526.50	1439.43
526.67	1411.34
526.84	1390.28
527.01	1507.30
527.18	1748.38
527.36	1746.04
527.53	1661.78
527.70	1940.30
527.87	1685.19
528.04	2071.37
528.21	1657.10
528.38	1858.39
528.55	2083.08
528.72	2104.14
528.89	2132.23
529.07	1839.66
529.24	1785.83
529.41	2080.74
529.58	1722.63
529.75	1732.00
529.92	1746.04
530.09	1699.23
530.26	1933.28
530.43	1842.00
530.60	1788.17
530.77	1708.59
530.94	1968.39
531.11	1886.47
531.28	1645.40
531.46	1671.14
531.63	1736.68
531.80	1825.62
531.97	1790.51
532.14	1710.93
532.31	1734.34
532.48	1825.62
532.65	2010.52
532.82	1905.20
532.99	1980.09
533.16	1830.30
533.33	1902.86
533.50	1844.34
533.67	1891.15
533.84	2284.36
534.01	2188.40
534.18	1959.03
534.35	1963.71
534.52	1844.34
534.69	2282.02
534.86	1750.72
535.03	1797.53
535.20	1703.91
535.37	1989.46
535.54	1830.30
535.71	1858.39
535.88	2015.20
536.05	1736.68
536.22	1717.95
536.38	1589.22
536.55	1799.87
536.72	1937.96
536.89	1593.90
537.06	1727.32
537.23	1715.61
537.40	1633.69
537.57	1643.06
537.74	1834.98
537.91	1823.28
538.08	1664.12
538.25	1907.54
538.42	1617.31
538.59	1757.74
538.75	1771.79
538.92	1710.93
539.09	1912.22
539.26	1675.82
539.43	2588.63
539.60	3873.59
539.77	5284.93
539.94	5022.79
540.11	3843.16
540.28	3005.25
540.44	2548.84
540.61	1870.09
540.78	1706.25
540.95	1586.88
541.12	2134.57
541.29	1605.61
541.46	2097.12
541.62	1867.75
541.79	1556.46
541.96	1495.60
542.13	1750.72
542.30	1586.88
542.47	1928.60
542.63	1664.12
542.80	1830.30
542.97	2024.56
543.14	1708.59
543.31	1811.57
543.48	1685.19
543.64	1823.28
543.81	1715.61
543.98	1617.31
544.15	1526.03
544.32	1666.46
544.48	1661.78
544.65	1694.55
544.82	1549.43
544.99	1680.50
545.16	2064.35
545.32	1682.85
545.49	1813.92
545.66	1710.93
545.83	1509.65
546.00	1565.82
546.16	1572.84
546.33	1694.55
546.50	1633.69
546.67	1902.86
546.83	1872.43
547.00	1732.00
547.17	1481.56
547.34	1619.65
547.50	1607.95
547.67	1687.53
547.84	1605.61
548.00	1916.90
548.17	1612.63
548.34	1678.16
548.51	1994.14
548.67	1893.49
548.84	1633.69
549.01	1776.47
549.18	1713.27
549.34	1750.72
549.51	1769.44
549.68	1846.68
549.84	1706.25
550.01	1584.54
550.18	2588.63
550.34	2359.26
550.51	1769.44
550.68	2228.19
550.84	1659.44
551.01	1818.60
551.18	1874.77
551.34	1792.85
551.51	1746.04
551.68	1614.97
551.84	1858.39
552.01	1657.10
552.18	1722.63
552.34	1631.35
552.51	1636.03
552.68	1776.47
552.84	1612.63
553.01	1788.17
553.18	1860.73
553.34	1675.82
553.51	1453.47
553.67	1881.79
553.84	2275.00
554.01	1827.96
554.17	1860.73
554.34	1631.35
554.51	1736.68
554.67	1877.11
554.84	1921.58
555.00	1797.53
555.17	1713.27
555.33	1830.30
555.50	1727.32
555.67	1877.11
555.83	1579.86
556.00	1802.21
556.16	3403.14
556.33	1844.34
556.50	1570.50
556.66	1584.54
556.83	1575.18
556.99	1547.09
557.16	1636.03
557.32	1474.54
557.49	1626.67
557.65	1633.69
557.82	1612.63
557.98	1713.27
558.15	1451.13
558.32	1692.21
558.48	1488.58
558.65	1549.43
558.81	1750.72
558.98	1432.41
559.14	1818.60
559.31	1617.31
559.47	1769.44
559.64	1420.71
559.80	1790.51
559.97	1528.37
560.13	1631.35
560.30	1397.30
560.46	1563.48
560.63	1629.01
560.79	1701.57
560.96	1753.06
561.12	1469.86
561.29	1703.91
561.45	1565.82
561.61	1593.90
561.78	2429.48
561.94	1678.16
562.11	1462.83
562.27	1614.97
562.44	1511.99
562.60	1570.50
562.77	1563.48
562.93	2143.93
563.10	1614.97
563.26	1678.16
563.42	1809.23
563.59	1549.43
563.75	1551.78
563.92	1912.22
564.08	1795.19
564.24	1872.43
564.41	2125.21
564.57	1420.71
564.74	1600.93
564.90	1659.44
565.07	1837.32
565.23	1851.36
565.39	1654.76
565.56	1703.91
565.72	1633.69
565.88	1572.84
566.05	1563.48
566.21	1593.90
566.38	1717.95
566.54	1720.29
566.70	1586.88
566.87	1425.39
567.03	1385.60
567.19	1692.21
567.36	1687.53
567.52	1565.82
567.68	1762.42
567.85	1678.16
568.01	1547.09
568.17	1430.07
568.34	1504.96
568.50	1842.00
568.66	1469.86
568.83	2312.45
568.99	1565.82
569.15	1802.21
569.32	1526.03
569.48	1502.62
569.64	1387.94
569.81	1544.75
569.97	1401.98
570.13	1673.48
570.30	1519.01
570.46	1474.54
570.62	1411.34
570.78	1418.36
570.95	1352.83
571.11	1952.01
571.27	1937.96
571.43	1465.18
571.60	1771.79
571.76	1551.78
571.92	1593.90
572.09	1502.62
572.25	1519.01
572.41	1617.31
572.57	1652.42
572.74	1991.80
572.90	1708.59
573.06	1753.06
573.22	1624.33
573.38	1858.39
573.55	1757.74
573.71	1762.42
573.87	1703.91
574.03	1488.58
574.20	1605.61
574.36	1912.22
574.52	1771.79
574.68	1680.50
574.84	1724.97
575.01	1633.69
575.17	1729.66
575.33	1509.65
575.49	1895.83
575.65	1930.94
575.82	2043.29
575.98	2904.60
576.14	2923.33
576.30	2796.94
576.46	2310.11
576.62	2071.37
576.79	2015.20
576.95	2045.63
577.11	1570.50
577.27	1472.20
577.43	1984.77
577.59	1987.11
577.75	1811.57
577.92	1600.93
578.08	1596.25
578.24	1430.07
578.40	1809.23
578.56	1973.07
578.72	1959.03
578.88	1790.51
579.04	1535.39
579.21	1619.65
579.37	1668.80
579.53	1633.69
579.69	1926.26
579.85	1568.16
580.01	1933.28
580.17	1863.07
580.33	1830.30
580.49	1991.80
580.65	1998.82
580.82	1856.04
580.98	1732.00
581.14	1703.91
581.30	2076.06
581.46	2188.40
581.62	2616.72
581.78	2511.39
581.94	2612.04
582.10	2186.06
582.26	2094.78
582.42	1944.99
582.58	2078.40
582.74	1980.09
582.90	2008.18
583.06	2188.40
583.22	2111.16
583.38	2127.55
583.54	2221.17
583.70	2740.77
583.86	2850.77
584.02	2885.88
584.18	3637.19
584.34	4138.07
584.50	10995.84
584.66	60170.49
584.82	65535.00
584.98	65535.00
585.14	65535.00
585.30	65535.00
585.46	65535.00
585.62	48615.27
585.78	23414.72
585.94	9687.48
586.10	5158.54
586.26	3625.49
586.42	3412.50
586.58	2874.18
586.74	2569.91
586.90	2478.63
587.06	2480.97
587.22	2457.56
587.38	2150.95
587.54	4273.82
587.70	11433.52
587.86	17647.64
588.02	18787.48
588.18	13104.66
588.34	8608.49
588.49	5722.61
588.65	3875.93
588.81	2394.37
588.97	1708.59
589.13	1741.36
589.29	1643.06
589.45	1802.21
589.61	1685.19
589.77	2005.84
589.93	1839.66
590.08	1937.96
590.24	1816.26
590.40	1891.15
590.56	1940.30
590.72	1713.27
590.88	1657.10
591.04	1881.79
591.20	1629.01
591.35	1942.64
591.51	1673.48
591.67	1530.71
591.83	1561.14
591.99	1570.50
592.15	1767.10
592.31	1673.48
592.46	1516.67
592.62	1778.81
592.78	1549.43
592.94	1577.52
593.10	1516.67
593.26	1481.56
593.41	1788.17
593.57	1849.02
593.73	2452.88
593.89	9692.16
594.05	22742.99
594.20	32219.81
594.36	30015.03
594.52	19314.10
594.68	12585.06
594.84	8734.88
594.99	5301.31
595.15	2984.18
595.31	2305.43
595.47	2221.17
595.62	1717.95
595.78	1708.59
595.94	1640.72
596.10	1916.90
596.25	1769.44
596.41	1952.01
596.57	1568.16
596.73	1666.46
596.88	2377.98
597.04	5076.62
597.20	7105.87
597.36	8421.25
597.51	6179.01
597.67	4425.95
597.83	3293.13
597.99	2860.13
598.14	2106.48
598.30	1994.14
598.46	1568.16
598.61	1996.48
598.77	1701.57
598.93	1533.05
599.09	1638.38
599.24	1528.37
599.40	1767.10
599.56	1483.90
599.71	1502.62
599.87	1441.77
600.03	1540.07
600.18	1533.05
600.34	1547.09
600.50	1444.11
600.65	1341.13
