SpectraSuite Data File
++++++++++++++++++++++++++++++++++++
Date: Fri Oct 04 12:14:02 GMT-05:00 2013
User: price-jones
Dark Spectrum Present: No
Reference Spectrum Present: No
Number of Sampled Component Spectra: 1
Spectrometers: USB2+H05261
Integration Time (usec): 1000000 (USB2+H05261)
Spectra Averaged: 1 (USB2+H05261)
Boxcar Smoothing: 0 (USB2+H05261)
Correct for Electrical Dark: No (USB2+H05261)
Strobe/Lamp Enabled: No (USB2+H05261)
Correct for Detector Non-linearity: No (USB2+H05261)
Correct for Stray Light: No (USB2+H05261)
Number of Pixels in Processed Spectrum: 2048
>>>>>Begin Processed Spectral Data<<<<<
365.73	46.81
365.92	46.81
366.12	46.81
366.32	0.00
366.52	0.00
366.72	334.70
366.91	79.58
367.11	271.50
367.31	187.24
367.51	341.72
367.70	353.42
367.90	550.03
368.10	243.42
368.30	409.59
368.49	170.86
368.69	526.62
368.89	337.04
369.09	170.86
369.28	220.01
369.48	84.26
369.68	264.48
369.87	372.15
370.07	215.33
370.27	519.60
370.47	355.76
370.66	220.01
370.86	484.49
371.06	741.95
371.25	929.19
371.45	444.70
371.65	692.80
371.84	332.36
372.04	315.97
372.24	503.22
372.44	465.77
372.63	557.05
372.83	870.68
373.03	440.02
373.22	360.44
373.42	367.46
373.62	491.51
373.81	543.00
374.01	695.14
374.21	718.54
374.40	421.30
374.60	746.63
374.79	503.22
374.99	428.32
375.19	573.43
375.38	617.90
375.58	505.56
375.78	683.44
375.97	650.67
376.17	1050.90
376.37	451.72
376.56	533.64
376.76	393.21
376.95	409.59
377.15	704.50
377.35	624.92
377.54	552.37
377.74	451.72
377.93	430.66
378.13	540.66
378.33	692.80
378.52	505.56
378.72	753.65
378.91	615.56
379.11	454.06
379.31	425.98
379.50	337.04
379.70	748.97
379.89	685.78
380.09	468.11
380.28	313.63
380.48	491.51
380.68	421.30
380.87	409.59
381.07	552.37
381.26	734.93
381.46	636.63
381.65	650.67
381.85	397.89
382.04	484.49
382.24	545.34
382.43	517.26
382.63	355.76
382.83	512.58
383.02	690.46
383.22	770.04
383.41	369.80
383.61	517.26
383.80	505.56
384.00	510.24
384.19	505.56
384.39	557.05
384.58	402.57
384.78	575.77
384.97	463.43
385.17	521.94
385.36	449.38
385.56	664.71
385.75	339.38
385.95	355.76
386.14	692.80
386.34	444.70
386.53	512.58
386.72	430.66
386.92	795.78
387.11	624.92
387.31	587.47
387.50	393.21
387.70	327.68
387.89	512.58
388.09	409.59
388.28	320.65
388.48	414.27
388.67	704.50
388.86	491.51
389.06	552.37
389.25	629.60
389.45	561.73
389.64	465.77
389.84	727.91
390.03	744.29
390.22	571.09
390.42	411.93
390.61	374.49
390.81	344.06
391.00	505.56
391.19	706.84
391.39	545.34
391.58	657.69
391.78	559.39
391.97	615.56
392.16	358.10
392.36	730.25
392.55	751.31
392.75	573.43
392.94	510.24
393.13	624.92
393.33	376.83
393.52	477.47
393.71	786.42
393.91	533.64
394.10	348.74
394.29	465.77
394.49	468.11
394.68	606.20
394.88	828.55
395.07	748.97
395.26	599.18
395.46	524.28
395.65	741.95
395.84	603.86
396.04	1179.63
396.23	484.49
396.42	458.74
396.62	554.71
396.81	540.66
397.00	526.62
397.19	503.22
397.39	486.83
397.58	842.59
397.77	550.03
397.97	545.34
398.16	491.51
398.35	638.97
398.55	454.06
398.74	519.60
398.93	753.65
399.12	498.53
399.32	718.54
399.51	498.53
399.70	786.42
399.90	641.31
400.09	664.71
400.28	774.72
400.47	575.77
400.67	772.38
400.86	655.35
401.05	610.88
401.24	720.88
401.44	725.57
401.63	837.91
401.82	821.53
402.01	472.79
402.21	617.90
402.40	585.13
402.59	454.06
402.78	559.39
402.97	550.03
403.17	550.03
403.36	699.82
403.55	596.84
403.74	491.51
403.93	601.52
404.13	896.43
404.32	561.73
404.51	657.69
404.70	744.29
404.89	629.60
405.09	1001.75
405.28	643.65
405.47	428.32
405.66	592.16
405.85	793.44
406.05	685.78
406.24	664.71
406.43	657.69
406.62	653.01
406.81	1100.05
407.00	861.32
407.20	564.07
407.39	585.13
407.58	538.32
407.77	772.38
407.96	943.24
408.15	805.14
408.34	655.35
408.54	667.05
408.73	648.33
408.92	671.73
409.11	622.58
409.30	959.62
409.49	465.77
409.68	610.88
409.87	671.73
410.07	491.51
410.26	585.13
410.45	578.11
410.64	442.36
410.83	671.73
411.02	566.41
411.21	802.80
411.40	844.93
411.59	592.16
411.78	585.13
411.98	627.26
412.17	538.32
412.36	627.26
412.55	519.60
412.74	784.08
412.93	994.73
413.12	573.43
413.31	858.98
413.50	681.10
413.69	681.10
413.88	912.81
414.07	711.52
414.26	713.86
414.45	573.43
414.64	793.44
414.83	725.57
415.02	732.59
415.22	837.91
415.41	896.43
415.60	636.63
415.79	704.50
415.98	990.05
416.17	629.60
416.36	774.72
416.55	596.84
416.74	861.32
416.93	917.49
417.12	653.01
417.31	685.78
417.50	711.52
417.69	1123.46
417.88	793.44
418.07	634.29
418.26	711.52
418.45	784.08
418.64	1142.18
418.83	908.13
419.02	908.13
419.21	844.93
419.39	809.83
419.58	662.37
419.77	718.54
419.96	1001.75
420.15	1100.05
420.34	613.22
420.53	758.33
420.72	999.41
420.91	788.76
421.10	685.78
421.29	814.51
421.48	868.34
421.67	903.45
421.86	638.97
422.05	748.97
422.24	676.41
422.43	751.31
422.61	613.22
422.80	683.44
422.99	730.25
423.18	603.86
423.37	1071.97
423.56	849.61
423.75	814.51
423.94	550.03
424.13	695.14
424.32	638.97
424.50	737.27
424.69	805.14
424.88	1032.18
425.07	660.03
425.26	772.38
425.45	1020.47
425.64	854.30
425.83	908.13
426.01	1118.78
426.20	905.79
426.39	744.29
426.58	669.39
426.77	781.74
426.96	929.19
427.15	842.59
427.33	678.76
427.52	753.65
427.71	706.84
427.90	758.33
428.09	645.99
428.28	606.20
428.46	685.78
428.65	786.42
428.84	915.15
429.03	1090.69
429.22	741.95
429.40	627.26
429.59	641.31
429.78	1163.25
429.97	657.69
430.16	468.11
430.34	594.50
430.53	580.45
430.72	620.24
430.91	875.36
431.10	578.11
431.28	711.52
431.47	915.15
431.66	844.93
431.85	669.39
432.03	669.39
432.22	1263.89
432.41	690.46
432.60	1006.43
432.79	746.63
432.97	1039.20
433.16	1076.65
433.35	821.53
433.54	821.53
433.72	903.45
433.91	966.64
434.10	734.93
434.28	884.72
434.47	798.12
434.66	931.53
434.85	748.97
435.03	873.02
435.22	1121.12
435.41	1121.12
435.59	903.45
435.78	922.17
435.97	732.59
436.16	983.02
436.34	788.76
436.53	830.89
436.72	943.24
436.90	901.11
437.09	868.34
437.28	744.29
437.46	678.76
437.65	952.60
437.84	912.81
438.02	835.57
438.21	849.61
438.40	718.54
438.58	620.24
438.77	863.66
438.96	805.14
439.14	734.93
439.33	894.08
439.52	760.67
439.70	755.99
439.89	943.24
440.08	847.27
440.26	781.74
440.45	1172.61
440.63	910.47
440.82	905.79
441.01	819.19
441.19	912.81
441.38	854.30
441.57	833.23
441.75	947.92
441.94	1097.71
442.12	938.55
442.31	826.21
442.50	903.45
442.68	861.32
442.87	882.38
443.05	791.10
443.24	870.68
443.43	1041.54
443.61	1135.16
443.80	837.91
443.98	734.93
444.17	791.10
444.35	933.87
444.54	791.10
444.73	849.61
444.91	1076.65
445.10	657.69
445.28	709.18
445.47	858.98
445.65	889.40
445.84	786.42
446.02	844.93
446.21	788.76
446.39	791.10
446.58	983.02
446.77	814.51
446.95	868.34
447.14	992.39
447.32	1151.54
447.51	819.19
447.69	943.24
447.88	938.55
448.06	1163.25
448.25	919.83
448.43	751.31
448.62	751.31
448.80	961.96
448.99	1004.09
449.17	784.08
449.36	741.95
449.54	1069.62
449.73	730.25
449.91	1097.71
450.10	732.59
450.28	1334.11
450.46	1411.34
450.65	987.71
450.83	1029.84
451.02	966.64
451.20	908.13
451.39	987.71
451.57	901.11
451.76	873.02
451.94	877.70
452.13	1015.79
452.31	1179.63
452.49	1015.79
452.68	697.48
452.86	1039.20
453.05	1242.82
453.23	898.77
453.42	702.16
453.60	894.08
453.78	973.66
453.97	798.12
454.15	779.40
454.34	887.06
454.52	805.14
454.70	1121.12
454.89	994.73
455.07	784.08
455.26	1004.09
455.44	1125.80
455.62	875.36
455.81	961.96
455.99	1076.65
456.17	1046.22
456.36	924.51
456.54	875.36
456.73	866.00
456.91	854.30
457.09	1064.94
457.28	1149.20
457.46	997.07
457.64	1083.67
457.83	889.40
458.01	866.00
458.19	983.02
458.38	844.93
458.56	987.71
458.74	706.84
458.93	1029.84
459.11	901.11
459.29	875.36
459.48	1088.35
459.66	1289.64
459.84	1137.50
460.03	1699.23
460.21	1111.75
460.39	922.17
460.57	1167.93
460.76	1041.54
460.94	866.00
461.12	1252.19
461.31	1203.04
461.49	954.94
461.67	905.79
461.85	999.41
462.04	910.47
462.22	5841.98
462.40	1252.19
462.59	1214.74
462.77	894.08
462.95	1025.15
463.13	800.46
463.32	1114.10
463.50	908.13
463.68	1086.01
463.86	945.58
464.05	990.05
464.23	1170.27
464.41	1114.10
464.59	854.30
464.78	828.55
464.96	795.78
465.14	1071.97
465.32	814.51
465.50	1102.39
465.69	1097.71
465.87	819.19
466.05	959.62
466.23	760.67
466.41	910.47
466.60	903.45
466.78	1029.84
466.96	1149.20
467.14	1032.18
467.32	1188.99
467.51	1039.20
467.69	1097.71
467.87	1322.40
468.05	1013.45
468.23	1329.42
468.41	1090.69
468.60	1020.47
468.78	954.94
468.96	1296.66
469.14	1060.26
469.32	800.46
469.50	765.36
469.69	1011.11
469.87	1004.09
470.05	983.02
470.23	978.34
470.41	828.55
470.59	898.77
470.77	1086.01
470.95	1022.81
471.14	1196.01
471.32	936.21
471.50	1341.13
471.68	1011.11
471.86	1088.35
472.04	880.04
472.22	1130.48
472.40	854.30
472.58	980.68
472.77	887.06
472.95	929.19
473.13	1359.85
473.31	1263.89
473.49	849.61
473.67	915.15
473.85	1142.18
474.03	1142.18
474.21	1053.24
474.39	1203.04
474.57	1341.13
474.75	1111.75
474.93	898.77
475.12	812.17
475.30	931.53
475.48	1048.56
475.66	1064.94
475.84	1039.20
476.02	992.39
476.20	1165.59
476.38	1041.54
476.56	1640.72
476.74	1011.11
476.92	978.34
477.10	973.66
477.28	1233.46
477.46	1008.77
477.64	1219.42
477.82	1123.46
478.00	1036.86
478.18	1043.88
478.36	1053.24
478.54	966.64
478.72	966.64
478.90	1067.28
479.08	1160.91
479.26	1043.88
479.44	945.58
479.62	938.55
479.80	1036.86
479.98	983.02
480.16	976.00
480.34	1247.51
480.52	1020.47
480.70	1170.27
480.88	1013.45
481.06	1036.86
481.24	964.30
481.41	1011.11
481.59	1322.40
481.77	1177.29
481.95	1025.15
482.13	1425.39
482.31	1086.01
482.49	1020.47
482.67	1301.34
482.85	1313.04
483.03	1172.61
483.21	1177.29
483.39	1043.88
483.57	1102.39
483.74	1467.52
483.92	1137.50
484.10	1004.09
484.28	1448.79
484.46	1624.33
484.64	1109.41
484.82	1167.93
485.00	1123.46
485.18	1191.33
485.35	1308.36
485.53	943.24
485.71	1371.55
485.89	943.24
486.07	978.34
486.25	1633.69
486.43	1303.68
486.61	1425.39
486.78	1308.36
486.96	968.98
487.14	1114.10
487.32	1158.57
487.50	1172.61
487.68	1359.85
487.85	1163.25
488.03	1364.53
488.21	1591.56
488.39	1231.12
488.57	1390.28
488.75	1198.35
488.92	4011.68
489.10	1345.81
489.28	1673.48
489.46	1282.61
489.64	1261.55
489.81	1336.45
489.99	1500.28
490.17	1217.08
490.35	2001.16
490.53	1327.08
490.70	1221.76
490.88	1462.83
491.06	1207.72
491.24	1455.81
491.41	1682.85
491.59	1385.60
491.77	1177.29
491.95	1196.01
492.13	1263.89
492.30	1296.66
492.48	1308.36
492.66	1465.18
492.84	1317.72
493.01	1481.56
493.19	1280.27
493.37	1764.76
493.54	1519.01
493.72	1483.90
493.90	1301.34
494.08	1373.89
494.25	1500.28
494.43	1423.05
494.61	1383.26
494.79	1294.32
494.96	1266.23
495.14	1521.35
495.32	1399.64
495.49	1465.18
495.67	1509.65
495.85	1348.15
496.02	1299.00
496.20	1570.50
496.38	1600.93
496.55	1460.49
496.73	1526.03
496.91	1324.74
497.09	1685.19
497.26	1544.75
497.44	1516.67
497.62	1373.89
497.79	1528.37
497.97	1577.52
498.14	1558.80
498.32	1472.20
498.50	1640.72
498.67	1329.42
498.85	1572.84
499.03	1486.24
499.20	1413.68
499.38	1476.88
499.56	1444.11
499.73	1895.83
499.91	1558.80
500.08	1640.72
500.26	1476.88
500.44	1385.60
500.61	1577.52
500.79	1373.89
500.97	1591.56
501.14	1825.62
501.32	1596.25
501.49	1799.87
501.67	1378.58
501.84	1542.41
502.02	1397.30
502.20	1851.36
502.37	1493.26
502.55	1439.43
502.72	1589.22
502.90	1741.36
503.07	1490.92
503.25	1638.38
503.43	1320.06
503.60	1451.13
503.78	1650.08
503.95	1474.54
504.13	1413.68
504.30	1654.76
504.48	1746.04
504.65	1877.11
504.83	1818.60
505.01	1521.35
505.18	1568.16
505.36	1474.54
505.53	1458.15
505.71	1490.92
505.88	1888.81
506.06	1486.24
506.23	1504.96
506.41	1423.05
506.58	1568.16
506.76	1675.82
506.93	1394.96
507.11	1589.22
507.28	1413.68
507.46	1483.90
507.63	1629.01
507.81	1357.51
507.98	1563.48
508.16	1610.29
508.33	1570.50
508.50	1767.10
508.68	1561.14
508.85	1582.20
509.03	1495.60
509.20	1563.48
509.38	1537.73
509.55	1771.79
509.73	1643.06
509.90	1818.60
510.08	1411.34
510.25	1802.21
510.42	1385.60
510.60	1579.86
510.77	1687.53
510.95	1797.53
511.12	1636.03
511.30	1806.89
511.47	1834.98
511.64	2165.00
511.82	1556.46
511.99	1577.52
512.17	1570.50
512.34	1427.73
512.51	1437.09
512.69	1500.28
512.86	1919.24
513.04	1509.65
513.21	1584.54
513.38	1661.78
513.56	1418.36
513.73	1411.34
513.90	1507.30
514.08	1378.58
514.25	1647.74
514.43	1713.27
514.60	1554.12
514.77	1500.28
514.95	1638.38
515.12	1437.09
515.29	1591.56
515.47	1764.76
515.64	1568.16
515.81	1561.14
515.99	1886.47
516.16	1797.53
516.33	1668.80
516.51	1385.60
516.68	1268.57
516.85	1352.83
517.03	1390.28
517.20	1624.33
517.37	1621.99
517.54	1778.81
517.72	1458.15
517.89	1261.55
518.06	1350.49
518.24	1956.69
518.41	2069.03
518.58	1678.16
518.75	1488.58
518.93	1511.99
519.10	1547.09
519.27	1535.39
519.45	1739.02
519.62	1710.93
519.79	1762.42
519.96	1467.52
520.14	1748.38
520.31	1940.30
520.48	1643.06
520.65	1673.48
520.83	1799.87
521.00	1799.87
521.17	1746.04
521.34	1561.14
521.52	1755.40
521.69	1689.87
521.86	1720.29
522.03	1699.23
522.20	1973.07
522.38	1523.69
522.55	1664.12
522.72	1404.32
522.89	1827.96
523.07	2108.82
523.24	1664.12
523.41	1621.99
523.58	1603.27
523.75	1624.33
523.92	1575.18
524.10	1788.17
524.27	1673.48
524.44	1593.90
524.61	2010.52
524.78	1563.48
524.96	1785.83
525.13	1734.34
525.30	1842.00
525.47	1853.70
525.64	1671.14
525.81	1727.32
525.98	1722.63
526.16	1469.86
526.33	1460.49
526.50	1497.94
526.67	1420.71
526.84	1284.95
527.01	1460.49
527.18	1671.14
527.36	1638.38
527.53	1509.65
527.70	1818.60
527.87	1614.97
528.04	2059.67
528.21	1650.08
528.38	1963.71
528.55	2008.18
528.72	1933.28
528.89	2115.84
529.07	1657.10
529.24	1689.87
529.41	2033.93
529.58	1757.74
529.75	1661.78
529.92	1907.54
530.09	1739.02
530.26	1921.58
530.43	1809.23
530.60	1762.42
530.77	1701.57
530.94	1921.58
531.11	1872.43
531.28	1600.93
531.46	1528.37
531.63	1685.19
531.80	1767.10
531.97	1834.98
532.14	1703.91
532.31	1685.19
532.48	1778.81
532.65	1952.01
532.82	1919.24
532.99	2022.22
533.16	1886.47
533.33	1722.63
533.50	1736.68
533.67	1788.17
533.84	2260.96
534.01	2195.42
534.18	2078.40
534.35	2017.54
534.52	1820.94
534.69	2291.38
534.86	1757.74
535.03	1664.12
535.20	1685.19
535.37	1963.71
535.54	1774.13
535.71	1696.89
535.88	1977.75
536.05	1732.00
536.22	1806.89
536.38	1703.91
536.55	1755.40
536.72	1895.83
536.89	1516.67
537.06	1629.01
537.23	1640.72
537.40	1750.72
537.57	1614.97
537.74	1804.55
537.91	1825.62
538.08	1755.40
538.25	1865.41
538.42	1607.95
538.59	1767.10
538.75	1724.97
538.92	1746.04
539.09	1930.94
539.26	1671.14
539.43	2401.39
539.60	3765.92
539.77	5481.53
539.94	5643.03
540.11	3868.91
540.28	3220.58
540.44	2672.89
540.61	1760.08
540.78	1713.27
540.95	1486.24
541.12	1921.58
541.29	1579.86
541.46	2024.56
541.62	1753.06
541.79	1547.09
541.96	1575.18
542.13	1540.07
542.30	1533.05
542.47	1863.07
542.63	1610.29
542.80	1682.85
542.97	1952.01
543.14	1732.00
543.31	1816.26
543.48	1586.88
543.64	1781.15
543.81	1699.23
543.98	1565.82
544.15	1509.65
544.32	1638.38
544.48	1636.03
544.65	1657.10
544.82	1584.54
544.99	1760.08
545.16	1867.75
545.32	1516.67
545.49	1724.97
545.66	1643.06
545.83	1544.75
546.00	1460.49
546.16	1519.01
546.33	1708.59
546.50	1703.91
546.67	1907.54
546.83	1884.13
547.00	1746.04
547.17	1467.52
547.34	1497.94
547.50	1575.18
547.67	1668.80
547.84	1614.97
548.00	1900.52
548.17	1495.60
548.34	1582.20
548.51	2031.58
548.67	1905.20
548.84	1577.52
549.01	1647.74
549.18	1664.12
549.34	1713.27
549.51	1633.69
549.68	1741.36
549.84	1680.50
550.01	1441.77
550.18	2605.02
550.34	2317.13
550.51	1795.19
550.68	2052.65
550.84	1619.65
551.01	1671.14
551.18	1764.76
551.34	1753.06
551.51	1643.06
551.68	1696.89
551.84	1790.51
552.01	1605.61
552.18	1596.25
552.34	1675.82
552.51	1654.76
552.68	1748.38
552.84	1603.27
553.01	1666.46
553.18	1753.06
553.34	1579.86
553.51	1432.41
553.67	1736.68
553.84	2157.97
554.01	1715.61
554.17	1708.59
554.34	1488.58
554.51	1734.34
554.67	1994.14
554.84	1879.45
555.00	1675.82
555.17	1652.42
555.33	1827.96
555.50	1760.08
555.67	1734.34
555.83	1535.39
556.00	1750.72
556.16	3386.76
556.33	1788.17
556.50	1591.56
556.66	1619.65
556.83	1568.16
556.99	1526.03
557.16	1558.80
557.32	1509.65
557.49	1488.58
557.65	1451.13
557.82	1493.26
557.98	1678.16
558.15	1469.86
558.32	1631.35
558.48	1472.20
558.65	1584.54
558.81	1685.19
558.98	1582.20
559.14	1687.53
559.31	1666.46
559.47	1685.19
559.64	1507.30
559.80	1720.29
559.97	1467.52
560.13	1586.88
560.30	1563.48
560.46	1577.52
560.63	1497.94
560.79	1664.12
560.96	1652.42
561.12	1425.39
561.29	1603.27
561.45	1551.78
561.61	1626.67
561.78	2429.48
561.94	1526.03
562.11	1460.49
562.27	1638.38
562.44	1523.69
562.60	1558.80
562.77	1605.61
562.93	2211.81
563.10	1654.76
563.26	1621.99
563.42	1811.57
563.59	1591.56
563.75	1404.32
563.92	1774.13
564.08	1682.85
564.24	1774.13
564.41	1994.14
564.57	1432.41
564.74	1519.01
564.90	1612.63
565.07	1746.04
565.23	1816.26
565.39	1633.69
565.56	1746.04
565.72	1420.71
565.88	1621.99
566.05	1561.14
566.21	1528.37
566.38	1589.22
566.54	1643.06
566.70	1563.48
566.87	1502.62
567.03	1371.55
567.19	1460.49
567.36	1659.44
567.52	1474.54
567.68	1600.93
567.85	1575.18
568.01	1462.83
568.17	1275.59
568.34	1439.43
568.50	1760.08
568.66	1453.47
568.83	2232.87
568.99	1577.52
569.15	1781.15
569.32	1511.99
569.48	1451.13
569.64	1399.64
569.81	1380.92
569.97	1338.79
570.13	1624.33
570.30	1439.43
570.46	1511.99
570.62	1401.98
570.78	1523.69
570.95	1200.69
571.11	1867.75
571.27	1975.41
571.43	1362.19
571.60	1668.80
571.76	1500.28
571.92	1537.73
572.09	1460.49
572.25	1404.32
572.41	1605.61
572.57	1504.96
572.74	1933.28
572.90	1645.40
573.06	1715.61
573.22	1603.27
573.38	1825.62
573.55	1753.06
573.71	1834.98
573.87	1689.87
574.03	1369.21
574.20	1547.09
574.36	1820.94
574.52	1750.72
574.68	1732.00
574.84	1792.85
575.01	1633.69
575.17	1781.15
575.33	1472.20
575.49	1710.93
575.65	1776.47
575.82	1863.07
575.98	2686.94
576.14	2984.18
576.30	2799.28
576.46	2464.58
576.62	2200.10
576.79	2017.54
576.95	1984.77
577.11	1579.86
577.27	1453.47
577.43	1743.70
577.59	1900.52
577.75	1764.76
577.92	1565.82
578.08	1607.95
578.24	1458.15
578.40	1818.60
578.56	1863.07
578.72	1968.39
578.88	1797.53
579.04	1600.93
579.21	1741.36
579.37	1734.34
579.53	1645.40
579.69	1963.71
579.85	1462.83
580.01	1933.28
580.17	1865.41
580.33	1846.68
580.49	1881.79
580.65	1902.86
580.82	1944.99
580.98	1612.63
581.14	1708.59
581.30	2073.71
581.46	2069.03
581.62	2499.69
581.78	2612.04
581.94	2630.76
582.10	1989.46
582.26	2001.16
582.42	1914.56
582.58	2090.10
582.74	2019.88
582.90	2040.95
583.06	2146.27
583.22	1966.05
583.38	2097.12
583.54	2188.40
583.70	2726.72
583.86	2888.22
584.02	3000.57
584.18	3651.24
584.34	4252.75
584.50	9193.62
584.66	54995.57
584.82	65535.00
584.98	65535.00
585.14	65535.00
585.30	65535.00
585.46	65535.00
585.62	53106.76
585.78	25551.63
585.94	10176.65
586.10	5259.18
586.26	3744.86
586.42	3522.51
586.58	2850.77
586.74	2703.32
586.90	2424.80
587.06	2579.27
587.22	2286.70
587.38	2221.17
587.54	3915.72
587.70	10485.60
587.86	17837.22
588.02	21081.21
588.18	15019.22
588.34	9500.23
588.49	6153.27
588.65	4060.83
588.81	2525.44
588.97	1696.89
589.13	1596.25
589.29	1603.27
589.45	1813.92
589.61	1596.25
589.77	2003.50
589.93	1966.05
590.08	2022.22
590.24	1884.13
590.40	1935.62
590.56	2033.93
590.72	1694.55
590.88	1556.46
591.04	1757.74
591.20	1521.35
591.35	2031.58
591.51	1650.08
591.67	1453.47
591.83	1476.88
591.99	1741.36
592.15	1703.91
592.31	1703.91
592.46	1572.84
592.62	1746.04
592.78	1303.68
592.94	1549.43
593.10	1481.56
593.26	1378.58
593.41	1809.23
593.57	1689.87
593.73	2284.36
593.89	8219.96
594.05	21972.95
594.20	34703.12
594.36	32800.27
594.52	21401.86
594.68	13408.93
594.84	9261.50
594.99	5774.10
595.15	3215.90
595.31	2183.72
595.47	2087.76
595.62	1659.44
595.78	1596.25
595.94	1668.80
596.10	1933.28
596.25	1849.02
596.41	1907.54
596.57	1530.71
596.73	1584.54
596.88	2265.64
597.04	4601.49
597.20	7368.01
597.36	8938.51
597.51	6803.94
597.67	4744.27
597.83	3550.59
597.99	2892.90
598.14	2001.16
598.30	1944.99
598.46	1629.01
598.61	1928.60
598.77	1732.00
598.93	1486.24
599.09	1652.42
599.24	1617.31
599.40	1720.29
599.56	1430.07
599.71	1500.28
599.87	1486.24
600.03	1446.45
600.18	1404.32
600.34	1577.52
600.50	1308.36
600.65	1233.46
600.81	1568.16
