SpectraSuite Data File
++++++++++++++++++++++++++++++++++++
Date: Fri Oct 04 11:34:07 GMT-05:00 2013
User: price-jones
Dark Spectrum Present: No
Reference Spectrum Present: No
Number of Sampled Component Spectra: 1
Spectrometers: USB2+H05261
Integration Time (usec): 100000 (USB2+H05261)
Spectra Averaged: 1 (USB2+H05261)
Boxcar Smoothing: 0 (USB2+H05261)
Correct for Electrical Dark: No (USB2+H05261)
Strobe/Lamp Enabled: No (USB2+H05261)
Correct for Detector Non-linearity: No (USB2+H05261)
Correct for Stray Light: No (USB2+H05261)
Number of Pixels in Processed Spectrum: 2048
>>>>>Begin Processed Spectral Data<<<<<
365.73	124.05
365.92	124.05
366.12	124.05
366.32	0.00
366.52	0.00
366.72	46.81
366.91	11.70
367.11	4.68
367.31	0.00
367.51	0.00
367.70	4.68
367.90	0.00
368.10	0.00
368.30	0.00
368.49	65.54
368.69	0.00
368.89	0.00
369.09	0.00
369.28	35.11
369.48	28.09
369.68	0.00
369.87	0.00
370.07	0.00
370.27	53.83
370.47	93.62
370.66	128.73
370.86	30.43
371.06	159.16
371.25	88.94
371.45	32.77
371.65	149.79
371.84	102.98
372.04	74.90
372.24	161.50
372.44	126.39
372.63	117.03
372.83	201.29
373.03	182.56
373.22	100.64
373.42	117.03
373.62	152.13
373.81	131.07
374.01	168.52
374.21	156.82
374.40	152.13
374.60	208.31
374.79	133.41
374.99	191.92
375.19	215.33
375.38	194.26
375.58	156.82
375.78	152.13
375.97	81.92
376.17	212.99
376.37	154.48
376.56	170.86
376.76	133.41
376.95	187.24
377.15	208.31
377.35	147.45
377.54	170.86
377.74	128.73
377.93	102.98
378.13	135.75
378.33	126.39
378.52	147.45
378.72	135.75
378.91	194.26
379.11	168.52
379.31	72.56
379.50	60.85
379.70	124.05
379.89	182.56
380.09	126.39
380.28	149.79
380.48	142.77
380.68	145.11
380.87	95.96
381.07	133.41
381.26	182.56
381.46	135.75
381.65	138.09
381.85	203.63
382.04	154.48
382.24	102.98
382.43	110.01
382.63	86.60
382.83	166.18
383.02	180.22
383.22	208.31
383.41	100.64
383.61	159.16
383.80	84.26
384.00	168.52
384.19	49.15
384.39	135.75
384.58	196.60
384.78	201.29
384.97	187.24
385.17	154.48
385.36	128.73
385.56	203.63
385.75	135.75
385.95	180.22
386.14	149.79
386.34	191.92
386.53	170.86
386.72	152.13
386.92	67.88
387.11	114.69
387.31	60.85
387.50	124.05
387.70	161.50
387.89	84.26
388.09	91.28
388.28	154.48
388.48	147.45
388.67	184.90
388.86	163.84
389.06	187.24
389.25	198.95
389.45	88.94
389.64	163.84
389.84	149.79
390.03	105.32
390.22	135.75
390.42	159.16
390.61	107.66
390.81	105.32
391.00	142.77
391.19	138.09
391.39	126.39
391.58	147.45
391.78	152.13
391.97	182.56
392.16	110.01
392.36	170.86
392.55	119.37
392.75	177.88
392.94	110.01
393.13	170.86
393.33	154.48
393.52	105.32
393.71	149.79
393.91	163.84
394.10	117.03
394.29	189.58
394.49	124.05
394.68	119.37
394.88	231.71
395.07	149.79
395.26	107.66
395.46	135.75
395.65	147.45
395.84	149.79
396.04	180.22
396.23	180.22
396.42	77.24
396.62	128.73
396.81	133.41
397.00	93.62
397.19	156.82
397.39	159.16
397.58	180.22
397.77	170.86
397.97	168.52
398.16	121.71
398.35	114.69
398.55	147.45
398.74	145.11
398.93	180.22
399.12	191.92
399.32	177.88
399.51	140.43
399.70	124.05
399.90	196.60
400.09	180.22
400.28	212.99
400.47	140.43
400.67	168.52
400.86	208.31
401.05	154.48
401.24	152.13
401.44	234.05
401.63	128.73
401.82	201.29
402.01	124.05
402.21	133.41
402.40	142.77
402.59	180.22
402.78	135.75
402.97	112.35
403.17	86.60
403.36	166.18
403.55	182.56
403.74	72.56
403.93	152.13
404.13	208.31
404.32	131.07
404.51	222.35
404.70	259.80
404.89	152.13
405.09	194.26
405.28	198.95
405.47	98.30
405.66	210.65
405.85	119.37
406.05	67.88
406.24	49.15
406.43	180.22
406.62	138.09
406.81	222.35
407.00	159.16
407.20	161.50
407.39	173.20
407.58	142.77
407.77	217.67
407.96	227.03
408.15	208.31
408.34	156.82
408.54	147.45
408.73	128.73
408.92	110.01
409.11	177.88
409.30	231.71
409.49	107.66
409.68	117.03
409.87	205.97
410.07	142.77
410.26	222.35
410.45	182.56
410.64	124.05
410.83	163.84
411.02	173.20
411.21	191.92
411.40	210.65
411.59	166.18
411.78	149.79
411.98	126.39
412.17	156.82
412.36	77.24
412.55	119.37
412.74	180.22
412.93	205.97
413.12	156.82
413.31	191.92
413.50	145.11
413.69	138.09
413.88	194.26
414.07	138.09
414.26	147.45
414.45	147.45
414.64	234.05
414.83	138.09
415.02	166.18
415.22	177.88
415.41	182.56
415.60	243.42
415.79	105.32
415.98	217.67
416.17	166.18
416.36	156.82
416.55	159.16
416.74	210.65
416.93	191.92
417.12	194.26
417.31	196.60
417.50	159.16
417.69	203.63
417.88	152.13
418.07	156.82
418.26	163.84
418.45	210.65
418.64	196.60
418.83	159.16
419.02	180.22
419.21	191.92
419.39	166.18
419.58	95.96
419.77	88.94
419.96	191.92
420.15	191.92
420.34	212.99
420.53	208.31
420.72	159.16
420.91	154.48
421.10	163.84
421.29	215.33
421.48	159.16
421.67	229.37
421.86	168.52
422.05	187.24
422.24	205.97
422.43	154.48
422.61	114.69
422.80	142.77
422.99	110.01
423.18	135.75
423.37	250.44
423.56	170.86
423.75	152.13
423.94	182.56
424.13	149.79
424.32	133.41
424.50	170.86
424.69	131.07
424.88	201.29
425.07	156.82
425.26	124.05
425.45	201.29
425.64	217.67
425.83	203.63
426.01	259.80
426.20	149.79
426.39	180.22
426.58	161.50
426.77	184.90
426.96	156.82
427.15	128.73
427.33	180.22
427.52	203.63
427.71	187.24
427.90	245.76
428.09	100.64
428.28	135.75
428.46	152.13
428.65	180.22
428.84	187.24
429.03	229.37
429.22	107.66
429.40	159.16
429.59	175.54
429.78	187.24
429.97	79.58
430.16	140.43
430.34	154.48
430.53	194.26
430.72	126.39
430.91	126.39
431.10	182.56
431.28	110.01
431.47	220.01
431.66	166.18
431.85	166.18
432.03	161.50
432.22	149.79
432.41	180.22
432.60	198.95
432.79	135.75
432.97	229.37
433.16	154.48
433.35	149.79
433.54	119.37
433.72	140.43
433.91	138.09
434.10	245.76
434.28	100.64
434.47	210.65
434.66	208.31
434.85	145.11
435.03	163.84
435.22	280.86
435.41	341.72
435.59	376.83
435.78	276.18
435.97	287.89
436.16	229.37
436.34	154.48
436.53	271.50
436.72	191.92
436.90	121.71
437.09	180.22
437.28	238.73
437.46	212.99
437.65	163.84
437.84	222.35
438.02	208.31
438.21	175.54
438.40	229.37
438.58	133.41
438.77	184.90
438.96	201.29
439.14	166.18
439.33	126.39
439.52	121.71
439.70	203.63
439.89	145.11
440.08	227.03
440.26	152.13
440.45	173.20
440.63	175.54
440.82	182.56
441.01	201.29
441.19	187.24
441.38	203.63
441.57	170.86
441.75	227.03
441.94	196.60
442.12	159.16
442.31	149.79
442.50	161.50
442.68	191.92
442.87	212.99
443.05	142.77
443.24	222.35
443.43	290.23
443.61	189.58
443.80	184.90
443.98	231.71
444.17	187.24
444.35	210.65
444.54	173.20
444.73	212.99
444.91	217.67
445.10	217.67
445.28	170.86
445.47	198.95
445.65	166.18
445.84	149.79
446.02	198.95
446.21	107.66
446.39	201.29
446.58	124.05
446.77	191.92
446.95	191.92
447.14	177.88
447.32	227.03
447.51	222.35
447.69	180.22
447.88	131.07
448.06	203.63
448.25	205.97
448.43	152.13
448.62	119.37
448.80	201.29
448.99	135.75
449.17	149.79
449.36	180.22
449.54	205.97
449.73	149.79
449.91	229.37
450.10	110.01
450.28	229.37
450.46	205.97
450.65	184.90
450.83	138.09
451.02	285.55
451.20	182.56
451.39	191.92
451.57	175.54
451.76	236.39
451.94	159.16
452.13	180.22
452.31	184.90
452.49	187.24
452.68	173.20
452.86	196.60
453.05	191.92
453.23	222.35
453.42	229.37
453.60	133.41
453.78	283.20
453.97	177.88
454.15	88.94
454.34	152.13
454.52	266.82
454.70	241.08
454.89	259.80
455.07	140.43
455.26	177.88
455.44	184.90
455.62	203.63
455.81	229.37
455.99	229.37
456.17	252.78
456.36	149.79
456.54	191.92
456.73	222.35
456.91	152.13
457.09	147.45
457.28	229.37
457.46	231.71
457.64	196.60
457.83	191.92
458.01	191.92
458.19	159.16
458.38	156.82
458.56	205.97
458.74	184.90
458.93	152.13
459.11	194.26
459.29	180.22
459.48	208.31
459.66	241.08
459.84	189.58
460.03	252.78
460.21	245.76
460.39	168.52
460.57	217.67
460.76	191.92
460.94	166.18
461.12	245.76
461.31	173.20
461.49	147.45
461.67	180.22
461.85	224.69
462.04	173.20
462.22	608.54
462.40	203.63
462.59	255.12
462.77	208.31
462.95	84.26
463.13	189.58
463.32	229.37
463.50	156.82
463.68	145.11
463.86	203.63
464.05	177.88
464.23	168.52
464.41	175.54
464.59	145.11
464.78	156.82
464.96	196.60
465.14	201.29
465.32	234.05
465.50	201.29
465.69	184.90
465.87	170.86
466.05	212.99
466.23	220.01
466.41	126.39
466.60	234.05
466.78	114.69
466.96	245.76
467.14	196.60
467.32	110.01
467.51	142.77
467.69	227.03
467.87	248.10
468.05	177.88
468.23	278.52
468.41	269.16
468.60	212.99
468.78	205.97
468.96	196.60
469.14	243.42
469.32	128.73
469.50	227.03
469.69	224.69
469.87	145.11
470.05	236.39
470.23	194.26
470.41	112.35
470.59	182.56
470.77	159.16
470.95	234.05
471.14	229.37
471.32	175.54
471.50	264.48
471.68	229.37
471.86	220.01
472.04	231.71
472.22	229.37
472.40	166.18
472.58	84.26
472.77	187.24
472.95	140.43
473.13	203.63
473.31	187.24
473.49	177.88
473.67	198.95
473.85	201.29
474.03	212.99
474.21	220.01
474.39	236.39
474.57	220.01
474.75	180.22
474.93	189.58
475.12	140.43
475.30	180.22
475.48	159.16
475.66	126.39
475.84	177.88
476.02	227.03
476.20	203.63
476.38	252.78
476.56	140.43
476.74	189.58
476.92	227.03
477.10	217.67
477.28	156.82
477.46	161.50
477.64	201.29
477.82	205.97
478.00	205.97
478.18	203.63
478.36	203.63
478.54	191.92
478.72	180.22
478.90	229.37
479.08	222.35
479.26	220.01
479.44	175.54
479.62	159.16
479.80	208.31
479.98	196.60
480.16	156.82
480.34	220.01
480.52	180.22
480.70	255.12
480.88	126.39
481.06	264.48
481.24	194.26
481.41	173.20
481.59	166.18
481.77	152.13
481.95	245.76
482.13	189.58
482.31	238.73
482.49	194.26
482.67	255.12
482.85	184.90
483.03	243.42
483.21	168.52
483.39	243.42
483.57	208.31
483.74	212.99
483.92	245.76
484.10	208.31
484.28	203.63
484.46	273.84
484.64	210.65
484.82	187.24
485.00	250.44
485.18	297.25
485.35	210.65
485.53	210.65
485.71	278.52
485.89	243.42
486.07	234.05
486.25	259.80
486.43	212.99
486.61	269.16
486.78	287.89
486.96	273.84
487.14	201.29
487.32	248.10
487.50	264.48
487.68	234.05
487.85	175.54
488.03	299.59
488.21	259.80
488.39	212.99
488.57	205.97
488.75	201.29
488.92	517.26
489.10	294.91
489.28	318.31
489.46	255.12
489.64	194.26
489.81	152.13
489.99	250.44
490.17	222.35
490.35	351.08
490.53	210.65
490.70	229.37
490.88	161.50
491.06	182.56
491.24	283.20
491.41	297.25
491.59	299.59
491.77	273.84
491.95	220.01
492.13	154.48
492.30	184.90
492.48	264.48
492.66	292.57
492.84	205.97
493.01	205.97
493.19	222.35
493.37	271.50
493.54	243.42
493.72	273.84
493.90	198.95
494.08	259.80
494.25	245.76
494.43	255.12
494.61	234.05
494.79	241.08
494.96	271.50
495.14	248.10
495.32	257.46
495.49	292.57
495.67	238.73
495.85	184.90
496.02	227.03
496.20	227.03
496.38	283.20
496.55	273.84
496.73	285.55
496.91	355.76
497.09	201.29
497.26	220.01
497.44	210.65
497.62	217.67
497.79	201.29
497.97	245.76
498.14	252.78
498.32	212.99
498.50	290.23
498.67	262.14
498.85	301.93
499.03	203.63
499.20	227.03
499.38	266.82
499.56	227.03
499.73	266.82
499.91	320.65
500.08	283.20
500.26	161.50
500.44	196.60
500.61	271.50
500.79	203.63
500.97	327.68
501.14	290.23
501.32	229.37
501.49	215.33
501.67	224.69
501.84	234.05
502.02	294.91
502.20	290.23
502.37	250.44
502.55	266.82
502.72	217.67
502.90	294.91
503.07	236.39
503.25	250.44
503.43	210.65
503.60	229.37
503.78	266.82
503.95	241.08
504.13	250.44
504.30	243.42
504.48	234.05
504.65	243.42
504.83	248.10
505.01	271.50
505.18	191.92
505.36	266.82
505.53	315.97
505.71	313.63
505.88	344.06
506.06	220.01
506.23	231.71
506.41	252.78
506.58	269.16
506.76	255.12
506.93	201.29
507.11	306.61
507.28	262.14
507.46	269.16
507.63	262.14
507.81	255.12
507.98	222.35
508.16	194.26
508.33	184.90
508.50	215.33
508.68	236.39
508.85	191.92
509.03	222.35
509.20	276.18
509.38	245.76
509.55	163.84
509.73	266.82
509.90	215.33
510.08	262.14
510.25	257.46
510.42	205.97
510.60	210.65
510.77	285.55
510.95	255.12
511.12	189.58
511.30	407.25
511.47	299.59
511.64	252.78
511.82	238.73
511.99	212.99
512.17	266.82
512.34	264.48
512.51	184.90
512.69	229.37
512.86	163.84
513.04	231.71
513.21	264.48
513.38	208.31
513.56	231.71
513.73	241.08
513.90	276.18
514.08	255.12
514.25	238.73
514.43	283.20
514.60	283.20
514.77	276.18
514.95	266.82
515.12	231.71
515.29	301.93
515.47	222.35
515.64	236.39
515.81	311.29
515.99	341.72
516.16	238.73
516.33	299.59
516.51	205.97
516.68	212.99
516.85	238.73
517.03	217.67
517.20	248.10
517.37	280.86
517.54	262.14
517.72	173.20
517.89	245.76
518.06	229.37
518.24	276.18
518.41	238.73
518.58	245.76
518.75	315.97
518.93	231.71
519.10	276.18
519.27	264.48
519.45	299.59
519.62	341.72
519.79	262.14
519.96	264.48
520.14	241.08
520.31	283.20
520.48	184.90
520.65	243.42
520.83	210.65
521.00	203.63
521.17	238.73
521.34	224.69
521.52	252.78
521.69	311.29
521.86	285.55
522.03	198.95
522.20	341.72
522.38	220.01
522.55	297.25
522.72	285.55
522.89	334.70
523.07	313.63
523.24	177.88
523.41	257.46
523.58	252.78
523.75	234.05
523.92	250.44
524.10	276.18
524.27	201.29
524.44	231.71
524.61	198.95
524.78	229.37
524.96	276.18
525.13	252.78
525.30	250.44
525.47	234.05
525.64	278.52
525.81	264.48
525.98	212.99
526.16	224.69
526.33	262.14
526.50	194.26
526.67	191.92
526.84	238.73
527.01	229.37
527.18	311.29
527.36	229.37
527.53	224.69
527.70	271.50
527.87	191.92
528.04	294.91
528.21	222.35
528.38	351.08
528.55	297.25
528.72	266.82
528.89	372.15
529.07	294.91
529.24	304.27
529.41	332.36
529.58	222.35
529.75	217.67
529.92	294.91
530.09	217.67
530.26	264.48
530.43	245.76
530.60	311.29
530.77	341.72
530.94	259.80
531.11	276.18
531.28	301.93
531.46	250.44
531.63	266.82
531.80	306.61
531.97	266.82
532.14	229.37
532.31	358.10
532.48	212.99
532.65	215.33
532.82	198.95
532.99	262.14
533.16	285.55
533.33	224.69
533.50	259.80
533.67	301.93
533.84	318.31
534.01	278.52
534.18	236.39
534.35	290.23
534.52	313.63
534.69	301.93
534.86	315.97
535.03	266.82
535.20	297.25
535.37	313.63
535.54	271.50
535.71	252.78
535.88	322.99
536.05	283.20
536.22	212.99
536.38	290.23
536.55	259.80
536.72	292.57
536.89	283.20
537.06	308.95
537.23	276.18
537.40	311.29
537.57	290.23
537.74	278.52
537.91	325.33
538.08	322.99
538.25	369.80
538.42	241.08
538.59	203.63
538.75	362.78
538.92	212.99
539.09	325.33
539.26	276.18
539.43	351.08
539.60	470.45
539.77	507.90
539.94	486.83
540.11	379.17
540.28	346.40
540.44	374.49
540.61	365.12
540.78	414.27
540.95	386.19
541.12	543.00
541.29	372.15
541.46	493.85
541.62	486.83
541.79	465.77
541.96	458.74
542.13	468.11
542.30	463.43
542.47	463.43
542.63	468.11
542.80	425.98
542.97	510.24
543.14	404.91
543.31	369.80
543.48	433.00
543.64	437.68
543.81	454.06
543.98	428.32
544.15	397.89
544.32	374.49
544.48	404.91
544.65	390.87
544.82	463.43
544.99	397.89
545.16	428.32
545.32	484.49
545.49	568.75
545.66	814.51
545.83	695.14
546.00	718.54
546.16	678.76
546.33	496.19
546.50	421.30
546.67	435.34
546.83	421.30
547.00	374.49
547.17	355.76
547.34	315.97
547.50	341.72
547.67	386.19
547.84	369.80
548.00	381.51
548.17	325.33
548.34	245.76
548.51	287.89
548.67	376.83
548.84	369.80
549.01	271.50
549.18	358.10
549.34	325.33
549.51	355.76
549.68	276.18
549.84	315.97
550.01	315.97
550.18	435.34
550.34	428.32
550.51	351.08
550.68	351.08
550.84	271.50
551.01	292.57
551.18	327.68
551.34	283.20
551.51	262.14
551.68	285.55
551.84	301.93
552.01	283.20
552.18	285.55
552.34	299.59
552.51	269.16
552.68	327.68
552.84	189.58
553.01	322.99
553.18	297.25
553.34	297.25
553.51	346.40
553.67	262.14
553.84	327.68
554.01	184.90
554.17	271.50
554.34	264.48
554.51	266.82
554.67	360.44
554.84	257.46
555.00	372.15
555.17	290.23
555.33	276.18
555.50	297.25
555.67	290.23
555.83	234.05
556.00	220.01
556.16	433.00
556.33	271.50
556.50	217.67
556.66	271.50
556.83	229.37
556.99	229.37
557.16	255.12
557.32	227.03
557.49	184.90
557.65	229.37
557.82	264.48
557.98	243.42
558.15	299.59
558.32	269.16
558.48	262.14
558.65	266.82
558.81	238.73
558.98	227.03
559.14	243.42
559.31	304.27
559.47	250.44
559.64	222.35
559.80	325.33
559.97	191.92
560.13	292.57
560.30	241.08
560.46	283.20
560.63	252.78
560.79	224.69
560.96	292.57
561.12	346.40
561.29	250.44
561.45	255.12
561.61	250.44
561.78	367.46
561.94	269.16
562.11	196.60
562.27	210.65
562.44	241.08
562.60	217.67
562.77	198.95
562.93	294.91
563.10	313.63
563.26	210.65
563.42	313.63
563.59	245.76
563.75	236.39
563.92	287.89
564.08	266.82
564.24	238.73
564.41	271.50
564.57	234.05
564.74	217.67
564.90	311.29
565.07	245.76
565.23	234.05
565.39	294.91
565.56	236.39
565.72	201.29
565.88	205.97
566.05	212.99
566.21	248.10
566.38	217.67
566.54	241.08
566.70	297.25
566.87	224.69
567.03	285.55
567.19	262.14
567.36	205.97
567.52	264.48
567.68	315.97
567.85	346.40
568.01	283.20
568.17	248.10
568.34	201.29
568.50	224.69
568.66	252.78
568.83	276.18
568.99	243.42
569.15	276.18
569.32	278.52
569.48	252.78
569.64	166.18
569.81	217.67
569.97	215.33
570.13	248.10
570.30	252.78
570.46	259.80
570.62	262.14
570.78	257.46
570.95	217.67
571.11	273.84
571.27	224.69
571.43	269.16
571.60	227.03
571.76	215.33
571.92	248.10
572.09	294.91
572.25	191.92
572.41	238.73
572.57	264.48
572.74	292.57
572.90	255.12
573.06	241.08
573.22	201.29
573.38	292.57
573.55	273.84
573.71	294.91
573.87	257.46
574.03	198.95
574.20	191.92
574.36	280.86
574.52	224.69
574.68	308.95
574.84	266.82
575.01	159.16
575.17	212.99
575.33	184.90
575.49	262.14
575.65	215.33
575.82	222.35
575.98	327.68
576.14	334.70
576.30	348.74
576.46	404.91
576.62	327.68
576.79	421.30
576.95	388.53
577.11	313.63
577.27	252.78
577.43	287.89
577.59	344.06
577.75	287.89
577.92	243.42
578.08	276.18
578.24	299.59
578.40	315.97
578.56	327.68
578.72	313.63
578.88	437.68
579.04	322.99
579.21	320.65
579.37	362.78
579.53	285.55
579.69	381.51
579.85	325.33
580.01	287.89
580.17	266.82
580.33	283.20
580.49	341.72
580.65	353.42
580.82	271.50
580.98	262.14
581.14	210.65
581.30	257.46
581.46	365.12
581.62	313.63
581.78	292.57
581.94	292.57
582.10	290.23
582.26	304.27
582.42	273.84
582.58	285.55
582.74	334.70
582.90	330.02
583.06	313.63
583.22	341.72
583.38	397.89
583.54	315.97
583.70	360.44
583.86	358.10
584.02	299.59
584.18	409.59
584.34	379.17
584.50	770.04
584.66	3829.12
584.82	8334.65
584.98	10441.13
585.14	9008.72
585.30	5809.21
585.46	3782.31
585.62	2319.47
585.78	1254.53
585.94	653.01
586.10	437.68
586.26	344.06
586.42	430.66
586.58	374.49
586.74	390.87
586.90	346.40
587.06	337.04
587.22	325.33
587.38	362.78
587.54	400.23
587.70	725.57
587.86	1039.20
588.02	952.60
588.18	821.53
588.34	587.47
588.49	428.32
588.65	400.23
588.81	320.65
588.97	297.25
589.13	191.92
589.29	273.84
589.45	257.46
589.61	299.59
589.77	276.18
589.93	304.27
590.08	334.70
590.24	220.01
590.40	238.73
590.56	264.48
590.72	280.86
590.88	217.67
591.04	339.38
591.20	304.27
591.35	294.91
591.51	330.02
591.67	243.42
591.83	285.55
591.99	215.33
592.15	278.52
592.31	292.57
592.46	320.65
592.62	334.70
592.78	341.72
592.94	304.27
593.10	227.03
593.26	304.27
593.41	327.68
593.57	334.70
593.73	383.85
593.89	629.60
594.05	1254.53
594.20	1582.20
594.36	1406.66
594.52	1078.99
594.68	636.63
594.84	526.62
594.99	381.51
595.15	341.72
595.31	337.04
595.47	236.39
595.62	294.91
595.78	276.18
595.94	299.59
596.10	292.57
596.25	255.12
596.41	276.18
596.57	264.48
596.73	325.33
596.88	290.23
597.04	472.79
597.20	531.30
597.36	606.20
597.51	472.79
597.67	372.15
597.83	348.74
597.99	327.68
598.14	266.82
598.30	381.51
598.46	325.33
598.61	264.48
598.77	301.93
598.93	217.67
599.09	217.67
599.24	283.20
599.40	334.70
599.56	273.84
599.71	320.65
599.87	278.52
600.03	327.68
600.18	269.16
600.34	283.20
600.50	236.39
600.65	229.37
600.81	201.29
600.97	273.84
601.12	297.25
601.28	301.93
601.44	252.78
601.59	262.14
601.75	248.10
601.91	212.99
602.06	264.48
602.22	292.57
602.37	367.46
602.53	496.19
602.69	566.41
602.84	514.92
603.00	425.98
603.16	374.49
603.31	383.85
603.47	283.20
603.62	262.14
603.78	220.01
603.94	257.46
604.09	248.10
604.25	229.37
604.40	276.18
604.56	292.57
604.71	325.33
604.87	187.24
605.03	182.56
605.18	257.46
605.34	348.74
605.49	292.57
605.65	299.59
605.80	248.10
605.96	180.22
606.12	224.69
606.27	311.29
606.43	245.76
606.58	283.20
606.74	430.66
606.89	784.08
607.05	1240.48
607.20	1322.40
607.36	1064.94
607.51	844.93
607.67	655.35
607.82	538.32
607.98	402.57
608.13	367.46
608.29	287.89
608.44	332.36
608.60	306.61
608.75	365.12
608.91	552.37
609.06	1114.10
609.22	1806.89
609.37	2160.31
609.53	1926.26
609.68	1362.19
609.84	1057.92
609.99	814.51
610.15	606.20
610.30	512.58
610.46	575.77
610.61	596.84
