SpectraSuite Data File
++++++++++++++++++++++++++++++++++++
Date: Fri Oct 04 12:14:05 GMT-05:00 2013
User: price-jones
Dark Spectrum Present: No
Reference Spectrum Present: No
Number of Sampled Component Spectra: 1
Spectrometers: USB2+H05261
Integration Time (usec): 1000000 (USB2+H05261)
Spectra Averaged: 1 (USB2+H05261)
Boxcar Smoothing: 0 (USB2+H05261)
Correct for Electrical Dark: No (USB2+H05261)
Strobe/Lamp Enabled: No (USB2+H05261)
Correct for Detector Non-linearity: No (USB2+H05261)
Correct for Stray Light: No (USB2+H05261)
Number of Pixels in Processed Spectrum: 2048
>>>>>Begin Processed Spectral Data<<<<<
365.73	77.24
365.92	77.24
366.12	77.24
366.32	0.00
366.52	0.00
366.72	313.63
366.91	93.62
367.11	327.68
367.31	290.23
367.51	257.46
367.70	367.46
367.90	458.74
368.10	358.10
368.30	360.44
368.49	177.88
368.69	461.09
368.89	252.78
369.09	201.29
369.28	259.80
369.48	180.22
369.68	294.91
369.87	414.27
370.07	227.03
370.27	624.92
370.47	372.15
370.66	304.27
370.86	512.58
371.06	791.10
371.25	910.47
371.45	442.36
371.65	720.88
371.84	381.51
372.04	348.74
372.24	550.03
372.44	409.59
372.63	505.56
372.83	765.36
373.03	430.66
373.22	381.51
373.42	397.89
373.62	454.06
373.81	550.03
374.01	690.46
374.21	723.23
374.40	430.66
374.60	767.70
374.79	423.64
374.99	428.32
375.19	510.24
375.38	615.56
375.58	535.98
375.78	674.07
375.97	660.03
376.17	947.92
376.37	440.02
376.56	589.82
376.76	390.87
376.95	372.15
377.15	606.20
377.35	568.75
377.54	552.37
377.74	461.09
377.93	428.32
378.13	540.66
378.33	683.44
378.52	512.58
378.72	713.86
378.91	727.91
379.11	418.96
379.31	475.13
379.50	299.59
379.70	699.82
379.89	709.18
380.09	390.87
380.28	313.63
380.48	421.30
380.68	383.85
380.87	327.68
381.07	587.47
381.26	777.06
381.46	561.73
381.65	655.35
381.85	477.47
382.04	531.30
382.24	594.50
382.43	470.45
382.63	369.80
382.83	475.13
383.02	662.37
383.22	734.93
383.41	362.78
383.61	449.38
383.80	477.47
384.00	524.28
384.19	500.87
384.39	578.11
384.58	496.19
384.78	543.00
384.97	674.07
385.17	493.85
385.36	447.04
385.56	671.73
385.75	344.06
385.95	440.02
386.14	699.82
386.34	390.87
386.53	468.11
386.72	407.25
386.92	809.83
387.11	650.67
387.31	615.56
387.50	433.00
387.70	433.00
387.89	524.28
388.09	400.23
388.28	437.68
388.48	475.13
388.67	685.78
388.86	547.69
389.06	447.04
389.25	550.03
389.45	559.39
389.64	500.87
389.84	765.36
390.03	636.63
390.22	594.50
390.42	514.92
390.61	390.87
390.81	348.74
391.00	554.71
391.19	781.74
391.39	461.09
391.58	589.82
391.78	524.28
391.97	510.24
392.16	346.40
392.36	741.95
392.55	741.95
392.75	479.81
392.94	367.46
393.13	641.31
393.33	360.44
393.52	402.57
393.71	884.72
393.91	554.71
394.10	351.08
394.29	514.92
394.49	472.79
394.68	650.67
394.88	744.29
395.07	683.44
395.26	517.26
395.46	477.47
395.65	704.50
395.84	620.24
396.04	1151.54
396.23	578.11
396.42	479.81
396.62	608.54
396.81	634.29
397.00	514.92
397.19	528.96
397.39	535.98
397.58	795.78
397.77	503.22
397.97	538.32
398.16	526.62
398.35	674.07
398.55	402.57
398.74	582.79
398.93	734.93
399.12	528.96
399.32	627.26
399.51	545.34
399.70	676.41
399.90	657.69
400.09	695.14
400.28	681.10
400.47	557.05
400.67	683.44
400.86	578.11
401.05	690.46
401.24	748.97
401.44	725.57
401.63	653.01
401.82	765.36
402.01	388.53
402.21	653.01
402.40	676.41
402.59	568.75
402.78	482.15
402.97	500.87
403.17	566.41
403.36	669.39
403.55	543.00
403.74	545.34
403.93	608.54
404.13	835.57
404.32	540.66
404.51	493.85
404.70	711.52
404.89	610.88
405.09	1102.39
405.28	585.13
405.47	416.62
405.66	704.50
405.85	798.12
406.05	610.88
406.24	603.86
406.43	603.86
406.62	662.37
406.81	1027.50
407.00	772.38
407.20	613.22
407.39	550.03
407.58	528.96
407.77	653.01
407.96	844.93
408.15	807.48
408.34	657.69
408.54	608.54
408.73	699.82
408.92	627.26
409.11	671.73
409.30	875.36
409.49	428.32
409.68	596.84
409.87	571.09
410.07	421.30
410.26	688.12
410.45	545.34
410.64	435.34
410.83	627.26
411.02	554.71
411.21	723.23
411.40	809.83
411.59	648.33
411.78	458.74
411.98	601.52
412.17	444.70
412.36	603.86
412.55	543.00
412.74	777.06
412.93	908.13
413.12	575.77
413.31	821.53
413.50	716.20
413.69	660.03
413.88	929.19
414.07	720.88
414.26	709.18
414.45	627.26
414.64	727.91
414.83	683.44
415.02	727.91
415.22	814.51
415.41	931.53
415.60	561.73
415.79	723.23
415.98	1046.22
416.17	645.99
416.36	660.03
416.55	578.11
416.74	772.38
416.93	851.96
417.12	664.71
417.31	653.01
417.50	681.10
417.69	1095.37
417.88	732.59
418.07	568.75
418.26	711.52
418.45	781.74
418.64	1032.18
418.83	917.49
419.02	870.68
419.21	720.88
419.39	765.36
419.58	657.69
419.77	697.48
419.96	917.49
420.15	1074.31
420.34	657.69
420.53	812.17
420.72	931.53
420.91	767.70
421.10	802.80
421.29	760.67
421.48	786.42
421.67	837.91
421.86	711.52
422.05	690.46
422.24	638.97
422.43	791.10
422.61	538.32
422.80	645.99
422.99	716.20
423.18	638.97
423.37	1029.84
423.56	809.83
423.75	833.23
423.94	613.22
424.13	683.44
424.32	650.67
424.50	636.63
424.69	748.97
424.88	964.30
425.07	688.12
425.26	805.14
425.45	985.37
425.64	638.97
425.83	688.12
426.01	1008.77
426.20	758.33
426.39	695.14
426.58	601.52
426.77	739.61
426.96	889.40
427.15	795.78
427.33	706.84
427.52	667.05
427.71	784.08
427.90	809.83
428.09	653.01
428.28	568.75
428.46	748.97
428.65	755.99
428.84	844.93
429.03	1114.10
429.22	634.29
429.40	601.52
429.59	550.03
429.78	1025.15
429.97	620.24
430.16	554.71
430.34	620.24
430.53	657.69
430.72	664.71
430.91	884.72
431.10	505.56
431.28	746.63
431.47	929.19
431.66	835.57
431.85	739.61
432.03	758.33
432.22	1259.21
432.41	795.78
432.60	1032.18
432.79	765.36
432.97	868.34
433.16	807.48
433.35	727.91
433.54	615.56
433.72	851.96
433.91	987.71
434.10	706.84
434.28	779.40
434.47	688.12
434.66	856.64
434.85	620.24
435.03	709.18
435.22	1102.39
435.41	1224.10
435.59	933.87
435.78	746.63
435.97	638.97
436.16	983.02
436.34	788.76
436.53	908.13
436.72	1025.15
436.90	966.64
437.09	821.53
437.28	704.50
437.46	763.01
437.65	968.98
437.84	959.62
438.02	873.02
438.21	830.89
438.40	664.71
438.58	566.41
438.77	819.19
438.96	814.51
439.14	645.99
439.33	910.47
439.52	781.74
439.70	847.27
439.89	992.39
440.08	819.19
440.26	795.78
440.45	1174.95
440.63	851.96
440.82	767.70
441.01	882.38
441.19	802.80
441.38	844.93
441.57	793.44
441.75	1081.33
441.94	1135.16
442.12	868.34
442.31	795.78
442.50	725.57
442.68	809.83
442.87	863.66
443.05	873.02
443.24	910.47
443.43	1076.65
443.61	1142.18
443.80	812.17
443.98	669.39
444.17	772.38
444.35	1015.79
444.54	868.34
444.73	816.85
444.91	1057.92
445.10	653.01
445.28	685.78
445.47	884.72
445.65	823.87
445.84	695.14
446.02	830.89
446.21	898.77
446.39	767.70
446.58	919.83
446.77	737.27
446.95	840.25
447.14	990.05
447.32	1128.14
447.51	940.90
447.69	938.55
447.88	945.58
448.06	1188.99
448.25	945.58
448.43	753.65
448.62	737.27
448.80	966.64
448.99	1043.88
449.17	737.27
449.36	788.76
449.54	1093.03
449.73	837.91
449.91	992.39
450.10	856.64
450.28	1383.26
450.46	1404.32
450.65	1121.12
450.83	1060.26
451.02	903.45
451.20	938.55
451.39	884.72
451.57	798.12
451.76	814.51
451.94	844.93
452.13	1039.20
452.31	1128.14
452.49	1006.43
452.68	753.65
452.86	877.70
453.05	1254.53
453.23	987.71
453.42	713.86
453.60	821.53
453.78	1006.43
453.97	784.08
454.15	674.07
454.34	784.08
454.52	758.33
454.70	1149.20
454.89	1018.13
455.07	786.42
455.26	1064.94
455.44	987.71
455.62	882.38
455.81	870.68
455.99	943.24
456.17	1081.33
456.36	854.30
456.54	835.57
456.73	842.59
456.91	812.17
457.09	1039.20
457.28	1174.95
457.46	954.94
457.64	1022.81
457.83	868.34
458.01	856.64
458.19	945.58
458.38	858.98
458.56	1027.50
458.74	821.53
458.93	936.21
459.11	929.19
459.29	945.58
459.48	1001.75
459.66	1261.55
459.84	1125.80
460.03	1769.44
460.21	1083.67
460.39	945.58
460.57	1226.44
460.76	1015.79
460.94	997.07
461.12	1266.23
461.31	1217.08
461.49	938.55
461.67	917.49
461.85	990.05
462.04	924.51
462.22	5834.96
462.40	1224.10
462.59	1210.06
462.77	901.11
462.95	983.02
463.13	720.88
463.32	1179.63
463.50	1004.09
463.68	1053.24
463.86	1069.62
464.05	919.83
464.23	1158.57
464.41	1172.61
464.59	959.62
464.78	830.89
464.96	746.63
465.14	936.21
465.32	877.70
465.50	990.05
465.69	1100.05
465.87	837.91
466.05	1057.92
466.23	741.95
466.41	908.13
466.60	943.24
466.78	936.21
466.96	1160.91
467.14	1041.54
467.32	1191.33
467.51	1107.07
467.69	1027.50
467.87	1277.93
468.05	915.15
468.23	1313.04
468.41	1123.46
468.60	959.62
468.78	1060.26
468.96	1203.04
469.14	1081.33
469.32	755.99
469.50	866.00
469.69	1088.35
469.87	1006.43
470.05	992.39
470.23	961.96
470.41	880.04
470.59	868.34
470.77	1039.20
470.95	1029.84
471.14	1153.88
471.32	1025.15
471.50	1376.24
471.68	809.83
471.86	1083.67
472.04	868.34
472.22	952.60
472.40	777.06
472.58	889.40
472.77	894.08
472.95	854.30
473.13	1348.15
473.31	1270.91
473.49	837.91
473.67	842.59
473.85	1114.10
474.03	1184.31
474.21	1095.37
474.39	1214.74
474.57	1380.92
474.75	1163.25
474.93	926.85
475.12	833.23
475.30	919.83
475.48	1004.09
475.66	1083.67
475.84	978.34
476.02	952.60
476.20	1123.46
476.38	966.64
476.56	1659.44
476.74	978.34
476.92	952.60
477.10	976.00
477.28	1107.07
477.46	980.68
477.64	1184.31
477.82	1057.92
478.00	1029.84
478.18	1100.05
478.36	1081.33
478.54	1020.47
478.72	992.39
478.90	1064.94
479.08	1184.31
479.26	1057.92
479.44	1100.05
479.62	912.81
479.80	924.51
479.98	858.98
480.16	1015.79
480.34	1256.87
480.52	997.07
480.70	1177.29
480.88	950.26
481.06	1041.54
481.24	1018.13
481.41	1060.26
481.59	1249.85
481.77	1160.91
481.95	1111.75
482.13	1432.41
482.31	1135.16
482.49	1039.20
482.67	1261.55
482.85	1268.57
483.03	1163.25
483.21	1287.29
483.39	1029.84
483.57	1153.88
483.74	1509.65
483.92	1188.99
484.10	1050.90
484.28	1427.73
484.46	1687.53
484.64	1132.82
484.82	1135.16
485.00	1055.58
485.18	1095.37
485.35	1186.65
485.53	1004.09
485.71	1263.89
485.89	851.96
486.07	1027.50
486.25	1643.06
486.43	1273.25
486.61	1301.34
486.78	1303.68
486.96	1027.50
487.14	1160.91
487.32	1111.75
487.50	1086.01
487.68	1441.77
487.85	1156.22
488.03	1289.64
488.21	1460.49
488.39	1160.91
488.57	1308.36
488.75	1231.12
488.92	3904.01
489.10	1444.11
489.28	1614.97
489.46	1266.23
489.64	1313.04
489.81	1378.58
489.99	1390.28
490.17	1310.70
490.35	1914.56
490.53	1224.10
490.70	1212.40
490.88	1481.56
491.06	1146.86
491.24	1383.26
491.41	1577.52
491.59	1493.26
491.77	1186.65
491.95	1163.25
492.13	1196.01
492.30	1343.47
492.48	1235.80
492.66	1448.79
492.84	1219.42
493.01	1486.24
493.19	1247.51
493.37	1675.82
493.54	1633.69
493.72	1483.90
493.90	1348.15
494.08	1324.74
494.25	1448.79
494.43	1495.60
494.61	1472.20
494.79	1287.29
494.96	1273.25
495.14	1504.96
495.32	1277.93
495.49	1348.15
495.67	1378.58
495.85	1420.71
496.02	1310.70
496.20	1586.88
496.38	1584.54
496.55	1483.90
496.73	1514.33
496.91	1399.64
497.09	1614.97
497.26	1439.43
497.44	1371.55
497.62	1413.68
497.79	1418.36
497.97	1502.62
498.14	1558.80
498.32	1507.30
498.50	1507.30
498.67	1362.19
498.85	1493.26
499.03	1455.81
499.20	1540.07
499.38	1409.00
499.56	1526.03
499.73	1893.49
499.91	1610.29
500.08	1533.05
500.26	1502.62
500.44	1287.29
500.61	1497.94
500.79	1409.00
500.97	1558.80
501.14	1753.06
501.32	1481.56
501.49	1692.21
501.67	1455.81
501.84	1570.50
502.02	1306.02
502.20	1874.77
502.37	1600.93
502.55	1437.09
502.72	1350.49
502.90	1694.55
503.07	1563.48
503.25	1516.67
503.43	1252.19
503.60	1504.96
503.78	1561.14
503.95	1490.92
504.13	1341.13
504.30	1643.06
504.48	1776.47
504.65	1877.11
504.83	1678.16
505.01	1401.98
505.18	1600.93
505.36	1460.49
505.53	1561.14
505.71	1385.60
505.88	1727.32
506.06	1533.05
506.23	1668.80
506.41	1406.66
506.58	1551.78
506.76	1556.46
506.93	1425.39
507.11	1617.31
507.28	1371.55
507.46	1446.45
507.63	1612.63
507.81	1331.76
507.98	1481.56
508.16	1469.86
508.33	1558.80
508.50	1713.27
508.68	1605.61
508.85	1537.73
509.03	1469.86
509.20	1479.22
509.38	1650.08
509.55	1753.06
509.73	1650.08
509.90	1893.49
510.08	1446.45
510.25	1607.95
510.42	1479.22
510.60	1514.33
510.77	1797.53
510.95	1703.91
511.12	1636.03
511.30	1816.26
511.47	1783.49
511.64	1982.43
511.82	1530.71
511.99	1537.73
512.17	1413.68
512.34	1380.92
512.51	1439.43
512.69	1472.20
512.86	1820.94
513.04	1383.26
513.21	1675.82
513.38	1507.30
513.56	1453.47
513.73	1472.20
513.90	1380.92
514.08	1437.09
514.25	1631.35
514.43	1664.12
514.60	1507.30
514.77	1488.58
514.95	1579.86
515.12	1540.07
515.29	1636.03
515.47	1629.01
515.64	1680.50
515.81	1556.46
515.99	1891.15
516.16	1659.44
516.33	1753.06
516.51	1226.44
516.68	1254.53
516.85	1359.85
517.03	1409.00
517.20	1547.09
517.37	1582.20
517.54	1624.33
517.72	1502.62
517.89	1289.64
518.06	1327.08
518.24	1851.36
518.41	2092.44
518.58	1727.32
518.75	1469.86
518.93	1671.14
519.10	1617.31
519.27	1465.18
519.45	1610.29
519.62	1659.44
519.79	1764.76
519.96	1390.28
520.14	1591.56
520.31	1849.02
520.48	1591.56
520.65	1645.40
520.83	1762.42
521.00	1825.62
521.17	1687.53
521.34	1614.97
521.52	1619.65
521.69	1666.46
521.86	1558.80
522.03	1853.70
522.20	1921.58
522.38	1519.01
522.55	1647.74
522.72	1453.47
522.89	1736.68
523.07	2026.90
523.24	1558.80
523.41	1500.28
523.58	1591.56
523.75	1668.80
523.92	1441.77
524.10	1830.30
524.27	1561.14
524.44	1596.25
524.61	1921.58
524.78	1671.14
524.96	1818.60
525.13	1753.06
525.30	1902.86
525.47	1949.67
525.64	1706.25
525.81	1872.43
525.98	1551.78
526.16	1504.96
526.33	1394.96
526.50	1497.94
526.67	1376.24
526.84	1373.89
527.01	1511.99
527.18	1675.82
527.36	1703.91
527.53	1502.62
527.70	1909.88
527.87	1746.04
528.04	2108.82
528.21	1568.16
528.38	1935.62
528.55	1966.05
528.72	2005.84
528.89	2111.16
529.07	1680.50
529.24	1645.40
529.41	1959.03
529.58	1682.85
529.75	1673.48
529.92	1827.96
530.09	1734.34
530.26	1839.66
530.43	1788.17
530.60	1706.25
530.77	1715.61
530.94	1872.43
531.11	1853.70
531.28	1701.57
531.46	1647.74
531.63	1696.89
531.80	1804.55
531.97	1750.72
532.14	1722.63
532.31	1682.85
532.48	1741.36
532.65	1797.53
532.82	1785.83
532.99	1865.41
533.16	1753.06
533.33	1710.93
533.50	1694.55
533.67	1724.97
533.84	1966.05
534.01	2026.90
534.18	1750.72
534.35	1830.30
534.52	1790.51
534.69	2223.51
534.86	1811.57
535.03	1661.78
535.20	1593.90
535.37	1952.01
535.54	1806.89
535.71	1675.82
535.88	1996.48
536.05	1652.42
536.22	1703.91
536.38	1577.52
536.55	1753.06
536.72	1846.68
536.89	1535.39
537.06	1579.86
537.23	1558.80
537.40	1619.65
537.57	1621.99
537.74	1795.19
537.91	1926.26
538.08	1703.91
538.25	1767.10
538.42	1657.10
538.59	1830.30
538.75	1652.42
538.92	1603.27
539.09	1858.39
539.26	1572.84
539.43	2296.07
539.60	2911.63
539.77	3796.35
539.94	3485.06
540.11	2871.84
540.28	2565.23
540.44	2174.36
540.61	1757.74
540.78	1631.35
540.95	1444.11
541.12	2010.52
541.29	1572.84
541.46	2038.61
541.62	1753.06
541.79	1561.14
541.96	1551.78
542.13	1643.06
542.30	1577.52
542.47	1802.21
542.63	1607.95
542.80	1753.06
542.97	1961.37
543.14	1577.52
543.31	1764.76
543.48	1607.95
543.64	1795.19
543.81	1582.20
543.98	1530.71
544.15	1558.80
544.32	1521.35
544.48	1600.93
544.65	1593.90
544.82	1582.20
544.99	1643.06
545.16	1834.98
545.32	1551.78
545.49	1750.72
545.66	1603.27
545.83	1547.09
546.00	1521.35
546.16	1556.46
546.33	1643.06
546.50	1577.52
546.67	1881.79
546.83	1802.21
547.00	1682.85
547.17	1425.39
547.34	1488.58
547.50	1556.46
547.67	1582.20
547.84	1451.13
548.00	1783.49
548.17	1535.39
548.34	1603.27
548.51	1970.73
548.67	1888.81
548.84	1596.25
549.01	1727.32
549.18	1837.32
549.34	1650.08
549.51	1792.85
549.68	1727.32
549.84	1561.14
550.01	1516.67
550.18	2562.89
550.34	2324.15
550.51	1633.69
550.68	2054.99
550.84	1572.84
551.01	1678.16
551.18	1734.34
551.34	1619.65
551.51	1575.18
551.68	1614.97
551.84	1795.19
552.01	1643.06
552.18	1636.03
552.34	1614.97
552.51	1666.46
552.68	1820.94
552.84	1577.52
553.01	1687.53
553.18	1774.13
553.34	1605.61
553.51	1483.90
553.67	1750.72
553.84	2090.10
554.01	1668.80
554.17	1764.76
554.34	1572.84
554.51	1823.28
554.67	1909.88
554.84	1732.00
555.00	1748.38
555.17	1699.23
555.33	1961.37
555.50	1706.25
555.67	1788.17
555.83	1619.65
556.00	1764.76
556.16	3211.22
556.33	1743.70
556.50	1678.16
556.66	1523.69
556.83	1636.03
556.99	1476.88
557.16	1643.06
557.32	1455.81
557.49	1673.48
557.65	1401.98
557.82	1523.69
557.98	1675.82
558.15	1528.37
558.32	1591.56
558.48	1582.20
558.65	1554.12
558.81	1638.38
558.98	1451.13
559.14	1797.53
559.31	1542.41
559.47	1668.80
559.64	1519.01
559.80	1750.72
559.97	1345.81
560.13	1645.40
560.30	1376.24
560.46	1490.92
560.63	1444.11
560.79	1556.46
560.96	1673.48
561.12	1488.58
561.29	1577.52
561.45	1519.01
561.61	1561.14
561.78	2335.85
561.94	1661.78
562.11	1540.07
562.27	1586.88
562.44	1434.75
562.60	1577.52
562.77	1598.59
562.93	2094.78
563.10	1610.29
563.26	1556.46
563.42	1802.21
563.59	1600.93
563.75	1401.98
563.92	1755.40
564.08	1647.74
564.24	1743.70
564.41	2054.99
564.57	1399.64
564.74	1455.81
564.90	1680.50
565.07	1687.53
565.23	1703.91
565.39	1523.69
565.56	1629.01
565.72	1418.36
565.88	1483.90
566.05	1455.81
566.21	1500.28
566.38	1612.63
566.54	1645.40
566.70	1497.94
566.87	1507.30
567.03	1345.81
567.19	1544.75
567.36	1603.27
567.52	1535.39
567.68	1631.35
567.85	1668.80
568.01	1444.11
568.17	1357.51
568.34	1481.56
568.50	1781.15
568.66	1451.13
568.83	2157.97
568.99	1507.30
569.15	1916.90
569.32	1446.45
569.48	1469.86
569.64	1397.30
569.81	1483.90
569.97	1446.45
570.13	1540.07
570.30	1425.39
570.46	1364.53
570.62	1392.62
570.78	1373.89
570.95	1320.06
571.11	1921.58
571.27	1804.55
571.43	1397.30
571.60	1650.08
571.76	1420.71
571.92	1483.90
572.09	1401.98
572.25	1547.09
572.41	1416.02
572.57	1488.58
572.74	1872.43
572.90	1629.01
573.06	1636.03
573.22	1682.85
573.38	1769.44
573.55	1741.36
573.71	1753.06
573.87	1664.12
574.03	1329.42
574.20	1516.67
574.36	1816.26
574.52	1530.71
574.68	1582.20
574.84	1631.35
575.01	1411.34
575.17	1661.78
575.33	1511.99
575.49	1638.38
575.65	1767.10
575.82	1802.21
575.98	2443.52
576.14	2239.89
576.30	2085.42
576.46	1980.09
576.62	1830.30
576.79	1863.07
576.95	1881.79
577.11	1427.73
577.27	1394.96
577.43	1703.91
577.59	1851.36
577.75	1682.85
577.92	1497.94
578.08	1476.88
578.24	1247.51
578.40	1771.79
578.56	1767.10
578.72	1778.81
578.88	1654.76
579.04	1474.54
579.21	1596.25
579.37	1500.28
579.53	1439.43
579.69	1767.10
579.85	1472.20
580.01	1849.02
580.17	1586.88
580.33	1605.61
580.49	1734.34
580.65	1769.44
580.82	1724.97
580.98	1533.05
581.14	1612.63
581.30	1963.71
581.46	1734.34
581.62	2125.21
581.78	2054.99
581.94	2132.23
582.10	1638.38
582.26	1788.17
582.42	1767.10
582.58	1874.77
582.74	1708.59
582.90	1809.23
583.06	1834.98
583.22	1792.85
583.38	1715.61
583.54	1898.17
583.70	2291.38
583.86	2265.64
584.02	2340.54
584.18	2794.60
584.34	2953.76
584.50	6602.65
584.66	42490.09
584.82	65535.00
584.98	65535.00
585.14	65535.00
585.30	64430.27
585.46	44271.23
585.62	27803.22
585.78	13390.20
585.94	6078.37
586.10	3480.38
586.26	2663.53
586.42	2593.31
586.58	2251.60
586.74	2033.93
586.90	1970.73
587.06	2078.40
587.22	1905.20
587.38	1767.10
587.54	3063.76
587.70	7110.55
587.86	10436.45
588.02	10670.50
588.18	8018.68
588.34	5416.00
588.49	3845.50
588.65	2609.70
588.81	1893.49
588.97	1369.21
589.13	1327.08
589.29	1472.20
589.45	1657.10
589.61	1481.56
589.77	1771.79
589.93	1650.08
590.08	1530.71
590.24	1526.03
590.40	1652.42
590.56	1724.97
590.72	1495.60
590.88	1338.79
591.04	1551.78
591.20	1373.89
591.35	1741.36
591.51	1469.86
591.67	1299.00
591.83	1247.51
591.99	1544.75
592.15	1689.87
592.31	1493.26
592.46	1497.94
592.62	1645.40
592.78	1306.02
592.94	1348.15
593.10	1378.58
593.26	1460.49
593.41	1598.59
593.57	1547.09
593.73	1760.08
593.89	5886.45
594.05	13355.10
594.20	18171.92
594.36	16744.19
594.52	11239.25
594.68	7442.90
594.84	5479.19
594.99	3686.34
595.15	2228.19
595.31	1811.57
595.47	1937.96
595.62	1446.45
595.78	1483.90
595.94	1535.39
596.10	1830.30
596.25	1657.10
596.41	1736.68
596.57	1380.92
596.73	1425.39
596.88	1839.66
597.04	3421.86
597.20	4601.49
597.36	5078.96
597.51	3953.16
597.67	3047.38
597.83	2422.45
597.99	2115.84
598.14	1603.27
598.30	1837.32
598.46	1385.60
598.61	1694.55
598.77	1607.95
598.93	1380.92
599.09	1411.34
599.24	1591.56
599.40	1621.99
599.56	1376.24
599.71	1383.26
599.87	1341.13
600.03	1462.83
600.18	1327.08
600.34	1474.54
600.50	1371.55
600.65	1282.61
600.81	1528.37
600.97	1270.91
