SpectraSuite Data File
++++++++++++++++++++++++++++++++++++
Date: Fri Oct 04 12:13:53 GMT-05:00 2013
User: price-jones
Dark Spectrum Present: No
Reference Spectrum Present: No
Number of Sampled Component Spectra: 1
Spectrometers: USB2+H05261
Integration Time (usec): 1000000 (USB2+H05261)
Spectra Averaged: 1 (USB2+H05261)
Boxcar Smoothing: 0 (USB2+H05261)
Correct for Electrical Dark: No (USB2+H05261)
Strobe/Lamp Enabled: No (USB2+H05261)
Correct for Detector Non-linearity: No (USB2+H05261)
Correct for Stray Light: No (USB2+H05261)
Number of Pixels in Processed Spectrum: 2048
>>>>>Begin Processed Spectral Data<<<<<
365.73	0.00
365.92	0.00
366.12	0.00
366.32	0.00
366.52	0.00
366.72	402.57
366.91	105.32
367.11	346.40
367.31	236.39
367.51	259.80
367.70	393.21
367.90	475.13
368.10	341.72
368.30	332.36
368.49	138.09
368.69	421.30
368.89	229.37
369.09	131.07
369.28	325.33
369.48	156.82
369.68	245.76
369.87	358.10
370.07	147.45
370.27	587.47
370.47	374.49
370.66	306.61
370.86	435.34
371.06	732.59
371.25	933.87
371.45	411.93
371.65	655.35
371.84	372.15
372.04	262.14
372.24	416.62
372.44	421.30
372.63	535.98
372.83	800.46
373.03	566.41
373.22	416.62
373.42	442.36
373.62	507.90
373.81	486.83
374.01	704.50
374.21	723.23
374.40	411.93
374.60	767.70
374.79	486.83
374.99	486.83
375.19	631.94
375.38	660.03
375.58	482.15
375.78	704.50
375.97	636.63
376.17	919.83
376.37	489.17
376.56	645.99
376.76	414.27
376.95	379.17
377.15	655.35
377.35	634.29
377.54	561.73
377.74	418.96
377.93	365.12
378.13	512.58
378.33	774.72
378.52	496.19
378.72	753.65
378.91	688.12
379.11	470.45
379.31	409.59
379.50	294.91
379.70	779.40
379.89	711.52
380.09	442.36
380.28	297.25
380.48	489.17
380.68	423.64
380.87	285.55
381.07	531.30
381.26	800.46
381.46	690.46
381.65	601.52
381.85	397.89
382.04	557.05
382.24	571.09
382.43	414.27
382.63	348.74
382.83	411.93
383.02	695.14
383.22	779.40
383.41	374.49
383.61	606.20
383.80	463.43
384.00	472.79
384.19	376.83
384.39	622.58
384.58	517.26
384.78	578.11
384.97	585.13
385.17	517.26
385.36	491.51
385.56	683.44
385.75	395.55
385.95	477.47
386.14	767.70
386.34	458.74
386.53	545.34
386.72	400.23
386.92	744.29
387.11	660.03
387.31	723.23
387.50	416.62
387.70	393.21
387.89	564.07
388.09	479.81
388.28	376.83
388.48	477.47
388.67	650.67
388.86	521.94
389.06	531.30
389.25	582.79
389.45	531.30
389.64	470.45
389.84	711.52
390.03	669.39
390.22	561.73
390.42	454.06
390.61	454.06
390.81	416.62
391.00	503.22
391.19	725.57
391.39	496.19
391.58	606.20
391.78	578.11
391.97	512.58
392.16	486.83
392.36	870.68
392.55	809.83
392.75	510.24
392.94	449.38
393.13	685.78
393.33	358.10
393.52	449.38
393.71	765.36
393.91	557.05
394.10	489.17
394.29	699.82
394.49	812.17
394.68	964.30
394.88	1036.86
395.07	884.72
395.26	610.88
395.46	566.41
395.65	730.25
395.84	596.84
396.04	1034.52
396.23	587.47
396.42	451.72
396.62	636.63
396.81	545.34
397.00	559.39
397.19	578.11
397.39	540.66
397.58	828.55
397.77	545.34
397.97	690.46
398.16	526.62
398.35	671.73
398.55	454.06
398.74	622.58
398.93	767.70
399.12	379.17
399.32	634.29
399.51	468.11
399.70	753.65
399.90	671.73
400.09	678.76
400.28	788.76
400.47	620.24
400.67	711.52
400.86	503.22
401.05	786.42
401.24	734.93
401.44	713.86
401.63	683.44
401.82	849.61
402.01	458.74
402.21	667.05
402.40	667.05
402.59	510.24
402.78	587.47
402.97	603.86
403.17	631.94
403.36	699.82
403.55	685.78
403.74	732.59
403.93	854.30
404.13	1320.06
404.32	976.00
404.51	697.48
404.70	882.38
404.89	636.63
405.09	971.32
405.28	608.54
405.47	557.05
405.66	744.29
405.85	833.23
406.05	643.65
406.24	596.84
406.43	669.39
406.62	751.31
406.81	1100.05
407.00	819.19
407.20	568.75
407.39	568.75
407.58	610.88
407.77	664.71
407.96	976.00
408.15	763.01
408.34	744.29
408.54	660.03
408.73	732.59
408.92	610.88
409.11	690.46
409.30	805.14
409.49	538.32
409.68	559.39
409.87	638.97
410.07	561.73
410.26	599.18
410.45	564.07
410.64	594.50
410.83	681.10
411.02	589.82
411.21	830.89
411.40	791.10
411.59	690.46
411.78	599.18
411.98	667.05
412.17	477.47
412.36	681.10
412.55	587.47
412.74	828.55
412.93	1090.69
413.12	528.96
413.31	880.04
413.50	814.51
413.69	669.39
413.88	994.73
414.07	734.93
414.26	664.71
414.45	613.22
414.64	755.99
414.83	873.02
415.02	681.10
415.22	968.98
415.41	1109.41
415.60	760.67
415.79	833.23
415.98	1090.69
416.17	767.70
416.36	683.44
416.55	587.47
416.74	807.48
416.93	912.81
417.12	653.01
417.31	767.70
417.50	819.19
417.69	1460.49
417.88	1245.16
418.07	1027.50
418.26	1093.03
418.45	978.34
418.64	1654.76
418.83	1570.50
419.02	1336.45
419.21	1107.07
419.39	1109.41
419.58	1088.35
419.77	1107.07
419.96	1254.53
420.15	1277.93
420.34	866.00
420.53	802.80
420.72	929.19
420.91	777.06
421.10	741.95
421.29	823.87
421.48	868.34
421.67	922.17
421.86	641.31
422.05	610.88
422.24	709.18
422.43	744.29
422.61	552.37
422.80	711.52
422.99	814.51
423.18	552.37
423.37	990.05
423.56	741.95
423.75	800.46
423.94	521.94
424.13	734.93
424.32	718.54
424.50	655.35
424.69	660.03
424.88	1123.46
425.07	840.25
425.26	1116.44
425.45	1547.09
425.64	1547.09
425.83	1554.12
426.01	1383.26
426.20	1027.50
426.39	805.14
426.58	739.61
426.77	844.93
426.96	1041.54
427.15	861.32
427.33	786.42
427.52	821.53
427.71	730.25
427.90	760.67
428.09	643.65
428.28	645.99
428.46	655.35
428.65	964.30
428.84	905.79
429.03	999.41
429.22	720.88
429.40	582.79
429.59	571.09
429.78	1200.69
429.97	737.27
430.16	627.26
430.34	653.01
430.53	650.67
430.72	741.95
430.91	971.32
431.10	613.22
431.28	725.57
431.47	894.08
431.66	910.47
431.85	734.93
432.03	725.57
432.22	1315.38
432.41	704.50
432.60	1263.89
432.79	1090.69
432.97	1778.81
433.16	1947.33
433.35	1638.38
433.54	1256.87
433.72	1083.67
433.91	1158.57
434.10	1001.75
434.28	1256.87
434.47	1088.35
434.66	1179.63
434.85	837.91
435.03	807.48
435.22	1102.39
435.41	1184.31
435.59	882.38
435.78	887.06
435.97	751.31
436.16	957.28
436.34	819.19
436.53	868.34
436.72	1029.84
436.90	877.70
437.09	940.90
437.28	809.83
437.46	812.17
437.65	1027.50
437.84	968.98
438.02	847.27
438.21	959.62
438.40	779.40
438.58	571.09
438.77	821.53
438.96	873.02
439.14	779.40
439.33	873.02
439.52	753.65
439.70	858.98
439.89	971.32
440.08	903.45
440.26	889.40
440.45	1188.99
440.63	924.51
440.82	814.51
441.01	868.34
441.19	880.04
441.38	816.85
441.57	826.21
441.75	1116.44
441.94	1153.88
442.12	954.94
442.31	903.45
442.50	896.43
442.68	861.32
442.87	908.13
443.05	889.40
443.24	889.40
443.43	1165.59
443.61	1130.48
443.80	910.47
443.98	805.14
444.17	812.17
444.35	1050.90
444.54	816.85
444.73	854.30
444.91	1151.54
445.10	823.87
445.28	844.93
445.47	990.05
445.65	896.43
445.84	741.95
446.02	868.34
446.21	819.19
446.39	798.12
446.58	1055.58
446.77	765.36
446.95	844.93
447.14	950.26
447.32	1146.86
447.51	847.27
447.69	933.87
447.88	968.98
448.06	1245.16
448.25	976.00
448.43	821.53
448.62	795.78
448.80	1020.47
448.99	1090.69
449.17	772.38
449.36	770.04
449.54	1069.62
449.73	760.67
449.91	1095.37
450.10	940.90
450.28	1446.45
450.46	1430.07
450.65	1217.08
450.83	1076.65
451.02	994.73
451.20	980.68
451.39	978.34
451.57	980.68
451.76	910.47
451.94	901.11
452.13	1135.16
452.31	1149.20
452.49	1015.79
452.68	821.53
452.86	1011.11
453.05	1273.25
453.23	887.06
453.42	870.68
453.60	987.71
453.78	976.00
453.97	819.19
454.15	662.37
454.34	858.98
454.52	793.44
454.70	1160.91
454.89	1093.03
455.07	816.85
455.26	1078.99
455.44	1088.35
455.62	844.93
455.81	915.15
455.99	1064.94
456.17	1146.86
456.36	940.90
456.54	854.30
456.73	809.83
456.91	968.98
457.09	1074.31
457.28	1240.48
457.46	987.71
457.64	1203.04
457.83	931.53
458.01	807.48
458.19	1020.47
458.38	908.13
458.56	940.90
458.74	779.40
458.93	1013.45
459.11	952.60
459.29	777.06
459.48	1022.81
459.66	1291.98
459.84	1167.93
460.03	1734.34
460.21	1170.27
460.39	990.05
460.57	1205.38
460.76	1032.18
460.94	976.00
461.12	1409.00
461.31	1287.29
461.49	959.62
461.67	905.79
461.85	1135.16
462.04	926.85
462.22	5907.51
462.40	1228.78
462.59	1226.44
462.77	901.11
462.95	1071.97
463.13	866.00
463.32	1266.23
463.50	1064.94
463.68	1132.82
463.86	1048.56
464.05	919.83
464.23	1282.61
464.41	1086.01
464.59	919.83
464.78	873.02
464.96	695.14
465.14	922.17
465.32	917.49
465.50	1149.20
465.69	1109.41
465.87	793.44
466.05	1132.82
466.23	837.91
466.41	910.47
466.60	910.47
466.78	983.02
466.96	1308.36
467.14	1032.18
467.32	1170.27
467.51	973.66
467.69	1160.91
467.87	1343.47
468.05	1001.75
468.23	1352.83
468.41	1135.16
468.60	936.21
468.78	1062.60
468.96	1252.19
469.14	1088.35
469.32	791.10
469.50	889.40
469.69	1104.73
469.87	1172.61
470.05	1083.67
470.23	1008.77
470.41	851.96
470.59	961.96
470.77	1146.86
470.95	1069.62
471.14	1313.04
471.32	1013.45
471.50	1376.24
471.68	1036.86
471.86	1144.52
472.04	919.83
472.22	1046.22
472.40	821.53
472.58	882.38
472.77	856.64
472.95	1004.09
473.13	1425.39
473.31	1430.07
473.49	863.66
473.67	940.90
473.85	1158.57
474.03	1144.52
474.21	1090.69
474.39	1343.47
474.57	1439.43
474.75	1249.85
474.93	964.30
475.12	985.37
475.30	994.73
475.48	1043.88
475.66	994.73
475.84	1060.26
476.02	1020.47
476.20	1167.93
476.38	1029.84
476.56	1598.59
476.74	1022.81
476.92	1041.54
477.10	1125.80
477.28	1249.85
477.46	1064.94
477.64	1163.25
477.82	1165.59
478.00	992.39
478.18	1095.37
478.36	1034.52
478.54	1022.81
478.72	1041.54
478.90	1153.88
479.08	1261.55
479.26	1219.42
479.44	1093.03
479.62	987.71
479.80	1057.92
479.98	1008.77
480.16	1102.39
480.34	1385.60
480.52	1048.56
480.70	1200.69
480.88	1083.67
481.06	1006.43
481.24	1034.52
481.41	1158.57
481.59	1362.19
481.77	1217.08
481.95	1153.88
482.13	1409.00
482.31	1277.93
482.49	1036.86
482.67	1310.70
482.85	1387.94
483.03	1317.72
483.21	1284.95
483.39	1151.54
483.57	1221.76
483.74	1511.99
483.92	1200.69
484.10	1111.75
484.28	1406.66
484.46	1654.76
484.64	1198.35
484.82	1261.55
485.00	1076.65
485.18	1270.91
485.35	1224.10
485.53	994.73
485.71	1413.68
485.89	898.77
486.07	1121.12
486.25	1668.80
486.43	1462.83
486.61	1387.94
486.78	1334.11
486.96	997.07
487.14	1287.29
487.32	1160.91
487.50	1207.72
487.68	1404.32
487.85	1224.10
488.03	1394.96
488.21	1680.50
488.39	1324.74
488.57	1462.83
488.75	1146.86
488.92	4063.17
489.10	1441.77
489.28	1818.60
489.46	1177.29
489.64	1313.04
489.81	1472.20
489.99	1448.79
490.17	1289.64
490.35	1884.13
490.53	1329.42
490.70	1256.87
490.88	1643.06
491.06	1291.98
491.24	1495.60
491.41	1701.57
491.59	1362.19
491.77	1088.35
491.95	1210.06
492.13	1254.53
492.30	1373.89
492.48	1362.19
492.66	1336.45
492.84	1231.12
493.01	1451.13
493.19	1341.13
493.37	1811.57
493.54	1561.14
493.72	1519.01
493.90	1416.02
494.08	1242.82
494.25	1570.50
494.43	1638.38
494.61	1392.62
494.79	1322.40
494.96	1345.81
495.14	1680.50
495.32	1465.18
495.49	1547.09
495.67	1607.95
495.85	1350.49
496.02	1394.96
496.20	1563.48
496.38	1636.03
496.55	1483.90
496.73	1636.03
496.91	1451.13
497.09	1680.50
497.26	1437.09
497.44	1497.94
497.62	1462.83
497.79	1572.84
497.97	1610.29
498.14	1666.46
498.32	1713.27
498.50	1462.83
498.67	1455.81
498.85	1598.59
499.03	1521.35
499.20	1582.20
499.38	1540.07
499.56	1619.65
499.73	1839.66
499.91	1629.01
500.08	1607.95
500.26	1474.54
500.44	1341.13
500.61	1572.84
500.79	1418.36
500.97	1692.21
501.14	1792.85
501.32	1619.65
501.49	1769.44
501.67	1504.96
501.84	1678.16
502.02	1341.13
502.20	1884.13
502.37	1706.25
502.55	1586.88
502.72	1619.65
502.90	1846.68
503.07	1739.02
503.25	1743.70
503.43	1774.13
503.60	1813.92
503.78	1893.49
503.95	1575.18
504.13	1542.41
504.30	1699.23
504.48	1792.85
504.65	1797.53
504.83	1785.83
505.01	1577.52
505.18	1657.10
505.36	1640.72
505.53	1621.99
505.71	1533.05
505.88	1916.90
506.06	1619.65
506.23	1577.52
506.41	1488.58
506.58	1715.61
506.76	1666.46
506.93	1526.03
507.11	1750.72
507.28	1544.75
507.46	1507.30
507.63	1820.94
507.81	1727.32
507.98	1788.17
508.16	1795.19
508.33	1657.10
508.50	1710.93
508.68	1671.14
508.85	1760.08
509.03	1610.29
509.20	1572.84
509.38	1797.53
509.55	1844.34
509.73	1853.70
509.90	1956.69
510.08	1537.73
510.25	1802.21
510.42	1593.90
510.60	1694.55
510.77	1825.62
510.95	1905.20
511.12	1879.45
511.30	2251.60
511.47	2284.36
511.64	2420.11
511.82	1795.19
511.99	1863.07
512.17	1678.16
512.34	1572.84
512.51	1668.80
512.69	1554.12
512.86	1914.56
513.04	1479.22
513.21	1631.35
513.38	1607.95
513.56	1556.46
513.73	1514.33
513.90	1600.93
514.08	1589.22
514.25	1900.52
514.43	1813.92
514.60	1631.35
514.77	1713.27
514.95	1830.30
515.12	1610.29
515.29	1736.68
515.47	1818.60
515.64	1776.47
515.81	1755.40
515.99	2069.03
516.16	1769.44
516.33	1820.94
516.51	1486.24
516.68	1345.81
516.85	1458.15
517.03	1338.79
517.20	1675.82
517.37	1680.50
517.54	1788.17
517.72	1633.69
517.89	1299.00
518.06	1376.24
518.24	1947.33
518.41	2242.23
518.58	2001.16
518.75	1689.87
518.93	1886.47
519.10	1769.44
519.27	1699.23
519.45	1832.64
519.62	1685.19
519.79	1952.01
519.96	1626.67
520.14	1811.57
520.31	2057.33
520.48	1806.89
520.65	1837.32
520.83	1975.41
521.00	1879.45
521.17	1743.70
521.34	1659.44
521.52	1694.55
521.69	1724.97
521.86	1790.51
522.03	1998.82
522.20	2176.70
522.38	1631.35
522.55	1802.21
522.72	1549.43
522.89	1839.66
523.07	2265.64
523.24	1701.57
523.41	1666.46
523.58	1724.97
523.75	1689.87
523.92	1638.38
524.10	1837.32
524.27	1767.10
524.44	1659.44
524.61	1944.99
524.78	1678.16
524.96	1914.56
525.13	1767.10
525.30	1870.09
525.47	1891.15
525.64	1849.02
525.81	1764.76
525.98	1633.69
526.16	1575.18
526.33	1483.90
526.50	1460.49
526.67	1460.49
526.84	1479.22
527.01	1514.33
527.18	1820.94
527.36	1753.06
527.53	1607.95
527.70	1884.13
527.87	1839.66
528.04	2197.76
528.21	1621.99
528.38	1970.73
528.55	1996.48
528.72	2003.50
528.89	2162.66
529.07	1792.85
529.24	1881.79
529.41	2125.21
529.58	1785.83
529.75	1748.38
529.92	1837.32
530.09	1884.13
530.26	1886.47
530.43	1916.90
530.60	1795.19
530.77	1682.85
530.94	1930.94
531.11	1851.36
531.28	1783.49
531.46	1748.38
531.63	1802.21
531.80	1844.34
531.97	1912.22
532.14	1881.79
532.31	1818.60
532.48	2167.34
532.65	2794.60
532.82	3187.81
532.99	3159.72
533.16	2619.06
533.33	2298.41
533.50	2155.63
533.67	2710.34
533.84	3679.32
534.01	3815.07
534.18	3077.80
534.35	2579.27
534.52	2310.11
534.69	2565.23
534.86	1956.69
535.03	1750.72
535.20	1792.85
535.37	2125.21
535.54	1952.01
535.71	1851.36
535.88	2223.51
536.05	1771.79
536.22	1952.01
536.38	1760.08
536.55	1708.59
536.72	1877.11
536.89	1647.74
537.06	1788.17
537.23	1739.02
537.40	1710.93
537.57	1647.74
537.74	1977.75
537.91	1952.01
538.08	1823.28
538.25	1935.62
538.42	1769.44
538.59	1930.94
538.75	1741.36
538.92	1795.19
539.09	2113.50
539.26	1989.46
539.43	4416.59
539.60	10338.15
539.77	16863.56
539.94	17476.78
540.11	10747.74
540.28	6700.95
540.44	4514.89
540.61	2647.15
540.78	1982.43
540.95	1757.74
541.12	2106.48
541.29	1783.49
541.46	2134.57
541.62	1820.94
541.79	1732.00
541.96	1607.95
542.13	1724.97
542.30	1643.06
542.47	1907.54
542.63	1701.57
542.80	1827.96
542.97	2108.82
543.14	1884.13
543.31	1893.49
543.48	1783.49
543.64	1961.37
543.81	1694.55
543.98	1680.50
544.15	1542.41
544.32	1748.38
544.48	1739.02
544.65	1790.51
544.82	1654.76
544.99	1746.04
545.16	2040.95
545.32	1687.53
545.49	1820.94
545.66	1717.95
545.83	1610.29
546.00	1544.75
546.16	1631.35
546.33	1706.25
546.50	1626.67
546.67	2031.58
546.83	1860.73
547.00	1781.15
547.17	1521.35
547.34	1612.63
547.50	1657.10
547.67	1717.95
547.84	1579.86
548.00	1968.39
548.17	1610.29
548.34	1701.57
548.51	1959.03
548.67	1973.07
548.84	1713.27
549.01	1846.68
549.18	1872.43
549.34	1851.36
549.51	1902.86
549.68	1916.90
549.84	1694.55
550.01	1519.01
550.18	2642.46
550.34	2476.29
550.51	1921.58
550.68	2150.95
550.84	1699.23
551.01	1699.23
551.18	1909.88
551.34	1760.08
551.51	1612.63
551.68	1694.55
551.84	1902.86
552.01	1516.67
552.18	1703.91
552.34	1788.17
552.51	1666.46
552.68	1912.22
552.84	1631.35
553.01	1673.48
553.18	1886.47
553.34	1621.99
553.51	1533.05
553.67	1874.77
553.84	2174.36
554.01	1926.26
554.17	1860.73
554.34	1661.78
554.51	1762.42
554.67	1935.62
554.84	1956.69
555.00	1823.28
555.17	1776.47
555.33	2024.56
555.50	1762.42
555.67	2001.16
555.83	1823.28
556.00	1947.33
556.16	3515.48
556.33	2010.52
556.50	1753.06
556.66	1652.42
556.83	1771.79
556.99	1654.76
557.16	1832.64
557.32	1596.25
557.49	1717.95
557.65	1650.08
557.82	1603.27
557.98	1687.53
558.15	1664.12
558.32	1598.59
558.48	1504.96
558.65	1633.69
558.81	1865.41
558.98	1575.18
559.14	1792.85
559.31	1678.16
559.47	1753.06
559.64	1593.90
559.80	1809.23
559.97	1586.88
560.13	1788.17
560.30	1572.84
560.46	1706.25
560.63	1692.21
560.79	1750.72
560.96	1629.01
561.12	1575.18
561.29	1673.48
561.45	1486.24
561.61	1586.88
561.78	2420.11
561.94	1657.10
562.11	1582.20
562.27	1682.85
562.44	1413.68
562.60	1633.69
562.77	1626.67
562.93	2373.30
563.10	1778.81
563.26	1687.53
563.42	1977.75
563.59	1809.23
563.75	1507.30
563.92	1994.14
564.08	1774.13
564.24	1959.03
564.41	2038.61
564.57	1575.18
564.74	1767.10
564.90	1884.13
565.07	1984.77
565.23	2193.08
565.39	2127.55
565.56	2202.44
565.72	1921.58
565.88	1783.49
566.05	1933.28
566.21	1736.68
566.38	1860.73
566.54	1703.91
566.70	1619.65
566.87	1675.82
567.03	1493.26
567.19	1619.65
567.36	1764.76
567.52	1647.74
567.68	1755.40
567.85	1778.81
568.01	1624.33
568.17	1392.62
568.34	1561.14
568.50	2108.82
568.66	1675.82
568.83	2597.99
568.99	1788.17
569.15	2115.84
569.32	1610.29
569.48	1619.65
569.64	1570.50
569.81	1638.38
569.97	1561.14
570.13	1764.76
570.30	1610.29
570.46	1570.50
570.62	1561.14
570.78	1554.12
570.95	1455.81
571.11	1928.60
571.27	2200.10
571.43	1724.97
571.60	1968.39
571.76	1783.49
571.92	1825.62
572.09	1771.79
572.25	1645.40
572.41	1750.72
572.57	1671.14
572.74	2150.95
572.90	1839.66
573.06	1844.34
573.22	1877.11
573.38	1942.64
573.55	1940.30
573.71	1952.01
573.87	1844.34
574.03	1710.93
574.20	1778.81
574.36	2513.74
574.52	2722.04
574.68	2832.05
574.84	2490.33
575.01	2146.27
575.17	2218.83
575.33	1888.81
575.49	2062.01
575.65	2181.38
575.82	2834.39
575.98	5397.28
576.14	6902.24
576.30	7215.87
576.46	5313.02
576.62	4011.68
576.79	3197.17
576.95	2771.19
577.11	2148.61
577.27	1926.26
577.43	2408.41
577.59	2363.94
577.75	2214.15
577.92	1991.80
578.08	2012.86
578.24	1912.22
578.40	2366.28
578.56	2546.50
578.72	2551.18
578.88	2450.54
579.04	2225.85
579.21	2291.38
579.37	2218.83
579.53	2230.53
579.69	2532.46
579.85	2317.13
580.01	2995.89
580.17	3136.32
580.33	3066.10
580.49	3077.80
580.65	2932.69
580.82	2995.89
580.98	2700.98
581.14	2775.88
581.30	3243.98
581.46	3779.97
581.62	5357.49
581.78	6090.07
581.94	5860.70
582.10	4449.36
582.26	4028.06
582.42	3669.96
582.58	3679.32
582.74	3557.61
582.90	3789.33
583.06	4124.02
583.22	4205.94
583.38	4334.67
583.54	4613.20
583.70	6003.47
583.86	6750.10
584.02	7606.74
584.18	9612.58
584.34	13027.42
584.50	37811.35
584.66	65535.00
584.82	65535.00
584.98	65535.00
585.14	65535.00
585.30	65535.00
585.46	65535.00
585.62	65535.00
585.78	65535.00
585.94	40814.26
586.10	16491.41
586.26	10747.74
586.42	8538.27
586.58	6920.96
586.74	5921.56
586.90	5652.39
587.06	5526.00
587.22	5139.82
587.38	4908.10
587.54	12521.87
587.70	39494.20
587.86	57858.04
588.02	61460.13
588.18	51419.23
588.34	32280.67
588.49	20563.95
588.65	12589.74
588.81	6321.79
588.97	3756.56
589.13	2902.26
589.29	2827.37
589.45	2860.13
589.61	2651.83
589.77	3611.45
589.93	3985.93
590.08	4428.29
590.24	4065.51
590.40	4149.77
590.56	3709.75
590.72	3061.42
590.88	2846.09
591.04	3110.57
591.20	2885.88
591.35	3070.78
591.51	2640.12
591.67	2506.71
591.83	2368.62
591.99	2457.56
592.15	2495.01
592.31	2375.64
592.46	2279.68
592.62	2518.42
592.78	2179.04
592.94	2246.91
593.10	2417.77
593.26	2553.52
593.41	2995.89
593.57	3075.46
593.73	5717.93
593.89	33083.47
594.05	63283.40
594.20	65535.00
594.36	65535.00
594.52	65535.00
594.68	47388.83
594.84	32442.17
594.99	16837.81
595.15	7566.95
595.31	4271.48
595.47	3421.86
595.62	2722.04
595.78	2490.33
595.94	2640.12
596.10	3152.70
596.25	2995.89
596.41	3119.93
596.57	2661.19
596.73	2647.15
596.88	5551.75
597.04	15201.78
597.20	26485.50
597.36	32615.37
597.51	23653.45
597.67	15026.24
597.83	10094.73
597.99	6827.34
598.14	4091.26
598.30	3021.63
598.46	2583.95
598.61	3000.57
598.77	2705.66
598.93	2413.09
599.09	2286.70
599.24	2216.49
599.40	2136.91
599.56	1947.33
599.71	1954.35
599.87	1905.20
600.03	2015.20
600.18	1806.89
