SpectraSuite Data File
++++++++++++++++++++++++++++++++++++
Date: Fri Oct 04 11:34:03 GMT-05:00 2013
User: price-jones
Dark Spectrum Present: No
Reference Spectrum Present: No
Number of Sampled Component Spectra: 1
Spectrometers: USB2+H05261
Integration Time (usec): 100000 (USB2+H05261)
Spectra Averaged: 1 (USB2+H05261)
Boxcar Smoothing: 0 (USB2+H05261)
Correct for Electrical Dark: No (USB2+H05261)
Strobe/Lamp Enabled: No (USB2+H05261)
Correct for Detector Non-linearity: No (USB2+H05261)
Correct for Stray Light: No (USB2+H05261)
Number of Pixels in Processed Spectrum: 2048
>>>>>Begin Processed Spectral Data<<<<<
365.73	58.51
365.92	58.51
366.12	58.51
366.32	42.13
366.52	0.00
366.72	0.00
366.91	0.00
367.11	0.00
367.31	0.00
367.51	0.00
367.70	18.72
367.90	0.00
368.10	0.00
368.30	0.00
368.49	0.00
368.69	65.54
368.89	0.00
369.09	0.00
369.28	0.00
369.48	0.00
369.68	39.79
369.87	7.02
370.07	9.36
370.27	79.58
370.47	0.00
370.66	70.22
370.86	67.88
371.06	72.56
371.25	142.77
371.45	110.01
371.65	124.05
371.84	51.49
372.04	37.45
372.24	121.71
372.44	189.58
372.63	163.84
372.83	72.56
373.03	149.79
373.22	114.69
373.42	100.64
373.62	117.03
373.81	189.58
374.01	112.35
374.21	191.92
374.40	138.09
374.60	182.56
374.79	135.75
374.99	112.35
375.19	147.45
375.38	149.79
375.58	135.75
375.78	124.05
375.97	110.01
376.17	220.01
376.37	145.11
376.56	159.16
376.76	124.05
376.95	77.24
377.15	131.07
377.35	147.45
377.54	112.35
377.74	196.60
377.93	117.03
378.13	159.16
378.33	95.96
378.52	145.11
378.72	175.54
378.91	194.26
379.11	128.73
379.31	112.35
379.50	112.35
379.70	140.43
379.89	98.30
380.09	126.39
380.28	149.79
380.48	95.96
380.68	58.51
380.87	138.09
381.07	140.43
381.26	121.71
381.46	212.99
381.65	147.45
381.85	124.05
382.04	121.71
382.24	140.43
382.43	105.32
382.63	74.90
382.83	173.20
383.02	128.73
383.22	184.90
383.41	114.69
383.61	149.79
383.80	107.66
384.00	217.67
384.19	128.73
384.39	180.22
384.58	152.13
384.78	168.52
384.97	154.48
385.17	117.03
385.36	140.43
385.56	149.79
385.75	77.24
385.95	168.52
386.14	170.86
386.34	126.39
386.53	203.63
386.72	159.16
386.92	126.39
387.11	154.48
387.31	147.45
387.50	184.90
387.70	98.30
387.89	124.05
388.09	147.45
388.28	100.64
388.48	131.07
388.67	126.39
388.86	175.54
389.06	145.11
389.25	170.86
389.45	135.75
389.64	222.35
389.84	102.98
390.03	142.77
390.22	180.22
390.42	145.11
390.61	161.50
390.81	95.96
391.00	46.81
391.19	217.67
391.39	67.88
391.58	198.95
391.78	177.88
391.97	170.86
392.16	177.88
392.36	126.39
392.55	173.20
392.75	191.92
392.94	156.82
393.13	163.84
393.33	105.32
393.52	110.01
393.71	131.07
393.91	156.82
394.10	152.13
394.29	145.11
394.49	67.88
394.68	145.11
394.88	140.43
395.07	203.63
395.26	170.86
395.46	173.20
395.65	159.16
395.84	95.96
396.04	156.82
396.23	154.48
396.42	79.58
396.62	201.29
396.81	98.30
397.00	142.77
397.19	121.71
397.39	131.07
397.58	159.16
397.77	154.48
397.97	142.77
398.16	147.45
398.35	182.56
398.55	166.18
398.74	128.73
398.93	231.71
399.12	126.39
399.32	198.95
399.51	196.60
399.70	175.54
399.90	170.86
400.09	128.73
400.28	159.16
400.47	119.37
400.67	135.75
400.86	177.88
401.05	173.20
401.24	191.92
401.44	182.56
401.63	177.88
401.82	196.60
402.01	138.09
402.21	107.66
402.40	124.05
402.59	175.54
402.78	135.75
402.97	119.37
403.17	119.37
403.36	184.90
403.55	161.50
403.74	238.73
403.93	142.77
404.13	294.91
404.32	220.01
404.51	152.13
404.70	166.18
404.89	173.20
405.09	208.31
405.28	124.05
405.47	163.84
405.66	205.97
405.85	142.77
406.05	138.09
406.24	93.62
406.43	102.98
406.62	205.97
406.81	215.33
407.00	182.56
407.20	145.11
407.39	131.07
407.58	124.05
407.77	112.35
407.96	159.16
408.15	243.42
408.34	147.45
408.54	149.79
408.73	126.39
408.92	135.75
409.11	194.26
409.30	198.95
409.49	196.60
409.68	140.43
409.87	180.22
410.07	100.64
410.26	154.48
410.45	168.52
410.64	91.28
410.83	198.95
411.02	152.13
411.21	163.84
411.40	217.67
411.59	194.26
411.78	163.84
411.98	196.60
412.17	177.88
412.36	201.29
412.55	189.58
412.74	180.22
412.93	166.18
413.12	201.29
413.31	227.03
413.50	145.11
413.69	170.86
413.88	252.78
414.07	187.24
414.26	131.07
414.45	163.84
414.64	121.71
414.83	203.63
415.02	177.88
415.22	184.90
415.41	201.29
415.60	98.30
415.79	170.86
415.98	205.97
416.17	147.45
416.36	191.92
416.55	161.50
416.74	84.26
416.93	205.97
417.12	117.03
417.31	210.65
417.50	224.69
417.69	208.31
417.88	215.33
418.07	170.86
418.26	154.48
418.45	203.63
418.64	287.89
418.83	283.20
419.02	259.80
419.21	217.67
419.39	180.22
419.58	222.35
419.77	201.29
419.96	231.71
420.15	227.03
420.34	210.65
420.53	86.60
420.72	128.73
420.91	81.92
421.10	205.97
421.29	168.52
421.48	140.43
421.67	128.73
421.86	149.79
422.05	121.71
422.24	142.77
422.43	264.48
422.61	112.35
422.80	187.24
422.99	152.13
423.18	159.16
423.37	210.65
423.56	177.88
423.75	98.30
423.94	128.73
424.13	135.75
424.32	168.52
424.50	133.41
424.69	91.28
424.88	245.76
425.07	187.24
425.26	248.10
425.45	128.73
425.64	205.97
425.83	306.61
426.01	266.82
426.20	224.69
426.39	152.13
426.58	180.22
426.77	187.24
426.96	224.69
427.15	241.08
427.33	168.52
427.52	205.97
427.71	180.22
427.90	238.73
428.09	149.79
428.28	187.24
428.46	140.43
428.65	175.54
428.84	105.32
429.03	131.07
429.22	177.88
429.40	152.13
429.59	161.50
429.78	180.22
429.97	175.54
430.16	220.01
430.34	133.41
430.53	177.88
430.72	91.28
430.91	187.24
431.10	140.43
431.28	248.10
431.47	245.76
431.66	222.35
431.85	159.16
432.03	91.28
432.22	238.73
432.41	170.86
432.60	138.09
432.79	238.73
432.97	241.08
433.16	287.89
433.35	238.73
433.54	252.78
433.72	292.57
433.91	224.69
434.10	154.48
434.28	201.29
434.47	189.58
434.66	229.37
434.85	229.37
435.03	170.86
435.22	379.17
435.41	505.56
435.59	521.94
435.78	393.21
435.97	196.60
436.16	236.39
436.34	138.09
436.53	191.92
436.72	182.56
436.90	198.95
437.09	140.43
437.28	95.96
437.46	131.07
437.65	117.03
437.84	168.52
438.02	147.45
438.21	196.60
438.40	117.03
438.58	60.85
438.77	266.82
438.96	173.20
439.14	173.20
439.33	212.99
439.52	124.05
439.70	217.67
439.89	208.31
440.08	133.41
440.26	203.63
440.45	166.18
440.63	159.16
440.82	152.13
441.01	168.52
441.19	245.76
441.38	180.22
441.57	191.92
441.75	203.63
441.94	147.45
442.12	159.16
442.31	191.92
442.50	220.01
442.68	149.79
442.87	163.84
443.05	243.42
443.24	222.35
443.43	224.69
443.61	243.42
443.80	182.56
443.98	154.48
444.17	168.52
444.35	173.20
444.54	156.82
444.73	166.18
444.91	215.33
445.10	208.31
445.28	196.60
445.47	156.82
445.65	133.41
445.84	229.37
446.02	215.33
446.21	152.13
446.39	257.46
446.58	142.77
446.77	189.58
446.95	154.48
447.14	227.03
447.32	269.16
447.51	248.10
447.69	142.77
447.88	140.43
448.06	196.60
448.25	124.05
448.43	238.73
448.62	166.18
448.80	210.65
448.99	222.35
449.17	166.18
449.36	163.84
449.54	119.37
449.73	147.45
449.91	227.03
450.10	177.88
450.28	212.99
450.46	245.76
450.65	105.32
450.83	170.86
451.02	283.20
451.20	168.52
451.39	194.26
451.57	231.71
451.76	191.92
451.94	124.05
452.13	198.95
452.31	271.50
452.49	131.07
452.68	175.54
452.86	220.01
453.05	231.71
453.23	161.50
453.42	212.99
453.60	187.24
453.78	168.52
453.97	227.03
454.15	182.56
454.34	173.20
454.52	245.76
454.70	250.44
454.89	224.69
455.07	147.45
455.26	182.56
455.44	194.26
455.62	156.82
455.81	205.97
455.99	191.92
456.17	201.29
456.36	177.88
456.54	177.88
456.73	205.97
456.91	140.43
457.09	203.63
457.28	231.71
457.46	229.37
457.64	182.56
457.83	166.18
458.01	280.86
458.19	220.01
458.38	238.73
458.56	191.92
458.74	163.84
458.93	189.58
459.11	222.35
459.29	205.97
459.48	217.67
459.66	205.97
459.84	205.97
460.03	236.39
460.21	166.18
460.39	205.97
460.57	217.67
460.76	145.11
460.94	210.65
461.12	203.63
461.31	222.35
461.49	196.60
461.67	159.16
461.85	222.35
462.04	182.56
462.22	608.54
462.40	273.84
462.59	177.88
462.77	166.18
462.95	229.37
463.13	177.88
463.32	191.92
463.50	184.90
463.68	145.11
463.86	210.65
464.05	177.88
464.23	264.48
464.41	215.33
464.59	196.60
464.78	203.63
464.96	184.90
465.14	203.63
465.32	182.56
465.50	203.63
465.69	231.71
465.87	191.92
466.05	149.79
466.23	133.41
466.41	210.65
466.60	175.54
466.78	227.03
466.96	217.67
467.14	243.42
467.32	257.46
467.51	175.54
467.69	159.16
467.87	257.46
468.05	168.52
468.23	304.27
468.41	203.63
468.60	222.35
468.78	194.26
468.96	131.07
469.14	234.05
469.32	182.56
469.50	194.26
469.69	210.65
469.87	191.92
470.05	205.97
470.23	173.20
470.41	222.35
470.59	131.07
470.77	182.56
470.95	297.25
471.14	222.35
471.32	145.11
471.50	285.55
471.68	173.20
471.86	222.35
472.04	212.99
472.22	198.95
472.40	147.45
472.58	163.84
472.77	161.50
472.95	145.11
473.13	222.35
473.31	194.26
473.49	154.48
473.67	107.66
473.85	159.16
474.03	231.71
474.21	229.37
474.39	222.35
474.57	227.03
474.75	212.99
474.93	163.84
475.12	170.86
475.30	238.73
475.48	152.13
475.66	191.92
475.84	227.03
476.02	205.97
476.20	229.37
476.38	243.42
476.56	269.16
476.74	168.52
476.92	266.82
477.10	262.14
477.28	285.55
477.46	245.76
477.64	236.39
477.82	175.54
478.00	159.16
478.18	166.18
478.36	234.05
478.54	184.90
478.72	140.43
478.90	159.16
479.08	191.92
479.26	215.33
479.44	215.33
479.62	140.43
479.80	107.66
479.98	205.97
480.16	159.16
480.34	262.14
480.52	187.24
480.70	241.08
480.88	248.10
481.06	161.50
481.24	189.58
481.41	177.88
481.59	294.91
481.77	173.20
481.95	166.18
482.13	198.95
482.31	259.80
482.49	243.42
482.67	234.05
482.85	194.26
483.03	215.33
483.21	234.05
483.39	227.03
483.57	212.99
483.74	318.31
483.92	238.73
484.10	168.52
484.28	217.67
484.46	283.20
484.64	194.26
484.82	250.44
485.00	191.92
485.18	248.10
485.35	140.43
485.53	287.89
485.71	259.80
485.89	266.82
486.07	252.78
486.25	294.91
486.43	299.59
486.61	271.50
486.78	245.76
486.96	205.97
487.14	222.35
487.32	222.35
487.50	205.97
487.68	287.89
487.85	266.82
488.03	297.25
488.21	262.14
488.39	255.12
488.57	306.61
488.75	257.46
488.92	514.92
489.10	271.50
489.28	266.82
489.46	255.12
489.64	215.33
489.81	250.44
489.99	308.95
490.17	245.76
490.35	280.86
490.53	308.95
490.70	259.80
490.88	191.92
491.06	238.73
491.24	266.82
491.41	311.29
491.59	271.50
491.77	266.82
491.95	215.33
492.13	227.03
492.30	236.39
492.48	285.55
492.66	264.48
492.84	191.92
493.01	280.86
493.19	222.35
493.37	294.91
493.54	257.46
493.72	259.80
493.90	287.89
494.08	262.14
494.25	271.50
494.43	245.76
494.61	276.18
494.79	294.91
494.96	318.31
495.14	250.44
495.32	245.76
495.49	191.92
495.67	320.65
495.85	201.29
496.02	262.14
496.20	215.33
496.38	170.86
496.55	252.78
496.73	163.84
496.91	273.84
497.09	297.25
497.26	245.76
497.44	266.82
497.62	322.99
497.79	222.35
497.97	276.18
498.14	241.08
498.32	252.78
498.50	271.50
498.67	198.95
498.85	250.44
499.03	227.03
499.20	304.27
499.38	224.69
499.56	243.42
499.73	215.33
499.91	327.68
500.08	320.65
500.26	224.69
500.44	250.44
500.61	201.29
500.79	222.35
500.97	301.93
501.14	252.78
501.32	250.44
501.49	278.52
501.67	236.39
501.84	238.73
502.02	140.43
502.20	330.02
502.37	283.20
502.55	217.67
502.72	168.52
502.90	330.02
503.07	264.48
503.25	278.52
503.43	236.39
503.60	283.20
503.78	252.78
503.95	252.78
504.13	245.76
504.30	278.52
504.48	250.44
504.65	308.95
504.83	271.50
505.01	266.82
505.18	203.63
505.36	308.95
505.53	248.10
505.71	278.52
505.88	278.52
506.06	196.60
506.23	243.42
506.41	182.56
506.58	210.65
506.76	231.71
506.93	266.82
507.11	259.80
507.28	196.60
507.46	273.84
507.63	269.16
507.81	238.73
507.98	330.02
508.16	184.90
508.33	245.76
508.50	201.29
508.68	187.24
508.85	283.20
509.03	196.60
509.20	264.48
509.38	252.78
509.55	259.80
509.73	262.14
509.90	259.80
510.08	191.92
510.25	234.05
510.42	196.60
510.60	262.14
510.77	306.61
510.95	297.25
511.12	266.82
511.30	276.18
511.47	285.55
511.64	339.38
511.82	252.78
511.99	229.37
512.17	262.14
512.34	250.44
512.51	196.60
512.69	227.03
512.86	344.06
513.04	173.20
513.21	212.99
513.38	257.46
513.56	201.29
513.73	285.55
513.90	220.01
514.08	250.44
514.25	234.05
514.43	280.86
514.60	257.46
514.77	212.99
514.95	266.82
515.12	238.73
515.29	252.78
515.47	285.55
515.64	212.99
515.81	280.86
515.99	353.42
516.16	266.82
516.33	250.44
516.51	283.20
516.68	243.42
516.85	149.79
517.03	208.31
517.20	241.08
517.37	325.33
517.54	252.78
517.72	163.84
517.89	273.84
518.06	184.90
518.24	285.55
518.41	231.71
518.58	332.36
518.75	257.46
518.93	278.52
519.10	259.80
519.27	255.12
519.45	245.76
519.62	224.69
519.79	332.36
519.96	238.73
520.14	259.80
520.31	243.42
520.48	259.80
520.65	330.02
520.83	250.44
521.00	407.25
521.17	304.27
521.34	287.89
521.52	175.54
521.69	220.01
521.86	222.35
522.03	315.97
522.20	266.82
522.38	278.52
522.55	250.44
522.72	266.82
522.89	280.86
523.07	334.70
523.24	322.99
523.41	290.23
523.58	238.73
523.75	201.29
523.92	210.65
524.10	255.12
524.27	229.37
524.44	203.63
524.61	306.61
524.78	264.48
524.96	250.44
525.13	238.73
525.30	299.59
525.47	252.78
525.64	292.57
525.81	322.99
525.98	205.97
526.16	259.80
526.33	271.50
526.50	257.46
526.67	189.58
526.84	208.31
527.01	266.82
527.18	280.86
527.36	241.08
527.53	220.01
527.70	262.14
527.87	276.18
528.04	222.35
528.21	297.25
528.38	257.46
528.55	255.12
528.72	330.02
528.89	290.23
529.07	243.42
529.24	285.55
529.41	351.08
529.58	276.18
529.75	243.42
529.92	280.86
530.09	222.35
530.26	369.80
530.43	292.57
530.60	278.52
530.77	290.23
530.94	294.91
531.11	285.55
531.28	278.52
531.46	287.89
531.63	234.05
531.80	276.18
531.97	257.46
532.14	325.33
532.31	358.10
532.48	294.91
532.65	404.91
532.82	386.19
532.99	430.66
533.16	365.12
533.33	262.14
533.50	231.71
533.67	327.68
533.84	428.32
534.01	482.15
534.18	390.87
534.35	409.59
534.52	383.85
534.69	299.59
534.86	315.97
535.03	283.20
535.20	341.72
535.37	297.25
535.54	262.14
535.71	262.14
535.88	287.89
536.05	262.14
536.22	400.23
536.38	351.08
536.55	266.82
536.72	255.12
536.89	217.67
537.06	248.10
537.23	241.08
537.40	355.76
537.57	283.20
537.74	304.27
537.91	292.57
538.08	348.74
538.25	266.82
538.42	341.72
538.59	304.27
538.75	290.23
538.92	327.68
539.09	334.70
539.26	393.21
539.43	620.24
539.60	1071.97
539.77	1591.56
539.94	1490.92
540.11	1135.16
540.28	805.14
540.44	624.92
540.61	533.64
540.78	484.49
540.95	538.32
541.12	645.99
541.29	610.88
541.46	592.16
541.62	578.11
541.79	643.65
541.96	587.47
542.13	589.82
542.30	454.06
542.47	498.53
542.63	533.64
542.80	512.58
542.97	475.13
543.14	566.41
543.31	514.92
543.48	505.56
543.64	535.98
543.81	493.85
543.98	543.00
544.15	557.05
544.32	575.77
544.48	528.96
544.65	538.32
544.82	486.83
544.99	454.06
545.16	540.66
545.32	519.60
545.49	784.08
545.66	1027.50
545.83	1107.07
546.00	1001.75
546.16	683.44
546.33	580.45
546.50	547.69
546.67	482.15
546.83	484.49
547.00	463.43
547.17	400.23
547.34	500.87
547.50	440.02
547.67	435.34
547.84	425.98
548.00	442.36
548.17	416.62
548.34	374.49
548.51	404.91
548.67	435.34
548.84	468.11
549.01	404.91
549.18	402.57
549.34	386.19
549.51	400.23
549.68	308.95
549.84	355.76
550.01	407.25
550.18	404.91
550.34	479.81
550.51	395.55
550.68	351.08
550.84	297.25
551.01	299.59
551.18	276.18
551.34	348.74
551.51	257.46
551.68	351.08
551.84	395.55
552.01	322.99
552.18	280.86
552.34	369.80
552.51	393.21
552.68	360.44
552.84	292.57
553.01	337.04
553.18	255.12
553.34	322.99
553.51	273.84
553.67	337.04
553.84	348.74
554.01	304.27
554.17	262.14
554.34	313.63
554.51	262.14
554.67	315.97
554.84	299.59
555.00	276.18
555.17	264.48
555.33	327.68
555.50	306.61
555.67	369.80
555.83	224.69
556.00	250.44
556.16	444.70
556.33	337.04
556.50	273.84
556.66	170.86
556.83	290.23
556.99	330.02
557.16	283.20
557.32	294.91
557.49	271.50
557.65	262.14
557.82	285.55
557.98	285.55
558.15	285.55
558.32	273.84
558.48	278.52
558.65	269.16
558.81	217.67
558.98	292.57
559.14	262.14
559.31	271.50
559.47	315.97
559.64	285.55
559.80	264.48
559.97	285.55
560.13	294.91
560.30	257.46
560.46	290.23
560.63	311.29
560.79	224.69
560.96	301.93
561.12	301.93
561.29	290.23
561.45	271.50
561.61	297.25
561.78	313.63
561.94	297.25
562.11	318.31
562.27	278.52
562.44	210.65
562.60	243.42
562.77	283.20
562.93	294.91
563.10	332.36
563.26	346.40
563.42	264.48
563.59	182.56
563.75	257.46
563.92	264.48
564.08	189.58
564.24	292.57
564.41	224.69
564.57	198.95
564.74	220.01
564.90	266.82
565.07	259.80
565.23	234.05
565.39	278.52
565.56	299.59
565.72	294.91
565.88	252.78
566.05	264.48
566.21	269.16
566.38	262.14
566.54	224.69
566.70	308.95
566.87	327.68
567.03	250.44
567.19	210.65
567.36	215.33
567.52	245.76
567.68	208.31
567.85	262.14
568.01	241.08
568.17	229.37
568.34	220.01
568.50	217.67
568.66	236.39
568.83	313.63
568.99	325.33
569.15	283.20
569.32	283.20
569.48	269.16
569.64	306.61
569.81	348.74
569.97	196.60
570.13	238.73
570.30	348.74
570.46	262.14
570.62	276.18
570.78	266.82
570.95	292.57
571.11	306.61
571.27	285.55
571.43	271.50
571.60	339.38
571.76	280.86
571.92	243.42
572.09	152.13
572.25	227.03
572.41	222.35
572.57	301.93
572.74	311.29
572.90	231.71
573.06	278.52
573.22	386.19
573.38	283.20
573.55	311.29
573.71	271.50
573.87	266.82
574.03	250.44
574.20	224.69
574.36	346.40
574.52	346.40
574.68	346.40
574.84	325.33
575.01	273.84
575.17	365.12
575.33	297.25
575.49	320.65
575.65	269.16
575.82	332.36
575.98	582.79
576.14	767.70
576.30	697.48
576.46	678.76
576.62	573.43
576.79	545.34
576.95	468.11
577.11	344.06
577.27	341.72
577.43	362.78
577.59	341.72
577.75	397.89
577.92	372.15
578.08	330.02
578.24	285.55
578.40	423.64
578.56	451.72
578.72	472.79
578.88	482.15
579.04	395.55
579.21	383.85
579.37	283.20
579.53	334.70
579.69	390.87
579.85	330.02
580.01	437.68
580.17	456.40
580.33	341.72
580.49	409.59
580.65	360.44
580.82	330.02
580.98	428.32
581.14	308.95
581.30	425.98
581.46	447.04
581.62	557.05
581.78	557.05
581.94	678.76
582.10	561.73
582.26	505.56
582.42	540.66
582.58	454.06
582.74	559.39
582.90	512.58
583.06	491.51
583.22	500.87
583.38	606.20
583.54	538.32
583.70	624.92
583.86	664.71
584.02	826.21
584.18	884.72
584.34	1095.37
584.50	2832.05
584.66	19426.45
584.82	51882.66
584.98	63297.45
585.14	60837.54
585.30	45560.87
585.46	27267.24
585.62	16737.17
585.78	8030.38
585.94	3194.83
586.10	1533.05
586.26	1013.45
586.42	908.13
586.58	779.40
586.74	683.44
586.90	744.29
587.06	674.07
587.22	683.44
587.38	610.88
587.54	1128.14
587.70	3063.76
587.86	5401.96
588.02	5975.39
588.18	4315.95
588.34	2771.19
588.49	1867.75
588.65	1118.78
588.81	716.20
588.97	458.74
589.13	411.93
589.29	313.63
589.45	355.76
589.61	355.76
589.77	421.30
589.93	393.21
590.08	507.90
590.24	498.53
590.40	505.56
590.56	507.90
590.72	421.30
590.88	421.30
591.04	479.81
591.20	397.89
591.35	404.91
591.51	362.78
591.67	365.12
591.83	430.66
591.99	358.10
592.15	414.27
592.31	393.21
592.46	374.49
592.62	414.27
592.78	344.06
592.94	416.62
593.10	353.42
593.26	355.76
593.41	519.60
593.57	472.79
593.73	554.71
593.89	2373.30
594.05	6476.26
594.20	9863.02
594.36	9619.60
594.52	6382.64
594.68	4067.85
594.84	2768.85
594.99	1540.07
595.15	791.10
595.31	461.09
595.47	440.02
595.62	236.39
595.78	341.72
595.94	397.89
596.10	416.62
596.25	437.68
596.41	297.25
596.57	325.33
596.73	367.46
596.88	645.99
597.04	1301.34
597.20	2054.99
597.36	2520.76
597.51	2078.40
597.67	1380.92
597.83	952.60
597.99	781.74
598.14	465.77
598.30	428.32
598.46	400.23
598.61	404.91
598.77	442.36
598.93	437.68
599.09	393.21
599.24	367.46
599.40	379.17
599.56	327.68
599.71	311.29
599.87	355.76
600.03	344.06
600.18	315.97
600.34	346.40
600.50	259.80
600.65	294.91
600.81	358.10
600.97	318.31
601.12	334.70
601.28	339.38
601.44	315.97
601.59	299.59
601.75	276.18
601.91	374.49
602.06	306.61
602.22	339.38
602.37	681.10
602.53	1540.07
602.69	2492.67
602.84	2789.92
603.00	2012.86
603.16	1451.13
603.31	1001.75
603.47	704.50
603.62	472.79
603.78	414.27
603.94	320.65
604.09	294.91
604.25	334.70
604.40	308.95
604.56	234.05
604.71	243.42
604.87	355.76
605.03	299.59
605.18	360.44
605.34	409.59
605.49	327.68
605.65	374.49
605.80	397.89
605.96	355.76
606.12	360.44
606.27	400.23
606.43	374.49
606.58	437.68
606.74	842.59
606.89	2951.42
607.05	6090.07
607.20	8351.03
607.36	7321.20
607.51	4994.70
607.67	3206.53
607.82	2132.23
607.98	1294.32
608.13	725.57
608.29	524.28
608.44	461.09
608.60	517.26
608.75	613.22
608.91	997.07
609.06	4557.02
609.22	10654.12
609.37	15040.28
609.53	13074.23
609.68	8819.14
609.84	5755.38
609.99	3941.46
610.15	2321.81
