SpectraSuite Data File
++++++++++++++++++++++++++++++++++++
Date: Fri Oct 04 11:33:54 GMT-05:00 2013
User: price-jones
Dark Spectrum Present: No
Reference Spectrum Present: No
Number of Sampled Component Spectra: 1
Spectrometers: USB2+H05261
Integration Time (usec): 100000 (USB2+H05261)
Spectra Averaged: 1 (USB2+H05261)
Boxcar Smoothing: 0 (USB2+H05261)
Correct for Electrical Dark: No (USB2+H05261)
Strobe/Lamp Enabled: No (USB2+H05261)
Correct for Detector Non-linearity: No (USB2+H05261)
Correct for Stray Light: No (USB2+H05261)
Number of Pixels in Processed Spectrum: 2048
>>>>>Begin Processed Spectral Data<<<<<
365.73	114.69
365.92	114.69
366.12	114.69
366.32	51.49
366.52	0.00
366.72	0.00
366.91	0.00
367.11	0.00
367.31	28.09
367.51	0.00
367.70	9.36
367.90	4.68
368.10	0.00
368.30	0.00
368.49	7.02
368.69	0.00
368.89	65.54
369.09	0.00
369.28	0.00
369.48	23.41
369.68	0.00
369.87	7.02
370.07	9.36
370.27	117.03
370.47	56.17
370.66	16.38
370.86	72.56
371.06	88.94
371.25	98.30
371.45	79.58
371.65	84.26
371.84	152.13
372.04	126.39
372.24	95.96
372.44	142.77
372.63	102.98
372.83	217.67
373.03	187.24
373.22	0.00
373.42	131.07
373.62	74.90
373.81	161.50
374.01	142.77
374.21	173.20
374.40	51.49
374.60	159.16
374.79	229.37
374.99	142.77
375.19	114.69
375.38	163.84
375.58	121.71
375.78	166.18
375.97	203.63
376.17	168.52
376.37	163.84
376.56	215.33
376.76	100.64
376.95	142.77
377.15	126.39
377.35	105.32
377.54	166.18
377.74	166.18
377.93	105.32
378.13	184.90
378.33	131.07
378.52	205.97
378.72	187.24
378.91	201.29
379.11	135.75
379.31	112.35
379.50	98.30
379.70	88.94
379.89	173.20
380.09	180.22
380.28	149.79
380.48	86.60
380.68	114.69
380.87	173.20
381.07	149.79
381.26	191.92
381.46	138.09
381.65	121.71
381.85	156.82
382.04	168.52
382.24	194.26
382.43	149.79
382.63	117.03
382.83	138.09
383.02	166.18
383.22	177.88
383.41	189.58
383.61	154.48
383.80	152.13
384.00	63.19
384.19	196.60
384.39	128.73
384.58	138.09
384.78	135.75
384.97	142.77
385.17	138.09
385.36	72.56
385.56	154.48
385.75	138.09
385.95	131.07
386.14	184.90
386.34	102.98
386.53	163.84
386.72	49.15
386.92	135.75
387.11	121.71
387.31	128.73
387.50	91.28
387.70	110.01
387.89	154.48
388.09	128.73
388.28	145.11
388.48	124.05
388.67	166.18
388.86	170.86
389.06	138.09
389.25	100.64
389.45	140.43
389.64	156.82
389.84	156.82
390.03	93.62
390.22	220.01
390.42	119.37
390.61	149.79
390.81	180.22
391.00	128.73
391.19	248.10
391.39	135.75
391.58	145.11
391.78	159.16
391.97	191.92
392.16	126.39
392.36	112.35
392.55	110.01
392.75	163.84
392.94	72.56
393.13	117.03
393.33	70.22
393.52	93.62
393.71	175.54
393.91	142.77
394.10	163.84
394.29	180.22
394.49	196.60
394.68	168.52
394.88	173.20
395.07	215.33
395.26	163.84
395.46	170.86
395.65	189.58
395.84	156.82
396.04	177.88
396.23	131.07
396.42	140.43
396.62	156.82
396.81	166.18
397.00	117.03
397.19	166.18
397.39	93.62
397.58	220.01
397.77	154.48
397.97	180.22
398.16	154.48
398.35	208.31
398.55	168.52
398.74	121.71
398.93	152.13
399.12	110.01
399.32	112.35
399.51	135.75
399.70	187.24
399.90	177.88
400.09	173.20
400.28	149.79
400.47	117.03
400.67	180.22
400.86	124.05
401.05	191.92
401.24	177.88
401.44	126.39
401.63	229.37
401.82	278.52
402.01	126.39
402.21	227.03
402.40	154.48
402.59	147.45
402.78	131.07
402.97	140.43
403.17	156.82
403.36	189.58
403.55	161.50
403.74	201.29
403.93	191.92
404.13	287.89
404.32	222.35
404.51	117.03
404.70	198.95
404.89	205.97
405.09	236.39
405.28	189.58
405.47	152.13
405.66	212.99
405.85	215.33
406.05	161.50
406.24	166.18
406.43	227.03
406.62	161.50
406.81	86.60
407.00	152.13
407.20	175.54
407.39	163.84
407.58	187.24
407.77	149.79
407.96	175.54
408.15	227.03
408.34	231.71
408.54	126.39
408.73	180.22
408.92	175.54
409.11	173.20
409.30	194.26
409.49	184.90
409.68	95.96
409.87	187.24
410.07	93.62
410.26	170.86
410.45	166.18
410.64	170.86
410.83	142.77
411.02	128.73
411.21	159.16
411.40	224.69
411.59	187.24
411.78	149.79
411.98	100.64
412.17	112.35
412.36	119.37
412.55	170.86
412.74	140.43
412.93	212.99
413.12	187.24
413.31	194.26
413.50	201.29
413.69	140.43
413.88	161.50
414.07	149.79
414.26	149.79
414.45	173.20
414.64	170.86
414.83	215.33
415.02	182.56
415.22	126.39
415.41	191.92
415.60	227.03
415.79	212.99
415.98	175.54
416.17	140.43
416.36	189.58
416.55	159.16
416.74	212.99
416.93	208.31
417.12	128.73
417.31	119.37
417.50	152.13
417.69	245.76
417.88	262.14
418.07	262.14
418.26	229.37
418.45	224.69
418.64	210.65
418.83	201.29
419.02	262.14
419.21	177.88
419.39	184.90
419.58	175.54
419.77	173.20
419.96	245.76
420.15	257.46
420.34	152.13
420.53	159.16
420.72	187.24
420.91	105.32
421.10	175.54
421.29	166.18
421.48	184.90
421.67	243.42
421.86	112.35
422.05	180.22
422.24	124.05
422.43	140.43
422.61	86.60
422.80	152.13
422.99	128.73
423.18	229.37
423.37	180.22
423.56	175.54
423.75	182.56
423.94	201.29
424.13	138.09
424.32	154.48
424.50	187.24
424.69	210.65
424.88	180.22
425.07	152.13
425.26	224.69
425.45	294.91
425.64	243.42
425.83	280.86
426.01	252.78
426.20	100.64
426.39	152.13
426.58	217.67
426.77	149.79
426.96	182.56
427.15	154.48
427.33	234.05
427.52	224.69
427.71	292.57
427.90	135.75
428.09	191.92
428.28	168.52
428.46	196.60
428.65	191.92
428.84	173.20
429.03	238.73
429.22	138.09
429.40	163.84
429.59	140.43
429.78	182.56
429.97	187.24
430.16	105.32
430.34	203.63
430.53	126.39
430.72	133.41
430.91	187.24
431.10	175.54
431.28	147.45
431.47	163.84
431.66	194.26
431.85	163.84
432.03	248.10
432.22	238.73
432.41	201.29
432.60	198.95
432.79	182.56
432.97	259.80
433.16	273.84
433.35	220.01
433.54	252.78
433.72	210.65
433.91	194.26
434.10	217.67
434.28	220.01
434.47	194.26
434.66	243.42
434.85	145.11
435.03	203.63
435.22	388.53
435.41	341.72
435.59	374.49
435.78	269.16
435.97	212.99
436.16	215.33
436.34	191.92
436.53	163.84
436.72	180.22
436.90	203.63
437.09	191.92
437.28	201.29
437.46	201.29
437.65	236.39
437.84	208.31
438.02	194.26
438.21	154.48
438.40	91.28
438.58	105.32
438.77	138.09
438.96	135.75
439.14	175.54
439.33	175.54
439.52	175.54
439.70	210.65
439.89	271.50
440.08	177.88
440.26	182.56
440.45	224.69
440.63	201.29
440.82	126.39
441.01	194.26
441.19	241.08
441.38	107.66
441.57	156.82
441.75	301.93
441.94	241.08
442.12	135.75
442.31	222.35
442.50	220.01
442.68	170.86
442.87	187.24
443.05	191.92
443.24	196.60
443.43	229.37
443.61	154.48
443.80	205.97
443.98	215.33
444.17	210.65
444.35	163.84
444.54	215.33
444.73	205.97
444.91	243.42
445.10	177.88
445.28	161.50
445.47	215.33
445.65	131.07
445.84	133.41
446.02	170.86
446.21	191.92
446.39	187.24
446.58	215.33
446.77	196.60
446.95	124.05
447.14	170.86
447.32	182.56
447.51	201.29
447.69	184.90
447.88	250.44
448.06	245.76
448.25	205.97
448.43	182.56
448.62	184.90
448.80	184.90
448.99	205.97
449.17	163.84
449.36	220.01
449.54	205.97
449.73	241.08
449.91	212.99
450.10	201.29
450.28	238.73
450.46	222.35
450.65	236.39
450.83	154.48
451.02	215.33
451.20	198.95
451.39	205.97
451.57	187.24
451.76	224.69
451.94	208.31
452.13	198.95
452.31	140.43
452.49	191.92
452.68	145.11
452.86	220.01
453.05	248.10
453.23	217.67
453.42	161.50
453.60	215.33
453.78	170.86
453.97	173.20
454.15	126.39
454.34	217.67
454.52	168.52
454.70	177.88
454.89	166.18
455.07	203.63
455.26	149.79
455.44	205.97
455.62	142.77
455.81	236.39
455.99	168.52
456.17	220.01
456.36	166.18
456.54	124.05
456.73	154.48
456.91	229.37
457.09	203.63
457.28	276.18
457.46	262.14
457.64	250.44
457.83	348.74
458.01	198.95
458.19	229.37
458.38	191.92
458.56	259.80
458.74	126.39
458.93	208.31
459.11	229.37
459.29	177.88
459.48	182.56
459.66	301.93
459.84	215.33
460.03	245.76
460.21	250.44
460.39	135.75
460.57	215.33
460.76	203.63
460.94	194.26
461.12	238.73
461.31	201.29
461.49	196.60
461.67	224.69
461.85	175.54
462.04	224.69
462.22	648.33
462.40	227.03
462.59	138.09
462.77	163.84
462.95	196.60
463.13	196.60
463.32	205.97
463.50	196.60
463.68	257.46
463.86	227.03
464.05	149.79
464.23	149.79
464.41	208.31
464.59	173.20
464.78	163.84
464.96	220.01
465.14	175.54
465.32	159.16
465.50	142.77
465.69	163.84
465.87	191.92
466.05	156.82
466.23	119.37
466.41	145.11
466.60	189.58
466.78	159.16
466.96	224.69
467.14	231.71
467.32	205.97
467.51	182.56
467.69	241.08
467.87	208.31
468.05	102.98
468.23	266.82
468.41	238.73
468.60	250.44
468.78	217.67
468.96	241.08
469.14	217.67
469.32	152.13
469.50	168.52
469.69	227.03
469.87	168.52
470.05	243.42
470.23	161.50
470.41	198.95
470.59	145.11
470.77	198.95
470.95	208.31
471.14	203.63
471.32	180.22
471.50	149.79
471.68	149.79
471.86	266.82
472.04	238.73
472.22	187.24
472.40	231.71
472.58	159.16
472.77	177.88
472.95	175.54
473.13	217.67
473.31	173.20
473.49	227.03
473.67	177.88
473.85	194.26
474.03	149.79
474.21	266.82
474.39	175.54
474.57	262.14
474.75	198.95
474.93	140.43
475.12	208.31
475.30	215.33
475.48	252.78
475.66	280.86
475.84	187.24
476.02	208.31
476.20	264.48
476.38	266.82
476.56	264.48
476.74	182.56
476.92	238.73
477.10	259.80
477.28	189.58
477.46	196.60
477.64	231.71
477.82	276.18
478.00	234.05
478.18	262.14
478.36	131.07
478.54	236.39
478.72	168.52
478.90	250.44
479.08	234.05
479.26	168.52
479.44	241.08
479.62	145.11
479.80	257.46
479.98	215.33
480.16	168.52
480.34	222.35
480.52	238.73
480.70	259.80
480.88	212.99
481.06	252.78
481.24	196.60
481.41	189.58
481.59	259.80
481.77	198.95
481.95	241.08
482.13	294.91
482.31	252.78
482.49	121.71
482.67	259.80
482.85	257.46
483.03	304.27
483.21	224.69
483.39	222.35
483.57	264.48
483.74	313.63
483.92	264.48
484.10	290.23
484.28	264.48
484.46	198.95
484.64	201.29
484.82	241.08
485.00	269.16
485.18	278.52
485.35	201.29
485.53	210.65
485.71	243.42
485.89	227.03
486.07	170.86
486.25	278.52
486.43	255.12
486.61	292.57
486.78	252.78
486.96	238.73
487.14	257.46
487.32	236.39
487.50	280.86
487.68	280.86
487.85	222.35
488.03	236.39
488.21	276.18
488.39	217.67
488.57	220.01
488.75	177.88
488.92	601.52
489.10	208.31
489.28	308.95
489.46	201.29
489.64	266.82
489.81	262.14
489.99	248.10
490.17	283.20
490.35	271.50
490.53	227.03
490.70	222.35
490.88	259.80
491.06	215.33
491.24	234.05
491.41	365.12
491.59	257.46
491.77	243.42
491.95	231.71
492.13	257.46
492.30	227.03
492.48	212.99
492.66	248.10
492.84	196.60
493.01	248.10
493.19	283.20
493.37	348.74
493.54	285.55
493.72	175.54
493.90	180.22
494.08	224.69
494.25	231.71
494.43	255.12
494.61	276.18
494.79	280.86
494.96	234.05
495.14	259.80
495.32	299.59
495.49	215.33
495.67	222.35
495.85	257.46
496.02	201.29
496.20	294.91
496.38	262.14
496.55	311.29
496.73	320.65
496.91	191.92
497.09	280.86
497.26	189.58
497.44	224.69
497.62	189.58
497.79	322.99
497.97	271.50
498.14	304.27
498.32	266.82
498.50	290.23
498.67	250.44
498.85	278.52
499.03	224.69
499.20	184.90
499.38	212.99
499.56	205.97
499.73	241.08
499.91	304.27
500.08	236.39
500.26	271.50
500.44	283.20
500.61	245.76
500.79	170.86
500.97	297.25
501.14	297.25
501.32	205.97
501.49	229.37
501.67	168.52
501.84	248.10
502.02	241.08
502.20	280.86
502.37	194.26
502.55	255.12
502.72	259.80
502.90	255.12
503.07	290.23
503.25	215.33
503.43	212.99
503.60	245.76
503.78	271.50
503.95	243.42
504.13	210.65
504.30	222.35
504.48	229.37
504.65	273.84
504.83	212.99
505.01	264.48
505.18	290.23
505.36	271.50
505.53	322.99
505.71	283.20
505.88	205.97
506.06	194.26
506.23	224.69
506.41	280.86
506.58	241.08
506.76	259.80
506.93	205.97
507.11	266.82
507.28	250.44
507.46	168.52
507.63	243.42
507.81	208.31
507.98	203.63
508.16	238.73
508.33	283.20
508.50	280.86
508.68	318.31
508.85	322.99
509.03	198.95
509.20	189.58
509.38	311.29
509.55	339.38
509.73	266.82
509.90	388.53
510.08	337.04
510.25	187.24
510.42	241.08
510.60	271.50
510.77	276.18
510.95	201.29
511.12	285.55
511.30	266.82
511.47	222.35
511.64	360.44
511.82	337.04
511.99	217.67
512.17	292.57
512.34	154.48
512.51	229.37
512.69	278.52
512.86	337.04
513.04	290.23
513.21	238.73
513.38	255.12
513.56	280.86
513.73	301.93
513.90	208.31
514.08	231.71
514.25	257.46
514.43	227.03
514.60	294.91
514.77	292.57
514.95	278.52
515.12	255.12
515.29	248.10
515.47	196.60
515.64	320.65
515.81	250.44
515.99	320.65
516.16	229.37
516.33	360.44
516.51	196.60
516.68	210.65
516.85	290.23
517.03	273.84
517.20	262.14
517.37	301.93
517.54	283.20
517.72	257.46
517.89	283.20
518.06	241.08
518.24	294.91
518.41	341.72
518.58	250.44
518.75	322.99
518.93	304.27
519.10	299.59
519.27	271.50
519.45	262.14
519.62	229.37
519.79	259.80
519.96	313.63
520.14	278.52
520.31	227.03
520.48	243.42
520.65	318.31
520.83	346.40
521.00	234.05
521.17	220.01
521.34	294.91
521.52	304.27
521.69	234.05
521.86	285.55
522.03	278.52
522.20	325.33
522.38	381.51
522.55	236.39
522.72	278.52
522.89	220.01
523.07	231.71
523.24	224.69
523.41	264.48
523.58	346.40
523.75	294.91
523.92	220.01
524.10	236.39
524.27	262.14
524.44	255.12
524.61	313.63
524.78	215.33
524.96	334.70
525.13	374.49
525.30	332.36
525.47	325.33
525.64	280.86
525.81	381.51
525.98	271.50
526.16	301.93
526.33	222.35
526.50	266.82
526.67	283.20
526.84	280.86
527.01	283.20
527.18	264.48
527.36	266.82
527.53	257.46
527.70	266.82
527.87	252.78
528.04	341.72
528.21	306.61
528.38	252.78
528.55	285.55
528.72	269.16
528.89	348.74
529.07	297.25
529.24	290.23
529.41	390.87
529.58	252.78
529.75	308.95
529.92	266.82
530.09	238.73
530.26	243.42
530.43	318.31
530.60	215.33
530.77	229.37
530.94	322.99
531.11	255.12
531.28	285.55
531.46	262.14
531.63	285.55
531.80	308.95
531.97	278.52
532.14	297.25
532.31	372.15
532.48	334.70
532.65	330.02
532.82	425.98
532.99	402.57
533.16	379.17
533.33	339.38
533.50	287.89
533.67	304.27
533.84	395.55
534.01	451.72
534.18	355.76
534.35	409.59
534.52	376.83
534.69	315.97
534.86	315.97
535.03	259.80
535.20	241.08
535.37	346.40
535.54	332.36
535.71	285.55
535.88	339.38
536.05	346.40
536.22	238.73
536.38	299.59
536.55	379.17
536.72	348.74
536.89	355.76
537.06	276.18
537.23	299.59
537.40	304.27
537.57	301.93
537.74	348.74
537.91	308.95
538.08	330.02
538.25	278.52
538.42	203.63
538.59	332.36
538.75	294.91
538.92	313.63
539.09	374.49
539.26	325.33
539.43	435.34
539.60	863.66
539.77	1238.14
539.94	1373.89
540.11	1121.12
540.28	737.27
540.44	596.84
540.61	437.68
540.78	444.70
540.95	465.77
541.12	519.60
541.29	528.96
541.46	573.43
541.62	507.90
541.79	505.56
541.96	479.81
542.13	484.49
542.30	456.40
542.47	521.94
542.63	433.00
542.80	470.45
542.97	568.75
543.14	465.77
543.31	528.96
543.48	440.02
543.64	505.56
543.81	465.77
543.98	559.39
544.15	404.91
544.32	475.13
544.48	498.53
544.65	482.15
544.82	444.70
544.99	477.47
545.16	547.69
545.32	543.00
545.49	711.52
545.66	779.40
545.83	882.38
546.00	856.64
546.16	641.31
546.33	610.88
546.50	477.47
546.67	461.09
546.83	418.96
547.00	397.89
547.17	449.38
547.34	390.87
547.50	372.15
547.67	341.72
547.84	411.93
548.00	433.00
548.17	418.96
548.34	407.25
548.51	414.27
548.67	418.96
548.84	320.65
549.01	409.59
549.18	341.72
549.34	351.08
549.51	372.15
549.68	351.08
549.84	351.08
550.01	353.42
550.18	482.15
550.34	444.70
550.51	325.33
550.68	344.06
550.84	334.70
551.01	365.12
551.18	379.17
551.34	318.31
551.51	411.93
551.68	369.80
551.84	369.80
552.01	259.80
552.18	330.02
552.34	269.16
552.51	243.42
552.68	428.32
552.84	273.84
553.01	273.84
553.18	332.36
553.34	306.61
553.51	332.36
553.67	273.84
553.84	315.97
554.01	304.27
554.17	341.72
554.34	276.18
554.51	243.42
554.67	388.53
554.84	299.59
555.00	269.16
555.17	217.67
555.33	341.72
555.50	339.38
555.67	299.59
555.83	262.14
556.00	313.63
556.16	376.83
556.33	308.95
556.50	243.42
556.66	297.25
556.83	220.01
556.99	290.23
557.16	388.53
557.32	383.85
557.49	269.16
557.65	294.91
557.82	271.50
557.98	280.86
558.15	250.44
558.32	259.80
558.48	250.44
558.65	294.91
558.81	250.44
558.98	348.74
559.14	327.68
559.31	311.29
559.47	266.82
559.64	238.73
559.80	266.82
559.97	259.80
560.13	322.99
560.30	236.39
560.46	280.86
560.63	266.82
560.79	271.50
560.96	330.02
561.12	222.35
561.29	266.82
561.45	280.86
561.61	325.33
561.78	318.31
561.94	290.23
562.11	299.59
562.27	264.48
562.44	231.71
562.60	234.05
562.77	287.89
562.93	332.36
563.10	231.71
563.26	334.70
563.42	278.52
563.59	234.05
563.75	266.82
563.92	250.44
564.08	325.33
564.24	278.52
564.41	365.12
564.57	308.95
564.74	243.42
564.90	231.71
565.07	325.33
565.23	341.72
565.39	262.14
565.56	334.70
565.72	241.08
565.88	353.42
566.05	297.25
566.21	243.42
566.38	269.16
566.54	304.27
566.70	271.50
566.87	215.33
567.03	248.10
567.19	271.50
567.36	304.27
567.52	229.37
567.68	278.52
567.85	306.61
568.01	280.86
568.17	248.10
568.34	243.42
568.50	332.36
568.66	287.89
568.83	348.74
568.99	259.80
569.15	287.89
569.32	283.20
569.48	271.50
569.64	255.12
569.81	278.52
569.97	290.23
570.13	243.42
570.30	259.80
570.46	322.99
570.62	252.78
570.78	238.73
570.95	205.97
571.11	360.44
571.27	231.71
571.43	304.27
571.60	308.95
571.76	248.10
571.92	280.86
572.09	243.42
572.25	311.29
572.41	257.46
572.57	278.52
572.74	318.31
572.90	201.29
573.06	255.12
573.22	234.05
573.38	273.84
573.55	259.80
573.71	276.18
573.87	341.72
574.03	182.56
574.20	287.89
574.36	280.86
574.52	339.38
574.68	395.55
574.84	341.72
575.01	257.46
575.17	299.59
575.33	278.52
575.49	308.95
575.65	334.70
575.82	346.40
575.98	465.77
576.14	685.78
576.30	751.31
576.46	592.16
576.62	493.85
576.79	519.60
576.95	463.43
577.11	339.38
577.27	308.95
577.43	428.32
577.59	304.27
577.75	297.25
577.92	428.32
578.08	262.14
578.24	266.82
578.40	299.59
578.56	369.80
578.72	353.42
578.88	500.87
579.04	407.25
579.21	435.34
579.37	376.83
579.53	341.72
579.69	313.63
579.85	238.73
580.01	402.57
580.17	442.36
580.33	425.98
580.49	395.55
580.65	454.06
580.82	348.74
580.98	423.64
581.14	400.23
581.30	379.17
581.46	510.24
581.62	547.69
581.78	610.88
581.94	601.52
582.10	545.34
582.26	543.00
582.42	463.43
582.58	533.64
582.74	507.90
582.90	468.11
583.06	437.68
583.22	528.96
583.38	500.87
583.54	451.72
583.70	592.16
583.86	638.97
584.02	748.97
584.18	819.19
584.34	1086.01
584.50	2186.06
584.66	13837.25
584.82	41624.09
584.98	60149.43
585.14	60072.19
585.30	42738.18
585.46	23819.63
585.62	14717.29
585.78	7021.61
585.94	2881.20
586.10	1343.47
586.26	936.21
586.42	833.23
586.58	746.63
586.74	669.39
586.90	692.80
587.06	638.97
587.22	547.69
587.38	571.09
587.54	954.94
587.70	2375.64
587.86	4573.41
588.02	5949.64
588.18	4152.11
588.34	2628.42
588.49	1671.14
588.65	1095.37
588.81	578.11
588.97	503.22
589.13	437.68
589.29	355.76
589.45	390.87
589.61	411.93
589.77	433.00
589.93	484.49
590.08	507.90
590.24	458.74
590.40	498.53
590.56	437.68
590.72	397.89
590.88	294.91
591.04	437.68
591.20	294.91
591.35	397.89
591.51	402.57
591.67	215.33
591.83	318.31
591.99	379.17
592.15	414.27
592.31	381.51
592.46	411.93
592.62	332.36
592.78	355.76
592.94	386.19
593.10	435.34
593.26	353.42
593.41	451.72
593.57	400.23
593.73	528.96
593.89	1832.64
594.05	4896.40
594.20	8835.52
594.36	9610.24
594.52	6356.90
594.68	3653.58
594.84	2406.07
594.99	1462.83
595.15	744.29
595.31	493.85
595.47	456.40
595.62	337.04
595.78	304.27
595.94	379.17
596.10	341.72
596.25	322.99
596.41	404.91
596.57	301.93
596.73	402.57
596.88	575.77
597.04	997.07
597.20	1839.66
597.36	2445.86
597.51	1888.81
597.67	1245.16
597.83	873.02
597.99	688.12
598.14	500.87
598.30	425.98
598.46	348.74
598.61	372.15
598.77	369.80
598.93	362.78
599.09	341.72
599.24	304.27
599.40	355.76
599.56	318.31
599.71	376.83
599.87	294.91
600.03	346.40
600.18	320.65
600.34	320.65
600.50	315.97
600.65	318.31
600.81	344.06
600.97	262.14
601.12	231.71
601.28	311.29
601.44	278.52
601.59	297.25
601.75	318.31
601.91	255.12
602.06	313.63
602.22	409.59
602.37	587.47
602.53	1336.45
602.69	2136.91
602.84	2715.02
603.00	1858.39
603.16	1294.32
603.31	987.71
603.47	702.16
603.62	423.64
603.78	372.15
603.94	283.20
604.09	315.97
604.25	294.91
604.40	320.65
604.56	339.38
604.71	294.91
604.87	330.02
605.03	322.99
605.18	351.08
605.34	287.89
605.49	344.06
605.65	311.29
605.80	327.68
605.96	423.64
606.12	334.70
606.27	306.61
606.43	351.08
606.58	435.34
606.74	557.05
606.89	2340.54
607.05	5083.64
607.20	8180.17
607.36	6923.30
607.51	4711.50
607.67	2974.82
607.82	2017.54
607.98	1165.59
608.13	608.54
608.29	486.83
608.44	496.19
608.60	484.49
608.75	507.90
608.91	866.00
609.06	3520.17
609.22	8526.57
609.37	14169.60
609.53	13275.52
609.68	8470.40
609.84	5245.14
609.99	3566.98
610.15	2078.40
