SpectraSuite Data File
++++++++++++++++++++++++++++++++++++
Date: Fri Oct 04 11:33:47 GMT-05:00 2013
User: price-jones
Dark Spectrum Present: No
Reference Spectrum Present: No
Number of Sampled Component Spectra: 1
Spectrometers: USB2+H05261
Integration Time (usec): 100000 (USB2+H05261)
Spectra Averaged: 1 (USB2+H05261)
Boxcar Smoothing: 0 (USB2+H05261)
Correct for Electrical Dark: No (USB2+H05261)
Strobe/Lamp Enabled: No (USB2+H05261)
Correct for Detector Non-linearity: No (USB2+H05261)
Correct for Stray Light: No (USB2+H05261)
Number of Pixels in Processed Spectrum: 2048
>>>>>Begin Processed Spectral Data<<<<<
365.73	49.15
365.92	49.15
366.12	49.15
366.32	0.00
366.52	14.04
366.72	0.00
366.91	0.00
367.11	32.77
367.31	0.00
367.51	0.00
367.70	0.00
367.90	2.34
368.10	14.04
368.30	0.00
368.49	0.00
368.69	0.00
368.89	25.75
369.09	0.00
369.28	0.00
369.48	32.77
369.68	0.00
369.87	88.94
370.07	53.83
370.27	14.04
370.47	28.09
370.66	77.24
370.86	74.90
371.06	30.43
371.25	205.97
371.45	65.54
371.65	187.24
371.84	74.90
372.04	79.58
372.24	91.28
372.44	105.32
372.63	131.07
372.83	149.79
373.03	156.82
373.22	98.30
373.42	126.39
373.62	135.75
373.81	95.96
374.01	203.63
374.21	168.52
374.40	112.35
374.60	245.76
374.79	95.96
374.99	138.09
375.19	203.63
375.38	184.90
375.58	187.24
375.78	161.50
375.97	184.90
376.17	177.88
376.37	117.03
376.56	149.79
376.76	189.58
376.95	182.56
377.15	131.07
377.35	107.66
377.54	147.45
377.74	154.48
377.93	142.77
378.13	189.58
378.33	163.84
378.52	88.94
378.72	198.95
378.91	166.18
379.11	166.18
379.31	140.43
379.50	163.84
379.70	182.56
379.89	138.09
380.09	142.77
380.28	142.77
380.48	121.71
380.68	170.86
380.87	58.51
381.07	65.54
381.26	147.45
381.46	147.45
381.65	126.39
381.85	65.54
382.04	86.60
382.24	215.33
382.43	110.01
382.63	53.83
382.83	170.86
383.02	140.43
383.22	100.64
383.41	154.48
383.61	152.13
383.80	107.66
384.00	173.20
384.19	140.43
384.39	91.28
384.58	32.77
384.78	102.98
384.97	121.71
385.17	191.92
385.36	220.01
385.56	152.13
385.75	119.37
385.95	154.48
386.14	119.37
386.34	168.52
386.53	126.39
386.72	91.28
386.92	182.56
387.11	182.56
387.31	133.41
387.50	159.16
387.70	65.54
387.89	243.42
388.09	126.39
388.28	180.22
388.48	133.41
388.67	201.29
388.86	170.86
389.06	166.18
389.25	194.26
389.45	184.90
389.64	149.79
389.84	180.22
390.03	126.39
390.22	107.66
390.42	128.73
390.61	147.45
390.81	60.85
391.00	135.75
391.19	168.52
391.39	149.79
391.58	168.52
391.78	133.41
391.97	166.18
392.16	95.96
392.36	163.84
392.55	159.16
392.75	117.03
392.94	121.71
393.13	196.60
393.33	135.75
393.52	166.18
393.71	215.33
393.91	154.48
394.10	128.73
394.29	191.92
394.49	184.90
394.68	140.43
394.88	142.77
395.07	170.86
395.26	126.39
395.46	149.79
395.65	161.50
395.84	154.48
396.04	229.37
396.23	177.88
396.42	88.94
396.62	86.60
396.81	177.88
397.00	140.43
397.19	175.54
397.39	77.24
397.58	198.95
397.77	128.73
397.97	135.75
398.16	208.31
398.35	124.05
398.55	88.94
398.74	191.92
398.93	124.05
399.12	133.41
399.32	182.56
399.51	168.52
399.70	182.56
399.90	182.56
400.09	184.90
400.28	191.92
400.47	159.16
400.67	133.41
400.86	182.56
401.05	173.20
401.24	170.86
401.44	147.45
401.63	198.95
401.82	229.37
402.01	210.65
402.21	168.52
402.40	140.43
402.59	229.37
402.78	168.52
402.97	105.32
403.17	126.39
403.36	177.88
403.55	152.13
403.74	161.50
403.93	205.97
404.13	212.99
404.32	217.67
404.51	177.88
404.70	156.82
404.89	187.24
405.09	173.20
405.28	145.11
405.47	110.01
405.66	121.71
405.85	205.97
406.05	74.90
406.24	222.35
406.43	168.52
406.62	177.88
406.81	229.37
407.00	231.71
407.20	77.24
407.39	154.48
407.58	238.73
407.77	182.56
407.96	156.82
408.15	201.29
408.34	154.48
408.54	170.86
408.73	220.01
408.92	210.65
409.11	173.20
409.30	154.48
409.49	147.45
409.68	128.73
409.87	154.48
410.07	194.26
410.26	145.11
410.45	177.88
410.64	145.11
410.83	154.48
411.02	117.03
411.21	138.09
411.40	168.52
411.59	173.20
411.78	212.99
411.98	152.13
412.17	142.77
412.36	173.20
412.55	184.90
412.74	170.86
412.93	215.33
413.12	138.09
413.31	184.90
413.50	166.18
413.69	135.75
413.88	201.29
414.07	177.88
414.26	91.28
414.45	110.01
414.64	159.16
414.83	194.26
415.02	241.08
415.22	119.37
415.41	142.77
415.60	173.20
415.79	166.18
415.98	198.95
416.17	161.50
416.36	133.41
416.55	161.50
416.74	175.54
416.93	180.22
417.12	257.46
417.31	229.37
417.50	194.26
417.69	220.01
417.88	128.73
418.07	166.18
418.26	184.90
418.45	215.33
418.64	149.79
418.83	170.86
419.02	159.16
419.21	194.26
419.39	201.29
419.58	196.60
419.77	168.52
419.96	161.50
420.15	177.88
420.34	177.88
420.53	208.31
420.72	152.13
420.91	152.13
421.10	126.39
421.29	189.58
421.48	238.73
421.67	140.43
421.86	156.82
422.05	147.45
422.24	147.45
422.43	182.56
422.61	182.56
422.80	203.63
422.99	159.16
423.18	138.09
423.37	259.80
423.56	266.82
423.75	163.84
423.94	100.64
424.13	159.16
424.32	182.56
424.50	217.67
424.69	243.42
424.88	149.79
425.07	126.39
425.26	198.95
425.45	159.16
425.64	177.88
425.83	163.84
426.01	208.31
426.20	187.24
426.39	149.79
426.58	224.69
426.77	152.13
426.96	166.18
427.15	182.56
427.33	124.05
427.52	128.73
427.71	196.60
427.90	168.52
428.09	241.08
428.28	128.73
428.46	135.75
428.65	229.37
428.84	222.35
429.03	91.28
429.22	117.03
429.40	173.20
429.59	105.32
429.78	205.97
429.97	175.54
430.16	161.50
430.34	198.95
430.53	175.54
430.72	159.16
430.91	234.05
431.10	107.66
431.28	159.16
431.47	184.90
431.66	163.84
431.85	180.22
432.03	205.97
432.22	215.33
432.41	173.20
432.60	182.56
432.79	191.92
432.97	191.92
433.16	227.03
433.35	210.65
433.54	170.86
433.72	217.67
433.91	241.08
434.10	203.63
434.28	224.69
434.47	182.56
434.66	191.92
434.85	205.97
435.03	269.16
435.22	379.17
435.41	521.94
435.59	369.80
435.78	353.42
435.97	168.52
436.16	264.48
436.34	177.88
436.53	248.10
436.72	292.57
436.90	159.16
437.09	201.29
437.28	208.31
437.46	161.50
437.65	250.44
437.84	241.08
438.02	177.88
438.21	229.37
438.40	149.79
438.58	156.82
438.77	210.65
438.96	147.45
439.14	159.16
439.33	259.80
439.52	180.22
439.70	189.58
439.89	166.18
440.08	210.65
440.26	201.29
440.45	215.33
440.63	170.86
440.82	241.08
441.01	177.88
441.19	168.52
441.38	131.07
441.57	220.01
441.75	201.29
441.94	255.12
442.12	191.92
442.31	236.39
442.50	191.92
442.68	191.92
442.87	194.26
443.05	170.86
443.24	191.92
443.43	177.88
443.61	173.20
443.80	224.69
443.98	203.63
444.17	203.63
444.35	262.14
444.54	154.48
444.73	238.73
444.91	161.50
445.10	152.13
445.28	224.69
445.47	222.35
445.65	229.37
445.84	166.18
446.02	229.37
446.21	170.86
446.39	241.08
446.58	217.67
446.77	217.67
446.95	191.92
447.14	196.60
447.32	278.52
447.51	236.39
447.69	210.65
447.88	177.88
448.06	250.44
448.25	187.24
448.43	173.20
448.62	177.88
448.80	184.90
448.99	194.26
449.17	142.77
449.36	189.58
449.54	112.35
449.73	175.54
449.91	203.63
450.10	201.29
450.28	292.57
450.46	191.92
450.65	262.14
450.83	145.11
451.02	252.78
451.20	180.22
451.39	166.18
451.57	210.65
451.76	210.65
451.94	173.20
452.13	177.88
452.31	262.14
452.49	222.35
452.68	168.52
452.86	154.48
453.05	273.84
453.23	248.10
453.42	208.31
453.60	215.33
453.78	231.71
453.97	163.84
454.15	147.45
454.34	196.60
454.52	215.33
454.70	236.39
454.89	212.99
455.07	217.67
455.26	217.67
455.44	208.31
455.62	257.46
455.81	220.01
455.99	163.84
456.17	147.45
456.36	245.76
456.54	198.95
456.73	163.84
456.91	276.18
457.09	205.97
457.28	203.63
457.46	250.44
457.64	187.24
457.83	170.86
458.01	93.62
458.19	149.79
458.38	177.88
458.56	180.22
458.74	189.58
458.93	77.24
459.11	194.26
459.29	173.20
459.48	194.26
459.66	220.01
459.84	140.43
460.03	332.36
460.21	210.65
460.39	252.78
460.57	203.63
460.76	236.39
460.94	217.67
461.12	234.05
461.31	248.10
461.49	266.82
461.67	161.50
461.85	245.76
462.04	201.29
462.22	603.86
462.40	191.92
462.59	229.37
462.77	222.35
462.95	194.26
463.13	196.60
463.32	234.05
463.50	170.86
463.68	210.65
463.86	252.78
464.05	184.90
464.23	217.67
464.41	168.52
464.59	189.58
464.78	198.95
464.96	255.12
465.14	248.10
465.32	191.92
465.50	271.50
465.69	248.10
465.87	212.99
466.05	196.60
466.23	163.84
466.41	201.29
466.60	205.97
466.78	102.98
466.96	250.44
467.14	227.03
467.32	238.73
467.51	180.22
467.69	173.20
467.87	231.71
468.05	194.26
468.23	208.31
468.41	217.67
468.60	241.08
468.78	184.90
468.96	222.35
469.14	231.71
469.32	182.56
469.50	196.60
469.69	203.63
469.87	159.16
470.05	166.18
470.23	189.58
470.41	198.95
470.59	173.20
470.77	229.37
470.95	222.35
471.14	168.52
471.32	208.31
471.50	215.33
471.68	245.76
471.86	229.37
472.04	156.82
472.22	257.46
472.40	243.42
472.58	252.78
472.77	231.71
472.95	175.54
473.13	229.37
473.31	196.60
473.49	198.95
473.67	243.42
473.85	168.52
474.03	177.88
474.21	222.35
474.39	250.44
474.57	212.99
474.75	222.35
474.93	182.56
475.12	196.60
475.30	184.90
475.48	184.90
475.66	187.24
475.84	147.45
476.02	241.08
476.20	234.05
476.38	196.60
476.56	257.46
476.74	182.56
476.92	231.71
477.10	234.05
477.28	248.10
477.46	222.35
477.64	238.73
477.82	184.90
478.00	210.65
478.18	203.63
478.36	212.99
478.54	252.78
478.72	203.63
478.90	205.97
479.08	224.69
479.26	276.18
479.44	234.05
479.62	212.99
479.80	138.09
479.98	271.50
480.16	182.56
480.34	266.82
480.52	205.97
480.70	191.92
480.88	175.54
481.06	163.84
481.24	194.26
481.41	285.55
481.59	205.97
481.77	222.35
481.95	236.39
482.13	262.14
482.31	180.22
482.49	168.52
482.67	205.97
482.85	262.14
483.03	180.22
483.21	287.89
483.39	234.05
483.57	262.14
483.74	229.37
483.92	222.35
484.10	311.29
484.28	304.27
484.46	257.46
484.64	217.67
484.82	196.60
485.00	201.29
485.18	280.86
485.35	273.84
485.53	203.63
485.71	231.71
485.89	156.82
486.07	248.10
486.25	304.27
486.43	245.76
486.61	290.23
486.78	278.52
486.96	229.37
487.14	236.39
487.32	285.55
487.50	217.67
487.68	280.86
487.85	269.16
488.03	280.86
488.21	308.95
488.39	205.97
488.57	273.84
488.75	196.60
488.92	521.94
489.10	337.04
489.28	348.74
489.46	292.57
489.64	201.29
489.81	318.31
489.99	311.29
490.17	294.91
490.35	376.83
490.53	299.59
490.70	271.50
490.88	276.18
491.06	222.35
491.24	234.05
491.41	292.57
491.59	238.73
491.77	306.61
491.95	301.93
492.13	311.29
492.30	255.12
492.48	262.14
492.66	278.52
492.84	271.50
493.01	304.27
493.19	294.91
493.37	397.89
493.54	292.57
493.72	250.44
493.90	271.50
494.08	217.67
494.25	273.84
494.43	351.08
494.61	215.33
494.79	215.33
494.96	276.18
495.14	297.25
495.32	276.18
495.49	294.91
495.67	264.48
495.85	245.76
496.02	299.59
496.20	273.84
496.38	245.76
496.55	322.99
496.73	257.46
496.91	180.22
497.09	257.46
497.26	290.23
497.44	241.08
497.62	294.91
497.79	301.93
497.97	273.84
498.14	283.20
498.32	266.82
498.50	224.69
498.67	250.44
498.85	252.78
499.03	238.73
499.20	273.84
499.38	259.80
499.56	283.20
499.73	362.78
499.91	255.12
500.08	304.27
500.26	236.39
500.44	229.37
500.61	271.50
500.79	266.82
500.97	355.76
501.14	255.12
501.32	315.97
501.49	383.85
501.67	243.42
501.84	313.63
502.02	294.91
502.20	367.46
502.37	278.52
502.55	222.35
502.72	264.48
502.90	325.33
503.07	273.84
503.25	285.55
503.43	264.48
503.60	266.82
503.78	339.38
503.95	313.63
504.13	313.63
504.30	250.44
504.48	287.89
504.65	346.40
504.83	212.99
505.01	217.67
505.18	337.04
505.36	318.31
505.53	285.55
505.71	257.46
505.88	325.33
506.06	229.37
506.23	297.25
506.41	257.46
506.58	266.82
506.76	271.50
506.93	262.14
507.11	262.14
507.28	259.80
507.46	297.25
507.63	318.31
507.81	245.76
507.98	285.55
508.16	222.35
508.33	273.84
508.50	318.31
508.68	292.57
508.85	269.16
509.03	231.71
509.20	203.63
509.38	161.50
509.55	250.44
509.73	290.23
509.90	276.18
510.08	131.07
510.25	191.92
510.42	306.61
510.60	243.42
510.77	299.59
510.95	273.84
511.12	269.16
511.30	269.16
511.47	320.65
511.64	369.80
511.82	306.61
511.99	271.50
512.17	273.84
512.34	255.12
512.51	231.71
512.69	266.82
512.86	320.65
513.04	330.02
513.21	278.52
513.38	341.72
513.56	266.82
513.73	250.44
513.90	327.68
514.08	271.50
514.25	215.33
514.43	259.80
514.60	269.16
514.77	215.33
514.95	257.46
515.12	212.99
515.29	301.93
515.47	297.25
515.64	290.23
515.81	290.23
515.99	203.63
516.16	362.78
516.33	339.38
516.51	234.05
516.68	248.10
516.85	198.95
517.03	238.73
517.20	304.27
517.37	266.82
517.54	308.95
517.72	271.50
517.89	182.56
518.06	285.55
518.24	376.83
518.41	318.31
518.58	245.76
518.75	224.69
518.93	341.72
519.10	278.52
519.27	283.20
519.45	311.29
519.62	315.97
519.79	358.10
519.96	290.23
520.14	294.91
520.31	311.29
520.48	271.50
520.65	304.27
520.83	273.84
521.00	351.08
521.17	346.40
521.34	320.65
521.52	304.27
521.69	351.08
521.86	297.25
522.03	301.93
522.20	376.83
522.38	304.27
522.55	280.86
522.72	294.91
522.89	259.80
523.07	348.74
523.24	325.33
523.41	320.65
523.58	276.18
523.75	301.93
523.92	266.82
524.10	271.50
524.27	266.82
524.44	243.42
524.61	325.33
524.78	271.50
524.96	318.31
525.13	325.33
525.30	332.36
525.47	264.48
525.64	313.63
525.81	297.25
525.98	266.82
526.16	271.50
526.33	241.08
526.50	220.01
526.67	231.71
526.84	250.44
527.01	278.52
527.18	280.86
527.36	224.69
527.53	318.31
527.70	339.38
527.87	191.92
528.04	248.10
528.21	292.57
528.38	351.08
528.55	381.51
528.72	280.86
528.89	365.12
529.07	259.80
529.24	294.91
529.41	327.68
529.58	362.78
529.75	262.14
529.92	344.06
530.09	304.27
530.26	332.36
530.43	344.06
530.60	276.18
530.77	320.65
530.94	339.38
531.11	266.82
531.28	290.23
531.46	236.39
531.63	292.57
531.80	397.89
531.97	276.18
532.14	266.82
532.31	315.97
532.48	294.91
532.65	372.15
532.82	351.08
532.99	374.49
533.16	311.29
533.33	248.10
533.50	311.29
533.67	318.31
533.84	360.44
534.01	376.83
534.18	386.19
534.35	301.93
534.52	308.95
534.69	334.70
534.86	299.59
535.03	348.74
535.20	322.99
535.37	306.61
535.54	418.96
535.71	297.25
535.88	353.42
536.05	320.65
536.22	351.08
536.38	355.76
536.55	362.78
536.72	311.29
536.89	301.93
537.06	255.12
537.23	287.89
537.40	292.57
537.57	369.80
537.74	388.53
537.91	369.80
538.08	379.17
538.25	383.85
538.42	365.12
538.59	402.57
538.75	290.23
538.92	327.68
539.09	369.80
539.26	433.00
539.43	475.13
539.60	404.91
539.77	465.77
539.94	456.40
540.11	500.87
540.28	559.39
540.44	571.09
540.61	444.70
540.78	430.66
540.95	500.87
541.12	592.16
541.29	514.92
541.46	582.79
541.62	589.82
541.79	648.33
541.96	573.43
542.13	582.79
542.30	592.16
542.47	624.92
542.63	554.71
542.80	500.87
542.97	505.56
543.14	566.41
543.31	634.29
543.48	543.00
543.64	510.24
543.81	519.60
543.98	587.47
544.15	538.32
544.32	500.87
544.48	521.94
544.65	472.79
544.82	449.38
544.99	489.17
545.16	554.71
545.32	531.30
545.49	793.44
545.66	983.02
545.83	1165.59
546.00	882.38
546.16	767.70
546.33	685.78
546.50	540.66
546.67	489.17
546.83	472.79
547.00	472.79
547.17	348.74
547.34	461.09
547.50	395.55
547.67	395.55
547.84	428.32
548.00	500.87
548.17	334.70
548.34	433.00
548.51	418.96
548.67	512.58
548.84	358.10
549.01	470.45
549.18	346.40
549.34	386.19
549.51	423.64
549.68	435.34
549.84	351.08
550.01	369.80
550.18	507.90
550.34	430.66
550.51	388.53
550.68	465.77
550.84	379.17
551.01	379.17
551.18	416.62
551.34	418.96
551.51	311.29
551.68	339.38
551.84	376.83
552.01	315.97
552.18	414.27
552.34	407.25
552.51	376.83
552.68	294.91
552.84	369.80
553.01	395.55
553.18	381.51
553.34	383.85
553.51	264.48
553.67	332.36
553.84	355.76
554.01	299.59
554.17	421.30
554.34	273.84
554.51	285.55
554.67	320.65
554.84	325.33
555.00	327.68
555.17	229.37
555.33	301.93
555.50	322.99
555.67	346.40
555.83	205.97
556.00	360.44
556.16	468.11
556.33	332.36
556.50	294.91
556.66	238.73
556.83	273.84
556.99	269.16
557.16	304.27
557.32	358.10
557.49	287.89
557.65	224.69
557.82	245.76
557.98	355.76
558.15	234.05
558.32	299.59
558.48	271.50
558.65	306.61
558.81	320.65
558.98	315.97
559.14	273.84
559.31	301.93
559.47	273.84
559.64	273.84
559.80	320.65
559.97	229.37
560.13	299.59
560.30	334.70
560.46	259.80
560.63	332.36
560.79	290.23
560.96	327.68
561.12	248.10
561.29	315.97
561.45	241.08
561.61	238.73
561.78	355.76
561.94	301.93
562.11	290.23
562.27	290.23
562.44	238.73
562.60	259.80
562.77	245.76
562.93	308.95
563.10	271.50
563.26	334.70
563.42	299.59
563.59	292.57
563.75	337.04
563.92	355.76
564.08	292.57
564.24	252.78
564.41	290.23
564.57	299.59
564.74	224.69
564.90	355.76
565.07	297.25
565.23	292.57
565.39	201.29
565.56	271.50
565.72	273.84
565.88	248.10
566.05	294.91
566.21	290.23
566.38	327.68
566.54	318.31
566.70	330.02
566.87	252.78
567.03	266.82
567.19	217.67
567.36	257.46
567.52	252.78
567.68	245.76
567.85	266.82
568.01	320.65
568.17	236.39
568.34	299.59
568.50	322.99
568.66	337.04
568.83	311.29
568.99	238.73
569.15	332.36
569.32	264.48
569.48	241.08
569.64	264.48
569.81	315.97
569.97	241.08
570.13	292.57
570.30	252.78
570.46	311.29
570.62	325.33
570.78	313.63
570.95	266.82
571.11	278.52
571.27	304.27
571.43	229.37
571.60	313.63
571.76	234.05
571.92	311.29
572.09	259.80
572.25	339.38
572.41	280.86
572.57	290.23
572.74	297.25
572.90	297.25
573.06	304.27
573.22	234.05
573.38	322.99
573.55	290.23
573.71	372.15
573.87	344.06
574.03	374.49
574.20	304.27
574.36	351.08
574.52	376.83
574.68	229.37
574.84	332.36
575.01	285.55
575.17	294.91
575.33	325.33
575.49	259.80
575.65	344.06
575.82	285.55
575.98	248.10
576.14	339.38
576.30	334.70
576.46	390.87
576.62	458.74
576.79	379.17
576.95	435.34
577.11	351.08
577.27	276.18
577.43	313.63
577.59	290.23
577.75	290.23
577.92	266.82
578.08	266.82
578.24	339.38
578.40	294.91
578.56	475.13
578.72	479.81
578.88	468.11
579.04	393.21
579.21	341.72
579.37	367.46
579.53	287.89
579.69	346.40
579.85	304.27
580.01	351.08
580.17	414.27
580.33	276.18
580.49	325.33
580.65	304.27
580.82	271.50
580.98	306.61
581.14	315.97
581.30	372.15
581.46	311.29
581.62	395.55
581.78	320.65
581.94	355.76
582.10	390.87
582.26	313.63
582.42	346.40
582.58	283.20
582.74	327.68
582.90	425.98
583.06	383.85
583.22	339.38
583.38	372.15
583.54	341.72
583.70	440.02
583.86	430.66
584.02	421.30
584.18	447.04
584.34	374.49
584.50	552.37
584.66	1809.23
584.82	4145.09
584.98	5813.89
585.14	5144.50
585.30	3576.34
585.46	2143.93
585.62	1500.28
585.78	910.47
585.94	524.28
586.10	491.51
586.26	330.02
586.42	470.45
586.58	411.93
586.74	362.78
586.90	381.51
587.06	489.17
587.22	428.32
587.38	425.98
587.54	437.68
587.70	608.54
587.86	741.95
588.02	685.78
588.18	603.86
588.34	503.22
588.49	388.53
588.65	407.25
588.81	388.53
588.97	205.97
589.13	330.02
589.29	276.18
589.45	292.57
589.61	330.02
589.77	294.91
589.93	278.52
590.08	313.63
590.24	283.20
590.40	341.72
590.56	344.06
590.72	271.50
590.88	369.80
591.04	376.83
591.20	283.20
591.35	339.38
591.51	369.80
591.67	278.52
591.83	341.72
591.99	301.93
592.15	358.10
592.31	360.44
592.46	320.65
592.62	383.85
592.78	376.83
592.94	280.86
593.10	376.83
593.26	315.97
593.41	386.19
593.57	299.59
593.73	290.23
593.89	493.85
594.05	795.78
594.20	971.32
594.36	837.91
594.52	697.48
594.68	517.26
594.84	479.81
594.99	449.38
595.15	390.87
595.31	397.89
595.47	339.38
595.62	287.89
595.78	229.37
595.94	299.59
596.10	250.44
596.25	383.85
596.41	304.27
596.57	290.23
596.73	330.02
596.88	264.48
597.04	390.87
597.20	395.55
597.36	507.90
597.51	461.09
597.67	369.80
597.83	383.85
597.99	360.44
598.14	290.23
598.30	334.70
598.46	297.25
598.61	360.44
598.77	308.95
598.93	358.10
599.09	376.83
599.24	334.70
599.40	313.63
599.56	280.86
599.71	358.10
599.87	285.55
600.03	337.04
600.18	285.55
600.34	301.93
600.50	287.89
600.65	344.06
600.81	341.72
600.97	278.52
601.12	280.86
601.28	297.25
601.44	292.57
601.59	227.03
601.75	276.18
601.91	283.20
602.06	255.12
602.22	423.64
602.37	304.27
602.53	388.53
602.69	505.56
602.84	496.19
603.00	416.62
603.16	365.12
603.31	435.34
603.47	379.17
603.62	269.16
603.78	348.74
603.94	252.78
604.09	313.63
604.25	299.59
604.40	313.63
604.56	311.29
604.71	283.20
604.87	297.25
605.03	301.93
605.18	262.14
605.34	278.52
605.49	255.12
605.65	318.31
605.80	273.84
605.96	318.31
606.12	355.76
606.27	297.25
606.43	339.38
606.58	245.76
606.74	360.44
606.89	491.51
607.05	868.34
607.20	882.38
607.36	919.83
607.51	667.05
607.67	535.98
607.82	390.87
607.98	430.66
608.13	381.51
608.29	344.06
608.44	386.19
608.60	297.25
608.75	402.57
608.91	411.93
609.06	746.63
609.22	1184.31
609.37	1341.13
609.53	1373.89
609.68	1050.90
609.84	835.57
609.99	685.78
610.15	678.76
610.30	503.22
610.46	678.76
610.61	746.63
610.76	922.17
