SpectraSuite Data File
++++++++++++++++++++++++++++++++++++
Date: Fri Oct 04 11:33:59 GMT-05:00 2013
User: price-jones
Dark Spectrum Present: No
Reference Spectrum Present: No
Number of Sampled Component Spectra: 1
Spectrometers: USB2+H05261
Integration Time (usec): 100000 (USB2+H05261)
Spectra Averaged: 1 (USB2+H05261)
Boxcar Smoothing: 0 (USB2+H05261)
Correct for Electrical Dark: No (USB2+H05261)
Strobe/Lamp Enabled: No (USB2+H05261)
Correct for Detector Non-linearity: No (USB2+H05261)
Correct for Stray Light: No (USB2+H05261)
Number of Pixels in Processed Spectrum: 2048
>>>>>Begin Processed Spectral Data<<<<<
365.73	105.32
365.92	105.32
366.12	105.32
366.32	0.00
366.52	18.72
366.72	0.00
366.91	0.00
367.11	0.00
367.31	0.00
367.51	0.00
367.70	0.00
367.90	0.00
368.10	0.00
368.30	44.47
368.49	11.70
368.69	0.00
368.89	0.00
369.09	0.00
369.28	0.00
369.48	0.00
369.68	0.00
369.87	0.00
370.07	51.49
370.27	42.13
370.47	0.00
370.66	67.88
370.86	0.00
371.06	131.07
371.25	95.96
371.45	93.62
371.65	149.79
371.84	88.94
372.04	88.94
372.24	100.64
372.44	126.39
372.63	138.09
372.83	107.66
373.03	88.94
373.22	177.88
373.42	124.05
373.62	149.79
373.81	156.82
374.01	121.71
374.21	243.42
374.40	189.58
374.60	227.03
374.79	191.92
374.99	173.20
375.19	161.50
375.38	168.52
375.58	198.95
375.78	208.31
375.97	205.97
376.17	212.99
376.37	149.79
376.56	191.92
376.76	107.66
376.95	154.48
377.15	88.94
377.35	126.39
377.54	205.97
377.74	147.45
377.93	194.26
378.13	161.50
378.33	217.67
378.52	102.98
378.72	194.26
378.91	114.69
379.11	107.66
379.31	154.48
379.50	124.05
379.70	131.07
379.89	117.03
380.09	126.39
380.28	138.09
380.48	173.20
380.68	119.37
380.87	255.12
381.07	91.28
381.26	182.56
381.46	156.82
381.65	56.17
381.85	140.43
382.04	91.28
382.24	126.39
382.43	124.05
382.63	175.54
382.83	163.84
383.02	117.03
383.22	166.18
383.41	60.85
383.61	142.77
383.80	131.07
384.00	138.09
384.19	74.90
384.39	152.13
384.58	149.79
384.78	198.95
384.97	159.16
385.17	149.79
385.36	154.48
385.56	163.84
385.75	159.16
385.95	154.48
386.14	154.48
386.34	133.41
386.53	229.37
386.72	112.35
386.92	182.56
387.11	105.32
387.31	67.88
387.50	77.24
387.70	154.48
387.89	147.45
388.09	110.01
388.28	65.54
388.48	121.71
388.67	170.86
388.86	198.95
389.06	53.83
389.25	191.92
389.45	180.22
389.64	81.92
389.84	102.98
390.03	152.13
390.22	175.54
390.42	135.75
390.61	117.03
390.81	154.48
391.00	135.75
391.19	170.86
391.39	133.41
391.58	166.18
391.78	166.18
391.97	212.99
392.16	91.28
392.36	152.13
392.55	156.82
392.75	112.35
392.94	138.09
393.13	189.58
393.33	133.41
393.52	154.48
393.71	238.73
393.91	119.37
394.10	119.37
394.29	114.69
394.49	100.64
394.68	126.39
394.88	184.90
395.07	220.01
395.26	156.82
395.46	184.90
395.65	147.45
395.84	56.17
396.04	159.16
396.23	121.71
396.42	212.99
396.62	105.32
396.81	119.37
397.00	98.30
397.19	180.22
397.39	98.30
397.58	184.90
397.77	102.98
397.97	170.86
398.16	88.94
398.35	135.75
398.55	142.77
398.74	126.39
398.93	159.16
399.12	161.50
399.32	161.50
399.51	124.05
399.70	79.58
399.90	187.24
400.09	182.56
400.28	194.26
400.47	135.75
400.67	205.97
400.86	154.48
401.05	163.84
401.24	222.35
401.44	138.09
401.63	138.09
401.82	156.82
402.01	114.69
402.21	173.20
402.40	189.58
402.59	138.09
402.78	147.45
402.97	147.45
403.17	124.05
403.36	98.30
403.55	180.22
403.74	182.56
403.93	255.12
404.13	236.39
404.32	175.54
404.51	184.90
404.70	184.90
404.89	173.20
405.09	255.12
405.28	145.11
405.47	152.13
405.66	182.56
405.85	156.82
406.05	95.96
406.24	166.18
406.43	128.73
406.62	203.63
406.81	140.43
407.00	138.09
407.20	112.35
407.39	107.66
407.58	149.79
407.77	170.86
407.96	208.31
408.15	189.58
408.34	173.20
408.54	114.69
408.73	102.98
408.92	173.20
409.11	124.05
409.30	234.05
409.49	180.22
409.68	128.73
409.87	138.09
410.07	128.73
410.26	154.48
410.45	128.73
410.64	140.43
410.83	124.05
411.02	145.11
411.21	156.82
411.40	147.45
411.59	88.94
411.78	149.79
411.98	163.84
412.17	147.45
412.36	152.13
412.55	166.18
412.74	142.77
412.93	175.54
413.12	152.13
413.31	184.90
413.50	135.75
413.69	189.58
413.88	187.24
414.07	203.63
414.26	133.41
414.45	149.79
414.64	170.86
414.83	152.13
415.02	215.33
415.22	212.99
415.41	177.88
415.60	234.05
415.79	191.92
415.98	231.71
416.17	77.24
416.36	138.09
416.55	173.20
416.74	175.54
416.93	215.33
417.12	173.20
417.31	142.77
417.50	166.18
417.69	173.20
417.88	191.92
418.07	163.84
418.26	149.79
418.45	210.65
418.64	163.84
418.83	250.44
419.02	194.26
419.21	152.13
419.39	196.60
419.58	140.43
419.77	182.56
419.96	205.97
420.15	208.31
420.34	135.75
420.53	138.09
420.72	208.31
420.91	194.26
421.10	170.86
421.29	210.65
421.48	156.82
421.67	177.88
421.86	128.73
422.05	131.07
422.24	142.77
422.43	196.60
422.61	119.37
422.80	140.43
422.99	147.45
423.18	161.50
423.37	168.52
423.56	194.26
423.75	142.77
423.94	107.66
424.13	133.41
424.32	203.63
424.50	231.71
424.69	147.45
424.88	194.26
425.07	93.62
425.26	117.03
425.45	229.37
425.64	210.65
425.83	170.86
426.01	191.92
426.20	196.60
426.39	147.45
426.58	145.11
426.77	135.75
426.96	201.29
427.15	177.88
427.33	236.39
427.52	194.26
427.71	208.31
427.90	205.97
428.09	170.86
428.28	133.41
428.46	152.13
428.65	205.97
428.84	271.50
429.03	241.08
429.22	112.35
429.40	117.03
429.59	140.43
429.78	208.31
429.97	145.11
430.16	126.39
430.34	173.20
430.53	201.29
430.72	135.75
430.91	112.35
431.10	163.84
431.28	152.13
431.47	173.20
431.66	182.56
431.85	194.26
432.03	196.60
432.22	220.01
432.41	145.11
432.60	112.35
432.79	198.95
432.97	234.05
433.16	154.48
433.35	173.20
433.54	112.35
433.72	133.41
433.91	271.50
434.10	156.82
434.28	147.45
434.47	255.12
434.66	231.71
434.85	203.63
435.03	222.35
435.22	283.20
435.41	402.57
435.59	395.55
435.78	379.17
435.97	210.65
436.16	229.37
436.34	128.73
436.53	177.88
436.72	212.99
436.90	156.82
437.09	196.60
437.28	159.16
437.46	189.58
437.65	138.09
437.84	147.45
438.02	182.56
438.21	212.99
438.40	86.60
438.58	170.86
438.77	205.97
438.96	203.63
439.14	156.82
439.33	205.97
439.52	220.01
439.70	180.22
439.89	145.11
440.08	135.75
440.26	161.50
440.45	191.92
440.63	95.96
440.82	194.26
441.01	173.20
441.19	184.90
441.38	102.98
441.57	205.97
441.75	159.16
441.94	166.18
442.12	135.75
442.31	152.13
442.50	163.84
442.68	133.41
442.87	203.63
443.05	175.54
443.24	184.90
443.43	231.71
443.61	177.88
443.80	182.56
443.98	105.32
444.17	222.35
444.35	184.90
444.54	180.22
444.73	198.95
444.91	203.63
445.10	133.41
445.28	173.20
445.47	215.33
445.65	142.77
445.84	175.54
446.02	259.80
446.21	224.69
446.39	266.82
446.58	184.90
446.77	147.45
446.95	205.97
447.14	138.09
447.32	196.60
447.51	220.01
447.69	154.48
447.88	189.58
448.06	243.42
448.25	271.50
448.43	177.88
448.62	248.10
448.80	255.12
448.99	245.76
449.17	238.73
449.36	189.58
449.54	177.88
449.73	131.07
449.91	138.09
450.10	100.64
450.28	194.26
450.46	236.39
450.65	227.03
450.83	215.33
451.02	147.45
451.20	177.88
451.39	142.77
451.57	238.73
451.76	201.29
451.94	159.16
452.13	210.65
452.31	262.14
452.49	290.23
452.68	177.88
452.86	241.08
453.05	124.05
453.23	175.54
453.42	168.52
453.60	215.33
453.78	198.95
453.97	212.99
454.15	191.92
454.34	184.90
454.52	191.92
454.70	166.18
454.89	170.86
455.07	126.39
455.26	189.58
455.44	182.56
455.62	159.16
455.81	205.97
455.99	215.33
456.17	177.88
456.36	198.95
456.54	177.88
456.73	126.39
456.91	149.79
457.09	210.65
457.28	215.33
457.46	273.84
457.64	229.37
457.83	245.76
458.01	187.24
458.19	245.76
458.38	166.18
458.56	205.97
458.74	196.60
458.93	173.20
459.11	175.54
459.29	203.63
459.48	182.56
459.66	236.39
459.84	198.95
460.03	229.37
460.21	259.80
460.39	95.96
460.57	173.20
460.76	189.58
460.94	154.48
461.12	264.48
461.31	234.05
461.49	182.56
461.67	212.99
461.85	201.29
462.04	175.54
462.22	610.88
462.40	220.01
462.59	297.25
462.77	196.60
462.95	215.33
463.13	182.56
463.32	161.50
463.50	196.60
463.68	156.82
463.86	175.54
464.05	236.39
464.23	217.67
464.41	177.88
464.59	145.11
464.78	166.18
464.96	196.60
465.14	217.67
465.32	259.80
465.50	177.88
465.69	198.95
465.87	191.92
466.05	220.01
466.23	196.60
466.41	203.63
466.60	145.11
466.78	222.35
466.96	187.24
467.14	215.33
467.32	170.86
467.51	208.31
467.69	201.29
467.87	210.65
468.05	187.24
468.23	205.97
468.41	201.29
468.60	229.37
468.78	196.60
468.96	231.71
469.14	180.22
469.32	159.16
469.50	177.88
469.69	163.84
469.87	266.82
470.05	212.99
470.23	248.10
470.41	227.03
470.59	198.95
470.77	187.24
470.95	252.78
471.14	210.65
471.32	175.54
471.50	166.18
471.68	163.84
471.86	210.65
472.04	173.20
472.22	184.90
472.40	222.35
472.58	189.58
472.77	189.58
472.95	147.45
473.13	212.99
473.31	191.92
473.49	163.84
473.67	74.90
473.85	175.54
474.03	196.60
474.21	238.73
474.39	276.18
474.57	280.86
474.75	147.45
474.93	308.95
475.12	168.52
475.30	124.05
475.48	210.65
475.66	234.05
475.84	182.56
476.02	177.88
476.20	210.65
476.38	194.26
476.56	234.05
476.74	231.71
476.92	154.48
477.10	208.31
477.28	212.99
477.46	234.05
477.64	224.69
477.82	180.22
478.00	222.35
478.18	266.82
478.36	208.31
478.54	191.92
478.72	140.43
478.90	227.03
479.08	227.03
479.26	145.11
479.44	180.22
479.62	215.33
479.80	227.03
479.98	210.65
480.16	159.16
480.34	205.97
480.52	234.05
480.70	278.52
480.88	203.63
481.06	177.88
481.24	245.76
481.41	245.76
481.59	229.37
481.77	292.57
481.95	220.01
482.13	215.33
482.31	161.50
482.49	163.84
482.67	182.56
482.85	250.44
483.03	215.33
483.21	224.69
483.39	266.82
483.57	212.99
483.74	245.76
483.92	229.37
484.10	222.35
484.28	266.82
484.46	262.14
484.64	241.08
484.82	117.03
485.00	238.73
485.18	205.97
485.35	222.35
485.53	266.82
485.71	269.16
485.89	205.97
486.07	234.05
486.25	287.89
486.43	231.71
486.61	294.91
486.78	292.57
486.96	330.02
487.14	264.48
487.32	278.52
487.50	269.16
487.68	259.80
487.85	236.39
488.03	276.18
488.21	252.78
488.39	224.69
488.57	304.27
488.75	266.82
488.92	470.45
489.10	278.52
489.28	205.97
489.46	243.42
489.64	257.46
489.81	273.84
489.99	220.01
490.17	212.99
490.35	313.63
490.53	201.29
490.70	297.25
490.88	257.46
491.06	201.29
491.24	255.12
491.41	287.89
491.59	259.80
491.77	191.92
491.95	234.05
492.13	227.03
492.30	205.97
492.48	229.37
492.66	238.73
492.84	205.97
493.01	238.73
493.19	234.05
493.37	290.23
493.54	290.23
493.72	259.80
493.90	208.31
494.08	187.24
494.25	285.55
494.43	234.05
494.61	227.03
494.79	222.35
494.96	227.03
495.14	236.39
495.32	201.29
495.49	304.27
495.67	234.05
495.85	224.69
496.02	241.08
496.20	255.12
496.38	283.20
496.55	156.82
496.73	210.65
496.91	227.03
497.09	292.57
497.26	222.35
497.44	278.52
497.62	292.57
497.79	234.05
497.97	259.80
498.14	210.65
498.32	250.44
498.50	285.55
498.67	212.99
498.85	320.65
499.03	252.78
499.20	273.84
499.38	229.37
499.56	271.50
499.73	334.70
499.91	308.95
500.08	297.25
500.26	196.60
500.44	215.33
500.61	283.20
500.79	243.42
500.97	236.39
501.14	318.31
501.32	224.69
501.49	243.42
501.67	180.22
501.84	231.71
502.02	187.24
502.20	280.86
502.37	189.58
502.55	241.08
502.72	339.38
502.90	271.50
503.07	227.03
503.25	224.69
503.43	294.91
503.60	220.01
503.78	332.36
503.95	182.56
504.13	210.65
504.30	290.23
504.48	229.37
504.65	278.52
504.83	280.86
505.01	217.67
505.18	248.10
505.36	217.67
505.53	175.54
505.71	290.23
505.88	241.08
506.06	325.33
506.23	201.29
506.41	234.05
506.58	334.70
506.76	220.01
506.93	257.46
507.11	241.08
507.28	252.78
507.46	241.08
507.63	264.48
507.81	229.37
507.98	304.27
508.16	264.48
508.33	194.26
508.50	222.35
508.68	306.61
508.85	290.23
509.03	252.78
509.20	229.37
509.38	203.63
509.55	255.12
509.73	285.55
509.90	271.50
510.08	301.93
510.25	262.14
510.42	280.86
510.60	311.29
510.77	243.42
510.95	306.61
511.12	248.10
511.30	252.78
511.47	315.97
511.64	348.74
511.82	264.48
511.99	294.91
512.17	311.29
512.34	210.65
512.51	191.92
512.69	229.37
512.86	280.86
513.04	212.99
513.21	212.99
513.38	248.10
513.56	245.76
513.73	264.48
513.90	250.44
514.08	234.05
514.25	278.52
514.43	341.72
514.60	294.91
514.77	224.69
514.95	238.73
515.12	215.33
515.29	231.71
515.47	313.63
515.64	210.65
515.81	227.03
515.99	308.95
516.16	241.08
516.33	266.82
516.51	266.82
516.68	217.67
516.85	299.59
517.03	330.02
517.20	266.82
517.37	210.65
517.54	250.44
517.72	196.60
517.89	255.12
518.06	283.20
518.24	231.71
518.41	313.63
518.58	215.33
518.75	301.93
518.93	262.14
519.10	257.46
519.27	271.50
519.45	224.69
519.62	220.01
519.79	280.86
519.96	189.58
520.14	278.52
520.31	236.39
520.48	224.69
520.65	280.86
520.83	299.59
521.00	271.50
521.17	287.89
521.34	266.82
521.52	280.86
521.69	166.18
521.86	238.73
522.03	276.18
522.20	341.72
522.38	264.48
522.55	236.39
522.72	175.54
522.89	245.76
523.07	294.91
523.24	201.29
523.41	287.89
523.58	227.03
523.75	229.37
523.92	191.92
524.10	285.55
524.27	292.57
524.44	320.65
524.61	248.10
524.78	266.82
524.96	292.57
525.13	315.97
525.30	224.69
525.47	229.37
525.64	322.99
525.81	271.50
525.98	318.31
526.16	245.76
526.33	149.79
526.50	194.26
526.67	224.69
526.84	234.05
527.01	301.93
527.18	285.55
527.36	215.33
527.53	208.31
527.70	299.59
527.87	208.31
528.04	285.55
528.21	250.44
528.38	280.86
528.55	287.89
528.72	327.68
528.89	262.14
529.07	262.14
529.24	203.63
529.41	248.10
529.58	187.24
529.75	266.82
529.92	210.65
530.09	283.20
530.26	290.23
530.43	203.63
530.60	280.86
530.77	234.05
530.94	330.02
531.11	224.69
531.28	294.91
531.46	257.46
531.63	257.46
531.80	238.73
531.97	337.04
532.14	292.57
532.31	294.91
532.48	369.80
532.65	407.25
532.82	229.37
532.99	297.25
533.16	273.84
533.33	299.59
533.50	278.52
533.67	334.70
533.84	325.33
534.01	292.57
534.18	252.78
534.35	294.91
534.52	294.91
534.69	365.12
534.86	313.63
535.03	248.10
535.20	325.33
535.37	280.86
535.54	332.36
535.71	280.86
535.88	386.19
536.05	262.14
536.22	224.69
536.38	283.20
536.55	257.46
536.72	320.65
536.89	330.02
537.06	313.63
537.23	304.27
537.40	334.70
537.57	353.42
537.74	320.65
537.91	322.99
538.08	304.27
538.25	287.89
538.42	224.69
538.59	248.10
538.75	297.25
538.92	250.44
539.09	308.95
539.26	306.61
539.43	486.83
539.60	629.60
539.77	767.70
539.94	835.57
540.11	603.86
540.28	496.19
540.44	421.30
540.61	456.40
540.78	435.34
540.95	400.23
541.12	505.56
541.29	496.19
541.46	496.19
541.62	498.53
541.79	540.66
541.96	428.32
542.13	409.59
542.30	414.27
542.47	493.85
542.63	409.59
542.80	416.62
542.97	477.47
543.14	423.64
543.31	447.04
543.48	418.96
543.64	496.19
543.81	411.93
543.98	425.98
544.15	468.11
544.32	386.19
544.48	454.06
544.65	383.85
544.82	433.00
544.99	411.93
545.16	472.79
545.32	486.83
545.49	720.88
545.66	809.83
545.83	875.36
546.00	758.33
546.16	575.77
546.33	517.26
546.50	470.45
546.67	440.02
546.83	365.12
547.00	397.89
547.17	404.91
547.34	397.89
547.50	299.59
547.67	376.83
547.84	292.57
548.00	383.85
548.17	353.42
548.34	400.23
548.51	355.76
548.67	381.51
548.84	351.08
549.01	304.27
549.18	393.21
549.34	306.61
549.51	369.80
549.68	332.36
549.84	325.33
550.01	330.02
550.18	454.06
550.34	388.53
550.51	322.99
550.68	355.76
550.84	383.85
551.01	278.52
551.18	348.74
551.34	301.93
551.51	224.69
551.68	273.84
551.84	299.59
552.01	278.52
552.18	278.52
552.34	234.05
552.51	278.52
552.68	358.10
552.84	327.68
553.01	283.20
553.18	243.42
553.34	234.05
553.51	311.29
553.67	287.89
553.84	341.72
554.01	287.89
554.17	292.57
554.34	311.29
554.51	367.46
554.67	269.16
554.84	271.50
555.00	259.80
555.17	259.80
555.33	269.16
555.50	315.97
555.67	290.23
555.83	271.50
556.00	280.86
556.16	475.13
556.33	273.84
556.50	271.50
556.66	229.37
556.83	252.78
556.99	250.44
557.16	241.08
557.32	315.97
557.49	273.84
557.65	264.48
557.82	252.78
557.98	301.93
558.15	297.25
558.32	252.78
558.48	259.80
558.65	266.82
558.81	276.18
558.98	252.78
559.14	327.68
559.31	271.50
559.47	294.91
559.64	194.26
559.80	264.48
559.97	241.08
560.13	341.72
560.30	278.52
560.46	271.50
560.63	315.97
560.79	280.86
560.96	210.65
561.12	257.46
561.29	276.18
561.45	205.97
561.61	313.63
561.78	369.80
561.94	304.27
562.11	255.12
562.27	278.52
562.44	224.69
562.60	234.05
562.77	327.68
562.93	273.84
563.10	290.23
563.26	243.42
563.42	264.48
563.59	255.12
563.75	318.31
563.92	276.18
564.08	271.50
564.24	241.08
564.41	306.61
564.57	241.08
564.74	269.16
564.90	248.10
565.07	189.58
565.23	285.55
565.39	208.31
565.56	250.44
565.72	231.71
565.88	306.61
566.05	255.12
566.21	248.10
566.38	250.44
566.54	278.52
566.70	290.23
566.87	231.71
567.03	210.65
567.19	210.65
567.36	215.33
567.52	322.99
567.68	234.05
567.85	301.93
568.01	280.86
568.17	217.67
568.34	215.33
568.50	311.29
568.66	294.91
568.83	271.50
568.99	243.42
569.15	269.16
569.32	304.27
569.48	250.44
569.64	152.13
569.81	255.12
569.97	259.80
570.13	208.31
570.30	236.39
570.46	241.08
570.62	215.33
570.78	266.82
570.95	236.39
571.11	280.86
571.27	322.99
571.43	229.37
571.60	264.48
571.76	236.39
571.92	241.08
572.09	273.84
572.25	234.05
572.41	205.97
572.57	224.69
572.74	262.14
572.90	285.55
573.06	255.12
573.22	266.82
573.38	330.02
573.55	271.50
573.71	297.25
573.87	306.61
574.03	299.59
574.20	318.31
574.36	318.31
574.52	252.78
574.68	278.52
574.84	264.48
575.01	278.52
575.17	278.52
575.33	271.50
575.49	287.89
575.65	322.99
575.82	292.57
575.98	435.34
576.14	348.74
576.30	430.66
576.46	433.00
576.62	355.76
576.79	430.66
576.95	388.53
577.11	266.82
577.27	255.12
577.43	257.46
577.59	273.84
577.75	304.27
577.92	250.44
578.08	250.44
578.24	250.44
578.40	297.25
578.56	395.55
578.72	355.76
578.88	404.91
579.04	388.53
579.21	327.68
579.37	266.82
579.53	320.65
579.69	285.55
579.85	330.02
580.01	358.10
580.17	297.25
580.33	351.08
580.49	283.20
580.65	334.70
580.82	353.42
580.98	346.40
581.14	259.80
581.30	397.89
581.46	339.38
581.62	454.06
581.78	468.11
581.94	423.64
582.10	433.00
582.26	418.96
582.42	383.85
582.58	428.32
582.74	362.78
582.90	386.19
583.06	404.91
583.22	341.72
583.38	311.29
583.54	397.89
583.70	388.53
583.86	402.57
584.02	421.30
584.18	566.41
584.34	711.52
584.50	1437.09
584.66	8842.54
584.82	21764.64
584.98	28870.51
585.14	24814.36
585.30	15690.95
585.46	9525.98
585.62	6043.26
585.78	2963.12
585.94	1310.70
586.10	739.61
586.26	568.75
586.42	486.83
586.58	430.66
586.74	468.11
586.90	491.51
587.06	468.11
587.22	444.70
587.38	393.21
587.54	777.06
587.70	1556.46
587.86	2155.63
588.02	2188.40
588.18	1605.61
588.34	1163.25
588.49	760.67
588.65	564.07
588.81	327.68
588.97	304.27
589.13	348.74
589.29	248.10
589.45	334.70
589.61	379.17
589.77	365.12
589.93	297.25
590.08	241.08
590.24	299.59
590.40	372.15
590.56	388.53
590.72	369.80
590.88	266.82
591.04	402.57
591.20	248.10
591.35	278.52
591.51	262.14
591.67	304.27
591.83	262.14
591.99	425.98
592.15	365.12
592.31	266.82
592.46	325.33
592.62	330.02
592.78	355.76
592.94	330.02
593.10	334.70
593.26	332.36
593.41	360.44
593.57	330.02
593.73	334.70
593.89	1280.27
594.05	2808.64
594.20	3679.32
594.36	3290.79
594.52	2363.94
594.68	1565.82
594.84	1076.65
594.99	702.16
595.15	470.45
595.31	301.93
595.47	386.19
595.62	369.80
595.78	301.93
595.94	348.74
596.10	346.40
596.25	285.55
596.41	266.82
596.57	266.82
596.73	250.44
596.88	440.02
597.04	711.52
597.20	966.64
597.36	1048.56
597.51	863.66
597.67	643.65
597.83	550.03
597.99	444.70
598.14	325.33
598.30	299.59
598.46	283.20
598.61	341.72
598.77	283.20
598.93	294.91
599.09	348.74
599.24	318.31
599.40	301.93
599.56	313.63
599.71	304.27
599.87	266.82
600.03	325.33
600.18	243.42
600.34	306.61
600.50	304.27
600.65	255.12
600.81	259.80
600.97	283.20
601.12	280.86
601.28	379.17
601.44	313.63
601.59	238.73
601.75	322.99
601.91	234.05
602.06	259.80
602.22	437.68
602.37	414.27
602.53	880.04
602.69	1121.12
602.84	964.30
603.00	802.80
603.16	709.18
603.31	610.88
603.47	400.23
603.62	374.49
603.78	308.95
603.94	278.52
604.09	262.14
604.25	257.46
604.40	243.42
604.56	273.84
604.71	325.33
604.87	332.36
605.03	259.80
605.18	332.36
605.34	320.65
605.49	301.93
605.65	266.82
605.80	217.67
605.96	266.82
606.12	299.59
606.27	355.76
606.43	330.02
606.58	334.70
606.74	519.60
606.89	1465.18
607.05	2654.17
607.20	3173.77
607.36	2635.44
607.51	1860.73
607.67	1270.91
607.82	905.79
607.98	645.99
608.13	344.06
608.29	425.98
608.44	372.15
608.60	330.02
608.75	451.72
608.91	720.88
609.06	2267.98
609.22	4154.45
609.37	5214.71
609.53	4400.21
609.68	3201.85
609.84	2143.93
609.99	1636.03
610.15	1046.22
610.30	748.97
610.46	690.46
