SpectraSuite Data File
++++++++++++++++++++++++++++++++++++
Date: Fri Oct 04 11:33:58 GMT-05:00 2013
User: price-jones
Dark Spectrum Present: No
Reference Spectrum Present: No
Number of Sampled Component Spectra: 1
Spectrometers: USB2+H05261
Integration Time (usec): 100000 (USB2+H05261)
Spectra Averaged: 1 (USB2+H05261)
Boxcar Smoothing: 0 (USB2+H05261)
Correct for Electrical Dark: No (USB2+H05261)
Strobe/Lamp Enabled: No (USB2+H05261)
Correct for Detector Non-linearity: No (USB2+H05261)
Correct for Stray Light: No (USB2+H05261)
Number of Pixels in Processed Spectrum: 2048
>>>>>Begin Processed Spectral Data<<<<<
365.73	46.81
365.92	46.81
366.12	46.81
366.32	18.72
366.52	51.49
366.72	0.00
366.91	0.00
367.11	0.00
367.31	0.00
367.51	11.70
367.70	0.00
367.90	0.00
368.10	0.00
368.30	0.00
368.49	0.00
368.69	21.06
368.89	0.00
369.09	0.00
369.28	18.72
369.48	0.00
369.68	14.04
369.87	39.79
370.07	53.83
370.27	67.88
370.47	28.09
370.66	28.09
370.86	110.01
371.06	124.05
371.25	128.73
371.45	42.13
371.65	88.94
371.84	63.19
372.04	100.64
372.24	79.58
372.44	107.66
372.63	147.45
372.83	105.32
373.03	170.86
373.22	180.22
373.42	154.48
373.62	131.07
373.81	187.24
374.01	102.98
374.21	215.33
374.40	128.73
374.60	177.88
374.79	142.77
374.99	220.01
375.19	159.16
375.38	196.60
375.58	95.96
375.78	182.56
375.97	135.75
376.17	154.48
376.37	119.37
376.56	133.41
376.76	88.94
376.95	152.13
377.15	212.99
377.35	222.35
377.54	95.96
377.74	105.32
377.93	173.20
378.13	117.03
378.33	182.56
378.52	110.01
378.72	110.01
378.91	173.20
379.11	142.77
379.31	100.64
379.50	124.05
379.70	74.90
379.89	102.98
380.09	105.32
380.28	138.09
380.48	58.51
380.68	107.66
380.87	147.45
381.07	126.39
381.26	95.96
381.46	163.84
381.65	128.73
381.85	49.15
382.04	74.90
382.24	140.43
382.43	119.37
382.63	135.75
382.83	149.79
383.02	154.48
383.22	154.48
383.41	70.22
383.61	175.54
383.80	102.98
384.00	173.20
384.19	65.54
384.39	156.82
384.58	149.79
384.78	168.52
384.97	205.97
385.17	140.43
385.36	184.90
385.56	142.77
385.75	140.43
385.95	138.09
386.14	145.11
386.34	86.60
386.53	271.50
386.72	81.92
386.92	182.56
387.11	131.07
387.31	152.13
387.50	63.19
387.70	161.50
387.89	135.75
388.09	231.71
388.28	102.98
388.48	138.09
388.67	84.26
388.86	32.77
389.06	163.84
389.25	112.35
389.45	142.77
389.64	154.48
389.84	222.35
390.03	166.18
390.22	86.60
390.42	131.07
390.61	198.95
390.81	159.16
391.00	65.54
391.19	177.88
391.39	168.52
391.58	156.82
391.78	107.66
391.97	147.45
392.16	189.58
392.36	182.56
392.55	175.54
392.75	95.96
392.94	60.85
393.13	112.35
393.33	128.73
393.52	140.43
393.71	168.52
393.91	212.99
394.10	114.69
394.29	133.41
394.49	166.18
394.68	271.50
394.88	154.48
395.07	159.16
395.26	131.07
395.46	156.82
395.65	163.84
395.84	180.22
396.04	241.08
396.23	170.86
396.42	201.29
396.62	126.39
396.81	196.60
397.00	149.79
397.19	177.88
397.39	142.77
397.58	166.18
397.77	145.11
397.97	170.86
398.16	121.71
398.35	173.20
398.55	117.03
398.74	135.75
398.93	140.43
399.12	145.11
399.32	180.22
399.51	70.22
399.70	140.43
399.90	196.60
400.09	121.71
400.28	117.03
400.47	79.58
400.67	95.96
400.86	91.28
401.05	142.77
401.24	210.65
401.44	163.84
401.63	208.31
401.82	248.10
402.01	142.77
402.21	168.52
402.40	131.07
402.59	154.48
402.78	180.22
402.97	95.96
403.17	128.73
403.36	72.56
403.55	117.03
403.74	241.08
403.93	184.90
404.13	245.76
404.32	266.82
404.51	161.50
404.70	191.92
404.89	81.92
405.09	269.16
405.28	159.16
405.47	152.13
405.66	163.84
405.85	217.67
406.05	131.07
406.24	159.16
406.43	135.75
406.62	156.82
406.81	187.24
407.00	170.86
407.20	154.48
407.39	128.73
407.58	121.71
407.77	187.24
407.96	255.12
408.15	278.52
408.34	119.37
408.54	163.84
408.73	67.88
408.92	142.77
409.11	138.09
409.30	180.22
409.49	191.92
409.68	166.18
409.87	147.45
410.07	142.77
410.26	161.50
410.45	135.75
410.64	119.37
410.83	138.09
411.02	145.11
411.21	210.65
411.40	184.90
411.59	154.48
411.78	166.18
411.98	259.80
412.17	147.45
412.36	84.26
412.55	149.79
412.74	184.90
412.93	241.08
413.12	128.73
413.31	163.84
413.50	154.48
413.69	159.16
413.88	191.92
414.07	126.39
414.26	91.28
414.45	152.13
414.64	210.65
414.83	126.39
415.02	222.35
415.22	149.79
415.41	224.69
415.60	229.37
415.79	180.22
415.98	187.24
416.17	145.11
416.36	203.63
416.55	182.56
416.74	184.90
416.93	180.22
417.12	196.60
417.31	112.35
417.50	227.03
417.69	229.37
417.88	217.67
418.07	243.42
418.26	145.11
418.45	231.71
418.64	285.55
418.83	358.10
419.02	177.88
419.21	224.69
419.39	161.50
419.58	205.97
419.77	145.11
419.96	203.63
420.15	222.35
420.34	194.26
420.53	102.98
420.72	173.20
420.91	177.88
421.10	117.03
421.29	107.66
421.48	142.77
421.67	220.01
421.86	180.22
422.05	201.29
422.24	105.32
422.43	107.66
422.61	147.45
422.80	189.58
422.99	245.76
423.18	98.30
423.37	203.63
423.56	187.24
423.75	156.82
423.94	170.86
424.13	196.60
424.32	159.16
424.50	198.95
424.69	191.92
424.88	217.67
425.07	159.16
425.26	203.63
425.45	234.05
425.64	250.44
425.83	245.76
426.01	217.67
426.20	189.58
426.39	191.92
426.58	201.29
426.77	224.69
426.96	191.92
427.15	91.28
427.33	180.22
427.52	231.71
427.71	168.52
427.90	161.50
428.09	124.05
428.28	180.22
428.46	126.39
428.65	149.79
428.84	140.43
429.03	191.92
429.22	168.52
429.40	138.09
429.59	177.88
429.78	222.35
429.97	173.20
430.16	187.24
430.34	215.33
430.53	175.54
430.72	142.77
430.91	203.63
431.10	215.33
431.28	184.90
431.47	166.18
431.66	182.56
431.85	152.13
432.03	117.03
432.22	210.65
432.41	182.56
432.60	259.80
432.79	210.65
432.97	276.18
433.16	315.97
433.35	252.78
433.54	203.63
433.72	135.75
433.91	229.37
434.10	161.50
434.28	269.16
434.47	180.22
434.66	229.37
434.85	208.31
435.03	243.42
435.22	337.04
435.41	477.47
435.59	386.19
435.78	379.17
435.97	266.82
436.16	201.29
436.34	210.65
436.53	175.54
436.72	234.05
436.90	128.73
437.09	138.09
437.28	142.77
437.46	201.29
437.65	198.95
437.84	166.18
438.02	191.92
438.21	201.29
438.40	142.77
438.58	205.97
438.77	166.18
438.96	166.18
439.14	191.92
439.33	161.50
439.52	102.98
439.70	135.75
439.89	187.24
440.08	196.60
440.26	231.71
440.45	205.97
440.63	140.43
440.82	210.65
441.01	196.60
441.19	145.11
441.38	231.71
441.57	177.88
441.75	215.33
441.94	224.69
442.12	138.09
442.31	117.03
442.50	210.65
442.68	189.58
442.87	173.20
443.05	212.99
443.24	231.71
443.43	241.08
443.61	252.78
443.80	203.63
443.98	248.10
444.17	180.22
444.35	191.92
444.54	236.39
444.73	152.13
444.91	168.52
445.10	189.58
445.28	184.90
445.47	215.33
445.65	152.13
445.84	198.95
446.02	191.92
446.21	194.26
446.39	126.39
446.58	182.56
446.77	184.90
446.95	175.54
447.14	215.33
447.32	161.50
447.51	222.35
447.69	191.92
447.88	140.43
448.06	152.13
448.25	170.86
448.43	184.90
448.62	222.35
448.80	168.52
448.99	210.65
449.17	189.58
449.36	138.09
449.54	255.12
449.73	187.24
449.91	180.22
450.10	198.95
450.28	180.22
450.46	238.73
450.65	187.24
450.83	205.97
451.02	194.26
451.20	194.26
451.39	128.73
451.57	224.69
451.76	187.24
451.94	145.11
452.13	196.60
452.31	159.16
452.49	231.71
452.68	154.48
452.86	161.50
453.05	315.97
453.23	205.97
453.42	135.75
453.60	220.01
453.78	177.88
453.97	236.39
454.15	152.13
454.34	222.35
454.52	168.52
454.70	175.54
454.89	189.58
455.07	112.35
455.26	222.35
455.44	196.60
455.62	182.56
455.81	236.39
455.99	257.46
456.17	252.78
456.36	145.11
456.54	124.05
456.73	184.90
456.91	238.73
457.09	163.84
457.28	166.18
457.46	262.14
457.64	224.69
457.83	250.44
458.01	215.33
458.19	201.29
458.38	147.45
458.56	191.92
458.74	187.24
458.93	140.43
459.11	257.46
459.29	257.46
459.48	231.71
459.66	238.73
459.84	278.52
460.03	250.44
460.21	198.95
460.39	173.20
460.57	231.71
460.76	170.86
460.94	250.44
461.12	273.84
461.31	294.91
461.49	257.46
461.67	210.65
461.85	161.50
462.04	241.08
462.22	622.58
462.40	177.88
462.59	170.86
462.77	220.01
462.95	196.60
463.13	231.71
463.32	175.54
463.50	168.52
463.68	280.86
463.86	248.10
464.05	140.43
464.23	154.48
464.41	175.54
464.59	175.54
464.78	184.90
464.96	140.43
465.14	198.95
465.32	161.50
465.50	245.76
465.69	173.20
465.87	163.84
466.05	196.60
466.23	173.20
466.41	182.56
466.60	163.84
466.78	194.26
466.96	262.14
467.14	166.18
467.32	210.65
467.51	170.86
467.69	245.76
467.87	205.97
468.05	173.20
468.23	257.46
468.41	271.50
468.60	180.22
468.78	266.82
468.96	217.67
469.14	173.20
469.32	182.56
469.50	161.50
469.69	252.78
469.87	166.18
470.05	119.37
470.23	245.76
470.41	236.39
470.59	161.50
470.77	196.60
470.95	177.88
471.14	269.16
471.32	250.44
471.50	203.63
471.68	201.29
471.86	241.08
472.04	236.39
472.22	184.90
472.40	133.41
472.58	133.41
472.77	114.69
472.95	227.03
473.13	257.46
473.31	262.14
473.49	119.37
473.67	156.82
473.85	236.39
474.03	257.46
474.21	208.31
474.39	250.44
474.57	266.82
474.75	236.39
474.93	241.08
475.12	177.88
475.30	180.22
475.48	175.54
475.66	238.73
475.84	208.31
476.02	159.16
476.20	182.56
476.38	140.43
476.56	236.39
476.74	147.45
476.92	170.86
477.10	177.88
477.28	241.08
477.46	170.86
477.64	224.69
477.82	224.69
478.00	208.31
478.18	285.55
478.36	177.88
478.54	187.24
478.72	220.01
478.90	163.84
479.08	140.43
479.26	168.52
479.44	203.63
479.62	238.73
479.80	212.99
479.98	131.07
480.16	271.50
480.34	217.67
480.52	182.56
480.70	269.16
480.88	217.67
481.06	208.31
481.24	276.18
481.41	163.84
481.59	280.86
481.77	187.24
481.95	217.67
482.13	173.20
482.31	266.82
482.49	243.42
482.67	276.18
482.85	205.97
483.03	117.03
483.21	234.05
483.39	201.29
483.57	222.35
483.74	292.57
483.92	271.50
484.10	212.99
484.28	243.42
484.46	287.89
484.64	250.44
484.82	257.46
485.00	241.08
485.18	243.42
485.35	266.82
485.53	257.46
485.71	234.05
485.89	191.92
486.07	273.84
486.25	276.18
486.43	271.50
486.61	220.01
486.78	294.91
486.96	248.10
487.14	184.90
487.32	287.89
487.50	250.44
487.68	262.14
487.85	222.35
488.03	276.18
488.21	318.31
488.39	271.50
488.57	243.42
488.75	301.93
488.92	524.28
489.10	374.49
489.28	294.91
489.46	273.84
489.64	227.03
489.81	304.27
489.99	259.80
490.17	257.46
490.35	362.78
490.53	217.67
490.70	248.10
490.88	276.18
491.06	266.82
491.24	234.05
491.41	311.29
491.59	212.99
491.77	311.29
491.95	241.08
492.13	252.78
492.30	273.84
492.48	262.14
492.66	196.60
492.84	273.84
493.01	273.84
493.19	252.78
493.37	238.73
493.54	285.55
493.72	308.95
493.90	306.61
494.08	210.65
494.25	238.73
494.43	252.78
494.61	241.08
494.79	255.12
494.96	224.69
495.14	182.56
495.32	212.99
495.49	285.55
495.67	234.05
495.85	255.12
496.02	271.50
496.20	271.50
496.38	257.46
496.55	201.29
496.73	257.46
496.91	313.63
497.09	285.55
497.26	257.46
497.44	259.80
497.62	252.78
497.79	262.14
497.97	234.05
498.14	236.39
498.32	177.88
498.50	191.92
498.67	257.46
498.85	241.08
499.03	273.84
499.20	306.61
499.38	262.14
499.56	227.03
499.73	259.80
499.91	318.31
500.08	283.20
500.26	330.02
500.44	292.57
500.61	252.78
500.79	243.42
500.97	292.57
501.14	315.97
501.32	269.16
501.49	189.58
501.67	227.03
501.84	285.55
502.02	248.10
502.20	313.63
502.37	273.84
502.55	315.97
502.72	231.71
502.90	264.48
503.07	271.50
503.25	243.42
503.43	285.55
503.60	334.70
503.78	311.29
503.95	273.84
504.13	278.52
504.30	248.10
504.48	255.12
504.65	292.57
504.83	353.42
505.01	208.31
505.18	266.82
505.36	264.48
505.53	238.73
505.71	241.08
505.88	250.44
506.06	322.99
506.23	217.67
506.41	217.67
506.58	255.12
506.76	175.54
506.93	236.39
507.11	210.65
507.28	255.12
507.46	217.67
507.63	187.24
507.81	252.78
507.98	299.59
508.16	257.46
508.33	262.14
508.50	348.74
508.68	269.16
508.85	222.35
509.03	245.76
509.20	222.35
509.38	227.03
509.55	341.72
509.73	198.95
509.90	313.63
510.08	198.95
510.25	208.31
510.42	227.03
510.60	276.18
510.77	283.20
510.95	308.95
511.12	278.52
511.30	325.33
511.47	308.95
511.64	325.33
511.82	299.59
511.99	299.59
512.17	234.05
512.34	210.65
512.51	262.14
512.69	287.89
512.86	262.14
513.04	285.55
513.21	280.86
513.38	196.60
513.56	205.97
513.73	198.95
513.90	149.79
514.08	266.82
514.25	266.82
514.43	299.59
514.60	283.20
514.77	245.76
514.95	318.31
515.12	266.82
515.29	294.91
515.47	252.78
515.64	318.31
515.81	262.14
515.99	215.33
516.16	285.55
516.33	280.86
516.51	198.95
516.68	231.71
516.85	266.82
517.03	215.33
517.20	292.57
517.37	346.40
517.54	255.12
517.72	301.93
517.89	222.35
518.06	220.01
518.24	271.50
518.41	306.61
518.58	304.27
518.75	332.36
518.93	337.04
519.10	290.23
519.27	236.39
519.45	322.99
519.62	285.55
519.79	262.14
519.96	257.46
520.14	262.14
520.31	278.52
520.48	248.10
520.65	320.65
520.83	346.40
521.00	287.89
521.17	299.59
521.34	196.60
521.52	236.39
521.69	285.55
521.86	257.46
522.03	301.93
522.20	290.23
522.38	259.80
522.55	262.14
522.72	222.35
522.89	234.05
523.07	308.95
523.24	290.23
523.41	243.42
523.58	308.95
523.75	238.73
523.92	245.76
524.10	299.59
524.27	287.89
524.44	292.57
524.61	311.29
524.78	252.78
524.96	292.57
525.13	283.20
525.30	308.95
525.47	285.55
525.64	262.14
525.81	220.01
525.98	217.67
526.16	280.86
526.33	243.42
526.50	168.52
526.67	203.63
526.84	187.24
527.01	220.01
527.18	264.48
527.36	266.82
527.53	299.59
527.70	339.38
527.87	320.65
528.04	341.72
528.21	264.48
528.38	285.55
528.55	283.20
528.72	301.93
528.89	273.84
529.07	245.76
529.24	360.44
529.41	304.27
529.58	313.63
529.75	292.57
529.92	299.59
530.09	271.50
530.26	348.74
530.43	294.91
530.60	304.27
530.77	271.50
530.94	313.63
531.11	344.06
531.28	262.14
531.46	245.76
531.63	269.16
531.80	222.35
531.97	241.08
532.14	339.38
532.31	306.61
532.48	337.04
532.65	428.32
532.82	369.80
532.99	454.06
533.16	409.59
533.33	318.31
533.50	348.74
533.67	360.44
533.84	484.49
534.01	500.87
534.18	411.93
534.35	376.83
534.52	348.74
534.69	308.95
534.86	262.14
535.03	313.63
535.20	301.93
535.37	297.25
535.54	280.86
535.71	304.27
535.88	304.27
536.05	198.95
536.22	360.44
536.38	330.02
536.55	266.82
536.72	311.29
536.89	264.48
537.06	304.27
537.23	320.65
537.40	318.31
537.57	341.72
537.74	280.86
537.91	360.44
538.08	334.70
538.25	304.27
538.42	390.87
538.59	374.49
538.75	383.85
538.92	362.78
539.09	374.49
539.26	330.02
539.43	617.90
539.60	1177.29
539.77	1631.35
539.94	1689.87
540.11	1249.85
540.28	779.40
540.44	650.67
540.61	507.90
540.78	503.22
540.95	561.73
541.12	575.77
541.29	561.73
541.46	507.90
541.62	594.50
541.79	601.52
541.96	587.47
542.13	599.18
542.30	575.77
542.47	578.11
542.63	510.24
542.80	545.34
542.97	564.07
543.14	552.37
543.31	533.64
543.48	489.17
543.64	592.16
543.81	461.09
543.98	512.58
544.15	468.11
544.32	517.26
544.48	507.90
544.65	447.04
544.82	531.30
544.99	505.56
545.16	507.90
545.32	531.30
545.49	765.36
545.66	994.73
545.83	1086.01
546.00	854.30
546.16	737.27
546.33	610.88
546.50	486.83
546.67	447.04
546.83	489.17
547.00	479.81
547.17	411.93
547.34	388.53
547.50	423.64
547.67	447.04
547.84	400.23
548.00	456.40
548.17	454.06
548.34	409.59
548.51	402.57
548.67	505.56
548.84	454.06
549.01	376.83
549.18	400.23
549.34	416.62
549.51	358.10
549.68	376.83
549.84	358.10
550.01	320.65
550.18	458.74
550.34	411.93
550.51	322.99
550.68	454.06
550.84	365.12
551.01	330.02
551.18	355.76
551.34	283.20
551.51	255.12
551.68	320.65
551.84	360.44
552.01	339.38
552.18	346.40
552.34	311.29
552.51	292.57
552.68	337.04
552.84	280.86
553.01	241.08
553.18	271.50
553.34	339.38
553.51	339.38
553.67	337.04
553.84	381.51
554.01	292.57
554.17	355.76
554.34	250.44
554.51	269.16
554.67	325.33
554.84	245.76
555.00	325.33
555.17	245.76
555.33	280.86
555.50	318.31
555.67	269.16
555.83	224.69
556.00	294.91
556.16	423.64
556.33	308.95
556.50	287.89
556.66	224.69
556.83	227.03
556.99	292.57
557.16	285.55
557.32	271.50
557.49	308.95
557.65	318.31
557.82	212.99
557.98	273.84
558.15	290.23
558.32	304.27
558.48	220.01
558.65	290.23
558.81	301.93
558.98	255.12
559.14	264.48
559.31	231.71
559.47	311.29
559.64	266.82
559.80	308.95
559.97	271.50
560.13	276.18
560.30	266.82
560.46	250.44
560.63	245.76
560.79	280.86
560.96	198.95
561.12	196.60
561.29	292.57
561.45	212.99
561.61	262.14
561.78	290.23
561.94	351.08
562.11	299.59
562.27	252.78
562.44	229.37
562.60	266.82
562.77	337.04
562.93	353.42
563.10	285.55
563.26	222.35
563.42	271.50
563.59	269.16
563.75	264.48
563.92	224.69
564.08	311.29
564.24	248.10
564.41	290.23
564.57	285.55
564.74	320.65
564.90	313.63
565.07	201.29
565.23	285.55
565.39	388.53
565.56	257.46
565.72	381.51
565.88	315.97
566.05	257.46
566.21	273.84
566.38	229.37
566.54	280.86
566.70	259.80
566.87	252.78
567.03	311.29
567.19	229.37
567.36	229.37
567.52	271.50
567.68	269.16
567.85	257.46
568.01	236.39
568.17	198.95
568.34	273.84
568.50	271.50
568.66	245.76
568.83	318.31
568.99	276.18
569.15	297.25
569.32	330.02
569.48	262.14
569.64	264.48
569.81	271.50
569.97	320.65
570.13	271.50
570.30	259.80
570.46	180.22
570.62	236.39
570.78	252.78
570.95	196.60
571.11	301.93
571.27	379.17
571.43	327.68
571.60	330.02
571.76	330.02
571.92	285.55
572.09	252.78
572.25	327.68
572.41	205.97
572.57	306.61
572.74	297.25
572.90	313.63
573.06	304.27
573.22	262.14
573.38	301.93
573.55	290.23
573.71	355.76
573.87	299.59
574.03	210.65
574.20	248.10
574.36	369.80
574.52	360.44
574.68	301.93
574.84	287.89
575.01	278.52
575.17	301.93
575.33	201.29
575.49	262.14
575.65	322.99
575.82	425.98
575.98	608.54
576.14	758.33
576.30	697.48
576.46	685.78
576.62	648.33
576.79	566.41
576.95	425.98
577.11	386.19
577.27	365.12
577.43	341.72
577.59	304.27
577.75	306.61
577.92	283.20
578.08	334.70
578.24	313.63
578.40	388.53
578.56	425.98
578.72	447.04
578.88	491.51
579.04	393.21
579.21	353.42
579.37	344.06
579.53	346.40
579.69	337.04
579.85	320.65
580.01	477.47
580.17	451.72
580.33	517.26
580.49	461.09
580.65	496.19
580.82	383.85
580.98	365.12
581.14	440.02
581.30	465.77
581.46	484.49
581.62	566.41
581.78	653.01
581.94	582.79
582.10	580.45
582.26	596.84
582.42	451.72
582.58	557.05
582.74	472.79
582.90	566.41
583.06	543.00
583.22	503.22
583.38	557.05
583.54	575.77
583.70	695.14
583.86	741.95
584.02	959.62
584.18	1011.11
584.34	1416.02
584.50	3452.29
584.66	24966.49
584.82	56959.28
584.98	65282.22
585.14	62244.21
585.30	47913.11
585.46	29439.26
585.62	18045.53
585.78	8514.87
585.94	3417.18
586.10	1636.03
586.26	1207.72
586.42	919.83
586.58	772.38
586.74	711.52
586.90	784.08
587.06	770.04
587.22	650.67
587.38	725.57
587.54	1341.13
587.70	3676.98
587.86	5966.03
588.02	6417.75
588.18	4500.85
588.34	2867.16
588.49	1860.73
588.65	1088.35
588.81	716.20
588.97	531.30
589.13	437.68
589.29	465.77
589.45	423.64
589.61	393.21
589.77	421.30
589.93	505.56
590.08	416.62
590.24	505.56
590.40	402.57
590.56	486.83
590.72	428.32
590.88	376.83
591.04	404.91
591.20	496.19
591.35	386.19
591.51	367.46
591.67	404.91
591.83	278.52
591.99	346.40
592.15	465.77
592.31	414.27
592.46	381.51
592.62	430.66
592.78	400.23
592.94	376.83
593.10	447.04
593.26	433.00
593.41	463.43
593.57	470.45
593.73	798.12
593.89	3169.09
594.05	7653.55
594.20	11054.35
594.36	10506.66
594.52	6944.37
594.68	4327.65
594.84	2850.77
594.99	1629.01
595.15	837.91
595.31	472.79
595.47	435.34
595.62	414.27
595.78	374.49
595.94	402.57
596.10	409.59
596.25	437.68
596.41	381.51
596.57	337.04
596.73	322.99
596.88	594.50
597.04	1558.80
597.20	2452.88
597.36	2864.82
597.51	2106.48
597.67	1514.33
597.83	1001.75
597.99	772.38
598.14	482.15
598.30	528.96
598.46	444.70
598.61	395.55
598.77	428.32
598.93	358.10
599.09	341.72
599.24	376.83
599.40	369.80
599.56	318.31
599.71	332.36
599.87	362.78
600.03	322.99
600.18	290.23
600.34	285.55
600.50	257.46
600.65	346.40
600.81	271.50
600.97	241.08
601.12	229.37
601.28	327.68
601.44	341.72
601.59	250.44
601.75	264.48
601.91	285.55
602.06	393.21
602.22	409.59
602.37	830.89
602.53	1783.49
602.69	2759.49
602.84	2848.43
603.00	2101.80
603.16	1434.75
603.31	1029.84
603.47	746.63
603.62	475.13
603.78	383.85
603.94	362.78
604.09	320.65
604.25	365.12
604.40	365.12
604.56	332.36
604.71	318.31
604.87	285.55
605.03	365.12
605.18	365.12
605.34	327.68
605.49	344.06
605.65	390.87
605.80	358.10
605.96	299.59
606.12	351.08
606.27	390.87
606.43	355.76
606.58	514.92
606.74	908.13
606.89	3602.08
607.05	7171.40
607.20	9301.29
607.36	7775.26
607.51	5303.65
607.67	3447.61
607.82	2221.17
607.98	1359.85
608.13	795.78
608.29	582.79
608.44	566.41
608.60	610.88
608.75	671.73
608.91	1275.59
609.06	5605.58
609.22	12353.35
609.37	16355.66
609.53	14176.62
609.68	9551.73
609.84	6211.78
609.99	4283.18
610.15	2516.08
