SpectraSuite Data File
++++++++++++++++++++++++++++++++++++
Date: Fri Oct 04 11:34:00 GMT-05:00 2013
User: price-jones
Dark Spectrum Present: No
Reference Spectrum Present: No
Number of Sampled Component Spectra: 1
Spectrometers: USB2+H05261
Integration Time (usec): 100000 (USB2+H05261)
Spectra Averaged: 1 (USB2+H05261)
Boxcar Smoothing: 0 (USB2+H05261)
Correct for Electrical Dark: No (USB2+H05261)
Strobe/Lamp Enabled: No (USB2+H05261)
Correct for Detector Non-linearity: No (USB2+H05261)
Correct for Stray Light: No (USB2+H05261)
Number of Pixels in Processed Spectrum: 2048
>>>>>Begin Processed Spectral Data<<<<<
365.73	117.03
365.92	117.03
366.12	117.03
366.32	0.00
366.52	0.00
366.72	37.45
366.91	14.04
367.11	0.00
367.31	0.00
367.51	0.00
367.70	0.00
367.90	0.00
368.10	0.00
368.30	0.00
368.49	0.00
368.69	4.68
368.89	0.00
369.09	0.00
369.28	0.00
369.48	14.04
369.68	9.36
369.87	46.81
370.07	18.72
370.27	51.49
370.47	86.60
370.66	51.49
370.86	65.54
371.06	56.17
371.25	56.17
371.45	91.28
371.65	149.79
371.84	93.62
372.04	105.32
372.24	119.37
372.44	39.79
372.63	152.13
372.83	166.18
373.03	142.77
373.22	159.16
373.42	30.43
373.62	77.24
373.81	95.96
374.01	105.32
374.21	210.65
374.40	147.45
374.60	208.31
374.79	74.90
374.99	140.43
375.19	126.39
375.38	166.18
375.58	173.20
375.78	189.58
375.97	201.29
376.17	227.03
376.37	173.20
376.56	177.88
376.76	119.37
376.95	215.33
377.15	131.07
377.35	215.33
377.54	163.84
377.74	198.95
377.93	119.37
378.13	163.84
378.33	166.18
378.52	128.73
378.72	147.45
378.91	63.19
379.11	175.54
379.31	102.98
379.50	91.28
379.70	201.29
379.89	182.56
380.09	140.43
380.28	114.69
380.48	131.07
380.68	133.41
380.87	189.58
381.07	93.62
381.26	133.41
381.46	159.16
381.65	166.18
381.85	98.30
382.04	161.50
382.24	238.73
382.43	142.77
382.63	152.13
382.83	138.09
383.02	145.11
383.22	156.82
383.41	100.64
383.61	156.82
383.80	166.18
384.00	110.01
384.19	128.73
384.39	166.18
384.58	114.69
384.78	152.13
384.97	161.50
385.17	131.07
385.36	135.75
385.56	145.11
385.75	117.03
385.95	117.03
386.14	107.66
386.34	156.82
386.53	124.05
386.72	196.60
386.92	175.54
387.11	145.11
387.31	142.77
387.50	154.48
387.70	84.26
387.89	100.64
388.09	161.50
388.28	135.75
388.48	117.03
388.67	177.88
388.86	161.50
389.06	170.86
389.25	117.03
389.45	140.43
389.64	224.69
389.84	208.31
390.03	121.71
390.22	119.37
390.42	100.64
390.61	145.11
390.81	126.39
391.00	187.24
391.19	236.39
391.39	121.71
391.58	110.01
391.78	117.03
391.97	156.82
392.16	119.37
392.36	184.90
392.55	180.22
392.75	145.11
392.94	93.62
393.13	154.48
393.33	212.99
393.52	117.03
393.71	170.86
393.91	154.48
394.10	58.51
394.29	107.66
394.49	145.11
394.68	177.88
394.88	175.54
395.07	180.22
395.26	147.45
395.46	102.98
395.65	149.79
395.84	166.18
396.04	194.26
396.23	86.60
396.42	124.05
396.62	114.69
396.81	184.90
397.00	156.82
397.19	177.88
397.39	128.73
397.58	194.26
397.77	124.05
397.97	145.11
398.16	121.71
398.35	187.24
398.55	112.35
398.74	112.35
398.93	168.52
399.12	161.50
399.32	184.90
399.51	135.75
399.70	175.54
399.90	173.20
400.09	98.30
400.28	133.41
400.47	168.52
400.67	184.90
400.86	81.92
401.05	114.69
401.24	124.05
401.44	224.69
401.63	105.32
401.82	175.54
402.01	145.11
402.21	163.84
402.40	163.84
402.59	196.60
402.78	84.26
402.97	138.09
403.17	173.20
403.36	117.03
403.55	196.60
403.74	119.37
403.93	203.63
404.13	184.90
404.32	173.20
404.51	112.35
404.70	163.84
404.89	77.24
405.09	170.86
405.28	138.09
405.47	140.43
405.66	182.56
405.85	166.18
406.05	117.03
406.24	154.48
406.43	152.13
406.62	194.26
406.81	194.26
407.00	259.80
407.20	201.29
407.39	114.69
407.58	227.03
407.77	187.24
407.96	117.03
408.15	191.92
408.34	147.45
408.54	126.39
408.73	124.05
408.92	117.03
409.11	175.54
409.30	248.10
409.49	88.94
409.68	117.03
409.87	163.84
410.07	168.52
410.26	149.79
410.45	152.13
410.64	175.54
410.83	168.52
411.02	140.43
411.21	131.07
411.40	128.73
411.59	133.41
411.78	133.41
411.98	166.18
412.17	117.03
412.36	205.97
412.55	220.01
412.74	184.90
412.93	175.54
413.12	133.41
413.31	198.95
413.50	170.86
413.69	182.56
413.88	95.96
414.07	124.05
414.26	147.45
414.45	201.29
414.64	156.82
414.83	203.63
415.02	205.97
415.22	175.54
415.41	145.11
415.60	163.84
415.79	166.18
415.98	203.63
416.17	163.84
416.36	212.99
416.55	180.22
416.74	147.45
416.93	128.73
417.12	117.03
417.31	117.03
417.50	173.20
417.69	189.58
417.88	163.84
418.07	121.71
418.26	107.66
418.45	145.11
418.64	191.92
418.83	145.11
419.02	142.77
419.21	126.39
419.39	182.56
419.58	117.03
419.77	198.95
419.96	194.26
420.15	210.65
420.34	154.48
420.53	124.05
420.72	156.82
420.91	135.75
421.10	98.30
421.29	114.69
421.48	145.11
421.67	205.97
421.86	119.37
422.05	119.37
422.24	191.92
422.43	163.84
422.61	145.11
422.80	175.54
422.99	124.05
423.18	102.98
423.37	175.54
423.56	138.09
423.75	208.31
423.94	166.18
424.13	196.60
424.32	152.13
424.50	131.07
424.69	138.09
424.88	203.63
425.07	100.64
425.26	217.67
425.45	149.79
425.64	154.48
425.83	110.01
426.01	173.20
426.20	119.37
426.39	217.67
426.58	159.16
426.77	149.79
426.96	182.56
427.15	177.88
427.33	205.97
427.52	215.33
427.71	168.52
427.90	177.88
428.09	180.22
428.28	166.18
428.46	133.41
428.65	138.09
428.84	138.09
429.03	238.73
429.22	161.50
429.40	117.03
429.59	166.18
429.78	138.09
429.97	212.99
430.16	81.92
430.34	220.01
430.53	177.88
430.72	170.86
430.91	175.54
431.10	161.50
431.28	131.07
431.47	175.54
431.66	117.03
431.85	140.43
432.03	163.84
432.22	187.24
432.41	161.50
432.60	208.31
432.79	107.66
432.97	236.39
433.16	166.18
433.35	138.09
433.54	189.58
433.72	191.92
433.91	236.39
434.10	163.84
434.28	191.92
434.47	142.77
434.66	243.42
434.85	187.24
435.03	170.86
435.22	358.10
435.41	404.91
435.59	400.23
435.78	308.95
435.97	177.88
436.16	205.97
436.34	156.82
436.53	173.20
436.72	241.08
436.90	175.54
437.09	184.90
437.28	159.16
437.46	177.88
437.65	187.24
437.84	201.29
438.02	222.35
438.21	203.63
438.40	250.44
438.58	236.39
438.77	187.24
438.96	100.64
439.14	133.41
439.33	184.90
439.52	180.22
439.70	161.50
439.89	168.52
440.08	234.05
440.26	133.41
440.45	205.97
440.63	215.33
440.82	182.56
441.01	217.67
441.19	222.35
441.38	184.90
441.57	128.73
441.75	217.67
441.94	145.11
442.12	114.69
442.31	156.82
442.50	142.77
442.68	133.41
442.87	180.22
443.05	191.92
443.24	147.45
443.43	175.54
443.61	215.33
443.80	93.62
443.98	191.92
444.17	196.60
444.35	175.54
444.54	166.18
444.73	182.56
444.91	227.03
445.10	173.20
445.28	273.84
445.47	224.69
445.65	156.82
445.84	131.07
446.02	170.86
446.21	152.13
446.39	217.67
446.58	194.26
446.77	208.31
446.95	91.28
447.14	229.37
447.32	194.26
447.51	191.92
447.69	161.50
447.88	180.22
448.06	208.31
448.25	124.05
448.43	227.03
448.62	93.62
448.80	161.50
448.99	184.90
449.17	210.65
449.36	145.11
449.54	173.20
449.73	187.24
449.91	175.54
450.10	196.60
450.28	236.39
450.46	248.10
450.65	238.73
450.83	191.92
451.02	231.71
451.20	262.14
451.39	161.50
451.57	203.63
451.76	208.31
451.94	163.84
452.13	180.22
452.31	243.42
452.49	229.37
452.68	133.41
452.86	145.11
453.05	159.16
453.23	180.22
453.42	191.92
453.60	217.67
453.78	142.77
453.97	189.58
454.15	124.05
454.34	189.58
454.52	152.13
454.70	145.11
454.89	264.48
455.07	184.90
455.26	191.92
455.44	212.99
455.62	205.97
455.81	215.33
455.99	187.24
456.17	255.12
456.36	173.20
456.54	208.31
456.73	201.29
456.91	203.63
457.09	196.60
457.28	264.48
457.46	245.76
457.64	205.97
457.83	156.82
458.01	217.67
458.19	201.29
458.38	198.95
458.56	236.39
458.74	203.63
458.93	119.37
459.11	159.16
459.29	215.33
459.48	252.78
459.66	276.18
459.84	222.35
460.03	229.37
460.21	208.31
460.39	266.82
460.57	241.08
460.76	276.18
460.94	131.07
461.12	257.46
461.31	220.01
461.49	124.05
461.67	93.62
461.85	126.39
462.04	135.75
462.22	631.94
462.40	238.73
462.59	196.60
462.77	224.69
462.95	241.08
463.13	234.05
463.32	147.45
463.50	173.20
463.68	294.91
463.86	166.18
464.05	145.11
464.23	255.12
464.41	196.60
464.59	180.22
464.78	215.33
464.96	224.69
465.14	191.92
465.32	168.52
465.50	175.54
465.69	198.95
465.87	142.77
466.05	220.01
466.23	184.90
466.41	180.22
466.60	142.77
466.78	208.31
466.96	152.13
467.14	175.54
467.32	243.42
467.51	170.86
467.69	285.55
467.87	269.16
468.05	166.18
468.23	205.97
468.41	227.03
468.60	222.35
468.78	220.01
468.96	110.01
469.14	250.44
469.32	163.84
469.50	145.11
469.69	149.79
469.87	177.88
470.05	241.08
470.23	210.65
470.41	149.79
470.59	227.03
470.77	189.58
470.95	234.05
471.14	292.57
471.32	243.42
471.50	208.31
471.68	191.92
471.86	149.79
472.04	231.71
472.22	194.26
472.40	180.22
472.58	194.26
472.77	175.54
472.95	189.58
473.13	217.67
473.31	145.11
473.49	180.22
473.67	149.79
473.85	194.26
474.03	220.01
474.21	212.99
474.39	203.63
474.57	252.78
474.75	245.76
474.93	86.60
475.12	215.33
475.30	128.73
475.48	212.99
475.66	196.60
475.84	173.20
476.02	161.50
476.20	173.20
476.38	161.50
476.56	308.95
476.74	266.82
476.92	166.18
477.10	208.31
477.28	220.01
477.46	250.44
477.64	203.63
477.82	266.82
478.00	210.65
478.18	231.71
478.36	220.01
478.54	135.75
478.72	175.54
478.90	149.79
479.08	166.18
479.26	222.35
479.44	243.42
479.62	196.60
479.80	224.69
479.98	238.73
480.16	217.67
480.34	205.97
480.52	184.90
480.70	189.58
480.88	229.37
481.06	170.86
481.24	252.78
481.41	175.54
481.59	259.80
481.77	170.86
481.95	208.31
482.13	182.56
482.31	229.37
482.49	273.84
482.67	259.80
482.85	196.60
483.03	248.10
483.21	170.86
483.39	227.03
483.57	276.18
483.74	271.50
483.92	269.16
484.10	138.09
484.28	147.45
484.46	266.82
484.64	252.78
484.82	222.35
485.00	248.10
485.18	236.39
485.35	198.95
485.53	180.22
485.71	297.25
485.89	234.05
486.07	238.73
486.25	238.73
486.43	163.84
486.61	217.67
486.78	283.20
486.96	194.26
487.14	201.29
487.32	257.46
487.50	287.89
487.68	187.24
487.85	205.97
488.03	194.26
488.21	299.59
488.39	266.82
488.57	264.48
488.75	297.25
488.92	503.22
489.10	269.16
489.28	308.95
489.46	215.33
489.64	234.05
489.81	250.44
489.99	259.80
490.17	252.78
490.35	308.95
490.53	262.14
490.70	280.86
490.88	250.44
491.06	264.48
491.24	297.25
491.41	294.91
491.59	264.48
491.77	292.57
491.95	212.99
492.13	159.16
492.30	217.67
492.48	318.31
492.66	271.50
492.84	280.86
493.01	248.10
493.19	215.33
493.37	292.57
493.54	262.14
493.72	196.60
493.90	177.88
494.08	189.58
494.25	259.80
494.43	187.24
494.61	262.14
494.79	201.29
494.96	163.84
495.14	231.71
495.32	262.14
495.49	337.04
495.67	189.58
495.85	217.67
496.02	198.95
496.20	210.65
496.38	299.59
496.55	297.25
496.73	231.71
496.91	191.92
497.09	236.39
497.26	250.44
497.44	187.24
497.62	259.80
497.79	290.23
497.97	227.03
498.14	236.39
498.32	276.18
498.50	238.73
498.67	292.57
498.85	252.78
499.03	252.78
499.20	269.16
499.38	161.50
499.56	264.48
499.73	252.78
499.91	280.86
500.08	229.37
500.26	203.63
500.44	168.52
500.61	243.42
500.79	215.33
500.97	264.48
501.14	248.10
501.32	287.89
501.49	264.48
501.67	220.01
501.84	252.78
502.02	224.69
502.20	245.76
502.37	243.42
502.55	262.14
502.72	217.67
502.90	187.24
503.07	220.01
503.25	220.01
503.43	208.31
503.60	205.97
503.78	290.23
503.95	259.80
504.13	180.22
504.30	299.59
504.48	248.10
504.65	175.54
504.83	299.59
505.01	252.78
505.18	222.35
505.36	238.73
505.53	241.08
505.71	248.10
505.88	301.93
506.06	308.95
506.23	248.10
506.41	290.23
506.58	203.63
506.76	292.57
506.93	252.78
507.11	266.82
507.28	266.82
507.46	222.35
507.63	255.12
507.81	220.01
507.98	215.33
508.16	276.18
508.33	203.63
508.50	271.50
508.68	220.01
508.85	191.92
509.03	215.33
509.20	255.12
509.38	245.76
509.55	238.73
509.73	231.71
509.90	276.18
510.08	203.63
510.25	236.39
510.42	208.31
510.60	217.67
510.77	238.73
510.95	255.12
511.12	259.80
511.30	243.42
511.47	252.78
511.64	210.65
511.82	250.44
511.99	149.79
512.17	290.23
512.34	222.35
512.51	337.04
512.69	205.97
512.86	299.59
513.04	205.97
513.21	210.65
513.38	241.08
513.56	241.08
513.73	304.27
513.90	278.52
514.08	177.88
514.25	203.63
514.43	299.59
514.60	194.26
514.77	224.69
514.95	238.73
515.12	203.63
515.29	306.61
515.47	278.52
515.64	301.93
515.81	285.55
515.99	217.67
516.16	234.05
516.33	259.80
516.51	269.16
516.68	234.05
516.85	236.39
517.03	222.35
517.20	273.84
517.37	269.16
517.54	201.29
517.72	248.10
517.89	238.73
518.06	173.20
518.24	259.80
518.41	294.91
518.58	262.14
518.75	266.82
518.93	311.29
519.10	203.63
519.27	304.27
519.45	262.14
519.62	229.37
519.79	203.63
519.96	224.69
520.14	297.25
520.31	297.25
520.48	250.44
520.65	255.12
520.83	255.12
521.00	318.31
521.17	241.08
521.34	290.23
521.52	252.78
521.69	198.95
521.86	238.73
522.03	290.23
522.20	313.63
522.38	189.58
522.55	262.14
522.72	248.10
522.89	308.95
523.07	283.20
523.24	252.78
523.41	184.90
523.58	224.69
523.75	278.52
523.92	273.84
524.10	332.36
524.27	229.37
524.44	241.08
524.61	278.52
524.78	231.71
524.96	273.84
525.13	184.90
525.30	348.74
525.47	271.50
525.64	278.52
525.81	306.61
525.98	262.14
526.16	243.42
526.33	187.24
526.50	180.22
526.67	177.88
526.84	220.01
527.01	217.67
527.18	187.24
527.36	255.12
527.53	243.42
527.70	203.63
527.87	259.80
528.04	257.46
528.21	278.52
528.38	283.20
528.55	365.12
528.72	255.12
528.89	322.99
529.07	259.80
529.24	273.84
529.41	381.51
529.58	280.86
529.75	278.52
529.92	259.80
530.09	266.82
530.26	315.97
530.43	234.05
530.60	245.76
530.77	308.95
530.94	325.33
531.11	297.25
531.28	297.25
531.46	229.37
531.63	266.82
531.80	248.10
531.97	306.61
532.14	266.82
532.31	278.52
532.48	330.02
532.65	283.20
532.82	236.39
532.99	205.97
533.16	283.20
533.33	243.42
533.50	220.01
533.67	208.31
533.84	304.27
534.01	306.61
534.18	285.55
534.35	306.61
534.52	292.57
534.69	327.68
534.86	220.01
535.03	297.25
535.20	285.55
535.37	290.23
535.54	252.78
535.71	224.69
535.88	379.17
536.05	287.89
536.22	395.55
536.38	170.86
536.55	220.01
536.72	264.48
536.89	297.25
537.06	264.48
537.23	252.78
537.40	227.03
537.57	283.20
537.74	344.06
537.91	318.31
538.08	250.44
538.25	332.36
538.42	227.03
538.59	290.23
538.75	259.80
538.92	341.72
539.09	266.82
539.26	334.70
539.43	447.04
539.60	379.17
539.77	433.00
539.94	414.27
540.11	381.51
540.28	397.89
540.44	376.83
540.61	351.08
540.78	442.36
540.95	440.02
541.12	528.96
541.29	404.91
541.46	414.27
541.62	479.81
541.79	493.85
541.96	425.98
542.13	437.68
542.30	416.62
542.47	393.21
542.63	447.04
542.80	454.06
542.97	463.43
543.14	393.21
543.31	456.40
543.48	388.53
543.64	479.81
543.81	444.70
543.98	465.77
544.15	442.36
544.32	393.21
544.48	411.93
544.65	369.80
544.82	393.21
544.99	402.57
545.16	416.62
545.32	463.43
545.49	582.79
545.66	760.67
545.83	863.66
546.00	690.46
546.16	582.79
546.33	461.09
546.50	388.53
546.67	475.13
546.83	365.12
547.00	306.61
547.17	367.46
547.34	322.99
547.50	400.23
547.67	402.57
547.84	339.38
548.00	344.06
548.17	315.97
548.34	308.95
548.51	346.40
548.67	393.21
548.84	315.97
549.01	390.87
549.18	351.08
549.34	346.40
549.51	297.25
549.68	320.65
549.84	346.40
550.01	280.86
550.18	470.45
550.34	327.68
550.51	320.65
550.68	327.68
550.84	264.48
551.01	337.04
551.18	400.23
551.34	353.42
551.51	330.02
551.68	355.76
551.84	320.65
552.01	299.59
552.18	278.52
552.34	236.39
552.51	252.78
552.68	292.57
552.84	266.82
553.01	346.40
553.18	245.76
553.34	271.50
553.51	234.05
553.67	283.20
553.84	287.89
554.01	245.76
554.17	262.14
554.34	205.97
554.51	215.33
554.67	362.78
554.84	290.23
555.00	255.12
555.17	262.14
555.33	311.29
555.50	325.33
555.67	304.27
555.83	273.84
556.00	266.82
556.16	360.44
556.33	285.55
556.50	308.95
556.66	269.16
556.83	280.86
556.99	210.65
557.16	236.39
557.32	252.78
557.49	187.24
557.65	287.89
557.82	198.95
557.98	217.67
558.15	257.46
558.32	220.01
558.48	327.68
558.65	224.69
558.81	250.44
558.98	245.76
559.14	360.44
559.31	301.93
559.47	313.63
559.64	208.31
559.80	280.86
559.97	250.44
560.13	278.52
560.30	327.68
560.46	196.60
560.63	271.50
560.79	304.27
560.96	243.42
561.12	255.12
561.29	241.08
561.45	208.31
561.61	278.52
561.78	304.27
561.94	280.86
562.11	276.18
562.27	259.80
562.44	271.50
562.60	236.39
562.77	278.52
562.93	318.31
563.10	241.08
563.26	159.16
563.42	201.29
563.59	217.67
563.75	229.37
563.92	241.08
564.08	205.97
564.24	201.29
564.41	301.93
564.57	224.69
564.74	210.65
564.90	306.61
565.07	351.08
565.23	259.80
565.39	224.69
565.56	198.95
565.72	304.27
565.88	243.42
566.05	182.56
566.21	241.08
566.38	245.76
566.54	227.03
566.70	257.46
566.87	238.73
567.03	220.01
567.19	257.46
567.36	311.29
567.52	224.69
567.68	212.99
567.85	189.58
568.01	285.55
568.17	301.93
568.34	292.57
568.50	292.57
568.66	152.13
568.83	236.39
568.99	175.54
569.15	220.01
569.32	241.08
569.48	248.10
569.64	191.92
569.81	241.08
569.97	264.48
570.13	276.18
570.30	320.65
570.46	217.67
570.62	168.52
570.78	273.84
570.95	301.93
571.11	280.86
571.27	397.89
571.43	257.46
571.60	259.80
571.76	301.93
571.92	250.44
572.09	266.82
572.25	269.16
572.41	229.37
572.57	212.99
572.74	236.39
572.90	297.25
573.06	180.22
573.22	297.25
573.38	269.16
573.55	283.20
573.71	297.25
573.87	215.33
574.03	212.99
574.20	194.26
574.36	306.61
574.52	257.46
574.68	231.71
574.84	285.55
575.01	271.50
575.17	280.86
575.33	245.76
575.49	278.52
575.65	327.68
575.82	238.73
575.98	315.97
576.14	252.78
576.30	355.76
576.46	320.65
576.62	393.21
576.79	414.27
576.95	330.02
577.11	290.23
577.27	297.25
577.43	285.55
577.59	327.68
577.75	238.73
577.92	297.25
578.08	250.44
578.24	212.99
578.40	266.82
578.56	365.12
578.72	428.32
578.88	358.10
579.04	320.65
579.21	355.76
579.37	292.57
579.53	273.84
579.69	332.36
579.85	271.50
580.01	304.27
580.17	191.92
580.33	208.31
580.49	301.93
580.65	177.88
580.82	198.95
580.98	313.63
581.14	278.52
581.30	283.20
581.46	320.65
581.62	283.20
581.78	290.23
581.94	248.10
582.10	245.76
582.26	341.72
582.42	299.59
582.58	322.99
582.74	273.84
582.90	205.97
583.06	301.93
583.22	369.80
583.38	285.55
583.54	252.78
583.70	278.52
583.86	264.48
584.02	315.97
584.18	252.78
584.34	386.19
584.50	444.70
584.66	1409.00
584.82	3215.90
584.98	4180.20
585.14	3887.63
585.30	2576.93
585.46	1675.82
585.62	1093.03
585.78	662.37
585.94	437.68
586.10	386.19
586.26	304.27
586.42	301.93
586.58	297.25
586.74	395.55
586.90	341.72
587.06	301.93
587.22	332.36
587.38	365.12
587.54	311.29
587.70	463.43
587.86	608.54
588.02	592.16
588.18	456.40
588.34	360.44
588.49	297.25
588.65	266.82
588.81	299.59
588.97	257.46
589.13	248.10
589.29	234.05
589.45	257.46
589.61	220.01
589.77	299.59
589.93	313.63
590.08	266.82
590.24	337.04
590.40	212.99
590.56	278.52
590.72	271.50
590.88	243.42
591.04	243.42
591.20	222.35
591.35	259.80
591.51	276.18
591.67	301.93
591.83	231.71
591.99	271.50
592.15	285.55
592.31	341.72
592.46	313.63
592.62	222.35
592.78	238.73
592.94	259.80
593.10	241.08
593.26	269.16
593.41	238.73
593.57	236.39
593.73	271.50
593.89	444.70
594.05	589.82
594.20	765.36
594.36	727.91
594.52	552.37
594.68	397.89
594.84	360.44
594.99	348.74
595.15	301.93
595.31	252.78
595.47	201.29
595.62	203.63
595.78	259.80
595.94	229.37
596.10	301.93
596.25	266.82
596.41	325.33
596.57	234.05
596.73	222.35
596.88	276.18
597.04	311.29
597.20	301.93
597.36	344.06
597.51	308.95
597.67	248.10
597.83	308.95
597.99	348.74
598.14	278.52
598.30	285.55
598.46	299.59
598.61	290.23
598.77	238.73
598.93	224.69
599.09	285.55
599.24	313.63
599.40	351.08
599.56	229.37
599.71	245.76
599.87	313.63
600.03	266.82
600.18	224.69
600.34	306.61
600.50	222.35
600.65	313.63
600.81	311.29
600.97	238.73
601.12	236.39
601.28	257.46
601.44	229.37
601.59	273.84
601.75	241.08
601.91	175.54
602.06	182.56
602.22	285.55
602.37	292.57
602.53	276.18
602.69	449.38
602.84	315.97
603.00	353.42
603.16	381.51
603.31	360.44
603.47	292.57
603.62	220.01
603.78	264.48
603.94	248.10
604.09	283.20
604.25	252.78
604.40	257.46
604.56	170.86
604.71	257.46
604.87	180.22
605.03	229.37
605.18	269.16
605.34	325.33
605.49	245.76
605.65	210.65
605.80	189.58
605.96	243.42
606.12	322.99
606.27	215.33
606.43	271.50
606.58	301.93
606.74	374.49
606.89	395.55
607.05	648.33
607.20	702.16
607.36	587.47
607.51	498.53
607.67	376.83
607.82	334.70
607.98	294.91
608.13	269.16
608.29	255.12
608.44	351.08
608.60	393.21
608.75	311.29
608.91	325.33
609.06	578.11
609.22	854.30
609.37	1041.54
609.53	931.53
609.68	763.01
609.84	580.45
609.99	517.26
610.15	491.51
610.30	507.90
610.46	489.17
610.61	622.58
610.76	653.01
