SpectraSuite Data File
++++++++++++++++++++++++++++++++++++
Date: Fri Oct 04 11:34:02 GMT-05:00 2013
User: price-jones
Dark Spectrum Present: No
Reference Spectrum Present: No
Number of Sampled Component Spectra: 1
Spectrometers: USB2+H05261
Integration Time (usec): 100000 (USB2+H05261)
Spectra Averaged: 1 (USB2+H05261)
Boxcar Smoothing: 0 (USB2+H05261)
Correct for Electrical Dark: No (USB2+H05261)
Strobe/Lamp Enabled: No (USB2+H05261)
Correct for Detector Non-linearity: No (USB2+H05261)
Correct for Stray Light: No (USB2+H05261)
Number of Pixels in Processed Spectrum: 2048
>>>>>Begin Processed Spectral Data<<<<<
365.73	140.43
365.92	140.43
366.12	140.43
366.32	0.00
366.52	0.00
366.72	7.02
366.91	44.47
367.11	28.09
367.31	0.00
367.51	0.00
367.70	30.43
367.90	21.06
368.10	0.00
368.30	0.00
368.49	0.00
368.69	0.00
368.89	0.00
369.09	0.00
369.28	0.00
369.48	42.13
369.68	0.00
369.87	14.04
370.07	0.00
370.27	135.75
370.47	124.05
370.66	58.51
370.86	126.39
371.06	81.92
371.25	65.54
371.45	42.13
371.65	147.45
371.84	72.56
372.04	72.56
372.24	100.64
372.44	110.01
372.63	67.88
372.83	138.09
373.03	63.19
373.22	210.65
373.42	166.18
373.62	117.03
373.81	149.79
374.01	149.79
374.21	173.20
374.40	142.77
374.60	170.86
374.79	161.50
374.99	191.92
375.19	220.01
375.38	117.03
375.58	117.03
375.78	201.29
375.97	107.66
376.17	138.09
376.37	140.43
376.56	194.26
376.76	161.50
376.95	194.26
377.15	142.77
377.35	173.20
377.54	152.13
377.74	124.05
377.93	124.05
378.13	119.37
378.33	91.28
378.52	77.24
378.72	126.39
378.91	203.63
379.11	135.75
379.31	117.03
379.50	128.73
379.70	156.82
379.89	121.71
380.09	138.09
380.28	177.88
380.48	196.60
380.68	98.30
380.87	112.35
381.07	149.79
381.26	156.82
381.46	187.24
381.65	131.07
381.85	79.58
382.04	135.75
382.24	149.79
382.43	131.07
382.63	128.73
382.83	98.30
383.02	159.16
383.22	154.48
383.41	98.30
383.61	114.69
383.80	117.03
384.00	166.18
384.19	88.94
384.39	126.39
384.58	140.43
384.78	161.50
384.97	84.26
385.17	119.37
385.36	131.07
385.56	145.11
385.75	117.03
385.95	60.85
386.14	145.11
386.34	124.05
386.53	152.13
386.72	56.17
386.92	117.03
387.11	117.03
387.31	166.18
387.50	79.58
387.70	84.26
387.89	229.37
388.09	133.41
388.28	187.24
388.48	46.81
388.67	131.07
388.86	126.39
389.06	135.75
389.25	229.37
389.45	156.82
389.64	229.37
389.84	198.95
390.03	121.71
390.22	142.77
390.42	149.79
390.61	138.09
390.81	86.60
391.00	126.39
391.19	159.16
391.39	135.75
391.58	119.37
391.78	110.01
391.97	93.62
392.16	126.39
392.36	177.88
392.55	203.63
392.75	138.09
392.94	119.37
393.13	173.20
393.33	112.35
393.52	189.58
393.71	189.58
393.91	159.16
394.10	152.13
394.29	147.45
394.49	138.09
394.68	198.95
394.88	255.12
395.07	173.20
395.26	149.79
395.46	25.75
395.65	145.11
395.84	72.56
396.04	231.71
396.23	72.56
396.42	142.77
396.62	177.88
396.81	208.31
397.00	135.75
397.19	117.03
397.39	138.09
397.58	189.58
397.77	140.43
397.97	81.92
398.16	168.52
398.35	175.54
398.55	159.16
398.74	95.96
398.93	180.22
399.12	142.77
399.32	220.01
399.51	180.22
399.70	117.03
399.90	95.96
400.09	126.39
400.28	152.13
400.47	152.13
400.67	133.41
400.86	170.86
401.05	196.60
401.24	198.95
401.44	145.11
401.63	135.75
401.82	149.79
402.01	147.45
402.21	161.50
402.40	140.43
402.59	142.77
402.78	156.82
402.97	180.22
403.17	131.07
403.36	159.16
403.55	135.75
403.74	212.99
403.93	266.82
404.13	198.95
404.32	210.65
404.51	245.76
404.70	175.54
404.89	208.31
405.09	205.97
405.28	131.07
405.47	159.16
405.66	163.84
405.85	142.77
406.05	110.01
406.24	112.35
406.43	184.90
406.62	149.79
406.81	189.58
407.00	212.99
407.20	149.79
407.39	142.77
407.58	173.20
407.77	159.16
407.96	147.45
408.15	163.84
408.34	201.29
408.54	166.18
408.73	114.69
408.92	149.79
409.11	177.88
409.30	91.28
409.49	149.79
409.68	163.84
409.87	133.41
410.07	152.13
410.26	135.75
410.45	93.62
410.64	126.39
410.83	138.09
411.02	184.90
411.21	74.90
411.40	175.54
411.59	205.97
411.78	217.67
411.98	161.50
412.17	149.79
412.36	170.86
412.55	201.29
412.74	173.20
412.93	147.45
413.12	191.92
413.31	170.86
413.50	224.69
413.69	210.65
413.88	182.56
414.07	145.11
414.26	161.50
414.45	131.07
414.64	177.88
414.83	121.71
415.02	131.07
415.22	145.11
415.41	159.16
415.60	245.76
415.79	166.18
415.98	182.56
416.17	205.97
416.36	189.58
416.55	133.41
416.74	189.58
416.93	224.69
417.12	147.45
417.31	140.43
417.50	212.99
417.69	280.86
417.88	238.73
418.07	177.88
418.26	189.58
418.45	264.48
418.64	262.14
418.83	198.95
419.02	215.33
419.21	187.24
419.39	227.03
419.58	255.12
419.77	198.95
419.96	245.76
420.15	257.46
420.34	156.82
420.53	231.71
420.72	215.33
420.91	182.56
421.10	81.92
421.29	201.29
421.48	241.08
421.67	163.84
421.86	208.31
422.05	248.10
422.24	177.88
422.43	152.13
422.61	133.41
422.80	163.84
422.99	159.16
423.18	217.67
423.37	191.92
423.56	168.52
423.75	191.92
423.94	121.71
424.13	196.60
424.32	159.16
424.50	142.77
424.69	177.88
424.88	278.52
425.07	126.39
425.26	180.22
425.45	271.50
425.64	313.63
425.83	255.12
426.01	276.18
426.20	245.76
426.39	189.58
426.58	154.48
426.77	222.35
426.96	222.35
427.15	250.44
427.33	173.20
427.52	163.84
427.71	142.77
427.90	140.43
428.09	117.03
428.28	149.79
428.46	184.90
428.65	126.39
428.84	168.52
429.03	205.97
429.22	198.95
429.40	168.52
429.59	180.22
429.78	224.69
429.97	128.73
430.16	180.22
430.34	159.16
430.53	110.01
430.72	203.63
430.91	182.56
431.10	229.37
431.28	168.52
431.47	182.56
431.66	238.73
431.85	189.58
432.03	168.52
432.22	250.44
432.41	184.90
432.60	198.95
432.79	175.54
432.97	273.84
433.16	330.02
433.35	259.80
433.54	245.76
433.72	203.63
433.91	212.99
434.10	191.92
434.28	203.63
434.47	149.79
434.66	259.80
434.85	117.03
435.03	283.20
435.22	308.95
435.41	479.81
435.59	407.25
435.78	306.61
435.97	283.20
436.16	257.46
436.34	215.33
436.53	189.58
436.72	227.03
436.90	191.92
437.09	173.20
437.28	201.29
437.46	124.05
437.65	224.69
437.84	196.60
438.02	191.92
438.21	215.33
438.40	140.43
438.58	147.45
438.77	248.10
438.96	280.86
439.14	170.86
439.33	220.01
439.52	175.54
439.70	229.37
439.89	177.88
440.08	224.69
440.26	140.43
440.45	208.31
440.63	220.01
440.82	187.24
441.01	257.46
441.19	163.84
441.38	161.50
441.57	231.71
441.75	149.79
441.94	234.05
442.12	159.16
442.31	194.26
442.50	154.48
442.68	121.71
442.87	203.63
443.05	243.42
443.24	184.90
443.43	189.58
443.61	220.01
443.80	156.82
443.98	224.69
444.17	191.92
444.35	238.73
444.54	147.45
444.73	170.86
444.91	203.63
445.10	133.41
445.28	168.52
445.47	173.20
445.65	198.95
445.84	234.05
446.02	184.90
446.21	210.65
446.39	173.20
446.58	231.71
446.77	180.22
446.95	201.29
447.14	184.90
447.32	191.92
447.51	238.73
447.69	187.24
447.88	117.03
448.06	159.16
448.25	220.01
448.43	121.71
448.62	222.35
448.80	198.95
448.99	205.97
449.17	241.08
449.36	220.01
449.54	201.29
449.73	184.90
449.91	243.42
450.10	220.01
450.28	191.92
450.46	231.71
450.65	236.39
450.83	168.52
451.02	236.39
451.20	189.58
451.39	161.50
451.57	184.90
451.76	140.43
451.94	208.31
452.13	201.29
452.31	182.56
452.49	173.20
452.68	184.90
452.86	177.88
453.05	252.78
453.23	138.09
453.42	112.35
453.60	248.10
453.78	234.05
453.97	149.79
454.15	168.52
454.34	241.08
454.52	201.29
454.70	241.08
454.89	229.37
455.07	234.05
455.26	215.33
455.44	217.67
455.62	145.11
455.81	180.22
455.99	173.20
456.17	180.22
456.36	119.37
456.54	217.67
456.73	173.20
456.91	173.20
457.09	173.20
457.28	201.29
457.46	191.92
457.64	318.31
457.83	175.54
458.01	156.82
458.19	163.84
458.38	175.54
458.56	229.37
458.74	133.41
458.93	112.35
459.11	198.95
459.29	252.78
459.48	168.52
459.66	201.29
459.84	222.35
460.03	238.73
460.21	205.97
460.39	248.10
460.57	238.73
460.76	196.60
460.94	222.35
461.12	126.39
461.31	220.01
461.49	135.75
461.67	208.31
461.85	180.22
462.04	227.03
462.22	580.45
462.40	297.25
462.59	210.65
462.77	227.03
462.95	205.97
463.13	182.56
463.32	203.63
463.50	222.35
463.68	163.84
463.86	182.56
464.05	131.07
464.23	149.79
464.41	215.33
464.59	156.82
464.78	133.41
464.96	187.24
465.14	224.69
465.32	227.03
465.50	173.20
465.69	208.31
465.87	189.58
466.05	212.99
466.23	166.18
466.41	203.63
466.60	224.69
466.78	196.60
466.96	140.43
467.14	131.07
467.32	217.67
467.51	215.33
467.69	264.48
467.87	205.97
468.05	201.29
468.23	208.31
468.41	191.92
468.60	250.44
468.78	177.88
468.96	262.14
469.14	161.50
469.32	231.71
469.50	159.16
469.69	170.86
469.87	198.95
470.05	182.56
470.23	191.92
470.41	212.99
470.59	145.11
470.77	168.52
470.95	220.01
471.14	243.42
471.32	229.37
471.50	257.46
471.68	283.20
471.86	194.26
472.04	131.07
472.22	205.97
472.40	124.05
472.58	152.13
472.77	210.65
472.95	112.35
473.13	280.86
473.31	203.63
473.49	154.48
473.67	248.10
473.85	236.39
474.03	177.88
474.21	168.52
474.39	196.60
474.57	280.86
474.75	220.01
474.93	198.95
475.12	152.13
475.30	145.11
475.48	222.35
475.66	205.97
475.84	133.41
476.02	210.65
476.20	252.78
476.38	205.97
476.56	304.27
476.74	194.26
476.92	252.78
477.10	154.48
477.28	189.58
477.46	196.60
477.64	234.05
477.82	182.56
478.00	152.13
478.18	287.89
478.36	220.01
478.54	259.80
478.72	196.60
478.90	238.73
479.08	210.65
479.26	166.18
479.44	203.63
479.62	184.90
479.80	149.79
479.98	210.65
480.16	220.01
480.34	245.76
480.52	168.52
480.70	234.05
480.88	203.63
481.06	210.65
481.24	217.67
481.41	119.37
481.59	196.60
481.77	187.24
481.95	203.63
482.13	234.05
482.31	222.35
482.49	191.92
482.67	184.90
482.85	236.39
483.03	248.10
483.21	191.92
483.39	238.73
483.57	154.48
483.74	231.71
483.92	208.31
484.10	255.12
484.28	266.82
484.46	250.44
484.64	252.78
484.82	283.20
485.00	278.52
485.18	245.76
485.35	177.88
485.53	196.60
485.71	220.01
485.89	163.84
486.07	234.05
486.25	290.23
486.43	280.86
486.61	299.59
486.78	264.48
486.96	191.92
487.14	287.89
487.32	250.44
487.50	194.26
487.68	278.52
487.85	315.97
488.03	187.24
488.21	220.01
488.39	238.73
488.57	205.97
488.75	248.10
488.92	498.53
489.10	276.18
489.28	285.55
489.46	220.01
489.64	266.82
489.81	266.82
489.99	224.69
490.17	318.31
490.35	346.40
490.53	241.08
490.70	205.97
490.88	280.86
491.06	227.03
491.24	266.82
491.41	241.08
491.59	234.05
491.77	238.73
491.95	196.60
492.13	234.05
492.30	236.39
492.48	287.89
492.66	297.25
492.84	278.52
493.01	248.10
493.19	191.92
493.37	229.37
493.54	208.31
493.72	306.61
493.90	220.01
494.08	287.89
494.25	393.21
494.43	241.08
494.61	220.01
494.79	173.20
494.96	248.10
495.14	269.16
495.32	311.29
495.49	306.61
495.67	252.78
495.85	177.88
496.02	245.76
496.20	285.55
496.38	271.50
496.55	241.08
496.73	313.63
496.91	250.44
497.09	294.91
497.26	238.73
497.44	313.63
497.62	238.73
497.79	327.68
497.97	311.29
498.14	372.15
498.32	264.48
498.50	224.69
498.67	229.37
498.85	341.72
499.03	285.55
499.20	231.71
499.38	294.91
499.56	266.82
499.73	306.61
499.91	325.33
500.08	215.33
500.26	269.16
500.44	266.82
500.61	294.91
500.79	210.65
500.97	224.69
501.14	259.80
501.32	217.67
501.49	236.39
501.67	231.71
501.84	250.44
502.02	189.58
502.20	290.23
502.37	234.05
502.55	201.29
502.72	278.52
502.90	330.02
503.07	234.05
503.25	304.27
503.43	278.52
503.60	248.10
503.78	327.68
503.95	222.35
504.13	234.05
504.30	257.46
504.48	241.08
504.65	278.52
504.83	241.08
505.01	245.76
505.18	227.03
505.36	271.50
505.53	285.55
505.71	222.35
505.88	271.50
506.06	266.82
506.23	238.73
506.41	222.35
506.58	294.91
506.76	224.69
506.93	203.63
507.11	269.16
507.28	257.46
507.46	313.63
507.63	294.91
507.81	290.23
507.98	330.02
508.16	252.78
508.33	234.05
508.50	180.22
508.68	203.63
508.85	250.44
509.03	245.76
509.20	224.69
509.38	280.86
509.55	285.55
509.73	301.93
509.90	243.42
510.08	201.29
510.25	212.99
510.42	273.84
510.60	245.76
510.77	222.35
510.95	252.78
511.12	273.84
511.30	353.42
511.47	372.15
511.64	337.04
511.82	290.23
511.99	217.67
512.17	234.05
512.34	304.27
512.51	304.27
512.69	278.52
512.86	212.99
513.04	212.99
513.21	208.31
513.38	222.35
513.56	248.10
513.73	250.44
513.90	318.31
514.08	243.42
514.25	255.12
514.43	243.42
514.60	280.86
514.77	297.25
514.95	255.12
515.12	301.93
515.29	285.55
515.47	257.46
515.64	271.50
515.81	292.57
515.99	311.29
516.16	266.82
516.33	287.89
516.51	287.89
516.68	252.78
516.85	238.73
517.03	212.99
517.20	285.55
517.37	250.44
517.54	229.37
517.72	320.65
517.89	241.08
518.06	245.76
518.24	280.86
518.41	248.10
518.58	262.14
518.75	271.50
518.93	330.02
519.10	217.67
519.27	257.46
519.45	245.76
519.62	257.46
519.79	231.71
519.96	229.37
520.14	283.20
520.31	313.63
520.48	337.04
520.65	304.27
520.83	266.82
521.00	301.93
521.17	276.18
521.34	229.37
521.52	292.57
521.69	285.55
521.86	290.23
522.03	322.99
522.20	252.78
522.38	264.48
522.55	259.80
522.72	238.73
522.89	290.23
523.07	358.10
523.24	337.04
523.41	259.80
523.58	236.39
523.75	292.57
523.92	264.48
524.10	280.86
524.27	285.55
524.44	241.08
524.61	257.46
524.78	304.27
524.96	212.99
525.13	278.52
525.30	369.80
525.47	236.39
525.64	238.73
525.81	301.93
525.98	234.05
526.16	210.65
526.33	252.78
526.50	224.69
526.67	166.18
526.84	243.42
527.01	276.18
527.18	351.08
527.36	339.38
527.53	231.71
527.70	325.33
527.87	243.42
528.04	285.55
528.21	273.84
528.38	229.37
528.55	304.27
528.72	245.76
528.89	358.10
529.07	308.95
529.24	266.82
529.41	334.70
529.58	215.33
529.75	332.36
529.92	278.52
530.09	250.44
530.26	285.55
530.43	273.84
530.60	248.10
530.77	248.10
530.94	308.95
531.11	224.69
531.28	224.69
531.46	238.73
531.63	311.29
531.80	285.55
531.97	217.67
532.14	252.78
532.31	306.61
532.48	369.80
532.65	393.21
532.82	402.57
532.99	341.72
533.16	318.31
533.33	264.48
533.50	301.93
533.67	411.93
533.84	421.30
534.01	468.11
534.18	376.83
534.35	365.12
534.52	262.14
534.69	388.53
534.86	327.68
535.03	285.55
535.20	374.49
535.37	297.25
535.54	301.93
535.71	278.52
535.88	262.14
536.05	266.82
536.22	294.91
536.38	231.71
536.55	290.23
536.72	337.04
536.89	215.33
537.06	280.86
537.23	397.89
537.40	245.76
537.57	353.42
537.74	404.91
537.91	386.19
538.08	252.78
538.25	273.84
538.42	372.15
538.59	325.33
538.75	358.10
538.92	367.46
539.09	351.08
539.26	351.08
539.43	535.98
539.60	1160.91
539.77	1713.27
539.94	1643.06
540.11	1144.52
540.28	770.04
540.44	592.16
540.61	505.56
540.78	498.53
540.95	507.90
541.12	561.73
541.29	603.86
541.46	650.67
541.62	566.41
541.79	559.39
541.96	489.17
542.13	528.96
542.30	472.79
542.47	531.30
542.63	524.28
542.80	503.22
542.97	531.30
543.14	505.56
543.31	507.90
543.48	500.87
543.64	559.39
543.81	498.53
543.98	519.60
544.15	486.83
544.32	486.83
544.48	521.94
544.65	484.49
544.82	533.64
544.99	479.81
545.16	561.73
545.32	491.51
545.49	791.10
545.66	795.78
545.83	1088.35
546.00	1034.52
546.16	688.12
546.33	634.29
546.50	615.56
546.67	524.28
546.83	395.55
547.00	425.98
547.17	435.34
547.34	447.04
547.50	430.66
547.67	404.91
547.84	482.15
548.00	381.51
548.17	440.02
548.34	390.87
548.51	416.62
548.67	355.76
548.84	379.17
549.01	346.40
549.18	404.91
549.34	386.19
549.51	416.62
549.68	355.76
549.84	393.21
550.01	266.82
550.18	409.59
550.34	447.04
550.51	379.17
550.68	425.98
550.84	313.63
551.01	372.15
551.18	334.70
551.34	280.86
551.51	369.80
551.68	285.55
551.84	294.91
552.01	301.93
552.18	266.82
552.34	315.97
552.51	278.52
552.68	318.31
552.84	320.65
553.01	318.31
553.18	339.38
553.34	243.42
553.51	346.40
553.67	290.23
553.84	301.93
554.01	322.99
554.17	306.61
554.34	322.99
554.51	313.63
554.67	332.36
554.84	259.80
555.00	299.59
555.17	290.23
555.33	320.65
555.50	266.82
555.67	285.55
555.83	262.14
556.00	315.97
556.16	433.00
556.33	276.18
556.50	374.49
556.66	245.76
556.83	276.18
556.99	236.39
557.16	243.42
557.32	278.52
557.49	189.58
557.65	243.42
557.82	278.52
557.98	299.59
558.15	222.35
558.32	287.89
558.48	250.44
558.65	236.39
558.81	271.50
558.98	259.80
559.14	262.14
559.31	259.80
559.47	257.46
559.64	337.04
559.80	250.44
559.97	304.27
560.13	262.14
560.30	330.02
560.46	266.82
560.63	301.93
560.79	271.50
560.96	184.90
561.12	266.82
561.29	287.89
561.45	245.76
561.61	318.31
561.78	294.91
561.94	292.57
562.11	205.97
562.27	278.52
562.44	243.42
562.60	278.52
562.77	271.50
562.93	306.61
563.10	346.40
563.26	255.12
563.42	358.10
563.59	259.80
563.75	287.89
563.92	227.03
564.08	304.27
564.24	301.93
564.41	304.27
564.57	273.84
564.74	208.31
564.90	308.95
565.07	304.27
565.23	276.18
565.39	222.35
565.56	276.18
565.72	294.91
565.88	278.52
566.05	299.59
566.21	290.23
566.38	301.93
566.54	255.12
566.70	269.16
566.87	287.89
567.03	220.01
567.19	294.91
567.36	257.46
567.52	227.03
567.68	259.80
567.85	332.36
568.01	212.99
568.17	308.95
568.34	248.10
568.50	266.82
568.66	292.57
568.83	372.15
568.99	262.14
569.15	346.40
569.32	269.16
569.48	290.23
569.64	198.95
569.81	259.80
569.97	212.99
570.13	287.89
570.30	252.78
570.46	353.42
570.62	241.08
570.78	273.84
570.95	243.42
571.11	325.33
571.27	280.86
571.43	250.44
571.60	325.33
571.76	301.93
571.92	362.78
572.09	285.55
572.25	222.35
572.41	290.23
572.57	294.91
572.74	315.97
572.90	297.25
573.06	269.16
573.22	278.52
573.38	339.38
573.55	271.50
573.71	224.69
573.87	330.02
574.03	255.12
574.20	229.37
574.36	320.65
574.52	292.57
574.68	341.72
574.84	367.46
575.01	372.15
575.17	243.42
575.33	210.65
575.49	266.82
575.65	280.86
575.82	320.65
575.98	538.32
576.14	732.59
576.30	744.29
576.46	596.84
576.62	582.79
576.79	552.37
576.95	491.51
577.11	374.49
577.27	304.27
577.43	334.70
577.59	383.85
577.75	285.55
577.92	348.74
578.08	301.93
578.24	238.73
578.40	348.74
578.56	358.10
578.72	425.98
578.88	407.25
579.04	451.72
579.21	383.85
579.37	351.08
579.53	318.31
579.69	416.62
579.85	351.08
580.01	465.77
580.17	435.34
580.33	404.91
580.49	409.59
580.65	393.21
580.82	355.76
580.98	451.72
581.14	318.31
581.30	458.74
581.46	505.56
581.62	533.64
581.78	669.39
581.94	648.33
582.10	496.19
582.26	557.05
582.42	578.11
582.58	540.66
582.74	561.73
582.90	505.56
583.06	580.45
583.22	521.94
583.38	493.85
583.54	566.41
583.70	636.63
583.86	648.33
584.02	779.40
584.18	1001.75
584.34	1160.91
584.50	3052.06
584.66	22307.65
584.82	55229.62
584.98	64402.18
585.14	61553.75
585.30	46897.31
585.46	28746.46
585.62	18003.40
585.78	8404.86
585.94	3419.52
586.10	1636.03
586.26	1057.92
586.42	870.68
586.58	772.38
586.74	706.84
586.90	751.31
587.06	727.91
587.22	622.58
587.38	627.26
587.54	1219.42
587.70	3295.47
587.86	5816.23
588.02	6237.53
588.18	4465.74
588.34	2942.05
588.49	1905.20
588.65	1263.89
588.81	660.03
588.97	461.09
589.13	435.34
589.29	381.51
589.45	383.85
589.61	313.63
589.77	430.66
589.93	435.34
590.08	557.05
590.24	568.75
590.40	491.51
590.56	435.34
590.72	390.87
590.88	507.90
591.04	428.32
591.20	367.46
591.35	468.11
591.51	358.10
591.67	292.57
591.83	341.72
591.99	423.64
592.15	341.72
592.31	362.78
592.46	407.25
592.62	500.87
592.78	409.59
592.94	388.53
593.10	400.23
593.26	423.64
593.41	433.00
593.57	449.38
593.73	702.16
593.89	2780.56
594.05	7447.58
594.20	10881.15
594.36	10239.84
594.52	6675.21
594.68	4297.22
594.84	2918.65
594.99	1556.46
595.15	741.95
595.31	526.62
595.47	463.43
595.62	379.17
595.78	367.46
595.94	318.31
596.10	425.98
596.25	437.68
596.41	395.55
596.57	348.74
596.73	346.40
596.88	620.24
597.04	1495.60
597.20	2228.19
597.36	2663.53
597.51	2019.88
597.67	1458.15
597.83	1041.54
597.99	767.70
598.14	484.49
598.30	447.04
598.46	374.49
598.61	365.12
598.77	353.42
598.93	346.40
599.09	346.40
599.24	379.17
599.40	362.78
599.56	411.93
599.71	301.93
599.87	376.83
600.03	315.97
600.18	224.69
600.34	266.82
600.50	334.70
600.65	301.93
600.81	353.42
600.97	358.10
601.12	264.48
601.28	330.02
601.44	283.20
601.59	248.10
601.75	297.25
601.91	252.78
602.06	308.95
602.22	418.96
602.37	781.74
602.53	1755.40
602.69	2637.78
602.84	2658.85
603.00	2078.40
603.16	1523.69
603.31	971.32
603.47	699.82
603.62	430.66
603.78	344.06
603.94	346.40
604.09	379.17
604.25	280.86
604.40	278.52
604.56	409.59
604.71	386.19
604.87	334.70
605.03	376.83
605.18	330.02
605.34	320.65
605.49	334.70
605.65	383.85
605.80	409.59
605.96	353.42
606.12	362.78
606.27	510.24
606.43	433.00
606.58	500.87
606.74	851.96
606.89	3297.81
607.05	6771.17
607.20	8863.61
607.36	7365.67
607.51	5263.86
607.67	3302.50
607.82	2335.85
607.98	1392.62
608.13	716.20
608.29	526.62
608.44	589.82
608.60	545.34
608.75	603.86
608.91	1231.12
609.06	5301.31
609.22	11658.21
609.37	15978.84
609.53	13879.38
609.68	9137.45
609.84	6127.52
609.99	4112.32
