SpectraSuite Data File
++++++++++++++++++++++++++++++++++++
Date: Fri Oct 04 11:34:08 GMT-05:00 2013
User: price-jones
Dark Spectrum Present: No
Reference Spectrum Present: No
Number of Sampled Component Spectra: 1
Spectrometers: USB2+H05261
Integration Time (usec): 100000 (USB2+H05261)
Spectra Averaged: 1 (USB2+H05261)
Boxcar Smoothing: 0 (USB2+H05261)
Correct for Electrical Dark: No (USB2+H05261)
Strobe/Lamp Enabled: No (USB2+H05261)
Correct for Detector Non-linearity: No (USB2+H05261)
Correct for Stray Light: No (USB2+H05261)
Number of Pixels in Processed Spectrum: 2048
>>>>>Begin Processed Spectral Data<<<<<
365.73	67.88
365.92	67.88
366.12	67.88
366.32	14.04
366.52	0.00
366.72	0.00
366.91	0.00
367.11	0.00
367.31	0.00
367.51	0.00
367.70	0.00
367.90	9.36
368.10	0.00
368.30	0.00
368.49	0.00
368.69	0.00
368.89	7.02
369.09	0.00
369.28	39.79
369.48	16.38
369.68	32.77
369.87	0.00
370.07	0.00
370.27	51.49
370.47	140.43
370.66	65.54
370.86	65.54
371.06	65.54
371.25	131.07
371.45	121.71
371.65	177.88
371.84	86.60
372.04	84.26
372.24	110.01
372.44	112.35
372.63	135.75
372.83	191.92
373.03	114.69
373.22	142.77
373.42	126.39
373.62	44.47
373.81	140.43
374.01	189.58
374.21	147.45
374.40	175.54
374.60	259.80
374.79	124.05
374.99	98.30
375.19	210.65
375.38	117.03
375.58	147.45
375.78	152.13
375.97	203.63
376.17	217.67
376.37	107.66
376.56	152.13
376.76	135.75
376.95	114.69
377.15	184.90
377.35	203.63
377.54	121.71
377.74	95.96
377.93	170.86
378.13	196.60
378.33	173.20
378.52	152.13
378.72	133.41
378.91	175.54
379.11	140.43
379.31	81.92
379.50	110.01
379.70	154.48
379.89	152.13
380.09	135.75
380.28	145.11
380.48	135.75
380.68	187.24
380.87	102.98
381.07	100.64
381.26	184.90
381.46	138.09
381.65	93.62
381.85	140.43
382.04	53.83
382.24	147.45
382.43	110.01
382.63	159.16
382.83	168.52
383.02	154.48
383.22	191.92
383.41	173.20
383.61	100.64
383.80	152.13
384.00	124.05
384.19	154.48
384.39	140.43
384.58	128.73
384.78	131.07
384.97	100.64
385.17	234.05
385.36	159.16
385.56	133.41
385.75	163.84
385.95	72.56
386.14	133.41
386.34	84.26
386.53	124.05
386.72	79.58
386.92	177.88
387.11	156.82
387.31	194.26
387.50	124.05
387.70	128.73
387.89	117.03
388.09	182.56
388.28	98.30
388.48	114.69
388.67	159.16
388.86	156.82
389.06	133.41
389.25	93.62
389.45	131.07
389.64	203.63
389.84	156.82
390.03	126.39
390.22	91.28
390.42	114.69
390.61	124.05
390.81	140.43
391.00	65.54
391.19	184.90
391.39	152.13
391.58	135.75
391.78	173.20
391.97	138.09
392.16	124.05
392.36	205.97
392.55	147.45
392.75	189.58
392.94	140.43
393.13	166.18
393.33	77.24
393.52	126.39
393.71	182.56
393.91	112.35
394.10	135.75
394.29	114.69
394.49	168.52
394.68	147.45
394.88	170.86
395.07	191.92
395.26	133.41
395.46	149.79
395.65	191.92
395.84	175.54
396.04	163.84
396.23	182.56
396.42	102.98
396.62	121.71
396.81	95.96
397.00	117.03
397.19	135.75
397.39	149.79
397.58	91.28
397.77	77.24
397.97	107.66
398.16	128.73
398.35	184.90
398.55	138.09
398.74	166.18
398.93	161.50
399.12	105.32
399.32	163.84
399.51	203.63
399.70	114.69
399.90	182.56
400.09	154.48
400.28	191.92
400.47	180.22
400.67	126.39
400.86	131.07
401.05	184.90
401.24	152.13
401.44	208.31
401.63	126.39
401.82	227.03
402.01	88.94
402.21	180.22
402.40	168.52
402.59	177.88
402.78	152.13
402.97	182.56
403.17	189.58
403.36	149.79
403.55	177.88
403.74	147.45
403.93	227.03
404.13	257.46
404.32	210.65
404.51	205.97
404.70	138.09
404.89	154.48
405.09	163.84
405.28	159.16
405.47	168.52
405.66	175.54
405.85	170.86
406.05	119.37
406.24	194.26
406.43	91.28
406.62	189.58
406.81	149.79
407.00	100.64
407.20	187.24
407.39	194.26
407.58	208.31
407.77	142.77
407.96	210.65
408.15	187.24
408.34	198.95
408.54	159.16
408.73	152.13
408.92	168.52
409.11	210.65
409.30	152.13
409.49	133.41
409.68	84.26
409.87	161.50
410.07	112.35
410.26	91.28
410.45	149.79
410.64	86.60
410.83	166.18
411.02	163.84
411.21	180.22
411.40	182.56
411.59	191.92
411.78	173.20
411.98	102.98
412.17	128.73
412.36	95.96
412.55	196.60
412.74	180.22
412.93	231.71
413.12	201.29
413.31	161.50
413.50	124.05
413.69	180.22
413.88	140.43
414.07	81.92
414.26	201.29
414.45	142.77
414.64	140.43
414.83	161.50
415.02	210.65
415.22	102.98
415.41	156.82
415.60	177.88
415.79	184.90
415.98	191.92
416.17	168.52
416.36	170.86
416.55	124.05
416.74	201.29
416.93	203.63
417.12	105.32
417.31	187.24
417.50	184.90
417.69	201.29
417.88	250.44
418.07	205.97
418.26	159.16
418.45	201.29
418.64	201.29
418.83	215.33
419.02	177.88
419.21	203.63
419.39	110.01
419.58	212.99
419.77	159.16
419.96	152.13
420.15	248.10
420.34	170.86
420.53	110.01
420.72	124.05
420.91	212.99
421.10	163.84
421.29	236.39
421.48	259.80
421.67	241.08
421.86	159.16
422.05	201.29
422.24	131.07
422.43	203.63
422.61	161.50
422.80	131.07
422.99	173.20
423.18	161.50
423.37	236.39
423.56	180.22
423.75	201.29
423.94	159.16
424.13	72.56
424.32	166.18
424.50	203.63
424.69	203.63
424.88	168.52
425.07	229.37
425.26	170.86
425.45	166.18
425.64	163.84
425.83	154.48
426.01	212.99
426.20	110.01
426.39	135.75
426.58	189.58
426.77	194.26
426.96	250.44
427.15	100.64
427.33	117.03
427.52	196.60
427.71	156.82
427.90	128.73
428.09	126.39
428.28	198.95
428.46	208.31
428.65	191.92
428.84	222.35
429.03	252.78
429.22	128.73
429.40	105.32
429.59	133.41
429.78	210.65
429.97	170.86
430.16	152.13
430.34	173.20
430.53	147.45
430.72	159.16
430.91	142.77
431.10	105.32
431.28	147.45
431.47	147.45
431.66	149.79
431.85	184.90
432.03	217.67
432.22	173.20
432.41	149.79
432.60	215.33
432.79	117.03
432.97	196.60
433.16	264.48
433.35	187.24
433.54	138.09
433.72	177.88
433.91	133.41
434.10	191.92
434.28	180.22
434.47	175.54
434.66	234.05
434.85	159.16
435.03	215.33
435.22	278.52
435.41	400.23
435.59	386.19
435.78	250.44
435.97	227.03
436.16	269.16
436.34	201.29
436.53	133.41
436.72	201.29
436.90	189.58
437.09	191.92
437.28	198.95
437.46	140.43
437.65	147.45
437.84	184.90
438.02	203.63
438.21	203.63
438.40	194.26
438.58	166.18
438.77	196.60
438.96	147.45
439.14	112.35
439.33	212.99
439.52	168.52
439.70	220.01
439.89	203.63
440.08	215.33
440.26	173.20
440.45	159.16
440.63	168.52
440.82	196.60
441.01	187.24
441.19	217.67
441.38	182.56
441.57	182.56
441.75	163.84
441.94	234.05
442.12	241.08
442.31	201.29
442.50	159.16
442.68	161.50
442.87	154.48
443.05	175.54
443.24	201.29
443.43	175.54
443.61	168.52
443.80	215.33
443.98	166.18
444.17	238.73
444.35	184.90
444.54	140.43
444.73	147.45
444.91	180.22
445.10	166.18
445.28	147.45
445.47	177.88
445.65	212.99
445.84	166.18
446.02	156.82
446.21	184.90
446.39	191.92
446.58	191.92
446.77	201.29
446.95	292.57
447.14	177.88
447.32	196.60
447.51	222.35
447.69	198.95
447.88	248.10
448.06	241.08
448.25	201.29
448.43	215.33
448.62	142.77
448.80	222.35
448.99	212.99
449.17	140.43
449.36	163.84
449.54	212.99
449.73	191.92
449.91	201.29
450.10	180.22
450.28	255.12
450.46	231.71
450.65	276.18
450.83	191.92
451.02	133.41
451.20	147.45
451.39	170.86
451.57	229.37
451.76	187.24
451.94	212.99
452.13	250.44
452.31	163.84
452.49	140.43
452.68	140.43
452.86	234.05
453.05	248.10
453.23	212.99
453.42	133.41
453.60	177.88
453.78	276.18
453.97	154.48
454.15	180.22
454.34	245.76
454.52	91.28
454.70	259.80
454.89	210.65
455.07	166.18
455.26	243.42
455.44	184.90
455.62	156.82
455.81	276.18
455.99	220.01
456.17	168.52
456.36	222.35
456.54	245.76
456.73	147.45
456.91	177.88
457.09	163.84
457.28	234.05
457.46	212.99
457.64	210.65
457.83	159.16
458.01	182.56
458.19	231.71
458.38	173.20
458.56	245.76
458.74	196.60
458.93	140.43
459.11	67.88
459.29	177.88
459.48	297.25
459.66	182.56
459.84	184.90
460.03	215.33
460.21	250.44
460.39	187.24
460.57	210.65
460.76	177.88
460.94	159.16
461.12	271.50
461.31	138.09
461.49	182.56
461.67	215.33
461.85	177.88
462.04	161.50
462.22	653.01
462.40	215.33
462.59	215.33
462.77	161.50
462.95	131.07
463.13	168.52
463.32	220.01
463.50	152.13
463.68	215.33
463.86	217.67
464.05	198.95
464.23	245.76
464.41	245.76
464.59	187.24
464.78	182.56
464.96	241.08
465.14	236.39
465.32	220.01
465.50	222.35
465.69	180.22
465.87	168.52
466.05	201.29
466.23	180.22
466.41	238.73
466.60	177.88
466.78	180.22
466.96	234.05
467.14	145.11
467.32	252.78
467.51	294.91
467.69	212.99
467.87	238.73
468.05	184.90
468.23	248.10
468.41	208.31
468.60	184.90
468.78	177.88
468.96	203.63
469.14	208.31
469.32	184.90
469.50	168.52
469.69	208.31
469.87	220.01
470.05	266.82
470.23	236.39
470.41	182.56
470.59	131.07
470.77	198.95
470.95	98.30
471.14	215.33
471.32	184.90
471.50	128.73
471.68	212.99
471.86	191.92
472.04	217.67
472.22	196.60
472.40	147.45
472.58	147.45
472.77	126.39
472.95	215.33
473.13	177.88
473.31	194.26
473.49	180.22
473.67	234.05
473.85	217.67
474.03	191.92
474.21	280.86
474.39	269.16
474.57	264.48
474.75	238.73
474.93	177.88
475.12	135.75
475.30	194.26
475.48	159.16
475.66	140.43
475.84	208.31
476.02	175.54
476.20	222.35
476.38	264.48
476.56	301.93
476.74	220.01
476.92	255.12
477.10	124.05
477.28	180.22
477.46	140.43
477.64	208.31
477.82	173.20
478.00	205.97
478.18	292.57
478.36	217.67
478.54	138.09
478.72	196.60
478.90	208.31
479.08	173.20
479.26	229.37
479.44	234.05
479.62	187.24
479.80	182.56
479.98	222.35
480.16	212.99
480.34	194.26
480.52	203.63
480.70	198.95
480.88	215.33
481.06	201.29
481.24	184.90
481.41	201.29
481.59	117.03
481.77	238.73
481.95	210.65
482.13	220.01
482.31	280.86
482.49	149.79
482.67	229.37
482.85	266.82
483.03	180.22
483.21	266.82
483.39	285.55
483.57	248.10
483.74	222.35
483.92	180.22
484.10	191.92
484.28	327.68
484.46	285.55
484.64	215.33
484.82	166.18
485.00	238.73
485.18	245.76
485.35	243.42
485.53	245.76
485.71	290.23
485.89	196.60
486.07	205.97
486.25	273.84
486.43	231.71
486.61	322.99
486.78	294.91
486.96	205.97
487.14	229.37
487.32	255.12
487.50	243.42
487.68	259.80
487.85	332.36
488.03	201.29
488.21	271.50
488.39	229.37
488.57	182.56
488.75	212.99
488.92	521.94
489.10	220.01
489.28	224.69
489.46	257.46
489.64	236.39
489.81	243.42
489.99	257.46
490.17	191.92
490.35	379.17
490.53	243.42
490.70	170.86
490.88	308.95
491.06	271.50
491.24	238.73
491.41	348.74
491.59	280.86
491.77	205.97
491.95	224.69
492.13	227.03
492.30	201.29
492.48	196.60
492.66	189.58
492.84	257.46
493.01	212.99
493.19	248.10
493.37	205.97
493.54	189.58
493.72	252.78
493.90	128.73
494.08	248.10
494.25	191.92
494.43	264.48
494.61	292.57
494.79	248.10
494.96	184.90
495.14	250.44
495.32	266.82
495.49	355.76
495.67	224.69
495.85	280.86
496.02	231.71
496.20	212.99
496.38	259.80
496.55	330.02
496.73	259.80
496.91	259.80
497.09	257.46
497.26	304.27
497.44	245.76
497.62	236.39
497.79	198.95
497.97	304.27
498.14	276.18
498.32	269.16
498.50	210.65
498.67	175.54
498.85	264.48
499.03	264.48
499.20	262.14
499.38	236.39
499.56	198.95
499.73	294.91
499.91	208.31
500.08	191.92
500.26	273.84
500.44	257.46
500.61	231.71
500.79	245.76
500.97	238.73
501.14	278.52
501.32	264.48
501.49	297.25
501.67	182.56
501.84	273.84
502.02	180.22
502.20	264.48
502.37	217.67
502.55	255.12
502.72	217.67
502.90	283.20
503.07	243.42
503.25	266.82
503.43	215.33
503.60	187.24
503.78	245.76
503.95	283.20
504.13	220.01
504.30	203.63
504.48	266.82
504.65	299.59
504.83	271.50
505.01	248.10
505.18	224.69
505.36	259.80
505.53	210.65
505.71	252.78
505.88	234.05
506.06	184.90
506.23	255.12
506.41	308.95
506.58	234.05
506.76	297.25
506.93	203.63
507.11	273.84
507.28	234.05
507.46	262.14
507.63	271.50
507.81	250.44
507.98	315.97
508.16	126.39
508.33	255.12
508.50	231.71
508.68	306.61
508.85	259.80
509.03	187.24
509.20	236.39
509.38	236.39
509.55	198.95
509.73	231.71
509.90	278.52
510.08	311.29
510.25	278.52
510.42	358.10
510.60	231.71
510.77	210.65
510.95	273.84
511.12	283.20
511.30	304.27
511.47	348.74
511.64	339.38
511.82	236.39
511.99	259.80
512.17	201.29
512.34	231.71
512.51	266.82
512.69	264.48
512.86	266.82
513.04	280.86
513.21	320.65
513.38	306.61
513.56	257.46
513.73	191.92
513.90	203.63
514.08	273.84
514.25	297.25
514.43	243.42
514.60	243.42
514.77	271.50
514.95	306.61
515.12	241.08
515.29	196.60
515.47	273.84
515.64	285.55
515.81	283.20
515.99	306.61
516.16	194.26
516.33	358.10
516.51	294.91
516.68	227.03
516.85	173.20
517.03	255.12
517.20	156.82
517.37	238.73
517.54	341.72
517.72	227.03
517.89	210.65
518.06	215.33
518.24	266.82
518.41	390.87
518.58	245.76
518.75	280.86
518.93	278.52
519.10	332.36
519.27	234.05
519.45	257.46
519.62	257.46
519.79	215.33
519.96	184.90
520.14	257.46
520.31	313.63
520.48	236.39
520.65	238.73
520.83	252.78
521.00	243.42
521.17	236.39
521.34	227.03
521.52	229.37
521.69	196.60
521.86	278.52
522.03	292.57
522.20	280.86
522.38	320.65
522.55	304.27
522.72	210.65
522.89	201.29
523.07	297.25
523.24	308.95
523.41	252.78
523.58	299.59
523.75	238.73
523.92	236.39
524.10	220.01
524.27	205.97
524.44	276.18
524.61	322.99
524.78	227.03
524.96	280.86
525.13	276.18
525.30	252.78
525.47	278.52
525.64	198.95
525.81	255.12
525.98	236.39
526.16	278.52
526.33	212.99
526.50	252.78
526.67	222.35
526.84	189.58
527.01	236.39
527.18	304.27
527.36	243.42
527.53	184.90
527.70	259.80
527.87	224.69
528.04	306.61
528.21	292.57
528.38	252.78
528.55	346.40
528.72	308.95
528.89	311.29
529.07	311.29
529.24	252.78
529.41	299.59
529.58	252.78
529.75	255.12
529.92	250.44
530.09	170.86
530.26	299.59
530.43	266.82
530.60	243.42
530.77	271.50
530.94	271.50
531.11	255.12
531.28	330.02
531.46	299.59
531.63	259.80
531.80	280.86
531.97	224.69
532.14	301.93
532.31	245.76
532.48	320.65
532.65	252.78
532.82	327.68
532.99	308.95
533.16	292.57
533.33	170.86
533.50	278.52
533.67	346.40
533.84	409.59
534.01	362.78
534.18	294.91
534.35	294.91
534.52	301.93
534.69	301.93
534.86	182.56
535.03	287.89
535.20	198.95
535.37	351.08
535.54	271.50
535.71	220.01
535.88	372.15
536.05	334.70
536.22	311.29
536.38	294.91
536.55	266.82
536.72	355.76
536.89	325.33
537.06	320.65
537.23	276.18
537.40	276.18
537.57	313.63
537.74	322.99
537.91	285.55
538.08	374.49
538.25	355.76
538.42	311.29
538.59	386.19
538.75	315.97
538.92	322.99
539.09	337.04
539.26	355.76
539.43	395.55
539.60	540.66
539.77	638.97
539.94	622.58
540.11	540.66
540.28	393.21
540.44	447.04
540.61	360.44
540.78	407.25
540.95	386.19
541.12	500.87
541.29	528.96
541.46	521.94
541.62	463.43
541.79	477.47
541.96	498.53
542.13	486.83
542.30	421.30
542.47	498.53
542.63	425.98
542.80	500.87
542.97	479.81
543.14	451.72
543.31	463.43
543.48	409.59
543.64	512.58
543.81	514.92
543.98	468.11
544.15	442.36
544.32	491.51
544.48	388.53
544.65	294.91
544.82	463.43
544.99	514.92
545.16	463.43
545.32	425.98
545.49	662.37
545.66	807.48
545.83	814.51
546.00	826.21
546.16	669.39
546.33	489.17
546.50	540.66
546.67	411.93
546.83	360.44
547.00	433.00
547.17	355.76
547.34	318.31
547.50	374.49
547.67	418.96
547.84	325.33
548.00	381.51
548.17	367.46
548.34	341.72
548.51	444.70
548.67	344.06
548.84	334.70
549.01	362.78
549.18	322.99
549.34	308.95
549.51	299.59
549.68	416.62
549.84	374.49
550.01	369.80
550.18	425.98
550.34	407.25
550.51	332.36
550.68	402.57
550.84	339.38
551.01	290.23
551.18	276.18
551.34	236.39
551.51	262.14
551.68	294.91
551.84	290.23
552.01	276.18
552.18	262.14
552.34	341.72
552.51	262.14
552.68	351.08
552.84	220.01
553.01	236.39
553.18	285.55
553.34	315.97
553.51	280.86
553.67	351.08
553.84	292.57
554.01	308.95
554.17	360.44
554.34	257.46
554.51	320.65
554.67	339.38
554.84	294.91
555.00	285.55
555.17	255.12
555.33	280.86
555.50	304.27
555.67	280.86
555.83	327.68
556.00	301.93
556.16	463.43
556.33	301.93
556.50	280.86
556.66	269.16
556.83	290.23
556.99	220.01
557.16	325.33
557.32	168.52
557.49	320.65
557.65	308.95
557.82	269.16
557.98	318.31
558.15	346.40
558.32	292.57
558.48	222.35
558.65	259.80
558.81	283.20
558.98	166.18
559.14	273.84
559.31	245.76
559.47	271.50
559.64	306.61
559.80	290.23
559.97	264.48
560.13	313.63
560.30	201.29
560.46	306.61
560.63	227.03
560.79	322.99
560.96	276.18
561.12	306.61
561.29	236.39
561.45	248.10
561.61	243.42
561.78	294.91
561.94	372.15
562.11	266.82
562.27	252.78
562.44	217.67
562.60	287.89
562.77	287.89
562.93	334.70
563.10	264.48
563.26	212.99
563.42	220.01
563.59	201.29
563.75	269.16
563.92	212.99
564.08	311.29
564.24	252.78
564.41	280.86
564.57	292.57
564.74	234.05
564.90	283.20
565.07	215.33
565.23	313.63
565.39	229.37
565.56	262.14
565.72	280.86
565.88	255.12
566.05	182.56
566.21	215.33
566.38	285.55
566.54	266.82
566.70	231.71
566.87	241.08
567.03	241.08
567.19	220.01
567.36	315.97
567.52	266.82
567.68	346.40
567.85	243.42
568.01	257.46
568.17	269.16
568.34	257.46
568.50	367.46
568.66	271.50
568.83	365.12
568.99	311.29
569.15	306.61
569.32	252.78
569.48	294.91
569.64	205.97
569.81	245.76
569.97	259.80
570.13	264.48
570.30	173.20
570.46	205.97
570.62	313.63
570.78	266.82
570.95	255.12
571.11	404.91
571.27	273.84
571.43	332.36
571.60	205.97
571.76	238.73
571.92	283.20
572.09	224.69
572.25	231.71
572.41	250.44
572.57	205.97
572.74	250.44
572.90	269.16
573.06	294.91
573.22	287.89
573.38	320.65
573.55	330.02
573.71	273.84
573.87	229.37
574.03	224.69
574.20	224.69
574.36	287.89
574.52	238.73
574.68	276.18
574.84	301.93
575.01	231.71
575.17	252.78
575.33	301.93
575.49	315.97
575.65	304.27
575.82	290.23
575.98	379.17
576.14	334.70
576.30	365.12
576.46	395.55
576.62	369.80
576.79	397.89
576.95	344.06
577.11	322.99
577.27	315.97
577.43	308.95
577.59	259.80
577.75	222.35
577.92	224.69
578.08	280.86
578.24	262.14
578.40	271.50
578.56	344.06
578.72	369.80
578.88	358.10
579.04	369.80
579.21	285.55
579.37	294.91
579.53	285.55
579.69	315.97
579.85	311.29
580.01	332.36
580.17	313.63
580.33	341.72
580.49	341.72
580.65	290.23
580.82	330.02
580.98	294.91
581.14	322.99
581.30	308.95
581.46	271.50
581.62	320.65
581.78	353.42
581.94	425.98
582.10	339.38
582.26	266.82
582.42	311.29
582.58	400.23
582.74	315.97
582.90	313.63
583.06	259.80
583.22	330.02
583.38	337.04
583.54	327.68
583.70	381.51
583.86	390.87
584.02	440.02
584.18	461.09
584.34	554.71
584.50	1097.71
584.66	5970.71
584.82	13364.46
584.98	17303.58
585.14	14640.05
585.30	9261.50
585.46	5926.24
585.62	3669.96
585.78	1858.39
585.94	858.98
586.10	543.00
586.26	437.68
586.42	381.51
586.58	449.38
586.74	409.59
586.90	404.91
587.06	360.44
587.22	416.62
587.38	337.04
587.54	634.29
587.70	1011.11
587.86	1430.07
588.02	1378.58
588.18	1109.41
588.34	716.20
588.49	533.64
588.65	433.00
588.81	374.49
588.97	269.16
589.13	327.68
589.29	280.86
589.45	330.02
589.61	273.84
589.77	351.08
589.93	283.20
590.08	325.33
590.24	362.78
590.40	337.04
590.56	308.95
590.72	404.91
590.88	367.46
591.04	313.63
591.20	383.85
591.35	250.44
591.51	311.29
591.67	327.68
591.83	257.46
591.99	383.85
592.15	337.04
592.31	330.02
592.46	278.52
592.62	313.63
592.78	262.14
592.94	346.40
593.10	351.08
593.26	278.52
593.41	351.08
593.57	301.93
593.73	308.95
593.89	973.66
594.05	1827.96
594.20	2307.77
594.36	2165.00
594.52	1462.83
594.68	1032.18
594.84	798.12
594.99	559.39
595.15	311.29
595.31	294.91
595.47	311.29
595.62	313.63
595.78	294.91
595.94	269.16
596.10	351.08
596.25	271.50
596.41	365.12
596.57	215.33
596.73	224.69
596.88	383.85
597.04	585.13
597.20	660.03
597.36	777.06
597.51	589.82
597.67	528.96
597.83	435.34
597.99	337.04
598.14	367.46
598.30	341.72
598.46	318.31
598.61	330.02
598.77	271.50
598.93	294.91
599.09	264.48
599.24	238.73
599.40	273.84
599.56	234.05
599.71	236.39
599.87	353.42
600.03	297.25
600.18	250.44
600.34	266.82
600.50	292.57
600.65	191.92
600.81	220.01
600.97	259.80
601.12	297.25
601.28	308.95
601.44	351.08
601.59	283.20
601.75	224.69
601.91	292.57
602.06	229.37
602.22	311.29
602.37	397.89
602.53	641.31
602.69	784.08
602.84	751.31
603.00	601.52
603.16	496.19
603.31	397.89
603.47	332.36
603.62	301.93
603.78	294.91
603.94	280.86
604.09	330.02
604.25	262.14
604.40	273.84
604.56	241.08
604.71	234.05
604.87	273.84
605.03	280.86
605.18	292.57
605.34	283.20
605.49	266.82
605.65	280.86
605.80	264.48
605.96	227.03
606.12	212.99
606.27	334.70
606.43	320.65
606.58	332.36
606.74	418.96
606.89	1060.26
607.05	1659.44
607.20	1987.11
607.36	1687.53
607.51	1261.55
607.67	983.02
607.82	606.20
607.98	491.51
608.13	437.68
608.29	390.87
608.44	344.06
608.60	339.38
608.75	322.99
608.91	575.77
609.06	1664.12
609.22	2761.83
609.37	3258.03
609.53	2974.82
609.68	2076.06
609.84	1427.73
609.99	1128.14
610.15	807.48
610.30	774.72
610.46	695.14
610.61	657.69
