SpectraSuite Data File
++++++++++++++++++++++++++++++++++++
Date: Fri Oct 04 12:14:18 GMT-05:00 2013
User: price-jones
Dark Spectrum Present: No
Reference Spectrum Present: No
Number of Sampled Component Spectra: 1
Spectrometers: USB2+H05261
Integration Time (usec): 1000000 (USB2+H05261)
Spectra Averaged: 1 (USB2+H05261)
Boxcar Smoothing: 0 (USB2+H05261)
Correct for Electrical Dark: No (USB2+H05261)
Strobe/Lamp Enabled: No (USB2+H05261)
Correct for Detector Non-linearity: No (USB2+H05261)
Correct for Stray Light: No (USB2+H05261)
Number of Pixels in Processed Spectrum: 2048
>>>>>Begin Processed Spectral Data<<<<<
365.73	0.00
365.92	0.00
366.12	0.00
366.32	0.00
366.52	0.00
366.72	313.63
366.91	170.86
367.11	252.78
367.31	222.35
367.51	355.76
367.70	348.74
367.90	531.30
368.10	280.86
368.30	308.95
368.49	95.96
368.69	435.34
368.89	374.49
369.09	152.13
369.28	315.97
369.48	166.18
369.68	248.10
369.87	292.57
370.07	210.65
370.27	535.98
370.47	355.76
370.66	334.70
370.86	433.00
371.06	725.57
371.25	954.94
371.45	404.91
371.65	685.78
371.84	330.02
372.04	294.91
372.24	395.55
372.44	449.38
372.63	578.11
372.83	889.40
373.03	423.64
373.22	294.91
373.42	390.87
373.62	442.36
373.81	547.69
374.01	669.39
374.21	706.84
374.40	475.13
374.60	758.33
374.79	496.19
374.99	409.59
375.19	594.50
375.38	636.63
375.58	428.32
375.78	746.63
375.97	713.86
376.17	1034.52
376.37	521.94
376.56	592.16
376.76	437.68
376.95	299.59
377.15	657.69
377.35	608.54
377.54	585.13
377.74	461.09
377.93	414.27
378.13	554.71
378.33	676.41
378.52	409.59
378.72	657.69
378.91	662.37
379.11	428.32
379.31	447.04
379.50	273.84
379.70	681.10
379.89	690.46
380.09	414.27
380.28	304.27
380.48	411.93
380.68	388.53
380.87	290.23
381.07	594.50
381.26	795.78
381.46	627.26
381.65	664.71
381.85	440.02
382.04	500.87
382.24	561.73
382.43	456.40
382.63	367.46
382.83	437.68
383.02	716.20
383.22	791.10
383.41	330.02
383.61	512.58
383.80	402.57
384.00	517.26
384.19	425.98
384.39	505.56
384.58	528.96
384.78	711.52
384.97	575.77
385.17	435.34
385.36	475.13
385.56	695.14
385.75	346.40
385.95	449.38
386.14	699.82
386.34	435.34
386.53	571.09
386.72	442.36
386.92	716.20
387.11	624.92
387.31	671.73
387.50	362.78
387.70	372.15
387.89	561.73
388.09	425.98
388.28	425.98
388.48	393.21
388.67	596.84
388.86	416.62
389.06	414.27
389.25	503.22
389.45	528.96
389.64	533.64
389.84	732.59
390.03	561.73
390.22	489.17
390.42	447.04
390.61	407.25
390.81	386.19
391.00	482.15
391.19	697.48
391.39	582.79
391.58	631.94
391.78	496.19
391.97	615.56
392.16	355.76
392.36	758.33
392.55	718.54
392.75	561.73
392.94	430.66
393.13	685.78
393.33	379.17
393.52	449.38
393.71	802.80
393.91	552.37
394.10	404.91
394.29	407.25
394.49	433.00
394.68	606.20
394.88	751.31
395.07	767.70
395.26	540.66
395.46	470.45
395.65	709.18
395.84	671.73
396.04	1109.41
396.23	498.53
396.42	386.19
396.62	664.71
396.81	557.05
397.00	463.43
397.19	557.05
397.39	566.41
397.58	772.38
397.77	454.06
397.97	489.17
398.16	477.47
398.35	648.33
398.55	397.89
398.74	498.53
398.93	685.78
399.12	400.23
399.32	699.82
399.51	454.06
399.70	770.04
399.90	627.26
400.09	596.84
400.28	699.82
400.47	470.45
400.67	608.54
400.86	582.79
401.05	674.07
401.24	699.82
401.44	716.20
401.63	685.78
401.82	840.25
402.01	414.27
402.21	596.84
402.40	566.41
402.59	498.53
402.78	550.03
402.97	498.53
403.17	608.54
403.36	615.56
403.55	617.90
403.74	491.51
403.93	528.96
404.13	788.76
404.32	526.62
404.51	540.66
404.70	800.46
404.89	496.19
405.09	1004.09
405.28	517.26
405.47	472.79
405.66	660.03
405.85	786.42
406.05	575.77
406.24	510.24
406.43	624.92
406.62	599.18
406.81	1097.71
407.00	765.36
407.20	667.05
407.39	578.11
407.58	468.11
407.77	688.12
407.96	856.64
408.15	758.33
408.34	662.37
408.54	697.48
408.73	620.24
408.92	697.48
409.11	730.25
409.30	805.14
409.49	533.64
409.68	514.92
409.87	620.24
410.07	498.53
410.26	603.86
410.45	557.05
410.64	533.64
410.83	657.69
411.02	482.15
411.21	678.76
411.40	786.42
411.59	521.94
411.78	528.96
411.98	599.18
412.17	486.83
412.36	627.26
412.55	582.79
412.74	828.55
412.93	1013.45
413.12	613.22
413.31	837.91
413.50	753.65
413.69	550.03
413.88	933.87
414.07	638.97
414.26	655.35
414.45	624.92
414.64	788.76
414.83	678.76
415.02	653.01
415.22	856.64
415.41	1004.09
415.60	578.11
415.79	655.35
415.98	912.81
416.17	683.44
416.36	629.60
416.55	545.34
416.74	795.78
416.93	908.13
417.12	709.18
417.31	531.30
417.50	610.88
417.69	1064.94
417.88	711.52
418.07	573.43
418.26	643.65
418.45	695.14
418.64	1041.54
418.83	770.04
419.02	755.99
419.21	753.65
419.39	833.23
419.58	641.31
419.77	589.82
419.96	903.45
420.15	1032.18
420.34	786.42
420.53	819.19
420.72	884.72
420.91	781.74
421.10	669.39
421.29	739.61
421.48	765.36
421.67	915.15
421.86	613.22
422.05	699.82
422.24	592.16
422.43	669.39
422.61	561.73
422.80	660.03
422.99	669.39
423.18	561.73
423.37	964.30
423.56	800.46
423.75	730.25
423.94	636.63
424.13	657.69
424.32	589.82
424.50	697.48
424.69	664.71
424.88	922.17
425.07	636.63
425.26	791.10
425.45	793.44
425.64	578.11
425.83	543.00
426.01	891.74
426.20	856.64
426.39	653.01
426.58	650.67
426.77	690.46
426.96	917.49
427.15	887.06
427.33	615.56
427.52	711.52
427.71	720.88
427.90	695.14
428.09	599.18
428.28	587.47
428.46	669.39
428.65	823.87
428.84	840.25
429.03	1034.52
429.22	606.20
429.40	566.41
429.59	603.86
429.78	1095.37
429.97	622.58
430.16	538.32
430.34	594.50
430.53	538.32
430.72	634.29
430.91	854.30
431.10	634.29
431.28	826.21
431.47	908.13
431.66	884.72
431.85	664.71
432.03	741.95
432.22	1193.67
432.41	753.65
432.60	997.07
432.79	641.31
432.97	798.12
433.16	704.50
433.35	643.65
433.54	610.88
433.72	805.14
433.91	809.83
434.10	657.69
434.28	760.67
434.47	704.50
434.66	912.81
434.85	643.65
435.03	784.08
435.22	1022.81
435.41	1121.12
435.59	950.26
435.78	772.38
435.97	732.59
436.16	947.92
436.34	727.91
436.53	784.08
436.72	1004.09
436.90	973.66
437.09	854.30
437.28	709.18
437.46	737.27
437.65	915.15
437.84	844.93
438.02	802.80
438.21	929.19
438.40	643.65
438.58	615.56
438.77	830.89
438.96	767.70
439.14	667.05
439.33	910.47
439.52	720.88
439.70	814.51
439.89	938.55
440.08	889.40
440.26	896.43
440.45	1076.65
440.63	931.53
440.82	830.89
441.01	833.23
441.19	798.12
441.38	793.44
441.57	830.89
441.75	1125.80
441.94	1135.16
442.12	854.30
442.31	765.36
442.50	770.04
442.68	770.04
442.87	884.72
443.05	702.16
443.24	861.32
443.43	1121.12
443.61	1132.82
443.80	847.27
443.98	704.50
444.17	854.30
444.35	997.07
444.54	739.61
444.73	784.08
444.91	1053.24
445.10	674.07
445.28	692.80
445.47	828.55
445.65	828.55
445.84	709.18
446.02	849.61
446.21	809.83
446.39	842.59
446.58	873.02
446.77	706.84
446.95	912.81
447.14	1036.86
447.32	1163.25
447.51	809.83
447.69	854.30
447.88	903.45
448.06	1252.19
448.25	964.30
448.43	807.48
448.62	744.29
448.80	973.66
448.99	938.55
449.17	807.48
449.36	837.91
449.54	1013.45
449.73	718.54
449.91	945.58
450.10	763.01
450.28	1380.92
450.46	1385.60
450.65	1039.20
450.83	971.32
451.02	910.47
451.20	901.11
451.39	842.59
451.57	854.30
451.76	748.97
451.94	894.08
452.13	1015.79
452.31	1153.88
452.49	945.58
452.68	690.46
452.86	891.74
453.05	1287.29
453.23	1015.79
453.42	781.74
453.60	884.72
453.78	1013.45
453.97	786.42
454.15	755.99
454.34	732.59
454.52	779.40
454.70	1156.22
454.89	1020.47
455.07	727.91
455.26	990.05
455.44	1100.05
455.62	882.38
455.81	875.36
455.99	922.17
456.17	1001.75
456.36	884.72
456.54	833.23
456.73	779.40
456.91	910.47
457.09	968.98
457.28	1144.52
457.46	868.34
457.64	1050.90
457.83	833.23
458.01	786.42
458.19	875.36
458.38	763.01
458.56	936.21
458.74	741.95
458.93	954.94
459.11	1013.45
459.29	786.42
459.48	1071.97
459.66	1263.89
459.84	1144.52
460.03	1689.87
460.21	1172.61
460.39	837.91
460.57	1224.10
460.76	978.34
460.94	952.60
461.12	1261.55
461.31	1266.23
461.49	912.81
461.67	943.24
461.85	1027.50
462.04	945.58
462.22	5692.18
462.40	1235.80
462.59	1067.28
462.77	812.17
462.95	1001.75
463.13	765.36
463.32	1102.39
463.50	933.87
463.68	1046.22
463.86	880.04
464.05	786.42
464.23	1135.16
464.41	1128.14
464.59	774.72
464.78	821.53
464.96	858.98
465.14	976.00
465.32	884.72
465.50	1046.22
465.69	1050.90
465.87	739.61
466.05	1015.79
466.23	739.61
466.41	840.25
466.60	919.83
466.78	905.79
466.96	1078.99
467.14	964.30
467.32	1163.25
467.51	1076.65
467.69	1093.03
467.87	1291.98
468.05	1081.33
468.23	1308.36
468.41	1116.44
468.60	922.17
468.78	966.64
468.96	1156.22
469.14	1074.31
469.32	821.53
469.50	816.85
469.69	1053.24
469.87	971.32
470.05	959.62
470.23	957.28
470.41	786.42
470.59	819.19
470.77	968.98
470.95	1050.90
471.14	1188.99
471.32	851.96
471.50	1310.70
471.68	968.98
471.86	1116.44
472.04	863.66
472.22	1093.03
472.40	727.91
472.58	959.62
472.77	765.36
472.95	976.00
473.13	1537.73
473.31	1235.80
473.49	905.79
473.67	856.64
473.85	1158.57
474.03	1128.14
474.21	1062.60
474.39	1249.85
474.57	1299.00
474.75	1055.58
474.93	823.87
475.12	795.78
475.30	968.98
475.48	1015.79
475.66	964.30
475.84	950.26
476.02	983.02
476.20	1224.10
476.38	1041.54
476.56	1540.07
476.74	1027.50
476.92	1013.45
477.10	896.43
477.28	1170.27
477.46	968.98
477.64	1231.12
477.82	1008.77
478.00	999.41
478.18	1095.37
478.36	954.94
478.54	959.62
478.72	922.17
478.90	1018.13
479.08	1125.80
479.26	1107.07
479.44	1036.86
479.62	952.60
479.80	1006.43
479.98	905.79
480.16	1050.90
480.34	1249.85
480.52	957.28
480.70	1282.61
480.88	954.94
481.06	997.07
481.24	976.00
481.41	1015.79
481.59	1184.31
481.77	1139.84
481.95	1029.84
482.13	1376.24
482.31	1114.10
482.49	976.00
482.67	1284.95
482.85	1275.59
483.03	1219.42
483.21	1191.33
483.39	978.34
483.57	1130.48
483.74	1600.93
483.92	1095.37
484.10	891.74
484.28	1259.21
484.46	1696.89
484.64	999.41
484.82	1184.31
485.00	1088.35
485.18	1200.69
485.35	1048.56
485.53	959.62
485.71	1357.51
485.89	861.32
486.07	976.00
486.25	1535.39
486.43	1245.16
486.61	1329.42
486.78	1205.38
486.96	1001.75
487.14	1078.99
487.32	1076.65
487.50	1076.65
487.68	1341.13
487.85	1086.01
488.03	1252.19
488.21	1589.22
488.39	1179.63
488.57	1350.49
488.75	1139.84
488.92	3850.18
489.10	1455.81
489.28	1643.06
489.46	1158.57
489.64	1303.68
489.81	1350.49
489.99	1425.39
490.17	1277.93
490.35	1912.22
490.53	1259.21
490.70	1139.84
490.88	1502.62
491.06	1219.42
491.24	1397.30
491.41	1643.06
491.59	1315.38
491.77	1088.35
491.95	1109.41
492.13	1221.76
492.30	1299.00
492.48	1294.32
492.66	1416.02
492.84	1114.10
493.01	1362.19
493.19	1275.59
493.37	1664.12
493.54	1392.62
493.72	1423.05
493.90	1352.83
494.08	1247.51
494.25	1448.79
494.43	1390.28
494.61	1345.81
494.79	1210.06
494.96	1203.04
495.14	1596.25
495.32	1280.27
495.49	1359.85
495.67	1266.23
495.85	1277.93
496.02	1214.74
496.20	1535.39
496.38	1593.90
496.55	1294.32
496.73	1500.28
496.91	1327.08
497.09	1556.46
497.26	1490.92
497.44	1380.92
497.62	1359.85
497.79	1493.26
497.97	1479.22
498.14	1507.30
498.32	1521.35
498.50	1614.97
498.67	1418.36
498.85	1530.71
499.03	1406.66
499.20	1437.09
499.38	1453.47
499.56	1437.09
499.73	1764.76
499.91	1565.82
500.08	1610.29
500.26	1430.07
500.44	1277.93
500.61	1462.83
500.79	1303.68
500.97	1582.20
501.14	1699.23
501.32	1502.62
501.49	1636.03
501.67	1392.62
501.84	1523.69
502.02	1343.47
502.20	1797.53
502.37	1547.09
502.55	1329.42
502.72	1397.30
502.90	1542.41
503.07	1563.48
503.25	1511.99
503.43	1228.78
503.60	1418.36
503.78	1568.16
503.95	1413.68
504.13	1439.43
504.30	1610.29
504.48	1652.42
504.65	1825.62
504.83	1659.44
505.01	1310.70
505.18	1530.71
505.36	1502.62
505.53	1465.18
505.71	1535.39
505.88	1823.28
506.06	1547.09
506.23	1423.05
506.41	1362.19
506.58	1502.62
506.76	1554.12
506.93	1409.00
507.11	1551.78
507.28	1355.17
507.46	1486.24
507.63	1502.62
507.81	1320.06
507.98	1479.22
508.16	1439.43
508.33	1582.20
508.50	1612.63
508.68	1537.73
508.85	1575.18
509.03	1420.71
509.20	1439.43
509.38	1544.75
509.55	1781.15
509.73	1701.57
509.90	1734.34
510.08	1446.45
510.25	1799.87
510.42	1409.00
510.60	1577.52
510.77	1739.02
510.95	1746.04
511.12	1399.64
511.30	1713.27
511.47	1736.68
511.64	2073.71
511.82	1568.16
511.99	1563.48
512.17	1619.65
512.34	1469.86
512.51	1411.34
512.69	1516.67
512.86	1769.44
513.04	1409.00
513.21	1802.21
513.38	1460.49
513.56	1455.81
513.73	1362.19
513.90	1364.53
514.08	1315.38
514.25	1563.48
514.43	1486.24
514.60	1327.08
514.77	1476.88
514.95	1612.63
515.12	1444.11
515.29	1507.30
515.47	1626.67
515.64	1563.48
515.81	1497.94
515.99	1856.04
516.16	1577.52
516.33	1713.27
516.51	1392.62
516.68	1249.85
516.85	1432.41
517.03	1371.55
517.20	1523.69
517.37	1488.58
517.54	1605.61
517.72	1357.51
517.89	1256.87
518.06	1294.32
518.24	1914.56
518.41	1898.17
518.58	1640.72
518.75	1338.79
518.93	1530.71
519.10	1493.26
519.27	1397.30
519.45	1600.93
519.62	1603.27
519.79	1607.95
519.96	1430.07
520.14	1561.14
520.31	1776.47
520.48	1516.67
520.65	1591.56
520.83	1778.81
521.00	1722.63
521.17	1591.56
521.34	1460.49
521.52	1626.67
521.69	1537.73
521.86	1575.18
522.03	1708.59
522.20	1923.92
522.38	1497.94
522.55	1640.72
522.72	1385.60
522.89	1724.97
523.07	2076.06
523.24	1544.75
523.41	1458.15
523.58	1570.50
523.75	1521.35
523.92	1549.43
524.10	1596.25
524.27	1568.16
524.44	1509.65
524.61	1856.04
524.78	1554.12
524.96	1729.66
525.13	1652.42
525.30	1853.70
525.47	1886.47
525.64	1678.16
525.81	1685.19
525.98	1636.03
526.16	1509.65
526.33	1359.85
526.50	1373.89
526.67	1306.02
526.84	1385.60
527.01	1446.45
527.18	1629.01
527.36	1607.95
527.53	1549.43
527.70	1818.60
527.87	1563.48
528.04	1989.46
528.21	1516.67
528.38	1891.15
528.55	1947.33
528.72	2022.22
528.89	2113.50
529.07	1750.72
529.24	1645.40
529.41	1907.54
529.58	1668.80
529.75	1582.20
529.92	1753.06
530.09	1607.95
530.26	1879.45
530.43	1757.74
530.60	1680.50
530.77	1692.21
530.94	1757.74
531.11	1764.76
531.28	1624.33
531.46	1572.84
531.63	1715.61
531.80	1701.57
531.97	1748.38
532.14	1638.38
532.31	1678.16
532.48	1570.50
532.65	1680.50
532.82	1593.90
532.99	1558.80
533.16	1519.01
533.33	1598.59
533.50	1619.65
533.67	1509.65
533.84	1764.76
534.01	1799.87
534.18	1549.43
534.35	1572.84
534.52	1661.78
534.69	2101.80
534.86	1612.63
535.03	1605.61
535.20	1671.14
535.37	1937.96
535.54	1839.66
535.71	1790.51
535.88	2052.65
536.05	1619.65
536.22	1802.21
536.38	1556.46
536.55	1521.35
536.72	1825.62
536.89	1497.94
537.06	1647.74
537.23	1575.18
537.40	1554.12
537.57	1549.43
537.74	1809.23
537.91	1760.08
538.08	1687.53
538.25	1746.04
538.42	1460.49
538.59	1579.86
538.75	1645.40
538.92	1577.52
539.09	1799.87
539.26	1547.09
539.43	1966.05
539.60	1846.68
539.77	2165.00
539.94	1980.09
540.11	1905.20
540.28	1966.05
540.44	2012.86
540.61	1624.33
540.78	1486.24
540.95	1455.81
541.12	1959.03
541.29	1519.01
541.46	1996.48
541.62	1710.93
541.79	1495.60
541.96	1376.24
542.13	1638.38
542.30	1474.54
542.47	1865.41
542.63	1490.92
542.80	1619.65
542.97	1888.81
543.14	1657.10
543.31	1741.36
543.48	1638.38
543.64	1687.53
543.81	1614.97
543.98	1448.79
544.15	1500.28
544.32	1511.99
544.48	1568.16
544.65	1556.46
544.82	1519.01
544.99	1610.29
545.16	1762.42
545.32	1521.35
545.49	1795.19
545.66	1582.20
545.83	1495.60
546.00	1465.18
546.16	1551.78
546.33	1526.03
546.50	1633.69
546.67	1881.79
546.83	1816.26
547.00	1591.56
547.17	1509.65
547.34	1507.30
547.50	1549.43
547.67	1577.52
547.84	1455.81
548.00	1750.72
548.17	1516.67
548.34	1521.35
548.51	1984.77
548.67	1851.36
548.84	1640.72
549.01	1650.08
549.18	1682.85
549.34	1619.65
549.51	1703.91
549.68	1685.19
549.84	1614.97
550.01	1479.22
550.18	2502.03
550.34	2380.32
550.51	1671.14
550.68	2094.78
550.84	1556.46
551.01	1549.43
551.18	1823.28
551.34	1619.65
551.51	1572.84
551.68	1544.75
551.84	1818.60
552.01	1511.99
552.18	1467.52
552.34	1682.85
552.51	1685.19
552.68	1717.95
552.84	1540.07
553.01	1645.40
553.18	1727.32
553.34	1441.77
553.51	1465.18
553.67	1596.25
553.84	1914.56
554.01	1696.89
554.17	1710.93
554.34	1537.73
554.51	1746.04
554.67	1785.83
554.84	1694.55
555.00	1589.22
555.17	1605.61
555.33	1767.10
555.50	1673.48
555.67	1802.21
555.83	1511.99
556.00	1661.78
556.16	3246.32
556.33	1694.55
556.50	1621.99
556.66	1612.63
556.83	1444.11
556.99	1537.73
557.16	1600.93
557.32	1439.43
557.49	1516.67
557.65	1556.46
557.82	1509.65
557.98	1570.50
558.15	1427.73
558.32	1547.09
558.48	1401.98
558.65	1570.50
558.81	1603.27
558.98	1418.36
559.14	1675.82
559.31	1479.22
559.47	1680.50
559.64	1535.39
559.80	1813.92
559.97	1371.55
560.13	1607.95
560.30	1458.15
560.46	1551.78
560.63	1610.29
560.79	1556.46
560.96	1500.28
561.12	1399.64
561.29	1671.14
561.45	1430.07
561.61	1584.54
561.78	2296.07
561.94	1493.26
562.11	1432.41
562.27	1537.73
562.44	1423.05
562.60	1423.05
562.77	1537.73
562.93	2251.60
563.10	1713.27
563.26	1528.37
563.42	1727.32
563.59	1514.33
563.75	1409.00
563.92	1809.23
564.08	1643.06
564.24	1734.34
564.41	1954.35
564.57	1329.42
564.74	1439.43
564.90	1607.95
565.07	1668.80
565.23	1629.01
565.39	1331.76
565.56	1640.72
565.72	1488.58
565.88	1373.89
566.05	1383.26
566.21	1378.58
566.38	1682.85
566.54	1652.42
566.70	1544.75
566.87	1474.54
567.03	1345.81
567.19	1486.24
567.36	1474.54
567.52	1462.83
567.68	1584.54
567.85	1621.99
568.01	1460.49
568.17	1399.64
568.34	1446.45
568.50	1664.12
568.66	1352.83
568.83	2143.93
568.99	1455.81
569.15	1816.26
569.32	1373.89
569.48	1401.98
569.64	1387.94
569.81	1469.86
569.97	1338.79
570.13	1682.85
570.30	1369.21
570.46	1397.30
570.62	1371.55
570.78	1409.00
570.95	1277.93
571.11	1809.23
571.27	1741.36
571.43	1308.36
571.60	1502.62
571.76	1385.60
571.92	1490.92
572.09	1378.58
572.25	1481.56
572.41	1479.22
572.57	1467.52
572.74	1919.24
572.90	1554.12
573.06	1563.48
573.22	1549.43
573.38	1652.42
573.55	1621.99
573.71	1643.06
573.87	1584.54
574.03	1376.24
574.20	1418.36
574.36	1605.61
574.52	1425.39
574.68	1366.87
574.84	1486.24
575.01	1483.90
575.17	1565.82
575.33	1366.87
575.49	1540.07
575.65	1600.93
575.82	1598.59
575.98	1916.90
576.14	1652.42
576.30	1603.27
576.46	1582.20
576.62	1453.47
576.79	1614.97
576.95	1739.02
577.11	1343.47
577.27	1256.87
577.43	1626.67
577.59	1785.83
577.75	1540.07
577.92	1380.92
578.08	1394.96
578.24	1240.48
578.40	1579.86
578.56	1708.59
578.72	1806.89
578.88	1614.97
579.04	1380.92
579.21	1511.99
579.37	1458.15
579.53	1343.47
579.69	1638.38
579.85	1336.45
580.01	1579.86
580.17	1310.70
580.33	1320.06
580.49	1533.05
580.65	1629.01
580.82	1547.09
580.98	1481.56
581.14	1420.71
581.30	1729.66
581.46	1547.09
581.62	1533.05
581.78	1483.90
581.94	1724.97
582.10	1296.66
582.26	1507.30
582.42	1474.54
582.58	1657.10
582.74	1392.62
582.90	1495.60
583.06	1605.61
583.22	1406.66
583.38	1479.22
583.54	1282.61
583.70	1863.07
583.86	1678.16
584.02	1586.88
584.18	2069.03
584.34	1750.72
584.50	2951.42
584.66	12173.13
584.82	25369.07
584.98	31854.69
585.14	26419.97
585.30	17362.09
585.46	10892.85
585.62	6998.20
585.78	4049.13
585.94	2541.82
586.10	1954.35
586.26	1722.63
586.42	1926.26
586.58	1614.97
586.74	1551.78
586.90	1582.20
587.06	1572.84
587.22	1502.62
587.38	1390.28
587.54	1795.19
587.70	2937.37
587.86	3492.08
588.02	3332.92
588.18	2766.51
588.34	2260.96
588.49	1528.37
588.65	1575.18
588.81	1296.66
588.97	1025.15
589.13	1235.80
589.29	1280.27
589.45	1444.11
589.61	1322.40
589.77	1572.84
589.93	1343.47
590.08	1137.50
590.24	1170.27
590.40	1371.55
590.56	1514.33
590.72	1289.64
590.88	1100.05
591.04	1268.57
591.20	1277.93
591.35	1607.95
591.51	1256.87
591.67	1170.27
591.83	1170.27
591.99	1341.13
592.15	1416.02
592.31	1479.22
592.46	1383.26
592.62	1565.82
592.78	1252.19
592.94	1123.46
593.10	1137.50
593.26	1097.71
593.41	1547.09
593.57	1301.34
593.73	1338.79
593.89	2768.85
594.05	4173.18
594.20	4908.10
594.36	4870.65
594.52	3384.41
594.68	2469.27
594.84	2298.41
594.99	2052.65
595.15	1636.03
595.31	1540.07
595.47	1689.87
595.62	1294.32
595.78	1401.98
595.94	1348.15
596.10	1610.29
596.25	1364.53
596.41	1500.28
596.57	1268.57
596.73	1247.51
596.88	1528.37
597.04	1954.35
597.20	1872.43
597.36	2176.70
597.51	1818.60
597.67	1645.40
597.83	1432.41
597.99	1598.59
598.14	1350.49
598.30	1652.42
598.46	1284.95
598.61	1582.20
598.77	1427.73
598.93	1240.48
599.09	1224.10
599.24	1404.32
599.40	1549.43
599.56	1308.36
599.71	1366.87
599.87	1228.78
600.03	1341.13
600.18	1334.11
600.34	1397.30
600.50	1207.72
600.65	1144.52
600.81	1465.18
600.97	1247.51
601.12	1299.00
