SpectraSuite Data File
++++++++++++++++++++++++++++++++++++
Date: Fri Oct 04 11:34:10 GMT-05:00 2013
User: price-jones
Dark Spectrum Present: No
Reference Spectrum Present: No
Number of Sampled Component Spectra: 1
Spectrometers: USB2+H05261
Integration Time (usec): 100000 (USB2+H05261)
Spectra Averaged: 1 (USB2+H05261)
Boxcar Smoothing: 0 (USB2+H05261)
Correct for Electrical Dark: No (USB2+H05261)
Strobe/Lamp Enabled: No (USB2+H05261)
Correct for Detector Non-linearity: No (USB2+H05261)
Correct for Stray Light: No (USB2+H05261)
Number of Pixels in Processed Spectrum: 2048
>>>>>Begin Processed Spectral Data<<<<<
365.73	77.24
365.92	77.24
366.12	77.24
366.32	16.38
366.52	0.00
366.72	0.00
366.91	0.00
367.11	0.00
367.31	0.00
367.51	16.38
367.70	0.00
367.90	0.00
368.10	28.09
368.30	0.00
368.49	18.72
368.69	7.02
368.89	0.00
369.09	0.00
369.28	9.36
369.48	11.70
369.68	42.13
369.87	0.00
370.07	0.00
370.27	0.00
370.47	42.13
370.66	93.62
370.86	110.01
371.06	184.90
371.25	102.98
371.45	77.24
371.65	140.43
371.84	107.66
372.04	102.98
372.24	131.07
372.44	63.19
372.63	208.31
372.83	159.16
373.03	142.77
373.22	112.35
373.42	105.32
373.62	161.50
373.81	154.48
374.01	98.30
374.21	212.99
374.40	161.50
374.60	114.69
374.79	163.84
374.99	133.41
375.19	166.18
375.38	168.52
375.58	175.54
375.78	95.96
375.97	147.45
376.17	187.24
376.37	100.64
376.56	138.09
376.76	152.13
376.95	147.45
377.15	238.73
377.35	194.26
377.54	102.98
377.74	205.97
377.93	163.84
378.13	102.98
378.33	124.05
378.52	91.28
378.72	163.84
378.91	173.20
379.11	152.13
379.31	37.45
379.50	138.09
379.70	166.18
379.89	238.73
380.09	210.65
380.28	168.52
380.48	81.92
380.68	133.41
380.87	105.32
381.07	140.43
381.26	133.41
381.46	124.05
381.65	93.62
381.85	182.56
382.04	168.52
382.24	112.35
382.43	119.37
382.63	91.28
382.83	63.19
383.02	163.84
383.22	112.35
383.41	77.24
383.61	135.75
383.80	112.35
384.00	201.29
384.19	100.64
384.39	131.07
384.58	124.05
384.78	147.45
384.97	168.52
385.17	110.01
385.36	133.41
385.56	126.39
385.75	121.71
385.95	124.05
386.14	138.09
386.34	53.83
386.53	147.45
386.72	95.96
386.92	133.41
387.11	236.39
387.31	184.90
387.50	154.48
387.70	145.11
387.89	201.29
388.09	114.69
388.28	163.84
388.48	70.22
388.67	203.63
388.86	126.39
389.06	91.28
389.25	203.63
389.45	222.35
389.64	152.13
389.84	210.65
390.03	248.10
390.22	170.86
390.42	147.45
390.61	140.43
390.81	121.71
391.00	170.86
391.19	210.65
391.39	102.98
391.58	91.28
391.78	93.62
391.97	65.54
392.16	84.26
392.36	147.45
392.55	154.48
392.75	112.35
392.94	121.71
393.13	191.92
393.33	121.71
393.52	152.13
393.71	163.84
393.91	152.13
394.10	126.39
394.29	112.35
394.49	170.86
394.68	182.56
394.88	189.58
395.07	159.16
395.26	198.95
395.46	121.71
395.65	126.39
395.84	138.09
396.04	180.22
396.23	126.39
396.42	86.60
396.62	161.50
396.81	205.97
397.00	112.35
397.19	147.45
397.39	65.54
397.58	140.43
397.77	81.92
397.97	105.32
398.16	65.54
398.35	156.82
398.55	142.77
398.74	170.86
398.93	121.71
399.12	114.69
399.32	159.16
399.51	159.16
399.70	159.16
399.90	163.84
400.09	117.03
400.28	102.98
400.47	135.75
400.67	198.95
400.86	175.54
401.05	166.18
401.24	161.50
401.44	131.07
401.63	201.29
401.82	159.16
402.01	163.84
402.21	177.88
402.40	91.28
402.59	135.75
402.78	135.75
402.97	86.60
403.17	30.43
403.36	217.67
403.55	114.69
403.74	170.86
403.93	285.55
404.13	189.58
404.32	212.99
404.51	229.37
404.70	229.37
404.89	161.50
405.09	208.31
405.28	203.63
405.47	107.66
405.66	152.13
405.85	175.54
406.05	187.24
406.24	184.90
406.43	194.26
406.62	98.30
406.81	163.84
407.00	201.29
407.20	238.73
407.39	140.43
407.58	72.56
407.77	187.24
407.96	196.60
408.15	182.56
408.34	159.16
408.54	119.37
408.73	201.29
408.92	212.99
409.11	182.56
409.30	117.03
409.49	44.47
409.68	72.56
409.87	91.28
410.07	119.37
410.26	149.79
410.45	135.75
410.64	189.58
410.83	191.92
411.02	74.90
411.21	128.73
411.40	189.58
411.59	208.31
411.78	208.31
411.98	112.35
412.17	147.45
412.36	140.43
412.55	128.73
412.74	173.20
412.93	147.45
413.12	189.58
413.31	166.18
413.50	79.58
413.69	163.84
413.88	182.56
414.07	212.99
414.26	212.99
414.45	140.43
414.64	152.13
414.83	133.41
415.02	161.50
415.22	154.48
415.41	278.52
415.60	217.67
415.79	262.14
415.98	191.92
416.17	182.56
416.36	140.43
416.55	154.48
416.74	159.16
416.93	198.95
417.12	173.20
417.31	194.26
417.50	196.60
417.69	229.37
417.88	271.50
418.07	126.39
418.26	191.92
418.45	191.92
418.64	241.08
418.83	234.05
419.02	255.12
419.21	222.35
419.39	187.24
419.58	234.05
419.77	234.05
419.96	238.73
420.15	138.09
420.34	159.16
420.53	170.86
420.72	217.67
420.91	117.03
421.10	227.03
421.29	222.35
421.48	241.08
421.67	168.52
421.86	259.80
422.05	170.86
422.24	60.85
422.43	180.22
422.61	168.52
422.80	112.35
422.99	152.13
423.18	110.01
423.37	215.33
423.56	126.39
423.75	135.75
423.94	161.50
424.13	154.48
424.32	135.75
424.50	154.48
424.69	149.79
424.88	201.29
425.07	126.39
425.26	196.60
425.45	229.37
425.64	257.46
425.83	252.78
426.01	201.29
426.20	131.07
426.39	189.58
426.58	163.84
426.77	198.95
426.96	180.22
427.15	163.84
427.33	196.60
427.52	156.82
427.71	212.99
427.90	133.41
428.09	205.97
428.28	105.32
428.46	149.79
428.65	173.20
428.84	163.84
429.03	184.90
429.22	163.84
429.40	65.54
429.59	107.66
429.78	234.05
429.97	173.20
430.16	191.92
430.34	215.33
430.53	121.71
430.72	112.35
430.91	121.71
431.10	84.26
431.28	152.13
431.47	175.54
431.66	166.18
431.85	142.77
432.03	163.84
432.22	222.35
432.41	210.65
432.60	250.44
432.79	212.99
432.97	224.69
433.16	299.59
433.35	259.80
433.54	203.63
433.72	161.50
433.91	236.39
434.10	198.95
434.28	224.69
434.47	210.65
434.66	252.78
434.85	217.67
435.03	236.39
435.22	339.38
435.41	484.49
435.59	496.19
435.78	341.72
435.97	241.08
436.16	234.05
436.34	201.29
436.53	234.05
436.72	163.84
436.90	163.84
437.09	119.37
437.28	238.73
437.46	177.88
437.65	215.33
437.84	205.97
438.02	131.07
438.21	222.35
438.40	159.16
438.58	135.75
438.77	229.37
438.96	198.95
439.14	203.63
439.33	170.86
439.52	140.43
439.70	208.31
439.89	173.20
440.08	248.10
440.26	208.31
440.45	212.99
440.63	194.26
440.82	231.71
441.01	168.52
441.19	166.18
441.38	112.35
441.57	105.32
441.75	210.65
441.94	198.95
442.12	208.31
442.31	119.37
442.50	126.39
442.68	156.82
442.87	189.58
443.05	154.48
443.24	224.69
443.43	194.26
443.61	266.82
443.80	161.50
443.98	91.28
444.17	147.45
444.35	234.05
444.54	217.67
444.73	173.20
444.91	196.60
445.10	156.82
445.28	224.69
445.47	231.71
445.65	250.44
445.84	135.75
446.02	156.82
446.21	168.52
446.39	196.60
446.58	224.69
446.77	170.86
446.95	154.48
447.14	203.63
447.32	236.39
447.51	217.67
447.69	238.73
447.88	175.54
448.06	238.73
448.25	205.97
448.43	152.13
448.62	222.35
448.80	149.79
448.99	222.35
449.17	184.90
449.36	154.48
449.54	168.52
449.73	173.20
449.91	234.05
450.10	152.13
450.28	252.78
450.46	208.31
450.65	203.63
450.83	91.28
451.02	217.67
451.20	212.99
451.39	124.05
451.57	198.95
451.76	224.69
451.94	159.16
452.13	241.08
452.31	297.25
452.49	238.73
452.68	191.92
452.86	234.05
453.05	234.05
453.23	196.60
453.42	173.20
453.60	241.08
453.78	231.71
453.97	124.05
454.15	250.44
454.34	173.20
454.52	107.66
454.70	210.65
454.89	229.37
455.07	131.07
455.26	191.92
455.44	205.97
455.62	182.56
455.81	191.92
455.99	201.29
456.17	189.58
456.36	184.90
456.54	159.16
456.73	205.97
456.91	189.58
457.09	205.97
457.28	243.42
457.46	166.18
457.64	229.37
457.83	243.42
458.01	210.65
458.19	170.86
458.38	234.05
458.56	159.16
458.74	159.16
458.93	236.39
459.11	241.08
459.29	184.90
459.48	105.32
459.66	217.67
459.84	210.65
460.03	299.59
460.21	231.71
460.39	215.33
460.57	196.60
460.76	149.79
460.94	201.29
461.12	241.08
461.31	236.39
461.49	224.69
461.67	292.57
461.85	208.31
462.04	212.99
462.22	344.06
462.40	189.58
462.59	224.69
462.77	173.20
462.95	177.88
463.13	110.01
463.32	212.99
463.50	182.56
463.68	227.03
463.86	210.65
464.05	234.05
464.23	203.63
464.41	149.79
464.59	241.08
464.78	191.92
464.96	175.54
465.14	220.01
465.32	257.46
465.50	238.73
465.69	222.35
465.87	196.60
466.05	238.73
466.23	138.09
466.41	196.60
466.60	189.58
466.78	194.26
466.96	196.60
467.14	220.01
467.32	212.99
467.51	191.92
467.69	182.56
467.87	205.97
468.05	203.63
468.23	215.33
468.41	184.90
468.60	205.97
468.78	215.33
468.96	156.82
469.14	191.92
469.32	182.56
469.50	189.58
469.69	201.29
469.87	257.46
470.05	196.60
470.23	168.52
470.41	149.79
470.59	220.01
470.77	205.97
470.95	250.44
471.14	243.42
471.32	224.69
471.50	241.08
471.68	182.56
471.86	262.14
472.04	210.65
472.22	234.05
472.40	95.96
472.58	152.13
472.77	180.22
472.95	168.52
473.13	255.12
473.31	215.33
473.49	250.44
473.67	201.29
473.85	227.03
474.03	184.90
474.21	163.84
474.39	299.59
474.57	217.67
474.75	203.63
474.93	238.73
475.12	191.92
475.30	128.73
475.48	205.97
475.66	128.73
475.84	212.99
476.02	234.05
476.20	224.69
476.38	210.65
476.56	255.12
476.74	227.03
476.92	201.29
477.10	117.03
477.28	210.65
477.46	236.39
477.64	173.20
477.82	203.63
478.00	210.65
478.18	208.31
478.36	191.92
478.54	222.35
478.72	198.95
478.90	191.92
479.08	159.16
479.26	238.73
479.44	215.33
479.62	105.32
479.80	241.08
479.98	187.24
480.16	241.08
480.34	198.95
480.52	180.22
480.70	252.78
480.88	191.92
481.06	243.42
481.24	140.43
481.41	194.26
481.59	238.73
481.77	257.46
481.95	255.12
482.13	238.73
482.31	264.48
482.49	201.29
482.67	243.42
482.85	280.86
483.03	217.67
483.21	250.44
483.39	215.33
483.57	229.37
483.74	210.65
483.92	173.20
484.10	231.71
484.28	243.42
484.46	301.93
484.64	248.10
484.82	184.90
485.00	294.91
485.18	231.71
485.35	308.95
485.53	241.08
485.71	311.29
485.89	224.69
486.07	217.67
486.25	250.44
486.43	243.42
486.61	238.73
486.78	304.27
486.96	222.35
487.14	280.86
487.32	271.50
487.50	217.67
487.68	276.18
487.85	306.61
488.03	266.82
488.21	292.57
488.39	212.99
488.57	252.78
488.75	299.59
488.92	465.77
489.10	325.33
489.28	330.02
489.46	224.69
489.64	266.82
489.81	290.23
489.99	294.91
490.17	276.18
490.35	325.33
490.53	259.80
490.70	259.80
490.88	229.37
491.06	245.76
491.24	259.80
491.41	315.97
491.59	287.89
491.77	248.10
491.95	187.24
492.13	243.42
492.30	252.78
492.48	224.69
492.66	229.37
492.84	245.76
493.01	334.70
493.19	248.10
493.37	313.63
493.54	259.80
493.72	318.31
493.90	294.91
494.08	238.73
494.25	234.05
494.43	210.65
494.61	224.69
494.79	250.44
494.96	173.20
495.14	243.42
495.32	271.50
495.49	241.08
495.67	264.48
495.85	203.63
496.02	266.82
496.20	259.80
496.38	227.03
496.55	294.91
496.73	255.12
496.91	220.01
497.09	299.59
497.26	337.04
497.44	224.69
497.62	262.14
497.79	198.95
497.97	222.35
498.14	212.99
498.32	180.22
498.50	292.57
498.67	196.60
498.85	294.91
499.03	257.46
499.20	322.99
499.38	285.55
499.56	266.82
499.73	395.55
499.91	292.57
500.08	255.12
500.26	262.14
500.44	297.25
500.61	252.78
500.79	196.60
500.97	217.67
501.14	276.18
501.32	308.95
501.49	264.48
501.67	255.12
501.84	278.52
502.02	283.20
502.20	280.86
502.37	266.82
502.55	161.50
502.72	287.89
502.90	301.93
503.07	264.48
503.25	252.78
503.43	266.82
503.60	264.48
503.78	215.33
503.95	234.05
504.13	318.31
504.30	255.12
504.48	276.18
504.65	311.29
504.83	315.97
505.01	163.84
505.18	243.42
505.36	273.84
505.53	189.58
505.71	269.16
505.88	278.52
506.06	262.14
506.23	299.59
506.41	257.46
506.58	339.38
506.76	255.12
506.93	276.18
507.11	285.55
507.28	262.14
507.46	220.01
507.63	278.52
507.81	327.68
507.98	313.63
508.16	320.65
508.33	341.72
508.50	280.86
508.68	269.16
508.85	294.91
509.03	292.57
509.20	273.84
509.38	285.55
509.55	290.23
509.73	250.44
509.90	358.10
510.08	285.55
510.25	257.46
510.42	238.73
510.60	227.03
510.77	224.69
510.95	320.65
511.12	287.89
511.30	393.21
511.47	344.06
511.64	301.93
511.82	304.27
511.99	245.76
512.17	287.89
512.34	278.52
512.51	311.29
512.69	358.10
512.86	299.59
513.04	255.12
513.21	306.61
513.38	266.82
513.56	276.18
513.73	198.95
513.90	259.80
514.08	142.77
514.25	283.20
514.43	266.82
514.60	287.89
514.77	304.27
514.95	313.63
515.12	266.82
515.29	203.63
515.47	297.25
515.64	236.39
515.81	271.50
515.99	262.14
516.16	222.35
516.33	285.55
516.51	278.52
516.68	243.42
516.85	220.01
517.03	222.35
517.20	280.86
517.37	297.25
517.54	278.52
517.72	271.50
517.89	184.90
518.06	245.76
518.24	266.82
518.41	273.84
518.58	332.36
518.75	182.56
518.93	285.55
519.10	322.99
519.27	269.16
519.45	294.91
519.62	259.80
519.79	299.59
519.96	222.35
520.14	287.89
520.31	264.48
520.48	278.52
520.65	283.20
520.83	318.31
521.00	322.99
521.17	283.20
521.34	248.10
521.52	224.69
521.69	283.20
521.86	264.48
522.03	280.86
522.20	353.42
522.38	248.10
522.55	264.48
522.72	210.65
522.89	243.42
523.07	262.14
523.24	306.61
523.41	245.76
523.58	278.52
523.75	285.55
523.92	236.39
524.10	271.50
524.27	215.33
524.44	245.76
524.61	287.89
524.78	229.37
524.96	278.52
525.13	257.46
525.30	248.10
525.47	332.36
525.64	222.35
525.81	227.03
525.98	330.02
526.16	269.16
526.33	273.84
526.50	294.91
526.67	327.68
526.84	180.22
527.01	252.78
527.18	203.63
527.36	315.97
527.53	250.44
527.70	327.68
527.87	264.48
528.04	325.33
528.21	203.63
528.38	241.08
528.55	241.08
528.72	353.42
528.89	299.59
529.07	262.14
529.24	285.55
529.41	285.55
529.58	304.27
529.75	320.65
529.92	297.25
530.09	292.57
530.26	278.52
530.43	355.76
530.60	287.89
530.77	210.65
530.94	332.36
531.11	301.93
531.28	308.95
531.46	348.74
531.63	250.44
531.80	241.08
531.97	304.27
532.14	259.80
532.31	301.93
532.48	430.66
532.65	348.74
532.82	397.89
532.99	376.83
533.16	327.68
533.33	344.06
533.50	332.36
533.67	355.76
533.84	437.68
534.01	423.64
534.18	372.15
534.35	367.46
534.52	264.48
534.69	346.40
534.86	266.82
535.03	262.14
535.20	266.82
535.37	351.08
535.54	311.29
535.71	301.93
535.88	283.20
536.05	259.80
536.22	294.91
536.38	381.51
536.55	271.50
536.72	290.23
536.89	229.37
537.06	346.40
537.23	346.40
537.40	304.27
537.57	346.40
537.74	325.33
537.91	292.57
538.08	341.72
538.25	318.31
538.42	308.95
538.59	327.68
538.75	344.06
538.92	353.42
539.09	332.36
539.26	409.59
539.43	521.94
539.60	1188.99
539.77	1544.75
539.94	1542.41
540.11	1067.28
540.28	751.31
540.44	608.54
540.61	482.15
540.78	512.58
540.95	550.03
541.12	606.20
541.29	596.84
541.46	643.65
541.62	568.75
541.79	594.50
541.96	575.77
542.13	629.60
542.30	533.64
542.47	596.84
542.63	561.73
542.80	442.36
542.97	547.69
543.14	526.62
543.31	575.77
543.48	557.05
543.64	535.98
543.81	521.94
543.98	496.19
544.15	428.32
544.32	496.19
544.48	533.64
544.65	503.22
544.82	447.04
544.99	496.19
545.16	512.58
545.32	552.37
545.49	819.19
545.66	954.94
545.83	1102.39
546.00	992.39
546.16	784.08
546.33	608.54
546.50	538.32
546.67	566.41
546.83	465.77
547.00	486.83
547.17	418.96
547.34	433.00
547.50	437.68
547.67	503.22
547.84	404.91
548.00	531.30
548.17	433.00
548.34	430.66
548.51	468.11
548.67	409.59
548.84	381.51
549.01	395.55
549.18	433.00
549.34	320.65
549.51	407.25
549.68	351.08
549.84	358.10
550.01	311.29
550.18	458.74
550.34	440.02
550.51	308.95
550.68	400.23
550.84	304.27
551.01	330.02
551.18	276.18
551.34	351.08
551.51	322.99
551.68	280.86
551.84	379.17
552.01	262.14
552.18	353.42
552.34	360.44
552.51	353.42
552.68	290.23
552.84	360.44
553.01	334.70
553.18	313.63
553.34	315.97
553.51	292.57
553.67	264.48
553.84	278.52
554.01	351.08
554.17	330.02
554.34	266.82
554.51	344.06
554.67	304.27
554.84	332.36
555.00	332.36
555.17	229.37
555.33	243.42
555.50	315.97
555.67	304.27
555.83	327.68
556.00	252.78
556.16	418.96
556.33	330.02
556.50	301.93
556.66	264.48
556.83	210.65
556.99	271.50
557.16	290.23
557.32	280.86
557.49	325.33
557.65	264.48
557.82	212.99
557.98	257.46
558.15	266.82
558.32	311.29
558.48	269.16
558.65	250.44
558.81	201.29
558.98	315.97
559.14	306.61
559.31	315.97
559.47	311.29
559.64	248.10
559.80	353.42
559.97	203.63
560.13	290.23
560.30	217.67
560.46	243.42
560.63	229.37
560.79	243.42
560.96	177.88
561.12	236.39
561.29	278.52
561.45	257.46
561.61	276.18
561.78	388.53
561.94	278.52
562.11	229.37
562.27	252.78
562.44	222.35
562.60	262.14
562.77	271.50
562.93	325.33
563.10	248.10
563.26	283.20
563.42	271.50
563.59	294.91
563.75	238.73
563.92	355.76
564.08	257.46
564.24	273.84
564.41	330.02
564.57	250.44
564.74	224.69
564.90	299.59
565.07	304.27
565.23	315.97
565.39	315.97
565.56	318.31
565.72	290.23
565.88	306.61
566.05	339.38
566.21	318.31
566.38	266.82
566.54	222.35
566.70	224.69
566.87	308.95
567.03	292.57
567.19	257.46
567.36	308.95
567.52	208.31
567.68	285.55
567.85	241.08
568.01	280.86
568.17	229.37
568.34	231.71
568.50	273.84
568.66	332.36
568.83	393.21
568.99	365.12
569.15	283.20
569.32	315.97
569.48	297.25
569.64	177.88
569.81	201.29
569.97	308.95
570.13	276.18
570.30	238.73
570.46	252.78
570.62	252.78
570.78	210.65
570.95	273.84
571.11	348.74
571.27	271.50
571.43	280.86
571.60	280.86
571.76	285.55
571.92	269.16
572.09	227.03
572.25	271.50
572.41	313.63
572.57	276.18
572.74	294.91
572.90	290.23
573.06	287.89
573.22	259.80
573.38	339.38
573.55	269.16
573.71	292.57
573.87	231.71
574.03	266.82
574.20	217.67
574.36	255.12
574.52	367.46
574.68	355.76
574.84	318.31
575.01	402.57
575.17	351.08
575.33	241.08
575.49	278.52
575.65	308.95
575.82	346.40
575.98	500.87
576.14	695.14
576.30	732.59
576.46	657.69
576.62	552.37
576.79	650.67
576.95	517.26
577.11	421.30
577.27	346.40
577.43	404.91
577.59	379.17
577.75	360.44
577.92	269.16
578.08	285.55
578.24	276.18
578.40	367.46
578.56	433.00
578.72	482.15
578.88	479.81
579.04	442.36
579.21	444.70
579.37	348.74
579.53	365.12
579.69	374.49
579.85	444.70
580.01	521.94
580.17	379.17
580.33	447.04
580.49	470.45
580.65	442.36
580.82	341.72
580.98	414.27
581.14	383.85
581.30	393.21
581.46	468.11
581.62	636.63
581.78	674.07
581.94	653.01
582.10	442.36
582.26	498.53
582.42	461.09
582.58	440.02
582.74	482.15
582.90	561.73
583.06	561.73
583.22	477.47
583.38	552.37
583.54	568.75
583.70	657.69
583.86	685.78
584.02	770.04
584.18	896.43
584.34	1184.31
584.50	3155.04
584.66	22178.92
584.82	52980.37
584.98	62101.43
585.14	58885.54
585.30	42277.10
585.46	25652.27
585.62	15913.30
585.78	7431.20
585.94	3000.57
586.10	1521.35
586.26	999.41
586.42	896.43
586.58	702.16
586.74	779.40
586.90	713.86
587.06	781.74
587.22	655.35
587.38	648.33
587.54	1228.78
587.70	3475.70
587.86	5256.84
588.02	5722.61
588.18	3967.21
588.34	2609.70
588.49	1734.34
588.65	1142.18
588.81	624.92
588.97	444.70
589.13	355.76
589.29	367.46
589.45	292.57
589.61	360.44
589.77	451.72
589.93	454.06
590.08	489.17
590.24	517.26
590.40	510.24
590.56	423.64
590.72	367.46
590.88	400.23
591.04	482.15
591.20	430.66
591.35	454.06
591.51	428.32
591.67	365.12
591.83	409.59
591.99	337.04
592.15	458.74
592.31	447.04
592.46	451.72
592.62	355.76
592.78	435.34
592.94	393.21
593.10	390.87
593.26	498.53
593.41	418.96
593.57	477.47
593.73	573.43
593.89	2691.62
594.05	6853.09
594.20	9846.63
594.36	9231.07
594.52	5926.24
594.68	3971.89
594.84	2691.62
594.99	1483.90
595.15	748.97
595.31	475.13
595.47	348.74
595.62	421.30
595.78	374.49
595.94	383.85
596.10	423.64
596.25	477.47
596.41	477.47
596.57	358.10
596.73	418.96
596.88	638.97
597.04	1334.11
597.20	2099.46
597.36	2483.31
597.51	1877.11
597.67	1306.02
597.83	973.66
597.99	746.63
598.14	526.62
598.30	421.30
598.46	386.19
598.61	416.62
598.77	383.85
598.93	456.40
599.09	416.62
599.24	339.38
599.40	374.49
599.56	280.86
599.71	346.40
599.87	369.80
600.03	353.42
600.18	315.97
600.34	330.02
600.50	294.91
600.65	311.29
600.81	379.17
600.97	304.27
601.12	306.61
601.28	360.44
601.44	313.63
601.59	243.42
601.75	269.16
601.91	304.27
602.06	367.46
602.22	414.27
602.37	692.80
602.53	1645.40
602.69	2506.71
602.84	2544.16
603.00	1914.56
603.16	1371.55
603.31	1020.47
603.47	734.93
603.62	475.13
603.78	362.78
603.94	355.76
604.09	299.59
604.25	358.10
604.40	315.97
604.56	358.10
604.71	255.12
604.87	304.27
605.03	287.89
605.18	330.02
605.34	337.04
605.49	346.40
605.65	299.59
605.80	283.20
605.96	306.61
606.12	322.99
606.27	414.27
606.43	388.53
606.58	425.98
606.74	858.98
606.89	3330.58
607.05	6270.30
607.20	8053.78
607.36	6722.02
607.51	4636.60
607.67	3094.19
607.82	2153.29
607.98	1273.25
608.13	674.07
608.29	603.86
608.44	533.64
608.60	496.19
608.75	547.69
608.91	1198.35
609.06	5219.39
609.22	10916.26
609.37	14303.01
609.53	12486.76
609.68	8538.27
609.84	5640.69
609.99	3992.95
610.15	2179.04
