SpectraSuite Data File
++++++++++++++++++++++++++++++++++++
Date: Fri Oct 04 12:13:56 GMT-05:00 2013
User: price-jones
Dark Spectrum Present: No
Reference Spectrum Present: No
Number of Sampled Component Spectra: 1
Spectrometers: USB2+H05261
Integration Time (usec): 1000000 (USB2+H05261)
Spectra Averaged: 1 (USB2+H05261)
Boxcar Smoothing: 0 (USB2+H05261)
Correct for Electrical Dark: No (USB2+H05261)
Strobe/Lamp Enabled: No (USB2+H05261)
Correct for Detector Non-linearity: No (USB2+H05261)
Correct for Stray Light: No (USB2+H05261)
Number of Pixels in Processed Spectrum: 2048
>>>>>Begin Processed Spectral Data<<<<<
365.73	0.00
365.92	0.00
366.12	0.00
366.32	0.00
366.52	0.00
366.72	397.89
366.91	72.56
367.11	243.42
367.31	273.84
367.51	259.80
367.70	308.95
367.90	489.17
368.10	322.99
368.30	348.74
368.49	159.16
368.69	484.49
368.89	376.83
369.09	138.09
369.28	320.65
369.48	149.79
369.68	201.29
369.87	351.08
370.07	163.84
370.27	491.51
370.47	393.21
370.66	320.65
370.86	468.11
371.06	767.70
371.25	976.00
371.45	407.25
371.65	667.05
371.84	306.61
372.04	245.76
372.24	451.72
372.44	449.38
372.63	587.47
372.83	866.00
373.03	458.74
373.22	362.78
373.42	397.89
373.62	437.68
373.81	608.54
374.01	786.42
374.21	702.16
374.40	430.66
374.60	667.05
374.79	475.13
374.99	454.06
375.19	580.45
375.38	648.33
375.58	514.92
375.78	716.20
375.97	601.52
376.17	952.60
376.37	484.49
376.56	538.32
376.76	372.15
376.95	400.23
377.15	571.09
377.35	547.69
377.54	624.92
377.74	470.45
377.93	458.74
378.13	571.09
378.33	767.70
378.52	526.62
378.72	671.73
378.91	613.22
379.11	430.66
379.31	374.49
379.50	334.70
379.70	741.95
379.89	704.50
380.09	463.43
380.28	416.62
380.48	650.67
380.68	353.42
380.87	402.57
381.07	596.84
381.26	774.72
381.46	683.44
381.65	617.90
381.85	444.70
382.04	519.60
382.24	568.75
382.43	482.15
382.63	362.78
382.83	444.70
383.02	648.33
383.22	770.04
383.41	383.85
383.61	496.19
383.80	402.57
384.00	449.38
384.19	444.70
384.39	566.41
384.58	503.22
384.78	617.90
384.97	531.30
385.17	449.38
385.36	402.57
385.56	678.76
385.75	346.40
385.95	477.47
386.14	692.80
386.34	505.56
386.53	608.54
386.72	479.81
386.92	709.18
387.11	582.79
387.31	599.18
387.50	386.19
387.70	397.89
387.89	510.24
388.09	428.32
388.28	337.04
388.48	489.17
388.67	645.99
388.86	503.22
389.06	486.83
389.25	638.97
389.45	543.00
389.64	510.24
389.84	737.27
390.03	585.13
390.22	468.11
390.42	477.47
390.61	416.62
390.81	379.17
391.00	468.11
391.19	716.20
391.39	472.79
391.58	648.33
391.78	517.26
391.97	514.92
392.16	390.87
392.36	837.91
392.55	676.41
392.75	521.94
392.94	425.98
393.13	732.59
393.33	435.34
393.52	372.15
393.71	795.78
393.91	538.32
394.10	409.59
394.29	428.32
394.49	491.51
394.68	641.31
394.88	807.48
395.07	842.59
395.26	585.13
395.46	489.17
395.65	760.67
395.84	641.31
396.04	1205.38
396.23	543.00
396.42	390.87
396.62	610.88
396.81	545.34
397.00	512.58
397.19	578.11
397.39	510.24
397.58	873.02
397.77	482.15
397.97	500.87
398.16	493.85
398.35	755.99
398.55	376.83
398.74	500.87
398.93	671.73
399.12	468.11
399.32	697.48
399.51	526.62
399.70	631.94
399.90	596.84
400.09	732.59
400.28	795.78
400.47	545.34
400.67	720.88
400.86	571.09
401.05	709.18
401.24	816.85
401.44	702.16
401.63	746.63
401.82	791.10
402.01	430.66
402.21	655.35
402.40	603.86
402.59	582.79
402.78	566.41
402.97	568.75
403.17	617.90
403.36	653.01
403.55	566.41
403.74	603.86
403.93	662.37
404.13	922.17
404.32	615.56
404.51	580.45
404.70	835.57
404.89	538.32
405.09	1034.52
405.28	636.63
405.47	425.98
405.66	681.10
405.85	849.61
406.05	650.67
406.24	564.07
406.43	702.16
406.62	711.52
406.81	1043.88
407.00	760.67
407.20	596.84
407.39	528.96
407.58	543.00
407.77	678.76
407.96	917.49
408.15	786.42
408.34	653.01
408.54	653.01
408.73	631.94
408.92	737.27
409.11	767.70
409.30	791.10
409.49	524.28
409.68	592.16
409.87	648.33
410.07	456.40
410.26	645.99
410.45	521.94
410.64	538.32
410.83	711.52
411.02	521.94
411.21	702.16
411.40	774.72
411.59	716.20
411.78	580.45
411.98	662.37
412.17	477.47
412.36	603.86
412.55	645.99
412.74	774.72
412.93	945.58
413.12	573.43
413.31	795.78
413.50	781.74
413.69	704.50
413.88	952.60
414.07	713.86
414.26	645.99
414.45	547.69
414.64	795.78
414.83	727.91
415.02	723.23
415.22	894.08
415.41	915.15
415.60	599.18
415.79	746.63
415.98	889.40
416.17	741.95
416.36	648.33
416.55	655.35
416.74	814.51
416.93	858.98
417.12	634.29
417.31	709.18
417.50	765.36
417.69	1137.50
417.88	849.61
418.07	758.33
418.26	772.38
418.45	737.27
418.64	1193.67
418.83	929.19
419.02	884.72
419.21	786.42
419.39	744.29
419.58	746.63
419.77	784.08
419.96	971.32
420.15	1102.39
420.34	809.83
420.53	713.86
420.72	947.92
420.91	770.04
421.10	657.69
421.29	744.29
421.48	854.30
421.67	884.72
421.86	655.35
422.05	664.71
422.24	641.31
422.43	755.99
422.61	575.77
422.80	638.97
422.99	730.25
423.18	655.35
423.37	1006.43
423.56	896.43
423.75	842.59
423.94	599.18
424.13	690.46
424.32	664.71
424.50	704.50
424.69	695.14
424.88	1032.18
425.07	741.95
425.26	896.43
425.45	1039.20
425.64	891.74
425.83	877.70
426.01	1081.33
426.20	887.06
426.39	667.05
426.58	702.16
426.77	683.44
426.96	983.02
427.15	830.89
427.33	608.54
427.52	795.78
427.71	692.80
427.90	678.76
428.09	629.60
428.28	620.24
428.46	638.97
428.65	835.57
428.84	884.72
429.03	983.02
429.22	620.24
429.40	615.56
429.59	603.86
429.78	1149.20
429.97	636.63
430.16	624.92
430.34	692.80
430.53	631.94
430.72	653.01
430.91	875.36
431.10	566.41
431.28	678.76
431.47	966.64
431.66	812.17
431.85	690.46
432.03	763.01
432.22	1205.38
432.41	617.90
432.60	945.58
432.79	877.70
432.97	1081.33
433.16	1088.35
433.35	877.70
433.54	741.95
433.72	861.32
433.91	950.26
434.10	723.23
434.28	896.43
434.47	784.08
434.66	961.96
434.85	699.82
435.03	835.57
435.22	1090.69
435.41	1046.22
435.59	884.72
435.78	884.72
435.97	725.57
436.16	947.92
436.34	819.19
436.53	861.32
436.72	957.28
436.90	933.87
437.09	945.58
437.28	901.11
437.46	786.42
437.65	858.98
437.84	905.79
438.02	814.51
438.21	884.72
438.40	734.93
438.58	627.26
438.77	763.01
438.96	896.43
439.14	779.40
439.33	842.59
439.52	709.18
439.70	746.63
439.89	870.68
440.08	880.04
440.26	858.98
440.45	1203.04
440.63	891.74
440.82	910.47
441.01	856.64
441.19	793.44
441.38	814.51
441.57	798.12
441.75	1125.80
441.94	1165.59
442.12	873.02
442.31	835.57
442.50	812.17
442.68	800.46
442.87	887.06
443.05	763.01
443.24	917.49
443.43	1128.14
443.61	1107.07
443.80	851.96
443.98	784.08
444.17	814.51
444.35	997.07
444.54	866.00
444.73	844.93
444.91	1067.28
445.10	671.73
445.28	807.48
445.47	891.74
445.65	891.74
445.84	758.33
446.02	812.17
446.21	732.59
446.39	788.76
446.58	929.19
446.77	821.53
446.95	868.34
447.14	1008.77
447.32	1125.80
447.51	823.87
447.69	947.92
447.88	866.00
448.06	1249.85
448.25	884.72
448.43	774.72
448.62	720.88
448.80	997.07
448.99	968.98
449.17	830.89
449.36	741.95
449.54	1025.15
449.73	837.91
449.91	978.34
450.10	882.38
450.28	1387.94
450.46	1380.92
450.65	1156.22
450.83	1001.75
451.02	936.21
451.20	961.96
451.39	870.68
451.57	690.46
451.76	847.27
451.94	870.68
452.13	1076.65
452.31	1102.39
452.49	924.51
452.68	798.12
452.86	978.34
453.05	1369.21
453.23	910.47
453.42	748.97
453.60	912.81
453.78	964.30
453.97	777.06
454.15	737.27
454.34	837.91
454.52	702.16
454.70	1254.53
454.89	1109.41
455.07	826.21
455.26	1057.92
455.44	1064.94
455.62	880.04
455.81	999.41
455.99	987.71
456.17	1069.62
456.36	919.83
456.54	821.53
456.73	849.61
456.91	903.45
457.09	943.24
457.28	1135.16
457.46	938.55
457.64	1036.86
457.83	891.74
458.01	847.27
458.19	1086.01
458.38	945.58
458.56	901.11
458.74	819.19
458.93	1053.24
459.11	887.06
459.29	842.59
459.48	1170.27
459.66	1240.48
459.84	1078.99
460.03	1785.83
460.21	1097.71
460.39	840.25
460.57	1203.04
460.76	1034.52
460.94	898.77
461.12	1371.55
461.31	1200.69
461.49	940.90
461.67	912.81
461.85	1022.81
462.04	929.19
462.22	5849.00
462.40	1226.44
462.59	1153.88
462.77	922.17
462.95	943.24
463.13	784.08
463.32	1032.18
463.50	1055.58
463.68	1064.94
463.86	1100.05
464.05	936.21
464.23	1174.95
464.41	1069.62
464.59	823.87
464.78	957.28
464.96	770.04
465.14	1048.56
465.32	868.34
465.50	1081.33
465.69	1128.14
465.87	873.02
466.05	1053.24
466.23	784.08
466.41	868.34
466.60	880.04
466.78	1029.84
466.96	1086.01
467.14	961.96
467.32	1121.12
467.51	926.85
467.69	1050.90
467.87	1284.95
468.05	964.30
468.23	1369.21
468.41	1107.07
468.60	889.40
468.78	950.26
468.96	1191.33
469.14	1081.33
469.32	730.25
469.50	793.44
469.69	1008.77
469.87	957.28
470.05	961.96
470.23	983.02
470.41	739.61
470.59	877.70
470.77	971.32
470.95	994.73
471.14	1165.59
471.32	1039.20
471.50	1341.13
471.68	1043.88
471.86	1025.15
472.04	950.26
472.22	1078.99
472.40	807.48
472.58	910.47
472.77	835.57
472.95	905.79
473.13	1380.92
473.31	1299.00
473.49	861.32
473.67	861.32
473.85	1095.37
474.03	1245.16
474.21	1088.35
474.39	1289.64
474.57	1404.32
474.75	1069.62
474.93	898.77
475.12	884.72
475.30	926.85
475.48	950.26
475.66	1004.09
475.84	1011.11
476.02	1029.84
476.20	1165.59
476.38	1039.20
476.56	1661.78
476.74	1018.13
476.92	1022.81
477.10	978.34
477.28	1172.61
477.46	994.73
477.64	1174.95
477.82	1088.35
478.00	1090.69
478.18	1146.86
478.36	1125.80
478.54	1032.18
478.72	964.30
478.90	1109.41
479.08	1245.16
479.26	1170.27
479.44	1130.48
479.62	952.60
479.80	1078.99
479.98	1039.20
480.16	1015.79
480.34	1284.95
480.52	1011.11
480.70	1235.80
480.88	950.26
481.06	1034.52
481.24	1053.24
481.41	1102.39
481.59	1219.42
481.77	1184.31
481.95	1053.24
482.13	1519.01
482.31	1198.35
482.49	1050.90
482.67	1315.38
482.85	1224.10
483.03	1266.23
483.21	1139.84
483.39	1100.05
483.57	1249.85
483.74	1523.69
483.92	1158.57
484.10	1097.71
484.28	1369.21
484.46	1755.40
484.64	1088.35
484.82	1217.08
485.00	1181.97
485.18	1188.99
485.35	1160.91
485.53	929.19
485.71	1336.45
485.89	924.51
486.07	1093.03
486.25	1659.44
486.43	1252.19
486.61	1233.46
486.78	1214.74
486.96	1069.62
487.14	1163.25
487.32	1259.21
487.50	1156.22
487.68	1455.81
487.85	1184.31
488.03	1383.26
488.21	1577.52
488.39	1254.53
488.57	1261.55
488.75	1268.57
488.92	4007.00
489.10	1540.07
489.28	1727.32
489.46	1146.86
489.64	1357.51
489.81	1294.32
489.99	1441.77
490.17	1310.70
490.35	1942.64
490.53	1341.13
490.70	1217.08
490.88	1507.30
491.06	1188.99
491.24	1533.05
491.41	1685.19
491.59	1378.58
491.77	1142.18
491.95	1156.22
492.13	1289.64
492.30	1357.51
492.48	1313.04
492.66	1462.83
492.84	1287.29
493.01	1488.58
493.19	1341.13
493.37	1757.74
493.54	1657.10
493.72	1441.77
493.90	1233.46
494.08	1280.27
494.25	1584.54
494.43	1481.56
494.61	1324.74
494.79	1266.23
494.96	1217.08
495.14	1493.26
495.32	1291.98
495.49	1432.41
495.67	1490.92
495.85	1315.38
496.02	1259.21
496.20	1575.18
496.38	1495.60
496.55	1516.67
496.73	1558.80
496.91	1310.70
497.09	1624.33
497.26	1425.39
497.44	1465.18
497.62	1448.79
497.79	1383.26
497.97	1542.41
498.14	1479.22
498.32	1535.39
498.50	1572.84
498.67	1411.34
498.85	1603.27
499.03	1500.28
499.20	1497.94
499.38	1458.15
499.56	1397.30
499.73	1865.41
499.91	1549.43
500.08	1605.61
500.26	1404.32
500.44	1380.92
500.61	1556.46
500.79	1430.07
500.97	1640.72
501.14	1827.96
501.32	1483.90
501.49	1736.68
501.67	1469.86
501.84	1558.80
502.02	1329.42
502.20	1839.66
502.37	1673.48
502.55	1479.22
502.72	1575.18
502.90	1666.46
503.07	1614.97
503.25	1519.01
503.43	1416.02
503.60	1483.90
503.78	1589.22
503.95	1600.93
504.13	1455.81
504.30	1682.85
504.48	1746.04
504.65	1846.68
504.83	1825.62
505.01	1514.33
505.18	1551.78
505.36	1549.43
505.53	1458.15
505.71	1453.47
505.88	1933.28
506.06	1572.84
506.23	1582.20
506.41	1486.24
506.58	1633.69
506.76	1582.20
506.93	1444.11
507.11	1664.12
507.28	1453.47
507.46	1430.07
507.63	1530.71
507.81	1441.77
507.98	1624.33
508.16	1483.90
508.33	1652.42
508.50	1689.87
508.68	1586.88
508.85	1537.73
509.03	1507.30
509.20	1533.05
509.38	1664.12
509.55	1741.36
509.73	1755.40
509.90	1891.15
510.08	1397.30
510.25	1692.21
510.42	1526.03
510.60	1570.50
510.77	1703.91
510.95	1816.26
511.12	1636.03
511.30	1816.26
511.47	1863.07
511.64	2188.40
511.82	1579.86
511.99	1605.61
512.17	1647.74
512.34	1385.60
512.51	1577.52
512.69	1521.35
512.86	1783.49
513.04	1551.78
513.21	1638.38
513.38	1490.92
513.56	1439.43
513.73	1591.56
513.90	1373.89
514.08	1385.60
514.25	1729.66
514.43	1570.50
514.60	1523.69
514.77	1514.33
514.95	1715.61
515.12	1535.39
515.29	1661.78
515.47	1652.42
515.64	1652.42
515.81	1582.20
515.99	1898.17
516.16	1610.29
516.33	1722.63
516.51	1404.32
516.68	1287.29
516.85	1390.28
517.03	1364.53
517.20	1647.74
517.37	1598.59
517.54	1696.89
517.72	1406.66
517.89	1455.81
518.06	1350.49
518.24	1998.82
518.41	2036.27
518.58	1863.07
518.75	1565.82
518.93	1696.89
519.10	1657.10
519.27	1502.62
519.45	1689.87
519.62	1706.25
519.79	1720.29
519.96	1497.94
520.14	1666.46
520.31	1935.62
520.48	1647.74
520.65	1760.08
520.83	1750.72
521.00	1755.40
521.17	1830.30
521.34	1640.72
521.52	1689.87
521.69	1767.10
521.86	1661.78
522.03	1930.94
522.20	2069.03
522.38	1598.59
522.55	1640.72
522.72	1460.49
522.89	1823.28
523.07	2113.50
523.24	1572.84
523.41	1556.46
523.58	1654.76
523.75	1577.52
523.92	1528.37
524.10	1729.66
524.27	1668.80
524.44	1650.08
524.61	1912.22
524.78	1575.18
524.96	1858.39
525.13	1724.97
525.30	2033.93
525.47	1952.01
525.64	1827.96
525.81	1680.50
525.98	1640.72
526.16	1537.73
526.33	1376.24
526.50	1420.71
526.67	1404.32
526.84	1423.05
527.01	1523.69
527.18	1715.61
527.36	1659.44
527.53	1549.43
527.70	1849.02
527.87	1631.35
528.04	2188.40
528.21	1621.99
528.38	1879.45
528.55	1877.11
528.72	2019.88
528.89	2090.10
529.07	1703.91
529.24	1638.38
529.41	2040.95
529.58	1837.32
529.75	1661.78
529.92	1804.55
530.09	1722.63
530.26	1907.54
530.43	1825.62
530.60	1762.42
530.77	1727.32
530.94	1771.79
531.11	1818.60
531.28	1701.57
531.46	1629.01
531.63	1811.57
531.80	1799.87
531.97	1753.06
532.14	1769.44
532.31	1757.74
532.48	1776.47
532.65	2026.90
532.82	1942.64
532.99	2038.61
533.16	1968.39
533.33	1865.41
533.50	1760.08
533.67	1813.92
533.84	2300.75
534.01	2291.38
534.18	1996.48
534.35	1952.01
534.52	1844.34
534.69	2256.28
534.86	1739.02
535.03	1706.25
535.20	1591.56
535.37	2073.71
535.54	1863.07
535.71	1706.25
535.88	2045.63
536.05	1661.78
536.22	1818.60
536.38	1675.82
536.55	1799.87
536.72	1926.26
536.89	1430.07
537.06	1591.56
537.23	1584.54
537.40	1633.69
537.57	1703.91
537.74	1891.15
537.91	1811.57
538.08	1783.49
538.25	1926.26
538.42	1741.36
538.59	1776.47
538.75	1600.93
538.92	1739.02
539.09	1790.51
539.26	1694.55
539.43	2546.50
539.60	4051.47
539.77	6054.97
539.94	5598.56
540.11	4145.09
540.28	3281.43
540.44	2689.28
540.61	1928.60
540.78	1750.72
540.95	1533.05
541.12	2040.95
541.29	1582.20
541.46	1933.28
541.62	1797.53
541.79	1537.73
541.96	1455.81
542.13	1617.31
542.30	1523.69
542.47	1790.51
542.63	1607.95
542.80	1769.44
542.97	1905.20
543.14	1701.57
543.31	1802.21
543.48	1727.32
543.64	1661.78
543.81	1706.25
543.98	1526.03
544.15	1448.79
544.32	1624.33
544.48	1696.89
544.65	1629.01
544.82	1504.96
544.99	1675.82
545.16	1973.07
545.32	1542.41
545.49	1774.13
545.66	1729.66
545.83	1586.88
546.00	1483.90
546.16	1526.03
546.33	1572.84
546.50	1645.40
546.67	1954.35
546.83	1802.21
547.00	1806.89
547.17	1413.68
547.34	1437.09
547.50	1598.59
547.67	1593.90
547.84	1523.69
548.00	1853.70
548.17	1528.37
548.34	1617.31
548.51	2087.76
548.67	1802.21
548.84	1582.20
549.01	1675.82
549.18	1792.85
549.34	1891.15
549.51	1877.11
549.68	1785.83
549.84	1713.27
550.01	1582.20
550.18	2576.93
550.34	2445.86
550.51	1870.09
550.68	2057.33
550.84	1551.78
551.01	1652.42
551.18	1839.66
551.34	1673.48
551.51	1643.06
551.68	1659.44
551.84	1844.34
552.01	1561.14
552.18	1514.33
552.34	1668.80
552.51	1680.50
552.68	1856.04
552.84	1596.25
553.01	1696.89
553.18	1844.34
553.34	1547.09
553.51	1537.73
553.67	1834.98
553.84	2139.25
554.01	1863.07
554.17	1753.06
554.34	1575.18
554.51	1792.85
554.67	1888.81
554.84	1832.64
555.00	1797.53
555.17	1659.44
555.33	1837.32
555.50	1806.89
555.67	1781.15
555.83	1547.09
556.00	1771.79
556.16	3365.69
556.33	1804.55
556.50	1586.88
556.66	1629.01
556.83	1526.03
556.99	1593.90
557.16	1638.38
557.32	1516.67
557.49	1621.99
557.65	1596.25
557.82	1504.96
557.98	1673.48
558.15	1441.77
558.32	1706.25
558.48	1483.90
558.65	1558.80
558.81	1753.06
558.98	1591.56
559.14	1717.95
559.31	1694.55
559.47	1767.10
559.64	1448.79
559.80	1717.95
559.97	1427.73
560.13	1664.12
560.30	1432.41
560.46	1612.63
560.63	1554.12
560.79	1519.01
560.96	1621.99
561.12	1542.41
561.29	1610.29
561.45	1530.71
561.61	1631.35
561.78	2434.16
561.94	1556.46
562.11	1490.92
562.27	1558.80
562.44	1458.15
562.60	1526.03
562.77	1572.84
562.93	2293.72
563.10	1666.46
563.26	1558.80
563.42	1778.81
563.59	1685.19
563.75	1462.83
563.92	1914.56
564.08	1617.31
564.24	1767.10
564.41	1980.09
564.57	1434.75
564.74	1582.20
564.90	1605.61
565.07	1837.32
565.23	1870.09
565.39	1633.69
565.56	1743.70
565.72	1497.94
565.88	1640.72
566.05	1582.20
566.21	1612.63
566.38	1746.04
566.54	1647.74
566.70	1542.41
566.87	1551.78
567.03	1383.26
567.19	1605.61
567.36	1687.53
567.52	1504.96
567.68	1640.72
567.85	1666.46
568.01	1593.90
568.17	1406.66
568.34	1481.56
568.50	1856.04
568.66	1495.60
568.83	2235.21
568.99	1458.15
569.15	1820.94
569.32	1444.11
569.48	1547.09
569.64	1301.34
569.81	1497.94
569.97	1509.65
570.13	1685.19
570.30	1451.13
570.46	1483.90
570.62	1465.18
570.78	1446.45
570.95	1366.87
571.11	2001.16
571.27	1937.96
571.43	1359.85
571.60	1732.00
571.76	1500.28
571.92	1575.18
572.09	1455.81
572.25	1523.69
572.41	1650.08
572.57	1476.88
572.74	1900.52
572.90	1696.89
573.06	1732.00
573.22	1732.00
573.38	1708.59
573.55	1682.85
573.71	1781.15
573.87	1703.91
574.03	1483.90
574.20	1614.97
574.36	1839.66
574.52	1710.93
574.68	1727.32
574.84	1865.41
575.01	1636.03
575.17	1764.76
575.33	1519.01
575.49	1853.70
575.65	1940.30
575.82	1923.92
575.98	2864.82
576.14	3208.87
576.30	2909.29
576.46	2560.55
576.62	2150.95
576.79	2040.95
576.95	1956.69
577.11	1444.11
577.27	1455.81
577.43	1905.20
577.59	1912.22
577.75	1746.04
577.92	1483.90
578.08	1521.35
578.24	1380.92
578.40	1757.74
578.56	1921.58
578.72	2012.86
578.88	1823.28
579.04	1577.52
579.21	1776.47
579.37	1652.42
579.53	1621.99
579.69	2001.16
579.85	1652.42
580.01	1968.39
580.17	1809.23
580.33	1987.11
580.49	1959.03
580.65	1954.35
580.82	1830.30
580.98	1732.00
581.14	1741.36
581.30	2167.34
581.46	2190.74
581.62	2724.38
581.78	2693.96
581.94	2731.41
582.10	2097.12
582.26	2160.31
582.42	2080.74
582.58	2174.36
582.74	2071.37
582.90	2099.46
583.06	2319.47
583.22	2078.40
583.38	2237.55
583.54	2235.21
583.70	2885.88
583.86	2960.78
584.02	3143.34
584.18	3953.16
584.34	4606.17
584.50	11162.01
584.66	61432.04
584.82	65535.00
584.98	65535.00
585.14	65535.00
585.30	65535.00
585.46	65535.00
585.62	57350.15
585.78	26939.57
585.94	11030.94
586.10	5680.48
586.26	4149.77
586.42	3616.13
586.58	2991.20
586.74	2766.51
586.90	2696.30
587.06	2698.64
587.22	2452.88
587.38	2324.15
587.54	4390.84
587.70	12556.97
587.86	20269.04
588.02	21397.18
588.18	15269.66
588.34	9790.46
588.49	6621.38
588.65	4348.72
588.81	2600.34
588.97	1692.21
589.13	1549.43
589.29	1631.35
589.45	1785.83
589.61	1706.25
589.77	2141.59
589.93	2008.18
590.08	2015.20
590.24	1923.92
590.40	1956.69
590.56	2150.95
590.72	1755.40
590.88	1638.38
591.04	1858.39
591.20	1589.22
591.35	2064.35
591.51	1701.57
591.67	1411.34
591.83	1523.69
591.99	1774.13
592.15	1867.75
592.31	1589.22
592.46	1603.27
592.62	1856.04
592.78	1514.33
592.94	1682.85
593.10	1497.94
593.26	1570.50
593.41	1891.15
593.57	1853.70
593.73	2417.77
593.89	10125.16
594.05	26506.57
594.20	37214.52
594.36	34338.00
594.52	22293.60
594.68	14146.20
594.84	9928.55
594.99	5919.21
595.15	3124.62
595.31	2368.62
595.47	2148.61
595.62	1591.56
595.78	1774.13
595.94	1668.80
596.10	1973.07
596.25	1905.20
596.41	1820.94
596.57	1551.78
596.73	1586.88
596.88	2476.29
597.04	5317.70
597.20	8131.02
597.36	9217.03
597.51	7056.72
597.67	4910.44
597.83	3674.64
597.99	3033.33
598.14	2146.27
598.30	2022.22
598.46	1671.14
598.61	1989.46
598.77	1717.95
598.93	1530.71
599.09	1549.43
599.24	1568.16
599.40	1802.21
599.56	1614.97
599.71	1533.05
599.87	1460.49
600.03	1577.52
600.18	1542.41
600.34	1542.41
600.50	1511.99
600.65	1376.24
600.81	1640.72
