SpectraSuite Data File
++++++++++++++++++++++++++++++++++++
Date: Fri Oct 04 11:33:56 GMT-05:00 2013
User: price-jones
Dark Spectrum Present: No
Reference Spectrum Present: No
Number of Sampled Component Spectra: 1
Spectrometers: USB2+H05261
Integration Time (usec): 100000 (USB2+H05261)
Spectra Averaged: 1 (USB2+H05261)
Boxcar Smoothing: 0 (USB2+H05261)
Correct for Electrical Dark: No (USB2+H05261)
Strobe/Lamp Enabled: No (USB2+H05261)
Correct for Detector Non-linearity: No (USB2+H05261)
Correct for Stray Light: No (USB2+H05261)
Number of Pixels in Processed Spectrum: 2048
>>>>>Begin Processed Spectral Data<<<<<
365.73	7.02
365.92	7.02
366.12	7.02
366.32	0.00
366.52	0.00
366.72	0.00
366.91	0.00
367.11	0.00
367.31	0.00
367.51	0.00
367.70	0.00
367.90	0.00
368.10	0.00
368.30	0.00
368.49	0.00
368.69	0.00
368.89	7.02
369.09	21.06
369.28	21.06
369.48	0.00
369.68	11.70
369.87	25.75
370.07	30.43
370.27	60.85
370.47	0.00
370.66	72.56
370.86	84.26
371.06	95.96
371.25	135.75
371.45	98.30
371.65	105.32
371.84	93.62
372.04	133.41
372.24	98.30
372.44	84.26
372.63	107.66
372.83	278.52
373.03	128.73
373.22	93.62
373.42	184.90
373.62	88.94
373.81	149.79
374.01	126.39
374.21	152.13
374.40	182.56
374.60	105.32
374.79	70.22
374.99	140.43
375.19	189.58
375.38	156.82
375.58	149.79
375.78	152.13
375.97	152.13
376.17	217.67
376.37	170.86
376.56	159.16
376.76	142.77
376.95	168.52
377.15	91.28
377.35	140.43
377.54	147.45
377.74	114.69
377.93	191.92
378.13	107.66
378.33	212.99
378.52	119.37
378.72	168.52
378.91	154.48
379.11	194.26
379.31	102.98
379.50	149.79
379.70	194.26
379.89	149.79
380.09	163.84
380.28	72.56
380.48	131.07
380.68	126.39
380.87	107.66
381.07	161.50
381.26	198.95
381.46	140.43
381.65	152.13
381.85	131.07
382.04	107.66
382.24	93.62
382.43	77.24
382.63	124.05
382.83	142.77
383.02	140.43
383.22	168.52
383.41	95.96
383.61	117.03
383.80	91.28
384.00	93.62
384.19	126.39
384.39	168.52
384.58	170.86
384.78	180.22
384.97	131.07
385.17	98.30
385.36	107.66
385.56	93.62
385.75	84.26
385.95	91.28
386.14	112.35
386.34	149.79
386.53	156.82
386.72	100.64
386.92	154.48
387.11	117.03
387.31	154.48
387.50	95.96
387.70	131.07
387.89	173.20
388.09	112.35
388.28	107.66
388.48	126.39
388.67	196.60
388.86	208.31
389.06	140.43
389.25	194.26
389.45	91.28
389.64	215.33
389.84	121.71
390.03	170.86
390.22	205.97
390.42	93.62
390.61	177.88
390.81	102.98
391.00	166.18
391.19	138.09
391.39	117.03
391.58	154.48
391.78	189.58
391.97	154.48
392.16	121.71
392.36	159.16
392.55	212.99
392.75	114.69
392.94	65.54
393.13	159.16
393.33	175.54
393.52	234.05
393.71	201.29
393.91	128.73
394.10	156.82
394.29	133.41
394.49	163.84
394.68	159.16
394.88	203.63
395.07	124.05
395.26	126.39
395.46	65.54
395.65	177.88
395.84	191.92
396.04	208.31
396.23	159.16
396.42	105.32
396.62	189.58
396.81	149.79
397.00	184.90
397.19	95.96
397.39	187.24
397.58	147.45
397.77	105.32
397.97	117.03
398.16	180.22
398.35	161.50
398.55	126.39
398.74	88.94
398.93	152.13
399.12	191.92
399.32	196.60
399.51	166.18
399.70	168.52
399.90	105.32
400.09	191.92
400.28	196.60
400.47	208.31
400.67	128.73
400.86	156.82
401.05	128.73
401.24	191.92
401.44	138.09
401.63	222.35
401.82	126.39
402.01	168.52
402.21	177.88
402.40	133.41
402.59	170.86
402.78	107.66
402.97	177.88
403.17	173.20
403.36	149.79
403.55	173.20
403.74	163.84
403.93	217.67
404.13	245.76
404.32	248.10
404.51	198.95
404.70	215.33
404.89	163.84
405.09	184.90
405.28	168.52
405.47	191.92
405.66	119.37
405.85	182.56
406.05	163.84
406.24	135.75
406.43	126.39
406.62	117.03
406.81	189.58
407.00	187.24
407.20	168.52
407.39	159.16
407.58	236.39
407.77	220.01
407.96	177.88
408.15	133.41
408.34	145.11
408.54	107.66
408.73	191.92
408.92	147.45
409.11	189.58
409.30	196.60
409.49	149.79
409.68	156.82
409.87	128.73
410.07	147.45
410.26	175.54
410.45	102.98
410.64	124.05
410.83	208.31
411.02	154.48
411.21	166.18
411.40	128.73
411.59	182.56
411.78	131.07
411.98	182.56
412.17	117.03
412.36	147.45
412.55	145.11
412.74	86.60
412.93	175.54
413.12	205.97
413.31	128.73
413.50	110.01
413.69	180.22
413.88	215.33
414.07	98.30
414.26	187.24
414.45	208.31
414.64	196.60
414.83	180.22
415.02	142.77
415.22	140.43
415.41	196.60
415.60	222.35
415.79	124.05
415.98	184.90
416.17	205.97
416.36	140.43
416.55	114.69
416.74	189.58
416.93	138.09
417.12	138.09
417.31	124.05
417.50	210.65
417.69	241.08
417.88	180.22
418.07	163.84
418.26	187.24
418.45	135.75
418.64	285.55
418.83	208.31
419.02	248.10
419.21	220.01
419.39	194.26
419.58	210.65
419.77	259.80
419.96	175.54
420.15	236.39
420.34	63.19
420.53	142.77
420.72	255.12
420.91	159.16
421.10	110.01
421.29	142.77
421.48	208.31
421.67	180.22
421.86	152.13
422.05	142.77
422.24	102.98
422.43	201.29
422.61	159.16
422.80	161.50
422.99	182.56
423.18	159.16
423.37	147.45
423.56	248.10
423.75	212.99
423.94	131.07
424.13	180.22
424.32	149.79
424.50	191.92
424.69	194.26
424.88	177.88
425.07	194.26
425.26	198.95
425.45	337.04
425.64	266.82
425.83	238.73
426.01	264.48
426.20	182.56
426.39	170.86
426.58	173.20
426.77	180.22
426.96	198.95
427.15	163.84
427.33	135.75
427.52	191.92
427.71	173.20
427.90	163.84
428.09	175.54
428.28	131.07
428.46	208.31
428.65	182.56
428.84	182.56
429.03	187.24
429.22	131.07
429.40	124.05
429.59	173.20
429.78	205.97
429.97	131.07
430.16	149.79
430.34	210.65
430.53	147.45
430.72	173.20
430.91	191.92
431.10	135.75
431.28	154.48
431.47	168.52
431.66	208.31
431.85	119.37
432.03	135.75
432.22	236.39
432.41	217.67
432.60	229.37
432.79	227.03
432.97	322.99
433.16	306.61
433.35	257.46
433.54	236.39
433.72	269.16
433.91	220.01
434.10	189.58
434.28	166.18
434.47	191.92
434.66	245.76
434.85	105.32
435.03	182.56
435.22	348.74
435.41	390.87
435.59	365.12
435.78	339.38
435.97	287.89
436.16	201.29
436.34	191.92
436.53	138.09
436.72	161.50
436.90	149.79
437.09	152.13
437.28	182.56
437.46	131.07
437.65	194.26
437.84	248.10
438.02	175.54
438.21	220.01
438.40	203.63
438.58	65.54
438.77	168.52
438.96	140.43
439.14	234.05
439.33	154.48
439.52	177.88
439.70	161.50
439.89	177.88
440.08	241.08
440.26	205.97
440.45	220.01
440.63	175.54
440.82	159.16
441.01	229.37
441.19	191.92
441.38	128.73
441.57	119.37
441.75	198.95
441.94	241.08
442.12	182.56
442.31	163.84
442.50	217.67
442.68	161.50
442.87	259.80
443.05	231.71
443.24	187.24
443.43	159.16
443.61	250.44
443.80	215.33
443.98	159.16
444.17	194.26
444.35	222.35
444.54	236.39
444.73	191.92
444.91	182.56
445.10	177.88
445.28	208.31
445.47	112.35
445.65	154.48
445.84	170.86
446.02	187.24
446.21	161.50
446.39	229.37
446.58	220.01
446.77	147.45
446.95	215.33
447.14	180.22
447.32	217.67
447.51	208.31
447.69	210.65
447.88	191.92
448.06	257.46
448.25	229.37
448.43	140.43
448.62	180.22
448.80	262.14
448.99	126.39
449.17	189.58
449.36	182.56
449.54	222.35
449.73	145.11
449.91	266.82
450.10	194.26
450.28	264.48
450.46	243.42
450.65	252.78
450.83	182.56
451.02	191.92
451.20	166.18
451.39	177.88
451.57	147.45
451.76	182.56
451.94	175.54
452.13	234.05
452.31	131.07
452.49	215.33
452.68	147.45
452.86	187.24
453.05	182.56
453.23	156.82
453.42	138.09
453.60	102.98
453.78	145.11
453.97	102.98
454.15	170.86
454.34	215.33
454.52	177.88
454.70	220.01
454.89	234.05
455.07	159.16
455.26	170.86
455.44	205.97
455.62	163.84
455.81	189.58
455.99	168.52
456.17	210.65
456.36	138.09
456.54	168.52
456.73	177.88
456.91	250.44
457.09	205.97
457.28	180.22
457.46	163.84
457.64	180.22
457.83	187.24
458.01	163.84
458.19	217.67
458.38	152.13
458.56	212.99
458.74	114.69
458.93	262.14
459.11	166.18
459.29	238.73
459.48	156.82
459.66	191.92
459.84	145.11
460.03	227.03
460.21	227.03
460.39	191.92
460.57	175.54
460.76	159.16
460.94	128.73
461.12	154.48
461.31	161.50
461.49	170.86
461.67	203.63
461.85	149.79
462.04	124.05
462.22	622.58
462.40	294.91
462.59	224.69
462.77	191.92
462.95	191.92
463.13	208.31
463.32	198.95
463.50	236.39
463.68	175.54
463.86	205.97
464.05	187.24
464.23	208.31
464.41	280.86
464.59	266.82
464.78	222.35
464.96	173.20
465.14	124.05
465.32	133.41
465.50	227.03
465.69	189.58
465.87	212.99
466.05	217.67
466.23	152.13
466.41	238.73
466.60	126.39
466.78	215.33
466.96	173.20
467.14	194.26
467.32	262.14
467.51	147.45
467.69	128.73
467.87	231.71
468.05	224.69
468.23	149.79
468.41	220.01
468.60	248.10
468.78	147.45
468.96	234.05
469.14	194.26
469.32	177.88
469.50	138.09
469.69	177.88
469.87	220.01
470.05	217.67
470.23	152.13
470.41	198.95
470.59	189.58
470.77	191.92
470.95	227.03
471.14	140.43
471.32	205.97
471.50	248.10
471.68	154.48
471.86	177.88
472.04	161.50
472.22	201.29
472.40	215.33
472.58	140.43
472.77	208.31
472.95	189.58
473.13	156.82
473.31	252.78
473.49	224.69
473.67	189.58
473.85	234.05
474.03	177.88
474.21	238.73
474.39	154.48
474.57	196.60
474.75	245.76
474.93	215.33
475.12	128.73
475.30	166.18
475.48	278.52
475.66	114.69
475.84	119.37
476.02	173.20
476.20	175.54
476.38	224.69
476.56	278.52
476.74	177.88
476.92	182.56
477.10	201.29
477.28	236.39
477.46	117.03
477.64	161.50
477.82	159.16
478.00	180.22
478.18	208.31
478.36	177.88
478.54	252.78
478.72	257.46
478.90	224.69
479.08	163.84
479.26	208.31
479.44	250.44
479.62	138.09
479.80	266.82
479.98	210.65
480.16	184.90
480.34	201.29
480.52	191.92
480.70	220.01
480.88	191.92
481.06	236.39
481.24	124.05
481.41	266.82
481.59	217.67
481.77	320.65
481.95	175.54
482.13	248.10
482.31	224.69
482.49	194.26
482.67	222.35
482.85	182.56
483.03	294.91
483.21	259.80
483.39	210.65
483.57	173.20
483.74	196.60
483.92	250.44
484.10	306.61
484.28	229.37
484.46	301.93
484.64	222.35
484.82	301.93
485.00	269.16
485.18	156.82
485.35	238.73
485.53	243.42
485.71	301.93
485.89	212.99
486.07	208.31
486.25	339.38
486.43	236.39
486.61	241.08
486.78	201.29
486.96	259.80
487.14	308.95
487.32	273.84
487.50	255.12
487.68	255.12
487.85	184.90
488.03	278.52
488.21	290.23
488.39	229.37
488.57	248.10
488.75	227.03
488.92	507.90
489.10	238.73
489.28	266.82
489.46	212.99
489.64	201.29
489.81	248.10
489.99	269.16
490.17	203.63
490.35	369.80
490.53	262.14
490.70	210.65
490.88	271.50
491.06	250.44
491.24	308.95
491.41	320.65
491.59	308.95
491.77	156.82
491.95	205.97
492.13	297.25
492.30	224.69
492.48	262.14
492.66	170.86
492.84	194.26
493.01	234.05
493.19	229.37
493.37	271.50
493.54	231.71
493.72	208.31
493.90	227.03
494.08	280.86
494.25	273.84
494.43	262.14
494.61	227.03
494.79	273.84
494.96	163.84
495.14	294.91
495.32	287.89
495.49	252.78
495.67	220.01
495.85	287.89
496.02	220.01
496.20	264.48
496.38	264.48
496.55	220.01
496.73	245.76
496.91	241.08
497.09	262.14
497.26	276.18
497.44	173.20
497.62	236.39
497.79	292.57
497.97	229.37
498.14	280.86
498.32	276.18
498.50	182.56
498.67	222.35
498.85	229.37
499.03	236.39
499.20	205.97
499.38	177.88
499.56	215.33
499.73	301.93
499.91	210.65
500.08	236.39
500.26	280.86
500.44	248.10
500.61	290.23
500.79	231.71
500.97	210.65
501.14	266.82
501.32	271.50
501.49	304.27
501.67	191.92
501.84	252.78
502.02	222.35
502.20	306.61
502.37	241.08
502.55	187.24
502.72	255.12
502.90	210.65
503.07	313.63
503.25	205.97
503.43	217.67
503.60	259.80
503.78	292.57
503.95	276.18
504.13	205.97
504.30	266.82
504.48	231.71
504.65	315.97
504.83	168.52
505.01	224.69
505.18	238.73
505.36	262.14
505.53	245.76
505.71	294.91
505.88	273.84
506.06	278.52
506.23	198.95
506.41	252.78
506.58	194.26
506.76	278.52
506.93	217.67
507.11	259.80
507.28	264.48
507.46	217.67
507.63	276.18
507.81	255.12
507.98	252.78
508.16	203.63
508.33	315.97
508.50	269.16
508.68	182.56
508.85	238.73
509.03	175.54
509.20	283.20
509.38	264.48
509.55	273.84
509.73	243.42
509.90	248.10
510.08	184.90
510.25	234.05
510.42	243.42
510.60	271.50
510.77	264.48
510.95	283.20
511.12	313.63
511.30	334.70
511.47	287.89
511.64	220.01
511.82	283.20
511.99	248.10
512.17	294.91
512.34	292.57
512.51	241.08
512.69	215.33
512.86	231.71
513.04	203.63
513.21	231.71
513.38	252.78
513.56	234.05
513.73	252.78
513.90	229.37
514.08	327.68
514.25	231.71
514.43	306.61
514.60	332.36
514.77	231.71
514.95	287.89
515.12	290.23
515.29	243.42
515.47	255.12
515.64	161.50
515.81	210.65
515.99	255.12
516.16	257.46
516.33	248.10
516.51	297.25
516.68	264.48
516.85	243.42
517.03	173.20
517.20	283.20
517.37	212.99
517.54	255.12
517.72	278.52
517.89	243.42
518.06	271.50
518.24	285.55
518.41	278.52
518.58	287.89
518.75	234.05
518.93	220.01
519.10	287.89
519.27	234.05
519.45	236.39
519.62	236.39
519.79	252.78
519.96	231.71
520.14	276.18
520.31	325.33
520.48	262.14
520.65	318.31
520.83	313.63
521.00	351.08
521.17	245.76
521.34	269.16
521.52	224.69
521.69	255.12
521.86	262.14
522.03	337.04
522.20	313.63
522.38	255.12
522.55	264.48
522.72	264.48
522.89	306.61
523.07	407.25
523.24	252.78
523.41	229.37
523.58	266.82
523.75	236.39
523.92	250.44
524.10	269.16
524.27	276.18
524.44	266.82
524.61	278.52
524.78	236.39
524.96	278.52
525.13	276.18
525.30	327.68
525.47	269.16
525.64	220.01
525.81	255.12
525.98	252.78
526.16	269.16
526.33	241.08
526.50	245.76
526.67	238.73
526.84	255.12
527.01	227.03
527.18	304.27
527.36	238.73
527.53	173.20
527.70	276.18
527.87	259.80
528.04	358.10
528.21	252.78
528.38	238.73
528.55	287.89
528.72	287.89
528.89	297.25
529.07	262.14
529.24	285.55
529.41	341.72
529.58	250.44
529.75	271.50
529.92	299.59
530.09	287.89
530.26	269.16
530.43	180.22
530.60	325.33
530.77	283.20
530.94	334.70
531.11	301.93
531.28	238.73
531.46	313.63
531.63	292.57
531.80	306.61
531.97	273.84
532.14	315.97
532.31	257.46
532.48	278.52
532.65	320.65
532.82	414.27
532.99	372.15
533.16	346.40
533.33	327.68
533.50	292.57
533.67	306.61
533.84	411.93
534.01	442.36
534.18	362.78
534.35	327.68
534.52	297.25
534.69	318.31
534.86	311.29
535.03	327.68
535.20	327.68
535.37	313.63
535.54	330.02
535.71	245.76
535.88	337.04
536.05	243.42
536.22	325.33
536.38	278.52
536.55	287.89
536.72	255.12
536.89	264.48
537.06	229.37
537.23	318.31
537.40	383.85
537.57	280.86
537.74	311.29
537.91	318.31
538.08	318.31
538.25	320.65
538.42	297.25
538.59	287.89
538.75	283.20
538.92	344.06
539.09	348.74
539.26	299.59
539.43	521.94
539.60	1102.39
539.77	1465.18
539.94	1556.46
540.11	978.34
540.28	793.44
540.44	634.29
540.61	498.53
540.78	428.32
540.95	435.34
541.12	463.43
541.29	587.47
541.46	477.47
541.62	550.03
541.79	496.19
541.96	550.03
542.13	484.49
542.30	496.19
542.47	493.85
542.63	482.15
542.80	528.96
542.97	409.59
543.14	503.22
543.31	449.38
543.48	514.92
543.64	458.74
543.81	470.45
543.98	423.64
544.15	486.83
544.32	477.47
544.48	430.66
544.65	505.56
544.82	454.06
544.99	482.15
545.16	372.15
545.32	512.58
545.49	748.97
545.66	851.96
545.83	910.47
546.00	802.80
546.16	641.31
546.33	535.98
546.50	456.40
546.67	510.24
546.83	404.91
547.00	355.76
547.17	407.25
547.34	355.76
547.50	330.02
547.67	358.10
547.84	374.49
548.00	388.53
548.17	376.83
548.34	381.51
548.51	477.47
548.67	379.17
548.84	341.72
549.01	376.83
549.18	383.85
549.34	348.74
549.51	400.23
549.68	332.36
549.84	330.02
550.01	355.76
550.18	379.17
550.34	395.55
550.51	348.74
550.68	348.74
550.84	264.48
551.01	236.39
551.18	348.74
551.34	379.17
551.51	262.14
551.68	327.68
551.84	344.06
552.01	285.55
552.18	330.02
552.34	271.50
552.51	355.76
552.68	365.12
552.84	308.95
553.01	287.89
553.18	334.70
553.34	313.63
553.51	290.23
553.67	348.74
553.84	404.91
554.01	358.10
554.17	358.10
554.34	224.69
554.51	369.80
554.67	322.99
554.84	344.06
555.00	292.57
555.17	304.27
555.33	330.02
555.50	301.93
555.67	393.21
555.83	292.57
556.00	308.95
556.16	418.96
556.33	229.37
556.50	273.84
556.66	259.80
556.83	259.80
556.99	236.39
557.16	280.86
557.32	320.65
557.49	215.33
557.65	224.69
557.82	255.12
557.98	259.80
558.15	283.20
558.32	290.23
558.48	266.82
558.65	311.29
558.81	231.71
558.98	259.80
559.14	292.57
559.31	299.59
559.47	297.25
559.64	264.48
559.80	304.27
559.97	222.35
560.13	283.20
560.30	241.08
560.46	315.97
560.63	243.42
560.79	292.57
560.96	308.95
561.12	196.60
561.29	264.48
561.45	266.82
561.61	271.50
561.78	374.49
561.94	229.37
562.11	238.73
562.27	227.03
562.44	248.10
562.60	203.63
562.77	262.14
562.93	285.55
563.10	248.10
563.26	276.18
563.42	285.55
563.59	255.12
563.75	266.82
563.92	273.84
564.08	271.50
564.24	290.23
564.41	315.97
564.57	257.46
564.74	346.40
564.90	224.69
565.07	294.91
565.23	376.83
565.39	250.44
565.56	255.12
565.72	332.36
565.88	259.80
566.05	273.84
566.21	278.52
566.38	278.52
566.54	308.95
566.70	304.27
566.87	241.08
567.03	205.97
567.19	248.10
567.36	234.05
567.52	245.76
567.68	269.16
567.85	297.25
568.01	231.71
568.17	264.48
568.34	238.73
568.50	360.44
568.66	245.76
568.83	383.85
568.99	311.29
569.15	315.97
569.32	238.73
569.48	301.93
569.64	196.60
569.81	278.52
569.97	220.01
570.13	285.55
570.30	285.55
570.46	248.10
570.62	276.18
570.78	184.90
570.95	297.25
571.11	325.33
571.27	334.70
571.43	273.84
571.60	243.42
571.76	243.42
571.92	292.57
572.09	271.50
572.25	248.10
572.41	306.61
572.57	313.63
572.74	257.46
572.90	313.63
573.06	285.55
573.22	231.71
573.38	238.73
573.55	325.33
573.71	313.63
573.87	259.80
574.03	330.02
574.20	271.50
574.36	330.02
574.52	304.27
574.68	322.99
574.84	400.23
575.01	325.33
575.17	271.50
575.33	362.78
575.49	301.93
575.65	299.59
575.82	353.42
575.98	573.43
576.14	608.54
576.30	695.14
576.46	571.09
576.62	458.74
576.79	512.58
576.95	468.11
577.11	304.27
577.27	299.59
577.43	353.42
577.59	311.29
577.75	313.63
577.92	320.65
578.08	292.57
578.24	208.31
578.40	334.70
578.56	433.00
578.72	397.89
578.88	390.87
579.04	388.53
579.21	304.27
579.37	299.59
579.53	238.73
579.69	421.30
579.85	278.52
580.01	458.74
580.17	430.66
580.33	379.17
580.49	425.98
580.65	299.59
580.82	353.42
580.98	346.40
581.14	283.20
581.30	458.74
581.46	477.47
581.62	655.35
581.78	653.01
581.94	603.86
582.10	500.87
582.26	470.45
582.42	507.90
582.58	454.06
582.74	491.51
582.90	482.15
583.06	550.03
583.22	472.79
583.38	500.87
583.54	507.90
583.70	732.59
583.86	718.54
584.02	763.01
584.18	997.07
584.34	1181.97
584.50	3164.40
584.66	22202.32
584.82	53616.99
584.98	62712.31
585.14	59798.35
585.30	43920.15
585.46	26665.72
585.62	16126.29
585.78	7714.41
585.94	3169.09
586.10	1465.18
586.26	987.71
586.42	866.00
586.58	662.37
586.74	688.12
586.90	699.82
587.06	645.99
587.22	650.67
587.38	559.39
587.54	1114.10
587.70	3365.69
587.86	5291.95
588.02	5710.91
588.18	4077.21
588.34	2590.97
588.49	1771.79
588.65	1130.48
588.81	695.14
588.97	500.87
589.13	386.19
589.29	383.85
589.45	360.44
589.61	372.15
589.77	395.55
589.93	425.98
590.08	491.51
590.24	393.21
590.40	425.98
590.56	369.80
590.72	341.72
590.88	421.30
591.04	479.81
591.20	411.93
591.35	437.68
591.51	344.06
591.67	367.46
591.83	327.68
591.99	322.99
592.15	395.55
592.31	395.55
592.46	362.78
592.62	372.15
592.78	355.76
592.94	304.27
593.10	346.40
593.26	463.43
593.41	470.45
593.57	465.77
593.73	571.09
593.89	2647.15
594.05	6717.34
594.20	9750.67
594.36	9217.03
594.52	6122.84
594.68	4016.36
594.84	2576.93
594.99	1479.22
595.15	777.06
595.31	458.74
595.47	456.40
595.62	348.74
595.78	348.74
595.94	339.38
596.10	428.32
596.25	423.64
596.41	402.57
596.57	355.76
596.73	318.31
596.88	573.43
597.04	1364.53
597.20	2188.40
597.36	2490.33
597.51	2005.84
597.67	1371.55
597.83	924.51
597.99	702.16
598.14	475.13
598.30	475.13
598.46	379.17
598.61	423.64
598.77	386.19
598.93	334.70
599.09	327.68
599.24	315.97
599.40	252.78
599.56	376.83
599.71	372.15
599.87	381.51
600.03	337.04
600.18	285.55
600.34	367.46
600.50	297.25
600.65	322.99
600.81	276.18
600.97	280.86
601.12	304.27
601.28	341.72
601.44	299.59
601.59	294.91
601.75	203.63
601.91	339.38
602.06	383.85
602.22	362.78
602.37	779.40
602.53	1561.14
602.69	2490.33
602.84	2597.99
603.00	1900.52
603.16	1348.15
603.31	908.13
603.47	589.82
603.62	461.09
603.78	407.25
603.94	294.91
604.09	294.91
604.25	365.12
604.40	266.82
604.56	273.84
604.71	334.70
604.87	318.31
605.03	351.08
605.18	367.46
605.34	372.15
605.49	344.06
605.65	355.76
605.80	376.83
605.96	362.78
606.12	421.30
606.27	428.32
606.43	339.38
606.58	395.55
606.74	887.06
606.89	3335.26
607.05	6473.92
607.20	8526.57
607.36	6729.04
607.51	4620.22
607.67	3110.57
607.82	2062.01
607.98	1217.08
608.13	746.63
608.29	514.92
608.44	566.41
608.60	451.72
608.75	510.24
608.91	1214.74
609.06	5137.48
609.22	10686.89
609.37	14541.75
609.53	12636.55
609.68	8557.00
609.84	5495.58
609.99	3805.71
610.15	2190.74
