SpectraSuite Data File
++++++++++++++++++++++++++++++++++++
Date: Fri Oct 04 11:33:44 GMT-05:00 2013
User: price-jones
Dark Spectrum Present: No
Reference Spectrum Present: No
Number of Sampled Component Spectra: 1
Spectrometers: USB2+H05261
Integration Time (usec): 100000 (USB2+H05261)
Spectra Averaged: 1 (USB2+H05261)
Boxcar Smoothing: 0 (USB2+H05261)
Correct for Electrical Dark: No (USB2+H05261)
Strobe/Lamp Enabled: No (USB2+H05261)
Correct for Detector Non-linearity: No (USB2+H05261)
Correct for Stray Light: No (USB2+H05261)
Number of Pixels in Processed Spectrum: 2048
>>>>>Begin Processed Spectral Data<<<<<
365.73	74.90
365.92	74.90
366.12	74.90
366.32	11.70
366.52	0.00
366.72	23.41
366.91	4.68
367.11	0.00
367.31	0.00
367.51	0.00
367.70	0.00
367.90	0.00
368.10	0.00
368.30	0.00
368.49	0.00
368.69	49.15
368.89	25.75
369.09	0.00
369.28	0.00
369.48	56.17
369.68	0.00
369.87	11.70
370.07	0.00
370.27	110.01
370.47	88.94
370.66	0.00
370.86	11.70
371.06	117.03
371.25	88.94
371.45	23.41
371.65	88.94
371.84	124.05
372.04	140.43
372.24	166.18
372.44	49.15
372.63	84.26
372.83	135.75
373.03	175.54
373.22	88.94
373.42	77.24
373.62	149.79
373.81	177.88
374.01	201.29
374.21	133.41
374.40	102.98
374.60	154.48
374.79	159.16
374.99	119.37
375.19	170.86
375.38	163.84
375.58	159.16
375.78	163.84
375.97	196.60
376.17	187.24
376.37	189.58
376.56	152.13
376.76	138.09
376.95	67.88
377.15	147.45
377.35	117.03
377.54	159.16
377.74	159.16
377.93	138.09
378.13	86.60
378.33	175.54
378.52	180.22
378.72	182.56
378.91	177.88
379.11	88.94
379.31	95.96
379.50	152.13
379.70	142.77
379.89	149.79
380.09	114.69
380.28	152.13
380.48	117.03
380.68	102.98
380.87	170.86
381.07	205.97
381.26	105.32
381.46	205.97
381.65	154.48
381.85	170.86
382.04	117.03
382.24	114.69
382.43	189.58
382.63	159.16
382.83	79.58
383.02	163.84
383.22	194.26
383.41	147.45
383.61	149.79
383.80	100.64
384.00	168.52
384.19	180.22
384.39	201.29
384.58	245.76
384.78	168.52
384.97	166.18
385.17	117.03
385.36	149.79
385.56	177.88
385.75	91.28
385.95	112.35
386.14	121.71
386.34	135.75
386.53	147.45
386.72	114.69
386.92	201.29
387.11	145.11
387.31	170.86
387.50	117.03
387.70	63.19
387.89	114.69
388.09	107.66
388.28	135.75
388.48	142.77
388.67	117.03
388.86	88.94
389.06	121.71
389.25	229.37
389.45	191.92
389.64	166.18
389.84	93.62
390.03	128.73
390.22	168.52
390.42	149.79
390.61	154.48
390.81	145.11
391.00	156.82
391.19	201.29
391.39	145.11
391.58	142.77
391.78	131.07
391.97	135.75
392.16	110.01
392.36	102.98
392.55	187.24
392.75	140.43
392.94	184.90
393.13	168.52
393.33	84.26
393.52	86.60
393.71	191.92
393.91	205.97
394.10	110.01
394.29	121.71
394.49	177.88
394.68	142.77
394.88	161.50
395.07	180.22
395.26	187.24
395.46	203.63
395.65	147.45
395.84	166.18
396.04	191.92
396.23	105.32
396.42	131.07
396.62	180.22
396.81	77.24
397.00	65.54
397.19	191.92
397.39	191.92
397.58	133.41
397.77	168.52
397.97	166.18
398.16	196.60
398.35	208.31
398.55	203.63
398.74	191.92
398.93	194.26
399.12	156.82
399.32	147.45
399.51	112.35
399.70	142.77
399.90	105.32
400.09	107.66
400.28	191.92
400.47	245.76
400.67	243.42
400.86	112.35
401.05	138.09
401.24	187.24
401.44	198.95
401.63	131.07
401.82	154.48
402.01	105.32
402.21	184.90
402.40	98.30
402.59	133.41
402.78	163.84
402.97	142.77
403.17	180.22
403.36	149.79
403.55	177.88
403.74	84.26
403.93	159.16
404.13	231.71
404.32	220.01
404.51	201.29
404.70	184.90
404.89	133.41
405.09	257.46
405.28	114.69
405.47	81.92
405.66	182.56
405.85	168.52
406.05	173.20
406.24	107.66
406.43	191.92
406.62	189.58
406.81	175.54
407.00	203.63
407.20	191.92
407.39	140.43
407.58	149.79
407.77	173.20
407.96	107.66
408.15	152.13
408.34	74.90
408.54	156.82
408.73	114.69
408.92	170.86
409.11	241.08
409.30	166.18
409.49	107.66
409.68	212.99
409.87	198.95
410.07	170.86
410.26	98.30
410.45	152.13
410.64	177.88
410.83	184.90
411.02	191.92
411.21	156.82
411.40	135.75
411.59	124.05
411.78	149.79
411.98	210.65
412.17	163.84
412.36	140.43
412.55	152.13
412.74	177.88
412.93	163.84
413.12	166.18
413.31	152.13
413.50	152.13
413.69	208.31
413.88	152.13
414.07	128.73
414.26	114.69
414.45	140.43
414.64	112.35
414.83	159.16
415.02	208.31
415.22	166.18
415.41	243.42
415.60	166.18
415.79	166.18
415.98	205.97
416.17	196.60
416.36	210.65
416.55	117.03
416.74	149.79
416.93	156.82
417.12	145.11
417.31	156.82
417.50	142.77
417.69	271.50
417.88	191.92
418.07	215.33
418.26	196.60
418.45	168.52
418.64	210.65
418.83	168.52
419.02	177.88
419.21	170.86
419.39	189.58
419.58	133.41
419.77	159.16
419.96	182.56
420.15	198.95
420.34	149.79
420.53	175.54
420.72	238.73
420.91	67.88
421.10	161.50
421.29	140.43
421.48	161.50
421.67	210.65
421.86	166.18
422.05	177.88
422.24	128.73
422.43	121.71
422.61	191.92
422.80	138.09
422.99	227.03
423.18	168.52
423.37	201.29
423.56	196.60
423.75	152.13
423.94	133.41
424.13	114.69
424.32	135.75
424.50	194.26
424.69	102.98
424.88	102.98
425.07	210.65
425.26	173.20
425.45	210.65
425.64	184.90
425.83	145.11
426.01	135.75
426.20	138.09
426.39	210.65
426.58	142.77
426.77	166.18
426.96	203.63
427.15	145.11
427.33	161.50
427.52	177.88
427.71	163.84
427.90	95.96
428.09	114.69
428.28	142.77
428.46	95.96
428.65	215.33
428.84	198.95
429.03	224.69
429.22	138.09
429.40	163.84
429.59	147.45
429.78	222.35
429.97	147.45
430.16	187.24
430.34	173.20
430.53	102.98
430.72	119.37
430.91	194.26
431.10	135.75
431.28	180.22
431.47	154.48
431.66	159.16
431.85	175.54
432.03	93.62
432.22	236.39
432.41	177.88
432.60	177.88
432.79	163.84
432.97	224.69
433.16	262.14
433.35	161.50
433.54	121.71
433.72	161.50
433.91	208.31
434.10	152.13
434.28	180.22
434.47	194.26
434.66	241.08
434.85	196.60
435.03	257.46
435.22	337.04
435.41	337.04
435.59	320.65
435.78	322.99
435.97	287.89
436.16	203.63
436.34	231.71
436.53	208.31
436.72	245.76
436.90	245.76
437.09	208.31
437.28	168.52
437.46	124.05
437.65	156.82
437.84	156.82
438.02	191.92
438.21	220.01
438.40	182.56
438.58	102.98
438.77	238.73
438.96	154.48
439.14	131.07
439.33	152.13
439.52	212.99
439.70	212.99
439.89	154.48
440.08	208.31
440.26	152.13
440.45	210.65
440.63	201.29
440.82	196.60
441.01	252.78
441.19	194.26
441.38	168.52
441.57	128.73
441.75	208.31
441.94	182.56
442.12	208.31
442.31	156.82
442.50	154.48
442.68	88.94
442.87	154.48
443.05	182.56
443.24	224.69
443.43	191.92
443.61	168.52
443.80	142.77
443.98	154.48
444.17	156.82
444.35	212.99
444.54	184.90
444.73	180.22
444.91	154.48
445.10	159.16
445.28	201.29
445.47	138.09
445.65	180.22
445.84	138.09
446.02	203.63
446.21	152.13
446.39	119.37
446.58	191.92
446.77	147.45
446.95	147.45
447.14	168.52
447.32	245.76
447.51	196.60
447.69	210.65
447.88	175.54
448.06	191.92
448.25	212.99
448.43	201.29
448.62	161.50
448.80	217.67
448.99	182.56
449.17	147.45
449.36	180.22
449.54	142.77
449.73	173.20
449.91	187.24
450.10	147.45
450.28	245.76
450.46	203.63
450.65	210.65
450.83	180.22
451.02	177.88
451.20	175.54
451.39	203.63
451.57	170.86
451.76	189.58
451.94	170.86
452.13	168.52
452.31	227.03
452.49	229.37
452.68	131.07
452.86	170.86
453.05	210.65
453.23	222.35
453.42	182.56
453.60	212.99
453.78	191.92
453.97	180.22
454.15	255.12
454.34	173.20
454.52	128.73
454.70	313.63
454.89	266.82
455.07	189.58
455.26	220.01
455.44	159.16
455.62	182.56
455.81	159.16
455.99	222.35
456.17	205.97
456.36	196.60
456.54	175.54
456.73	187.24
456.91	142.77
457.09	198.95
457.28	187.24
457.46	205.97
457.64	166.18
457.83	217.67
458.01	189.58
458.19	198.95
458.38	201.29
458.56	161.50
458.74	154.48
458.93	131.07
459.11	161.50
459.29	175.54
459.48	259.80
459.66	248.10
459.84	236.39
460.03	231.71
460.21	215.33
460.39	177.88
460.57	196.60
460.76	222.35
460.94	149.79
461.12	243.42
461.31	210.65
461.49	191.92
461.67	198.95
461.85	156.82
462.04	217.67
462.22	582.79
462.40	168.52
462.59	238.73
462.77	163.84
462.95	170.86
463.13	212.99
463.32	201.29
463.50	126.39
463.68	173.20
463.86	189.58
464.05	187.24
464.23	198.95
464.41	196.60
464.59	138.09
464.78	212.99
464.96	147.45
465.14	161.50
465.32	135.75
465.50	161.50
465.69	182.56
465.87	201.29
466.05	248.10
466.23	166.18
466.41	152.13
466.60	212.99
466.78	135.75
466.96	255.12
467.14	177.88
467.32	140.43
467.51	243.42
467.69	182.56
467.87	203.63
468.05	156.82
468.23	234.05
468.41	191.92
468.60	175.54
468.78	196.60
468.96	224.69
469.14	170.86
469.32	110.01
469.50	58.51
469.69	189.58
469.87	224.69
470.05	215.33
470.23	215.33
470.41	210.65
470.59	187.24
470.77	276.18
470.95	180.22
471.14	203.63
471.32	201.29
471.50	191.92
471.68	201.29
471.86	203.63
472.04	205.97
472.22	187.24
472.40	191.92
472.58	205.97
472.77	203.63
472.95	135.75
473.13	278.52
473.31	227.03
473.49	133.41
473.67	156.82
473.85	269.16
474.03	189.58
474.21	259.80
474.39	229.37
474.57	266.82
474.75	140.43
474.93	250.44
475.12	227.03
475.30	203.63
475.48	203.63
475.66	205.97
475.84	177.88
476.02	245.76
476.20	210.65
476.38	236.39
476.56	191.92
476.74	152.13
476.92	245.76
477.10	208.31
477.28	231.71
477.46	266.82
477.64	231.71
477.82	215.33
478.00	126.39
478.18	234.05
478.36	175.54
478.54	154.48
478.72	189.58
478.90	252.78
479.08	259.80
479.26	231.71
479.44	234.05
479.62	205.97
479.80	159.16
479.98	196.60
480.16	140.43
480.34	222.35
480.52	201.29
480.70	187.24
480.88	243.42
481.06	252.78
481.24	210.65
481.41	203.63
481.59	210.65
481.77	245.76
481.95	241.08
482.13	266.82
482.31	182.56
482.49	170.86
482.67	208.31
482.85	156.82
483.03	278.52
483.21	175.54
483.39	280.86
483.57	187.24
483.74	187.24
483.92	257.46
484.10	215.33
484.28	252.78
484.46	231.71
484.64	217.67
484.82	262.14
485.00	210.65
485.18	205.97
485.35	217.67
485.53	98.30
485.71	236.39
485.89	238.73
486.07	201.29
486.25	205.97
486.43	280.86
486.61	273.84
486.78	259.80
486.96	217.67
487.14	266.82
487.32	229.37
487.50	201.29
487.68	264.48
487.85	201.29
488.03	210.65
488.21	308.95
488.39	308.95
488.57	243.42
488.75	198.95
488.92	521.94
489.10	210.65
489.28	278.52
489.46	196.60
489.64	306.61
489.81	177.88
489.99	224.69
490.17	285.55
490.35	315.97
490.53	236.39
490.70	271.50
490.88	231.71
491.06	311.29
491.24	135.75
491.41	348.74
491.59	276.18
491.77	236.39
491.95	175.54
492.13	166.18
492.30	229.37
492.48	201.29
492.66	248.10
492.84	201.29
493.01	205.97
493.19	182.56
493.37	337.04
493.54	264.48
493.72	201.29
493.90	245.76
494.08	203.63
494.25	191.92
494.43	285.55
494.61	217.67
494.79	273.84
494.96	196.60
495.14	285.55
495.32	248.10
495.49	252.78
495.67	283.20
495.85	234.05
496.02	234.05
496.20	257.46
496.38	248.10
496.55	299.59
496.73	217.67
496.91	276.18
497.09	318.31
497.26	337.04
497.44	304.27
497.62	203.63
497.79	248.10
497.97	236.39
498.14	212.99
498.32	252.78
498.50	264.48
498.67	236.39
498.85	341.72
499.03	234.05
499.20	250.44
499.38	297.25
499.56	203.63
499.73	259.80
499.91	250.44
500.08	266.82
500.26	245.76
500.44	212.99
500.61	241.08
500.79	269.16
500.97	198.95
501.14	283.20
501.32	327.68
501.49	264.48
501.67	227.03
501.84	255.12
502.02	128.73
502.20	259.80
502.37	255.12
502.55	234.05
502.72	245.76
502.90	212.99
503.07	241.08
503.25	285.55
503.43	245.76
503.60	196.60
503.78	297.25
503.95	229.37
504.13	210.65
504.30	297.25
504.48	337.04
504.65	269.16
504.83	217.67
505.01	205.97
505.18	243.42
505.36	287.89
505.53	259.80
505.71	208.31
505.88	294.91
506.06	217.67
506.23	224.69
506.41	241.08
506.58	177.88
506.76	283.20
506.93	294.91
507.11	276.18
507.28	241.08
507.46	259.80
507.63	227.03
507.81	278.52
507.98	215.33
508.16	201.29
508.33	271.50
508.50	313.63
508.68	262.14
508.85	212.99
509.03	238.73
509.20	177.88
509.38	299.59
509.55	215.33
509.73	175.54
509.90	257.46
510.08	283.20
510.25	269.16
510.42	264.48
510.60	215.33
510.77	266.82
510.95	301.93
511.12	208.31
511.30	280.86
511.47	194.26
511.64	327.68
511.82	252.78
511.99	215.33
512.17	255.12
512.34	191.92
512.51	280.86
512.69	250.44
512.86	325.33
513.04	271.50
513.21	245.76
513.38	238.73
513.56	149.79
513.73	149.79
513.90	224.69
514.08	245.76
514.25	306.61
514.43	266.82
514.60	215.33
514.77	287.89
514.95	330.02
515.12	217.67
515.29	330.02
515.47	198.95
515.64	198.95
515.81	222.35
515.99	297.25
516.16	273.84
516.33	301.93
516.51	159.16
516.68	238.73
516.85	224.69
517.03	208.31
517.20	220.01
517.37	278.52
517.54	245.76
517.72	278.52
517.89	208.31
518.06	203.63
518.24	245.76
518.41	283.20
518.58	264.48
518.75	224.69
518.93	311.29
519.10	248.10
519.27	243.42
519.45	238.73
519.62	264.48
519.79	259.80
519.96	201.29
520.14	145.11
520.31	227.03
520.48	220.01
520.65	255.12
520.83	313.63
521.00	182.56
521.17	358.10
521.34	290.23
521.52	222.35
521.69	215.33
521.86	217.67
522.03	257.46
522.20	276.18
522.38	238.73
522.55	234.05
522.72	220.01
522.89	236.39
523.07	236.39
523.24	252.78
523.41	255.12
523.58	173.20
523.75	257.46
523.92	227.03
524.10	330.02
524.27	283.20
524.44	191.92
524.61	334.70
524.78	227.03
524.96	250.44
525.13	290.23
525.30	292.57
525.47	262.14
525.64	322.99
525.81	262.14
525.98	191.92
526.16	241.08
526.33	220.01
526.50	252.78
526.67	257.46
526.84	245.76
527.01	245.76
527.18	301.93
527.36	304.27
527.53	224.69
527.70	306.61
527.87	278.52
528.04	196.60
528.21	283.20
528.38	339.38
528.55	276.18
528.72	285.55
528.89	259.80
529.07	257.46
529.24	259.80
529.41	280.86
529.58	170.86
529.75	252.78
529.92	212.99
530.09	271.50
530.26	215.33
530.43	255.12
530.60	259.80
530.77	322.99
530.94	330.02
531.11	362.78
531.28	257.46
531.46	269.16
531.63	322.99
531.80	234.05
531.97	322.99
532.14	327.68
532.31	259.80
532.48	292.57
532.65	374.49
532.82	266.82
532.99	322.99
533.16	276.18
533.33	311.29
533.50	308.95
533.67	243.42
533.84	365.12
534.01	407.25
534.18	327.68
534.35	306.61
534.52	269.16
534.69	341.72
534.86	257.46
535.03	255.12
535.20	276.18
535.37	313.63
535.54	344.06
535.71	325.33
535.88	348.74
536.05	259.80
536.22	318.31
536.38	278.52
536.55	264.48
536.72	325.33
536.89	301.93
537.06	280.86
537.23	306.61
537.40	290.23
537.57	255.12
537.74	290.23
537.91	304.27
538.08	360.44
538.25	325.33
538.42	299.59
538.59	299.59
538.75	306.61
538.92	360.44
539.09	360.44
539.26	318.31
539.43	435.34
539.60	690.46
539.77	807.48
539.94	746.63
540.11	645.99
540.28	531.30
540.44	393.21
540.61	367.46
540.78	341.72
540.95	430.66
541.12	475.13
541.29	475.13
541.46	533.64
541.62	383.85
541.79	472.79
541.96	447.04
542.13	444.70
542.30	433.00
542.47	484.49
542.63	444.70
542.80	463.43
542.97	472.79
543.14	425.98
543.31	362.78
543.48	407.25
543.64	397.89
543.81	416.62
543.98	463.43
544.15	430.66
544.32	386.19
544.48	383.85
544.65	346.40
544.82	402.57
544.99	425.98
545.16	493.85
545.32	456.40
545.49	608.54
545.66	763.01
545.83	821.53
546.00	695.14
546.16	676.41
546.33	451.72
546.50	463.43
546.67	402.57
546.83	374.49
547.00	322.99
547.17	365.12
547.34	311.29
547.50	369.80
547.67	332.36
547.84	423.64
548.00	409.59
548.17	374.49
548.34	301.93
548.51	339.38
548.67	351.08
548.84	348.74
549.01	332.36
549.18	376.83
549.34	322.99
549.51	341.72
549.68	315.97
549.84	358.10
550.01	299.59
550.18	294.91
550.34	334.70
550.51	266.82
550.68	315.97
550.84	322.99
551.01	372.15
551.18	285.55
551.34	299.59
551.51	252.78
551.68	334.70
551.84	301.93
552.01	301.93
552.18	257.46
552.34	287.89
552.51	276.18
552.68	362.78
552.84	306.61
553.01	315.97
553.18	292.57
553.34	294.91
553.51	227.03
553.67	318.31
553.84	308.95
554.01	278.52
554.17	276.18
554.34	292.57
554.51	255.12
554.67	294.91
554.84	278.52
555.00	273.84
555.17	234.05
555.33	301.93
555.50	259.80
555.67	301.93
555.83	283.20
556.00	269.16
556.16	400.23
556.33	311.29
556.50	159.16
556.66	306.61
556.83	287.89
556.99	269.16
557.16	280.86
557.32	222.35
557.49	273.84
557.65	273.84
557.82	238.73
557.98	292.57
558.15	208.31
558.32	243.42
558.48	241.08
558.65	351.08
558.81	299.59
558.98	301.93
559.14	318.31
559.31	290.23
559.47	273.84
559.64	210.65
559.80	222.35
559.97	287.89
560.13	234.05
560.30	182.56
560.46	234.05
560.63	248.10
560.79	280.86
560.96	276.18
561.12	198.95
561.29	245.76
561.45	236.39
561.61	241.08
561.78	353.42
561.94	241.08
562.11	290.23
562.27	252.78
562.44	215.33
562.60	297.25
562.77	276.18
562.93	341.72
563.10	238.73
563.26	280.86
563.42	294.91
563.59	243.42
563.75	212.99
563.92	311.29
564.08	224.69
564.24	301.93
564.41	292.57
564.57	290.23
564.74	264.48
564.90	236.39
565.07	330.02
565.23	339.38
565.39	276.18
565.56	276.18
565.72	241.08
565.88	212.99
566.05	227.03
566.21	292.57
566.38	278.52
566.54	304.27
566.70	191.92
566.87	210.65
567.03	191.92
567.19	238.73
567.36	262.14
567.52	308.95
567.68	257.46
567.85	215.33
568.01	271.50
568.17	238.73
568.34	287.89
568.50	276.18
568.66	215.33
568.83	360.44
568.99	245.76
569.15	355.76
569.32	269.16
569.48	180.22
569.64	245.76
569.81	215.33
569.97	234.05
570.13	229.37
570.30	257.46
570.46	184.90
570.62	266.82
570.78	292.57
570.95	201.29
571.11	325.33
571.27	280.86
571.43	259.80
571.60	276.18
571.76	208.31
571.92	203.63
572.09	152.13
572.25	252.78
572.41	278.52
572.57	227.03
572.74	308.95
572.90	276.18
573.06	273.84
573.22	266.82
573.38	294.91
573.55	304.27
573.71	245.76
573.87	269.16
574.03	294.91
574.20	330.02
574.36	297.25
574.52	325.33
574.68	339.38
574.84	287.89
575.01	271.50
575.17	306.61
575.33	257.46
575.49	308.95
575.65	299.59
575.82	355.76
575.98	433.00
576.14	397.89
576.30	423.64
576.46	475.13
576.62	447.04
576.79	367.46
576.95	383.85
577.11	271.50
577.27	311.29
577.43	327.68
577.59	280.86
577.75	341.72
577.92	294.91
578.08	292.57
578.24	304.27
578.40	285.55
578.56	418.96
578.72	447.04
578.88	325.33
579.04	358.10
579.21	304.27
579.37	318.31
579.53	238.73
579.69	301.93
579.85	264.48
580.01	407.25
580.17	425.98
580.33	395.55
580.49	341.72
580.65	313.63
580.82	313.63
580.98	322.99
581.14	339.38
581.30	313.63
581.46	322.99
581.62	369.80
581.78	475.13
581.94	437.68
582.10	442.36
582.26	416.62
582.42	369.80
582.58	344.06
582.74	353.42
582.90	369.80
583.06	337.04
583.22	313.63
583.38	479.81
583.54	409.59
583.70	510.24
583.86	449.38
584.02	475.13
584.18	575.77
584.34	631.94
584.50	1629.01
584.66	10714.97
584.82	26431.67
584.98	34237.36
585.14	29039.03
585.30	18483.21
585.46	11335.21
585.62	7026.29
585.78	3503.78
585.94	1497.94
586.10	791.10
586.26	564.07
586.42	531.30
586.58	468.11
586.74	479.81
586.90	514.92
587.06	451.72
587.22	491.51
587.38	360.44
587.54	671.73
587.70	1692.21
587.86	2562.89
588.02	2612.04
588.18	1923.92
588.34	1296.66
588.49	887.06
588.65	620.24
588.81	458.74
588.97	297.25
589.13	278.52
589.29	325.33
589.45	294.91
589.61	262.14
589.77	325.33
589.93	320.65
590.08	327.68
590.24	348.74
590.40	369.80
590.56	273.84
590.72	276.18
590.88	306.61
591.04	311.29
591.20	243.42
591.35	259.80
591.51	327.68
591.67	231.71
591.83	201.29
591.99	250.44
592.15	351.08
592.31	292.57
592.46	264.48
592.62	306.61
592.78	332.36
592.94	269.16
593.10	327.68
593.26	341.72
593.41	273.84
593.57	348.74
593.73	362.78
593.89	1362.19
594.05	3335.26
594.20	4189.56
594.36	3969.55
594.52	2719.70
594.68	1858.39
594.84	1320.06
594.99	807.48
595.15	461.09
595.31	369.80
595.47	339.38
595.62	388.53
595.78	297.25
595.94	266.82
596.10	341.72
596.25	266.82
596.41	290.23
596.57	301.93
596.73	301.93
596.88	400.23
597.04	819.19
597.20	1011.11
597.36	1123.46
597.51	929.19
597.67	681.10
597.83	568.75
597.99	482.15
598.14	330.02
598.30	304.27
598.46	337.04
598.61	348.74
598.77	402.57
598.93	294.91
599.09	266.82
599.24	313.63
599.40	299.59
599.56	299.59
599.71	280.86
599.87	292.57
600.03	276.18
600.18	327.68
600.34	269.16
600.50	271.50
600.65	248.10
600.81	264.48
600.97	224.69
601.12	238.73
601.28	294.91
601.44	238.73
601.59	241.08
601.75	294.91
601.91	236.39
602.06	273.84
602.22	365.12
602.37	500.87
602.53	835.57
602.69	1313.04
602.84	1256.87
603.00	1027.50
603.16	793.44
603.31	669.39
603.47	425.98
603.62	325.33
603.78	339.38
603.94	294.91
604.09	273.84
604.25	301.93
604.40	285.55
604.56	313.63
604.71	196.60
604.87	229.37
605.03	231.71
605.18	280.86
605.34	269.16
605.49	278.52
605.65	248.10
605.80	257.46
605.96	266.82
606.12	320.65
606.27	297.25
606.43	318.31
606.58	292.57
606.74	552.37
606.89	1692.21
607.05	2953.76
607.20	3676.98
607.36	2913.97
607.51	2010.52
607.67	1397.30
607.82	1015.79
607.98	634.29
608.13	451.72
608.29	369.80
608.44	444.70
608.60	353.42
608.75	418.96
608.91	699.82
609.06	2626.08
609.22	5121.09
609.37	6352.21
609.53	5121.09
609.68	3688.68
609.84	2495.01
609.99	1809.23
610.15	1198.35
610.30	751.31
610.46	655.35
