SpectraSuite Data File
++++++++++++++++++++++++++++++++++++
Date: Fri Oct 04 11:33:51 GMT-05:00 2013
User: price-jones
Dark Spectrum Present: No
Reference Spectrum Present: No
Number of Sampled Component Spectra: 1
Spectrometers: USB2+H05261
Integration Time (usec): 100000 (USB2+H05261)
Spectra Averaged: 1 (USB2+H05261)
Boxcar Smoothing: 0 (USB2+H05261)
Correct for Electrical Dark: No (USB2+H05261)
Strobe/Lamp Enabled: No (USB2+H05261)
Correct for Detector Non-linearity: No (USB2+H05261)
Correct for Stray Light: No (USB2+H05261)
Number of Pixels in Processed Spectrum: 2048
>>>>>Begin Processed Spectral Data<<<<<
365.73	84.26
365.92	84.26
366.12	84.26
366.32	63.19
366.52	0.00
366.72	0.00
366.91	0.00
367.11	0.00
367.31	18.72
367.51	0.00
367.70	0.00
367.90	0.00
368.10	0.00
368.30	0.00
368.49	0.00
368.69	0.00
368.89	0.00
369.09	67.88
369.28	0.00
369.48	9.36
369.68	0.00
369.87	79.58
370.07	0.00
370.27	63.19
370.47	63.19
370.66	93.62
370.86	100.64
371.06	51.49
371.25	156.82
371.45	100.64
371.65	156.82
371.84	110.01
372.04	161.50
372.24	166.18
372.44	72.56
372.63	126.39
372.83	124.05
373.03	184.90
373.22	126.39
373.42	124.05
373.62	138.09
373.81	147.45
374.01	198.95
374.21	117.03
374.40	175.54
374.60	189.58
374.79	173.20
374.99	196.60
375.19	166.18
375.38	152.13
375.58	187.24
375.78	93.62
375.97	191.92
376.17	234.05
376.37	166.18
376.56	147.45
376.76	93.62
376.95	128.73
377.15	53.83
377.35	140.43
377.54	126.39
377.74	79.58
377.93	145.11
378.13	93.62
378.33	224.69
378.52	88.94
378.72	166.18
378.91	117.03
379.11	140.43
379.31	131.07
379.50	112.35
379.70	201.29
379.89	138.09
380.09	124.05
380.28	152.13
380.48	194.26
380.68	110.01
380.87	163.84
381.07	131.07
381.26	180.22
381.46	91.28
381.65	147.45
381.85	95.96
382.04	154.48
382.24	149.79
382.43	39.79
382.63	93.62
382.83	133.41
383.02	187.24
383.22	135.75
383.41	133.41
383.61	147.45
383.80	100.64
384.00	95.96
384.19	159.16
384.39	152.13
384.58	117.03
384.78	161.50
384.97	173.20
385.17	133.41
385.36	100.64
385.56	196.60
385.75	107.66
385.95	91.28
386.14	110.01
386.34	196.60
386.53	161.50
386.72	152.13
386.92	142.77
387.11	161.50
387.31	259.80
387.50	91.28
387.70	161.50
387.89	110.01
388.09	128.73
388.28	135.75
388.48	156.82
388.67	49.15
388.86	156.82
389.06	126.39
389.25	154.48
389.45	175.54
389.64	177.88
389.84	142.77
390.03	191.92
390.22	128.73
390.42	170.86
390.61	131.07
390.81	173.20
391.00	177.88
391.19	189.58
391.39	117.03
391.58	187.24
391.78	154.48
391.97	102.98
392.16	131.07
392.36	145.11
392.55	121.71
392.75	135.75
392.94	168.52
393.13	159.16
393.33	140.43
393.52	112.35
393.71	149.79
393.91	93.62
394.10	149.79
394.29	119.37
394.49	159.16
394.68	187.24
394.88	308.95
395.07	161.50
395.26	128.73
395.46	152.13
395.65	147.45
395.84	138.09
396.04	124.05
396.23	105.32
396.42	138.09
396.62	105.32
396.81	114.69
397.00	131.07
397.19	147.45
397.39	161.50
397.58	191.92
397.77	140.43
397.97	208.31
398.16	177.88
398.35	187.24
398.55	210.65
398.74	117.03
398.93	119.37
399.12	126.39
399.32	217.67
399.51	175.54
399.70	196.60
399.90	170.86
400.09	112.35
400.28	196.60
400.47	95.96
400.67	217.67
400.86	147.45
401.05	152.13
401.24	128.73
401.44	140.43
401.63	194.26
401.82	222.35
402.01	88.94
402.21	198.95
402.40	86.60
402.59	117.03
402.78	140.43
402.97	142.77
403.17	128.73
403.36	191.92
403.55	182.56
403.74	168.52
403.93	208.31
404.13	135.75
404.32	266.82
404.51	161.50
404.70	133.41
404.89	140.43
405.09	184.90
405.28	205.97
405.47	173.20
405.66	184.90
405.85	152.13
406.05	175.54
406.24	201.29
406.43	133.41
406.62	121.71
406.81	189.58
407.00	156.82
407.20	117.03
407.39	91.28
407.58	95.96
407.77	135.75
407.96	205.97
408.15	201.29
408.34	175.54
408.54	112.35
408.73	191.92
408.92	163.84
409.11	229.37
409.30	201.29
409.49	117.03
409.68	194.26
409.87	128.73
410.07	182.56
410.26	142.77
410.45	126.39
410.64	124.05
410.83	161.50
411.02	196.60
411.21	224.69
411.40	110.01
411.59	95.96
411.78	114.69
411.98	84.26
412.17	124.05
412.36	166.18
412.55	175.54
412.74	154.48
412.93	182.56
413.12	126.39
413.31	248.10
413.50	126.39
413.69	142.77
413.88	161.50
414.07	166.18
414.26	234.05
414.45	163.84
414.64	133.41
414.83	145.11
415.02	156.82
415.22	42.13
415.41	138.09
415.60	194.26
415.79	175.54
415.98	215.33
416.17	177.88
416.36	140.43
416.55	173.20
416.74	149.79
416.93	126.39
417.12	196.60
417.31	224.69
417.50	168.52
417.69	189.58
417.88	224.69
418.07	147.45
418.26	210.65
418.45	220.01
418.64	198.95
418.83	163.84
419.02	189.58
419.21	140.43
419.39	161.50
419.58	131.07
419.77	168.52
419.96	229.37
420.15	154.48
420.34	91.28
420.53	166.18
420.72	168.52
420.91	124.05
421.10	189.58
421.29	222.35
421.48	156.82
421.67	196.60
421.86	105.32
422.05	133.41
422.24	131.07
422.43	161.50
422.61	208.31
422.80	243.42
422.99	156.82
423.18	168.52
423.37	161.50
423.56	198.95
423.75	205.97
423.94	156.82
424.13	248.10
424.32	126.39
424.50	121.71
424.69	126.39
424.88	180.22
425.07	140.43
425.26	215.33
425.45	205.97
425.64	215.33
425.83	182.56
426.01	184.90
426.20	124.05
426.39	173.20
426.58	142.77
426.77	201.29
426.96	187.24
427.15	231.71
427.33	124.05
427.52	110.01
427.71	180.22
427.90	170.86
428.09	152.13
428.28	119.37
428.46	189.58
428.65	124.05
428.84	198.95
429.03	184.90
429.22	182.56
429.40	196.60
429.59	105.32
429.78	196.60
429.97	145.11
430.16	166.18
430.34	161.50
430.53	138.09
430.72	128.73
430.91	168.52
431.10	135.75
431.28	121.71
431.47	259.80
431.66	215.33
431.85	95.96
432.03	112.35
432.22	191.92
432.41	145.11
432.60	234.05
432.79	140.43
432.97	215.33
433.16	236.39
433.35	154.48
433.54	147.45
433.72	217.67
433.91	205.97
434.10	184.90
434.28	203.63
434.47	173.20
434.66	161.50
434.85	184.90
435.03	163.84
435.22	299.59
435.41	421.30
435.59	367.46
435.78	287.89
435.97	278.52
436.16	262.14
436.34	177.88
436.53	145.11
436.72	182.56
436.90	198.95
437.09	177.88
437.28	161.50
437.46	163.84
437.65	189.58
437.84	229.37
438.02	110.01
438.21	187.24
438.40	198.95
438.58	248.10
438.77	142.77
438.96	170.86
439.14	142.77
439.33	231.71
439.52	156.82
439.70	147.45
439.89	212.99
440.08	84.26
440.26	124.05
440.45	168.52
440.63	177.88
440.82	215.33
441.01	175.54
441.19	163.84
441.38	215.33
441.57	142.77
441.75	201.29
441.94	196.60
442.12	156.82
442.31	257.46
442.50	201.29
442.68	175.54
442.87	182.56
443.05	198.95
443.24	212.99
443.43	184.90
443.61	201.29
443.80	203.63
443.98	217.67
444.17	166.18
444.35	198.95
444.54	182.56
444.73	177.88
444.91	208.31
445.10	215.33
445.28	241.08
445.47	182.56
445.65	152.13
445.84	163.84
446.02	170.86
446.21	198.95
446.39	208.31
446.58	184.90
446.77	175.54
446.95	105.32
447.14	166.18
447.32	159.16
447.51	180.22
447.69	170.86
447.88	220.01
448.06	229.37
448.25	238.73
448.43	98.30
448.62	180.22
448.80	196.60
448.99	205.97
449.17	210.65
449.36	224.69
449.54	180.22
449.73	180.22
449.91	154.48
450.10	154.48
450.28	266.82
450.46	248.10
450.65	210.65
450.83	138.09
451.02	231.71
451.20	187.24
451.39	170.86
451.57	248.10
451.76	142.77
451.94	205.97
452.13	177.88
452.31	285.55
452.49	177.88
452.68	119.37
452.86	201.29
453.05	215.33
453.23	163.84
453.42	156.82
453.60	222.35
453.78	243.42
453.97	173.20
454.15	175.54
454.34	124.05
454.52	107.66
454.70	241.08
454.89	280.86
455.07	177.88
455.26	168.52
455.44	241.08
455.62	180.22
455.81	182.56
455.99	182.56
456.17	234.05
456.36	304.27
456.54	147.45
456.73	159.16
456.91	196.60
457.09	238.73
457.28	266.82
457.46	133.41
457.64	191.92
457.83	102.98
458.01	222.35
458.19	189.58
458.38	215.33
458.56	231.71
458.74	152.13
458.93	154.48
459.11	145.11
459.29	159.16
459.48	224.69
459.66	224.69
459.84	208.31
460.03	269.16
460.21	203.63
460.39	217.67
460.57	198.95
460.76	198.95
460.94	250.44
461.12	156.82
461.31	173.20
461.49	168.52
461.67	156.82
461.85	231.71
462.04	259.80
462.22	636.63
462.40	133.41
462.59	266.82
462.77	133.41
462.95	236.39
463.13	177.88
463.32	177.88
463.50	234.05
463.68	208.31
463.86	234.05
464.05	196.60
464.23	166.18
464.41	166.18
464.59	187.24
464.78	208.31
464.96	131.07
465.14	215.33
465.32	149.79
465.50	194.26
465.69	175.54
465.87	222.35
466.05	119.37
466.23	149.79
466.41	154.48
466.60	166.18
466.78	224.69
466.96	236.39
467.14	205.97
467.32	227.03
467.51	229.37
467.69	243.42
467.87	257.46
468.05	149.79
468.23	138.09
468.41	173.20
468.60	173.20
468.78	210.65
468.96	163.84
469.14	252.78
469.32	105.32
469.50	191.92
469.69	252.78
469.87	229.37
470.05	168.52
470.23	149.79
470.41	173.20
470.59	170.86
470.77	201.29
470.95	119.37
471.14	208.31
471.32	173.20
471.50	231.71
471.68	196.60
471.86	227.03
472.04	147.45
472.22	177.88
472.40	212.99
472.58	142.77
472.77	156.82
472.95	208.31
473.13	264.48
473.31	203.63
473.49	159.16
473.67	238.73
473.85	187.24
474.03	187.24
474.21	198.95
474.39	241.08
474.57	243.42
474.75	175.54
474.93	243.42
475.12	117.03
475.30	187.24
475.48	187.24
475.66	173.20
475.84	220.01
476.02	208.31
476.20	222.35
476.38	173.20
476.56	264.48
476.74	138.09
476.92	149.79
477.10	262.14
477.28	201.29
477.46	217.67
477.64	276.18
477.82	173.20
478.00	196.60
478.18	210.65
478.36	168.52
478.54	243.42
478.72	215.33
478.90	147.45
479.08	152.13
479.26	180.22
479.44	236.39
479.62	128.73
479.80	180.22
479.98	196.60
480.16	173.20
480.34	156.82
480.52	177.88
480.70	236.39
480.88	208.31
481.06	252.78
481.24	222.35
481.41	189.58
481.59	234.05
481.77	161.50
481.95	173.20
482.13	252.78
482.31	210.65
482.49	163.84
482.67	227.03
482.85	271.50
483.03	227.03
483.21	257.46
483.39	252.78
483.57	201.29
483.74	227.03
483.92	191.92
484.10	198.95
484.28	257.46
484.46	285.55
484.64	159.16
484.82	215.33
485.00	215.33
485.18	231.71
485.35	198.95
485.53	222.35
485.71	184.90
485.89	166.18
486.07	212.99
486.25	306.61
486.43	234.05
486.61	299.59
486.78	264.48
486.96	203.63
487.14	224.69
487.32	297.25
487.50	243.42
487.68	257.46
487.85	297.25
488.03	292.57
488.21	337.04
488.39	189.58
488.57	245.76
488.75	299.59
488.92	531.30
489.10	280.86
489.28	278.52
489.46	205.97
489.64	236.39
489.81	248.10
489.99	210.65
490.17	229.37
490.35	287.89
490.53	234.05
490.70	269.16
490.88	264.48
491.06	224.69
491.24	208.31
491.41	304.27
491.59	264.48
491.77	205.97
491.95	236.39
492.13	189.58
492.30	238.73
492.48	191.92
492.66	210.65
492.84	191.92
493.01	205.97
493.19	170.86
493.37	304.27
493.54	217.67
493.72	262.14
493.90	227.03
494.08	264.48
494.25	215.33
494.43	297.25
494.61	248.10
494.79	257.46
494.96	170.86
495.14	255.12
495.32	210.65
495.49	299.59
495.67	297.25
495.85	194.26
496.02	273.84
496.20	294.91
496.38	264.48
496.55	220.01
496.73	332.36
496.91	264.48
497.09	215.33
497.26	227.03
497.44	257.46
497.62	217.67
497.79	248.10
497.97	234.05
498.14	290.23
498.32	238.73
498.50	245.76
498.67	196.60
498.85	259.80
499.03	285.55
499.20	280.86
499.38	250.44
499.56	276.18
499.73	278.52
499.91	273.84
500.08	257.46
500.26	252.78
500.44	173.20
500.61	227.03
500.79	224.69
500.97	201.29
501.14	278.52
501.32	280.86
501.49	290.23
501.67	180.22
501.84	257.46
502.02	250.44
502.20	301.93
502.37	220.01
502.55	229.37
502.72	210.65
502.90	250.44
503.07	234.05
503.25	287.89
503.43	280.86
503.60	280.86
503.78	285.55
503.95	175.54
504.13	245.76
504.30	196.60
504.48	236.39
504.65	257.46
504.83	255.12
505.01	203.63
505.18	245.76
505.36	227.03
505.53	257.46
505.71	217.67
505.88	191.92
506.06	238.73
506.23	243.42
506.41	252.78
506.58	187.24
506.76	194.26
506.93	280.86
507.11	248.10
507.28	241.08
507.46	269.16
507.63	252.78
507.81	234.05
507.98	276.18
508.16	255.12
508.33	238.73
508.50	276.18
508.68	234.05
508.85	224.69
509.03	177.88
509.20	220.01
509.38	250.44
509.55	304.27
509.73	318.31
509.90	269.16
510.08	224.69
510.25	252.78
510.42	255.12
510.60	245.76
510.77	297.25
510.95	243.42
511.12	271.50
511.30	250.44
511.47	241.08
511.64	283.20
511.82	231.71
511.99	280.86
512.17	264.48
512.34	292.57
512.51	255.12
512.69	241.08
512.86	315.97
513.04	248.10
513.21	278.52
513.38	304.27
513.56	227.03
513.73	241.08
513.90	217.67
514.08	205.97
514.25	248.10
514.43	262.14
514.60	241.08
514.77	304.27
514.95	231.71
515.12	184.90
515.29	238.73
515.47	248.10
515.64	191.92
515.81	299.59
515.99	264.48
516.16	290.23
516.33	245.76
516.51	262.14
516.68	163.84
516.85	236.39
517.03	194.26
517.20	231.71
517.37	250.44
517.54	229.37
517.72	262.14
517.89	250.44
518.06	238.73
518.24	252.78
518.41	292.57
518.58	234.05
518.75	287.89
518.93	212.99
519.10	285.55
519.27	308.95
519.45	339.38
519.62	276.18
519.79	229.37
519.96	175.54
520.14	227.03
520.31	252.78
520.48	285.55
520.65	243.42
520.83	273.84
521.00	271.50
521.17	245.76
521.34	269.16
521.52	301.93
521.69	304.27
521.86	241.08
522.03	269.16
522.20	306.61
522.38	334.70
522.55	311.29
522.72	198.95
522.89	276.18
523.07	346.40
523.24	315.97
523.41	241.08
523.58	243.42
523.75	238.73
523.92	262.14
524.10	287.89
524.27	269.16
524.44	135.75
524.61	248.10
524.78	177.88
524.96	322.99
525.13	283.20
525.30	248.10
525.47	266.82
525.64	259.80
525.81	297.25
525.98	245.76
526.16	250.44
526.33	271.50
526.50	238.73
526.67	264.48
526.84	234.05
527.01	201.29
527.18	227.03
527.36	315.97
527.53	327.68
527.70	243.42
527.87	255.12
528.04	292.57
528.21	238.73
528.38	341.72
528.55	262.14
528.72	220.01
528.89	348.74
529.07	301.93
529.24	304.27
529.41	285.55
529.58	297.25
529.75	255.12
529.92	236.39
530.09	287.89
530.26	278.52
530.43	255.12
530.60	264.48
530.77	224.69
530.94	191.92
531.11	259.80
531.28	243.42
531.46	297.25
531.63	217.67
531.80	320.65
531.97	245.76
532.14	276.18
532.31	182.56
532.48	278.52
532.65	315.97
532.82	304.27
532.99	330.02
533.16	311.29
533.33	306.61
533.50	269.16
533.67	276.18
533.84	353.42
534.01	257.46
534.18	299.59
534.35	276.18
534.52	285.55
534.69	337.04
534.86	227.03
535.03	325.33
535.20	262.14
535.37	222.35
535.54	243.42
535.71	290.23
535.88	381.51
536.05	248.10
536.22	327.68
536.38	292.57
536.55	308.95
536.72	320.65
536.89	245.76
537.06	276.18
537.23	299.59
537.40	292.57
537.57	234.05
537.74	330.02
537.91	341.72
538.08	313.63
538.25	360.44
538.42	290.23
538.59	285.55
538.75	271.50
538.92	294.91
539.09	407.25
539.26	304.27
539.43	451.72
539.60	484.49
539.77	645.99
539.94	653.01
540.11	524.28
540.28	498.53
540.44	442.36
540.61	374.49
540.78	442.36
540.95	461.09
541.12	526.62
541.29	517.26
541.46	603.86
541.62	465.77
541.79	533.64
541.96	531.30
542.13	472.79
542.30	435.34
542.47	402.57
542.63	437.68
542.80	430.66
542.97	482.15
543.14	486.83
543.31	454.06
543.48	437.68
543.64	430.66
543.81	458.74
543.98	468.11
544.15	425.98
544.32	498.53
544.48	461.09
544.65	543.00
544.82	470.45
544.99	430.66
545.16	498.53
545.32	521.94
545.49	676.41
545.66	919.83
545.83	833.23
546.00	805.14
546.16	554.71
546.33	550.03
546.50	465.77
546.67	493.85
546.83	416.62
547.00	397.89
547.17	369.80
547.34	381.51
547.50	395.55
547.67	341.72
547.84	416.62
548.00	395.55
548.17	341.72
548.34	433.00
548.51	367.46
548.67	421.30
548.84	353.42
549.01	294.91
549.18	383.85
549.34	355.76
549.51	369.80
549.68	318.31
549.84	315.97
550.01	351.08
550.18	362.78
550.34	416.62
550.51	313.63
550.68	315.97
550.84	266.82
551.01	301.93
551.18	327.68
551.34	245.76
551.51	327.68
551.68	327.68
551.84	304.27
552.01	348.74
552.18	358.10
552.34	365.12
552.51	280.86
552.68	330.02
552.84	318.31
553.01	325.33
553.18	365.12
553.34	294.91
553.51	294.91
553.67	287.89
553.84	311.29
554.01	306.61
554.17	227.03
554.34	269.16
554.51	369.80
554.67	280.86
554.84	191.92
555.00	241.08
555.17	320.65
555.33	362.78
555.50	285.55
555.67	273.84
555.83	255.12
556.00	304.27
556.16	500.87
556.33	297.25
556.50	379.17
556.66	304.27
556.83	243.42
556.99	299.59
557.16	255.12
557.32	262.14
557.49	255.12
557.65	149.79
557.82	187.24
557.98	203.63
558.15	210.65
558.32	271.50
558.48	290.23
558.65	278.52
558.81	290.23
558.98	287.89
559.14	283.20
559.31	234.05
559.47	318.31
559.64	318.31
559.80	248.10
559.97	294.91
560.13	241.08
560.30	231.71
560.46	198.95
560.63	173.20
560.79	255.12
560.96	276.18
561.12	250.44
561.29	203.63
561.45	212.99
561.61	252.78
561.78	358.10
561.94	245.76
562.11	234.05
562.27	257.46
562.44	287.89
562.60	250.44
562.77	191.92
562.93	236.39
563.10	273.84
563.26	301.93
563.42	318.31
563.59	308.95
563.75	306.61
563.92	259.80
564.08	259.80
564.24	292.57
564.41	330.02
564.57	220.01
564.74	311.29
564.90	236.39
565.07	238.73
565.23	327.68
565.39	205.97
565.56	248.10
565.72	327.68
565.88	201.29
566.05	231.71
566.21	245.76
566.38	231.71
566.54	294.91
566.70	208.31
566.87	252.78
567.03	243.42
567.19	229.37
567.36	259.80
567.52	257.46
567.68	241.08
567.85	337.04
568.01	294.91
568.17	313.63
568.34	308.95
568.50	283.20
568.66	170.86
568.83	259.80
568.99	287.89
569.15	306.61
569.32	278.52
569.48	245.76
569.64	318.31
569.81	283.20
569.97	271.50
570.13	327.68
570.30	266.82
570.46	217.67
570.62	269.16
570.78	208.31
570.95	252.78
571.11	358.10
571.27	306.61
571.43	245.76
571.60	182.56
571.76	264.48
571.92	299.59
572.09	194.26
572.25	220.01
572.41	243.42
572.57	320.65
572.74	304.27
572.90	227.03
573.06	351.08
573.22	262.14
573.38	313.63
573.55	269.16
573.71	292.57
573.87	229.37
574.03	271.50
574.20	285.55
574.36	341.72
574.52	224.69
574.68	301.93
574.84	294.91
575.01	271.50
575.17	308.95
575.33	271.50
575.49	224.69
575.65	252.78
575.82	304.27
575.98	425.98
576.14	372.15
576.30	353.42
576.46	388.53
576.62	451.72
576.79	444.70
576.95	400.23
577.11	318.31
577.27	264.48
577.43	273.84
577.59	297.25
577.75	322.99
577.92	273.84
578.08	290.23
578.24	210.65
578.40	292.57
578.56	407.25
578.72	388.53
578.88	493.85
579.04	341.72
579.21	395.55
579.37	231.71
579.53	313.63
579.69	383.85
579.85	304.27
580.01	379.17
580.17	360.44
580.33	337.04
580.49	355.76
580.65	330.02
580.82	348.74
580.98	269.16
581.14	212.99
581.30	334.70
581.46	264.48
581.62	404.91
581.78	304.27
581.94	362.78
582.10	304.27
582.26	332.36
582.42	376.83
582.58	311.29
582.74	285.55
582.90	301.93
583.06	311.29
583.22	318.31
583.38	264.48
583.54	287.89
583.70	311.29
583.86	423.64
584.02	402.57
584.18	470.45
584.34	465.77
584.50	1006.43
584.66	5940.28
584.82	13291.90
584.98	17137.40
585.14	14501.96
585.30	9259.16
585.46	5809.21
585.62	3534.21
585.78	1856.04
585.94	917.49
586.10	592.16
586.26	416.62
586.42	451.72
586.58	440.02
586.74	365.12
586.90	486.83
587.06	416.62
587.22	355.76
587.38	393.21
587.54	599.18
587.70	1018.13
587.86	1355.17
588.02	1437.09
588.18	1074.31
588.34	873.02
588.49	613.22
588.65	447.04
588.81	273.84
588.97	304.27
589.13	280.86
589.29	257.46
589.45	283.20
589.61	212.99
589.77	234.05
589.93	292.57
590.08	327.68
590.24	238.73
590.40	367.46
590.56	306.61
590.72	285.55
590.88	304.27
591.04	334.70
591.20	187.24
591.35	299.59
591.51	308.95
591.67	184.90
591.83	311.29
591.99	243.42
592.15	308.95
592.31	358.10
592.46	351.08
592.62	353.42
592.78	322.99
592.94	315.97
593.10	341.72
593.26	330.02
593.41	339.38
593.57	257.46
593.73	337.04
593.89	990.05
594.05	1877.11
594.20	2410.75
594.36	2150.95
594.52	1493.26
594.68	1004.09
594.84	809.83
594.99	533.64
595.15	411.93
595.31	266.82
595.47	386.19
595.62	285.55
595.78	196.60
595.94	301.93
596.10	315.97
596.25	313.63
596.41	308.95
596.57	257.46
596.73	276.18
596.88	306.61
597.04	482.15
597.20	699.82
597.36	737.27
597.51	578.11
597.67	430.66
597.83	411.93
597.99	383.85
598.14	318.31
598.30	330.02
598.46	304.27
598.61	332.36
598.77	297.25
598.93	299.59
599.09	266.82
599.24	283.20
599.40	322.99
599.56	224.69
599.71	297.25
599.87	294.91
600.03	360.44
600.18	259.80
600.34	308.95
600.50	266.82
600.65	212.99
600.81	273.84
600.97	238.73
601.12	241.08
601.28	269.16
601.44	266.82
601.59	306.61
601.75	273.84
601.91	278.52
602.06	266.82
602.22	369.80
602.37	365.12
602.53	641.31
602.69	676.41
602.84	732.59
603.00	627.26
603.16	482.15
603.31	381.51
603.47	325.33
603.62	266.82
603.78	313.63
603.94	248.10
604.09	308.95
604.25	308.95
604.40	269.16
604.56	217.67
604.71	311.29
604.87	320.65
605.03	325.33
605.18	241.08
605.34	369.80
605.49	266.82
605.65	290.23
605.80	255.12
605.96	238.73
606.12	280.86
606.27	334.70
606.43	297.25
606.58	332.36
606.74	409.59
606.89	1055.58
607.05	1619.65
607.20	1952.01
607.36	1561.14
607.51	1163.25
607.67	835.57
607.82	653.01
607.98	493.85
608.13	287.89
608.29	313.63
608.44	285.55
608.60	301.93
608.75	369.80
608.91	613.22
609.06	1549.43
609.22	2775.88
609.37	3028.65
609.53	2956.10
609.68	2087.76
609.84	1469.86
609.99	1149.20
610.15	697.48
610.30	655.35
610.46	645.99
610.61	737.27
