SpectraSuite Data File
++++++++++++++++++++++++++++++++++++
Date: Fri Oct 04 11:33:45 GMT-05:00 2013
User: price-jones
Dark Spectrum Present: No
Reference Spectrum Present: No
Number of Sampled Component Spectra: 1
Spectrometers: USB2+H05261
Integration Time (usec): 100000 (USB2+H05261)
Spectra Averaged: 1 (USB2+H05261)
Boxcar Smoothing: 0 (USB2+H05261)
Correct for Electrical Dark: No (USB2+H05261)
Strobe/Lamp Enabled: No (USB2+H05261)
Correct for Detector Non-linearity: No (USB2+H05261)
Correct for Stray Light: No (USB2+H05261)
Number of Pixels in Processed Spectrum: 2048
>>>>>Begin Processed Spectral Data<<<<<
365.73	72.56
365.92	72.56
366.12	72.56
366.32	0.00
366.52	0.00
366.72	7.02
366.91	0.00
367.11	9.36
367.31	0.00
367.51	0.00
367.70	0.00
367.90	0.00
368.10	0.00
368.30	0.00
368.49	0.00
368.69	9.36
368.89	0.00
369.09	0.00
369.28	42.13
369.48	7.02
369.68	0.00
369.87	46.81
370.07	11.70
370.27	16.38
370.47	9.36
370.66	32.77
370.86	93.62
371.06	81.92
371.25	121.71
371.45	65.54
371.65	128.73
371.84	84.26
372.04	23.41
372.24	182.56
372.44	81.92
372.63	86.60
372.83	156.82
373.03	140.43
373.22	152.13
373.42	51.49
373.62	182.56
373.81	166.18
374.01	152.13
374.21	114.69
374.40	222.35
374.60	147.45
374.79	222.35
374.99	126.39
375.19	98.30
375.38	154.48
375.58	182.56
375.78	163.84
375.97	273.84
376.17	180.22
376.37	124.05
376.56	133.41
376.76	229.37
376.95	154.48
377.15	245.76
377.35	133.41
377.54	170.86
377.74	124.05
377.93	191.92
378.13	88.94
378.33	224.69
378.52	168.52
378.72	124.05
378.91	84.26
379.11	175.54
379.31	110.01
379.50	152.13
379.70	163.84
379.89	182.56
380.09	138.09
380.28	60.85
380.48	77.24
380.68	175.54
380.87	140.43
381.07	133.41
381.26	205.97
381.46	159.16
381.65	227.03
381.85	173.20
382.04	133.41
382.24	159.16
382.43	198.95
382.63	77.24
382.83	182.56
383.02	107.66
383.22	189.58
383.41	133.41
383.61	217.67
383.80	84.26
384.00	102.98
384.19	110.01
384.39	88.94
384.58	121.71
384.78	152.13
384.97	149.79
385.17	152.13
385.36	72.56
385.56	124.05
385.75	152.13
385.95	105.32
386.14	110.01
386.34	131.07
386.53	107.66
386.72	100.64
386.92	110.01
387.11	140.43
387.31	145.11
387.50	86.60
387.70	88.94
387.89	119.37
388.09	154.48
388.28	88.94
388.48	156.82
388.67	156.82
388.86	126.39
389.06	131.07
389.25	191.92
389.45	149.79
389.64	168.52
389.84	152.13
390.03	58.51
390.22	238.73
390.42	154.48
390.61	163.84
390.81	201.29
391.00	145.11
391.19	166.18
391.39	191.92
391.58	140.43
391.78	170.86
391.97	161.50
392.16	39.79
392.36	159.16
392.55	276.18
392.75	81.92
392.94	140.43
393.13	138.09
393.33	180.22
393.52	161.50
393.71	229.37
393.91	121.71
394.10	156.82
394.29	84.26
394.49	231.71
394.68	245.76
394.88	140.43
395.07	220.01
395.26	107.66
395.46	126.39
395.65	227.03
395.84	205.97
396.04	222.35
396.23	140.43
396.42	114.69
396.62	187.24
396.81	159.16
397.00	217.67
397.19	194.26
397.39	159.16
397.58	161.50
397.77	170.86
397.97	154.48
398.16	180.22
398.35	100.64
398.55	88.94
398.74	187.24
398.93	133.41
399.12	166.18
399.32	133.41
399.51	149.79
399.70	117.03
399.90	159.16
400.09	159.16
400.28	196.60
400.47	149.79
400.67	220.01
400.86	161.50
401.05	159.16
401.24	168.52
401.44	121.71
401.63	220.01
401.82	138.09
402.01	135.75
402.21	208.31
402.40	128.73
402.59	173.20
402.78	131.07
402.97	119.37
403.17	152.13
403.36	156.82
403.55	121.71
403.74	135.75
403.93	175.54
404.13	231.71
404.32	255.12
404.51	236.39
404.70	227.03
404.89	175.54
405.09	166.18
405.28	145.11
405.47	105.32
405.66	119.37
405.85	161.50
406.05	161.50
406.24	147.45
406.43	163.84
406.62	145.11
406.81	126.39
407.00	168.52
407.20	170.86
407.39	224.69
407.58	194.26
407.77	187.24
407.96	238.73
408.15	168.52
408.34	168.52
408.54	191.92
408.73	168.52
408.92	215.33
409.11	170.86
409.30	217.67
409.49	65.54
409.68	124.05
409.87	140.43
410.07	166.18
410.26	159.16
410.45	180.22
410.64	231.71
410.83	128.73
411.02	149.79
411.21	220.01
411.40	149.79
411.59	161.50
411.78	182.56
411.98	189.58
412.17	215.33
412.36	128.73
412.55	154.48
412.74	196.60
412.93	241.08
413.12	102.98
413.31	182.56
413.50	189.58
413.69	191.92
413.88	191.92
414.07	208.31
414.26	110.01
414.45	114.69
414.64	187.24
414.83	168.52
415.02	208.31
415.22	191.92
415.41	159.16
415.60	203.63
415.79	177.88
415.98	210.65
416.17	241.08
416.36	138.09
416.55	159.16
416.74	135.75
416.93	203.63
417.12	117.03
417.31	131.07
417.50	187.24
417.69	320.65
417.88	159.16
418.07	203.63
418.26	196.60
418.45	182.56
418.64	297.25
418.83	217.67
419.02	292.57
419.21	166.18
419.39	248.10
419.58	182.56
419.77	245.76
419.96	203.63
420.15	124.05
420.34	229.37
420.53	161.50
420.72	173.20
420.91	145.11
421.10	159.16
421.29	231.71
421.48	156.82
421.67	210.65
421.86	117.03
422.05	187.24
422.24	154.48
422.43	177.88
422.61	147.45
422.80	138.09
422.99	95.96
423.18	210.65
423.37	217.67
423.56	147.45
423.75	154.48
423.94	121.71
424.13	163.84
424.32	175.54
424.50	215.33
424.69	166.18
424.88	168.52
425.07	212.99
425.26	203.63
425.45	238.73
425.64	269.16
425.83	313.63
426.01	273.84
426.20	145.11
426.39	170.86
426.58	166.18
426.77	159.16
426.96	201.29
427.15	135.75
427.33	128.73
427.52	140.43
427.71	140.43
427.90	215.33
428.09	161.50
428.28	128.73
428.46	212.99
428.65	166.18
428.84	126.39
429.03	217.67
429.22	126.39
429.40	91.28
429.59	133.41
429.78	184.90
429.97	203.63
430.16	133.41
430.34	222.35
430.53	154.48
430.72	182.56
430.91	222.35
431.10	177.88
431.28	159.16
431.47	191.92
431.66	208.31
431.85	147.45
432.03	203.63
432.22	180.22
432.41	161.50
432.60	166.18
432.79	184.90
432.97	330.02
433.16	353.42
433.35	259.80
433.54	215.33
433.72	222.35
433.91	234.05
434.10	212.99
434.28	234.05
434.47	187.24
434.66	196.60
434.85	182.56
435.03	248.10
435.22	367.46
435.41	313.63
435.59	304.27
435.78	294.91
435.97	227.03
436.16	210.65
436.34	170.86
436.53	159.16
436.72	222.35
436.90	196.60
437.09	121.71
437.28	194.26
437.46	220.01
437.65	203.63
437.84	243.42
438.02	147.45
438.21	198.95
438.40	159.16
438.58	173.20
438.77	175.54
438.96	177.88
439.14	156.82
439.33	149.79
439.52	170.86
439.70	205.97
439.89	161.50
440.08	163.84
440.26	217.67
440.45	308.95
440.63	205.97
440.82	177.88
441.01	124.05
441.19	210.65
441.38	138.09
441.57	189.58
441.75	236.39
441.94	177.88
442.12	175.54
442.31	168.52
442.50	203.63
442.68	187.24
442.87	180.22
443.05	168.52
443.24	152.13
443.43	234.05
443.61	210.65
443.80	203.63
443.98	203.63
444.17	220.01
444.35	212.99
444.54	152.13
444.73	163.84
444.91	175.54
445.10	184.90
445.28	173.20
445.47	149.79
445.65	250.44
445.84	180.22
446.02	220.01
446.21	159.16
446.39	203.63
446.58	236.39
446.77	180.22
446.95	152.13
447.14	227.03
447.32	175.54
447.51	128.73
447.69	248.10
447.88	194.26
448.06	278.52
448.25	243.42
448.43	138.09
448.62	191.92
448.80	196.60
448.99	205.97
449.17	156.82
449.36	152.13
449.54	184.90
449.73	145.11
449.91	248.10
450.10	266.82
450.28	283.20
450.46	245.76
450.65	250.44
450.83	154.48
451.02	175.54
451.20	201.29
451.39	173.20
451.57	189.58
451.76	243.42
451.94	198.95
452.13	273.84
452.31	266.82
452.49	189.58
452.68	138.09
452.86	135.75
453.05	259.80
453.23	191.92
453.42	168.52
453.60	168.52
453.78	208.31
453.97	119.37
454.15	161.50
454.34	224.69
454.52	224.69
454.70	252.78
454.89	138.09
455.07	191.92
455.26	236.39
455.44	177.88
455.62	217.67
455.81	198.95
455.99	248.10
456.17	175.54
456.36	189.58
456.54	147.45
456.73	149.79
456.91	191.92
457.09	126.39
457.28	215.33
457.46	201.29
457.64	290.23
457.83	227.03
458.01	163.84
458.19	212.99
458.38	229.37
458.56	238.73
458.74	287.89
458.93	250.44
459.11	173.20
459.29	205.97
459.48	236.39
459.66	252.78
459.84	273.84
460.03	285.55
460.21	170.86
460.39	241.08
460.57	149.79
460.76	271.50
460.94	159.16
461.12	278.52
461.31	241.08
461.49	198.95
461.67	241.08
461.85	154.48
462.04	222.35
462.22	685.78
462.40	152.13
462.59	159.16
462.77	135.75
462.95	229.37
463.13	229.37
463.32	245.76
463.50	229.37
463.68	264.48
463.86	182.56
464.05	187.24
464.23	173.20
464.41	184.90
464.59	227.03
464.78	149.79
464.96	138.09
465.14	231.71
465.32	161.50
465.50	203.63
465.69	217.67
465.87	149.79
466.05	194.26
466.23	191.92
466.41	217.67
466.60	173.20
466.78	198.95
466.96	243.42
467.14	182.56
467.32	203.63
467.51	217.67
467.69	175.54
467.87	173.20
468.05	229.37
468.23	259.80
468.41	163.84
468.60	252.78
468.78	154.48
468.96	191.92
469.14	189.58
469.32	142.77
469.50	182.56
469.69	166.18
469.87	173.20
470.05	133.41
470.23	154.48
470.41	262.14
470.59	269.16
470.77	238.73
470.95	227.03
471.14	208.31
471.32	222.35
471.50	243.42
471.68	201.29
471.86	191.92
472.04	220.01
472.22	191.92
472.40	182.56
472.58	259.80
472.77	184.90
472.95	194.26
473.13	210.65
473.31	180.22
473.49	217.67
473.67	147.45
473.85	208.31
474.03	194.26
474.21	210.65
474.39	220.01
474.57	252.78
474.75	154.48
474.93	212.99
475.12	243.42
475.30	215.33
475.48	180.22
475.66	215.33
475.84	147.45
476.02	161.50
476.20	175.54
476.38	198.95
476.56	280.86
476.74	231.71
476.92	154.48
477.10	222.35
477.28	198.95
477.46	147.45
477.64	210.65
477.82	229.37
478.00	269.16
478.18	217.67
478.36	189.58
478.54	243.42
478.72	173.20
478.90	201.29
479.08	210.65
479.26	212.99
479.44	194.26
479.62	198.95
479.80	196.60
479.98	210.65
480.16	173.20
480.34	142.77
480.52	215.33
480.70	201.29
480.88	133.41
481.06	175.54
481.24	128.73
481.41	248.10
481.59	201.29
481.77	196.60
481.95	177.88
482.13	280.86
482.31	173.20
482.49	184.90
482.67	224.69
482.85	266.82
483.03	203.63
483.21	196.60
483.39	212.99
483.57	276.18
483.74	205.97
483.92	201.29
484.10	205.97
484.28	184.90
484.46	238.73
484.64	229.37
484.82	180.22
485.00	194.26
485.18	182.56
485.35	182.56
485.53	203.63
485.71	287.89
485.89	215.33
486.07	224.69
486.25	292.57
486.43	231.71
486.61	229.37
486.78	250.44
486.96	224.69
487.14	177.88
487.32	184.90
487.50	276.18
487.68	227.03
487.85	212.99
488.03	224.69
488.21	264.48
488.39	276.18
488.57	308.95
488.75	236.39
488.92	489.17
489.10	304.27
489.28	320.65
489.46	152.13
489.64	283.20
489.81	241.08
489.99	252.78
490.17	280.86
490.35	327.68
490.53	201.29
490.70	210.65
490.88	173.20
491.06	175.54
491.24	285.55
491.41	283.20
491.59	252.78
491.77	203.63
491.95	198.95
492.13	222.35
492.30	187.24
492.48	201.29
492.66	301.93
492.84	189.58
493.01	227.03
493.19	217.67
493.37	278.52
493.54	220.01
493.72	238.73
493.90	210.65
494.08	194.26
494.25	313.63
494.43	299.59
494.61	294.91
494.79	315.97
494.96	297.25
495.14	236.39
495.32	269.16
495.49	245.76
495.67	234.05
495.85	187.24
496.02	177.88
496.20	266.82
496.38	276.18
496.55	222.35
496.73	248.10
496.91	220.01
497.09	243.42
497.26	168.52
497.44	238.73
497.62	283.20
497.79	287.89
497.97	304.27
498.14	292.57
498.32	259.80
498.50	264.48
498.67	224.69
498.85	217.67
499.03	222.35
499.20	252.78
499.38	191.92
499.56	236.39
499.73	266.82
499.91	229.37
500.08	320.65
500.26	170.86
500.44	287.89
500.61	231.71
500.79	287.89
500.97	224.69
501.14	229.37
501.32	290.23
501.49	315.97
501.67	245.76
501.84	259.80
502.02	236.39
502.20	271.50
502.37	285.55
502.55	189.58
502.72	227.03
502.90	280.86
503.07	297.25
503.25	278.52
503.43	241.08
503.60	269.16
503.78	266.82
503.95	248.10
504.13	250.44
504.30	299.59
504.48	262.14
504.65	227.03
504.83	297.25
505.01	234.05
505.18	266.82
505.36	217.67
505.53	215.33
505.71	220.01
505.88	255.12
506.06	283.20
506.23	273.84
506.41	177.88
506.58	280.86
506.76	238.73
506.93	220.01
507.11	313.63
507.28	234.05
507.46	266.82
507.63	299.59
507.81	322.99
507.98	262.14
508.16	262.14
508.33	264.48
508.50	292.57
508.68	271.50
508.85	322.99
509.03	280.86
509.20	264.48
509.38	259.80
509.55	294.91
509.73	290.23
509.90	301.93
510.08	306.61
510.25	344.06
510.42	210.65
510.60	196.60
510.77	283.20
510.95	339.38
511.12	252.78
511.30	224.69
511.47	325.33
511.64	266.82
511.82	248.10
511.99	292.57
512.17	315.97
512.34	238.73
512.51	290.23
512.69	262.14
512.86	212.99
513.04	229.37
513.21	308.95
513.38	271.50
513.56	266.82
513.73	301.93
513.90	266.82
514.08	252.78
514.25	266.82
514.43	259.80
514.60	252.78
514.77	271.50
514.95	285.55
515.12	266.82
515.29	243.42
515.47	306.61
515.64	257.46
515.81	292.57
515.99	294.91
516.16	276.18
516.33	278.52
516.51	269.16
516.68	168.52
516.85	220.01
517.03	248.10
517.20	330.02
517.37	285.55
517.54	339.38
517.72	196.60
517.89	285.55
518.06	236.39
518.24	215.33
518.41	341.72
518.58	304.27
518.75	344.06
518.93	339.38
519.10	236.39
519.27	325.33
519.45	283.20
519.62	297.25
519.79	271.50
519.96	273.84
520.14	318.31
520.31	259.80
520.48	259.80
520.65	259.80
520.83	322.99
521.00	318.31
521.17	283.20
521.34	236.39
521.52	236.39
521.69	290.23
521.86	278.52
522.03	205.97
522.20	327.68
522.38	320.65
522.55	299.59
522.72	187.24
522.89	269.16
523.07	273.84
523.24	198.95
523.41	278.52
523.58	292.57
523.75	248.10
523.92	271.50
524.10	285.55
524.27	327.68
524.44	262.14
524.61	299.59
524.78	266.82
524.96	266.82
525.13	231.71
525.30	245.76
525.47	276.18
525.64	297.25
525.81	278.52
525.98	220.01
526.16	161.50
526.33	262.14
526.50	177.88
526.67	210.65
526.84	205.97
527.01	175.54
527.18	287.89
527.36	285.55
527.53	222.35
527.70	278.52
527.87	243.42
528.04	297.25
528.21	243.42
528.38	297.25
528.55	231.71
528.72	299.59
528.89	318.31
529.07	243.42
529.24	264.48
529.41	355.76
529.58	280.86
529.75	245.76
529.92	234.05
530.09	290.23
530.26	372.15
530.43	266.82
530.60	283.20
530.77	227.03
530.94	332.36
531.11	257.46
531.28	287.89
531.46	264.48
531.63	313.63
531.80	252.78
531.97	304.27
532.14	334.70
532.31	229.37
532.48	322.99
532.65	388.53
532.82	470.45
532.99	540.66
533.16	409.59
533.33	344.06
533.50	304.27
533.67	397.89
533.84	468.11
534.01	547.69
534.18	402.57
534.35	433.00
534.52	311.29
534.69	337.04
534.86	330.02
535.03	341.72
535.20	315.97
535.37	276.18
535.54	273.84
535.71	243.42
535.88	322.99
536.05	322.99
536.22	341.72
536.38	290.23
536.55	245.76
536.72	311.29
536.89	269.16
537.06	348.74
537.23	262.14
537.40	290.23
537.57	241.08
537.74	346.40
537.91	351.08
538.08	344.06
538.25	304.27
538.42	287.89
538.59	334.70
538.75	318.31
538.92	330.02
539.09	313.63
539.26	271.50
539.43	601.52
539.60	1196.01
539.77	1881.79
539.94	2113.50
540.11	1418.36
540.28	887.06
540.44	669.39
540.61	552.37
540.78	456.40
540.95	402.57
541.12	503.22
541.29	484.49
541.46	500.87
541.62	528.96
541.79	500.87
541.96	463.43
542.13	440.02
542.30	430.66
542.47	482.15
542.63	388.53
542.80	524.28
542.97	479.81
543.14	393.21
543.31	458.74
543.48	458.74
543.64	468.11
543.81	376.83
543.98	404.91
544.15	400.23
544.32	423.64
544.48	484.49
544.65	437.68
544.82	451.72
544.99	402.57
545.16	461.09
545.32	447.04
545.49	650.67
545.66	837.91
545.83	809.83
546.00	699.82
546.16	592.16
546.33	496.19
546.50	425.98
546.67	484.49
546.83	433.00
547.00	407.25
547.17	337.04
547.34	367.46
547.50	386.19
547.67	369.80
547.84	379.17
548.00	337.04
548.17	351.08
548.34	418.96
548.51	463.43
548.67	400.23
548.84	393.21
549.01	362.78
549.18	362.78
549.34	365.12
549.51	425.98
549.68	313.63
549.84	355.76
550.01	290.23
550.18	433.00
550.34	353.42
550.51	315.97
550.68	435.34
550.84	297.25
551.01	266.82
551.18	287.89
551.34	259.80
551.51	327.68
551.68	334.70
551.84	348.74
552.01	280.86
552.18	297.25
552.34	220.01
552.51	337.04
552.68	285.55
552.84	306.61
553.01	252.78
553.18	287.89
553.34	255.12
553.51	236.39
553.67	308.95
553.84	325.33
554.01	252.78
554.17	297.25
554.34	177.88
554.51	344.06
554.67	330.02
554.84	353.42
555.00	283.20
555.17	280.86
555.33	287.89
555.50	332.36
555.67	372.15
555.83	285.55
556.00	250.44
556.16	444.70
556.33	346.40
556.50	205.97
556.66	234.05
556.83	297.25
556.99	308.95
557.16	299.59
557.32	269.16
557.49	229.37
557.65	229.37
557.82	217.67
557.98	259.80
558.15	210.65
558.32	318.31
558.48	266.82
558.65	262.14
558.81	271.50
558.98	280.86
559.14	280.86
559.31	308.95
559.47	292.57
559.64	264.48
559.80	278.52
559.97	234.05
560.13	271.50
560.30	208.31
560.46	287.89
560.63	372.15
560.79	313.63
560.96	308.95
561.12	224.69
561.29	271.50
561.45	264.48
561.61	248.10
561.78	388.53
561.94	259.80
562.11	229.37
562.27	287.89
562.44	325.33
562.60	283.20
562.77	285.55
562.93	372.15
563.10	252.78
563.26	259.80
563.42	292.57
563.59	313.63
563.75	297.25
563.92	271.50
564.08	334.70
564.24	299.59
564.41	287.89
564.57	238.73
564.74	241.08
564.90	266.82
565.07	346.40
565.23	287.89
565.39	348.74
565.56	374.49
565.72	285.55
565.88	271.50
566.05	348.74
566.21	351.08
566.38	257.46
566.54	266.82
566.70	283.20
566.87	250.44
567.03	250.44
567.19	334.70
567.36	257.46
567.52	264.48
567.68	381.51
567.85	304.27
568.01	330.02
568.17	236.39
568.34	266.82
568.50	276.18
568.66	208.31
568.83	362.78
568.99	311.29
569.15	262.14
569.32	313.63
569.48	276.18
569.64	280.86
569.81	212.99
569.97	269.16
570.13	269.16
570.30	210.65
570.46	308.95
570.62	210.65
570.78	203.63
570.95	255.12
571.11	339.38
571.27	358.10
571.43	332.36
571.60	299.59
571.76	292.57
571.92	290.23
572.09	285.55
572.25	325.33
572.41	266.82
572.57	255.12
572.74	301.93
572.90	353.42
573.06	290.23
573.22	313.63
573.38	315.97
573.55	259.80
573.71	264.48
573.87	264.48
574.03	276.18
574.20	313.63
574.36	339.38
574.52	355.76
574.68	386.19
574.84	315.97
575.01	322.99
575.17	271.50
575.33	292.57
575.49	271.50
575.65	271.50
575.82	318.31
575.98	648.33
576.14	819.19
576.30	922.17
576.46	781.74
576.62	653.01
576.79	575.77
576.95	505.56
577.11	411.93
577.27	435.34
577.43	402.57
577.59	374.49
577.75	390.87
577.92	299.59
578.08	337.04
578.24	229.37
578.40	372.15
578.56	414.27
578.72	477.47
578.88	430.66
579.04	355.76
579.21	362.78
579.37	337.04
579.53	400.23
579.69	376.83
579.85	308.95
580.01	451.72
580.17	463.43
580.33	393.21
580.49	498.53
580.65	475.13
580.82	461.09
580.98	393.21
581.14	400.23
581.30	442.36
581.46	510.24
581.62	711.52
581.78	751.31
581.94	751.31
582.10	657.69
582.26	564.07
582.42	482.15
582.58	601.52
582.74	458.74
582.90	552.37
583.06	622.58
583.22	573.43
583.38	578.11
583.54	704.50
583.70	697.48
583.86	901.11
584.02	971.32
584.18	1151.54
584.34	1458.15
584.50	3227.60
584.66	23129.17
584.82	58960.44
584.98	65535.00
585.14	65535.00
585.30	62815.30
585.46	38726.50
585.62	23566.85
585.78	11033.29
585.94	4311.27
586.10	2118.18
586.26	1331.76
586.42	1062.60
586.58	931.53
586.74	908.13
586.90	842.59
587.06	793.44
587.22	730.25
587.38	711.52
587.54	1174.95
587.70	3969.55
587.86	7199.49
588.02	9001.70
588.18	6401.37
588.34	3810.39
588.49	2616.72
588.65	1584.54
588.81	847.27
588.97	500.87
589.13	451.72
589.29	430.66
589.45	372.15
589.61	386.19
589.77	519.60
589.93	545.34
590.08	561.73
590.24	557.05
590.40	475.13
590.56	437.68
590.72	463.43
590.88	404.91
591.04	440.02
591.20	503.22
591.35	465.77
591.51	449.38
591.67	379.17
591.83	414.27
591.99	444.70
592.15	416.62
592.31	381.51
592.46	353.42
592.62	360.44
592.78	411.93
592.94	437.68
593.10	465.77
593.26	425.98
593.41	416.62
593.57	524.28
593.73	634.29
593.89	2775.88
594.05	7913.35
594.20	14277.27
594.36	14546.43
594.52	9495.55
594.68	5572.82
594.84	3775.28
594.99	2059.67
595.15	964.30
595.31	606.20
595.47	414.27
595.62	337.04
595.78	451.72
595.94	428.32
596.10	440.02
596.25	322.99
596.41	528.96
596.57	395.55
596.73	369.80
596.88	557.05
597.04	1600.93
597.20	2871.84
597.36	3735.50
597.51	2766.51
597.67	1837.32
597.83	1301.34
597.99	898.77
598.14	620.24
598.30	435.34
598.46	400.23
598.61	411.93
598.77	344.06
598.93	339.38
599.09	407.25
599.24	376.83
599.40	266.82
599.56	395.55
599.71	395.55
599.87	355.76
600.03	262.14
600.18	367.46
600.34	266.82
600.50	315.97
600.65	280.86
600.81	320.65
600.97	294.91
601.12	259.80
601.28	362.78
601.44	355.76
601.59	285.55
601.75	301.93
601.91	306.61
602.06	311.29
602.22	393.21
602.37	849.61
602.53	1926.26
602.69	3384.41
602.84	3850.18
603.00	2738.43
603.16	1799.87
603.31	1343.47
603.47	880.04
603.62	599.18
603.78	447.04
603.94	367.46
604.09	388.53
604.25	332.36
604.40	313.63
604.56	339.38
604.71	257.46
604.87	304.27
605.03	381.51
605.18	334.70
605.34	393.21
605.49	395.55
605.65	425.98
605.80	369.80
605.96	435.34
606.12	442.36
606.27	433.00
606.43	400.23
606.58	456.40
606.74	919.83
606.89	3574.00
607.05	8329.97
607.20	12505.48
607.36	10576.88
607.51	7180.76
607.67	4449.36
607.82	3066.10
607.98	1680.50
608.13	873.02
608.29	624.92
608.44	585.13
608.60	620.24
608.75	685.78
608.91	1270.91
609.06	5401.96
609.22	13631.28
609.37	21518.89
609.53	19197.07
609.68	12793.37
609.84	8013.99
609.99	5390.25
