SpectraSuite Data File
++++++++++++++++++++++++++++++++++++
Date: Fri Oct 04 12:13:33 GMT-05:00 2013
User: price-jones
Dark Spectrum Present: No
Reference Spectrum Present: No
Number of Sampled Component Spectra: 1
Spectrometers: USB2+H05261
Integration Time (usec): 10000 (USB2+H05261)
Spectra Averaged: 1 (USB2+H05261)
Boxcar Smoothing: 0 (USB2+H05261)
Correct for Electrical Dark: No (USB2+H05261)
Strobe/Lamp Enabled: No (USB2+H05261)
Correct for Detector Non-linearity: No (USB2+H05261)
Correct for Stray Light: No (USB2+H05261)
Number of Pixels in Processed Spectrum: 2048
>>>>>Begin Processed Spectral Data<<<<<
365.73	0.00
365.92	0.00
366.12	0.00
366.32	0.00
366.52	0.00
366.72	0.00
366.91	0.00
367.11	0.00
367.31	0.00
367.51	0.00
367.70	0.00
367.90	0.00
368.10	0.00
368.30	0.00
368.49	0.00
368.69	0.00
368.89	0.00
369.09	0.00
369.28	0.00
369.48	0.00
369.68	0.00
369.87	0.00
370.07	0.00
370.27	0.00
370.47	0.00
370.66	14.04
370.86	9.36
371.06	0.00
371.25	0.00
371.45	16.38
371.65	7.02
371.84	32.77
372.04	21.06
372.24	166.18
372.44	124.05
372.63	135.75
372.83	0.00
373.03	60.85
373.22	51.49
373.42	42.13
373.62	107.66
373.81	91.28
374.01	126.39
374.21	56.17
374.40	124.05
374.60	67.88
374.79	135.75
374.99	138.09
375.19	128.73
375.38	182.56
375.58	91.28
375.78	98.30
375.97	105.32
376.17	100.64
376.37	60.85
376.56	81.92
376.76	79.58
376.95	72.56
377.15	95.96
377.35	58.51
377.54	163.84
377.74	112.35
377.93	70.22
378.13	138.09
378.33	128.73
378.52	105.32
378.72	53.83
378.91	72.56
379.11	119.37
379.31	100.64
379.50	14.04
379.70	102.98
379.89	135.75
380.09	100.64
380.28	42.13
380.48	121.71
380.68	117.03
380.87	117.03
381.07	105.32
381.26	93.62
381.46	32.77
381.65	30.43
381.85	44.47
382.04	56.17
382.24	100.64
382.43	77.24
382.63	32.77
382.83	110.01
383.02	140.43
383.22	32.77
383.41	0.00
383.61	102.98
383.80	65.54
384.00	95.96
384.19	65.54
384.39	86.60
384.58	149.79
384.78	70.22
384.97	112.35
385.17	105.32
385.36	49.15
385.56	110.01
385.75	114.69
385.95	65.54
386.14	84.26
386.34	102.98
386.53	105.32
386.72	112.35
386.92	42.13
387.11	39.79
387.31	93.62
387.50	105.32
387.70	124.05
387.89	58.51
388.09	124.05
388.28	79.58
388.48	138.09
388.67	145.11
388.86	63.19
389.06	128.73
389.25	194.26
389.45	184.90
389.64	110.01
389.84	124.05
390.03	131.07
390.22	140.43
390.42	170.86
390.61	191.92
390.81	140.43
391.00	98.30
391.19	156.82
391.39	191.92
391.58	100.64
391.78	191.92
391.97	91.28
392.16	74.90
392.36	100.64
392.55	100.64
392.75	70.22
392.94	44.47
393.13	67.88
393.33	126.39
393.52	86.60
393.71	152.13
393.91	56.17
394.10	156.82
394.29	88.94
394.49	184.90
394.68	131.07
394.88	156.82
395.07	161.50
395.26	262.14
395.46	241.08
395.65	156.82
395.84	163.84
396.04	114.69
396.23	98.30
396.42	51.49
396.62	173.20
396.81	126.39
397.00	91.28
397.19	72.56
397.39	159.16
397.58	187.24
397.77	231.71
397.97	161.50
398.16	222.35
398.35	203.63
398.55	250.44
398.74	290.23
398.93	220.01
399.12	198.95
399.32	220.01
399.51	269.16
399.70	208.31
399.90	212.99
400.09	227.03
400.28	248.10
400.47	273.84
400.67	205.97
400.86	224.69
401.05	210.65
401.24	231.71
401.44	252.78
401.63	276.18
401.82	304.27
402.01	276.18
402.21	220.01
402.40	271.50
402.59	170.86
402.78	189.58
402.97	285.55
403.17	210.65
403.36	245.76
403.55	360.44
403.74	346.40
403.93	290.23
404.13	201.29
404.32	203.63
404.51	212.99
404.70	208.31
404.89	229.37
405.09	315.97
405.28	238.73
405.47	184.90
405.66	245.76
405.85	252.78
406.05	208.31
406.24	250.44
406.43	259.80
406.62	266.82
406.81	248.10
407.00	252.78
407.20	332.36
407.39	271.50
407.58	241.08
407.77	245.76
407.96	227.03
408.15	259.80
408.34	322.99
408.54	292.57
408.73	241.08
408.92	252.78
409.11	227.03
409.30	203.63
409.49	210.65
409.68	234.05
409.87	269.16
410.07	301.93
410.26	229.37
410.45	283.20
410.64	255.12
410.83	234.05
411.02	243.42
411.21	358.10
411.40	292.57
411.59	334.70
411.78	283.20
411.98	271.50
412.17	259.80
412.36	355.76
412.55	322.99
412.74	280.86
412.93	327.68
413.12	292.57
413.31	397.89
413.50	273.84
413.69	315.97
413.88	341.72
414.07	362.78
414.26	332.36
414.45	271.50
414.64	308.95
414.83	322.99
415.02	311.29
415.22	355.76
415.41	360.44
415.60	327.68
415.79	344.06
415.98	339.38
416.17	315.97
416.36	294.91
416.55	271.50
416.74	348.74
416.93	341.72
417.12	301.93
417.31	325.33
417.50	348.74
417.69	271.50
417.88	330.02
418.07	285.55
418.26	367.46
418.45	294.91
418.64	318.31
418.83	372.15
419.02	212.99
419.21	318.31
419.39	362.78
419.58	397.89
419.77	388.53
419.96	297.25
420.15	301.93
420.34	353.42
420.53	344.06
420.72	367.46
420.91	421.30
421.10	355.76
421.29	339.38
421.48	283.20
421.67	327.68
421.86	379.17
422.05	306.61
422.24	325.33
422.43	299.59
422.61	334.70
422.80	280.86
422.99	348.74
423.18	351.08
423.37	313.63
423.56	360.44
423.75	362.78
423.94	358.10
424.13	330.02
424.32	236.39
424.50	311.29
424.69	374.49
424.88	404.91
425.07	346.40
425.26	404.91
425.45	360.44
425.64	360.44
425.83	360.44
426.01	306.61
426.20	351.08
426.39	344.06
426.58	306.61
426.77	313.63
426.96	285.55
427.15	322.99
427.33	341.72
427.52	285.55
427.71	330.02
427.90	376.83
428.09	294.91
428.28	400.23
428.46	360.44
428.65	297.25
428.84	257.46
429.03	266.82
429.22	315.97
429.40	334.70
429.59	355.76
429.78	255.12
429.97	222.35
430.16	154.48
430.34	205.97
430.53	208.31
430.72	250.44
430.91	264.48
431.10	292.57
431.28	365.12
431.47	411.93
431.66	341.72
431.85	292.57
432.03	318.31
432.22	297.25
432.41	283.20
432.60	344.06
432.79	294.91
432.97	330.02
433.16	390.87
433.35	304.27
433.54	369.80
433.72	334.70
433.91	297.25
434.10	315.97
434.28	332.36
434.47	358.10
434.66	346.40
434.85	304.27
435.03	437.68
435.22	409.59
435.41	437.68
435.59	365.12
435.78	306.61
435.97	360.44
436.16	388.53
436.34	330.02
436.53	367.46
436.72	339.38
436.90	442.36
437.09	388.53
437.28	362.78
437.46	304.27
437.65	362.78
437.84	339.38
438.02	271.50
438.21	365.12
438.40	355.76
438.58	423.64
438.77	407.25
438.96	330.02
439.14	337.04
439.33	332.36
439.52	451.72
439.70	456.40
439.89	355.76
440.08	386.19
440.26	367.46
440.45	395.55
440.63	355.76
440.82	407.25
441.01	447.04
441.19	400.23
441.38	440.02
441.57	449.38
441.75	388.53
441.94	367.46
442.12	503.22
442.31	477.47
442.50	454.06
442.68	463.43
442.87	428.32
443.05	416.62
443.24	433.00
443.43	456.40
443.61	442.36
443.80	484.49
443.98	456.40
444.17	423.64
444.35	397.89
444.54	505.56
444.73	421.30
444.91	451.72
445.10	395.55
445.28	367.46
445.47	353.42
445.65	468.11
445.84	421.30
446.02	400.23
446.21	400.23
446.39	400.23
446.58	332.36
446.77	447.04
446.95	428.32
447.14	407.25
447.32	491.51
447.51	496.19
447.69	449.38
447.88	496.19
448.06	409.59
448.25	414.27
448.43	458.74
448.62	463.43
448.80	498.53
448.99	479.81
449.17	454.06
449.36	458.74
449.54	386.19
449.73	458.74
449.91	510.24
450.10	468.11
450.28	470.45
450.46	533.64
450.65	461.09
450.83	524.28
451.02	528.96
451.20	500.87
451.39	489.17
451.57	397.89
451.76	505.56
451.94	521.94
452.13	461.09
452.31	435.34
452.49	393.21
452.68	437.68
452.86	465.77
453.05	409.59
453.23	493.85
453.42	528.96
453.60	454.06
453.78	440.02
453.97	458.74
454.15	407.25
454.34	573.43
454.52	454.06
454.70	381.51
454.89	468.11
455.07	498.53
455.26	435.34
455.44	433.00
455.62	510.24
455.81	519.60
455.99	561.73
456.17	456.40
456.36	503.22
456.54	458.74
456.73	507.90
456.91	440.02
457.09	517.26
457.28	550.03
457.46	550.03
457.64	475.13
457.83	449.38
458.01	411.93
458.19	449.38
458.38	454.06
458.56	472.79
458.74	528.96
458.93	475.13
459.11	510.24
459.29	503.22
459.48	470.45
459.66	468.11
459.84	442.36
460.03	472.79
460.21	561.73
460.39	519.60
460.57	458.74
460.76	482.15
460.94	592.16
461.12	535.98
461.31	514.92
461.49	594.50
461.67	507.90
461.85	533.64
462.04	510.24
462.22	610.88
462.40	587.47
462.59	470.45
462.77	552.37
462.95	484.49
463.13	505.56
463.32	456.40
463.50	491.51
463.68	451.72
463.86	498.53
464.05	477.47
464.23	524.28
464.41	498.53
464.59	489.17
464.78	461.09
464.96	437.68
465.14	528.96
465.32	486.83
465.50	465.77
465.69	519.60
465.87	554.71
466.05	472.79
466.23	435.34
466.41	470.45
466.60	486.83
466.78	407.25
466.96	442.36
467.14	538.32
467.32	524.28
467.51	528.96
467.69	449.38
467.87	564.07
468.05	472.79
468.23	496.19
468.41	517.26
468.60	484.49
468.78	477.47
468.96	491.51
469.14	484.49
469.32	603.86
469.50	465.77
469.69	524.28
469.87	498.53
470.05	526.62
470.23	519.60
470.41	535.98
470.59	461.09
470.77	514.92
470.95	489.17
471.14	554.71
471.32	463.43
471.50	496.19
471.68	526.62
471.86	599.18
472.04	615.56
472.22	596.84
472.40	505.56
472.58	535.98
472.77	526.62
472.95	571.09
473.13	557.05
473.31	547.69
473.49	589.82
473.67	449.38
473.85	535.98
474.03	552.37
474.21	524.28
474.39	580.45
474.57	578.11
474.75	545.34
474.93	606.20
475.12	596.84
475.30	552.37
475.48	550.03
475.66	519.60
475.84	521.94
476.02	585.13
476.20	526.62
476.38	528.96
476.56	533.64
476.74	603.86
476.92	510.24
477.10	517.26
477.28	596.84
477.46	545.34
477.64	547.69
477.82	620.24
478.00	575.77
478.18	603.86
478.36	599.18
478.54	571.09
478.72	552.37
478.90	601.52
479.08	631.94
479.26	676.41
479.44	573.43
479.62	622.58
479.80	683.44
479.98	624.92
480.16	669.39
480.34	624.92
480.52	631.94
480.70	671.73
480.88	589.82
481.06	657.69
481.24	631.94
481.41	690.46
481.59	683.44
481.77	653.01
481.95	643.65
482.13	655.35
482.31	653.01
482.49	653.01
482.67	650.67
482.85	697.48
483.03	741.95
483.21	706.84
483.39	692.80
483.57	645.99
483.74	674.07
483.92	718.54
484.10	657.69
484.28	638.97
484.46	732.59
484.64	725.57
484.82	744.29
485.00	594.50
485.18	645.99
485.35	608.54
485.53	608.54
485.71	564.07
485.89	517.26
486.07	519.60
486.25	554.71
486.43	589.82
486.61	620.24
486.78	690.46
486.96	662.37
487.14	758.33
487.32	683.44
487.50	751.31
487.68	727.91
487.85	709.18
488.03	690.46
488.21	760.67
488.39	692.80
488.57	781.74
488.75	692.80
488.92	765.36
489.10	723.23
489.28	828.55
489.46	758.33
489.64	779.40
489.81	765.36
489.99	805.14
490.17	793.44
490.35	805.14
490.53	788.76
490.70	866.00
490.88	795.78
491.06	835.57
491.24	807.48
491.41	755.99
491.59	727.91
491.77	730.25
491.95	784.08
492.13	748.97
492.30	877.70
492.48	877.70
492.66	851.96
492.84	901.11
493.01	795.78
493.19	861.32
493.37	863.66
493.54	917.49
493.72	940.90
493.90	772.38
494.08	828.55
494.25	940.90
494.43	922.17
494.61	896.43
494.79	945.58
494.96	819.19
495.14	880.04
495.32	903.45
495.49	830.89
495.67	875.36
495.85	903.45
496.02	959.62
496.20	903.45
496.38	854.30
496.55	868.34
496.73	898.77
496.91	854.30
497.09	973.66
497.26	1013.45
497.44	887.06
497.62	922.17
497.79	931.53
497.97	777.06
498.14	868.34
498.32	866.00
498.50	957.28
498.67	1027.50
498.85	1074.31
499.03	990.05
499.20	971.32
499.38	950.26
499.56	922.17
499.73	903.45
499.91	933.87
500.08	896.43
500.26	903.45
500.44	866.00
500.61	889.40
500.79	912.81
500.97	861.32
501.14	964.30
501.32	877.70
501.49	866.00
501.67	866.00
501.84	926.85
502.02	858.98
502.20	1046.22
502.37	1008.77
502.55	980.68
502.72	1006.43
502.90	903.45
503.07	873.02
503.25	863.66
503.43	880.04
503.60	880.04
503.78	821.53
503.95	868.34
504.13	884.72
504.30	978.34
504.48	821.53
504.65	954.94
504.83	1064.94
505.01	1034.52
505.18	936.21
505.36	1043.88
505.53	1015.79
505.71	994.73
505.88	943.24
506.06	961.96
506.23	1015.79
506.41	1057.92
506.58	1022.81
506.76	1008.77
506.93	983.02
507.11	952.60
507.28	992.39
507.46	945.58
507.63	933.87
507.81	903.45
507.98	929.19
508.16	990.05
508.33	959.62
508.50	945.58
508.68	964.30
508.85	1004.09
509.03	1011.11
509.20	1046.22
509.38	985.37
509.55	919.83
509.73	980.68
509.90	968.98
510.08	1069.62
510.25	976.00
510.42	1008.77
510.60	994.73
510.77	992.39
510.95	994.73
511.12	994.73
511.30	1001.75
511.47	1053.24
511.64	1055.58
511.82	1062.60
511.99	926.85
512.17	1018.13
512.34	997.07
512.51	912.81
512.69	1067.28
512.86	1067.28
513.04	985.37
513.21	936.21
513.38	980.68
513.56	896.43
513.73	987.71
513.90	912.81
514.08	929.19
514.25	992.39
514.43	938.55
514.60	990.05
514.77	961.96
514.95	870.68
515.12	954.94
515.29	917.49
515.47	1050.90
515.64	978.34
515.81	1060.26
515.99	999.41
516.16	898.77
516.33	807.48
516.51	866.00
516.68	868.34
516.85	753.65
517.03	835.57
517.20	919.83
517.37	940.90
517.54	1018.13
517.72	1064.94
517.89	830.89
518.06	788.76
518.24	800.46
518.41	875.36
518.58	973.66
518.75	940.90
518.93	1001.75
519.10	985.37
519.27	1008.77
519.45	999.41
519.62	973.66
519.79	1020.47
519.96	968.98
520.14	1032.18
520.31	997.07
520.48	1013.45
520.65	1018.13
520.83	992.39
521.00	1018.13
521.17	957.28
521.34	1043.88
521.52	1046.22
521.69	1034.52
521.86	1015.79
522.03	1060.26
522.20	1083.67
522.38	1025.15
522.55	896.43
522.72	936.21
522.89	880.04
523.07	976.00
523.24	936.21
523.41	1011.11
523.58	936.21
523.75	964.30
523.92	1039.20
524.10	1060.26
524.27	994.73
524.44	992.39
524.61	1013.45
524.78	1055.58
524.96	971.32
525.13	1011.11
525.30	1083.67
525.47	1071.97
525.64	1109.41
525.81	1006.43
525.98	912.81
526.16	945.58
526.33	891.74
526.50	908.13
526.67	802.80
526.84	919.83
527.01	884.72
527.18	933.87
527.36	957.28
527.53	992.39
527.70	924.51
527.87	1015.79
528.04	950.26
528.21	992.39
528.38	1034.52
528.55	1121.12
528.72	1081.33
528.89	1057.92
529.07	1153.88
529.24	1053.24
529.41	1034.52
529.58	999.41
529.75	1064.94
529.92	873.02
530.09	978.34
530.26	1114.10
530.43	997.07
530.60	1057.92
530.77	992.39
530.94	1114.10
531.11	1006.43
531.28	1032.18
531.46	945.58
531.63	1048.56
531.80	976.00
531.97	1048.56
532.14	1020.47
532.31	954.94
532.48	882.38
532.65	959.62
532.82	940.90
532.99	968.98
533.16	1006.43
533.33	1053.24
533.50	1053.24
533.67	924.51
533.84	1008.77
534.01	968.98
534.18	978.34
534.35	1013.45
534.52	983.02
534.69	1013.45
534.86	1032.18
535.03	1095.37
535.20	1001.75
535.37	1060.26
535.54	1039.20
535.71	1078.99
535.88	1104.73
536.05	1043.88
536.22	1022.81
536.38	1053.24
536.55	905.79
536.72	905.79
536.89	1004.09
537.06	889.40
537.23	1071.97
537.40	1149.20
537.57	1008.77
537.74	1022.81
537.91	1029.84
538.08	1001.75
538.25	994.73
538.42	1100.05
538.59	994.73
538.75	1011.11
538.92	1011.11
539.09	943.24
539.26	1008.77
539.43	985.37
539.60	961.96
539.77	1025.15
539.94	959.62
540.11	938.55
540.28	877.70
540.44	887.06
540.61	992.39
540.78	957.28
540.95	1008.77
541.12	950.26
541.29	940.90
541.46	992.39
541.62	959.62
541.79	922.17
541.96	924.51
542.13	919.83
542.30	915.15
542.47	987.71
542.63	1032.18
542.80	957.28
542.97	964.30
543.14	910.47
543.31	882.38
543.48	973.66
543.64	922.17
543.81	1004.09
543.98	959.62
544.15	1011.11
544.32	1001.75
544.48	973.66
544.65	1064.94
544.82	966.64
544.99	1032.18
545.16	968.98
545.32	973.66
545.49	990.05
545.66	854.30
545.83	1036.86
546.00	1022.81
546.16	1006.43
546.33	933.87
546.50	966.64
546.67	964.30
546.83	987.71
547.00	929.19
547.17	1032.18
547.34	945.58
547.50	868.34
547.67	917.49
547.84	999.41
548.00	978.34
548.17	1041.54
548.34	924.51
548.51	924.51
548.67	1034.52
548.84	994.73
549.01	917.49
549.18	922.17
549.34	940.90
549.51	940.90
549.68	1057.92
549.84	1015.79
550.01	922.17
550.18	933.87
550.34	938.55
550.51	919.83
550.68	980.68
550.84	898.77
551.01	959.62
551.18	985.37
551.34	940.90
551.51	983.02
551.68	901.11
551.84	1011.11
552.01	877.70
552.18	961.96
552.34	875.36
552.51	964.30
552.68	990.05
552.84	976.00
553.01	917.49
553.18	940.90
553.34	997.07
553.51	947.92
553.67	943.24
553.84	1060.26
554.01	980.68
554.17	940.90
554.34	1034.52
554.51	1020.47
554.67	980.68
554.84	968.98
555.00	978.34
555.17	945.58
555.33	1013.45
555.50	933.87
555.67	1011.11
555.83	968.98
556.00	954.94
556.16	870.68
556.33	990.05
556.50	959.62
556.66	985.37
556.83	905.79
556.99	1004.09
557.16	901.11
557.32	912.81
557.49	980.68
557.65	943.24
557.82	978.34
557.98	926.85
558.15	1008.77
558.32	912.81
558.48	912.81
558.65	854.30
558.81	844.93
558.98	875.36
559.14	919.83
559.31	924.51
559.47	896.43
559.64	882.38
559.80	945.58
559.97	884.72
560.13	805.14
560.30	938.55
560.46	1050.90
560.63	983.02
560.79	875.36
560.96	985.37
561.12	868.34
561.29	891.74
561.45	912.81
561.61	947.92
561.78	901.11
561.94	858.98
562.11	891.74
562.27	861.32
562.44	858.98
562.60	915.15
562.77	980.68
562.93	884.72
563.10	931.53
563.26	924.51
563.42	985.37
563.59	922.17
563.75	936.21
563.92	866.00
564.08	844.93
564.24	823.87
564.41	940.90
564.57	952.60
564.74	875.36
564.90	1020.47
565.07	894.08
565.23	908.13
565.39	854.30
565.56	877.70
565.72	847.27
565.88	828.55
566.05	800.46
566.21	854.30
566.38	854.30
566.54	861.32
566.70	901.11
566.87	945.58
567.03	861.32
567.19	873.02
567.36	905.79
567.52	812.17
567.68	866.00
567.85	882.38
568.01	866.00
568.17	823.87
568.34	842.59
568.50	858.98
568.66	910.47
568.83	875.36
568.99	802.80
569.15	765.36
569.32	877.70
569.48	706.84
569.64	882.38
569.81	842.59
569.97	784.08
570.13	849.61
570.30	795.78
570.46	793.44
570.62	847.27
570.78	919.83
570.95	765.36
571.11	854.30
571.27	688.12
571.43	765.36
571.60	858.98
571.76	816.85
571.92	873.02
572.09	851.96
572.25	894.08
572.41	877.70
572.57	786.42
572.74	777.06
572.90	823.87
573.06	795.78
573.22	725.57
573.38	795.78
573.55	894.08
573.71	744.29
573.87	894.08
574.03	877.70
574.20	835.57
574.36	802.80
574.52	844.93
574.68	898.77
574.84	802.80
575.01	795.78
575.17	770.04
575.33	802.80
575.49	732.59
575.65	758.33
575.82	748.97
575.98	833.23
576.14	727.91
576.30	844.93
576.46	826.21
576.62	807.48
576.79	784.08
576.95	873.02
577.11	753.65
577.27	910.47
577.43	765.36
577.59	690.46
577.75	793.44
577.92	828.55
578.08	758.33
578.24	849.61
578.40	744.29
578.56	746.63
578.72	835.57
578.88	830.89
579.04	826.21
579.21	894.08
579.37	798.12
579.53	791.10
579.69	784.08
579.85	765.36
580.01	755.99
580.17	819.19
580.33	823.87
580.49	809.83
580.65	753.65
580.82	791.10
580.98	779.40
581.14	826.21
581.30	823.87
581.46	858.98
581.62	786.42
581.78	788.76
581.94	809.83
582.10	774.72
582.26	849.61
582.42	725.57
582.58	763.01
582.74	809.83
582.90	835.57
583.06	823.87
583.22	758.33
583.38	802.80
583.54	788.76
583.70	744.29
583.86	873.02
584.02	704.50
584.18	753.65
584.34	777.06
584.50	849.61
584.66	699.82
584.82	816.85
584.98	791.10
585.14	763.01
585.30	781.74
585.46	720.88
585.62	688.12
585.78	704.50
585.94	751.31
586.10	777.06
586.26	709.18
586.42	681.10
586.58	798.12
586.74	781.74
586.90	706.84
587.06	711.52
587.22	741.95
587.38	716.20
587.54	704.50
587.70	636.63
587.86	697.48
588.02	610.88
588.18	695.14
588.34	615.56
588.49	624.92
588.65	491.51
588.81	514.92
588.97	521.94
589.13	603.86
589.29	514.92
589.45	575.77
589.61	550.03
589.77	561.73
589.93	627.26
590.08	704.50
590.24	709.18
590.40	697.48
590.56	674.07
590.72	631.94
590.88	641.31
591.04	603.86
591.20	657.69
591.35	653.01
591.51	617.90
591.67	641.31
591.83	594.50
591.99	573.43
592.15	671.73
592.31	699.82
592.46	624.92
592.62	660.03
592.78	636.63
592.94	758.33
593.10	713.86
593.26	692.80
593.41	709.18
593.57	699.82
593.73	610.88
593.89	587.47
594.05	660.03
594.20	655.35
594.36	599.18
594.52	622.58
594.68	599.18
594.84	629.60
594.99	713.86
595.15	704.50
595.31	594.50
595.47	734.93
595.62	681.10
595.78	695.14
595.94	681.10
596.10	690.46
596.25	606.20
596.41	683.44
596.57	617.90
596.73	662.37
596.88	650.67
597.04	791.10
597.20	671.73
597.36	648.33
597.51	702.16
597.67	641.31
597.83	650.67
597.99	638.97
598.14	653.01
598.30	688.12
598.46	645.99
598.61	636.63
598.77	746.63
598.93	575.77
599.09	674.07
599.24	650.67
599.40	704.50
599.56	688.12
599.71	648.33
599.87	702.16
600.03	650.67
600.18	692.80
600.34	627.26
600.50	636.63
600.65	671.73
600.81	627.26
600.97	744.29
601.12	725.57
601.28	716.20
601.44	571.09
601.59	688.12
601.75	709.18
601.91	683.44
602.06	713.86
602.22	669.39
602.37	617.90
602.53	601.52
602.69	727.91
602.84	681.10
603.00	660.03
603.16	662.37
603.31	650.67
603.47	664.71
603.62	706.84
603.78	685.78
603.94	657.69
604.09	685.78
604.25	638.97
604.40	660.03
604.56	706.84
604.71	713.86
604.87	760.67
605.03	662.37
605.18	638.97
605.34	671.73
605.49	674.07
605.65	695.14
605.80	716.20
605.96	695.14
606.12	676.41
606.27	699.82
606.43	720.88
606.58	718.54
606.74	669.39
606.89	585.13
607.05	664.71
607.20	613.22
607.36	615.56
607.51	615.56
607.67	608.54
607.82	634.29
607.98	617.90
608.13	674.07
608.29	638.97
608.44	678.76
608.60	692.80
608.75	596.84
608.91	676.41
609.06	603.86
609.22	608.54
609.37	613.22
609.53	610.88
609.68	608.54
609.84	585.13
609.99	629.60
610.15	620.24
