SpectraSuite Data File
++++++++++++++++++++++++++++++++++++
Date: Fri Oct 04 11:34:04 GMT-05:00 2013
User: price-jones
Dark Spectrum Present: No
Reference Spectrum Present: No
Number of Sampled Component Spectra: 1
Spectrometers: USB2+H05261
Integration Time (usec): 100000 (USB2+H05261)
Spectra Averaged: 1 (USB2+H05261)
Boxcar Smoothing: 0 (USB2+H05261)
Correct for Electrical Dark: No (USB2+H05261)
Strobe/Lamp Enabled: No (USB2+H05261)
Correct for Detector Non-linearity: No (USB2+H05261)
Correct for Stray Light: No (USB2+H05261)
Number of Pixels in Processed Spectrum: 2048
>>>>>Begin Processed Spectral Data<<<<<
365.73	93.62
365.92	93.62
366.12	93.62
366.32	0.00
366.52	0.00
366.72	56.17
366.91	2.34
367.11	0.00
367.31	0.00
367.51	0.00
367.70	0.00
367.90	0.00
368.10	0.00
368.30	0.00
368.49	0.00
368.69	7.02
368.89	16.38
369.09	0.00
369.28	2.34
369.48	0.00
369.68	18.72
369.87	2.34
370.07	28.09
370.27	37.45
370.47	74.90
370.66	88.94
370.86	93.62
371.06	126.39
371.25	51.49
371.45	49.15
371.65	117.03
371.84	53.83
372.04	91.28
372.24	126.39
372.44	135.75
372.63	114.69
372.83	184.90
373.03	84.26
373.22	102.98
373.42	142.77
373.62	126.39
373.81	128.73
374.01	131.07
374.21	161.50
374.40	133.41
374.60	191.92
374.79	98.30
374.99	117.03
375.19	124.05
375.38	124.05
375.58	105.32
375.78	210.65
375.97	201.29
376.17	236.39
376.37	131.07
376.56	159.16
376.76	124.05
376.95	91.28
377.15	131.07
377.35	138.09
377.54	191.92
377.74	187.24
377.93	198.95
378.13	105.32
378.33	154.48
378.52	74.90
378.72	194.26
378.91	138.09
379.11	187.24
379.31	166.18
379.50	126.39
379.70	175.54
379.89	131.07
380.09	159.16
380.28	126.39
380.48	105.32
380.68	100.64
380.87	145.11
381.07	135.75
381.26	131.07
381.46	210.65
381.65	170.86
381.85	93.62
382.04	112.35
382.24	187.24
382.43	114.69
382.63	46.81
382.83	142.77
383.02	154.48
383.22	196.60
383.41	166.18
383.61	112.35
383.80	100.64
384.00	117.03
384.19	163.84
384.39	145.11
384.58	133.41
384.78	177.88
384.97	110.01
385.17	121.71
385.36	163.84
385.56	210.65
385.75	142.77
385.95	102.98
386.14	84.26
386.34	95.96
386.53	210.65
386.72	117.03
386.92	142.77
387.11	163.84
387.31	182.56
387.50	210.65
387.70	91.28
387.89	95.96
388.09	114.69
388.28	177.88
388.48	126.39
388.67	133.41
388.86	147.45
389.06	81.92
389.25	84.26
389.45	63.19
389.64	152.13
389.84	126.39
390.03	140.43
390.22	166.18
390.42	173.20
390.61	159.16
390.81	138.09
391.00	156.82
391.19	227.03
391.39	121.71
391.58	184.90
391.78	147.45
391.97	93.62
392.16	149.79
392.36	191.92
392.55	152.13
392.75	175.54
392.94	166.18
393.13	142.77
393.33	102.98
393.52	159.16
393.71	170.86
393.91	117.03
394.10	145.11
394.29	84.26
394.49	205.97
394.68	175.54
394.88	161.50
395.07	191.92
395.26	224.69
395.46	149.79
395.65	173.20
395.84	168.52
396.04	131.07
396.23	170.86
396.42	46.81
396.62	110.01
396.81	166.18
397.00	117.03
397.19	212.99
397.39	191.92
397.58	128.73
397.77	156.82
397.97	159.16
398.16	91.28
398.35	81.92
398.55	149.79
398.74	147.45
398.93	119.37
399.12	173.20
399.32	201.29
399.51	126.39
399.70	112.35
399.90	238.73
400.09	170.86
400.28	133.41
400.47	182.56
400.67	154.48
400.86	161.50
401.05	173.20
401.24	117.03
401.44	121.71
401.63	173.20
401.82	187.24
402.01	147.45
402.21	177.88
402.40	119.37
402.59	126.39
402.78	152.13
402.97	189.58
403.17	88.94
403.36	56.17
403.55	110.01
403.74	163.84
403.93	191.92
404.13	224.69
404.32	203.63
404.51	140.43
404.70	170.86
404.89	65.54
405.09	191.92
405.28	159.16
405.47	112.35
405.66	187.24
405.85	131.07
406.05	102.98
406.24	173.20
406.43	208.31
406.62	121.71
406.81	215.33
407.00	159.16
407.20	105.32
407.39	138.09
407.58	198.95
407.77	198.95
407.96	180.22
408.15	149.79
408.34	184.90
408.54	168.52
408.73	170.86
408.92	198.95
409.11	189.58
409.30	175.54
409.49	105.32
409.68	198.95
409.87	184.90
410.07	131.07
410.26	112.35
410.45	156.82
410.64	175.54
410.83	210.65
411.02	154.48
411.21	248.10
411.40	168.52
411.59	93.62
411.78	126.39
411.98	44.47
412.17	67.88
412.36	140.43
412.55	191.92
412.74	161.50
412.93	273.84
413.12	105.32
413.31	191.92
413.50	133.41
413.69	117.03
413.88	175.54
414.07	117.03
414.26	184.90
414.45	166.18
414.64	198.95
414.83	159.16
415.02	145.11
415.22	161.50
415.41	135.75
415.60	142.77
415.79	229.37
415.98	180.22
416.17	198.95
416.36	170.86
416.55	95.96
416.74	194.26
416.93	163.84
417.12	175.54
417.31	100.64
417.50	177.88
417.69	170.86
417.88	163.84
418.07	175.54
418.26	201.29
418.45	196.60
418.64	173.20
418.83	201.29
419.02	131.07
419.21	135.75
419.39	168.52
419.58	77.24
419.77	138.09
419.96	184.90
420.15	156.82
420.34	173.20
420.53	133.41
420.72	138.09
420.91	138.09
421.10	149.79
421.29	189.58
421.48	100.64
421.67	187.24
421.86	114.69
422.05	166.18
422.24	147.45
422.43	180.22
422.61	175.54
422.80	227.03
422.99	154.48
423.18	194.26
423.37	191.92
423.56	152.13
423.75	168.52
423.94	156.82
424.13	180.22
424.32	112.35
424.50	126.39
424.69	154.48
424.88	154.48
425.07	196.60
425.26	205.97
425.45	147.45
425.64	100.64
425.83	184.90
426.01	189.58
426.20	114.69
426.39	166.18
426.58	231.71
426.77	196.60
426.96	241.08
427.15	168.52
427.33	140.43
427.52	184.90
427.71	234.05
427.90	177.88
428.09	98.30
428.28	208.31
428.46	121.71
428.65	163.84
428.84	119.37
429.03	107.66
429.22	175.54
429.40	128.73
429.59	191.92
429.78	168.52
429.97	140.43
430.16	196.60
430.34	215.33
430.53	145.11
430.72	133.41
430.91	142.77
431.10	128.73
431.28	170.86
431.47	212.99
431.66	124.05
431.85	147.45
432.03	227.03
432.22	149.79
432.41	217.67
432.60	168.52
432.79	191.92
432.97	119.37
433.16	126.39
433.35	121.71
433.54	173.20
433.72	102.98
433.91	182.56
434.10	114.69
434.28	196.60
434.47	124.05
434.66	189.58
434.85	161.50
435.03	163.84
435.22	201.29
435.41	360.44
435.59	395.55
435.78	222.35
435.97	168.52
436.16	227.03
436.34	110.01
436.53	168.52
436.72	159.16
436.90	222.35
437.09	142.77
437.28	184.90
437.46	149.79
437.65	156.82
437.84	163.84
438.02	177.88
438.21	184.90
438.40	166.18
438.58	241.08
438.77	175.54
438.96	128.73
439.14	154.48
439.33	107.66
439.52	203.63
439.70	173.20
439.89	147.45
440.08	161.50
440.26	166.18
440.45	215.33
440.63	170.86
440.82	154.48
441.01	168.52
441.19	166.18
441.38	173.20
441.57	177.88
441.75	112.35
441.94	149.79
442.12	238.73
442.31	180.22
442.50	177.88
442.68	215.33
442.87	135.75
443.05	222.35
443.24	161.50
443.43	224.69
443.61	196.60
443.80	154.48
443.98	187.24
444.17	194.26
444.35	217.67
444.54	175.54
444.73	210.65
444.91	229.37
445.10	140.43
445.28	196.60
445.47	152.13
445.65	208.31
445.84	191.92
446.02	227.03
446.21	161.50
446.39	60.85
446.58	182.56
446.77	241.08
446.95	175.54
447.14	145.11
447.32	133.41
447.51	166.18
447.69	154.48
447.88	114.69
448.06	236.39
448.25	196.60
448.43	168.52
448.62	161.50
448.80	255.12
448.99	210.65
449.17	175.54
449.36	205.97
449.54	201.29
449.73	168.52
449.91	203.63
450.10	215.33
450.28	234.05
450.46	259.80
450.65	208.31
450.83	196.60
451.02	177.88
451.20	138.09
451.39	203.63
451.57	196.60
451.76	88.94
451.94	234.05
452.13	98.30
452.31	198.95
452.49	173.20
452.68	131.07
452.86	236.39
453.05	201.29
453.23	229.37
453.42	124.05
453.60	170.86
453.78	163.84
453.97	187.24
454.15	138.09
454.34	191.92
454.52	161.50
454.70	224.69
454.89	241.08
455.07	161.50
455.26	220.01
455.44	215.33
455.62	182.56
455.81	180.22
455.99	168.52
456.17	175.54
456.36	182.56
456.54	184.90
456.73	145.11
456.91	189.58
457.09	187.24
457.28	196.60
457.46	189.58
457.64	201.29
457.83	105.32
458.01	205.97
458.19	147.45
458.38	124.05
458.56	168.52
458.74	126.39
458.93	163.84
459.11	259.80
459.29	217.67
459.48	245.76
459.66	198.95
459.84	147.45
460.03	231.71
460.21	231.71
460.39	182.56
460.57	227.03
460.76	227.03
460.94	152.13
461.12	191.92
461.31	311.29
461.49	189.58
461.67	217.67
461.85	142.77
462.04	152.13
462.22	681.10
462.40	187.24
462.59	299.59
462.77	205.97
462.95	238.73
463.13	152.13
463.32	194.26
463.50	222.35
463.68	231.71
463.86	133.41
464.05	98.30
464.23	215.33
464.41	149.79
464.59	255.12
464.78	215.33
464.96	227.03
465.14	191.92
465.32	140.43
465.50	250.44
465.69	170.86
465.87	194.26
466.05	163.84
466.23	203.63
466.41	142.77
466.60	191.92
466.78	184.90
466.96	210.65
467.14	227.03
467.32	196.60
467.51	128.73
467.69	245.76
467.87	250.44
468.05	205.97
468.23	177.88
468.41	203.63
468.60	224.69
468.78	189.58
468.96	212.99
469.14	198.95
469.32	177.88
469.50	196.60
469.69	168.52
469.87	105.32
470.05	105.32
470.23	189.58
470.41	114.69
470.59	224.69
470.77	222.35
470.95	173.20
471.14	191.92
471.32	191.92
471.50	238.73
471.68	217.67
471.86	201.29
472.04	220.01
472.22	203.63
472.40	187.24
472.58	163.84
472.77	220.01
472.95	203.63
473.13	184.90
473.31	222.35
473.49	194.26
473.67	201.29
473.85	210.65
474.03	222.35
474.21	224.69
474.39	203.63
474.57	175.54
474.75	217.67
474.93	177.88
475.12	102.98
475.30	177.88
475.48	205.97
475.66	177.88
475.84	102.98
476.02	112.35
476.20	168.52
476.38	266.82
476.56	308.95
476.74	138.09
476.92	140.43
477.10	154.48
477.28	180.22
477.46	210.65
477.64	266.82
477.82	177.88
478.00	149.79
478.18	208.31
478.36	222.35
478.54	154.48
478.72	159.16
478.90	135.75
479.08	217.67
479.26	269.16
479.44	215.33
479.62	102.98
479.80	166.18
479.98	201.29
480.16	177.88
480.34	252.78
480.52	163.84
480.70	255.12
480.88	187.24
481.06	215.33
481.24	147.45
481.41	175.54
481.59	138.09
481.77	227.03
481.95	252.78
482.13	175.54
482.31	170.86
482.49	142.77
482.67	184.90
482.85	168.52
483.03	163.84
483.21	224.69
483.39	229.37
483.57	138.09
483.74	236.39
483.92	278.52
484.10	131.07
484.28	255.12
484.46	238.73
484.64	175.54
484.82	170.86
485.00	187.24
485.18	236.39
485.35	250.44
485.53	191.92
485.71	271.50
485.89	149.79
486.07	152.13
486.25	262.14
486.43	163.84
486.61	236.39
486.78	163.84
486.96	212.99
487.14	273.84
487.32	224.69
487.50	220.01
487.68	198.95
487.85	227.03
488.03	234.05
488.21	245.76
488.39	201.29
488.57	210.65
488.75	196.60
488.92	468.11
489.10	217.67
489.28	297.25
489.46	222.35
489.64	187.24
489.81	161.50
489.99	234.05
490.17	215.33
490.35	227.03
490.53	180.22
490.70	205.97
490.88	182.56
491.06	205.97
491.24	224.69
491.41	276.18
491.59	276.18
491.77	177.88
491.95	212.99
492.13	252.78
492.30	238.73
492.48	133.41
492.66	252.78
492.84	229.37
493.01	243.42
493.19	177.88
493.37	285.55
493.54	177.88
493.72	201.29
493.90	149.79
494.08	248.10
494.25	201.29
494.43	229.37
494.61	215.33
494.79	201.29
494.96	231.71
495.14	294.91
495.32	210.65
495.49	238.73
495.67	313.63
495.85	290.23
496.02	262.14
496.20	313.63
496.38	283.20
496.55	166.18
496.73	248.10
496.91	238.73
497.09	224.69
497.26	290.23
497.44	168.52
497.62	348.74
497.79	234.05
497.97	259.80
498.14	227.03
498.32	227.03
498.50	243.42
498.67	269.16
498.85	248.10
499.03	245.76
499.20	259.80
499.38	222.35
499.56	208.31
499.73	332.36
499.91	330.02
500.08	236.39
500.26	238.73
500.44	184.90
500.61	238.73
500.79	187.24
500.97	278.52
501.14	292.57
501.32	290.23
501.49	248.10
501.67	217.67
501.84	280.86
502.02	217.67
502.20	266.82
502.37	196.60
502.55	229.37
502.72	236.39
502.90	177.88
503.07	229.37
503.25	276.18
503.43	224.69
503.60	154.48
503.78	205.97
503.95	227.03
504.13	271.50
504.30	252.78
504.48	215.33
504.65	304.27
504.83	278.52
505.01	208.31
505.18	273.84
505.36	313.63
505.53	220.01
505.71	250.44
505.88	266.82
506.06	245.76
506.23	217.67
506.41	250.44
506.58	322.99
506.76	266.82
506.93	287.89
507.11	248.10
507.28	215.33
507.46	215.33
507.63	222.35
507.81	224.69
507.98	215.33
508.16	306.61
508.33	278.52
508.50	252.78
508.68	250.44
508.85	248.10
509.03	266.82
509.20	224.69
509.38	210.65
509.55	220.01
509.73	315.97
509.90	248.10
510.08	290.23
510.25	252.78
510.42	266.82
510.60	318.31
510.77	210.65
510.95	238.73
511.12	273.84
511.30	250.44
511.47	243.42
511.64	189.58
511.82	234.05
511.99	257.46
512.17	243.42
512.34	278.52
512.51	259.80
512.69	187.24
512.86	299.59
513.04	255.12
513.21	266.82
513.38	196.60
513.56	173.20
513.73	299.59
513.90	243.42
514.08	252.78
514.25	257.46
514.43	250.44
514.60	201.29
514.77	212.99
514.95	196.60
515.12	205.97
515.29	301.93
515.47	238.73
515.64	294.91
515.81	250.44
515.99	212.99
516.16	182.56
516.33	248.10
516.51	241.08
516.68	182.56
516.85	215.33
517.03	156.82
517.20	238.73
517.37	161.50
517.54	248.10
517.72	255.12
517.89	222.35
518.06	273.84
518.24	245.76
518.41	308.95
518.58	231.71
518.75	252.78
518.93	212.99
519.10	222.35
519.27	205.97
519.45	264.48
519.62	187.24
519.79	224.69
519.96	189.58
520.14	229.37
520.31	236.39
520.48	224.69
520.65	191.92
520.83	243.42
521.00	236.39
521.17	262.14
521.34	266.82
521.52	290.23
521.69	264.48
521.86	259.80
522.03	266.82
522.20	278.52
522.38	248.10
522.55	259.80
522.72	264.48
522.89	255.12
523.07	297.25
523.24	245.76
523.41	304.27
523.58	187.24
523.75	227.03
523.92	229.37
524.10	243.42
524.27	220.01
524.44	222.35
524.61	245.76
524.78	234.05
524.96	306.61
525.13	234.05
525.30	320.65
525.47	290.23
525.64	189.58
525.81	236.39
525.98	191.92
526.16	248.10
526.33	285.55
526.50	229.37
526.67	191.92
526.84	205.97
527.01	294.91
527.18	264.48
527.36	262.14
527.53	215.33
527.70	227.03
527.87	229.37
528.04	285.55
528.21	220.01
528.38	245.76
528.55	250.44
528.72	334.70
528.89	297.25
529.07	177.88
529.24	287.89
529.41	252.78
529.58	269.16
529.75	315.97
529.92	241.08
530.09	250.44
530.26	297.25
530.43	325.33
530.60	269.16
530.77	262.14
530.94	294.91
531.11	252.78
531.28	227.03
531.46	327.68
531.63	301.93
531.80	262.14
531.97	266.82
532.14	346.40
532.31	212.99
532.48	222.35
532.65	201.29
532.82	203.63
532.99	311.29
533.16	224.69
533.33	212.99
533.50	283.20
533.67	283.20
533.84	315.97
534.01	299.59
534.18	259.80
534.35	339.38
534.52	234.05
534.69	276.18
534.86	257.46
535.03	262.14
535.20	315.97
535.37	297.25
535.54	266.82
535.71	255.12
535.88	297.25
536.05	257.46
536.22	318.31
536.38	315.97
536.55	231.71
536.72	255.12
536.89	269.16
537.06	257.46
537.23	273.84
537.40	229.37
537.57	194.26
537.74	285.55
537.91	248.10
538.08	348.74
538.25	266.82
538.42	224.69
538.59	217.67
538.75	280.86
538.92	273.84
539.09	351.08
539.26	285.55
539.43	390.87
539.60	278.52
539.77	355.76
539.94	311.29
540.11	283.20
540.28	369.80
540.44	395.55
540.61	353.42
540.78	397.89
540.95	461.09
541.12	456.40
541.29	442.36
541.46	472.79
541.62	435.34
541.79	463.43
541.96	414.27
542.13	334.70
542.30	440.02
542.47	463.43
542.63	479.81
542.80	423.64
542.97	383.85
543.14	484.49
543.31	418.96
543.48	397.89
543.64	458.74
543.81	390.87
543.98	383.85
544.15	337.04
544.32	351.08
544.48	337.04
544.65	299.59
544.82	320.65
544.99	400.23
545.16	393.21
545.32	381.51
545.49	552.37
545.66	683.44
545.83	716.20
546.00	573.43
546.16	554.71
546.33	470.45
546.50	337.04
546.67	353.42
546.83	313.63
547.00	395.55
547.17	339.38
547.34	285.55
547.50	358.10
547.67	367.46
547.84	308.95
548.00	409.59
548.17	341.72
548.34	299.59
548.51	379.17
548.67	400.23
548.84	365.12
549.01	353.42
549.18	250.44
549.34	301.93
549.51	264.48
549.68	337.04
549.84	290.23
550.01	372.15
550.18	381.51
550.34	362.78
550.51	304.27
550.68	374.49
550.84	294.91
551.01	320.65
551.18	308.95
551.34	308.95
551.51	290.23
551.68	285.55
551.84	376.83
552.01	337.04
552.18	273.84
552.34	311.29
552.51	245.76
552.68	266.82
552.84	245.76
553.01	292.57
553.18	276.18
553.34	299.59
553.51	276.18
553.67	397.89
553.84	322.99
554.01	330.02
554.17	290.23
554.34	264.48
554.51	245.76
554.67	390.87
554.84	325.33
555.00	196.60
555.17	304.27
555.33	353.42
555.50	283.20
555.67	252.78
555.83	224.69
556.00	255.12
556.16	395.55
556.33	285.55
556.50	205.97
556.66	266.82
556.83	290.23
556.99	236.39
557.16	234.05
557.32	285.55
557.49	320.65
557.65	278.52
557.82	285.55
557.98	248.10
558.15	271.50
558.32	259.80
558.48	215.33
558.65	208.31
558.81	224.69
558.98	205.97
559.14	252.78
559.31	245.76
559.47	278.52
559.64	177.88
559.80	294.91
559.97	241.08
560.13	194.26
560.30	227.03
560.46	238.73
560.63	149.79
560.79	234.05
560.96	245.76
561.12	257.46
561.29	201.29
561.45	231.71
561.61	269.16
561.78	344.06
561.94	259.80
562.11	163.84
562.27	280.86
562.44	271.50
562.60	250.44
562.77	248.10
562.93	304.27
563.10	236.39
563.26	276.18
563.42	212.99
563.59	285.55
563.75	170.86
563.92	266.82
564.08	182.56
564.24	215.33
564.41	278.52
564.57	220.01
564.74	222.35
564.90	196.60
565.07	315.97
565.23	217.67
565.39	250.44
565.56	241.08
565.72	217.67
565.88	234.05
566.05	189.58
566.21	243.42
566.38	259.80
566.54	294.91
566.70	194.26
566.87	222.35
567.03	201.29
567.19	231.71
567.36	315.97
567.52	262.14
567.68	259.80
567.85	262.14
568.01	271.50
568.17	229.37
568.34	271.50
568.50	252.78
568.66	196.60
568.83	311.29
568.99	196.60
569.15	287.89
569.32	250.44
569.48	301.93
569.64	248.10
569.81	215.33
569.97	210.65
570.13	276.18
570.30	257.46
570.46	241.08
570.62	201.29
570.78	189.58
570.95	222.35
571.11	248.10
571.27	301.93
571.43	262.14
571.60	229.37
571.76	334.70
571.92	248.10
572.09	222.35
572.25	248.10
572.41	257.46
572.57	241.08
572.74	259.80
572.90	229.37
573.06	269.16
573.22	220.01
573.38	231.71
573.55	283.20
573.71	264.48
573.87	238.73
574.03	306.61
574.20	201.29
574.36	283.20
574.52	318.31
574.68	234.05
574.84	224.69
575.01	182.56
575.17	264.48
575.33	262.14
575.49	259.80
575.65	315.97
575.82	297.25
575.98	227.03
576.14	227.03
576.30	280.86
576.46	341.72
576.62	315.97
576.79	360.44
576.95	379.17
577.11	227.03
577.27	273.84
577.43	238.73
577.59	266.82
577.75	304.27
577.92	269.16
578.08	271.50
578.24	191.92
578.40	215.33
578.56	376.83
578.72	383.85
578.88	381.51
579.04	177.88
579.21	241.08
579.37	217.67
579.53	304.27
579.69	292.57
579.85	304.27
580.01	292.57
580.17	262.14
580.33	231.71
580.49	292.57
580.65	287.89
580.82	212.99
580.98	231.71
581.14	269.16
581.30	355.76
581.46	283.20
581.62	311.29
581.78	217.67
581.94	264.48
582.10	257.46
582.26	236.39
582.42	231.71
582.58	243.42
582.74	259.80
582.90	320.65
583.06	280.86
583.22	252.78
583.38	285.55
583.54	227.03
583.70	369.80
583.86	241.08
584.02	255.12
584.18	322.99
584.34	227.03
584.50	334.70
584.66	428.32
584.82	634.29
584.98	791.10
585.14	781.74
585.30	690.46
585.46	470.45
585.62	374.49
585.78	327.68
585.94	348.74
586.10	229.37
586.26	245.76
586.42	344.06
586.58	266.82
586.74	306.61
586.90	355.76
587.06	248.10
587.22	376.83
587.38	269.16
587.54	294.91
587.70	341.72
587.86	379.17
588.02	262.14
588.18	292.57
588.34	301.93
588.49	238.73
588.65	269.16
588.81	287.89
588.97	191.92
589.13	187.24
589.29	255.12
589.45	348.74
589.61	152.13
589.77	252.78
589.93	236.39
590.08	234.05
590.24	212.99
590.40	294.91
590.56	278.52
590.72	262.14
590.88	262.14
591.04	224.69
591.20	290.23
591.35	332.36
591.51	245.76
591.67	257.46
591.83	264.48
591.99	292.57
592.15	269.16
592.31	285.55
592.46	250.44
592.62	367.46
592.78	269.16
592.94	299.59
593.10	196.60
593.26	332.36
593.41	297.25
593.57	299.59
593.73	227.03
593.89	315.97
594.05	334.70
594.20	358.10
594.36	318.31
594.52	264.48
594.68	170.86
594.84	271.50
594.99	287.89
595.15	252.78
595.31	257.46
595.47	259.80
595.62	149.79
595.78	273.84
595.94	294.91
596.10	234.05
596.25	269.16
596.41	248.10
596.57	252.78
596.73	210.65
596.88	208.31
597.04	273.84
597.20	313.63
597.36	339.38
597.51	294.91
597.67	301.93
597.83	285.55
597.99	301.93
598.14	220.01
598.30	283.20
598.46	290.23
598.61	243.42
598.77	287.89
598.93	297.25
599.09	301.93
599.24	250.44
599.40	201.29
599.56	262.14
599.71	236.39
599.87	236.39
600.03	215.33
600.18	250.44
600.34	280.86
600.50	243.42
600.65	227.03
600.81	290.23
600.97	217.67
601.12	224.69
601.28	198.95
601.44	245.76
601.59	234.05
601.75	306.61
601.91	283.20
602.06	212.99
602.22	344.06
602.37	248.10
602.53	264.48
602.69	308.95
602.84	285.55
603.00	163.84
603.16	259.80
603.31	313.63
603.47	208.31
603.62	177.88
603.78	252.78
603.94	264.48
604.09	224.69
604.25	182.56
604.40	315.97
604.56	255.12
604.71	341.72
604.87	168.52
605.03	294.91
605.18	308.95
605.34	257.46
605.49	154.48
605.65	229.37
605.80	229.37
605.96	311.29
606.12	252.78
606.27	245.76
606.43	234.05
606.58	234.05
606.74	217.67
606.89	210.65
607.05	337.04
607.20	315.97
607.36	311.29
607.51	318.31
607.67	208.31
607.82	269.16
607.98	297.25
608.13	308.95
608.29	224.69
608.44	292.57
608.60	315.97
608.75	306.61
608.91	308.95
609.06	358.10
609.22	362.78
609.37	341.72
609.53	379.17
609.68	404.91
609.84	379.17
609.99	376.83
610.15	318.31
610.30	510.24
610.46	601.52
610.61	559.39
610.76	596.84
610.92	737.27
