SpectraSuite Data File
++++++++++++++++++++++++++++++++++++
Date: Fri Oct 04 11:33:59 GMT-05:00 2013
User: price-jones
Dark Spectrum Present: No
Reference Spectrum Present: No
Number of Sampled Component Spectra: 1
Spectrometers: USB2+H05261
Integration Time (usec): 100000 (USB2+H05261)
Spectra Averaged: 1 (USB2+H05261)
Boxcar Smoothing: 0 (USB2+H05261)
Correct for Electrical Dark: No (USB2+H05261)
Strobe/Lamp Enabled: No (USB2+H05261)
Correct for Detector Non-linearity: No (USB2+H05261)
Correct for Stray Light: No (USB2+H05261)
Number of Pixels in Processed Spectrum: 2048
>>>>>Begin Processed Spectral Data<<<<<
365.73	107.66
365.92	107.66
366.12	107.66
366.32	0.00
366.52	0.00
366.72	0.00
366.91	0.00
367.11	0.00
367.31	0.00
367.51	0.00
367.70	0.00
367.90	14.04
368.10	0.00
368.30	0.00
368.49	0.00
368.69	0.00
368.89	0.00
369.09	0.00
369.28	60.85
369.48	0.00
369.68	0.00
369.87	44.47
370.07	30.43
370.27	91.28
370.47	65.54
370.66	0.00
370.86	25.75
371.06	140.43
371.25	121.71
371.45	135.75
371.65	86.60
371.84	91.28
372.04	39.79
372.24	126.39
372.44	7.02
372.63	72.56
372.83	152.13
373.03	133.41
373.22	102.98
373.42	110.01
373.62	93.62
373.81	142.77
374.01	95.96
374.21	131.07
374.40	138.09
374.60	201.29
374.79	140.43
374.99	203.63
375.19	159.16
375.38	114.69
375.58	114.69
375.78	173.20
375.97	81.92
376.17	168.52
376.37	126.39
376.56	98.30
376.76	170.86
376.95	147.45
377.15	102.98
377.35	138.09
377.54	138.09
377.74	154.48
377.93	133.41
378.13	128.73
378.33	135.75
378.52	149.79
378.72	166.18
378.91	203.63
379.11	65.54
379.31	74.90
379.50	149.79
379.70	65.54
379.89	187.24
380.09	168.52
380.28	91.28
380.48	110.01
380.68	105.32
380.87	110.01
381.07	238.73
381.26	159.16
381.46	168.52
381.65	107.66
381.85	147.45
382.04	72.56
382.24	241.08
382.43	81.92
382.63	105.32
382.83	142.77
383.02	149.79
383.22	159.16
383.41	112.35
383.61	131.07
383.80	243.42
384.00	177.88
384.19	140.43
384.39	147.45
384.58	114.69
384.78	147.45
384.97	121.71
385.17	128.73
385.36	128.73
385.56	182.56
385.75	138.09
385.95	182.56
386.14	180.22
386.34	159.16
386.53	114.69
386.72	107.66
386.92	163.84
387.11	149.79
387.31	95.96
387.50	105.32
387.70	117.03
387.89	135.75
388.09	173.20
388.28	102.98
388.48	170.86
388.67	168.52
388.86	159.16
389.06	114.69
389.25	149.79
389.45	168.52
389.64	149.79
389.84	208.31
390.03	161.50
390.22	91.28
390.42	133.41
390.61	126.39
390.81	175.54
391.00	154.48
391.19	231.71
391.39	138.09
391.58	180.22
391.78	243.42
391.97	121.71
392.16	152.13
392.36	159.16
392.55	110.01
392.75	100.64
392.94	152.13
393.13	84.26
393.33	91.28
393.52	74.90
393.71	166.18
393.91	110.01
394.10	175.54
394.29	149.79
394.49	95.96
394.68	119.37
394.88	168.52
395.07	128.73
395.26	110.01
395.46	72.56
395.65	161.50
395.84	161.50
396.04	194.26
396.23	91.28
396.42	161.50
396.62	95.96
396.81	177.88
397.00	100.64
397.19	196.60
397.39	42.13
397.58	175.54
397.77	147.45
397.97	105.32
398.16	124.05
398.35	152.13
398.55	86.60
398.74	140.43
398.93	180.22
399.12	156.82
399.32	152.13
399.51	163.84
399.70	205.97
399.90	149.79
400.09	180.22
400.28	189.58
400.47	177.88
400.67	175.54
400.86	126.39
401.05	182.56
401.24	222.35
401.44	154.48
401.63	107.66
401.82	110.01
402.01	189.58
402.21	163.84
402.40	156.82
402.59	173.20
402.78	173.20
402.97	159.16
403.17	98.30
403.36	142.77
403.55	198.95
403.74	152.13
403.93	187.24
404.13	177.88
404.32	163.84
404.51	222.35
404.70	140.43
404.89	159.16
405.09	203.63
405.28	133.41
405.47	159.16
405.66	56.17
405.85	205.97
406.05	100.64
406.24	187.24
406.43	187.24
406.62	70.22
406.81	194.26
407.00	81.92
407.20	166.18
407.39	135.75
407.58	140.43
407.77	203.63
407.96	175.54
408.15	170.86
408.34	201.29
408.54	110.01
408.73	189.58
408.92	112.35
409.11	112.35
409.30	110.01
409.49	100.64
409.68	161.50
409.87	138.09
410.07	149.79
410.26	161.50
410.45	124.05
410.64	117.03
410.83	156.82
411.02	215.33
411.21	191.92
411.40	170.86
411.59	184.90
411.78	149.79
411.98	145.11
412.17	112.35
412.36	63.19
412.55	124.05
412.74	210.65
412.93	184.90
413.12	135.75
413.31	168.52
413.50	194.26
413.69	168.52
413.88	208.31
414.07	173.20
414.26	114.69
414.45	149.79
414.64	161.50
414.83	217.67
415.02	205.97
415.22	184.90
415.41	217.67
415.60	170.86
415.79	124.05
415.98	152.13
416.17	184.90
416.36	227.03
416.55	161.50
416.74	156.82
416.93	201.29
417.12	156.82
417.31	140.43
417.50	166.18
417.69	168.52
417.88	102.98
418.07	131.07
418.26	194.26
418.45	145.11
418.64	220.01
418.83	238.73
419.02	163.84
419.21	147.45
419.39	173.20
419.58	145.11
419.77	131.07
419.96	180.22
420.15	117.03
420.34	241.08
420.53	208.31
420.72	154.48
420.91	217.67
421.10	107.66
421.29	208.31
421.48	110.01
421.67	147.45
421.86	154.48
422.05	180.22
422.24	166.18
422.43	170.86
422.61	156.82
422.80	191.92
422.99	149.79
423.18	74.90
423.37	187.24
423.56	173.20
423.75	138.09
423.94	182.56
424.13	124.05
424.32	161.50
424.50	145.11
424.69	196.60
424.88	184.90
425.07	154.48
425.26	161.50
425.45	191.92
425.64	156.82
425.83	154.48
426.01	154.48
426.20	149.79
426.39	93.62
426.58	161.50
426.77	156.82
426.96	234.05
427.15	117.03
427.33	203.63
427.52	187.24
427.71	77.24
427.90	105.32
428.09	110.01
428.28	182.56
428.46	215.33
428.65	243.42
428.84	159.16
429.03	203.63
429.22	149.79
429.40	245.76
429.59	196.60
429.78	210.65
429.97	224.69
430.16	149.79
430.34	149.79
430.53	126.39
430.72	142.77
430.91	180.22
431.10	93.62
431.28	119.37
431.47	217.67
431.66	149.79
431.85	170.86
432.03	210.65
432.22	208.31
432.41	173.20
432.60	93.62
432.79	175.54
432.97	159.16
433.16	205.97
433.35	156.82
433.54	203.63
433.72	152.13
433.91	154.48
434.10	156.82
434.28	210.65
434.47	203.63
434.66	145.11
434.85	180.22
435.03	234.05
435.22	257.46
435.41	428.32
435.59	325.33
435.78	280.86
435.97	201.29
436.16	271.50
436.34	189.58
436.53	257.46
436.72	154.48
436.90	152.13
437.09	149.79
437.28	201.29
437.46	191.92
437.65	234.05
437.84	210.65
438.02	210.65
438.21	203.63
438.40	140.43
438.58	159.16
438.77	161.50
438.96	173.20
439.14	187.24
439.33	229.37
439.52	156.82
439.70	128.73
439.89	217.67
440.08	182.56
440.26	180.22
440.45	147.45
440.63	234.05
440.82	234.05
441.01	227.03
441.19	215.33
441.38	135.75
441.57	156.82
441.75	241.08
441.94	187.24
442.12	276.18
442.31	163.84
442.50	248.10
442.68	243.42
442.87	227.03
443.05	138.09
443.24	203.63
443.43	182.56
443.61	222.35
443.80	161.50
443.98	142.77
444.17	201.29
444.35	243.42
444.54	114.69
444.73	234.05
444.91	191.92
445.10	119.37
445.28	180.22
445.47	205.97
445.65	170.86
445.84	173.20
446.02	112.35
446.21	217.67
446.39	156.82
446.58	135.75
446.77	208.31
446.95	217.67
447.14	264.48
447.32	170.86
447.51	147.45
447.69	131.07
447.88	175.54
448.06	198.95
448.25	201.29
448.43	114.69
448.62	84.26
448.80	203.63
448.99	236.39
449.17	241.08
449.36	210.65
449.54	203.63
449.73	161.50
449.91	187.24
450.10	203.63
450.28	227.03
450.46	238.73
450.65	173.20
450.83	107.66
451.02	166.18
451.20	154.48
451.39	227.03
451.57	140.43
451.76	180.22
451.94	131.07
452.13	234.05
452.31	163.84
452.49	198.95
452.68	227.03
452.86	170.86
453.05	210.65
453.23	152.13
453.42	166.18
453.60	128.73
453.78	217.67
453.97	168.52
454.15	194.26
454.34	201.29
454.52	149.79
454.70	198.95
454.89	159.16
455.07	156.82
455.26	196.60
455.44	194.26
455.62	168.52
455.81	177.88
455.99	175.54
456.17	238.73
456.36	184.90
456.54	184.90
456.73	229.37
456.91	205.97
457.09	196.60
457.28	180.22
457.46	168.52
457.64	184.90
457.83	177.88
458.01	173.20
458.19	187.24
458.38	154.48
458.56	194.26
458.74	133.41
458.93	140.43
459.11	191.92
459.29	177.88
459.48	161.50
459.66	210.65
459.84	201.29
460.03	308.95
460.21	248.10
460.39	252.78
460.57	224.69
460.76	234.05
460.94	194.26
461.12	210.65
461.31	142.77
461.49	163.84
461.67	177.88
461.85	212.99
462.04	201.29
462.22	664.71
462.40	217.67
462.59	304.27
462.77	238.73
462.95	175.54
463.13	170.86
463.32	278.52
463.50	210.65
463.68	229.37
463.86	203.63
464.05	168.52
464.23	266.82
464.41	241.08
464.59	180.22
464.78	184.90
464.96	149.79
465.14	173.20
465.32	163.84
465.50	189.58
465.69	196.60
465.87	159.16
466.05	222.35
466.23	152.13
466.41	196.60
466.60	224.69
466.78	238.73
466.96	177.88
467.14	238.73
467.32	215.33
467.51	189.58
467.69	252.78
467.87	245.76
468.05	187.24
468.23	243.42
468.41	196.60
468.60	189.58
468.78	215.33
468.96	156.82
469.14	259.80
469.32	86.60
469.50	182.56
469.69	177.88
469.87	166.18
470.05	187.24
470.23	205.97
470.41	140.43
470.59	205.97
470.77	196.60
470.95	187.24
471.14	262.14
471.32	128.73
471.50	234.05
471.68	248.10
471.86	208.31
472.04	210.65
472.22	91.28
472.40	133.41
472.58	168.52
472.77	175.54
472.95	222.35
473.13	229.37
473.31	285.55
473.49	201.29
473.67	234.05
473.85	175.54
474.03	198.95
474.21	152.13
474.39	262.14
474.57	215.33
474.75	196.60
474.93	205.97
475.12	135.75
475.30	198.95
475.48	198.95
475.66	121.71
475.84	191.92
476.02	201.29
476.20	241.08
476.38	191.92
476.56	294.91
476.74	201.29
476.92	236.39
477.10	215.33
477.28	243.42
477.46	107.66
477.64	236.39
477.82	170.86
478.00	252.78
478.18	189.58
478.36	191.92
478.54	196.60
478.72	191.92
478.90	273.84
479.08	241.08
479.26	205.97
479.44	245.76
479.62	147.45
479.80	210.65
479.98	173.20
480.16	255.12
480.34	194.26
480.52	196.60
480.70	238.73
480.88	238.73
481.06	189.58
481.24	173.20
481.41	194.26
481.59	215.33
481.77	196.60
481.95	201.29
482.13	245.76
482.31	250.44
482.49	212.99
482.67	140.43
482.85	255.12
483.03	194.26
483.21	210.65
483.39	191.92
483.57	140.43
483.74	318.31
483.92	248.10
484.10	252.78
484.28	220.01
484.46	238.73
484.64	198.95
484.82	304.27
485.00	180.22
485.18	212.99
485.35	180.22
485.53	173.20
485.71	222.35
485.89	210.65
486.07	210.65
486.25	290.23
486.43	229.37
486.61	304.27
486.78	278.52
486.96	166.18
487.14	135.75
487.32	250.44
487.50	173.20
487.68	278.52
487.85	166.18
488.03	294.91
488.21	283.20
488.39	243.42
488.57	212.99
488.75	259.80
488.92	543.00
489.10	271.50
489.28	325.33
489.46	304.27
489.64	231.71
489.81	287.89
489.99	341.72
490.17	241.08
490.35	234.05
490.53	212.99
490.70	248.10
490.88	154.48
491.06	220.01
491.24	259.80
491.41	322.99
491.59	243.42
491.77	241.08
491.95	285.55
492.13	231.71
492.30	229.37
492.48	220.01
492.66	287.89
492.84	257.46
493.01	330.02
493.19	196.60
493.37	308.95
493.54	269.16
493.72	208.31
493.90	304.27
494.08	184.90
494.25	262.14
494.43	287.89
494.61	227.03
494.79	187.24
494.96	236.39
495.14	250.44
495.32	257.46
495.49	276.18
495.67	252.78
495.85	208.31
496.02	220.01
496.20	287.89
496.38	315.97
496.55	168.52
496.73	280.86
496.91	229.37
497.09	290.23
497.26	259.80
497.44	269.16
497.62	182.56
497.79	262.14
497.97	271.50
498.14	222.35
498.32	203.63
498.50	243.42
498.67	297.25
498.85	205.97
499.03	280.86
499.20	287.89
499.38	276.18
499.56	322.99
499.73	236.39
499.91	311.29
500.08	201.29
500.26	191.92
500.44	212.99
500.61	227.03
500.79	227.03
500.97	201.29
501.14	278.52
501.32	294.91
501.49	294.91
501.67	159.16
501.84	252.78
502.02	283.20
502.20	269.16
502.37	262.14
502.55	227.03
502.72	191.92
502.90	234.05
503.07	210.65
503.25	332.36
503.43	201.29
503.60	234.05
503.78	315.97
503.95	184.90
504.13	166.18
504.30	290.23
504.48	262.14
504.65	315.97
504.83	283.20
505.01	308.95
505.18	224.69
505.36	238.73
505.53	238.73
505.71	196.60
505.88	318.31
506.06	248.10
506.23	170.86
506.41	205.97
506.58	243.42
506.76	276.18
506.93	238.73
507.11	297.25
507.28	215.33
507.46	250.44
507.63	241.08
507.81	180.22
507.98	255.12
508.16	276.18
508.33	278.52
508.50	262.14
508.68	250.44
508.85	222.35
509.03	252.78
509.20	283.20
509.38	283.20
509.55	203.63
509.73	245.76
509.90	227.03
510.08	252.78
510.25	229.37
510.42	285.55
510.60	255.12
510.77	236.39
510.95	234.05
511.12	259.80
511.30	245.76
511.47	255.12
511.64	294.91
511.82	210.65
511.99	283.20
512.17	292.57
512.34	271.50
512.51	220.01
512.69	243.42
512.86	294.91
513.04	236.39
513.21	198.95
513.38	241.08
513.56	222.35
513.73	276.18
513.90	168.52
514.08	243.42
514.25	234.05
514.43	198.95
514.60	248.10
514.77	161.50
514.95	184.90
515.12	220.01
515.29	245.76
515.47	198.95
515.64	222.35
515.81	294.91
515.99	238.73
516.16	313.63
516.33	290.23
516.51	241.08
516.68	145.11
516.85	318.31
517.03	301.93
517.20	205.97
517.37	241.08
517.54	245.76
517.72	234.05
517.89	196.60
518.06	191.92
518.24	203.63
518.41	320.65
518.58	236.39
518.75	255.12
518.93	276.18
519.10	257.46
519.27	278.52
519.45	191.92
519.62	205.97
519.79	327.68
519.96	203.63
520.14	290.23
520.31	292.57
520.48	255.12
520.65	259.80
520.83	198.95
521.00	276.18
521.17	262.14
521.34	278.52
521.52	269.16
521.69	271.50
521.86	234.05
522.03	182.56
522.20	353.42
522.38	252.78
522.55	262.14
522.72	205.97
522.89	299.59
523.07	257.46
523.24	248.10
523.41	252.78
523.58	224.69
523.75	248.10
523.92	315.97
524.10	231.71
524.27	278.52
524.44	334.70
524.61	290.23
524.78	238.73
524.96	280.86
525.13	210.65
525.30	278.52
525.47	313.63
525.64	271.50
525.81	241.08
525.98	243.42
526.16	203.63
526.33	266.82
526.50	252.78
526.67	182.56
526.84	231.71
527.01	257.46
527.18	266.82
527.36	198.95
527.53	285.55
527.70	320.65
527.87	222.35
528.04	325.33
528.21	301.93
528.38	348.74
528.55	299.59
528.72	337.04
528.89	252.78
529.07	311.29
529.24	194.26
529.41	297.25
529.58	229.37
529.75	208.31
529.92	271.50
530.09	266.82
530.26	250.44
530.43	273.84
530.60	238.73
530.77	287.89
530.94	308.95
531.11	332.36
531.28	241.08
531.46	308.95
531.63	297.25
531.80	262.14
531.97	245.76
532.14	297.25
532.31	250.44
532.48	294.91
532.65	311.29
532.82	236.39
532.99	222.35
533.16	325.33
533.33	273.84
533.50	318.31
533.67	248.10
533.84	257.46
534.01	238.73
534.18	222.35
534.35	234.05
534.52	278.52
534.69	262.14
534.86	198.95
535.03	273.84
535.20	285.55
535.37	252.78
535.54	271.50
535.71	224.69
535.88	266.82
536.05	234.05
536.22	269.16
536.38	297.25
536.55	376.83
536.72	341.72
536.89	236.39
537.06	248.10
537.23	271.50
537.40	243.42
537.57	285.55
537.74	330.02
537.91	283.20
538.08	320.65
538.25	327.68
538.42	280.86
538.59	304.27
538.75	283.20
538.92	194.26
539.09	320.65
539.26	301.93
539.43	315.97
539.60	311.29
539.77	299.59
539.94	456.40
540.11	287.89
540.28	402.57
540.44	311.29
540.61	369.80
540.78	339.38
540.95	386.19
541.12	484.49
541.29	423.64
541.46	416.62
541.62	472.79
541.79	437.68
541.96	491.51
542.13	423.64
542.30	365.12
542.47	400.23
542.63	444.70
542.80	379.17
542.97	430.66
543.14	386.19
543.31	414.27
543.48	383.85
543.64	409.59
543.81	351.08
543.98	407.25
544.15	337.04
544.32	402.57
544.48	465.77
544.65	425.98
544.82	376.83
544.99	355.76
545.16	428.32
545.32	418.96
545.49	671.73
545.66	713.86
545.83	706.84
546.00	758.33
546.16	500.87
546.33	543.00
546.50	395.55
546.67	433.00
546.83	409.59
547.00	435.34
547.17	360.44
547.34	428.32
547.50	414.27
547.67	367.46
547.84	315.97
548.00	388.53
548.17	372.15
548.34	311.29
548.51	355.76
548.67	388.53
548.84	372.15
549.01	327.68
549.18	308.95
549.34	290.23
549.51	266.82
549.68	325.33
549.84	325.33
550.01	285.55
550.18	376.83
550.34	376.83
550.51	327.68
550.68	315.97
550.84	234.05
551.01	334.70
551.18	299.59
551.34	280.86
551.51	362.78
551.68	341.72
551.84	325.33
552.01	287.89
552.18	304.27
552.34	304.27
552.51	330.02
552.68	278.52
552.84	173.20
553.01	201.29
553.18	313.63
553.34	344.06
553.51	351.08
553.67	306.61
553.84	273.84
554.01	322.99
554.17	222.35
554.34	351.08
554.51	234.05
554.67	238.73
554.84	273.84
555.00	301.93
555.17	191.92
555.33	262.14
555.50	220.01
555.67	234.05
555.83	234.05
556.00	245.76
556.16	376.83
556.33	264.48
556.50	318.31
556.66	278.52
556.83	159.16
556.99	245.76
557.16	283.20
557.32	234.05
557.49	231.71
557.65	262.14
557.82	294.91
557.98	255.12
558.15	208.31
558.32	280.86
558.48	182.56
558.65	248.10
558.81	238.73
558.98	175.54
559.14	238.73
559.31	217.67
559.47	273.84
559.64	264.48
559.80	245.76
559.97	215.33
560.13	236.39
560.30	205.97
560.46	224.69
560.63	348.74
560.79	294.91
560.96	304.27
561.12	313.63
561.29	217.67
561.45	189.58
561.61	313.63
561.78	344.06
561.94	278.52
562.11	273.84
562.27	264.48
562.44	248.10
562.60	248.10
562.77	278.52
562.93	346.40
563.10	290.23
563.26	304.27
563.42	203.63
563.59	292.57
563.75	196.60
563.92	285.55
564.08	217.67
564.24	252.78
564.41	306.61
564.57	175.54
564.74	266.82
564.90	241.08
565.07	280.86
565.23	278.52
565.39	198.95
565.56	276.18
565.72	241.08
565.88	273.84
566.05	285.55
566.21	220.01
566.38	271.50
566.54	283.20
566.70	269.16
566.87	238.73
567.03	168.52
567.19	259.80
567.36	332.36
567.52	280.86
567.68	273.84
567.85	231.71
568.01	241.08
568.17	285.55
568.34	217.67
568.50	306.61
568.66	255.12
568.83	287.89
568.99	210.65
569.15	245.76
569.32	229.37
569.48	210.65
569.64	189.58
569.81	301.93
569.97	250.44
570.13	212.99
570.30	290.23
570.46	210.65
570.62	283.20
570.78	250.44
570.95	266.82
571.11	243.42
571.27	241.08
571.43	159.16
571.60	257.46
571.76	297.25
571.92	245.76
572.09	278.52
572.25	266.82
572.41	294.91
572.57	325.33
572.74	318.31
572.90	250.44
573.06	234.05
573.22	222.35
573.38	311.29
573.55	301.93
573.71	290.23
573.87	227.03
574.03	243.42
574.20	278.52
574.36	212.99
574.52	255.12
574.68	252.78
574.84	259.80
575.01	208.31
575.17	301.93
575.33	276.18
575.49	203.63
575.65	238.73
575.82	299.59
575.98	292.57
576.14	217.67
576.30	311.29
576.46	217.67
576.62	334.70
576.79	332.36
576.95	313.63
577.11	238.73
577.27	280.86
577.43	250.44
577.59	255.12
577.75	257.46
577.92	222.35
578.08	210.65
578.24	191.92
578.40	280.86
578.56	376.83
578.72	334.70
578.88	400.23
579.04	353.42
579.21	292.57
579.37	231.71
579.53	255.12
579.69	299.59
579.85	266.82
580.01	311.29
580.17	330.02
580.33	301.93
580.49	278.52
580.65	306.61
580.82	273.84
580.98	325.33
581.14	220.01
581.30	248.10
581.46	231.71
581.62	304.27
581.78	194.26
581.94	358.10
582.10	229.37
582.26	322.99
582.42	238.73
582.58	252.78
582.74	222.35
582.90	327.68
583.06	262.14
583.22	294.91
583.38	271.50
583.54	294.91
583.70	369.80
583.86	299.59
584.02	215.33
584.18	301.93
584.34	290.23
584.50	355.76
584.66	854.30
584.82	1762.42
584.98	2230.53
585.14	2045.63
585.30	1533.05
585.46	983.02
585.62	683.44
585.78	440.02
585.94	283.20
586.10	346.40
586.26	325.33
586.42	262.14
586.58	269.16
586.74	266.82
586.90	348.74
587.06	339.38
587.22	318.31
587.38	367.46
587.54	320.65
587.70	404.91
587.86	421.30
588.02	444.70
588.18	367.46
588.34	308.95
588.49	259.80
588.65	304.27
588.81	306.61
588.97	210.65
589.13	278.52
589.29	271.50
589.45	315.97
589.61	241.08
589.77	271.50
589.93	255.12
590.08	292.57
590.24	212.99
590.40	315.97
590.56	243.42
590.72	184.90
590.88	259.80
591.04	212.99
591.20	297.25
591.35	292.57
591.51	304.27
591.67	236.39
591.83	276.18
591.99	315.97
592.15	318.31
592.31	262.14
592.46	339.38
592.62	311.29
592.78	250.44
592.94	322.99
593.10	280.86
593.26	224.69
593.41	259.80
593.57	196.60
593.73	311.29
593.89	346.40
594.05	409.59
594.20	475.13
594.36	456.40
594.52	458.74
594.68	283.20
594.84	332.36
594.99	344.06
595.15	266.82
595.31	292.57
595.47	266.82
595.62	266.82
595.78	248.10
595.94	208.31
596.10	283.20
596.25	255.12
596.41	243.42
596.57	182.56
596.73	276.18
596.88	245.76
597.04	250.44
597.20	332.36
597.36	360.44
597.51	299.59
597.67	252.78
597.83	227.03
597.99	236.39
598.14	180.22
598.30	264.48
598.46	212.99
598.61	318.31
598.77	339.38
598.93	229.37
599.09	255.12
599.24	346.40
599.40	259.80
599.56	297.25
599.71	208.31
599.87	266.82
600.03	248.10
600.18	168.52
600.34	264.48
600.50	220.01
600.65	212.99
600.81	252.78
600.97	227.03
601.12	231.71
601.28	308.95
601.44	220.01
601.59	156.82
601.75	205.97
601.91	212.99
602.06	234.05
602.22	374.49
602.37	276.18
602.53	234.05
602.69	346.40
602.84	318.31
603.00	325.33
603.16	299.59
603.31	299.59
603.47	266.82
603.62	191.92
603.78	236.39
603.94	262.14
604.09	152.13
604.25	227.03
604.40	257.46
604.56	212.99
604.71	196.60
604.87	304.27
605.03	217.67
605.18	308.95
605.34	311.29
605.49	203.63
605.65	276.18
605.80	215.33
605.96	191.92
606.12	297.25
606.27	383.85
606.43	299.59
606.58	224.69
606.74	285.55
606.89	257.46
607.05	428.32
607.20	517.26
607.36	447.04
607.51	425.98
607.67	294.91
607.82	341.72
607.98	374.49
608.13	325.33
608.29	222.35
608.44	346.40
608.60	327.68
608.75	341.72
608.91	238.73
609.06	437.68
609.22	561.73
609.37	678.76
609.53	594.50
609.68	592.16
609.84	503.22
609.99	437.68
610.15	463.43
610.30	430.66
610.46	517.26
610.61	655.35
610.76	608.54
610.92	685.78
