SpectraSuite Data File
++++++++++++++++++++++++++++++++++++
Date: Fri Oct 04 11:33:58 GMT-05:00 2013
User: price-jones
Dark Spectrum Present: No
Reference Spectrum Present: No
Number of Sampled Component Spectra: 1
Spectrometers: USB2+H05261
Integration Time (usec): 100000 (USB2+H05261)
Spectra Averaged: 1 (USB2+H05261)
Boxcar Smoothing: 0 (USB2+H05261)
Correct for Electrical Dark: No (USB2+H05261)
Strobe/Lamp Enabled: No (USB2+H05261)
Correct for Detector Non-linearity: No (USB2+H05261)
Correct for Stray Light: No (USB2+H05261)
Number of Pixels in Processed Spectrum: 2048
>>>>>Begin Processed Spectral Data<<<<<
365.73	60.85
365.92	60.85
366.12	60.85
366.32	14.04
366.52	0.00
366.72	0.00
366.91	2.34
367.11	0.00
367.31	0.00
367.51	0.00
367.70	28.09
367.90	39.79
368.10	0.00
368.30	0.00
368.49	0.00
368.69	0.00
368.89	0.00
369.09	0.00
369.28	11.70
369.48	46.81
369.68	0.00
369.87	37.45
370.07	0.00
370.27	79.58
370.47	0.00
370.66	58.51
370.86	74.90
371.06	81.92
371.25	112.35
371.45	74.90
371.65	117.03
371.84	79.58
372.04	44.47
372.24	147.45
372.44	117.03
372.63	95.96
372.83	117.03
373.03	142.77
373.22	133.41
373.42	88.94
373.62	119.37
373.81	203.63
374.01	189.58
374.21	205.97
374.40	156.82
374.60	180.22
374.79	159.16
374.99	166.18
375.19	170.86
375.38	187.24
375.58	105.32
375.78	156.82
375.97	243.42
376.17	245.76
376.37	79.58
376.56	198.95
376.76	173.20
376.95	154.48
377.15	236.39
377.35	131.07
377.54	105.32
377.74	95.96
377.93	63.19
378.13	133.41
378.33	182.56
378.52	100.64
378.72	177.88
378.91	194.26
379.11	170.86
379.31	156.82
379.50	95.96
379.70	159.16
379.89	124.05
380.09	142.77
380.28	173.20
380.48	154.48
380.68	126.39
380.87	184.90
381.07	159.16
381.26	140.43
381.46	196.60
381.65	140.43
381.85	140.43
382.04	126.39
382.24	121.71
382.43	203.63
382.63	100.64
382.83	140.43
383.02	177.88
383.22	138.09
383.41	81.92
383.61	140.43
383.80	100.64
384.00	100.64
384.19	154.48
384.39	51.49
384.58	126.39
384.78	138.09
384.97	154.48
385.17	180.22
385.36	124.05
385.56	163.84
385.75	53.83
385.95	126.39
386.14	133.41
386.34	67.88
386.53	138.09
386.72	98.30
386.92	198.95
387.11	112.35
387.31	156.82
387.50	142.77
387.70	117.03
387.89	119.37
388.09	114.69
388.28	112.35
388.48	147.45
388.67	177.88
388.86	177.88
389.06	77.24
389.25	168.52
389.45	166.18
389.64	166.18
389.84	163.84
390.03	147.45
390.22	147.45
390.42	53.83
390.61	135.75
390.81	180.22
391.00	201.29
391.19	138.09
391.39	140.43
391.58	56.17
391.78	166.18
391.97	100.64
392.16	124.05
392.36	166.18
392.55	222.35
392.75	124.05
392.94	91.28
393.13	154.48
393.33	60.85
393.52	184.90
393.71	182.56
393.91	212.99
394.10	152.13
394.29	168.52
394.49	140.43
394.68	189.58
394.88	170.86
395.07	140.43
395.26	138.09
395.46	180.22
395.65	117.03
395.84	156.82
396.04	212.99
396.23	187.24
396.42	88.94
396.62	168.52
396.81	166.18
397.00	152.13
397.19	119.37
397.39	147.45
397.58	147.45
397.77	128.73
397.97	145.11
398.16	156.82
398.35	182.56
398.55	128.73
398.74	198.95
398.93	191.92
399.12	79.58
399.32	140.43
399.51	88.94
399.70	112.35
399.90	189.58
400.09	131.07
400.28	170.86
400.47	142.77
400.67	156.82
400.86	210.65
401.05	173.20
401.24	147.45
401.44	128.73
401.63	168.52
401.82	145.11
402.01	98.30
402.21	163.84
402.40	170.86
402.59	133.41
402.78	163.84
402.97	177.88
403.17	147.45
403.36	161.50
403.55	166.18
403.74	182.56
403.93	182.56
404.13	205.97
404.32	224.69
404.51	173.20
404.70	131.07
404.89	131.07
405.09	152.13
405.28	217.67
405.47	126.39
405.66	142.77
405.85	182.56
406.05	166.18
406.24	159.16
406.43	74.90
406.62	269.16
406.81	175.54
407.00	180.22
407.20	168.52
407.39	142.77
407.58	133.41
407.77	177.88
407.96	187.24
408.15	212.99
408.34	184.90
408.54	163.84
408.73	152.13
408.92	149.79
409.11	210.65
409.30	250.44
409.49	173.20
409.68	121.71
409.87	177.88
410.07	147.45
410.26	182.56
410.45	182.56
410.64	117.03
410.83	159.16
411.02	175.54
411.21	210.65
411.40	140.43
411.59	131.07
411.78	161.50
411.98	112.35
412.17	142.77
412.36	187.24
412.55	170.86
412.74	86.60
412.93	131.07
413.12	121.71
413.31	138.09
413.50	93.62
413.69	166.18
413.88	250.44
414.07	201.29
414.26	163.84
414.45	166.18
414.64	140.43
414.83	140.43
415.02	198.95
415.22	133.41
415.41	175.54
415.60	189.58
415.79	145.11
415.98	231.71
416.17	184.90
416.36	126.39
416.55	205.97
416.74	177.88
416.93	180.22
417.12	147.45
417.31	201.29
417.50	149.79
417.69	269.16
417.88	241.08
418.07	149.79
418.26	175.54
418.45	201.29
418.64	203.63
418.83	173.20
419.02	210.65
419.21	212.99
419.39	159.16
419.58	210.65
419.77	238.73
419.96	217.67
420.15	205.97
420.34	297.25
420.53	168.52
420.72	231.71
420.91	154.48
421.10	245.76
421.29	170.86
421.48	133.41
421.67	166.18
421.86	222.35
422.05	227.03
422.24	138.09
422.43	154.48
422.61	231.71
422.80	156.82
422.99	170.86
423.18	241.08
423.37	187.24
423.56	154.48
423.75	234.05
423.94	102.98
424.13	229.37
424.32	241.08
424.50	168.52
424.69	156.82
424.88	184.90
425.07	177.88
425.26	191.92
425.45	264.48
425.64	236.39
425.83	189.58
426.01	269.16
426.20	175.54
426.39	161.50
426.58	191.92
426.77	201.29
426.96	189.58
427.15	201.29
427.33	140.43
427.52	184.90
427.71	140.43
427.90	135.75
428.09	182.56
428.28	161.50
428.46	170.86
428.65	224.69
428.84	234.05
429.03	236.39
429.22	215.33
429.40	180.22
429.59	133.41
429.78	210.65
429.97	203.63
430.16	145.11
430.34	149.79
430.53	257.46
430.72	212.99
430.91	161.50
431.10	191.92
431.28	145.11
431.47	224.69
431.66	255.12
431.85	140.43
432.03	243.42
432.22	205.97
432.41	229.37
432.60	201.29
432.79	245.76
432.97	271.50
433.16	224.69
433.35	220.01
433.54	212.99
433.72	184.90
433.91	121.71
434.10	208.31
434.28	212.99
434.47	212.99
434.66	262.14
434.85	210.65
435.03	182.56
435.22	344.06
435.41	514.92
435.59	395.55
435.78	341.72
435.97	259.80
436.16	217.67
436.34	217.67
436.53	154.48
436.72	180.22
436.90	201.29
437.09	205.97
437.28	161.50
437.46	220.01
437.65	124.05
437.84	138.09
438.02	215.33
438.21	175.54
438.40	140.43
438.58	173.20
438.77	180.22
438.96	163.84
439.14	187.24
439.33	269.16
439.52	187.24
439.70	149.79
439.89	147.45
440.08	175.54
440.26	170.86
440.45	224.69
440.63	142.77
440.82	177.88
441.01	201.29
441.19	187.24
441.38	208.31
441.57	217.67
441.75	198.95
441.94	168.52
442.12	215.33
442.31	201.29
442.50	159.16
442.68	187.24
442.87	140.43
443.05	184.90
443.24	250.44
443.43	231.71
443.61	147.45
443.80	173.20
443.98	180.22
444.17	140.43
444.35	212.99
444.54	198.95
444.73	156.82
444.91	194.26
445.10	128.73
445.28	175.54
445.47	131.07
445.65	156.82
445.84	224.69
446.02	170.86
446.21	191.92
446.39	133.41
446.58	182.56
446.77	177.88
446.95	196.60
447.14	194.26
447.32	266.82
447.51	259.80
447.69	91.28
447.88	180.22
448.06	124.05
448.25	154.48
448.43	215.33
448.62	119.37
448.80	248.10
448.99	241.08
449.17	156.82
449.36	131.07
449.54	245.76
449.73	217.67
449.91	196.60
450.10	180.22
450.28	243.42
450.46	259.80
450.65	306.61
450.83	229.37
451.02	210.65
451.20	210.65
451.39	168.52
451.57	175.54
451.76	222.35
451.94	133.41
452.13	184.90
452.31	269.16
452.49	135.75
452.68	152.13
452.86	227.03
453.05	243.42
453.23	175.54
453.42	210.65
453.60	95.96
453.78	145.11
453.97	126.39
454.15	140.43
454.34	201.29
454.52	191.92
454.70	241.08
454.89	203.63
455.07	189.58
455.26	217.67
455.44	236.39
455.62	161.50
455.81	241.08
455.99	224.69
456.17	168.52
456.36	159.16
456.54	168.52
456.73	201.29
456.91	133.41
457.09	163.84
457.28	203.63
457.46	224.69
457.64	205.97
457.83	210.65
458.01	170.86
458.19	156.82
458.38	152.13
458.56	212.99
458.74	187.24
458.93	212.99
459.11	177.88
459.29	222.35
459.48	180.22
459.66	210.65
459.84	210.65
460.03	217.67
460.21	255.12
460.39	241.08
460.57	163.84
460.76	208.31
460.94	229.37
461.12	238.73
461.31	208.31
461.49	259.80
461.67	210.65
461.85	278.52
462.04	184.90
462.22	627.26
462.40	245.76
462.59	205.97
462.77	135.75
462.95	145.11
463.13	170.86
463.32	205.97
463.50	100.64
463.68	222.35
463.86	198.95
464.05	189.58
464.23	212.99
464.41	210.65
464.59	173.20
464.78	210.65
464.96	166.18
465.14	191.92
465.32	196.60
465.50	205.97
465.69	194.26
465.87	203.63
466.05	212.99
466.23	196.60
466.41	220.01
466.60	154.48
466.78	198.95
466.96	217.67
467.14	222.35
467.32	229.37
467.51	208.31
467.69	238.73
467.87	280.86
468.05	212.99
468.23	224.69
468.41	238.73
468.60	252.78
468.78	217.67
468.96	201.29
469.14	292.57
469.32	184.90
469.50	205.97
469.69	201.29
469.87	241.08
470.05	245.76
470.23	198.95
470.41	149.79
470.59	168.52
470.77	210.65
470.95	156.82
471.14	278.52
471.32	124.05
471.50	220.01
471.68	194.26
471.86	145.11
472.04	147.45
472.22	212.99
472.40	262.14
472.58	184.90
472.77	224.69
472.95	177.88
473.13	264.48
473.31	292.57
473.49	140.43
473.67	271.50
473.85	210.65
474.03	205.97
474.21	184.90
474.39	283.20
474.57	198.95
474.75	220.01
474.93	224.69
475.12	184.90
475.30	271.50
475.48	273.84
475.66	189.58
475.84	224.69
476.02	241.08
476.20	135.75
476.38	173.20
476.56	231.71
476.74	234.05
476.92	175.54
477.10	210.65
477.28	243.42
477.46	161.50
477.64	250.44
477.82	210.65
478.00	208.31
478.18	182.56
478.36	196.60
478.54	182.56
478.72	234.05
478.90	168.52
479.08	203.63
479.26	156.82
479.44	205.97
479.62	175.54
479.80	194.26
479.98	173.20
480.16	217.67
480.34	245.76
480.52	154.48
480.70	180.22
480.88	156.82
481.06	220.01
481.24	243.42
481.41	224.69
481.59	278.52
481.77	220.01
481.95	205.97
482.13	255.12
482.31	264.48
482.49	133.41
482.67	234.05
482.85	212.99
483.03	273.84
483.21	238.73
483.39	198.95
483.57	283.20
483.74	276.18
483.92	243.42
484.10	299.59
484.28	224.69
484.46	297.25
484.64	149.79
484.82	245.76
485.00	238.73
485.18	271.50
485.35	255.12
485.53	234.05
485.71	222.35
485.89	208.31
486.07	224.69
486.25	315.97
486.43	280.86
486.61	241.08
486.78	262.14
486.96	278.52
487.14	191.92
487.32	278.52
487.50	290.23
487.68	294.91
487.85	257.46
488.03	262.14
488.21	325.33
488.39	241.08
488.57	220.01
488.75	243.42
488.92	461.09
489.10	259.80
489.28	243.42
489.46	250.44
489.64	264.48
489.81	276.18
489.99	266.82
490.17	262.14
490.35	320.65
490.53	308.95
490.70	238.73
490.88	299.59
491.06	224.69
491.24	320.65
491.41	362.78
491.59	180.22
491.77	255.12
491.95	217.67
492.13	208.31
492.30	238.73
492.48	220.01
492.66	248.10
492.84	278.52
493.01	266.82
493.19	273.84
493.37	330.02
493.54	273.84
493.72	306.61
493.90	259.80
494.08	257.46
494.25	210.65
494.43	367.46
494.61	332.36
494.79	180.22
494.96	194.26
495.14	273.84
495.32	238.73
495.49	264.48
495.67	248.10
495.85	224.69
496.02	189.58
496.20	215.33
496.38	285.55
496.55	227.03
496.73	266.82
496.91	322.99
497.09	280.86
497.26	212.99
497.44	266.82
497.62	278.52
497.79	264.48
497.97	273.84
498.14	290.23
498.32	278.52
498.50	266.82
498.67	280.86
498.85	318.31
499.03	280.86
499.20	198.95
499.38	191.92
499.56	236.39
499.73	273.84
499.91	290.23
500.08	285.55
500.26	248.10
500.44	236.39
500.61	257.46
500.79	187.24
500.97	250.44
501.14	264.48
501.32	318.31
501.49	241.08
501.67	238.73
501.84	234.05
502.02	184.90
502.20	290.23
502.37	271.50
502.55	224.69
502.72	252.78
502.90	224.69
503.07	259.80
503.25	269.16
503.43	271.50
503.60	250.44
503.78	243.42
503.95	175.54
504.13	201.29
504.30	198.95
504.48	259.80
504.65	283.20
504.83	264.48
505.01	252.78
505.18	271.50
505.36	271.50
505.53	196.60
505.71	243.42
505.88	292.57
506.06	220.01
506.23	243.42
506.41	224.69
506.58	182.56
506.76	255.12
506.93	278.52
507.11	215.33
507.28	283.20
507.46	259.80
507.63	201.29
507.81	259.80
507.98	276.18
508.16	250.44
508.33	215.33
508.50	306.61
508.68	304.27
508.85	294.91
509.03	306.61
509.20	259.80
509.38	269.16
509.55	243.42
509.73	341.72
509.90	299.59
510.08	222.35
510.25	255.12
510.42	264.48
510.60	238.73
510.77	273.84
510.95	304.27
511.12	257.46
511.30	355.76
511.47	245.76
511.64	346.40
511.82	245.76
511.99	264.48
512.17	184.90
512.34	217.67
512.51	339.38
512.69	304.27
512.86	318.31
513.04	271.50
513.21	334.70
513.38	269.16
513.56	271.50
513.73	252.78
513.90	210.65
514.08	229.37
514.25	271.50
514.43	273.84
514.60	222.35
514.77	210.65
514.95	255.12
515.12	259.80
515.29	229.37
515.47	301.93
515.64	290.23
515.81	229.37
515.99	285.55
516.16	287.89
516.33	299.59
516.51	217.67
516.68	196.60
516.85	222.35
517.03	280.86
517.20	278.52
517.37	229.37
517.54	304.27
517.72	205.97
517.89	241.08
518.06	250.44
518.24	315.97
518.41	308.95
518.58	292.57
518.75	283.20
518.93	245.76
519.10	287.89
519.27	278.52
519.45	266.82
519.62	304.27
519.79	315.97
519.96	191.92
520.14	362.78
520.31	231.71
520.48	238.73
520.65	266.82
520.83	311.29
521.00	285.55
521.17	283.20
521.34	266.82
521.52	217.67
521.69	220.01
521.86	276.18
522.03	280.86
522.20	287.89
522.38	231.71
522.55	276.18
522.72	224.69
522.89	252.78
523.07	358.10
523.24	283.20
523.41	264.48
523.58	241.08
523.75	269.16
523.92	278.52
524.10	264.48
524.27	283.20
524.44	273.84
524.61	252.78
524.78	210.65
524.96	290.23
525.13	196.60
525.30	252.78
525.47	287.89
525.64	224.69
525.81	264.48
525.98	217.67
526.16	304.27
526.33	224.69
526.50	208.31
526.67	217.67
526.84	238.73
527.01	285.55
527.18	276.18
527.36	187.24
527.53	234.05
527.70	304.27
527.87	332.36
528.04	280.86
528.21	280.86
528.38	292.57
528.55	330.02
528.72	320.65
528.89	276.18
529.07	287.89
529.24	269.16
529.41	262.14
529.58	220.01
529.75	248.10
529.92	201.29
530.09	273.84
530.26	280.86
530.43	304.27
530.60	341.72
530.77	283.20
530.94	374.49
531.11	308.95
531.28	220.01
531.46	266.82
531.63	203.63
531.80	294.91
531.97	191.92
532.14	257.46
532.31	243.42
532.48	290.23
532.65	407.25
532.82	280.86
532.99	386.19
533.16	311.29
533.33	358.10
533.50	353.42
533.67	306.61
533.84	297.25
534.01	393.21
534.18	341.72
534.35	262.14
534.52	362.78
534.69	318.31
534.86	297.25
535.03	255.12
535.20	241.08
535.37	292.57
535.54	290.23
535.71	273.84
535.88	266.82
536.05	283.20
536.22	353.42
536.38	257.46
536.55	311.29
536.72	409.59
536.89	264.48
537.06	201.29
537.23	271.50
537.40	311.29
537.57	266.82
537.74	379.17
537.91	369.80
538.08	337.04
538.25	372.15
538.42	301.93
538.59	353.42
538.75	334.70
538.92	304.27
539.09	327.68
539.26	344.06
539.43	507.90
539.60	912.81
539.77	1053.24
539.94	1055.58
540.11	751.31
540.28	606.20
540.44	528.96
540.61	395.55
540.78	451.72
540.95	491.51
541.12	524.28
541.29	510.24
541.46	496.19
541.62	425.98
541.79	496.19
541.96	517.26
542.13	500.87
542.30	484.49
542.47	449.38
542.63	496.19
542.80	404.91
542.97	491.51
543.14	475.13
543.31	484.49
543.48	451.72
543.64	526.62
543.81	500.87
543.98	468.11
544.15	458.74
544.32	444.70
544.48	451.72
544.65	493.85
544.82	507.90
544.99	458.74
545.16	496.19
545.32	477.47
545.49	772.38
545.66	884.72
545.83	947.92
546.00	784.08
546.16	643.65
546.33	629.60
546.50	489.17
546.67	482.15
546.83	449.38
547.00	461.09
547.17	435.34
547.34	433.00
547.50	390.87
547.67	367.46
547.84	416.62
548.00	390.87
548.17	447.04
548.34	339.38
548.51	416.62
548.67	411.93
548.84	428.32
549.01	344.06
549.18	320.65
549.34	433.00
549.51	306.61
549.68	308.95
549.84	376.83
550.01	280.86
550.18	418.96
550.34	402.57
550.51	313.63
550.68	318.31
550.84	292.57
551.01	372.15
551.18	264.48
551.34	285.55
551.51	269.16
551.68	388.53
551.84	355.76
552.01	318.31
552.18	224.69
552.34	337.04
552.51	308.95
552.68	308.95
552.84	297.25
553.01	308.95
553.18	362.78
553.34	318.31
553.51	220.01
553.67	297.25
553.84	339.38
554.01	313.63
554.17	285.55
554.34	332.36
554.51	372.15
554.67	248.10
554.84	297.25
555.00	273.84
555.17	241.08
555.33	243.42
555.50	259.80
555.67	332.36
555.83	269.16
556.00	304.27
556.16	496.19
556.33	266.82
556.50	341.72
556.66	287.89
556.83	273.84
556.99	266.82
557.16	313.63
557.32	259.80
557.49	217.67
557.65	271.50
557.82	245.76
557.98	348.74
558.15	231.71
558.32	234.05
558.48	280.86
558.65	264.48
558.81	238.73
558.98	269.16
559.14	304.27
559.31	248.10
559.47	245.76
559.64	257.46
559.80	257.46
559.97	262.14
560.13	220.01
560.30	243.42
560.46	241.08
560.63	292.57
560.79	245.76
560.96	245.76
561.12	271.50
561.29	292.57
561.45	306.61
561.61	257.46
561.78	308.95
561.94	217.67
562.11	245.76
562.27	252.78
562.44	248.10
562.60	196.60
562.77	241.08
562.93	318.31
563.10	278.52
563.26	290.23
563.42	269.16
563.59	304.27
563.75	299.59
563.92	318.31
564.08	280.86
564.24	362.78
564.41	299.59
564.57	252.78
564.74	322.99
564.90	287.89
565.07	259.80
565.23	276.18
565.39	231.71
565.56	278.52
565.72	182.56
565.88	238.73
566.05	276.18
566.21	276.18
566.38	266.82
566.54	245.76
566.70	215.33
566.87	238.73
567.03	255.12
567.19	294.91
567.36	330.02
567.52	245.76
567.68	264.48
567.85	243.42
568.01	264.48
568.17	215.33
568.34	278.52
568.50	255.12
568.66	285.55
568.83	337.04
568.99	283.20
569.15	308.95
569.32	222.35
569.48	222.35
569.64	271.50
569.81	287.89
569.97	301.93
570.13	276.18
570.30	222.35
570.46	198.95
570.62	243.42
570.78	198.95
570.95	255.12
571.11	285.55
571.27	257.46
571.43	198.95
571.60	229.37
571.76	245.76
571.92	248.10
572.09	273.84
572.25	255.12
572.41	217.67
572.57	294.91
572.74	278.52
572.90	222.35
573.06	273.84
573.22	264.48
573.38	327.68
573.55	250.44
573.71	341.72
573.87	255.12
574.03	264.48
574.20	250.44
574.36	311.29
574.52	292.57
574.68	327.68
574.84	325.33
575.01	266.82
575.17	245.76
575.33	250.44
575.49	304.27
575.65	313.63
575.82	365.12
575.98	491.51
576.14	578.11
576.30	568.75
576.46	524.28
576.62	486.83
576.79	477.47
576.95	437.68
577.11	259.80
577.27	334.70
577.43	304.27
577.59	315.97
577.75	299.59
577.92	264.48
578.08	285.55
578.24	273.84
578.40	332.36
578.56	386.19
578.72	496.19
578.88	468.11
579.04	360.44
579.21	397.89
579.37	348.74
579.53	341.72
579.69	313.63
579.85	322.99
580.01	395.55
580.17	369.80
580.33	353.42
580.49	393.21
580.65	444.70
580.82	327.68
580.98	355.76
581.14	297.25
581.30	367.46
581.46	414.27
581.62	437.68
581.78	524.28
581.94	521.94
582.10	407.25
582.26	440.02
582.42	451.72
582.58	447.04
582.74	425.98
582.90	486.83
583.06	430.66
583.22	381.51
583.38	414.27
583.54	514.92
583.70	524.28
583.86	505.56
584.02	613.22
584.18	727.91
584.34	847.27
584.50	2139.25
584.66	14618.99
584.82	36659.81
584.98	48240.78
585.14	42691.37
585.30	26565.08
585.46	16285.45
585.62	10246.87
585.78	4741.93
585.94	2127.55
586.10	1114.10
586.26	763.01
586.42	741.95
586.58	566.41
586.74	517.26
586.90	566.41
587.06	517.26
587.22	517.26
587.38	496.19
587.54	929.19
587.70	2312.45
587.86	3466.33
588.02	3562.30
588.18	2705.66
588.34	1874.77
588.49	1231.12
588.65	692.80
588.81	528.96
588.97	449.38
589.13	348.74
589.29	346.40
589.45	325.33
589.61	327.68
589.77	395.55
589.93	374.49
590.08	456.40
590.24	390.87
590.40	425.98
590.56	423.64
590.72	388.53
590.88	351.08
591.04	339.38
591.20	332.36
591.35	402.57
591.51	395.55
591.67	271.50
591.83	337.04
591.99	372.15
592.15	322.99
592.31	351.08
592.46	255.12
592.62	351.08
592.78	388.53
592.94	386.19
593.10	250.44
593.26	311.29
593.41	365.12
593.57	322.99
593.73	454.06
593.89	1970.73
594.05	4564.04
594.20	6270.30
594.36	5795.17
594.52	3789.33
594.68	2335.85
594.84	1696.89
594.99	1039.20
595.15	585.13
595.31	395.55
595.47	379.17
595.62	248.10
595.78	346.40
595.94	229.37
596.10	400.23
596.25	369.80
596.41	414.27
596.57	311.29
596.73	353.42
596.88	442.36
597.04	994.73
597.20	1444.11
597.36	1629.01
597.51	1256.87
597.67	800.46
597.83	695.14
597.99	624.92
598.14	355.76
598.30	369.80
598.46	362.78
598.61	383.85
598.77	365.12
598.93	360.44
599.09	348.74
599.24	344.06
599.40	311.29
599.56	308.95
599.71	287.89
599.87	346.40
600.03	330.02
600.18	280.86
600.34	358.10
600.50	266.82
600.65	215.33
600.81	292.57
600.97	292.57
601.12	269.16
601.28	278.52
601.44	278.52
601.59	257.46
601.75	299.59
601.91	252.78
602.06	241.08
602.22	411.93
602.37	608.54
602.53	1146.86
602.69	1593.90
602.84	1717.95
603.00	1320.06
603.16	933.87
603.31	767.70
603.47	475.13
603.62	311.29
603.78	390.87
603.94	287.89
604.09	327.68
604.25	264.48
604.40	367.46
604.56	278.52
604.71	397.89
604.87	341.72
605.03	252.78
605.18	322.99
605.34	337.04
605.49	322.99
605.65	416.62
605.80	285.55
605.96	395.55
606.12	306.61
606.27	355.76
606.43	341.72
606.58	416.62
606.74	615.56
606.89	2200.10
607.05	4138.07
607.20	5137.48
607.36	4322.97
607.51	2970.14
607.67	1998.82
607.82	1453.47
607.98	866.00
608.13	521.94
608.29	421.30
608.44	477.47
608.60	416.62
608.75	514.92
608.91	978.34
609.06	3489.74
609.22	6979.48
609.37	8919.78
609.53	7721.43
609.68	5280.25
609.84	3459.31
609.99	2459.90
610.15	1626.67
610.30	985.37
