SpectraSuite Data File
++++++++++++++++++++++++++++++++++++
Date: Fri Oct 04 11:34:09 GMT-05:00 2013
User: price-jones
Dark Spectrum Present: No
Reference Spectrum Present: No
Number of Sampled Component Spectra: 1
Spectrometers: USB2+H05261
Integration Time (usec): 100000 (USB2+H05261)
Spectra Averaged: 1 (USB2+H05261)
Boxcar Smoothing: 0 (USB2+H05261)
Correct for Electrical Dark: No (USB2+H05261)
Strobe/Lamp Enabled: No (USB2+H05261)
Correct for Detector Non-linearity: No (USB2+H05261)
Correct for Stray Light: No (USB2+H05261)
Number of Pixels in Processed Spectrum: 2048
>>>>>Begin Processed Spectral Data<<<<<
365.73	95.96
365.92	95.96
366.12	95.96
366.32	0.00
366.52	0.00
366.72	0.00
366.91	4.68
367.11	0.00
367.31	0.00
367.51	0.00
367.70	0.00
367.90	0.00
368.10	0.00
368.30	0.00
368.49	0.00
368.69	0.00
368.89	7.02
369.09	0.00
369.28	0.00
369.48	0.00
369.68	0.00
369.87	53.83
370.07	4.68
370.27	49.15
370.47	60.85
370.66	107.66
370.86	65.54
371.06	72.56
371.25	142.77
371.45	128.73
371.65	124.05
371.84	138.09
372.04	72.56
372.24	126.39
372.44	91.28
372.63	133.41
372.83	175.54
373.03	163.84
373.22	184.90
373.42	182.56
373.62	114.69
373.81	182.56
374.01	196.60
374.21	245.76
374.40	84.26
374.60	184.90
374.79	124.05
374.99	210.65
375.19	131.07
375.38	159.16
375.58	98.30
375.78	182.56
375.97	184.90
376.17	163.84
376.37	138.09
376.56	110.01
376.76	201.29
376.95	161.50
377.15	142.77
377.35	133.41
377.54	135.75
377.74	175.54
377.93	102.98
378.13	98.30
378.33	168.52
378.52	147.45
378.72	166.18
378.91	161.50
379.11	161.50
379.31	168.52
379.50	126.39
379.70	72.56
379.89	175.54
380.09	98.30
380.28	112.35
380.48	163.84
380.68	198.95
380.87	166.18
381.07	187.24
381.26	100.64
381.46	117.03
381.65	140.43
381.85	114.69
382.04	58.51
382.24	163.84
382.43	95.96
382.63	131.07
382.83	74.90
383.02	147.45
383.22	112.35
383.41	84.26
383.61	88.94
383.80	119.37
384.00	187.24
384.19	93.62
384.39	154.48
384.58	119.37
384.78	53.83
384.97	189.58
385.17	177.88
385.36	166.18
385.56	187.24
385.75	138.09
385.95	156.82
386.14	180.22
386.34	98.30
386.53	133.41
386.72	138.09
386.92	220.01
387.11	173.20
387.31	187.24
387.50	138.09
387.70	88.94
387.89	128.73
388.09	124.05
388.28	102.98
388.48	126.39
388.67	205.97
388.86	133.41
389.06	147.45
389.25	163.84
389.45	156.82
389.64	142.77
389.84	112.35
390.03	175.54
390.22	149.79
390.42	138.09
390.61	161.50
390.81	112.35
391.00	121.71
391.19	217.67
391.39	163.84
391.58	147.45
391.78	77.24
391.97	100.64
392.16	124.05
392.36	121.71
392.55	182.56
392.75	86.60
392.94	110.01
393.13	191.92
393.33	91.28
393.52	175.54
393.71	170.86
393.91	194.26
394.10	72.56
394.29	203.63
394.49	180.22
394.68	177.88
394.88	177.88
395.07	147.45
395.26	191.92
395.46	142.77
395.65	201.29
395.84	175.54
396.04	234.05
396.23	184.90
396.42	95.96
396.62	65.54
396.81	72.56
397.00	203.63
397.19	145.11
397.39	110.01
397.58	138.09
397.77	135.75
397.97	110.01
398.16	184.90
398.35	65.54
398.55	142.77
398.74	166.18
398.93	187.24
399.12	133.41
399.32	147.45
399.51	147.45
399.70	182.56
399.90	191.92
400.09	177.88
400.28	138.09
400.47	163.84
400.67	208.31
400.86	159.16
401.05	198.95
401.24	184.90
401.44	117.03
401.63	191.92
401.82	184.90
402.01	145.11
402.21	177.88
402.40	114.69
402.59	166.18
402.78	95.96
402.97	140.43
403.17	142.77
403.36	163.84
403.55	86.60
403.74	128.73
403.93	182.56
404.13	278.52
404.32	341.72
404.51	238.73
404.70	215.33
404.89	142.77
405.09	210.65
405.28	231.71
405.47	201.29
405.66	212.99
405.85	170.86
406.05	145.11
406.24	189.58
406.43	243.42
406.62	100.64
406.81	201.29
407.00	81.92
407.20	168.52
407.39	198.95
407.58	187.24
407.77	224.69
407.96	154.48
408.15	208.31
408.34	156.82
408.54	217.67
408.73	227.03
408.92	166.18
409.11	182.56
409.30	126.39
409.49	98.30
409.68	147.45
409.87	112.35
410.07	88.94
410.26	159.16
410.45	138.09
410.64	194.26
410.83	84.26
411.02	138.09
411.21	191.92
411.40	124.05
411.59	161.50
411.78	177.88
411.98	152.13
412.17	156.82
412.36	133.41
412.55	91.28
412.74	191.92
412.93	177.88
413.12	175.54
413.31	166.18
413.50	191.92
413.69	79.58
413.88	194.26
414.07	173.20
414.26	142.77
414.45	135.75
414.64	131.07
414.83	161.50
415.02	79.58
415.22	154.48
415.41	212.99
415.60	133.41
415.79	224.69
415.98	196.60
416.17	133.41
416.36	168.52
416.55	163.84
416.74	191.92
416.93	220.01
417.12	135.75
417.31	112.35
417.50	290.23
417.69	285.55
417.88	299.59
418.07	208.31
418.26	229.37
418.45	189.58
418.64	182.56
418.83	287.89
419.02	238.73
419.21	198.95
419.39	191.92
419.58	238.73
419.77	173.20
419.96	210.65
420.15	238.73
420.34	222.35
420.53	149.79
420.72	168.52
420.91	241.08
421.10	114.69
421.29	166.18
421.48	196.60
421.67	184.90
421.86	180.22
422.05	152.13
422.24	170.86
422.43	105.32
422.61	154.48
422.80	212.99
422.99	98.30
423.18	217.67
423.37	177.88
423.56	191.92
423.75	140.43
423.94	220.01
424.13	182.56
424.32	184.90
424.50	191.92
424.69	187.24
424.88	280.86
425.07	189.58
425.26	224.69
425.45	236.39
425.64	262.14
425.83	315.97
426.01	257.46
426.20	250.44
426.39	170.86
426.58	170.86
426.77	135.75
426.96	252.78
427.15	234.05
427.33	198.95
427.52	140.43
427.71	126.39
427.90	149.79
428.09	77.24
428.28	173.20
428.46	154.48
428.65	241.08
428.84	124.05
429.03	205.97
429.22	149.79
429.40	196.60
429.59	124.05
429.78	198.95
429.97	152.13
430.16	182.56
430.34	112.35
430.53	140.43
430.72	131.07
430.91	191.92
431.10	156.82
431.28	147.45
431.47	177.88
431.66	175.54
431.85	145.11
432.03	182.56
432.22	154.48
432.41	135.75
432.60	255.12
432.79	243.42
432.97	257.46
433.16	304.27
433.35	257.46
433.54	252.78
433.72	201.29
433.91	194.26
434.10	229.37
434.28	287.89
434.47	175.54
434.66	184.90
434.85	187.24
435.03	196.60
435.22	376.83
435.41	479.81
435.59	493.85
435.78	383.85
435.97	201.29
436.16	304.27
436.34	147.45
436.53	156.82
436.72	229.37
436.90	170.86
437.09	194.26
437.28	201.29
437.46	175.54
437.65	159.16
437.84	117.03
438.02	91.28
438.21	182.56
438.40	210.65
438.58	212.99
438.77	182.56
438.96	161.50
439.14	177.88
439.33	166.18
439.52	229.37
439.70	159.16
439.89	234.05
440.08	187.24
440.26	124.05
440.45	184.90
440.63	205.97
440.82	131.07
441.01	173.20
441.19	234.05
441.38	110.01
441.57	152.13
441.75	269.16
441.94	210.65
442.12	149.79
442.31	138.09
442.50	175.54
442.68	154.48
442.87	198.95
443.05	229.37
443.24	142.77
443.43	182.56
443.61	238.73
443.80	187.24
443.98	205.97
444.17	159.16
444.35	238.73
444.54	234.05
444.73	227.03
444.91	196.60
445.10	222.35
445.28	173.20
445.47	259.80
445.65	201.29
445.84	189.58
446.02	110.01
446.21	191.92
446.39	145.11
446.58	201.29
446.77	198.95
446.95	189.58
447.14	198.95
447.32	205.97
447.51	245.76
447.69	177.88
447.88	180.22
448.06	138.09
448.25	241.08
448.43	102.98
448.62	145.11
448.80	131.07
448.99	231.71
449.17	140.43
449.36	182.56
449.54	271.50
449.73	145.11
449.91	208.31
450.10	201.29
450.28	187.24
450.46	243.42
450.65	205.97
450.83	159.16
451.02	196.60
451.20	236.39
451.39	166.18
451.57	234.05
451.76	163.84
451.94	161.50
452.13	191.92
452.31	234.05
452.49	168.52
452.68	205.97
452.86	252.78
453.05	266.82
453.23	168.52
453.42	191.92
453.60	198.95
453.78	215.33
453.97	229.37
454.15	105.32
454.34	175.54
454.52	168.52
454.70	215.33
454.89	259.80
455.07	187.24
455.26	210.65
455.44	294.91
455.62	187.24
455.81	231.71
455.99	224.69
456.17	229.37
456.36	168.52
456.54	182.56
456.73	220.01
456.91	217.67
457.09	166.18
457.28	245.76
457.46	182.56
457.64	229.37
457.83	222.35
458.01	184.90
458.19	241.08
458.38	266.82
458.56	236.39
458.74	168.52
458.93	227.03
459.11	128.73
459.29	161.50
459.48	250.44
459.66	220.01
459.84	229.37
460.03	266.82
460.21	180.22
460.39	182.56
460.57	191.92
460.76	191.92
460.94	184.90
461.12	257.46
461.31	252.78
461.49	229.37
461.67	135.75
461.85	175.54
462.04	187.24
462.22	353.42
462.40	175.54
462.59	182.56
462.77	168.52
462.95	208.31
463.13	194.26
463.32	224.69
463.50	241.08
463.68	241.08
463.86	196.60
464.05	140.43
464.23	297.25
464.41	187.24
464.59	243.42
464.78	215.33
464.96	184.90
465.14	210.65
465.32	215.33
465.50	180.22
465.69	243.42
465.87	152.13
466.05	271.50
466.23	163.84
466.41	189.58
466.60	217.67
466.78	217.67
466.96	231.71
467.14	231.71
467.32	191.92
467.51	194.26
467.69	135.75
467.87	234.05
468.05	124.05
468.23	287.89
468.41	217.67
468.60	191.92
468.78	133.41
468.96	208.31
469.14	229.37
469.32	269.16
469.50	262.14
469.69	259.80
469.87	264.48
470.05	203.63
470.23	259.80
470.41	210.65
470.59	252.78
470.77	154.48
470.95	161.50
471.14	222.35
471.32	201.29
471.50	248.10
471.68	201.29
471.86	227.03
472.04	184.90
472.22	227.03
472.40	250.44
472.58	147.45
472.77	131.07
472.95	212.99
473.13	201.29
473.31	159.16
473.49	243.42
473.67	222.35
473.85	170.86
474.03	245.76
474.21	252.78
474.39	217.67
474.57	243.42
474.75	252.78
474.93	182.56
475.12	224.69
475.30	163.84
475.48	205.97
475.66	215.33
475.84	205.97
476.02	205.97
476.20	175.54
476.38	269.16
476.56	194.26
476.74	201.29
476.92	196.60
477.10	166.18
477.28	175.54
477.46	224.69
477.64	248.10
477.82	212.99
478.00	215.33
478.18	175.54
478.36	184.90
478.54	266.82
478.72	243.42
478.90	255.12
479.08	201.29
479.26	285.55
479.44	208.31
479.62	189.58
479.80	191.92
479.98	252.78
480.16	220.01
480.34	205.97
480.52	177.88
480.70	189.58
480.88	166.18
481.06	187.24
481.24	170.86
481.41	154.48
481.59	285.55
481.77	227.03
481.95	294.91
482.13	224.69
482.31	205.97
482.49	215.33
482.67	210.65
482.85	257.46
483.03	224.69
483.21	217.67
483.39	191.92
483.57	156.82
483.74	180.22
483.92	271.50
484.10	297.25
484.28	208.31
484.46	257.46
484.64	234.05
484.82	168.52
485.00	227.03
485.18	245.76
485.35	227.03
485.53	238.73
485.71	273.84
485.89	215.33
486.07	220.01
486.25	299.59
486.43	294.91
486.61	210.65
486.78	339.38
486.96	184.90
487.14	210.65
487.32	210.65
487.50	245.76
487.68	227.03
487.85	292.57
488.03	280.86
488.21	273.84
488.39	339.38
488.57	306.61
488.75	311.29
488.92	498.53
489.10	285.55
489.28	327.68
489.46	285.55
489.64	262.14
489.81	294.91
489.99	299.59
490.17	224.69
490.35	255.12
490.53	266.82
490.70	252.78
490.88	241.08
491.06	205.97
491.24	208.31
491.41	332.36
491.59	163.84
491.77	301.93
491.95	269.16
492.13	205.97
492.30	276.18
492.48	292.57
492.66	184.90
492.84	229.37
493.01	264.48
493.19	248.10
493.37	248.10
493.54	271.50
493.72	327.68
493.90	273.84
494.08	301.93
494.25	290.23
494.43	266.82
494.61	175.54
494.79	301.93
494.96	304.27
495.14	337.04
495.32	269.16
495.49	252.78
495.67	285.55
495.85	273.84
496.02	278.52
496.20	252.78
496.38	241.08
496.55	229.37
496.73	243.42
496.91	257.46
497.09	292.57
497.26	238.73
497.44	308.95
497.62	241.08
497.79	227.03
497.97	301.93
498.14	222.35
498.32	222.35
498.50	287.89
498.67	271.50
498.85	201.29
499.03	236.39
499.20	294.91
499.38	259.80
499.56	198.95
499.73	339.38
499.91	294.91
500.08	325.33
500.26	243.42
500.44	252.78
500.61	262.14
500.79	250.44
500.97	308.95
501.14	355.76
501.32	243.42
501.49	271.50
501.67	292.57
501.84	266.82
502.02	285.55
502.20	227.03
502.37	212.99
502.55	322.99
502.72	276.18
502.90	287.89
503.07	266.82
503.25	297.25
503.43	301.93
503.60	278.52
503.78	212.99
503.95	313.63
504.13	262.14
504.30	236.39
504.48	294.91
504.65	231.71
504.83	203.63
505.01	220.01
505.18	252.78
505.36	327.68
505.53	222.35
505.71	168.52
505.88	318.31
506.06	252.78
506.23	255.12
506.41	208.31
506.58	257.46
506.76	271.50
506.93	250.44
507.11	292.57
507.28	220.01
507.46	294.91
507.63	269.16
507.81	245.76
507.98	280.86
508.16	299.59
508.33	313.63
508.50	304.27
508.68	224.69
508.85	196.60
509.03	264.48
509.20	250.44
509.38	245.76
509.55	313.63
509.73	320.65
509.90	255.12
510.08	236.39
510.25	271.50
510.42	283.20
510.60	306.61
510.77	372.15
510.95	297.25
511.12	325.33
511.30	358.10
511.47	306.61
511.64	332.36
511.82	330.02
511.99	257.46
512.17	262.14
512.34	194.26
512.51	248.10
512.69	252.78
512.86	224.69
513.04	175.54
513.21	238.73
513.38	175.54
513.56	238.73
513.73	234.05
513.90	248.10
514.08	262.14
514.25	294.91
514.43	393.21
514.60	215.33
514.77	266.82
514.95	355.76
515.12	257.46
515.29	353.42
515.47	248.10
515.64	306.61
515.81	241.08
515.99	332.36
516.16	271.50
516.33	255.12
516.51	238.73
516.68	287.89
516.85	231.71
517.03	248.10
517.20	238.73
517.37	210.65
517.54	308.95
517.72	259.80
517.89	229.37
518.06	271.50
518.24	266.82
518.41	325.33
518.58	332.36
518.75	271.50
518.93	294.91
519.10	252.78
519.27	238.73
519.45	273.84
519.62	266.82
519.79	248.10
519.96	308.95
520.14	299.59
520.31	320.65
520.48	301.93
520.65	271.50
520.83	287.89
521.00	290.23
521.17	341.72
521.34	255.12
521.52	318.31
521.69	276.18
521.86	259.80
522.03	308.95
522.20	208.31
522.38	290.23
522.55	278.52
522.72	245.76
522.89	280.86
523.07	320.65
523.24	339.38
523.41	241.08
523.58	271.50
523.75	332.36
523.92	278.52
524.10	269.16
524.27	227.03
524.44	294.91
524.61	332.36
524.78	299.59
524.96	280.86
525.13	290.23
525.30	337.04
525.47	304.27
525.64	280.86
525.81	229.37
525.98	330.02
526.16	229.37
526.33	243.42
526.50	259.80
526.67	222.35
526.84	220.01
527.01	259.80
527.18	283.20
527.36	276.18
527.53	231.71
527.70	327.68
527.87	271.50
528.04	212.99
528.21	271.50
528.38	285.55
528.55	330.02
528.72	374.49
528.89	348.74
529.07	365.12
529.24	243.42
529.41	304.27
529.58	259.80
529.75	264.48
529.92	269.16
530.09	269.16
530.26	276.18
530.43	330.02
530.60	308.95
530.77	257.46
530.94	292.57
531.11	306.61
531.28	287.89
531.46	248.10
531.63	322.99
531.80	301.93
531.97	287.89
532.14	313.63
532.31	255.12
532.48	351.08
532.65	379.17
532.82	507.90
532.99	411.93
533.16	411.93
533.33	355.76
533.50	355.76
533.67	348.74
533.84	470.45
534.01	458.74
534.18	470.45
534.35	402.57
534.52	280.86
534.69	376.83
534.86	248.10
535.03	283.20
535.20	259.80
535.37	374.49
535.54	287.89
535.71	395.55
535.88	372.15
536.05	264.48
536.22	348.74
536.38	266.82
536.55	379.17
536.72	358.10
536.89	294.91
537.06	285.55
537.23	301.93
537.40	292.57
537.57	337.04
537.74	308.95
537.91	325.33
538.08	390.87
538.25	315.97
538.42	365.12
538.59	390.87
538.75	379.17
538.92	355.76
539.09	411.93
539.26	433.00
539.43	671.73
539.60	1327.08
539.77	1867.75
539.94	1891.15
540.11	1324.74
540.28	947.92
540.44	741.95
540.61	503.22
540.78	496.19
540.95	531.30
541.12	580.45
541.29	599.18
541.46	631.94
541.62	617.90
541.79	552.37
541.96	564.07
542.13	545.34
542.30	552.37
542.47	535.98
542.63	468.11
542.80	472.79
542.97	596.84
543.14	575.77
543.31	528.96
543.48	512.58
543.64	545.34
543.81	568.75
543.98	475.13
544.15	484.49
544.32	463.43
544.48	566.41
544.65	538.32
544.82	531.30
544.99	470.45
545.16	587.47
545.32	589.82
545.49	856.64
545.66	1036.86
545.83	1050.90
546.00	961.96
546.16	758.33
546.33	645.99
546.50	531.30
546.67	503.22
546.83	498.53
547.00	479.81
547.17	472.79
547.34	402.57
547.50	543.00
547.67	423.64
547.84	449.38
548.00	379.17
548.17	386.19
548.34	451.72
548.51	414.27
548.67	407.25
548.84	372.15
549.01	444.70
549.18	372.15
549.34	479.81
549.51	358.10
549.68	374.49
549.84	360.44
550.01	404.91
550.18	376.83
550.34	411.93
550.51	341.72
550.68	402.57
550.84	325.33
551.01	376.83
551.18	388.53
551.34	280.86
551.51	304.27
551.68	409.59
551.84	374.49
552.01	367.46
552.18	325.33
552.34	339.38
552.51	388.53
552.68	304.27
552.84	337.04
553.01	351.08
553.18	327.68
553.34	414.27
553.51	315.97
553.67	344.06
553.84	348.74
554.01	264.48
554.17	276.18
554.34	264.48
554.51	308.95
554.67	269.16
554.84	320.65
555.00	374.49
555.17	322.99
555.33	280.86
555.50	311.29
555.67	351.08
555.83	327.68
556.00	327.68
556.16	472.79
556.33	318.31
556.50	414.27
556.66	294.91
556.83	308.95
556.99	337.04
557.16	229.37
557.32	332.36
557.49	255.12
557.65	278.52
557.82	360.44
557.98	259.80
558.15	315.97
558.32	241.08
558.48	278.52
558.65	283.20
558.81	330.02
558.98	292.57
559.14	283.20
559.31	332.36
559.47	287.89
559.64	252.78
559.80	301.93
559.97	215.33
560.13	278.52
560.30	257.46
560.46	273.84
560.63	245.76
560.79	294.91
560.96	294.91
561.12	322.99
561.29	320.65
561.45	210.65
561.61	243.42
561.78	273.84
561.94	243.42
562.11	262.14
562.27	238.73
562.44	248.10
562.60	231.71
562.77	308.95
562.93	290.23
563.10	322.99
563.26	327.68
563.42	360.44
563.59	269.16
563.75	271.50
563.92	327.68
564.08	320.65
564.24	241.08
564.41	257.46
564.57	248.10
564.74	337.04
564.90	285.55
565.07	337.04
565.23	287.89
565.39	315.97
565.56	381.51
565.72	299.59
565.88	344.06
566.05	297.25
566.21	231.71
566.38	287.89
566.54	271.50
566.70	227.03
566.87	245.76
567.03	203.63
567.19	276.18
567.36	287.89
567.52	294.91
567.68	334.70
567.85	276.18
568.01	177.88
568.17	234.05
568.34	241.08
568.50	440.02
568.66	290.23
568.83	374.49
568.99	362.78
569.15	318.31
569.32	257.46
569.48	264.48
569.64	227.03
569.81	308.95
569.97	334.70
570.13	290.23
570.30	313.63
570.46	304.27
570.62	311.29
570.78	238.73
570.95	283.20
571.11	304.27
571.27	292.57
571.43	250.44
571.60	280.86
571.76	320.65
571.92	285.55
572.09	271.50
572.25	290.23
572.41	299.59
572.57	241.08
572.74	322.99
572.90	308.95
573.06	245.76
573.22	341.72
573.38	353.42
573.55	210.65
573.71	315.97
573.87	318.31
574.03	266.82
574.20	266.82
574.36	315.97
574.52	360.44
574.68	360.44
574.84	374.49
575.01	313.63
575.17	397.89
575.33	383.85
575.49	280.86
575.65	367.46
575.82	440.02
575.98	641.31
576.14	882.38
576.30	936.21
576.46	777.06
576.62	723.23
576.79	653.01
576.95	498.53
577.11	430.66
577.27	318.31
577.43	332.36
577.59	367.46
577.75	395.55
577.92	346.40
578.08	287.89
578.24	395.55
578.40	404.91
578.56	526.62
578.72	442.36
578.88	489.17
579.04	362.78
579.21	397.89
579.37	360.44
579.53	271.50
579.69	407.25
579.85	360.44
580.01	540.66
580.17	514.92
580.33	430.66
580.49	421.30
580.65	447.04
580.82	402.57
580.98	463.43
581.14	428.32
581.30	407.25
581.46	463.43
581.62	709.18
581.78	908.13
581.94	770.04
582.10	610.88
582.26	557.05
582.42	566.41
582.58	519.60
582.74	528.96
582.90	543.00
583.06	575.77
583.22	617.90
583.38	629.60
583.54	620.24
583.70	781.74
583.86	851.96
584.02	924.51
584.18	1088.35
584.34	1366.87
584.50	3283.77
584.66	24285.40
584.82	58937.03
584.98	65535.00
585.14	65535.00
585.30	57874.43
585.46	35517.63
585.62	21811.45
585.78	10169.63
585.94	4065.51
586.10	1966.05
586.26	1235.80
586.42	1022.81
586.58	863.66
586.74	851.96
586.90	882.38
587.06	802.80
587.22	772.38
587.38	739.61
587.54	1336.45
587.70	3911.04
587.86	6628.40
588.02	7819.73
588.18	5591.54
588.34	3578.68
588.49	2307.77
588.65	1467.52
588.81	866.00
588.97	510.24
589.13	423.64
589.29	381.51
589.45	388.53
589.61	390.87
589.77	526.62
589.93	564.07
590.08	608.54
590.24	561.73
590.40	571.09
590.56	545.34
590.72	376.83
590.88	416.62
591.04	458.74
591.20	402.57
591.35	510.24
591.51	433.00
591.67	381.51
591.83	433.00
591.99	472.79
592.15	409.59
592.31	404.91
592.46	353.42
592.62	505.56
592.78	425.98
592.94	407.25
593.10	402.57
593.26	409.59
593.41	475.13
593.57	416.62
593.73	650.67
593.89	3047.38
594.05	8219.96
594.20	12992.31
594.36	13102.32
594.52	8484.44
594.68	5181.95
594.84	3417.18
594.99	1984.77
595.15	961.96
595.31	589.82
595.47	524.28
595.62	402.57
595.78	395.55
595.94	362.78
596.10	444.70
596.25	425.98
596.41	482.15
596.57	489.17
596.73	367.46
596.88	629.60
597.04	1549.43
597.20	2843.75
597.36	3424.20
597.51	2555.86
597.67	1682.85
597.83	1224.10
597.99	851.96
598.14	533.64
598.30	505.56
598.46	397.89
598.61	479.81
598.77	397.89
598.93	433.00
599.09	381.51
599.24	407.25
599.40	280.86
599.56	360.44
599.71	339.38
599.87	383.85
600.03	322.99
600.18	294.91
600.34	414.27
600.50	348.74
600.65	348.74
600.81	367.46
600.97	248.10
601.12	245.76
601.28	311.29
601.44	301.93
601.59	290.23
601.75	285.55
601.91	278.52
602.06	306.61
602.22	404.91
602.37	741.95
602.53	1984.77
602.69	3194.83
602.84	3393.78
603.00	2560.55
603.16	1692.21
603.31	1226.44
603.47	919.83
603.62	573.43
603.78	421.30
603.94	402.57
604.09	369.80
604.25	353.42
604.40	355.76
604.56	301.93
604.71	320.65
604.87	351.08
605.03	388.53
605.18	290.23
605.34	386.19
605.49	334.70
605.65	386.19
605.80	327.68
605.96	400.23
606.12	327.68
606.27	402.57
606.43	379.17
606.58	449.38
606.74	1022.81
606.89	3602.08
607.05	7777.60
607.20	11126.91
607.36	9263.84
607.51	6504.35
607.67	4138.07
607.82	2834.39
607.98	1598.59
608.13	828.55
608.29	695.14
608.44	620.24
608.60	533.64
608.75	580.45
608.91	1378.58
609.06	5949.64
609.22	13799.80
609.37	19735.40
609.53	17240.39
609.68	11606.72
609.84	7520.14
609.99	5221.74
610.15	2946.73
