SpectraSuite Data File
++++++++++++++++++++++++++++++++++++
Date: Fri Oct 04 11:33:52 GMT-05:00 2013
User: price-jones
Dark Spectrum Present: No
Reference Spectrum Present: No
Number of Sampled Component Spectra: 1
Spectrometers: USB2+H05261
Integration Time (usec): 100000 (USB2+H05261)
Spectra Averaged: 1 (USB2+H05261)
Boxcar Smoothing: 0 (USB2+H05261)
Correct for Electrical Dark: No (USB2+H05261)
Strobe/Lamp Enabled: No (USB2+H05261)
Correct for Detector Non-linearity: No (USB2+H05261)
Correct for Stray Light: No (USB2+H05261)
Number of Pixels in Processed Spectrum: 2048
>>>>>Begin Processed Spectral Data<<<<<
365.73	98.30
365.92	98.30
366.12	98.30
366.32	0.00
366.52	0.00
366.72	0.00
366.91	14.04
367.11	32.77
367.31	0.00
367.51	0.00
367.70	14.04
367.90	21.06
368.10	2.34
368.30	0.00
368.49	0.00
368.69	42.13
368.89	0.00
369.09	0.00
369.28	11.70
369.48	0.00
369.68	30.43
369.87	98.30
370.07	77.24
370.27	37.45
370.47	53.83
370.66	105.32
370.86	126.39
371.06	105.32
371.25	81.92
371.45	93.62
371.65	114.69
371.84	79.58
372.04	84.26
372.24	145.11
372.44	88.94
372.63	159.16
372.83	166.18
373.03	112.35
373.22	147.45
373.42	149.79
373.62	131.07
373.81	154.48
374.01	170.86
374.21	184.90
374.40	154.48
374.60	163.84
374.79	175.54
374.99	133.41
375.19	173.20
375.38	140.43
375.58	210.65
375.78	154.48
375.97	161.50
376.17	184.90
376.37	210.65
376.56	201.29
376.76	110.01
376.95	145.11
377.15	138.09
377.35	114.69
377.54	203.63
377.74	128.73
377.93	117.03
378.13	152.13
378.33	205.97
378.52	198.95
378.72	154.48
378.91	182.56
379.11	140.43
379.31	184.90
379.50	177.88
379.70	166.18
379.89	145.11
380.09	229.37
380.28	145.11
380.48	147.45
380.68	112.35
380.87	18.72
381.07	119.37
381.26	166.18
381.46	184.90
381.65	175.54
381.85	119.37
382.04	112.35
382.24	135.75
382.43	105.32
382.63	121.71
382.83	114.69
383.02	119.37
383.22	175.54
383.41	156.82
383.61	147.45
383.80	154.48
384.00	152.13
384.19	217.67
384.39	138.09
384.58	102.98
384.78	159.16
384.97	105.32
385.17	173.20
385.36	135.75
385.56	149.79
385.75	110.01
385.95	128.73
386.14	238.73
386.34	180.22
386.53	217.67
386.72	149.79
386.92	149.79
387.11	180.22
387.31	112.35
387.50	102.98
387.70	72.56
387.89	149.79
388.09	133.41
388.28	147.45
388.48	88.94
388.67	154.48
388.86	255.12
389.06	138.09
389.25	159.16
389.45	142.77
389.64	117.03
389.84	133.41
390.03	163.84
390.22	191.92
390.42	142.77
390.61	168.52
390.81	163.84
391.00	98.30
391.19	224.69
391.39	74.90
391.58	159.16
391.78	145.11
391.97	126.39
392.16	196.60
392.36	121.71
392.55	100.64
392.75	154.48
392.94	210.65
393.13	168.52
393.33	170.86
393.52	119.37
393.71	149.79
393.91	131.07
394.10	126.39
394.29	147.45
394.49	124.05
394.68	201.29
394.88	217.67
395.07	105.32
395.26	170.86
395.46	149.79
395.65	163.84
395.84	152.13
396.04	276.18
396.23	105.32
396.42	117.03
396.62	147.45
396.81	208.31
397.00	142.77
397.19	105.32
397.39	152.13
397.58	182.56
397.77	135.75
397.97	170.86
398.16	191.92
398.35	180.22
398.55	126.39
398.74	196.60
398.93	149.79
399.12	152.13
399.32	180.22
399.51	159.16
399.70	142.77
399.90	205.97
400.09	112.35
400.28	105.32
400.47	98.30
400.67	131.07
400.86	142.77
401.05	170.86
401.24	201.29
401.44	217.67
401.63	208.31
401.82	175.54
402.01	212.99
402.21	100.64
402.40	147.45
402.59	138.09
402.78	187.24
402.97	98.30
403.17	156.82
403.36	135.75
403.55	184.90
403.74	114.69
403.93	196.60
404.13	227.03
404.32	189.58
404.51	227.03
404.70	156.82
404.89	88.94
405.09	135.75
405.28	117.03
405.47	56.17
405.66	100.64
405.85	126.39
406.05	119.37
406.24	170.86
406.43	159.16
406.62	224.69
406.81	133.41
407.00	175.54
407.20	201.29
407.39	166.18
407.58	175.54
407.77	187.24
407.96	126.39
408.15	163.84
408.34	105.32
408.54	166.18
408.73	189.58
408.92	227.03
409.11	203.63
409.30	217.67
409.49	152.13
409.68	163.84
409.87	135.75
410.07	149.79
410.26	203.63
410.45	184.90
410.64	236.39
410.83	168.52
411.02	147.45
411.21	198.95
411.40	175.54
411.59	117.03
411.78	173.20
411.98	154.48
412.17	147.45
412.36	119.37
412.55	173.20
412.74	187.24
412.93	234.05
413.12	138.09
413.31	198.95
413.50	229.37
413.69	124.05
413.88	177.88
414.07	194.26
414.26	163.84
414.45	173.20
414.64	133.41
414.83	163.84
415.02	147.45
415.22	140.43
415.41	177.88
415.60	121.71
415.79	205.97
415.98	159.16
416.17	135.75
416.36	170.86
416.55	177.88
416.74	173.20
416.93	210.65
417.12	138.09
417.31	133.41
417.50	166.18
417.69	234.05
417.88	198.95
418.07	278.52
418.26	168.52
418.45	156.82
418.64	229.37
418.83	175.54
419.02	227.03
419.21	191.92
419.39	110.01
419.58	128.73
419.77	161.50
419.96	180.22
420.15	271.50
420.34	131.07
420.53	152.13
420.72	163.84
420.91	175.54
421.10	149.79
421.29	170.86
421.48	131.07
421.67	156.82
421.86	152.13
422.05	131.07
422.24	133.41
422.43	175.54
422.61	107.66
422.80	180.22
422.99	191.92
423.18	117.03
423.37	191.92
423.56	70.22
423.75	154.48
423.94	238.73
424.13	205.97
424.32	149.79
424.50	88.94
424.69	74.90
424.88	170.86
425.07	152.13
425.26	175.54
425.45	215.33
425.64	234.05
425.83	227.03
426.01	212.99
426.20	191.92
426.39	180.22
426.58	112.35
426.77	182.56
426.96	177.88
427.15	156.82
427.33	184.90
427.52	205.97
427.71	128.73
427.90	222.35
428.09	128.73
428.28	100.64
428.46	311.29
428.65	177.88
428.84	217.67
429.03	194.26
429.22	140.43
429.40	173.20
429.59	154.48
429.78	262.14
429.97	77.24
430.16	182.56
430.34	161.50
430.53	102.98
430.72	170.86
430.91	161.50
431.10	187.24
431.28	152.13
431.47	187.24
431.66	184.90
431.85	184.90
432.03	173.20
432.22	224.69
432.41	159.16
432.60	154.48
432.79	224.69
432.97	184.90
433.16	222.35
433.35	138.09
433.54	194.26
433.72	191.92
433.91	163.84
434.10	201.29
434.28	149.79
434.47	201.29
434.66	184.90
434.85	241.08
435.03	224.69
435.22	388.53
435.41	491.51
435.59	428.32
435.78	334.70
435.97	245.76
436.16	215.33
436.34	154.48
436.53	156.82
436.72	231.71
436.90	222.35
437.09	147.45
437.28	201.29
437.46	210.65
437.65	163.84
437.84	128.73
438.02	194.26
438.21	217.67
438.40	208.31
438.58	110.01
438.77	196.60
438.96	198.95
439.14	161.50
439.33	194.26
439.52	166.18
439.70	152.13
439.89	159.16
440.08	135.75
440.26	161.50
440.45	234.05
440.63	187.24
440.82	217.67
441.01	163.84
441.19	163.84
441.38	191.92
441.57	196.60
441.75	161.50
441.94	191.92
442.12	156.82
442.31	220.01
442.50	145.11
442.68	283.20
442.87	177.88
443.05	184.90
443.24	154.48
443.43	212.99
443.61	205.97
443.80	154.48
443.98	187.24
444.17	248.10
444.35	198.95
444.54	145.11
444.73	161.50
444.91	161.50
445.10	133.41
445.28	138.09
445.47	205.97
445.65	140.43
445.84	177.88
446.02	180.22
446.21	184.90
446.39	110.01
446.58	124.05
446.77	152.13
446.95	149.79
447.14	227.03
447.32	285.55
447.51	147.45
447.69	196.60
447.88	227.03
448.06	262.14
448.25	182.56
448.43	166.18
448.62	180.22
448.80	224.69
448.99	187.24
449.17	203.63
449.36	168.52
449.54	168.52
449.73	168.52
449.91	194.26
450.10	177.88
450.28	210.65
450.46	220.01
450.65	191.92
450.83	163.84
451.02	220.01
451.20	217.67
451.39	154.48
451.57	184.90
451.76	198.95
451.94	255.12
452.13	238.73
452.31	182.56
452.49	189.58
452.68	168.52
452.86	220.01
453.05	217.67
453.23	217.67
453.42	140.43
453.60	215.33
453.78	198.95
453.97	180.22
454.15	138.09
454.34	145.11
454.52	173.20
454.70	168.52
454.89	177.88
455.07	222.35
455.26	196.60
455.44	215.33
455.62	191.92
455.81	229.37
455.99	177.88
456.17	194.26
456.36	161.50
456.54	182.56
456.73	215.33
456.91	107.66
457.09	152.13
457.28	217.67
457.46	205.97
457.64	220.01
457.83	173.20
458.01	257.46
458.19	168.52
458.38	222.35
458.56	203.63
458.74	166.18
458.93	308.95
459.11	212.99
459.29	220.01
459.48	217.67
459.66	201.29
459.84	217.67
460.03	273.84
460.21	180.22
460.39	196.60
460.57	229.37
460.76	215.33
460.94	124.05
461.12	257.46
461.31	245.76
461.49	180.22
461.67	280.86
461.85	285.55
462.04	220.01
462.22	608.54
462.40	210.65
462.59	189.58
462.77	208.31
462.95	147.45
463.13	198.95
463.32	248.10
463.50	145.11
463.68	168.52
463.86	210.65
464.05	212.99
464.23	283.20
464.41	201.29
464.59	126.39
464.78	95.96
464.96	215.33
465.14	250.44
465.32	163.84
465.50	145.11
465.69	203.63
465.87	133.41
466.05	187.24
466.23	110.01
466.41	203.63
466.60	191.92
466.78	231.71
466.96	163.84
467.14	152.13
467.32	173.20
467.51	245.76
467.69	180.22
467.87	236.39
468.05	154.48
468.23	231.71
468.41	201.29
468.60	220.01
468.78	187.24
468.96	205.97
469.14	67.88
469.32	147.45
469.50	220.01
469.69	227.03
469.87	222.35
470.05	194.26
470.23	189.58
470.41	107.66
470.59	170.86
470.77	210.65
470.95	236.39
471.14	222.35
471.32	210.65
471.50	222.35
471.68	161.50
471.86	205.97
472.04	156.82
472.22	222.35
472.40	114.69
472.58	245.76
472.77	180.22
472.95	243.42
473.13	259.80
473.31	161.50
473.49	175.54
473.67	194.26
473.85	266.82
474.03	238.73
474.21	180.22
474.39	308.95
474.57	180.22
474.75	231.71
474.93	215.33
475.12	227.03
475.30	236.39
475.48	180.22
475.66	191.92
475.84	187.24
476.02	238.73
476.20	217.67
476.38	177.88
476.56	259.80
476.74	262.14
476.92	222.35
477.10	79.58
477.28	152.13
477.46	166.18
477.64	175.54
477.82	189.58
478.00	215.33
478.18	205.97
478.36	177.88
478.54	196.60
478.72	217.67
478.90	194.26
479.08	224.69
479.26	177.88
479.44	128.73
479.62	250.44
479.80	154.48
479.98	231.71
480.16	198.95
480.34	243.42
480.52	212.99
480.70	203.63
480.88	215.33
481.06	224.69
481.24	259.80
481.41	229.37
481.59	166.18
481.77	241.08
481.95	217.67
482.13	285.55
482.31	210.65
482.49	269.16
482.67	266.82
482.85	278.52
483.03	287.89
483.21	290.23
483.39	180.22
483.57	191.92
483.74	292.57
483.92	236.39
484.10	290.23
484.28	290.23
484.46	297.25
484.64	248.10
484.82	264.48
485.00	205.97
485.18	187.24
485.35	184.90
485.53	250.44
485.71	252.78
485.89	215.33
486.07	257.46
486.25	241.08
486.43	245.76
486.61	238.73
486.78	262.14
486.96	234.05
487.14	212.99
487.32	236.39
487.50	220.01
487.68	306.61
487.85	156.82
488.03	271.50
488.21	220.01
488.39	280.86
488.57	257.46
488.75	262.14
488.92	503.22
489.10	252.78
489.28	304.27
489.46	180.22
489.64	215.33
489.81	250.44
489.99	271.50
490.17	276.18
490.35	264.48
490.53	184.90
490.70	299.59
490.88	245.76
491.06	236.39
491.24	255.12
491.41	292.57
491.59	245.76
491.77	262.14
491.95	222.35
492.13	224.69
492.30	285.55
492.48	224.69
492.66	229.37
492.84	259.80
493.01	283.20
493.19	238.73
493.37	201.29
493.54	255.12
493.72	215.33
493.90	292.57
494.08	280.86
494.25	269.16
494.43	294.91
494.61	191.92
494.79	245.76
494.96	308.95
495.14	255.12
495.32	315.97
495.49	257.46
495.67	229.37
495.85	234.05
496.02	248.10
496.20	276.18
496.38	322.99
496.55	170.86
496.73	234.05
496.91	184.90
497.09	257.46
497.26	299.59
497.44	220.01
497.62	168.52
497.79	351.08
497.97	255.12
498.14	234.05
498.32	273.84
498.50	297.25
498.67	220.01
498.85	294.91
499.03	110.01
499.20	278.52
499.38	231.71
499.56	257.46
499.73	255.12
499.91	217.67
500.08	238.73
500.26	222.35
500.44	266.82
500.61	236.39
500.79	231.71
500.97	264.48
501.14	255.12
501.32	266.82
501.49	264.48
501.67	241.08
501.84	245.76
502.02	184.90
502.20	299.59
502.37	374.49
502.55	285.55
502.72	252.78
502.90	241.08
503.07	290.23
503.25	236.39
503.43	252.78
503.60	262.14
503.78	236.39
503.95	266.82
504.13	278.52
504.30	227.03
504.48	198.95
504.65	248.10
504.83	241.08
505.01	227.03
505.18	248.10
505.36	269.16
505.53	205.97
505.71	287.89
505.88	285.55
506.06	208.31
506.23	182.56
506.41	201.29
506.58	290.23
506.76	166.18
506.93	194.26
507.11	266.82
507.28	236.39
507.46	196.60
507.63	236.39
507.81	182.56
507.98	241.08
508.16	234.05
508.33	318.31
508.50	252.78
508.68	173.20
508.85	227.03
509.03	198.95
509.20	285.55
509.38	294.91
509.55	276.18
509.73	227.03
509.90	308.95
510.08	220.01
510.25	198.95
510.42	255.12
510.60	238.73
510.77	175.54
510.95	346.40
511.12	285.55
511.30	283.20
511.47	290.23
511.64	325.33
511.82	318.31
511.99	234.05
512.17	266.82
512.34	229.37
512.51	280.86
512.69	208.31
512.86	273.84
513.04	248.10
513.21	243.42
513.38	280.86
513.56	315.97
513.73	205.97
513.90	255.12
514.08	182.56
514.25	290.23
514.43	236.39
514.60	224.69
514.77	212.99
514.95	311.29
515.12	210.65
515.29	280.86
515.47	252.78
515.64	234.05
515.81	299.59
515.99	285.55
516.16	241.08
516.33	257.46
516.51	308.95
516.68	236.39
516.85	283.20
517.03	222.35
517.20	231.71
517.37	287.89
517.54	306.61
517.72	196.60
517.89	177.88
518.06	208.31
518.24	299.59
518.41	311.29
518.58	266.82
518.75	227.03
518.93	229.37
519.10	308.95
519.27	257.46
519.45	262.14
519.62	227.03
519.79	255.12
519.96	337.04
520.14	292.57
520.31	271.50
520.48	245.76
520.65	266.82
520.83	280.86
521.00	205.97
521.17	250.44
521.34	266.82
521.52	313.63
521.69	330.02
521.86	222.35
522.03	346.40
522.20	266.82
522.38	266.82
522.55	292.57
522.72	236.39
522.89	308.95
523.07	299.59
523.24	285.55
523.41	273.84
523.58	212.99
523.75	299.59
523.92	222.35
524.10	266.82
524.27	283.20
524.44	315.97
524.61	252.78
524.78	215.33
524.96	297.25
525.13	252.78
525.30	290.23
525.47	320.65
525.64	283.20
525.81	308.95
525.98	318.31
526.16	163.84
526.33	264.48
526.50	238.73
526.67	248.10
526.84	198.95
527.01	252.78
527.18	238.73
527.36	304.27
527.53	259.80
527.70	353.42
527.87	285.55
528.04	257.46
528.21	210.65
528.38	311.29
528.55	248.10
528.72	252.78
528.89	372.15
529.07	294.91
529.24	285.55
529.41	278.52
529.58	269.16
529.75	266.82
529.92	285.55
530.09	257.46
530.26	294.91
530.43	255.12
530.60	210.65
530.77	276.18
530.94	231.71
531.11	262.14
531.28	238.73
531.46	280.86
531.63	264.48
531.80	269.16
531.97	334.70
532.14	339.38
532.31	318.31
532.48	322.99
532.65	362.78
532.82	283.20
532.99	322.99
533.16	273.84
533.33	262.14
533.50	334.70
533.67	271.50
533.84	397.89
534.01	344.06
534.18	315.97
534.35	280.86
534.52	280.86
534.69	299.59
534.86	280.86
535.03	287.89
535.20	299.59
535.37	318.31
535.54	259.80
535.71	301.93
535.88	355.76
536.05	341.72
536.22	306.61
536.38	269.16
536.55	285.55
536.72	409.59
536.89	315.97
537.06	266.82
537.23	318.31
537.40	292.57
537.57	320.65
537.74	341.72
537.91	402.57
538.08	283.20
538.25	278.52
538.42	271.50
538.59	227.03
538.75	248.10
538.92	322.99
539.09	318.31
539.26	320.65
539.43	400.23
539.60	807.48
539.77	968.98
539.94	950.26
540.11	692.80
540.28	554.71
540.44	479.81
540.61	414.27
540.78	430.66
540.95	479.81
541.12	582.79
541.29	552.37
541.46	627.26
541.62	486.83
541.79	470.45
541.96	489.17
542.13	493.85
542.30	514.92
542.47	475.13
542.63	500.87
542.80	512.58
542.97	482.15
543.14	430.66
543.31	486.83
543.48	468.11
543.64	528.96
543.81	514.92
543.98	465.77
544.15	472.79
544.32	475.13
544.48	477.47
544.65	507.90
544.82	458.74
544.99	447.04
545.16	428.32
545.32	482.15
545.49	720.88
545.66	903.45
545.83	997.07
546.00	809.83
546.16	634.29
546.33	650.67
546.50	486.83
546.67	470.45
546.83	442.36
547.00	409.59
547.17	433.00
547.34	407.25
547.50	416.62
547.67	332.36
547.84	383.85
548.00	348.74
548.17	388.53
548.34	358.10
548.51	355.76
548.67	404.91
548.84	379.17
549.01	325.33
549.18	414.27
549.34	418.96
549.51	337.04
549.68	358.10
549.84	362.78
550.01	313.63
550.18	442.36
550.34	376.83
550.51	348.74
550.68	339.38
550.84	299.59
551.01	297.25
551.18	393.21
551.34	337.04
551.51	287.89
551.68	360.44
551.84	376.83
552.01	308.95
552.18	332.36
552.34	325.33
552.51	299.59
552.68	245.76
552.84	301.93
553.01	365.12
553.18	318.31
553.34	297.25
553.51	266.82
553.67	255.12
553.84	330.02
554.01	276.18
554.17	346.40
554.34	330.02
554.51	327.68
554.67	271.50
554.84	266.82
555.00	301.93
555.17	330.02
555.33	341.72
555.50	372.15
555.67	259.80
555.83	311.29
556.00	339.38
556.16	458.74
556.33	299.59
556.50	245.76
556.66	283.20
556.83	306.61
556.99	259.80
557.16	271.50
557.32	248.10
557.49	236.39
557.65	306.61
557.82	269.16
557.98	287.89
558.15	201.29
558.32	238.73
558.48	212.99
558.65	283.20
558.81	238.73
558.98	212.99
559.14	308.95
559.31	252.78
559.47	257.46
559.64	290.23
559.80	337.04
559.97	252.78
560.13	215.33
560.30	196.60
560.46	224.69
560.63	276.18
560.79	280.86
560.96	241.08
561.12	210.65
561.29	238.73
561.45	241.08
561.61	330.02
561.78	320.65
561.94	187.24
562.11	170.86
562.27	273.84
562.44	297.25
562.60	252.78
562.77	285.55
562.93	304.27
563.10	355.76
563.26	301.93
563.42	308.95
563.59	306.61
563.75	215.33
563.92	259.80
564.08	215.33
564.24	348.74
564.41	299.59
564.57	215.33
564.74	135.75
564.90	248.10
565.07	276.18
565.23	339.38
565.39	322.99
565.56	297.25
565.72	334.70
565.88	255.12
566.05	212.99
566.21	201.29
566.38	266.82
566.54	255.12
566.70	210.65
566.87	283.20
567.03	248.10
567.19	252.78
567.36	248.10
567.52	257.46
567.68	320.65
567.85	245.76
568.01	294.91
568.17	234.05
568.34	280.86
568.50	290.23
568.66	203.63
568.83	248.10
568.99	264.48
569.15	262.14
569.32	273.84
569.48	248.10
569.64	266.82
569.81	285.55
569.97	283.20
570.13	222.35
570.30	208.31
570.46	273.84
570.62	285.55
570.78	243.42
570.95	245.76
571.11	304.27
571.27	334.70
571.43	236.39
571.60	205.97
571.76	318.31
571.92	285.55
572.09	266.82
572.25	187.24
572.41	184.90
572.57	220.01
572.74	315.97
572.90	217.67
573.06	203.63
573.22	266.82
573.38	271.50
573.55	175.54
573.71	208.31
573.87	280.86
574.03	196.60
574.20	236.39
574.36	266.82
574.52	294.91
574.68	313.63
574.84	234.05
575.01	245.76
575.17	325.33
575.33	231.71
575.49	311.29
575.65	266.82
575.82	353.42
575.98	482.15
576.14	463.43
576.30	519.60
576.46	489.17
576.62	468.11
576.79	435.34
576.95	449.38
577.11	311.29
577.27	367.46
577.43	376.83
577.59	273.84
577.75	259.80
577.92	290.23
578.08	292.57
578.24	330.02
578.40	390.87
578.56	334.70
578.72	479.81
578.88	416.62
579.04	320.65
579.21	315.97
579.37	390.87
579.53	257.46
579.69	393.21
579.85	292.57
580.01	369.80
580.17	334.70
580.33	484.49
580.49	372.15
580.65	355.76
580.82	386.19
580.98	334.70
581.14	337.04
581.30	292.57
581.46	337.04
581.62	404.91
581.78	475.13
581.94	500.87
582.10	379.17
582.26	348.74
582.42	409.59
582.58	407.25
582.74	414.27
582.90	411.93
583.06	379.17
583.22	330.02
583.38	440.02
583.54	435.34
583.70	393.21
583.86	470.45
584.02	531.30
584.18	685.78
584.34	774.72
584.50	1781.15
584.66	12280.79
584.82	30052.48
584.98	40133.17
585.14	34534.60
585.30	21474.42
585.46	12961.89
585.62	8093.57
585.78	4095.94
585.94	1720.29
586.10	966.64
586.26	688.12
586.42	667.05
586.58	503.22
586.74	491.51
586.90	416.62
587.06	500.87
587.22	496.19
587.38	493.85
587.54	816.85
587.70	1895.83
587.86	2782.90
588.02	2928.01
588.18	2172.02
588.34	1490.92
588.49	1046.22
588.65	725.57
588.81	454.06
588.97	278.52
589.13	339.38
589.29	306.61
589.45	259.80
589.61	297.25
589.77	442.36
589.93	374.49
590.08	414.27
590.24	341.72
590.40	330.02
590.56	315.97
590.72	367.46
590.88	355.76
591.04	435.34
591.20	273.84
591.35	374.49
591.51	358.10
591.67	238.73
591.83	337.04
591.99	341.72
592.15	320.65
592.31	320.65
592.46	280.86
592.62	372.15
592.78	369.80
592.94	376.83
593.10	339.38
593.26	334.70
593.41	360.44
593.57	416.62
593.73	423.64
593.89	1640.72
594.05	3686.34
594.20	5029.81
594.36	4514.89
594.52	3126.96
594.68	2129.89
594.84	1423.05
594.99	884.72
595.15	528.96
595.31	374.49
595.47	397.89
595.62	287.89
595.78	311.29
595.94	320.65
596.10	383.85
596.25	360.44
596.41	283.20
596.57	278.52
596.73	243.42
596.88	484.49
597.04	980.68
597.20	1320.06
597.36	1394.96
597.51	1135.16
597.67	753.65
597.83	697.48
597.99	493.85
598.14	367.46
598.30	330.02
598.46	311.29
598.61	369.80
598.77	313.63
598.93	334.70
599.09	337.04
599.24	283.20
599.40	311.29
599.56	299.59
599.71	311.29
599.87	259.80
600.03	353.42
600.18	283.20
600.34	297.25
600.50	276.18
600.65	257.46
600.81	301.93
600.97	283.20
601.12	266.82
601.28	348.74
601.44	339.38
601.59	297.25
601.75	341.72
601.91	287.89
602.06	292.57
602.22	365.12
602.37	472.79
602.53	954.94
602.69	1413.68
602.84	1387.94
603.00	1074.31
603.16	760.67
603.31	606.20
603.47	435.34
603.62	299.59
603.78	245.76
603.94	234.05
604.09	234.05
604.25	280.86
604.40	290.23
604.56	220.01
604.71	236.39
604.87	259.80
605.03	205.97
605.18	315.97
605.34	379.17
605.49	264.48
605.65	273.84
605.80	264.48
605.96	262.14
606.12	276.18
606.27	313.63
606.43	334.70
606.58	367.46
606.74	575.77
606.89	1872.43
607.05	3475.70
607.20	4290.20
607.36	3515.48
607.51	2497.35
607.67	1727.32
607.82	1221.76
607.98	753.65
608.13	500.87
608.29	468.11
608.44	435.34
608.60	425.98
608.75	503.22
608.91	786.42
609.06	3016.95
609.22	5675.80
609.37	7096.50
609.53	6394.34
609.68	4423.61
609.84	2953.76
609.99	2106.48
610.15	1233.46
