SpectraSuite Data File
++++++++++++++++++++++++++++++++++++
Date: Fri Oct 04 11:34:09 GMT-05:00 2013
User: price-jones
Dark Spectrum Present: No
Reference Spectrum Present: No
Number of Sampled Component Spectra: 1
Spectrometers: USB2+H05261
Integration Time (usec): 100000 (USB2+H05261)
Spectra Averaged: 1 (USB2+H05261)
Boxcar Smoothing: 0 (USB2+H05261)
Correct for Electrical Dark: No (USB2+H05261)
Strobe/Lamp Enabled: No (USB2+H05261)
Correct for Detector Non-linearity: No (USB2+H05261)
Correct for Stray Light: No (USB2+H05261)
Number of Pixels in Processed Spectrum: 2048
>>>>>Begin Processed Spectral Data<<<<<
365.73	67.88
365.92	67.88
366.12	67.88
366.32	0.00
366.52	0.00
366.72	0.00
366.91	0.00
367.11	0.00
367.31	0.00
367.51	0.00
367.70	0.00
367.90	0.00
368.10	18.72
368.30	0.00
368.49	0.00
368.69	0.00
368.89	0.00
369.09	0.00
369.28	0.00
369.48	0.00
369.68	32.77
369.87	42.13
370.07	0.00
370.27	72.56
370.47	32.77
370.66	63.19
370.86	65.54
371.06	140.43
371.25	182.56
371.45	100.64
371.65	110.01
371.84	2.34
372.04	93.62
372.24	173.20
372.44	184.90
372.63	72.56
372.83	163.84
373.03	156.82
373.22	124.05
373.42	81.92
373.62	119.37
373.81	126.39
374.01	252.78
374.21	187.24
374.40	126.39
374.60	154.48
374.79	72.56
374.99	133.41
375.19	194.26
375.38	222.35
375.58	107.66
375.78	177.88
375.97	114.69
376.17	208.31
376.37	175.54
376.56	154.48
376.76	156.82
376.95	138.09
377.15	147.45
377.35	154.48
377.54	212.99
377.74	42.13
377.93	105.32
378.13	154.48
378.33	152.13
378.52	100.64
378.72	138.09
378.91	79.58
379.11	145.11
379.31	145.11
379.50	51.49
379.70	142.77
379.89	126.39
380.09	81.92
380.28	100.64
380.48	107.66
380.68	74.90
380.87	126.39
381.07	133.41
381.26	133.41
381.46	217.67
381.65	154.48
381.85	138.09
382.04	124.05
382.24	121.71
382.43	142.77
382.63	49.15
382.83	133.41
383.02	224.69
383.22	147.45
383.41	128.73
383.61	152.13
383.80	98.30
384.00	145.11
384.19	131.07
384.39	138.09
384.58	65.54
384.78	227.03
384.97	126.39
385.17	105.32
385.36	117.03
385.56	175.54
385.75	107.66
385.95	140.43
386.14	133.41
386.34	210.65
386.53	147.45
386.72	161.50
386.92	110.01
387.11	98.30
387.31	168.52
387.50	128.73
387.70	142.77
387.89	168.52
388.09	100.64
388.28	133.41
388.48	98.30
388.67	114.69
388.86	51.49
389.06	105.32
389.25	126.39
389.45	149.79
389.64	100.64
389.84	203.63
390.03	100.64
390.22	114.69
390.42	142.77
390.61	102.98
390.81	86.60
391.00	170.86
391.19	180.22
391.39	163.84
391.58	145.11
391.78	142.77
391.97	168.52
392.16	142.77
392.36	152.13
392.55	121.71
392.75	131.07
392.94	119.37
393.13	112.35
393.33	145.11
393.52	182.56
393.71	161.50
393.91	128.73
394.10	131.07
394.29	187.24
394.49	177.88
394.68	170.86
394.88	194.26
395.07	229.37
395.26	112.35
395.46	177.88
395.65	110.01
395.84	145.11
396.04	205.97
396.23	166.18
396.42	86.60
396.62	119.37
396.81	236.39
397.00	74.90
397.19	182.56
397.39	63.19
397.58	257.46
397.77	184.90
397.97	117.03
398.16	184.90
398.35	168.52
398.55	184.90
398.74	128.73
398.93	191.92
399.12	154.48
399.32	152.13
399.51	135.75
399.70	231.71
399.90	168.52
400.09	170.86
400.28	241.08
400.47	159.16
400.67	145.11
400.86	194.26
401.05	205.97
401.24	124.05
401.44	124.05
401.63	112.35
401.82	156.82
402.01	107.66
402.21	159.16
402.40	182.56
402.59	135.75
402.78	95.96
402.97	161.50
403.17	194.26
403.36	154.48
403.55	135.75
403.74	250.44
403.93	273.84
404.13	339.38
404.32	222.35
404.51	231.71
404.70	231.71
404.89	187.24
405.09	205.97
405.28	88.94
405.47	117.03
405.66	161.50
405.85	112.35
406.05	159.16
406.24	201.29
406.43	154.48
406.62	227.03
406.81	189.58
407.00	124.05
407.20	208.31
407.39	128.73
407.58	32.77
407.77	173.20
407.96	156.82
408.15	212.99
408.34	203.63
408.54	203.63
408.73	229.37
408.92	91.28
409.11	147.45
409.30	205.97
409.49	93.62
409.68	107.66
409.87	100.64
410.07	184.90
410.26	238.73
410.45	145.11
410.64	142.77
410.83	217.67
411.02	196.60
411.21	194.26
411.40	177.88
411.59	142.77
411.78	163.84
411.98	175.54
412.17	145.11
412.36	182.56
412.55	161.50
412.74	124.05
412.93	236.39
413.12	194.26
413.31	161.50
413.50	175.54
413.69	156.82
413.88	184.90
414.07	135.75
414.26	168.52
414.45	154.48
414.64	187.24
414.83	161.50
415.02	159.16
415.22	198.95
415.41	224.69
415.60	159.16
415.79	210.65
415.98	208.31
416.17	161.50
416.36	182.56
416.55	212.99
416.74	196.60
416.93	152.13
417.12	98.30
417.31	201.29
417.50	191.92
417.69	142.77
417.88	203.63
418.07	159.16
418.26	224.69
418.45	161.50
418.64	215.33
418.83	337.04
419.02	248.10
419.21	194.26
419.39	168.52
419.58	234.05
419.77	215.33
419.96	245.76
420.15	224.69
420.34	156.82
420.53	149.79
420.72	236.39
420.91	152.13
421.10	60.85
421.29	107.66
421.48	184.90
421.67	126.39
421.86	142.77
422.05	198.95
422.24	152.13
422.43	231.71
422.61	203.63
422.80	163.84
422.99	177.88
423.18	133.41
423.37	201.29
423.56	252.78
423.75	255.12
423.94	175.54
424.13	145.11
424.32	161.50
424.50	168.52
424.69	241.08
424.88	154.48
425.07	184.90
425.26	231.71
425.45	243.42
425.64	224.69
425.83	231.71
426.01	248.10
426.20	145.11
426.39	189.58
426.58	147.45
426.77	152.13
426.96	278.52
427.15	191.92
427.33	163.84
427.52	154.48
427.71	189.58
427.90	180.22
428.09	117.03
428.28	191.92
428.46	154.48
428.65	173.20
428.84	140.43
429.03	138.09
429.22	147.45
429.40	74.90
429.59	133.41
429.78	273.84
429.97	126.39
430.16	177.88
430.34	173.20
430.53	117.03
430.72	154.48
430.91	210.65
431.10	180.22
431.28	217.67
431.47	196.60
431.66	128.73
431.85	212.99
432.03	173.20
432.22	182.56
432.41	203.63
432.60	273.84
432.79	180.22
432.97	344.06
433.16	273.84
433.35	243.42
433.54	189.58
433.72	196.60
433.91	229.37
434.10	191.92
434.28	215.33
434.47	201.29
434.66	257.46
434.85	196.60
435.03	315.97
435.22	393.21
435.41	500.87
435.59	512.58
435.78	369.80
435.97	320.65
436.16	255.12
436.34	201.29
436.53	222.35
436.72	229.37
436.90	187.24
437.09	180.22
437.28	154.48
437.46	180.22
437.65	198.95
437.84	168.52
438.02	189.58
438.21	124.05
438.40	170.86
438.58	177.88
438.77	168.52
438.96	124.05
439.14	152.13
439.33	201.29
439.52	180.22
439.70	229.37
439.89	138.09
440.08	201.29
440.26	187.24
440.45	198.95
440.63	138.09
440.82	234.05
441.01	107.66
441.19	154.48
441.38	152.13
441.57	114.69
441.75	236.39
441.94	203.63
442.12	203.63
442.31	205.97
442.50	184.90
442.68	166.18
442.87	142.77
443.05	217.67
443.24	187.24
443.43	215.33
443.61	236.39
443.80	126.39
443.98	161.50
444.17	187.24
444.35	191.92
444.54	210.65
444.73	156.82
444.91	259.80
445.10	194.26
445.28	119.37
445.47	175.54
445.65	140.43
445.84	231.71
446.02	161.50
446.21	210.65
446.39	128.73
446.58	194.26
446.77	208.31
446.95	124.05
447.14	205.97
447.32	245.76
447.51	135.75
447.69	168.52
447.88	184.90
448.06	217.67
448.25	191.92
448.43	191.92
448.62	238.73
448.80	168.52
448.99	280.86
449.17	133.41
449.36	138.09
449.54	191.92
449.73	208.31
449.91	245.76
450.10	140.43
450.28	201.29
450.46	166.18
450.65	259.80
450.83	180.22
451.02	203.63
451.20	180.22
451.39	182.56
451.57	205.97
451.76	194.26
451.94	238.73
452.13	262.14
452.31	191.92
452.49	175.54
452.68	112.35
452.86	170.86
453.05	170.86
453.23	191.92
453.42	215.33
453.60	163.84
453.78	271.50
453.97	212.99
454.15	107.66
454.34	238.73
454.52	217.67
454.70	175.54
454.89	276.18
455.07	245.76
455.26	163.84
455.44	180.22
455.62	168.52
455.81	205.97
455.99	126.39
456.17	177.88
456.36	173.20
456.54	227.03
456.73	149.79
456.91	215.33
457.09	154.48
457.28	191.92
457.46	173.20
457.64	250.44
457.83	210.65
458.01	161.50
458.19	184.90
458.38	149.79
458.56	154.48
458.74	161.50
458.93	227.03
459.11	180.22
459.29	243.42
459.48	163.84
459.66	299.59
459.84	259.80
460.03	290.23
460.21	234.05
460.39	259.80
460.57	161.50
460.76	191.92
460.94	252.78
461.12	259.80
461.31	182.56
461.49	170.86
461.67	229.37
461.85	212.99
462.04	210.65
462.22	402.57
462.40	248.10
462.59	159.16
462.77	212.99
462.95	227.03
463.13	170.86
463.32	252.78
463.50	212.99
463.68	222.35
463.86	184.90
464.05	208.31
464.23	250.44
464.41	208.31
464.59	156.82
464.78	173.20
464.96	156.82
465.14	220.01
465.32	287.89
465.50	175.54
465.69	196.60
465.87	152.13
466.05	304.27
466.23	241.08
466.41	224.69
466.60	191.92
466.78	208.31
466.96	220.01
467.14	170.86
467.32	271.50
467.51	248.10
467.69	184.90
467.87	222.35
468.05	238.73
468.23	196.60
468.41	189.58
468.60	163.84
468.78	203.63
468.96	271.50
469.14	224.69
469.32	152.13
469.50	156.82
469.69	212.99
469.87	212.99
470.05	194.26
470.23	175.54
470.41	238.73
470.59	184.90
470.77	210.65
470.95	236.39
471.14	229.37
471.32	224.69
471.50	234.05
471.68	191.92
471.86	182.56
472.04	196.60
472.22	177.88
472.40	159.16
472.58	159.16
472.77	140.43
472.95	217.67
473.13	229.37
473.31	201.29
473.49	135.75
473.67	173.20
473.85	173.20
474.03	205.97
474.21	182.56
474.39	241.08
474.57	259.80
474.75	170.86
474.93	184.90
475.12	154.48
475.30	180.22
475.48	212.99
475.66	159.16
475.84	238.73
476.02	276.18
476.20	238.73
476.38	236.39
476.56	224.69
476.74	243.42
476.92	145.11
477.10	222.35
477.28	149.79
477.46	222.35
477.64	194.26
477.82	245.76
478.00	259.80
478.18	208.31
478.36	177.88
478.54	215.33
478.72	208.31
478.90	131.07
479.08	201.29
479.26	187.24
479.44	210.65
479.62	173.20
479.80	203.63
479.98	175.54
480.16	212.99
480.34	205.97
480.52	201.29
480.70	180.22
480.88	182.56
481.06	159.16
481.24	229.37
481.41	215.33
481.59	149.79
481.77	311.29
481.95	208.31
482.13	322.99
482.31	238.73
482.49	196.60
482.67	222.35
482.85	231.71
483.03	245.76
483.21	210.65
483.39	227.03
483.57	266.82
483.74	271.50
483.92	276.18
484.10	187.24
484.28	252.78
484.46	170.86
484.64	250.44
484.82	243.42
485.00	257.46
485.18	334.70
485.35	301.93
485.53	182.56
485.71	334.70
485.89	304.27
486.07	208.31
486.25	294.91
486.43	290.23
486.61	313.63
486.78	292.57
486.96	175.54
487.14	259.80
487.32	231.71
487.50	262.14
487.68	299.59
487.85	210.65
488.03	330.02
488.21	285.55
488.39	311.29
488.57	292.57
488.75	243.42
488.92	454.06
489.10	266.82
489.28	320.65
489.46	212.99
489.64	234.05
489.81	259.80
489.99	287.89
490.17	222.35
490.35	290.23
490.53	208.31
490.70	290.23
490.88	245.76
491.06	266.82
491.24	325.33
491.41	234.05
491.59	217.67
491.77	259.80
491.95	208.31
492.13	210.65
492.30	285.55
492.48	276.18
492.66	147.45
492.84	255.12
493.01	271.50
493.19	273.84
493.37	276.18
493.54	306.61
493.72	215.33
493.90	257.46
494.08	264.48
494.25	297.25
494.43	259.80
494.61	301.93
494.79	304.27
494.96	196.60
495.14	255.12
495.32	266.82
495.49	276.18
495.67	287.89
495.85	243.42
496.02	236.39
496.20	222.35
496.38	320.65
496.55	259.80
496.73	292.57
496.91	234.05
497.09	245.76
497.26	266.82
497.44	299.59
497.62	241.08
497.79	220.01
497.97	234.05
498.14	259.80
498.32	252.78
498.50	252.78
498.67	325.33
498.85	278.52
499.03	227.03
499.20	339.38
499.38	227.03
499.56	290.23
499.73	273.84
499.91	241.08
500.08	262.14
500.26	315.97
500.44	161.50
500.61	215.33
500.79	250.44
500.97	248.10
501.14	299.59
501.32	271.50
501.49	292.57
501.67	280.86
501.84	210.65
502.02	257.46
502.20	264.48
502.37	367.46
502.55	238.73
502.72	252.78
502.90	327.68
503.07	220.01
503.25	229.37
503.43	220.01
503.60	341.72
503.78	304.27
503.95	98.30
504.13	173.20
504.30	276.18
504.48	311.29
504.65	306.61
504.83	337.04
505.01	241.08
505.18	262.14
505.36	205.97
505.53	259.80
505.71	248.10
505.88	255.12
506.06	269.16
506.23	278.52
506.41	248.10
506.58	297.25
506.76	271.50
506.93	262.14
507.11	313.63
507.28	313.63
507.46	290.23
507.63	294.91
507.81	287.89
507.98	280.86
508.16	320.65
508.33	252.78
508.50	245.76
508.68	149.79
508.85	283.20
509.03	290.23
509.20	205.97
509.38	332.36
509.55	278.52
509.73	231.71
509.90	243.42
510.08	212.99
510.25	308.95
510.42	308.95
510.60	262.14
510.77	292.57
510.95	264.48
511.12	273.84
511.30	327.68
511.47	306.61
511.64	346.40
511.82	241.08
511.99	304.27
512.17	290.23
512.34	330.02
512.51	320.65
512.69	290.23
512.86	285.55
513.04	271.50
513.21	311.29
513.38	238.73
513.56	196.60
513.73	318.31
513.90	205.97
514.08	229.37
514.25	313.63
514.43	322.99
514.60	278.52
514.77	276.18
514.95	250.44
515.12	241.08
515.29	325.33
515.47	299.59
515.64	285.55
515.81	339.38
515.99	330.02
516.16	243.42
516.33	276.18
516.51	231.71
516.68	269.16
516.85	241.08
517.03	264.48
517.20	297.25
517.37	297.25
517.54	259.80
517.72	227.03
517.89	299.59
518.06	238.73
518.24	358.10
518.41	325.33
518.58	238.73
518.75	241.08
518.93	311.29
519.10	205.97
519.27	278.52
519.45	280.86
519.62	203.63
519.79	140.43
519.96	255.12
520.14	220.01
520.31	339.38
520.48	264.48
520.65	283.20
520.83	257.46
521.00	269.16
521.17	287.89
521.34	220.01
521.52	297.25
521.69	266.82
521.86	205.97
522.03	273.84
522.20	285.55
522.38	210.65
522.55	264.48
522.72	264.48
522.89	292.57
523.07	355.76
523.24	287.89
523.41	306.61
523.58	257.46
523.75	224.69
523.92	262.14
524.10	285.55
524.27	294.91
524.44	262.14
524.61	341.72
524.78	325.33
524.96	271.50
525.13	222.35
525.30	299.59
525.47	388.53
525.64	299.59
525.81	255.12
525.98	297.25
526.16	227.03
526.33	266.82
526.50	229.37
526.67	168.52
526.84	184.90
527.01	201.29
527.18	276.18
527.36	280.86
527.53	257.46
527.70	285.55
527.87	278.52
528.04	315.97
528.21	287.89
528.38	341.72
528.55	299.59
528.72	243.42
528.89	306.61
529.07	245.76
529.24	236.39
529.41	325.33
529.58	196.60
529.75	325.33
529.92	297.25
530.09	283.20
530.26	285.55
530.43	292.57
530.60	180.22
530.77	231.71
530.94	210.65
531.11	194.26
531.28	306.61
531.46	259.80
531.63	337.04
531.80	315.97
531.97	351.08
532.14	273.84
532.31	320.65
532.48	379.17
532.65	402.57
532.82	425.98
532.99	395.55
533.16	315.97
533.33	334.70
533.50	327.68
533.67	418.96
533.84	493.85
534.01	395.55
534.18	442.36
534.35	449.38
534.52	269.16
534.69	411.93
534.86	243.42
535.03	245.76
535.20	355.76
535.37	372.15
535.54	402.57
535.71	299.59
535.88	278.52
536.05	348.74
536.22	304.27
536.38	292.57
536.55	320.65
536.72	262.14
536.89	306.61
537.06	330.02
537.23	332.36
537.40	285.55
537.57	308.95
537.74	393.21
537.91	346.40
538.08	393.21
538.25	351.08
538.42	369.80
538.59	292.57
538.75	365.12
538.92	358.10
539.09	306.61
539.26	318.31
539.43	538.32
539.60	1238.14
539.77	1706.25
539.94	1741.36
540.11	1186.65
540.28	840.25
540.44	702.16
540.61	503.22
540.78	519.60
540.95	554.71
541.12	627.26
541.29	538.32
541.46	671.73
541.62	610.88
541.79	535.98
541.96	540.66
542.13	561.73
542.30	566.41
542.47	519.60
542.63	496.19
542.80	601.52
542.97	566.41
543.14	554.71
543.31	585.13
543.48	521.94
543.64	500.87
543.81	559.39
543.98	421.30
544.15	552.37
544.32	580.45
544.48	521.94
544.65	477.47
544.82	472.79
544.99	528.96
545.16	582.79
545.32	573.43
545.49	781.74
545.66	978.34
545.83	1128.14
546.00	1022.81
546.16	690.46
546.33	568.75
546.50	503.22
546.67	491.51
546.83	486.83
547.00	421.30
547.17	339.38
547.34	510.24
547.50	397.89
547.67	437.68
547.84	454.06
548.00	468.11
548.17	393.21
548.34	374.49
548.51	416.62
548.67	500.87
548.84	416.62
549.01	393.21
549.18	421.30
549.34	339.38
549.51	360.44
549.68	358.10
549.84	287.89
550.01	327.68
550.18	325.33
550.34	311.29
550.51	346.40
550.68	414.27
550.84	301.93
551.01	318.31
551.18	376.83
551.34	299.59
551.51	318.31
551.68	304.27
551.84	416.62
552.01	299.59
552.18	428.32
552.34	421.30
552.51	414.27
552.68	367.46
552.84	369.80
553.01	327.68
553.18	339.38
553.34	315.97
553.51	348.74
553.67	266.82
553.84	299.59
554.01	341.72
554.17	292.57
554.34	322.99
554.51	341.72
554.67	346.40
554.84	318.31
555.00	348.74
555.17	259.80
555.33	313.63
555.50	299.59
555.67	315.97
555.83	255.12
556.00	334.70
556.16	496.19
556.33	252.78
556.50	301.93
556.66	276.18
556.83	259.80
556.99	271.50
557.16	315.97
557.32	315.97
557.49	327.68
557.65	203.63
557.82	266.82
557.98	266.82
558.15	212.99
558.32	269.16
558.48	236.39
558.65	208.31
558.81	255.12
558.98	308.95
559.14	245.76
559.31	264.48
559.47	257.46
559.64	252.78
559.80	243.42
559.97	173.20
560.13	308.95
560.30	276.18
560.46	220.01
560.63	243.42
560.79	259.80
560.96	212.99
561.12	262.14
561.29	304.27
561.45	255.12
561.61	262.14
561.78	418.96
561.94	264.48
562.11	287.89
562.27	262.14
562.44	170.86
562.60	222.35
562.77	276.18
562.93	306.61
563.10	287.89
563.26	294.91
563.42	327.68
563.59	290.23
563.75	234.05
563.92	294.91
564.08	299.59
564.24	322.99
564.41	407.25
564.57	217.67
564.74	271.50
564.90	304.27
565.07	306.61
565.23	339.38
565.39	348.74
565.56	318.31
565.72	255.12
565.88	416.62
566.05	248.10
566.21	220.01
566.38	285.55
566.54	327.68
566.70	217.67
566.87	287.89
567.03	259.80
567.19	301.93
567.36	266.82
567.52	266.82
567.68	280.86
567.85	264.48
568.01	280.86
568.17	278.52
568.34	264.48
568.50	294.91
568.66	325.33
568.83	351.08
568.99	308.95
569.15	252.78
569.32	280.86
569.48	241.08
569.64	280.86
569.81	222.35
569.97	212.99
570.13	301.93
570.30	229.37
570.46	280.86
570.62	290.23
570.78	283.20
570.95	231.71
571.11	297.25
571.27	271.50
571.43	264.48
571.60	248.10
571.76	301.93
571.92	313.63
572.09	273.84
572.25	297.25
572.41	285.55
572.57	222.35
572.74	301.93
572.90	311.29
573.06	315.97
573.22	248.10
573.38	372.15
573.55	297.25
573.71	245.76
573.87	248.10
574.03	346.40
574.20	266.82
574.36	325.33
574.52	362.78
574.68	372.15
574.84	411.93
575.01	318.31
575.17	301.93
575.33	217.67
575.49	395.55
575.65	374.49
575.82	376.83
575.98	655.35
576.14	777.06
576.30	774.72
576.46	755.99
576.62	620.24
576.79	564.07
576.95	465.77
577.11	421.30
577.27	346.40
577.43	402.57
577.59	353.42
577.75	360.44
577.92	318.31
578.08	355.76
578.24	318.31
578.40	390.87
578.56	330.02
578.72	491.51
578.88	540.66
579.04	477.47
579.21	451.72
579.37	332.36
579.53	435.34
579.69	454.06
579.85	416.62
580.01	397.89
580.17	505.56
580.33	409.59
580.49	444.70
580.65	418.96
580.82	407.25
580.98	369.80
581.14	372.15
581.30	440.02
581.46	456.40
581.62	650.67
581.78	702.16
581.94	669.39
582.10	568.75
582.26	566.41
582.42	461.09
582.58	479.81
582.74	465.77
582.90	543.00
583.06	547.69
583.22	533.64
583.38	568.75
583.54	617.90
583.70	732.59
583.86	741.95
584.02	842.59
584.18	943.24
584.34	1313.04
584.50	3300.16
584.66	24203.48
584.82	56739.27
584.98	65535.00
585.14	62534.43
585.30	48718.25
585.46	29879.28
585.62	18333.42
585.78	8580.40
585.94	3515.48
586.10	1687.53
586.26	1151.54
586.42	919.83
586.58	821.53
586.74	746.63
586.90	779.40
587.06	753.65
587.22	657.69
587.38	704.50
587.54	1249.85
587.70	3667.62
587.86	5944.96
588.02	6619.04
588.18	4524.26
588.34	2963.12
588.49	1947.33
588.65	1287.29
588.81	690.46
588.97	503.22
589.13	449.38
589.29	449.38
589.45	458.74
589.61	383.85
589.77	454.06
589.93	456.40
590.08	552.37
590.24	538.32
590.40	496.19
590.56	500.87
590.72	484.49
590.88	404.91
591.04	468.11
591.20	395.55
591.35	449.38
591.51	465.77
591.67	418.96
591.83	404.91
591.99	355.76
592.15	411.93
592.31	313.63
592.46	332.36
592.62	386.19
592.78	425.98
592.94	425.98
593.10	369.80
593.26	418.96
593.41	416.62
593.57	496.19
593.73	624.92
593.89	3145.68
594.05	7688.66
594.20	11204.14
594.36	10321.76
594.52	6843.73
594.68	4470.42
594.84	2977.16
594.99	1629.01
595.15	887.06
595.31	645.99
595.47	425.98
595.62	351.08
595.78	327.68
595.94	409.59
596.10	383.85
596.25	421.30
596.41	365.12
596.57	353.42
596.73	393.21
596.88	653.01
597.04	1558.80
597.20	2352.24
597.36	2843.75
597.51	2195.42
597.67	1544.75
597.83	1064.94
597.99	779.40
598.14	538.32
598.30	475.13
598.46	390.87
598.61	416.62
598.77	372.15
598.93	365.12
599.09	367.46
599.24	339.38
599.40	339.38
599.56	383.85
599.71	348.74
599.87	437.68
600.03	348.74
600.18	327.68
600.34	299.59
600.50	294.91
600.65	262.14
600.81	344.06
600.97	358.10
601.12	262.14
601.28	301.93
601.44	325.33
601.59	334.70
601.75	313.63
601.91	327.68
602.06	353.42
602.22	395.55
602.37	807.48
602.53	1781.15
602.69	2827.37
602.84	2782.90
603.00	2141.59
603.16	1516.67
603.31	1177.29
603.47	812.17
603.62	456.40
603.78	397.89
603.94	355.76
604.09	404.91
604.25	355.76
604.40	369.80
604.56	278.52
604.71	299.59
604.87	360.44
605.03	290.23
605.18	346.40
605.34	390.87
605.49	339.38
605.65	395.55
605.80	346.40
605.96	304.27
606.12	376.83
606.27	463.43
606.43	479.81
606.58	437.68
606.74	961.96
606.89	3536.55
607.05	6972.46
607.20	9362.14
607.36	7847.82
607.51	5408.98
607.67	3454.63
607.82	2403.73
607.98	1394.96
608.13	786.42
608.29	512.58
608.44	566.41
608.60	550.03
608.75	662.37
608.91	1350.49
609.06	5703.89
609.22	12676.34
609.37	16468.01
609.53	14464.51
609.68	9832.59
609.84	6335.83
609.99	4369.78
610.15	2354.58
