SpectraSuite Data File
++++++++++++++++++++++++++++++++++++
Date: Fri Oct 04 11:33:52 GMT-05:00 2013
User: price-jones
Dark Spectrum Present: No
Reference Spectrum Present: No
Number of Sampled Component Spectra: 1
Spectrometers: USB2+H05261
Integration Time (usec): 100000 (USB2+H05261)
Spectra Averaged: 1 (USB2+H05261)
Boxcar Smoothing: 0 (USB2+H05261)
Correct for Electrical Dark: No (USB2+H05261)
Strobe/Lamp Enabled: No (USB2+H05261)
Correct for Detector Non-linearity: No (USB2+H05261)
Correct for Stray Light: No (USB2+H05261)
Number of Pixels in Processed Spectrum: 2048
>>>>>Begin Processed Spectral Data<<<<<
365.73	30.43
365.92	30.43
366.12	30.43
366.32	0.00
366.52	0.00
366.72	2.34
366.91	0.00
367.11	0.00
367.31	18.72
367.51	0.00
367.70	0.00
367.90	23.41
368.10	0.00
368.30	2.34
368.49	0.00
368.69	0.00
368.89	0.00
369.09	0.00
369.28	4.68
369.48	0.00
369.68	0.00
369.87	23.41
370.07	53.83
370.27	14.04
370.47	0.00
370.66	37.45
370.86	4.68
371.06	56.17
371.25	121.71
371.45	91.28
371.65	91.28
371.84	65.54
372.04	88.94
372.24	53.83
372.44	131.07
372.63	133.41
372.83	124.05
373.03	95.96
373.22	81.92
373.42	159.16
373.62	147.45
373.81	161.50
374.01	128.73
374.21	107.66
374.40	88.94
374.60	102.98
374.79	117.03
374.99	194.26
375.19	147.45
375.38	152.13
375.58	180.22
375.78	222.35
375.97	194.26
376.17	208.31
376.37	168.52
376.56	184.90
376.76	166.18
376.95	212.99
377.15	184.90
377.35	128.73
377.54	102.98
377.74	107.66
377.93	152.13
378.13	126.39
378.33	175.54
378.52	161.50
378.72	255.12
378.91	131.07
379.11	105.32
379.31	166.18
379.50	152.13
379.70	135.75
379.89	105.32
380.09	124.05
380.28	152.13
380.48	154.48
380.68	114.69
380.87	126.39
381.07	114.69
381.26	177.88
381.46	187.24
381.65	154.48
381.85	131.07
382.04	42.13
382.24	175.54
382.43	126.39
382.63	135.75
382.83	93.62
383.02	175.54
383.22	142.77
383.41	124.05
383.61	135.75
383.80	133.41
384.00	128.73
384.19	154.48
384.39	149.79
384.58	161.50
384.78	112.35
384.97	63.19
385.17	100.64
385.36	128.73
385.56	133.41
385.75	74.90
385.95	168.52
386.14	156.82
386.34	84.26
386.53	114.69
386.72	166.18
386.92	187.24
387.11	161.50
387.31	166.18
387.50	140.43
387.70	102.98
387.89	154.48
388.09	121.71
388.28	142.77
388.48	124.05
388.67	145.11
388.86	177.88
389.06	147.45
389.25	236.39
389.45	112.35
389.64	187.24
389.84	187.24
390.03	147.45
390.22	152.13
390.42	159.16
390.61	163.84
390.81	95.96
391.00	107.66
391.19	149.79
391.39	124.05
391.58	145.11
391.78	56.17
391.97	128.73
392.16	114.69
392.36	180.22
392.55	220.01
392.75	154.48
392.94	147.45
393.13	79.58
393.33	149.79
393.52	95.96
393.71	173.20
393.91	86.60
394.10	121.71
394.29	107.66
394.49	102.98
394.68	126.39
394.88	184.90
395.07	177.88
395.26	131.07
395.46	145.11
395.65	112.35
395.84	156.82
396.04	215.33
396.23	133.41
396.42	142.77
396.62	114.69
396.81	107.66
397.00	110.01
397.19	163.84
397.39	117.03
397.58	149.79
397.77	124.05
397.97	142.77
398.16	79.58
398.35	70.22
398.55	112.35
398.74	154.48
398.93	189.58
399.12	88.94
399.32	201.29
399.51	194.26
399.70	156.82
399.90	194.26
400.09	234.05
400.28	149.79
400.47	191.92
400.67	191.92
400.86	168.52
401.05	95.96
401.24	145.11
401.44	119.37
401.63	110.01
401.82	149.79
402.01	105.32
402.21	133.41
402.40	145.11
402.59	182.56
402.78	198.95
402.97	138.09
403.17	161.50
403.36	152.13
403.55	126.39
403.74	140.43
403.93	114.69
404.13	210.65
404.32	262.14
404.51	248.10
404.70	114.69
404.89	168.52
405.09	156.82
405.28	187.24
405.47	135.75
405.66	102.98
405.85	184.90
406.05	163.84
406.24	191.92
406.43	131.07
406.62	177.88
406.81	124.05
407.00	182.56
407.20	175.54
407.39	177.88
407.58	107.66
407.77	198.95
407.96	133.41
408.15	161.50
408.34	128.73
408.54	191.92
408.73	142.77
408.92	154.48
409.11	152.13
409.30	198.95
409.49	166.18
409.68	163.84
409.87	168.52
410.07	119.37
410.26	91.28
410.45	77.24
410.64	110.01
410.83	140.43
411.02	121.71
411.21	215.33
411.40	208.31
411.59	217.67
411.78	117.03
411.98	168.52
412.17	177.88
412.36	198.95
412.55	145.11
412.74	189.58
412.93	201.29
413.12	147.45
413.31	166.18
413.50	105.32
413.69	114.69
413.88	203.63
414.07	166.18
414.26	175.54
414.45	180.22
414.64	173.20
414.83	126.39
415.02	231.71
415.22	98.30
415.41	177.88
415.60	138.09
415.79	159.16
415.98	177.88
416.17	91.28
416.36	198.95
416.55	166.18
416.74	175.54
416.93	196.60
417.12	156.82
417.31	119.37
417.50	189.58
417.69	231.71
417.88	138.09
418.07	152.13
418.26	215.33
418.45	128.73
418.64	215.33
418.83	147.45
419.02	135.75
419.21	198.95
419.39	133.41
419.58	182.56
419.77	100.64
419.96	220.01
420.15	208.31
420.34	227.03
420.53	210.65
420.72	154.48
420.91	131.07
421.10	168.52
421.29	196.60
421.48	124.05
421.67	145.11
421.86	98.30
422.05	135.75
422.24	159.16
422.43	95.96
422.61	191.92
422.80	198.95
422.99	182.56
423.18	117.03
423.37	224.69
423.56	177.88
423.75	147.45
423.94	170.86
424.13	166.18
424.32	147.45
424.50	100.64
424.69	133.41
424.88	173.20
425.07	210.65
425.26	250.44
425.45	245.76
425.64	208.31
425.83	177.88
426.01	187.24
426.20	163.84
426.39	173.20
426.58	201.29
426.77	222.35
426.96	205.97
427.15	236.39
427.33	163.84
427.52	184.90
427.71	210.65
427.90	149.79
428.09	102.98
428.28	156.82
428.46	133.41
428.65	166.18
428.84	173.20
429.03	184.90
429.22	189.58
429.40	161.50
429.59	142.77
429.78	210.65
429.97	112.35
430.16	135.75
430.34	234.05
430.53	105.32
430.72	194.26
430.91	189.58
431.10	166.18
431.28	180.22
431.47	210.65
431.66	166.18
431.85	212.99
432.03	166.18
432.22	196.60
432.41	170.86
432.60	114.69
432.79	107.66
432.97	227.03
433.16	145.11
433.35	159.16
433.54	177.88
433.72	128.73
433.91	187.24
434.10	198.95
434.28	114.69
434.47	161.50
434.66	147.45
434.85	201.29
435.03	220.01
435.22	369.80
435.41	383.85
435.59	339.38
435.78	292.57
435.97	212.99
436.16	248.10
436.34	119.37
436.53	196.60
436.72	217.67
436.90	243.42
437.09	152.13
437.28	105.32
437.46	177.88
437.65	149.79
437.84	128.73
438.02	152.13
438.21	220.01
438.40	124.05
438.58	217.67
438.77	173.20
438.96	208.31
439.14	131.07
439.33	156.82
439.52	180.22
439.70	187.24
439.89	84.26
440.08	210.65
440.26	175.54
440.45	152.13
440.63	161.50
440.82	138.09
441.01	147.45
441.19	191.92
441.38	159.16
441.57	166.18
441.75	227.03
441.94	222.35
442.12	229.37
442.31	135.75
442.50	245.76
442.68	231.71
442.87	147.45
443.05	173.20
443.24	227.03
443.43	248.10
443.61	245.76
443.80	138.09
443.98	203.63
444.17	170.86
444.35	266.82
444.54	163.84
444.73	182.56
444.91	142.77
445.10	187.24
445.28	229.37
445.47	140.43
445.65	170.86
445.84	173.20
446.02	170.86
446.21	217.67
446.39	194.26
446.58	301.93
446.77	220.01
446.95	212.99
447.14	107.66
447.32	131.07
447.51	229.37
447.69	187.24
447.88	257.46
448.06	212.99
448.25	229.37
448.43	180.22
448.62	170.86
448.80	248.10
448.99	156.82
449.17	208.31
449.36	152.13
449.54	163.84
449.73	110.01
449.91	208.31
450.10	149.79
450.28	234.05
450.46	271.50
450.65	128.73
450.83	156.82
451.02	138.09
451.20	203.63
451.39	189.58
451.57	220.01
451.76	182.56
451.94	271.50
452.13	119.37
452.31	170.86
452.49	236.39
452.68	184.90
452.86	203.63
453.05	180.22
453.23	180.22
453.42	187.24
453.60	203.63
453.78	147.45
453.97	98.30
454.15	182.56
454.34	194.26
454.52	152.13
454.70	276.18
454.89	203.63
455.07	245.76
455.26	189.58
455.44	257.46
455.62	133.41
455.81	191.92
455.99	217.67
456.17	234.05
456.36	236.39
456.54	180.22
456.73	222.35
456.91	175.54
457.09	184.90
457.28	234.05
457.46	184.90
457.64	180.22
457.83	252.78
458.01	154.48
458.19	166.18
458.38	156.82
458.56	269.16
458.74	154.48
458.93	133.41
459.11	191.92
459.29	184.90
459.48	177.88
459.66	234.05
459.84	266.82
460.03	255.12
460.21	166.18
460.39	128.73
460.57	250.44
460.76	220.01
460.94	194.26
461.12	236.39
461.31	234.05
461.49	159.16
461.67	191.92
461.85	152.13
462.04	168.52
462.22	641.31
462.40	215.33
462.59	131.07
462.77	182.56
462.95	234.05
463.13	208.31
463.32	220.01
463.50	266.82
463.68	191.92
463.86	163.84
464.05	163.84
464.23	220.01
464.41	215.33
464.59	166.18
464.78	203.63
464.96	173.20
465.14	135.75
465.32	159.16
465.50	205.97
465.69	234.05
465.87	142.77
466.05	161.50
466.23	175.54
466.41	208.31
466.60	189.58
466.78	173.20
466.96	220.01
467.14	145.11
467.32	229.37
467.51	114.69
467.69	222.35
467.87	208.31
468.05	191.92
468.23	234.05
468.41	259.80
468.60	140.43
468.78	184.90
468.96	243.42
469.14	154.48
469.32	198.95
469.50	154.48
469.69	215.33
469.87	222.35
470.05	243.42
470.23	161.50
470.41	180.22
470.59	203.63
470.77	201.29
470.95	227.03
471.14	241.08
471.32	250.44
471.50	313.63
471.68	175.54
471.86	201.29
472.04	110.01
472.22	217.67
472.40	140.43
472.58	212.99
472.77	224.69
472.95	177.88
473.13	285.55
473.31	217.67
473.49	191.92
473.67	248.10
473.85	191.92
474.03	220.01
474.21	215.33
474.39	222.35
474.57	259.80
474.75	227.03
474.93	203.63
475.12	187.24
475.30	234.05
475.48	175.54
475.66	159.16
475.84	152.13
476.02	231.71
476.20	201.29
476.38	198.95
476.56	208.31
476.74	257.46
476.92	159.16
477.10	166.18
477.28	189.58
477.46	252.78
477.64	149.79
477.82	191.92
478.00	168.52
478.18	215.33
478.36	128.73
478.54	121.71
478.72	147.45
478.90	159.16
479.08	234.05
479.26	205.97
479.44	138.09
479.62	276.18
479.80	210.65
479.98	177.88
480.16	159.16
480.34	175.54
480.52	147.45
480.70	255.12
480.88	210.65
481.06	175.54
481.24	194.26
481.41	257.46
481.59	311.29
481.77	248.10
481.95	264.48
482.13	245.76
482.31	248.10
482.49	231.71
482.67	194.26
482.85	276.18
483.03	215.33
483.21	252.78
483.39	173.20
483.57	154.48
483.74	227.03
483.92	262.14
484.10	227.03
484.28	217.67
484.46	290.23
484.64	241.08
484.82	184.90
485.00	271.50
485.18	149.79
485.35	264.48
485.53	231.71
485.71	271.50
485.89	140.43
486.07	194.26
486.25	262.14
486.43	318.31
486.61	271.50
486.78	297.25
486.96	269.16
487.14	231.71
487.32	182.56
487.50	259.80
487.68	231.71
487.85	234.05
488.03	210.65
488.21	271.50
488.39	245.76
488.57	227.03
488.75	180.22
488.92	531.30
489.10	227.03
489.28	334.70
489.46	224.69
489.64	266.82
489.81	301.93
489.99	229.37
490.17	248.10
490.35	255.12
490.53	250.44
490.70	191.92
490.88	220.01
491.06	259.80
491.24	222.35
491.41	280.86
491.59	297.25
491.77	259.80
491.95	212.99
492.13	266.82
492.30	212.99
492.48	278.52
492.66	252.78
492.84	269.16
493.01	196.60
493.19	198.95
493.37	304.27
493.54	212.99
493.72	250.44
493.90	168.52
494.08	208.31
494.25	306.61
494.43	248.10
494.61	238.73
494.79	175.54
494.96	229.37
495.14	264.48
495.32	327.68
495.49	227.03
495.67	297.25
495.85	266.82
496.02	248.10
496.20	266.82
496.38	201.29
496.55	222.35
496.73	322.99
496.91	252.78
497.09	241.08
497.26	285.55
497.44	273.84
497.62	217.67
497.79	245.76
497.97	287.89
498.14	236.39
498.32	273.84
498.50	271.50
498.67	227.03
498.85	325.33
499.03	280.86
499.20	236.39
499.38	276.18
499.56	250.44
499.73	257.46
499.91	294.91
500.08	271.50
500.26	273.84
500.44	231.71
500.61	208.31
500.79	198.95
500.97	280.86
501.14	276.18
501.32	280.86
501.49	283.20
501.67	184.90
501.84	266.82
502.02	203.63
502.20	287.89
502.37	229.37
502.55	243.42
502.72	205.97
502.90	234.05
503.07	241.08
503.25	243.42
503.43	161.50
503.60	180.22
503.78	224.69
503.95	271.50
504.13	241.08
504.30	210.65
504.48	264.48
504.65	229.37
504.83	255.12
505.01	217.67
505.18	133.41
505.36	262.14
505.53	222.35
505.71	278.52
505.88	210.65
506.06	238.73
506.23	205.97
506.41	224.69
506.58	210.65
506.76	259.80
506.93	245.76
507.11	318.31
507.28	262.14
507.46	234.05
507.63	271.50
507.81	180.22
507.98	217.67
508.16	252.78
508.33	203.63
508.50	327.68
508.68	205.97
508.85	259.80
509.03	227.03
509.20	236.39
509.38	290.23
509.55	306.61
509.73	255.12
509.90	271.50
510.08	276.18
510.25	276.18
510.42	255.12
510.60	243.42
510.77	205.97
510.95	287.89
511.12	266.82
511.30	222.35
511.47	234.05
511.64	243.42
511.82	224.69
511.99	168.52
512.17	262.14
512.34	196.60
512.51	280.86
512.69	234.05
512.86	257.46
513.04	205.97
513.21	156.82
513.38	177.88
513.56	229.37
513.73	318.31
513.90	259.80
514.08	262.14
514.25	234.05
514.43	250.44
514.60	269.16
514.77	259.80
514.95	285.55
515.12	243.42
515.29	248.10
515.47	220.01
515.64	257.46
515.81	194.26
515.99	287.89
516.16	231.71
516.33	290.23
516.51	285.55
516.68	227.03
516.85	238.73
517.03	264.48
517.20	320.65
517.37	241.08
517.54	250.44
517.72	259.80
517.89	208.31
518.06	194.26
518.24	322.99
518.41	276.18
518.58	217.67
518.75	234.05
518.93	217.67
519.10	285.55
519.27	250.44
519.45	245.76
519.62	238.73
519.79	269.16
519.96	264.48
520.14	304.27
520.31	320.65
520.48	266.82
520.65	257.46
520.83	271.50
521.00	311.29
521.17	231.71
521.34	236.39
521.52	269.16
521.69	182.56
521.86	262.14
522.03	273.84
522.20	248.10
522.38	220.01
522.55	208.31
522.72	187.24
522.89	257.46
523.07	313.63
523.24	248.10
523.41	173.20
523.58	241.08
523.75	280.86
523.92	248.10
524.10	266.82
524.27	264.48
524.44	222.35
524.61	273.84
524.78	224.69
524.96	262.14
525.13	292.57
525.30	248.10
525.47	285.55
525.64	191.92
525.81	252.78
525.98	248.10
526.16	262.14
526.33	203.63
526.50	220.01
526.67	259.80
526.84	231.71
527.01	208.31
527.18	266.82
527.36	269.16
527.53	227.03
527.70	264.48
527.87	299.59
528.04	245.76
528.21	227.03
528.38	278.52
528.55	299.59
528.72	355.76
528.89	390.87
529.07	304.27
529.24	308.95
529.41	292.57
529.58	304.27
529.75	250.44
529.92	271.50
530.09	262.14
530.26	285.55
530.43	271.50
530.60	327.68
530.77	255.12
530.94	299.59
531.11	285.55
531.28	205.97
531.46	255.12
531.63	259.80
531.80	252.78
531.97	276.18
532.14	262.14
532.31	269.16
532.48	231.71
532.65	290.23
532.82	287.89
532.99	250.44
533.16	318.31
533.33	229.37
533.50	301.93
533.67	262.14
533.84	262.14
534.01	243.42
534.18	245.76
534.35	290.23
534.52	203.63
534.69	299.59
534.86	313.63
535.03	266.82
535.20	313.63
535.37	318.31
535.54	273.84
535.71	301.93
535.88	313.63
536.05	292.57
536.22	276.18
536.38	217.67
536.55	262.14
536.72	322.99
536.89	245.76
537.06	252.78
537.23	198.95
537.40	262.14
537.57	327.68
537.74	248.10
537.91	290.23
538.08	351.08
538.25	315.97
538.42	358.10
538.59	245.76
538.75	346.40
538.92	294.91
539.09	374.49
539.26	292.57
539.43	358.10
539.60	346.40
539.77	456.40
539.94	454.06
540.11	393.21
540.28	418.96
540.44	407.25
540.61	365.12
540.78	458.74
540.95	388.53
541.12	458.74
541.29	421.30
541.46	428.32
541.62	540.66
541.79	498.53
541.96	496.19
542.13	472.79
542.30	430.66
542.47	440.02
542.63	379.17
542.80	468.11
542.97	444.70
543.14	425.98
543.31	465.77
543.48	444.70
543.64	465.77
543.81	423.64
543.98	411.93
544.15	397.89
544.32	458.74
544.48	510.24
544.65	407.25
544.82	353.42
544.99	339.38
545.16	440.02
545.32	503.22
545.49	634.29
545.66	847.27
545.83	753.65
546.00	716.20
546.16	638.97
546.33	491.51
546.50	545.34
546.67	416.62
546.83	418.96
547.00	437.68
547.17	390.87
547.34	299.59
547.50	332.36
547.67	402.57
547.84	421.30
548.00	425.98
548.17	367.46
548.34	411.93
548.51	458.74
548.67	362.78
548.84	339.38
549.01	330.02
549.18	416.62
549.34	372.15
549.51	353.42
549.68	341.72
549.84	318.31
550.01	304.27
550.18	400.23
550.34	454.06
550.51	304.27
550.68	379.17
550.84	257.46
551.01	252.78
551.18	259.80
551.34	292.57
551.51	257.46
551.68	308.95
551.84	313.63
552.01	273.84
552.18	332.36
552.34	313.63
552.51	278.52
552.68	262.14
552.84	264.48
553.01	292.57
553.18	341.72
553.34	308.95
553.51	304.27
553.67	315.97
553.84	287.89
554.01	269.16
554.17	367.46
554.34	308.95
554.51	283.20
554.67	259.80
554.84	292.57
555.00	252.78
555.17	299.59
555.33	313.63
555.50	308.95
555.67	322.99
555.83	262.14
556.00	278.52
556.16	416.62
556.33	259.80
556.50	241.08
556.66	332.36
556.83	306.61
556.99	245.76
557.16	297.25
557.32	280.86
557.49	304.27
557.65	322.99
557.82	212.99
557.98	301.93
558.15	269.16
558.32	250.44
558.48	194.26
558.65	191.92
558.81	294.91
558.98	259.80
559.14	297.25
559.31	294.91
559.47	227.03
559.64	273.84
559.80	318.31
559.97	255.12
560.13	227.03
560.30	257.46
560.46	236.39
560.63	203.63
560.79	358.10
560.96	220.01
561.12	184.90
561.29	299.59
561.45	280.86
561.61	273.84
561.78	369.80
561.94	255.12
562.11	299.59
562.27	149.79
562.44	229.37
562.60	243.42
562.77	215.33
562.93	285.55
563.10	262.14
563.26	264.48
563.42	234.05
563.59	285.55
563.75	294.91
563.92	283.20
564.08	262.14
564.24	243.42
564.41	283.20
564.57	245.76
564.74	243.42
564.90	243.42
565.07	306.61
565.23	280.86
565.39	222.35
565.56	273.84
565.72	220.01
565.88	238.73
566.05	210.65
566.21	243.42
566.38	278.52
566.54	222.35
566.70	299.59
566.87	311.29
567.03	191.92
567.19	271.50
567.36	227.03
567.52	287.89
567.68	238.73
567.85	322.99
568.01	196.60
568.17	262.14
568.34	341.72
568.50	203.63
568.66	250.44
568.83	379.17
568.99	304.27
569.15	255.12
569.32	262.14
569.48	262.14
569.64	313.63
569.81	238.73
569.97	198.95
570.13	248.10
570.30	168.52
570.46	241.08
570.62	238.73
570.78	341.72
570.95	290.23
571.11	252.78
571.27	280.86
571.43	278.52
571.60	252.78
571.76	210.65
571.92	227.03
572.09	222.35
572.25	271.50
572.41	236.39
572.57	292.57
572.74	330.02
572.90	297.25
573.06	292.57
573.22	248.10
573.38	269.16
573.55	243.42
573.71	322.99
573.87	285.55
574.03	168.52
574.20	294.91
574.36	299.59
574.52	236.39
574.68	259.80
574.84	266.82
575.01	266.82
575.17	341.72
575.33	266.82
575.49	229.37
575.65	208.31
575.82	271.50
575.98	304.27
576.14	334.70
576.30	290.23
576.46	388.53
576.62	280.86
576.79	390.87
576.95	313.63
577.11	318.31
577.27	236.39
577.43	210.65
577.59	264.48
577.75	304.27
577.92	205.97
578.08	315.97
578.24	269.16
578.40	337.04
578.56	404.91
578.72	351.08
578.88	383.85
579.04	238.73
579.21	280.86
579.37	250.44
579.53	266.82
579.69	304.27
579.85	255.12
580.01	313.63
580.17	234.05
580.33	245.76
580.49	266.82
580.65	259.80
580.82	264.48
580.98	229.37
581.14	257.46
581.30	280.86
581.46	264.48
581.62	337.04
581.78	234.05
581.94	320.65
582.10	292.57
582.26	339.38
582.42	245.76
582.58	273.84
582.74	301.93
582.90	337.04
583.06	397.89
583.22	327.68
583.38	320.65
583.54	290.23
583.70	297.25
583.86	304.27
584.02	308.95
584.18	407.25
584.34	315.97
584.50	482.15
584.66	1760.08
584.82	3829.12
584.98	4966.62
585.14	4423.61
585.30	2759.49
585.46	1867.75
585.62	1273.25
585.78	713.86
585.94	496.19
586.10	348.74
586.26	308.95
586.42	325.33
586.58	344.06
586.74	283.20
586.90	327.68
587.06	332.36
587.22	320.65
587.38	283.20
587.54	369.80
587.70	545.34
587.86	674.07
588.02	587.47
588.18	510.24
588.34	428.32
588.49	299.59
588.65	280.86
588.81	276.18
588.97	283.20
589.13	177.88
589.29	287.89
589.45	372.15
589.61	294.91
589.77	252.78
589.93	231.71
590.08	259.80
590.24	273.84
590.40	222.35
590.56	273.84
590.72	290.23
590.88	203.63
591.04	187.24
591.20	297.25
591.35	315.97
591.51	290.23
591.67	215.33
591.83	231.71
591.99	243.42
592.15	283.20
592.31	341.72
592.46	255.12
592.62	308.95
592.78	266.82
592.94	306.61
593.10	344.06
593.26	248.10
593.41	320.65
593.57	311.29
593.73	290.23
593.89	482.15
594.05	737.27
594.20	882.38
594.36	910.47
594.52	559.39
594.68	458.74
594.84	397.89
594.99	271.50
595.15	243.42
595.31	245.76
595.47	308.95
595.62	236.39
595.78	245.76
595.94	205.97
596.10	266.82
596.25	248.10
596.41	287.89
596.57	280.86
596.73	264.48
596.88	287.89
597.04	339.38
597.20	332.36
597.36	355.76
597.51	425.98
597.67	243.42
597.83	252.78
597.99	353.42
598.14	273.84
598.30	334.70
598.46	264.48
598.61	308.95
598.77	238.73
598.93	320.65
599.09	297.25
599.24	322.99
599.40	341.72
599.56	301.93
599.71	248.10
599.87	241.08
600.03	259.80
600.18	196.60
600.34	231.71
600.50	273.84
600.65	280.86
600.81	318.31
600.97	262.14
601.12	264.48
601.28	351.08
601.44	353.42
601.59	257.46
601.75	283.20
601.91	217.67
602.06	285.55
602.22	334.70
602.37	297.25
602.53	339.38
602.69	416.62
602.84	358.10
603.00	414.27
603.16	367.46
603.31	278.52
603.47	273.84
603.62	182.56
603.78	285.55
603.94	231.71
604.09	238.73
604.25	187.24
604.40	269.16
604.56	198.95
604.71	276.18
604.87	212.99
605.03	283.20
605.18	229.37
605.34	315.97
605.49	252.78
605.65	269.16
605.80	238.73
605.96	238.73
606.12	318.31
606.27	229.37
606.43	283.20
606.58	278.52
606.74	299.59
606.89	430.66
607.05	676.41
607.20	739.61
607.36	669.39
607.51	550.03
607.67	477.47
607.82	376.83
607.98	315.97
608.13	238.73
608.29	311.29
608.44	348.74
608.60	266.82
608.75	390.87
608.91	379.17
609.06	688.12
609.22	952.60
609.37	1200.69
609.53	957.28
609.68	805.14
609.84	592.16
609.99	528.96
610.15	496.19
610.30	470.45
610.46	638.97
610.61	676.41
610.76	688.12
610.92	718.54
