SpectraSuite Data File
++++++++++++++++++++++++++++++++++++
Date: Fri Oct 04 12:14:16 GMT-05:00 2013
User: price-jones
Dark Spectrum Present: No
Reference Spectrum Present: No
Number of Sampled Component Spectra: 1
Spectrometers: USB2+H05261
Integration Time (usec): 1000000 (USB2+H05261)
Spectra Averaged: 1 (USB2+H05261)
Boxcar Smoothing: 0 (USB2+H05261)
Correct for Electrical Dark: No (USB2+H05261)
Strobe/Lamp Enabled: No (USB2+H05261)
Correct for Detector Non-linearity: No (USB2+H05261)
Correct for Stray Light: No (USB2+H05261)
Number of Pixels in Processed Spectrum: 2048
>>>>>Begin Processed Spectral Data<<<<<
365.73	65.54
365.92	65.54
366.12	65.54
366.32	0.00
366.52	0.00
366.72	360.44
366.91	102.98
367.11	311.29
367.31	196.60
367.51	269.16
367.70	400.23
367.90	571.09
368.10	341.72
368.30	257.46
368.49	86.60
368.69	425.98
368.89	299.59
369.09	159.16
369.28	383.85
369.48	154.48
369.68	215.33
369.87	365.12
370.07	212.99
370.27	617.90
370.47	465.77
370.66	285.55
370.86	526.62
371.06	767.70
371.25	931.53
371.45	407.25
371.65	617.90
371.84	367.46
372.04	259.80
372.24	449.38
372.44	435.34
372.63	589.82
372.83	873.02
373.03	498.53
373.22	348.74
373.42	376.83
373.62	479.81
373.81	496.19
374.01	627.26
374.21	645.99
374.40	423.64
374.60	685.78
374.79	507.90
374.99	493.85
375.19	585.13
375.38	674.07
375.58	507.90
375.78	753.65
375.97	664.71
376.17	1027.50
376.37	447.04
376.56	531.30
376.76	435.34
376.95	374.49
377.15	667.05
377.35	603.86
377.54	592.16
377.74	358.10
377.93	475.13
378.13	573.43
378.33	685.78
378.52	505.56
378.72	671.73
378.91	634.29
379.11	465.77
379.31	369.80
379.50	355.76
379.70	643.65
379.89	720.88
380.09	461.09
380.28	409.59
380.48	430.66
380.68	315.97
380.87	273.84
381.07	543.00
381.26	758.33
381.46	631.94
381.65	521.94
381.85	388.53
382.04	503.22
382.24	645.99
382.43	397.89
382.63	355.76
382.83	517.26
383.02	624.92
383.22	763.01
383.41	379.17
383.61	484.49
383.80	470.45
384.00	465.77
384.19	400.23
384.39	456.40
384.58	442.36
384.78	543.00
384.97	510.24
385.17	547.69
385.36	475.13
385.56	730.25
385.75	304.27
385.95	442.36
386.14	676.41
386.34	416.62
386.53	554.71
386.72	344.06
386.92	788.76
387.11	697.48
387.31	636.63
387.50	346.40
387.70	388.53
387.89	451.72
388.09	425.98
388.28	418.96
388.48	440.02
388.67	608.54
388.86	468.11
389.06	470.45
389.25	566.41
389.45	601.52
389.64	475.13
389.84	720.88
390.03	568.75
390.22	512.58
390.42	510.24
390.61	421.30
390.81	365.12
391.00	472.79
391.19	734.93
391.39	524.28
391.58	624.92
391.78	538.32
391.97	557.05
392.16	360.44
392.36	774.72
392.55	692.80
392.75	514.92
392.94	376.83
393.13	678.76
393.33	353.42
393.52	442.36
393.71	767.70
393.91	596.84
394.10	285.55
394.29	353.42
394.49	409.59
394.68	624.92
394.88	739.61
395.07	657.69
395.26	519.60
395.46	528.96
395.65	662.37
395.84	554.71
396.04	1177.29
396.23	514.92
396.42	355.76
396.62	507.90
396.81	603.86
397.00	561.73
397.19	592.16
397.39	589.82
397.58	784.08
397.77	500.87
397.97	517.26
398.16	498.53
398.35	763.01
398.55	444.70
398.74	500.87
398.93	791.10
399.12	458.74
399.32	636.63
399.51	610.88
399.70	627.26
399.90	650.67
400.09	702.16
400.28	741.95
400.47	465.77
400.67	674.07
400.86	554.71
401.05	683.44
401.24	798.12
401.44	702.16
401.63	660.03
401.82	758.33
402.01	447.04
402.21	561.73
402.40	627.26
402.59	475.13
402.78	447.04
402.97	465.77
403.17	582.79
403.36	587.47
403.55	575.77
403.74	528.96
403.93	636.63
404.13	922.17
404.32	496.19
404.51	524.28
404.70	802.80
404.89	550.03
405.09	905.79
405.28	540.66
405.47	479.81
405.66	774.72
405.85	702.16
406.05	606.20
406.24	552.37
406.43	603.86
406.62	683.44
406.81	1078.99
407.00	816.85
407.20	585.13
407.39	608.54
407.58	526.62
407.77	634.29
407.96	873.02
408.15	779.40
408.34	648.33
408.54	683.44
408.73	655.35
408.92	599.18
409.11	709.18
409.30	830.89
409.49	489.17
409.68	451.72
409.87	587.47
410.07	578.11
410.26	615.56
410.45	564.07
410.64	535.98
410.83	634.29
411.02	550.03
411.21	718.54
411.40	866.00
411.59	638.97
411.78	587.47
411.98	645.99
412.17	489.17
412.36	610.88
412.55	559.39
412.74	819.19
412.93	1008.77
413.12	543.00
413.31	821.53
413.50	664.71
413.69	685.78
413.88	945.58
414.07	706.84
414.26	653.01
414.45	561.73
414.64	739.61
414.83	821.53
415.02	723.23
415.22	823.87
415.41	870.68
415.60	557.05
415.79	585.13
415.98	866.00
416.17	641.31
416.36	676.41
416.55	557.05
416.74	798.12
416.93	880.04
417.12	678.76
417.31	678.76
417.50	650.67
417.69	1046.22
417.88	716.20
418.07	615.56
418.26	587.47
418.45	685.78
418.64	964.30
418.83	784.08
419.02	781.74
419.21	690.46
419.39	713.86
419.58	603.86
419.77	638.97
419.96	823.87
420.15	1034.52
420.34	671.73
420.53	741.95
420.72	908.13
420.91	786.42
421.10	706.84
421.29	774.72
421.48	814.51
421.67	952.60
421.86	610.88
422.05	657.69
422.24	606.20
422.43	709.18
422.61	540.66
422.80	683.44
422.99	718.54
423.18	578.11
423.37	1032.18
423.56	770.04
423.75	765.36
423.94	603.86
424.13	585.13
424.32	660.03
424.50	786.42
424.69	725.57
424.88	1025.15
425.07	603.86
425.26	732.59
425.45	863.66
425.64	650.67
425.83	711.52
426.01	957.28
426.20	704.50
426.39	688.12
426.58	690.46
426.77	739.61
426.96	849.61
427.15	734.93
427.33	699.82
427.52	678.76
427.71	606.20
427.90	835.57
428.09	585.13
428.28	545.34
428.46	585.13
428.65	734.93
428.84	875.36
429.03	1090.69
429.22	526.62
429.40	465.77
429.59	538.32
429.78	1062.60
429.97	627.26
430.16	580.45
430.34	636.63
430.53	568.75
430.72	653.01
430.91	912.81
431.10	545.34
431.28	706.84
431.47	858.98
431.66	777.06
431.85	667.05
432.03	720.88
432.22	1093.03
432.41	777.06
432.60	1050.90
432.79	650.67
432.97	861.32
433.16	779.40
433.35	660.03
433.54	676.41
433.72	851.96
433.91	851.96
434.10	751.31
434.28	720.88
434.47	730.25
434.66	929.19
434.85	690.46
435.03	802.80
435.22	1123.46
435.41	1036.86
435.59	828.55
435.78	903.45
435.97	765.36
436.16	875.36
436.34	748.97
436.53	816.85
436.72	1001.75
436.90	856.64
437.09	880.04
437.28	763.01
437.46	753.65
437.65	912.81
437.84	870.68
438.02	798.12
438.21	837.91
438.40	641.31
438.58	594.50
438.77	830.89
438.96	763.01
439.14	648.33
439.33	919.83
439.52	713.86
439.70	765.36
439.89	835.57
440.08	842.59
440.26	753.65
440.45	1153.88
440.63	891.74
440.82	809.83
441.01	760.67
441.19	723.23
441.38	737.27
441.57	800.46
441.75	1006.43
441.94	1060.26
442.12	772.38
442.31	774.72
442.50	781.74
442.68	795.78
442.87	830.89
443.05	781.74
443.24	854.30
443.43	1039.20
443.61	1137.50
443.80	882.38
443.98	856.64
444.17	819.19
444.35	1001.75
444.54	842.59
444.73	798.12
444.91	1163.25
445.10	709.18
445.28	664.71
445.47	898.77
445.65	732.59
445.84	770.04
446.02	812.17
446.21	744.29
446.39	814.51
446.58	861.32
446.77	763.01
446.95	821.53
447.14	938.55
447.32	1179.63
447.51	868.34
447.69	999.41
447.88	945.58
448.06	1205.38
448.25	929.19
448.43	725.57
448.62	723.23
448.80	919.83
448.99	1081.33
449.17	784.08
449.36	739.61
449.54	1004.09
449.73	826.21
449.91	1008.77
450.10	814.51
450.28	1420.71
450.46	1362.19
450.65	1081.33
450.83	959.62
451.02	807.48
451.20	866.00
451.39	891.74
451.57	809.83
451.76	788.76
451.94	868.34
452.13	1048.56
452.31	1156.22
452.49	938.55
452.68	643.65
452.86	840.25
453.05	1394.96
453.23	854.30
453.42	739.61
453.60	844.93
453.78	1006.43
453.97	732.59
454.15	695.14
454.34	669.39
454.52	706.84
454.70	1160.91
454.89	1034.52
455.07	854.30
455.26	1025.15
455.44	1104.73
455.62	805.14
455.81	924.51
455.99	1067.28
456.17	1015.79
456.36	905.79
456.54	826.21
456.73	884.72
456.91	901.11
457.09	1001.75
457.28	1025.15
457.46	875.36
457.64	1146.86
457.83	854.30
458.01	866.00
458.19	1076.65
458.38	758.33
458.56	903.45
458.74	765.36
458.93	957.28
459.11	964.30
459.29	744.29
459.48	1011.11
459.66	1296.66
459.84	1116.44
460.03	1771.79
460.21	1100.05
460.39	870.68
460.57	1238.14
460.76	947.92
460.94	973.66
461.12	1219.42
461.31	1151.54
461.49	875.36
461.67	896.43
461.85	976.00
462.04	966.64
462.22	5753.04
462.40	1200.69
462.59	1212.40
462.77	898.77
462.95	968.98
463.13	774.72
463.32	1095.37
463.50	950.26
463.68	1053.24
463.86	987.71
464.05	908.13
464.23	1097.71
464.41	1048.56
464.59	772.38
464.78	866.00
464.96	770.04
465.14	1018.13
465.32	849.61
465.50	1123.46
465.69	1053.24
465.87	798.12
466.05	1008.77
466.23	807.48
466.41	908.13
466.60	866.00
466.78	809.83
466.96	1088.35
467.14	1025.15
467.32	1149.20
467.51	1041.54
467.69	1029.84
467.87	1324.74
468.05	980.68
468.23	1399.64
468.41	1146.86
468.60	957.28
468.78	990.05
468.96	1146.86
469.14	983.02
469.32	732.59
469.50	737.27
469.69	1114.10
469.87	957.28
470.05	910.47
470.23	889.40
470.41	767.70
470.59	868.34
470.77	1069.62
470.95	896.43
471.14	1165.59
471.32	976.00
471.50	1212.40
471.68	954.94
471.86	1090.69
472.04	851.96
472.22	966.64
472.40	755.99
472.58	873.02
472.77	692.80
472.95	940.90
473.13	1369.21
473.31	1163.25
473.49	723.23
473.67	854.30
473.85	1055.58
474.03	1057.92
474.21	1020.47
474.39	1219.42
474.57	1406.66
474.75	1210.06
474.93	896.43
475.12	884.72
475.30	966.64
475.48	947.92
475.66	973.66
475.84	1067.28
476.02	1008.77
476.20	1097.71
476.38	999.41
476.56	1572.84
476.74	1013.45
476.92	980.68
477.10	1032.18
477.28	1235.80
477.46	987.71
477.64	1245.16
477.82	1039.20
478.00	1032.18
478.18	1081.33
478.36	1053.24
478.54	1025.15
478.72	1027.50
478.90	1041.54
479.08	1090.69
479.26	1210.06
479.44	940.90
479.62	922.17
479.80	1034.52
479.98	985.37
480.16	959.62
480.34	1249.85
480.52	971.32
480.70	1184.31
480.88	945.58
481.06	940.90
481.24	945.58
481.41	1041.54
481.59	1320.06
481.77	1137.50
481.95	1013.45
482.13	1387.94
482.31	1135.16
482.49	978.34
482.67	1249.85
482.85	1247.51
483.03	1203.04
483.21	1193.67
483.39	1043.88
483.57	1177.29
483.74	1486.24
483.92	1095.37
484.10	1036.86
484.28	1345.81
484.46	1678.16
484.64	1025.15
484.82	1181.97
485.00	1039.20
485.18	1142.18
485.35	1181.97
485.53	875.36
485.71	1289.64
485.89	910.47
486.07	947.92
486.25	1610.29
486.43	1287.29
486.61	1238.14
486.78	1287.29
486.96	1022.81
487.14	1083.67
487.32	1107.07
487.50	1081.33
487.68	1289.64
487.85	1097.71
488.03	1343.47
488.21	1423.05
488.39	1193.67
488.57	1385.60
488.75	1132.82
488.92	3948.48
489.10	1401.98
489.28	1610.29
489.46	1125.80
489.64	1191.33
489.81	1191.33
489.99	1387.94
490.17	1170.27
490.35	1863.07
490.53	1210.06
490.70	1210.06
490.88	1514.33
491.06	1235.80
491.24	1465.18
491.41	1636.03
491.59	1336.45
491.77	1118.78
491.95	1139.84
492.13	1160.91
492.30	1308.36
492.48	1203.04
492.66	1310.70
492.84	1214.74
493.01	1371.55
493.19	1270.91
493.37	1715.61
493.54	1497.94
493.72	1411.34
493.90	1247.51
494.08	1291.98
494.25	1507.30
494.43	1483.90
494.61	1376.24
494.79	1170.27
494.96	1186.65
495.14	1500.28
495.32	1303.68
495.49	1387.94
495.67	1490.92
495.85	1287.29
496.02	1226.44
496.20	1542.41
496.38	1519.01
496.55	1502.62
496.73	1554.12
496.91	1455.81
497.09	1537.73
497.26	1453.47
497.44	1362.19
497.62	1444.11
497.79	1420.71
497.97	1448.79
498.14	1533.05
498.32	1441.77
498.50	1614.97
498.67	1348.15
498.85	1551.78
499.03	1362.19
499.20	1416.02
499.38	1472.20
499.56	1425.39
499.73	1673.48
499.91	1584.54
500.08	1631.35
500.26	1448.79
500.44	1380.92
500.61	1455.81
500.79	1350.49
500.97	1540.07
501.14	1701.57
501.32	1469.86
501.49	1582.20
501.67	1474.54
501.84	1575.18
502.02	1245.16
502.20	1811.57
502.37	1556.46
502.55	1411.34
502.72	1427.73
502.90	1619.65
503.07	1521.35
503.25	1542.41
503.43	1348.15
503.60	1313.04
503.78	1467.52
503.95	1502.62
504.13	1373.89
504.30	1533.05
504.48	1582.20
504.65	1834.98
504.83	1657.10
505.01	1380.92
505.18	1614.97
505.36	1511.99
505.53	1579.86
505.71	1474.54
505.88	1806.89
506.06	1390.28
506.23	1446.45
506.41	1397.30
506.58	1572.84
506.76	1593.90
506.93	1401.98
507.11	1621.99
507.28	1430.07
507.46	1348.15
507.63	1486.24
507.81	1455.81
507.98	1458.15
508.16	1439.43
508.33	1523.69
508.50	1640.72
508.68	1537.73
508.85	1563.48
509.03	1383.26
509.20	1418.36
509.38	1624.33
509.55	1748.38
509.73	1732.00
509.90	1961.37
510.08	1394.96
510.25	1584.54
510.42	1437.09
510.60	1469.86
510.77	1743.70
510.95	1764.76
511.12	1406.66
511.30	1713.27
511.47	1678.16
511.64	1989.46
511.82	1502.62
511.99	1530.71
512.17	1416.02
512.34	1427.73
512.51	1479.22
512.69	1427.73
512.86	1886.47
513.04	1460.49
513.21	1596.25
513.38	1369.21
513.56	1448.79
513.73	1614.97
513.90	1369.21
514.08	1329.42
514.25	1717.95
514.43	1624.33
514.60	1453.47
514.77	1467.52
514.95	1650.08
515.12	1352.83
515.29	1612.63
515.47	1561.14
515.64	1593.90
515.81	1507.30
515.99	1912.22
516.16	1680.50
516.33	1799.87
516.51	1348.15
516.68	1214.74
516.85	1256.87
517.03	1299.00
517.20	1619.65
517.37	1668.80
517.54	1675.82
517.72	1479.22
517.89	1303.68
518.06	1350.49
518.24	1895.83
518.41	1916.90
518.58	1701.57
518.75	1390.28
518.93	1575.18
519.10	1596.25
519.27	1444.11
519.45	1579.86
519.62	1631.35
519.79	1802.21
519.96	1331.76
520.14	1600.93
520.31	1783.49
520.48	1479.22
520.65	1540.07
520.83	1755.40
521.00	1783.49
521.17	1661.78
521.34	1565.82
521.52	1654.76
521.69	1493.26
521.86	1629.01
522.03	1706.25
522.20	1851.36
522.38	1453.47
522.55	1540.07
522.72	1350.49
522.89	1849.02
523.07	2064.35
523.24	1652.42
523.41	1472.20
523.58	1509.65
523.75	1561.14
523.92	1469.86
524.10	1598.59
524.27	1565.82
524.44	1600.93
524.61	1870.09
524.78	1521.35
524.96	1783.49
525.13	1650.08
525.30	1944.99
525.47	1696.89
525.64	1572.84
525.81	1624.33
525.98	1659.44
526.16	1530.71
526.33	1345.81
526.50	1380.92
526.67	1359.85
526.84	1331.76
527.01	1444.11
527.18	1593.90
527.36	1549.43
527.53	1519.01
527.70	1788.17
527.87	1612.63
528.04	1984.77
528.21	1586.88
528.38	1987.11
528.55	1778.81
528.72	2043.29
528.89	2101.80
529.07	1696.89
529.24	1626.67
529.41	2019.88
529.58	1680.50
529.75	1638.38
529.92	1619.65
530.09	1631.35
530.26	1774.13
530.43	1701.57
530.60	1577.52
530.77	1579.86
530.94	1799.87
531.11	1708.59
531.28	1577.52
531.46	1596.25
531.63	1771.79
531.80	1668.80
531.97	1689.87
532.14	1558.80
532.31	1722.63
532.48	1647.74
532.65	1689.87
532.82	1612.63
532.99	1636.03
533.16	1614.97
533.33	1722.63
533.50	1619.65
533.67	1554.12
533.84	1863.07
534.01	1879.45
534.18	1607.95
534.35	1589.22
534.52	1734.34
534.69	2148.61
534.86	1713.27
535.03	1687.53
535.20	1666.46
535.37	1867.75
535.54	1710.93
535.71	1607.95
535.88	1968.39
536.05	1640.72
536.22	1746.04
536.38	1523.69
536.55	1792.85
536.72	1753.06
536.89	1547.09
537.06	1565.82
537.23	1659.44
537.40	1493.26
537.57	1596.25
537.74	1781.15
537.91	1767.10
538.08	1727.32
538.25	1813.92
538.42	1504.96
538.59	1732.00
538.75	1526.03
538.92	1645.40
539.09	1832.64
539.26	1528.37
539.43	2127.55
539.60	2385.01
539.77	2942.05
539.94	2637.78
540.11	2279.68
540.28	2258.62
540.44	2146.27
540.61	1577.52
540.78	1577.52
540.95	1502.62
541.12	1849.02
541.29	1577.52
541.46	1844.34
541.62	1612.63
541.79	1441.77
541.96	1455.81
542.13	1593.90
542.30	1619.65
542.47	1853.70
542.63	1647.74
542.80	1682.85
542.97	1844.34
543.14	1526.03
543.31	1757.74
543.48	1621.99
543.64	1727.32
543.81	1589.22
543.98	1530.71
544.15	1406.66
544.32	1563.48
544.48	1582.20
544.65	1554.12
544.82	1458.15
544.99	1577.52
545.16	1783.49
545.32	1413.68
545.49	1633.69
545.66	1542.41
545.83	1493.26
546.00	1397.30
546.16	1423.05
546.33	1523.69
546.50	1568.16
546.67	1846.68
546.83	1753.06
547.00	1636.03
547.17	1336.45
547.34	1488.58
547.50	1624.33
547.67	1657.10
547.84	1575.18
548.00	1654.76
548.17	1563.48
548.34	1495.60
548.51	1914.56
548.67	1825.62
548.84	1528.37
549.01	1689.87
549.18	1713.27
549.34	1664.12
549.51	1654.76
549.68	1671.14
549.84	1614.97
550.01	1322.40
550.18	2408.41
550.34	2200.10
550.51	1596.25
550.68	1966.05
550.84	1500.28
551.01	1680.50
551.18	1846.68
551.34	1575.18
551.51	1638.38
551.68	1610.29
551.84	1888.81
552.01	1570.50
552.18	1558.80
552.34	1643.06
552.51	1561.14
552.68	1732.00
552.84	1537.73
553.01	1629.01
553.18	1802.21
553.34	1533.05
553.51	1455.81
553.67	1755.40
553.84	1947.33
554.01	1764.76
554.17	1694.55
554.34	1563.48
554.51	1713.27
554.67	1788.17
554.84	1746.04
555.00	1680.50
555.17	1596.25
555.33	1865.41
555.50	1778.81
555.67	1650.08
555.83	1519.01
556.00	1645.40
556.16	3236.96
556.33	1746.04
556.50	1722.63
556.66	1493.26
556.83	1401.98
556.99	1542.41
557.16	1713.27
557.32	1540.07
557.49	1465.18
557.65	1446.45
557.82	1551.78
557.98	1647.74
558.15	1411.34
558.32	1437.09
558.48	1373.89
558.65	1465.18
558.81	1612.63
558.98	1483.90
559.14	1614.97
559.31	1661.78
559.47	1614.97
559.64	1479.22
559.80	1739.02
559.97	1364.53
560.13	1614.97
560.30	1441.77
560.46	1549.43
560.63	1490.92
560.79	1561.14
560.96	1565.82
561.12	1451.13
561.29	1692.21
561.45	1511.99
561.61	1437.09
561.78	2385.01
561.94	1640.72
562.11	1544.75
562.27	1610.29
562.44	1444.11
562.60	1551.78
562.77	1514.33
562.93	1987.11
563.10	1596.25
563.26	1462.83
563.42	1809.23
563.59	1561.14
563.75	1376.24
563.92	1732.00
564.08	1598.59
564.24	1797.53
564.41	2047.97
564.57	1343.47
564.74	1420.71
564.90	1619.65
565.07	1614.97
565.23	1713.27
565.39	1502.62
565.56	1605.61
565.72	1472.20
565.88	1493.26
566.05	1465.18
566.21	1446.45
566.38	1596.25
566.54	1614.97
566.70	1439.43
566.87	1490.92
567.03	1296.66
567.19	1516.67
567.36	1572.84
567.52	1481.56
567.68	1701.57
567.85	1514.33
568.01	1334.11
568.17	1203.04
568.34	1404.32
568.50	1743.70
568.66	1336.45
568.83	2038.61
568.99	1451.13
569.15	1870.09
569.32	1439.43
569.48	1444.11
569.64	1378.58
569.81	1448.79
569.97	1380.92
570.13	1479.22
570.30	1296.66
570.46	1397.30
570.62	1413.68
570.78	1472.20
570.95	1165.59
571.11	1884.13
571.27	1923.92
571.43	1401.98
571.60	1626.67
571.76	1310.70
571.92	1406.66
572.09	1472.20
572.25	1425.39
572.41	1490.92
572.57	1479.22
572.74	1902.86
572.90	1692.21
573.06	1671.14
573.22	1605.61
573.38	1741.36
573.55	1671.14
573.71	1603.27
573.87	1500.28
574.03	1233.46
574.20	1317.72
574.36	1706.25
574.52	1460.49
574.68	1441.77
574.84	1636.03
575.01	1411.34
575.17	1638.38
575.33	1378.58
575.49	1638.38
575.65	1687.53
575.82	1678.16
575.98	2146.27
576.14	1842.00
576.30	1785.83
576.46	1727.32
576.62	1675.82
576.79	1762.42
576.95	1844.34
577.11	1357.51
577.27	1231.12
577.43	1720.29
577.59	1795.19
577.75	1579.86
577.92	1458.15
578.08	1406.66
578.24	1357.51
578.40	1652.42
578.56	1825.62
578.72	1809.23
578.88	1582.20
579.04	1338.79
579.21	1633.69
579.37	1378.58
579.53	1427.73
579.69	1764.76
579.85	1334.11
580.01	1762.42
580.17	1563.48
580.33	1481.56
580.49	1598.59
580.65	1682.85
580.82	1507.30
580.98	1413.68
581.14	1366.87
581.30	1774.13
581.46	1617.31
581.62	1942.64
581.78	1668.80
581.94	1776.47
582.10	1486.24
582.26	1666.46
582.42	1547.09
582.58	1624.33
582.74	1624.33
582.90	1605.61
583.06	1720.29
583.22	1593.90
583.38	1607.95
583.54	1549.43
583.70	2057.33
583.86	1888.81
584.02	1877.11
584.18	2413.09
584.34	2270.32
584.50	4990.02
584.66	28435.17
584.82	55206.22
584.98	61876.74
585.14	57343.12
585.30	42284.12
585.46	26291.24
585.62	16161.40
585.78	8051.44
585.94	4238.71
586.10	2523.10
586.26	2115.84
586.42	2239.89
586.58	1881.79
586.74	1757.74
586.90	1654.76
587.06	1664.12
587.22	1694.55
587.38	1483.90
587.54	2401.39
587.70	5022.79
587.86	6619.04
588.02	6609.67
588.18	5015.77
588.34	3604.42
588.49	2520.76
588.65	2118.18
588.81	1643.06
588.97	1198.35
589.13	1294.32
589.29	1322.40
589.45	1511.99
589.61	1350.49
589.77	1776.47
589.93	1423.05
590.08	1486.24
590.24	1378.58
590.40	1565.82
590.56	1617.31
590.72	1401.98
590.88	1233.46
591.04	1441.77
591.20	1313.04
591.35	1652.42
591.51	1247.51
591.67	1228.78
591.83	1296.66
591.99	1486.24
592.15	1472.20
592.31	1383.26
592.46	1303.68
592.62	1598.59
592.78	1299.00
592.94	1228.78
593.10	1320.06
593.26	1266.23
593.41	1502.62
593.57	1441.77
593.73	1636.03
593.89	4660.01
594.05	8416.57
594.20	10555.82
594.36	9865.36
594.52	6722.02
594.68	4650.64
594.84	3737.84
594.99	2738.43
595.15	1804.55
595.31	1603.27
595.47	1844.34
595.62	1406.66
595.78	1427.73
595.94	1441.77
596.10	1603.27
596.25	1432.41
596.41	1678.16
596.57	1336.45
596.73	1331.76
596.88	1593.90
597.04	2616.72
597.20	3136.32
597.36	3471.01
597.51	2724.38
597.67	2160.31
597.83	1853.70
597.99	1893.49
598.14	1521.35
598.30	1746.04
598.46	1409.00
598.61	1636.03
598.77	1451.13
598.93	1280.27
599.09	1249.85
599.24	1523.69
599.40	1519.01
599.56	1357.51
599.71	1313.04
599.87	1196.01
600.03	1423.05
600.18	1401.98
600.34	1394.96
600.50	1228.78
600.65	1130.48
600.81	1647.74
600.97	1240.48
601.12	1268.57
