SpectraSuite Data File
++++++++++++++++++++++++++++++++++++
Date: Fri Oct 04 12:13:52 GMT-05:00 2013
User: price-jones
Dark Spectrum Present: No
Reference Spectrum Present: No
Number of Sampled Component Spectra: 1
Spectrometers: USB2+H05261
Integration Time (usec): 1000000 (USB2+H05261)
Spectra Averaged: 1 (USB2+H05261)
Boxcar Smoothing: 0 (USB2+H05261)
Correct for Electrical Dark: No (USB2+H05261)
Strobe/Lamp Enabled: No (USB2+H05261)
Correct for Detector Non-linearity: No (USB2+H05261)
Correct for Stray Light: No (USB2+H05261)
Number of Pixels in Processed Spectrum: 2048
>>>>>Begin Processed Spectral Data<<<<<
365.73	0.00
365.92	0.00
366.12	0.00
366.32	0.00
366.52	0.00
366.72	341.72
366.91	147.45
367.11	236.39
367.31	311.29
367.51	308.95
367.70	369.80
367.90	575.77
368.10	320.65
368.30	367.46
368.49	154.48
368.69	468.11
368.89	311.29
369.09	145.11
369.28	308.95
369.48	135.75
369.68	236.39
369.87	451.72
370.07	269.16
370.27	615.56
370.47	409.59
370.66	386.19
370.86	552.37
371.06	720.88
371.25	933.87
371.45	397.89
371.65	723.23
371.84	428.32
372.04	299.59
372.24	482.15
372.44	521.94
372.63	585.13
372.83	842.59
373.03	465.77
373.22	318.31
373.42	409.59
373.62	526.62
373.81	585.13
374.01	713.86
374.21	734.93
374.40	514.92
374.60	781.74
374.79	489.17
374.99	468.11
375.19	667.05
375.38	645.99
375.58	543.00
375.78	713.86
375.97	620.24
376.17	997.07
376.37	486.83
376.56	645.99
376.76	395.55
376.95	442.36
377.15	699.82
377.35	631.94
377.54	624.92
377.74	414.27
377.93	500.87
378.13	622.58
378.33	798.12
378.52	510.24
378.72	791.10
378.91	741.95
379.11	414.27
379.31	395.55
379.50	402.57
379.70	706.84
379.89	561.73
380.09	430.66
380.28	372.15
380.48	535.98
380.68	376.83
380.87	348.74
381.07	528.96
381.26	706.84
381.46	671.73
381.65	692.80
381.85	400.23
382.04	456.40
382.24	606.20
382.43	451.72
382.63	407.25
382.83	421.30
383.02	641.31
383.22	835.57
383.41	360.44
383.61	594.50
383.80	465.77
384.00	475.13
384.19	486.83
384.39	545.34
384.58	538.32
384.78	629.60
384.97	631.94
385.17	451.72
385.36	552.37
385.56	720.88
385.75	351.08
385.95	489.17
386.14	648.33
386.34	468.11
386.53	564.07
386.72	517.26
386.92	779.40
387.11	629.60
387.31	648.33
387.50	491.51
387.70	416.62
387.89	580.45
388.09	442.36
388.28	444.70
388.48	421.30
388.67	760.67
388.86	404.91
389.06	552.37
389.25	564.07
389.45	587.47
389.64	603.86
389.84	791.10
390.03	622.58
390.22	585.13
390.42	521.94
390.61	449.38
390.81	334.70
391.00	510.24
391.19	737.27
391.39	510.24
391.58	692.80
391.78	512.58
391.97	592.16
392.16	381.51
392.36	828.55
392.55	812.17
392.75	587.47
392.94	402.57
393.13	678.76
393.33	341.72
393.52	500.87
393.71	814.51
393.91	575.77
394.10	545.34
394.29	819.19
394.49	887.06
394.68	1149.20
394.88	1198.35
395.07	931.53
395.26	622.58
395.46	559.39
395.65	800.46
395.84	617.90
396.04	1132.82
396.23	538.32
396.42	418.96
396.62	634.29
396.81	650.67
397.00	573.43
397.19	645.99
397.39	547.69
397.58	823.87
397.77	608.54
397.97	528.96
398.16	589.82
398.35	643.65
398.55	461.09
398.74	617.90
398.93	814.51
399.12	484.49
399.32	730.25
399.51	641.31
399.70	706.84
399.90	674.07
400.09	741.95
400.28	755.99
400.47	498.53
400.67	779.40
400.86	634.29
401.05	664.71
401.24	765.36
401.44	812.17
401.63	777.06
401.82	753.65
402.01	472.79
402.21	645.99
402.40	702.16
402.59	559.39
402.78	547.69
402.97	582.79
403.17	645.99
403.36	713.86
403.55	655.35
403.74	772.38
403.93	1121.12
404.13	1579.86
404.32	1181.97
404.51	884.72
404.70	938.55
404.89	631.94
405.09	1041.54
405.28	723.23
405.47	528.96
405.66	753.65
405.85	793.44
406.05	512.58
406.24	578.11
406.43	606.20
406.62	697.48
406.81	1088.35
407.00	910.47
407.20	645.99
407.39	622.58
407.58	594.50
407.77	753.65
407.96	882.38
408.15	774.72
408.34	655.35
408.54	653.01
408.73	645.99
408.92	676.41
409.11	781.74
409.30	826.21
409.49	503.22
409.68	603.86
409.87	575.77
410.07	505.56
410.26	657.69
410.45	662.37
410.64	559.39
410.83	685.78
411.02	627.26
411.21	744.29
411.40	800.46
411.59	662.37
411.78	617.90
411.98	720.88
412.17	575.77
412.36	594.50
412.55	566.41
412.74	800.46
412.93	1109.41
413.12	519.60
413.31	856.64
413.50	734.93
413.69	664.71
413.88	1004.09
414.07	767.70
414.26	662.37
414.45	629.60
414.64	802.80
414.83	847.27
415.02	774.72
415.22	959.62
415.41	1170.27
415.60	891.74
415.79	940.90
415.98	1086.01
416.17	880.04
416.36	807.48
416.55	571.09
416.74	837.91
416.93	924.51
417.12	704.50
417.31	730.25
417.50	889.40
417.69	1717.95
417.88	1563.48
418.07	1303.68
418.26	1214.74
418.45	1240.48
418.64	1909.88
418.83	2033.93
419.02	1692.21
419.21	1500.28
419.39	1320.06
419.58	1350.49
419.77	1472.20
419.96	1495.60
420.15	1329.42
420.34	912.81
420.53	856.64
420.72	938.55
420.91	840.25
421.10	709.18
421.29	821.53
421.48	828.55
421.67	936.21
421.86	711.52
422.05	737.27
422.24	641.31
422.43	781.74
422.61	566.41
422.80	760.67
422.99	746.63
423.18	732.59
423.37	1060.26
423.56	985.37
423.75	866.00
423.94	669.39
424.13	688.12
424.32	711.52
424.50	805.14
424.69	739.61
424.88	1153.88
425.07	896.43
425.26	1275.59
425.45	1884.13
425.64	2087.76
425.83	1987.11
426.01	1696.89
426.20	1093.03
426.39	905.79
426.58	819.19
426.77	931.53
426.96	1083.67
427.15	898.77
427.33	819.19
427.52	821.53
427.71	791.10
427.90	800.46
428.09	699.82
428.28	589.82
428.46	774.72
428.65	877.70
428.84	922.17
429.03	1123.46
429.22	648.33
429.40	641.31
429.59	678.76
429.78	1334.11
429.97	842.59
430.16	674.07
430.34	660.03
430.53	695.14
430.72	739.61
430.91	959.62
431.10	564.07
431.28	826.21
431.47	987.71
431.66	940.90
431.85	674.07
432.03	805.14
432.22	1261.55
432.41	842.59
432.60	1254.53
432.79	1497.94
432.97	2408.41
433.16	2614.38
433.35	2157.97
433.54	1549.43
433.72	1266.23
433.91	1181.97
434.10	1268.57
434.28	1460.49
434.47	1219.42
434.66	1156.22
434.85	786.42
435.03	744.29
435.22	1074.31
435.41	1196.01
435.59	882.38
435.78	798.12
435.97	669.39
436.16	1015.79
436.34	823.87
436.53	938.55
436.72	1015.79
436.90	929.19
437.09	924.51
437.28	877.70
437.46	718.54
437.65	1004.09
437.84	957.28
438.02	968.98
438.21	917.49
438.40	706.84
438.58	734.93
438.77	908.13
438.96	802.80
439.14	760.67
439.33	1046.22
439.52	763.01
439.70	814.51
439.89	978.34
440.08	884.72
440.26	833.23
440.45	1144.52
440.63	887.06
440.82	868.34
441.01	882.38
441.19	851.96
441.38	847.27
441.57	896.43
441.75	1259.21
441.94	1104.73
442.12	947.92
442.31	847.27
442.50	926.85
442.68	973.66
442.87	922.17
443.05	936.21
443.24	931.53
443.43	1069.62
443.61	1179.63
443.80	940.90
443.98	826.21
444.17	791.10
444.35	1081.33
444.54	830.89
444.73	851.96
444.91	1160.91
445.10	760.67
445.28	802.80
445.47	992.39
445.65	922.17
445.84	746.63
446.02	882.38
446.21	861.32
446.39	798.12
446.58	1015.79
446.77	795.78
446.95	847.27
447.14	1036.86
447.32	1280.27
447.51	959.62
447.69	938.55
447.88	880.04
448.06	1240.48
448.25	978.34
448.43	877.70
448.62	765.36
448.80	1011.11
448.99	1123.46
449.17	823.87
449.36	894.08
449.54	1086.01
449.73	821.53
449.91	992.39
450.10	966.64
450.28	1469.86
450.46	1476.88
450.65	1259.21
450.83	1231.12
451.02	1025.15
451.20	1069.62
451.39	943.24
451.57	854.30
451.76	889.40
451.94	987.71
452.13	1184.31
452.31	1186.65
452.49	1107.07
452.68	814.51
452.86	985.37
453.05	1280.27
453.23	994.73
453.42	849.61
453.60	978.34
453.78	1053.24
453.97	877.70
454.15	847.27
454.34	898.77
454.52	889.40
454.70	1149.20
454.89	1114.10
455.07	884.72
455.26	1107.07
455.44	1165.59
455.62	931.53
455.81	1086.01
455.99	1078.99
456.17	1074.31
456.36	875.36
456.54	854.30
456.73	898.77
456.91	873.02
457.09	959.62
457.28	1160.91
457.46	966.64
457.64	1242.82
457.83	1022.81
458.01	910.47
458.19	990.05
458.38	936.21
458.56	973.66
458.74	777.06
458.93	1165.59
459.11	1032.18
459.29	777.06
459.48	1046.22
459.66	1282.61
459.84	1090.69
460.03	1753.06
460.21	1214.74
460.39	919.83
460.57	1306.02
460.76	1050.90
460.94	938.55
461.12	1282.61
461.31	1205.38
461.49	1032.18
461.67	940.90
461.85	1043.88
462.04	945.58
462.22	5874.74
462.40	1357.51
462.59	1373.89
462.77	947.92
462.95	1013.45
463.13	894.08
463.32	1174.95
463.50	1025.15
463.68	1118.78
463.86	1048.56
464.05	987.71
464.23	1282.61
464.41	1235.80
464.59	950.26
464.78	912.81
464.96	891.74
465.14	1060.26
465.32	940.90
465.50	1144.52
465.69	1165.59
465.87	786.42
466.05	1123.46
466.23	856.64
466.41	976.00
466.60	924.51
466.78	994.73
466.96	1334.11
467.14	1043.88
467.32	1273.25
467.51	1093.03
467.69	1111.75
467.87	1341.13
468.05	919.83
468.23	1394.96
468.41	1270.91
468.60	1032.18
468.78	976.00
468.96	1308.36
469.14	1081.33
469.32	765.36
469.50	901.11
469.69	1228.78
469.87	1228.78
470.05	1247.51
470.23	1074.31
470.41	1018.13
470.59	1067.28
470.77	1181.97
470.95	1130.48
471.14	1343.47
471.32	1139.84
471.50	1352.83
471.68	1069.62
471.86	1184.31
472.04	973.66
472.22	1139.84
472.40	884.72
472.58	924.51
472.77	910.47
472.95	997.07
473.13	1507.30
473.31	1287.29
473.49	821.53
473.67	957.28
473.85	1210.06
474.03	1217.08
474.21	1078.99
474.39	1343.47
474.57	1516.67
474.75	1160.91
474.93	1057.92
475.12	910.47
475.30	1027.50
475.48	1032.18
475.66	1046.22
475.84	1039.20
476.02	1125.80
476.20	1238.14
476.38	1057.92
476.56	1612.63
476.74	1102.39
476.92	1008.77
477.10	1083.67
477.28	1156.22
477.46	1046.22
477.64	1268.57
477.82	1076.65
478.00	1123.46
478.18	1191.33
478.36	1090.69
478.54	1004.09
478.72	1158.57
478.90	1193.67
479.08	1291.98
479.26	1163.25
479.44	1116.44
479.62	983.02
479.80	1083.67
479.98	997.07
480.16	1083.67
480.34	1327.08
480.52	1057.92
480.70	1238.14
480.88	1093.03
481.06	1083.67
481.24	1067.28
481.41	1224.10
481.59	1310.70
481.77	1191.33
481.95	1174.95
482.13	1568.16
482.31	1226.44
482.49	1128.14
482.67	1280.27
482.85	1378.58
483.03	1324.74
483.21	1277.93
483.39	1226.44
483.57	1203.04
483.74	1617.31
483.92	1217.08
484.10	1200.69
484.28	1401.98
484.46	1741.36
484.64	1184.31
484.82	1167.93
485.00	1186.65
485.18	1224.10
485.35	1242.82
485.53	1027.50
485.71	1338.79
485.89	973.66
486.07	1149.20
486.25	1701.57
486.43	1373.89
486.61	1420.71
486.78	1277.93
486.96	1177.29
487.14	1336.45
487.32	1254.53
487.50	1221.76
487.68	1483.90
487.85	1235.80
488.03	1493.26
488.21	1614.97
488.39	1371.55
488.57	1439.43
488.75	1306.02
488.92	4170.83
489.10	1413.68
489.28	1809.23
489.46	1284.95
489.64	1392.62
489.81	1406.66
489.99	1554.12
490.17	1315.38
490.35	1966.05
490.53	1362.19
490.70	1348.15
490.88	1526.03
491.06	1336.45
491.24	1535.39
491.41	1816.26
491.59	1495.60
491.77	1277.93
491.95	1331.76
492.13	1184.31
492.30	1338.79
492.48	1483.90
492.66	1409.00
492.84	1362.19
493.01	1500.28
493.19	1385.60
493.37	1724.97
493.54	1565.82
493.72	1551.78
493.90	1416.02
494.08	1338.79
494.25	1556.46
494.43	1554.12
494.61	1455.81
494.79	1355.17
494.96	1273.25
495.14	1537.73
495.32	1453.47
495.49	1561.14
495.67	1577.52
495.85	1521.35
496.02	1469.86
496.20	1764.76
496.38	1675.82
496.55	1479.22
496.73	1614.97
496.91	1411.34
497.09	1593.90
497.26	1603.27
497.44	1540.07
497.62	1481.56
497.79	1509.65
497.97	1558.80
498.14	1565.82
498.32	1570.50
498.50	1490.92
498.67	1448.79
498.85	1600.93
499.03	1500.28
499.20	1563.48
499.38	1551.78
499.56	1551.78
499.73	1858.39
499.91	1701.57
500.08	1785.83
500.26	1458.15
500.44	1451.13
500.61	1636.03
500.79	1453.47
500.97	1715.61
501.14	1863.07
501.32	1533.05
501.49	1785.83
501.67	1444.11
501.84	1692.21
502.02	1425.39
502.20	1884.13
502.37	1682.85
502.55	1558.80
502.72	1874.77
502.90	1846.68
503.07	1776.47
503.25	2038.61
503.43	1996.48
503.60	2172.02
503.78	2129.89
503.95	1795.19
504.13	1519.01
504.30	1703.91
504.48	1856.04
504.65	1926.26
504.83	1776.47
505.01	1570.50
505.18	1743.70
505.36	1650.08
505.53	1558.80
505.71	1535.39
505.88	1858.39
506.06	1591.56
506.23	1645.40
506.41	1570.50
506.58	1675.82
506.76	1736.68
506.93	1614.97
507.11	1769.44
507.28	1614.97
507.46	1605.61
507.63	1987.11
507.81	1860.73
507.98	2045.63
508.16	1755.40
508.33	1825.62
508.50	1830.30
508.68	1694.55
508.85	1673.48
509.03	1645.40
509.20	1638.38
509.38	1750.72
509.55	1870.09
509.73	1851.36
509.90	1970.73
510.08	1568.16
510.25	1853.70
510.42	1603.27
510.60	1607.95
510.77	1839.66
510.95	2059.67
511.12	2033.93
511.30	2492.67
511.47	2677.57
511.64	2771.19
511.82	2054.99
511.99	1954.35
512.17	1811.57
512.34	1554.12
512.51	1647.74
512.69	1638.38
512.86	1970.73
513.04	1535.39
513.21	1671.14
513.38	1481.56
513.56	1572.84
513.73	1607.95
513.90	1612.63
514.08	1610.29
514.25	2040.95
514.43	2097.12
514.60	1713.27
514.77	1912.22
514.95	2036.27
515.12	1870.09
515.29	1881.79
515.47	1776.47
515.64	1802.21
515.81	1736.68
515.99	2024.56
516.16	1743.70
516.33	1830.30
516.51	1483.90
516.68	1420.71
516.85	1455.81
517.03	1336.45
517.20	1755.40
517.37	1732.00
517.54	1727.32
517.72	1668.80
517.89	1338.79
518.06	1369.21
518.24	2141.59
518.41	2211.81
518.58	2097.12
518.75	1893.49
518.93	2012.86
519.10	1961.37
519.27	1762.42
519.45	1767.10
519.62	1739.02
519.79	1764.76
519.96	1689.87
520.14	1954.35
520.31	2249.25
520.48	1947.33
520.65	1926.26
520.83	2083.08
521.00	2029.24
521.17	1849.02
521.34	1687.53
521.52	1750.72
521.69	1741.36
521.86	1844.34
522.03	2022.22
522.20	2267.98
522.38	1727.32
522.55	1687.53
522.72	1528.37
522.89	1902.86
523.07	2193.08
523.24	1788.17
523.41	1842.00
523.58	1692.21
523.75	1757.74
523.92	1633.69
524.10	1767.10
524.27	1811.57
524.44	1626.67
524.61	1998.82
524.78	1671.14
524.96	1991.80
525.13	1839.66
525.30	2008.18
525.47	1961.37
525.64	1825.62
525.81	1827.96
525.98	1743.70
526.16	1582.20
526.33	1547.09
526.50	1530.71
526.67	1507.30
526.84	1535.39
527.01	1610.29
527.18	1748.38
527.36	1739.02
527.53	1776.47
527.70	2003.50
527.87	1769.44
528.04	2256.28
528.21	1699.23
528.38	1816.26
528.55	2057.33
528.72	2218.83
528.89	2176.70
529.07	1797.53
529.24	1893.49
529.41	2225.85
529.58	1893.49
529.75	1937.96
529.92	2085.42
530.09	1940.30
530.26	2155.63
530.43	2040.95
530.60	1851.36
530.77	1832.64
530.94	1914.56
531.11	1893.49
531.28	1865.41
531.46	1757.74
531.63	1849.02
531.80	1970.73
531.97	1858.39
532.14	1994.14
532.31	1977.75
532.48	2455.22
532.65	3421.86
532.82	4409.57
532.99	4217.65
533.16	3213.56
533.33	2593.31
533.50	2455.22
533.67	3391.44
533.84	4826.18
534.01	4985.34
534.18	4065.51
534.35	3119.93
534.52	2562.89
534.69	2649.49
534.86	2038.61
535.03	1867.75
535.20	1809.23
535.37	2246.91
535.54	2129.89
535.71	1930.94
535.88	2321.81
536.05	1769.44
536.22	1952.01
536.38	1753.06
536.55	1818.60
536.72	2150.95
536.89	1708.59
537.06	1912.22
537.23	1905.20
537.40	1741.36
537.57	1722.63
537.74	2036.27
537.91	2008.18
538.08	1942.64
538.25	2043.29
538.42	1867.75
538.59	1952.01
538.75	1818.60
538.92	1902.86
539.09	2197.76
539.26	2275.00
539.43	5722.61
539.60	15817.34
539.77	26670.40
539.94	27573.85
540.11	16276.09
540.28	9685.14
540.44	6076.03
540.61	3183.13
540.78	2104.14
540.95	1865.41
541.12	2403.73
541.29	1893.49
541.46	2181.38
541.62	1930.94
541.79	1760.08
541.96	1734.34
542.13	1750.72
542.30	1748.38
542.47	1954.35
542.63	1790.51
542.80	1902.86
542.97	2183.72
543.14	1820.94
543.31	1998.82
543.48	1844.34
543.64	1937.96
543.81	1788.17
543.98	1724.97
544.15	1645.40
544.32	1790.51
544.48	1832.64
544.65	1867.75
544.82	1806.89
544.99	1795.19
545.16	2059.67
545.32	1839.66
545.49	1851.36
545.66	1858.39
545.83	1638.38
546.00	1533.05
546.16	1614.97
546.33	1781.15
546.50	1650.08
546.67	1959.03
546.83	1935.62
547.00	1717.95
547.17	1568.16
547.34	1624.33
547.50	1757.74
547.67	1820.94
547.84	1621.99
548.00	1842.00
548.17	1671.14
548.34	1797.53
548.51	2101.80
548.67	1973.07
548.84	1713.27
549.01	1748.38
549.18	1947.33
549.34	2024.56
549.51	1998.82
549.68	1837.32
549.84	1799.87
550.01	1760.08
550.18	2691.62
550.34	2436.50
550.51	1863.07
550.68	2216.49
550.84	1692.21
551.01	1764.76
551.18	1928.60
551.34	1720.29
551.51	1764.76
551.68	1675.82
551.84	1813.92
552.01	1607.95
552.18	1593.90
552.34	1755.40
552.51	1818.60
552.68	1923.92
552.84	1722.63
553.01	1813.92
553.18	2043.29
553.34	1755.40
553.51	1710.93
553.67	1921.58
553.84	2165.00
554.01	1961.37
554.17	1849.02
554.34	1706.25
554.51	1886.47
554.67	2008.18
554.84	1914.56
555.00	1926.26
555.17	1750.72
555.33	2040.95
555.50	1994.14
555.67	2197.76
555.83	1902.86
556.00	2277.34
556.16	3934.44
556.33	2104.14
556.50	1968.39
556.66	1830.30
556.83	1764.76
556.99	1783.49
557.16	1797.53
557.32	1708.59
557.49	1729.66
557.65	1710.93
557.82	1584.54
557.98	1652.42
558.15	1666.46
558.32	1685.19
558.48	1629.01
558.65	1736.68
558.81	1804.55
558.98	1692.21
559.14	1834.98
559.31	1650.08
559.47	1809.23
559.64	1643.06
559.80	1900.52
559.97	1579.86
560.13	1764.76
560.30	1591.56
560.46	1804.55
560.63	1797.53
560.79	1788.17
560.96	1830.30
561.12	1720.29
561.29	1837.32
561.45	1636.03
561.61	1673.48
561.78	2497.35
561.94	1769.44
562.11	1692.21
562.27	1774.13
562.44	1614.97
562.60	1736.68
562.77	1741.36
562.93	2457.56
563.10	1830.30
563.26	1732.00
563.42	1909.88
563.59	1811.57
563.75	1561.14
563.92	1930.94
564.08	1757.74
564.24	1966.05
564.41	2169.68
564.57	1540.07
564.74	1781.15
564.90	2050.31
565.07	2146.27
565.23	2506.71
565.39	2394.37
565.56	2647.15
565.72	2097.12
565.88	2045.63
566.05	1970.73
566.21	1856.04
566.38	1898.17
566.54	1907.54
566.70	1764.76
566.87	1727.32
567.03	1483.90
567.19	1682.85
567.36	1928.60
567.52	1643.06
567.68	1736.68
567.85	1867.75
568.01	1696.89
568.17	1495.60
568.34	1687.53
568.50	2090.10
568.66	1877.11
568.83	2715.02
568.99	1905.20
569.15	2111.16
569.32	1799.87
569.48	1788.17
569.64	1516.67
569.81	1682.85
569.97	1664.12
570.13	1870.09
570.30	1643.06
570.46	1643.06
570.62	1755.40
570.78	1654.76
570.95	1467.52
571.11	2125.21
571.27	2211.81
571.43	1755.40
571.60	2296.07
571.76	2087.76
571.92	2029.24
572.09	1865.41
572.25	1764.76
572.41	1783.49
572.57	1729.66
572.74	2127.55
572.90	1961.37
573.06	1989.46
573.22	2005.84
573.38	2108.82
573.55	1998.82
573.71	2186.06
573.87	2101.80
574.03	1778.81
574.20	2057.33
574.36	2881.20
574.52	3487.40
574.68	3705.07
574.84	3117.59
575.01	2562.89
575.17	2466.92
575.33	2094.78
575.49	2223.51
575.65	2422.45
575.82	3712.09
575.98	7353.96
576.14	10251.55
576.30	11066.05
576.46	7655.89
576.62	5495.58
576.79	4236.37
576.95	3627.83
577.11	2499.69
577.27	2296.07
577.43	2579.27
577.59	2759.49
577.75	2401.39
577.92	2319.47
578.08	2300.75
578.24	2326.49
578.40	2684.59
578.56	2874.18
578.72	2810.98
578.88	2642.46
579.04	2616.72
579.21	2597.99
579.37	2677.57
579.53	2738.43
579.69	3040.36
579.85	2925.67
580.01	3943.80
580.17	4318.29
580.33	4341.69
580.49	4117.00
580.65	3934.44
580.82	3749.54
580.98	3536.55
581.14	3644.21
581.30	4407.23
581.46	5247.48
581.62	7616.10
581.78	8823.82
581.94	8439.97
582.10	6490.31
582.26	5865.38
582.42	5390.25
582.58	5085.98
582.74	5043.85
582.90	5289.61
583.06	5668.78
583.22	5834.96
583.38	6207.10
583.54	6792.23
583.70	8524.23
583.86	10024.51
584.02	11690.98
584.18	14675.16
584.34	20353.30
584.50	54862.16
584.66	65535.00
584.82	65535.00
584.98	65535.00
585.14	65535.00
585.30	65535.00
585.46	65535.00
585.62	65535.00
585.78	65535.00
585.94	58974.48
586.10	26185.91
586.26	16538.23
586.42	12837.84
586.58	10090.05
586.74	8828.50
586.90	8397.84
587.06	8229.32
587.22	7370.35
587.38	7028.63
587.54	19344.53
587.70	55753.90
587.86	65535.00
588.02	65535.00
588.18	65535.00
588.34	50976.87
588.49	33383.06
588.65	19463.90
588.81	9472.15
588.97	5247.48
589.13	4081.89
589.29	3691.02
589.45	3733.15
589.61	3651.24
589.77	4844.91
589.93	5650.05
590.08	6572.22
590.24	5778.78
590.40	5743.67
590.56	5114.07
590.72	4250.41
590.88	3936.78
591.04	4009.34
591.20	3941.46
591.35	3992.95
591.51	3576.34
591.67	3309.52
591.83	3232.28
591.99	3098.87
592.15	3056.74
592.31	3101.21
592.46	2822.69
592.62	2972.48
592.78	2944.39
592.94	2972.48
593.10	3150.36
593.26	3309.52
593.41	3761.24
593.57	4416.59
593.73	8329.97
593.89	49701.28
594.05	65535.00
594.20	65535.00
594.36	65535.00
594.52	65535.00
594.68	65385.21
594.84	50213.85
594.99	27014.46
595.15	11332.87
595.31	6043.26
595.47	4437.66
595.62	3541.23
595.78	3389.10
595.94	3351.65
596.10	4058.49
596.25	4152.11
596.41	4271.48
596.57	3482.72
596.73	3501.44
596.88	7772.92
597.04	23763.46
597.20	42258.37
597.36	50520.46
597.51	38183.50
597.67	24009.22
597.83	15400.72
597.99	10324.10
598.14	5584.52
598.30	4039.76
598.46	3660.60
598.61	3969.55
598.77	3681.66
598.93	2951.42
599.09	2970.14
599.24	2745.45
599.40	2672.89
599.56	2246.91
599.71	2324.15
599.87	2286.70
