SpectraSuite Data File
++++++++++++++++++++++++++++++++++++
Date: Fri Oct 04 11:34:08 GMT-05:00 2013
User: price-jones
Dark Spectrum Present: No
Reference Spectrum Present: No
Number of Sampled Component Spectra: 1
Spectrometers: USB2+H05261
Integration Time (usec): 100000 (USB2+H05261)
Spectra Averaged: 1 (USB2+H05261)
Boxcar Smoothing: 0 (USB2+H05261)
Correct for Electrical Dark: No (USB2+H05261)
Strobe/Lamp Enabled: No (USB2+H05261)
Correct for Detector Non-linearity: No (USB2+H05261)
Correct for Stray Light: No (USB2+H05261)
Number of Pixels in Processed Spectrum: 2048
>>>>>Begin Processed Spectral Data<<<<<
365.73	60.85
365.92	60.85
366.12	60.85
366.32	21.06
366.52	0.00
366.72	79.58
366.91	0.00
367.11	0.00
367.31	46.81
367.51	0.00
367.70	0.00
367.90	0.00
368.10	0.00
368.30	0.00
368.49	0.00
368.69	86.60
368.89	0.00
369.09	0.00
369.28	0.00
369.48	0.00
369.68	30.43
369.87	70.22
370.07	0.00
370.27	39.79
370.47	0.00
370.66	18.72
370.86	81.92
371.06	51.49
371.25	84.26
371.45	77.24
371.65	117.03
371.84	46.81
372.04	70.22
372.24	74.90
372.44	88.94
372.63	135.75
372.83	180.22
373.03	98.30
373.22	159.16
373.42	154.48
373.62	177.88
373.81	131.07
374.01	173.20
374.21	131.07
374.40	65.54
374.60	182.56
374.79	124.05
374.99	163.84
375.19	149.79
375.38	224.69
375.58	177.88
375.78	149.79
375.97	173.20
376.17	187.24
376.37	100.64
376.56	135.75
376.76	70.22
376.95	191.92
377.15	133.41
377.35	189.58
377.54	184.90
377.74	159.16
377.93	198.95
378.13	177.88
378.33	252.78
378.52	133.41
378.72	161.50
378.91	145.11
379.11	133.41
379.31	189.58
379.50	91.28
379.70	234.05
379.89	182.56
380.09	114.69
380.28	100.64
380.48	156.82
380.68	117.03
380.87	110.01
381.07	154.48
381.26	142.77
381.46	161.50
381.65	126.39
381.85	154.48
382.04	154.48
382.24	110.01
382.43	138.09
382.63	126.39
382.83	100.64
383.02	177.88
383.22	205.97
383.41	124.05
383.61	107.66
383.80	102.98
384.00	152.13
384.19	138.09
384.39	117.03
384.58	110.01
384.78	152.13
384.97	208.31
385.17	163.84
385.36	196.60
385.56	208.31
385.75	119.37
385.95	205.97
386.14	168.52
386.34	102.98
386.53	145.11
386.72	25.75
386.92	187.24
387.11	149.79
387.31	180.22
387.50	145.11
387.70	147.45
387.89	133.41
388.09	170.86
388.28	112.35
388.48	133.41
388.67	191.92
388.86	119.37
389.06	149.79
389.25	149.79
389.45	107.66
389.64	208.31
389.84	166.18
390.03	191.92
390.22	98.30
390.42	93.62
390.61	95.96
390.81	91.28
391.00	196.60
391.19	250.44
391.39	159.16
391.58	119.37
391.78	110.01
391.97	210.65
392.16	121.71
392.36	128.73
392.55	196.60
392.75	147.45
392.94	117.03
393.13	152.13
393.33	119.37
393.52	149.79
393.71	177.88
393.91	156.82
394.10	133.41
394.29	100.64
394.49	170.86
394.68	119.37
394.88	236.39
395.07	166.18
395.26	147.45
395.46	145.11
395.65	156.82
395.84	248.10
396.04	243.42
396.23	49.15
396.42	175.54
396.62	105.32
396.81	93.62
397.00	166.18
397.19	180.22
397.39	93.62
397.58	124.05
397.77	128.73
397.97	180.22
398.16	124.05
398.35	95.96
398.55	152.13
398.74	105.32
398.93	133.41
399.12	149.79
399.32	159.16
399.51	142.77
399.70	140.43
399.90	133.41
400.09	163.84
400.28	133.41
400.47	86.60
400.67	201.29
400.86	91.28
401.05	161.50
401.24	278.52
401.44	72.56
401.63	203.63
401.82	173.20
402.01	149.79
402.21	194.26
402.40	145.11
402.59	93.62
402.78	131.07
402.97	107.66
403.17	145.11
403.36	161.50
403.55	168.52
403.74	152.13
403.93	58.51
404.13	227.03
404.32	138.09
404.51	170.86
404.70	175.54
404.89	91.28
405.09	245.76
405.28	152.13
405.47	152.13
405.66	159.16
405.85	128.73
406.05	187.24
406.24	112.35
406.43	187.24
406.62	175.54
406.81	205.97
407.00	189.58
407.20	149.79
407.39	117.03
407.58	91.28
407.77	257.46
407.96	126.39
408.15	203.63
408.34	205.97
408.54	93.62
408.73	95.96
408.92	175.54
409.11	210.65
409.30	166.18
409.49	140.43
409.68	154.48
409.87	177.88
410.07	217.67
410.26	140.43
410.45	77.24
410.64	95.96
410.83	140.43
411.02	198.95
411.21	142.77
411.40	189.58
411.59	177.88
411.78	180.22
411.98	147.45
412.17	133.41
412.36	105.32
412.55	168.52
412.74	159.16
412.93	184.90
413.12	138.09
413.31	189.58
413.50	147.45
413.69	135.75
413.88	126.39
414.07	131.07
414.26	138.09
414.45	81.92
414.64	161.50
414.83	182.56
415.02	210.65
415.22	215.33
415.41	182.56
415.60	105.32
415.79	180.22
415.98	196.60
416.17	180.22
416.36	264.48
416.55	159.16
416.74	231.71
416.93	121.71
417.12	198.95
417.31	88.94
417.50	159.16
417.69	217.67
417.88	86.60
418.07	86.60
418.26	42.13
418.45	145.11
418.64	128.73
418.83	142.77
419.02	217.67
419.21	177.88
419.39	196.60
419.58	161.50
419.77	210.65
419.96	149.79
420.15	245.76
420.34	102.98
420.53	217.67
420.72	201.29
420.91	182.56
421.10	205.97
421.29	161.50
421.48	124.05
421.67	182.56
421.86	133.41
422.05	117.03
422.24	175.54
422.43	156.82
422.61	112.35
422.80	100.64
422.99	102.98
423.18	119.37
423.37	210.65
423.56	156.82
423.75	100.64
423.94	126.39
424.13	126.39
424.32	194.26
424.50	159.16
424.69	245.76
424.88	236.39
425.07	105.32
425.26	177.88
425.45	194.26
425.64	154.48
425.83	177.88
426.01	224.69
426.20	196.60
426.39	184.90
426.58	215.33
426.77	154.48
426.96	180.22
427.15	210.65
427.33	191.92
427.52	159.16
427.71	60.85
427.90	170.86
428.09	114.69
428.28	112.35
428.46	191.92
428.65	205.97
428.84	135.75
429.03	152.13
429.22	117.03
429.40	142.77
429.59	93.62
429.78	238.73
429.97	135.75
430.16	217.67
430.34	142.77
430.53	154.48
430.72	166.18
430.91	297.25
431.10	147.45
431.28	194.26
431.47	203.63
431.66	201.29
431.85	248.10
432.03	166.18
432.22	203.63
432.41	126.39
432.60	140.43
432.79	203.63
432.97	168.52
433.16	191.92
433.35	149.79
433.54	145.11
433.72	142.77
433.91	161.50
434.10	175.54
434.28	175.54
434.47	238.73
434.66	166.18
434.85	156.82
435.03	252.78
435.22	273.84
435.41	451.72
435.59	381.51
435.78	266.82
435.97	245.76
436.16	189.58
436.34	161.50
436.53	189.58
436.72	257.46
436.90	236.39
437.09	170.86
437.28	229.37
437.46	234.05
437.65	168.52
437.84	229.37
438.02	107.66
438.21	201.29
438.40	227.03
438.58	145.11
438.77	170.86
438.96	168.52
439.14	173.20
439.33	222.35
439.52	222.35
439.70	170.86
439.89	170.86
440.08	77.24
440.26	243.42
440.45	194.26
440.63	231.71
440.82	145.11
441.01	210.65
441.19	191.92
441.38	145.11
441.57	182.56
441.75	208.31
441.94	194.26
442.12	236.39
442.31	276.18
442.50	210.65
442.68	189.58
442.87	173.20
443.05	229.37
443.24	135.75
443.43	227.03
443.61	250.44
443.80	210.65
443.98	149.79
444.17	154.48
444.35	156.82
444.54	252.78
444.73	236.39
444.91	224.69
445.10	196.60
445.28	180.22
445.47	191.92
445.65	140.43
445.84	140.43
446.02	126.39
446.21	156.82
446.39	117.03
446.58	210.65
446.77	149.79
446.95	107.66
447.14	149.79
447.32	161.50
447.51	203.63
447.69	163.84
447.88	180.22
448.06	245.76
448.25	166.18
448.43	154.48
448.62	135.75
448.80	234.05
448.99	220.01
449.17	189.58
449.36	168.52
449.54	227.03
449.73	152.13
449.91	156.82
450.10	220.01
450.28	238.73
450.46	250.44
450.65	238.73
450.83	215.33
451.02	198.95
451.20	252.78
451.39	196.60
451.57	189.58
451.76	191.92
451.94	163.84
452.13	180.22
452.31	163.84
452.49	198.95
452.68	152.13
452.86	124.05
453.05	245.76
453.23	140.43
453.42	166.18
453.60	255.12
453.78	175.54
453.97	152.13
454.15	81.92
454.34	126.39
454.52	145.11
454.70	245.76
454.89	208.31
455.07	215.33
455.26	222.35
455.44	208.31
455.62	147.45
455.81	100.64
455.99	184.90
456.17	231.71
456.36	189.58
456.54	203.63
456.73	156.82
456.91	191.92
457.09	252.78
457.28	175.54
457.46	175.54
457.64	182.56
457.83	124.05
458.01	161.50
458.19	205.97
458.38	201.29
458.56	131.07
458.74	220.01
458.93	135.75
459.11	210.65
459.29	154.48
459.48	198.95
459.66	224.69
459.84	177.88
460.03	255.12
460.21	205.97
460.39	107.66
460.57	107.66
460.76	131.07
460.94	187.24
461.12	236.39
461.31	224.69
461.49	224.69
461.67	154.48
461.85	198.95
462.04	266.82
462.22	664.71
462.40	173.20
462.59	210.65
462.77	166.18
462.95	201.29
463.13	205.97
463.32	166.18
463.50	152.13
463.68	257.46
463.86	203.63
464.05	173.20
464.23	224.69
464.41	210.65
464.59	173.20
464.78	138.09
464.96	184.90
465.14	203.63
465.32	184.90
465.50	191.92
465.69	180.22
465.87	177.88
466.05	145.11
466.23	187.24
466.41	241.08
466.60	220.01
466.78	210.65
466.96	224.69
467.14	198.95
467.32	189.58
467.51	156.82
467.69	243.42
467.87	241.08
468.05	227.03
468.23	180.22
468.41	180.22
468.60	121.71
468.78	184.90
468.96	299.59
469.14	159.16
469.32	161.50
469.50	154.48
469.69	234.05
469.87	175.54
470.05	189.58
470.23	117.03
470.41	147.45
470.59	201.29
470.77	131.07
470.95	210.65
471.14	175.54
471.32	166.18
471.50	222.35
471.68	229.37
471.86	175.54
472.04	114.69
472.22	168.52
472.40	189.58
472.58	187.24
472.77	145.11
472.95	159.16
473.13	257.46
473.31	198.95
473.49	152.13
473.67	175.54
473.85	187.24
474.03	234.05
474.21	241.08
474.39	208.31
474.57	243.42
474.75	208.31
474.93	229.37
475.12	119.37
475.30	149.79
475.48	189.58
475.66	168.52
475.84	208.31
476.02	220.01
476.20	163.84
476.38	201.29
476.56	227.03
476.74	283.20
476.92	208.31
477.10	147.45
477.28	191.92
477.46	215.33
477.64	217.67
477.82	236.39
478.00	175.54
478.18	245.76
478.36	112.35
478.54	147.45
478.72	187.24
478.90	166.18
479.08	159.16
479.26	205.97
479.44	250.44
479.62	168.52
479.80	222.35
479.98	208.31
480.16	229.37
480.34	180.22
480.52	212.99
480.70	208.31
480.88	198.95
481.06	231.71
481.24	184.90
481.41	182.56
481.59	198.95
481.77	173.20
481.95	271.50
482.13	318.31
482.31	212.99
482.49	205.97
482.67	271.50
482.85	248.10
483.03	217.67
483.21	154.48
483.39	163.84
483.57	264.48
483.74	182.56
483.92	180.22
484.10	166.18
484.28	243.42
484.46	255.12
484.64	220.01
484.82	248.10
485.00	227.03
485.18	290.23
485.35	191.92
485.53	236.39
485.71	201.29
485.89	215.33
486.07	198.95
486.25	294.91
486.43	306.61
486.61	266.82
486.78	339.38
486.96	203.63
487.14	201.29
487.32	248.10
487.50	189.58
487.68	259.80
487.85	184.90
488.03	222.35
488.21	278.52
488.39	234.05
488.57	269.16
488.75	210.65
488.92	447.04
489.10	241.08
489.28	266.82
489.46	191.92
489.64	287.89
489.81	227.03
489.99	252.78
490.17	220.01
490.35	241.08
490.53	231.71
490.70	250.44
490.88	250.44
491.06	168.52
491.24	217.67
491.41	339.38
491.59	325.33
491.77	194.26
491.95	201.29
492.13	191.92
492.30	210.65
492.48	257.46
492.66	313.63
492.84	248.10
493.01	259.80
493.19	297.25
493.37	252.78
493.54	278.52
493.72	250.44
493.90	255.12
494.08	184.90
494.25	269.16
494.43	194.26
494.61	191.92
494.79	231.71
494.96	229.37
495.14	217.67
495.32	238.73
495.49	212.99
495.67	236.39
495.85	311.29
496.02	241.08
496.20	266.82
496.38	262.14
496.55	257.46
496.73	191.92
496.91	297.25
497.09	252.78
497.26	203.63
497.44	297.25
497.62	210.65
497.79	250.44
497.97	257.46
498.14	217.67
498.32	292.57
498.50	255.12
498.67	266.82
498.85	243.42
499.03	245.76
499.20	248.10
499.38	187.24
499.56	222.35
499.73	194.26
499.91	278.52
500.08	222.35
500.26	278.52
500.44	266.82
500.61	248.10
500.79	215.33
500.97	337.04
501.14	227.03
501.32	252.78
501.49	292.57
501.67	278.52
501.84	231.71
502.02	278.52
502.20	315.97
502.37	259.80
502.55	299.59
502.72	262.14
502.90	341.72
503.07	212.99
503.25	203.63
503.43	234.05
503.60	248.10
503.78	191.92
503.95	224.69
504.13	198.95
504.30	182.56
504.48	229.37
504.65	297.25
504.83	241.08
505.01	201.29
505.18	245.76
505.36	304.27
505.53	217.67
505.71	229.37
505.88	306.61
506.06	182.56
506.23	212.99
506.41	269.16
506.58	250.44
506.76	283.20
506.93	227.03
507.11	224.69
507.28	215.33
507.46	182.56
507.63	220.01
507.81	234.05
507.98	133.41
508.16	262.14
508.33	262.14
508.50	299.59
508.68	299.59
508.85	308.95
509.03	222.35
509.20	252.78
509.38	299.59
509.55	191.92
509.73	257.46
509.90	290.23
510.08	236.39
510.25	243.42
510.42	271.50
510.60	243.42
510.77	285.55
510.95	273.84
511.12	304.27
511.30	224.69
511.47	236.39
511.64	388.53
511.82	315.97
511.99	241.08
512.17	210.65
512.34	264.48
512.51	280.86
512.69	243.42
512.86	276.18
513.04	238.73
513.21	201.29
513.38	198.95
513.56	245.76
513.73	168.52
513.90	266.82
514.08	215.33
514.25	344.06
514.43	182.56
514.60	215.33
514.77	217.67
514.95	290.23
515.12	175.54
515.29	255.12
515.47	259.80
515.64	264.48
515.81	250.44
515.99	311.29
516.16	315.97
516.33	299.59
516.51	255.12
516.68	191.92
516.85	252.78
517.03	262.14
517.20	245.76
517.37	212.99
517.54	212.99
517.72	215.33
517.89	243.42
518.06	182.56
518.24	344.06
518.41	271.50
518.58	180.22
518.75	236.39
518.93	248.10
519.10	285.55
519.27	278.52
519.45	229.37
519.62	252.78
519.79	248.10
519.96	276.18
520.14	285.55
520.31	128.73
520.48	287.89
520.65	259.80
520.83	276.18
521.00	224.69
521.17	332.36
521.34	273.84
521.52	330.02
521.69	287.89
521.86	220.01
522.03	236.39
522.20	255.12
522.38	259.80
522.55	224.69
522.72	250.44
522.89	308.95
523.07	311.29
523.24	227.03
523.41	231.71
523.58	163.84
523.75	257.46
523.92	191.92
524.10	259.80
524.27	283.20
524.44	334.70
524.61	259.80
524.78	287.89
524.96	250.44
525.13	243.42
525.30	257.46
525.47	283.20
525.64	243.42
525.81	341.72
525.98	292.57
526.16	292.57
526.33	255.12
526.50	175.54
526.67	222.35
526.84	229.37
527.01	191.92
527.18	287.89
527.36	301.93
527.53	269.16
527.70	241.08
527.87	271.50
528.04	297.25
528.21	264.48
528.38	297.25
528.55	304.27
528.72	292.57
528.89	285.55
529.07	262.14
529.24	236.39
529.41	294.91
529.58	351.08
529.75	259.80
529.92	287.89
530.09	238.73
530.26	252.78
530.43	266.82
530.60	325.33
530.77	252.78
530.94	322.99
531.11	306.61
531.28	241.08
531.46	292.57
531.63	273.84
531.80	257.46
531.97	273.84
532.14	358.10
532.31	243.42
532.48	245.76
532.65	234.05
532.82	259.80
532.99	259.80
533.16	292.57
533.33	271.50
533.50	297.25
533.67	280.86
533.84	318.31
534.01	257.46
534.18	170.86
534.35	276.18
534.52	301.93
534.69	351.08
534.86	259.80
535.03	264.48
535.20	180.22
535.37	271.50
535.54	227.03
535.71	191.92
535.88	278.52
536.05	290.23
536.22	344.06
536.38	269.16
536.55	325.33
536.72	379.17
536.89	234.05
537.06	266.82
537.23	348.74
537.40	372.15
537.57	285.55
537.74	315.97
537.91	287.89
538.08	269.16
538.25	351.08
538.42	252.78
538.59	271.50
538.75	236.39
538.92	292.57
539.09	271.50
539.26	428.32
539.43	341.72
539.60	388.53
539.77	407.25
539.94	355.76
540.11	376.83
540.28	400.23
540.44	353.42
540.61	348.74
540.78	299.59
540.95	306.61
541.12	449.38
541.29	425.98
541.46	507.90
541.62	461.09
541.79	458.74
541.96	486.83
542.13	491.51
542.30	404.91
542.47	386.19
542.63	447.04
542.80	470.45
542.97	379.17
543.14	372.15
543.31	447.04
543.48	444.70
543.64	402.57
543.81	407.25
543.98	477.47
544.15	447.04
544.32	430.66
544.48	428.32
544.65	374.49
544.82	458.74
544.99	477.47
545.16	416.62
545.32	435.34
545.49	610.88
545.66	812.17
545.83	748.97
546.00	622.58
546.16	528.96
546.33	449.38
546.50	435.34
546.67	505.56
546.83	320.65
547.00	395.55
547.17	360.44
547.34	304.27
547.50	353.42
547.67	402.57
547.84	360.44
548.00	308.95
548.17	313.63
548.34	395.55
548.51	430.66
548.67	278.52
548.84	266.82
549.01	330.02
549.18	390.87
549.34	358.10
549.51	337.04
549.68	217.67
549.84	344.06
550.01	280.86
550.18	348.74
550.34	327.68
550.51	215.33
550.68	299.59
550.84	201.29
551.01	252.78
551.18	283.20
551.34	299.59
551.51	330.02
551.68	245.76
551.84	318.31
552.01	332.36
552.18	285.55
552.34	257.46
552.51	269.16
552.68	287.89
552.84	269.16
553.01	337.04
553.18	283.20
553.34	203.63
553.51	250.44
553.67	266.82
553.84	358.10
554.01	341.72
554.17	229.37
554.34	304.27
554.51	243.42
554.67	337.04
554.84	257.46
555.00	358.10
555.17	215.33
555.33	283.20
555.50	231.71
555.67	262.14
555.83	262.14
556.00	248.10
556.16	402.57
556.33	262.14
556.50	198.95
556.66	280.86
556.83	301.93
556.99	311.29
557.16	304.27
557.32	311.29
557.49	294.91
557.65	271.50
557.82	273.84
557.98	400.23
558.15	278.52
558.32	229.37
558.48	250.44
558.65	269.16
558.81	257.46
558.98	243.42
559.14	224.69
559.31	248.10
559.47	334.70
559.64	198.95
559.80	313.63
559.97	234.05
560.13	262.14
560.30	299.59
560.46	243.42
560.63	297.25
560.79	184.90
560.96	212.99
561.12	259.80
561.29	308.95
561.45	262.14
561.61	304.27
561.78	306.61
561.94	283.20
562.11	297.25
562.27	229.37
562.44	311.29
562.60	290.23
562.77	259.80
562.93	238.73
563.10	290.23
563.26	297.25
563.42	266.82
563.59	276.18
563.75	203.63
563.92	290.23
564.08	294.91
564.24	292.57
564.41	227.03
564.57	278.52
564.74	212.99
564.90	222.35
565.07	301.93
565.23	285.55
565.39	276.18
565.56	201.29
565.72	236.39
565.88	243.42
566.05	177.88
566.21	201.29
566.38	276.18
566.54	273.84
566.70	250.44
566.87	241.08
567.03	250.44
567.19	212.99
567.36	262.14
567.52	262.14
567.68	294.91
567.85	173.20
568.01	208.31
568.17	210.65
568.34	161.50
568.50	311.29
568.66	168.52
568.83	337.04
568.99	243.42
569.15	250.44
569.32	290.23
569.48	252.78
569.64	180.22
569.81	264.48
569.97	210.65
570.13	278.52
570.30	231.71
570.46	184.90
570.62	236.39
570.78	215.33
570.95	292.57
571.11	283.20
571.27	231.71
571.43	269.16
571.60	234.05
571.76	168.52
571.92	201.29
572.09	215.33
572.25	241.08
572.41	306.61
572.57	257.46
572.74	255.12
572.90	266.82
573.06	278.52
573.22	236.39
573.38	205.97
573.55	266.82
573.71	318.31
573.87	245.76
574.03	215.33
574.20	269.16
574.36	255.12
574.52	229.37
574.68	271.50
574.84	138.09
575.01	250.44
575.17	212.99
575.33	285.55
575.49	262.14
575.65	280.86
575.82	294.91
575.98	248.10
576.14	306.61
576.30	264.48
576.46	313.63
576.62	280.86
576.79	308.95
576.95	313.63
577.11	285.55
577.27	212.99
577.43	271.50
577.59	388.53
577.75	276.18
577.92	236.39
578.08	255.12
578.24	276.18
578.40	315.97
578.56	292.57
578.72	383.85
578.88	334.70
579.04	301.93
579.21	262.14
579.37	294.91
579.53	266.82
579.69	301.93
579.85	297.25
580.01	280.86
580.17	208.31
580.33	294.91
580.49	320.65
580.65	245.76
580.82	210.65
580.98	208.31
581.14	227.03
581.30	278.52
581.46	285.55
581.62	257.46
581.78	283.20
581.94	276.18
582.10	276.18
582.26	236.39
582.42	231.71
582.58	285.55
582.74	290.23
582.90	287.89
583.06	285.55
583.22	175.54
583.38	362.78
583.54	276.18
583.70	327.68
583.86	304.27
584.02	292.57
584.18	362.78
584.34	257.46
584.50	365.12
584.66	781.74
584.82	1659.44
584.98	2195.42
585.14	2092.44
585.30	1357.51
585.46	1034.52
585.62	674.07
585.78	489.17
585.94	332.36
586.10	327.68
586.26	259.80
586.42	351.08
586.58	320.65
586.74	334.70
586.90	327.68
587.06	351.08
587.22	278.52
587.38	313.63
587.54	285.55
587.70	376.83
587.86	339.38
588.02	278.52
588.18	425.98
588.34	297.25
588.49	301.93
588.65	250.44
588.81	266.82
588.97	287.89
589.13	210.65
589.29	208.31
589.45	311.29
589.61	269.16
589.77	353.42
589.93	229.37
590.08	191.92
590.24	236.39
590.40	210.65
590.56	285.55
590.72	252.78
590.88	290.23
591.04	264.48
591.20	231.71
591.35	290.23
591.51	257.46
591.67	203.63
591.83	297.25
591.99	306.61
592.15	297.25
592.31	306.61
592.46	238.73
592.62	224.69
592.78	315.97
592.94	252.78
593.10	332.36
593.26	278.52
593.41	241.08
593.57	271.50
593.73	255.12
593.89	383.85
594.05	411.93
594.20	493.85
594.36	519.60
594.52	425.98
594.68	416.62
594.84	262.14
594.99	322.99
595.15	365.12
595.31	266.82
595.47	212.99
595.62	248.10
595.78	255.12
595.94	243.42
596.10	245.76
596.25	315.97
596.41	304.27
596.57	236.39
596.73	173.20
596.88	337.04
597.04	320.65
597.20	250.44
597.36	358.10
597.51	250.44
597.67	222.35
597.83	280.86
597.99	273.84
598.14	208.31
598.30	285.55
598.46	264.48
598.61	344.06
598.77	248.10
598.93	313.63
599.09	264.48
599.24	271.50
599.40	294.91
599.56	215.33
599.71	271.50
599.87	294.91
600.03	259.80
600.18	252.78
600.34	208.31
600.50	287.89
600.65	259.80
600.81	276.18
600.97	182.56
601.12	189.58
601.28	311.29
601.44	266.82
601.59	210.65
601.75	273.84
601.91	285.55
602.06	255.12
602.22	362.78
602.37	224.69
602.53	285.55
602.69	332.36
602.84	339.38
603.00	322.99
603.16	313.63
603.31	222.35
603.47	259.80
603.62	273.84
603.78	278.52
603.94	203.63
604.09	191.92
604.25	215.33
604.40	234.05
604.56	220.01
604.71	224.69
604.87	217.67
605.03	227.03
605.18	243.42
605.34	290.23
605.49	229.37
605.65	243.42
605.80	182.56
605.96	259.80
606.12	208.31
606.27	294.91
606.43	238.73
606.58	334.70
606.74	257.46
606.89	243.42
607.05	397.89
607.20	517.26
607.36	393.21
607.51	365.12
607.67	334.70
607.82	325.33
607.98	283.20
608.13	322.99
608.29	294.91
608.44	313.63
608.60	304.27
608.75	337.04
608.91	287.89
609.06	437.68
609.22	531.30
609.37	709.18
609.53	669.39
609.68	526.62
609.84	447.04
609.99	425.98
610.15	496.19
610.30	510.24
610.46	477.47
610.61	582.79
610.76	685.78
610.92	716.20
