SpectraSuite Data File
++++++++++++++++++++++++++++++++++++
Date: Fri Oct 04 12:13:45 GMT-05:00 2013
User: price-jones
Dark Spectrum Present: No
Reference Spectrum Present: No
Number of Sampled Component Spectra: 1
Spectrometers: USB2+H05261
Integration Time (usec): 10000 (USB2+H05261)
Spectra Averaged: 1 (USB2+H05261)
Boxcar Smoothing: 0 (USB2+H05261)
Correct for Electrical Dark: No (USB2+H05261)
Strobe/Lamp Enabled: No (USB2+H05261)
Correct for Detector Non-linearity: No (USB2+H05261)
Correct for Stray Light: No (USB2+H05261)
Number of Pixels in Processed Spectrum: 2048
>>>>>Begin Processed Spectral Data<<<<<
365.73	0.00
365.92	0.00
366.12	0.00
366.32	0.00
366.52	0.00
366.72	0.00
366.91	0.00
367.11	0.00
367.31	0.00
367.51	0.00
367.70	0.00
367.90	0.00
368.10	0.00
368.30	0.00
368.49	0.00
368.69	0.00
368.89	0.00
369.09	0.00
369.28	0.00
369.48	0.00
369.68	0.00
369.87	0.00
370.07	0.00
370.27	0.00
370.47	0.00
370.66	0.00
370.86	0.00
371.06	0.00
371.25	0.00
371.45	0.00
371.65	16.38
371.84	32.77
372.04	0.00
372.24	11.70
372.44	74.90
372.63	0.00
372.83	65.54
373.03	0.00
373.22	9.36
373.42	49.15
373.62	95.96
373.81	105.32
374.01	23.41
374.21	0.00
374.40	56.17
374.60	60.85
374.79	32.77
374.99	42.13
375.19	63.19
375.38	84.26
375.58	63.19
375.78	95.96
375.97	46.81
376.17	170.86
376.37	110.01
376.56	67.88
376.76	14.04
376.95	77.24
377.15	105.32
377.35	102.98
377.54	2.34
377.74	100.64
377.93	16.38
378.13	23.41
378.33	70.22
378.52	35.11
378.72	88.94
378.91	95.96
379.11	37.45
379.31	23.41
379.50	91.28
379.70	37.45
379.89	53.83
380.09	28.09
380.28	65.54
380.48	56.17
380.68	84.26
380.87	81.92
381.07	42.13
381.26	72.56
381.46	142.77
381.65	2.34
381.85	74.90
382.04	2.34
382.24	0.00
382.43	42.13
382.63	0.00
382.83	0.00
383.02	18.72
383.22	39.79
383.41	39.79
383.61	18.72
383.80	114.69
384.00	18.72
384.19	60.85
384.39	28.09
384.58	79.58
384.78	119.37
384.97	14.04
385.17	58.51
385.36	16.38
385.56	79.58
385.75	44.47
385.95	0.00
386.14	81.92
386.34	35.11
386.53	0.00
386.72	25.75
386.92	72.56
387.11	0.00
387.31	86.60
387.50	105.32
387.70	107.66
387.89	128.73
388.09	79.58
388.28	56.17
388.48	0.00
388.67	86.60
388.86	53.83
389.06	102.98
389.25	77.24
389.45	25.75
389.64	79.58
389.84	105.32
390.03	25.75
390.22	91.28
390.42	60.85
390.61	51.49
390.81	91.28
391.00	93.62
391.19	67.88
391.39	88.94
391.58	7.02
391.78	39.79
391.97	70.22
392.16	25.75
392.36	42.13
392.55	37.45
392.75	30.43
392.94	4.68
393.13	0.00
393.33	119.37
393.52	70.22
393.71	84.26
393.91	117.03
394.10	44.47
394.29	74.90
394.49	86.60
394.68	98.30
394.88	39.79
395.07	11.70
395.26	28.09
395.46	53.83
395.65	100.64
395.84	51.49
396.04	32.77
396.23	65.54
396.42	9.36
396.62	60.85
396.81	30.43
397.00	37.45
397.19	63.19
397.39	98.30
397.58	133.41
397.77	110.01
397.97	91.28
398.16	93.62
398.35	91.28
398.55	49.15
398.74	77.24
398.93	105.32
399.12	91.28
399.32	180.22
399.51	79.58
399.70	159.16
399.90	133.41
400.09	131.07
400.28	117.03
400.47	145.11
400.67	112.35
400.86	100.64
401.05	105.32
401.24	28.09
401.44	58.51
401.63	63.19
401.82	70.22
402.01	91.28
402.21	168.52
402.40	124.05
402.59	93.62
402.78	91.28
402.97	142.77
403.17	117.03
403.36	37.45
403.55	142.77
403.74	187.24
403.93	93.62
404.13	126.39
404.32	147.45
404.51	0.00
404.70	46.81
404.89	74.90
405.09	112.35
405.28	114.69
405.47	93.62
405.66	70.22
405.85	177.88
406.05	135.75
406.24	65.54
406.43	128.73
406.62	121.71
406.81	154.48
407.00	105.32
407.20	70.22
407.39	93.62
407.58	126.39
407.77	126.39
407.96	100.64
408.15	74.90
408.34	72.56
408.54	147.45
408.73	95.96
408.92	126.39
409.11	56.17
409.30	114.69
409.49	110.01
409.68	35.11
409.87	72.56
410.07	86.60
410.26	159.16
410.45	119.37
410.64	84.26
410.83	110.01
411.02	131.07
411.21	93.62
411.40	210.65
411.59	147.45
411.78	147.45
411.98	86.60
412.17	177.88
412.36	138.09
412.55	121.71
412.74	117.03
412.93	112.35
413.12	110.01
413.31	177.88
413.50	128.73
413.69	156.82
413.88	67.88
414.07	110.01
414.26	152.13
414.45	231.71
414.64	112.35
414.83	180.22
415.02	154.48
415.22	205.97
415.41	163.84
415.60	119.37
415.79	131.07
415.98	159.16
416.17	65.54
416.36	119.37
416.55	133.41
416.74	126.39
416.93	126.39
417.12	145.11
417.31	147.45
417.50	119.37
417.69	147.45
417.88	81.92
418.07	170.86
418.26	124.05
418.45	154.48
418.64	149.79
418.83	84.26
419.02	177.88
419.21	149.79
419.39	126.39
419.58	98.30
419.77	175.54
419.96	135.75
420.15	189.58
420.34	156.82
420.53	154.48
420.72	189.58
420.91	133.41
421.10	86.60
421.29	161.50
421.48	121.71
421.67	128.73
421.86	124.05
422.05	220.01
422.24	44.47
422.43	77.24
422.61	121.71
422.80	102.98
422.99	161.50
423.18	126.39
423.37	53.83
423.56	154.48
423.75	154.48
423.94	131.07
424.13	105.32
424.32	131.07
424.50	112.35
424.69	152.13
424.88	126.39
425.07	124.05
425.26	159.16
425.45	135.75
425.64	208.31
425.83	124.05
426.01	184.90
426.20	168.52
426.39	173.20
426.58	114.69
426.77	107.66
426.96	102.98
427.15	112.35
427.33	145.11
427.52	135.75
427.71	180.22
427.90	189.58
428.09	86.60
428.28	112.35
428.46	163.84
428.65	149.79
428.84	124.05
429.03	173.20
429.22	81.92
429.40	107.66
429.59	95.96
429.78	168.52
429.97	145.11
430.16	170.86
430.34	95.96
430.53	63.19
430.72	121.71
430.91	114.69
431.10	65.54
431.28	140.43
431.47	145.11
431.66	180.22
431.85	124.05
432.03	184.90
432.22	168.52
432.41	126.39
432.60	184.90
432.79	95.96
432.97	119.37
433.16	152.13
433.35	128.73
433.54	159.16
433.72	140.43
433.91	142.77
434.10	72.56
434.28	114.69
434.47	105.32
434.66	187.24
434.85	187.24
435.03	177.88
435.22	91.28
435.41	149.79
435.59	229.37
435.78	152.13
435.97	182.56
436.16	142.77
436.34	138.09
436.53	140.43
436.72	236.39
436.90	177.88
437.09	189.58
437.28	250.44
437.46	187.24
437.65	149.79
437.84	180.22
438.02	121.71
438.21	98.30
438.40	175.54
438.58	74.90
438.77	159.16
438.96	154.48
439.14	149.79
439.33	166.18
439.52	156.82
439.70	198.95
439.89	145.11
440.08	196.60
440.26	140.43
440.45	229.37
440.63	135.75
440.82	248.10
441.01	112.35
441.19	177.88
441.38	215.33
441.57	243.42
441.75	173.20
441.94	163.84
442.12	220.01
442.31	177.88
442.50	168.52
442.68	145.11
442.87	170.86
443.05	196.60
443.24	189.58
443.43	224.69
443.61	215.33
443.80	147.45
443.98	238.73
444.17	252.78
444.35	126.39
444.54	170.86
444.73	142.77
444.91	140.43
445.10	208.31
445.28	184.90
445.47	210.65
445.65	102.98
445.84	273.84
446.02	152.13
446.21	250.44
446.39	234.05
446.58	236.39
446.77	203.63
446.95	191.92
447.14	212.99
447.32	166.18
447.51	189.58
447.69	205.97
447.88	166.18
448.06	210.65
448.25	152.13
448.43	203.63
448.62	163.84
448.80	166.18
448.99	198.95
449.17	241.08
449.36	180.22
449.54	212.99
449.73	210.65
449.91	180.22
450.10	159.16
450.28	262.14
450.46	131.07
450.65	227.03
450.83	147.45
451.02	152.13
451.20	131.07
451.39	173.20
451.57	110.01
451.76	138.09
451.94	156.82
452.13	203.63
452.31	175.54
452.49	187.24
452.68	203.63
452.86	154.48
453.05	173.20
453.23	194.26
453.42	168.52
453.60	177.88
453.78	149.79
453.97	203.63
454.15	168.52
454.34	205.97
454.52	248.10
454.70	168.52
454.89	175.54
455.07	166.18
455.26	131.07
455.44	203.63
455.62	203.63
455.81	245.76
455.99	210.65
456.17	201.29
456.36	257.46
456.54	217.67
456.73	154.48
456.91	203.63
457.09	187.24
457.28	203.63
457.46	173.20
457.64	198.95
457.83	243.42
458.01	227.03
458.19	177.88
458.38	173.20
458.56	175.54
458.74	241.08
458.93	208.31
459.11	220.01
459.29	245.76
459.48	168.52
459.66	187.24
459.84	140.43
460.03	194.26
460.21	107.66
460.39	255.12
460.57	208.31
460.76	194.26
460.94	198.95
461.12	175.54
461.31	238.73
461.49	294.91
461.67	259.80
461.85	131.07
462.04	257.46
462.22	280.86
462.40	147.45
462.59	159.16
462.77	198.95
462.95	187.24
463.13	217.67
463.32	203.63
463.50	194.26
463.68	168.52
463.86	194.26
464.05	205.97
464.23	248.10
464.41	177.88
464.59	142.77
464.78	194.26
464.96	131.07
465.14	159.16
465.32	205.97
465.50	250.44
465.69	278.52
465.87	168.52
466.05	234.05
466.23	184.90
466.41	222.35
466.60	189.58
466.78	189.58
466.96	196.60
467.14	147.45
467.32	248.10
467.51	224.69
467.69	126.39
467.87	271.50
468.05	189.58
468.23	236.39
468.41	173.20
468.60	250.44
468.78	257.46
468.96	194.26
469.14	189.58
469.32	222.35
469.50	252.78
469.69	189.58
469.87	182.56
470.05	182.56
470.23	259.80
470.41	215.33
470.59	182.56
470.77	201.29
470.95	156.82
471.14	208.31
471.32	189.58
471.50	257.46
471.68	205.97
471.86	224.69
472.04	191.92
472.22	210.65
472.40	138.09
472.58	194.26
472.77	248.10
472.95	222.35
473.13	201.29
473.31	168.52
473.49	191.92
473.67	182.56
473.85	257.46
474.03	180.22
474.21	220.01
474.39	220.01
474.57	278.52
474.75	278.52
474.93	224.69
475.12	227.03
475.30	154.48
475.48	208.31
475.66	189.58
475.84	184.90
476.02	168.52
476.20	205.97
476.38	278.52
476.56	308.95
476.74	215.33
476.92	257.46
477.10	227.03
477.28	276.18
477.46	283.20
477.64	236.39
477.82	135.75
478.00	236.39
478.18	224.69
478.36	276.18
478.54	322.99
478.72	175.54
478.90	241.08
479.08	273.84
479.26	196.60
479.44	224.69
479.62	236.39
479.80	203.63
479.98	208.31
480.16	315.97
480.34	224.69
480.52	238.73
480.70	210.65
480.88	280.86
481.06	299.59
481.24	217.67
481.41	301.93
481.59	273.84
481.77	264.48
481.95	243.42
482.13	222.35
482.31	266.82
482.49	220.01
482.67	201.29
482.85	227.03
483.03	304.27
483.21	334.70
483.39	224.69
483.57	283.20
483.74	248.10
483.92	269.16
484.10	264.48
484.28	224.69
484.46	346.40
484.64	259.80
484.82	271.50
485.00	325.33
485.18	330.02
485.35	292.57
485.53	257.46
485.71	203.63
485.89	224.69
486.07	266.82
486.25	217.67
486.43	278.52
486.61	273.84
486.78	245.76
486.96	175.54
487.14	292.57
487.32	372.15
487.50	266.82
487.68	280.86
487.85	320.65
488.03	252.78
488.21	337.04
488.39	304.27
488.57	297.25
488.75	292.57
488.92	276.18
489.10	306.61
489.28	301.93
489.46	273.84
489.64	245.76
489.81	304.27
489.99	348.74
490.17	332.36
490.35	322.99
490.53	334.70
490.70	290.23
490.88	355.76
491.06	285.55
491.24	283.20
491.41	332.36
491.59	205.97
491.77	255.12
491.95	322.99
492.13	315.97
492.30	369.80
492.48	344.06
492.66	355.76
492.84	325.33
493.01	327.68
493.19	292.57
493.37	388.53
493.54	266.82
493.72	360.44
493.90	238.73
494.08	285.55
494.25	337.04
494.43	407.25
494.61	376.83
494.79	388.53
494.96	374.49
495.14	320.65
495.32	327.68
495.49	379.17
495.67	358.10
495.85	332.36
496.02	372.15
496.20	346.40
496.38	304.27
496.55	379.17
496.73	351.08
496.91	297.25
497.09	437.68
497.26	404.91
497.44	301.93
497.62	407.25
497.79	325.33
497.97	355.76
498.14	344.06
498.32	337.04
498.50	306.61
498.67	404.91
498.85	475.13
499.03	269.16
499.20	360.44
499.38	365.12
499.56	304.27
499.73	346.40
499.91	337.04
500.08	325.33
500.26	372.15
500.44	318.31
500.61	353.42
500.79	337.04
500.97	390.87
501.14	341.72
501.32	369.80
501.49	407.25
501.67	332.36
501.84	390.87
502.02	376.83
502.20	365.12
502.37	365.12
502.55	381.51
502.72	400.23
502.90	397.89
503.07	381.51
503.25	241.08
503.43	325.33
503.60	388.53
503.78	227.03
503.95	334.70
504.13	318.31
504.30	346.40
504.48	332.36
504.65	390.87
504.83	353.42
505.01	287.89
505.18	454.06
505.36	379.17
505.53	346.40
505.71	332.36
505.88	346.40
506.06	404.91
506.23	435.34
506.41	386.19
506.58	358.10
506.76	278.52
506.93	301.93
507.11	315.97
507.28	311.29
507.46	393.21
507.63	327.68
507.81	330.02
507.98	365.12
508.16	325.33
508.33	433.00
508.50	285.55
508.68	292.57
508.85	367.46
509.03	376.83
509.20	456.40
509.38	386.19
509.55	376.83
509.73	383.85
509.90	416.62
510.08	292.57
510.25	353.42
510.42	299.59
510.60	360.44
510.77	348.74
510.95	369.80
511.12	386.19
511.30	433.00
511.47	404.91
511.64	383.85
511.82	400.23
511.99	341.72
512.17	322.99
512.34	355.76
512.51	320.65
512.69	313.63
512.86	379.17
513.04	372.15
513.21	400.23
513.38	358.10
513.56	341.72
513.73	400.23
513.90	360.44
514.08	360.44
514.25	346.40
514.43	383.85
514.60	472.79
514.77	404.91
514.95	444.70
515.12	430.66
515.29	423.64
515.47	425.98
515.64	341.72
515.81	262.14
515.99	301.93
516.16	409.59
516.33	404.91
516.51	294.91
516.68	285.55
516.85	379.17
517.03	304.27
517.20	332.36
517.37	365.12
517.54	351.08
517.72	409.59
517.89	362.78
518.06	297.25
518.24	313.63
518.41	292.57
518.58	355.76
518.75	409.59
518.93	334.70
519.10	327.68
519.27	372.15
519.45	374.49
519.62	362.78
519.79	355.76
519.96	388.53
520.14	325.33
520.31	383.85
520.48	379.17
520.65	315.97
520.83	435.34
521.00	461.09
521.17	351.08
521.34	355.76
521.52	397.89
521.69	337.04
521.86	402.57
522.03	386.19
522.20	374.49
522.38	386.19
522.55	353.42
522.72	346.40
522.89	402.57
523.07	393.21
523.24	397.89
523.41	414.27
523.58	416.62
523.75	339.38
523.92	390.87
524.10	383.85
524.27	421.30
524.44	341.72
524.61	376.83
524.78	337.04
524.96	381.51
525.13	337.04
525.30	386.19
525.47	315.97
525.64	325.33
525.81	365.12
525.98	395.55
526.16	372.15
526.33	393.21
526.50	283.20
526.67	306.61
526.84	306.61
527.01	360.44
527.18	411.93
527.36	360.44
527.53	414.27
527.70	337.04
527.87	334.70
528.04	404.91
528.21	322.99
528.38	409.59
528.55	407.25
528.72	451.72
528.89	393.21
529.07	395.55
529.24	379.17
529.41	374.49
529.58	372.15
529.75	402.57
529.92	381.51
530.09	369.80
530.26	507.90
530.43	442.36
530.60	440.02
530.77	507.90
530.94	416.62
531.11	395.55
531.28	430.66
531.46	404.91
531.63	372.15
531.80	421.30
531.97	346.40
532.14	393.21
532.31	407.25
532.48	346.40
532.65	348.74
532.82	283.20
532.99	393.21
533.16	379.17
533.33	383.85
533.50	411.93
533.67	397.89
533.84	433.00
534.01	444.70
534.18	416.62
534.35	416.62
534.52	351.08
534.69	411.93
534.86	386.19
535.03	372.15
535.20	353.42
535.37	423.64
535.54	372.15
535.71	418.96
535.88	475.13
536.05	334.70
536.22	395.55
536.38	423.64
536.55	402.57
536.72	351.08
536.89	348.74
537.06	393.21
537.23	411.93
537.40	383.85
537.57	346.40
537.74	397.89
537.91	402.57
538.08	367.46
538.25	430.66
538.42	358.10
538.59	334.70
538.75	360.44
538.92	395.55
539.09	315.97
539.26	355.76
539.43	374.49
539.60	341.72
539.77	348.74
539.94	414.27
540.11	351.08
540.28	386.19
540.44	369.80
540.61	388.53
540.78	334.70
540.95	376.83
541.12	397.89
541.29	428.32
541.46	327.68
541.62	358.10
541.79	468.11
541.96	381.51
542.13	393.21
542.30	341.72
542.47	395.55
542.63	402.57
542.80	395.55
542.97	355.76
543.14	355.76
543.31	341.72
543.48	315.97
543.64	372.15
543.81	330.02
543.98	367.46
544.15	390.87
544.32	330.02
544.48	393.21
544.65	334.70
544.82	362.78
544.99	372.15
545.16	374.49
545.32	449.38
545.49	325.33
545.66	400.23
545.83	386.19
546.00	362.78
546.16	327.68
546.33	332.36
546.50	395.55
546.67	355.76
546.83	372.15
547.00	365.12
547.17	365.12
547.34	411.93
547.50	428.32
547.67	390.87
547.84	369.80
548.00	367.46
548.17	393.21
548.34	325.33
548.51	330.02
548.67	362.78
548.84	327.68
549.01	341.72
549.18	393.21
549.34	322.99
549.51	409.59
549.68	332.36
549.84	351.08
550.01	388.53
550.18	425.98
550.34	411.93
550.51	351.08
550.68	334.70
550.84	367.46
551.01	414.27
551.18	339.38
551.34	400.23
551.51	369.80
551.68	407.25
551.84	341.72
552.01	337.04
552.18	360.44
552.34	290.23
552.51	337.04
552.68	297.25
552.84	339.38
553.01	390.87
553.18	372.15
553.34	407.25
553.51	400.23
553.67	402.57
553.84	360.44
554.01	339.38
554.17	376.83
554.34	367.46
554.51	425.98
554.67	379.17
554.84	400.23
555.00	341.72
555.17	400.23
555.33	341.72
555.50	320.65
555.67	416.62
555.83	348.74
556.00	353.42
556.16	393.21
556.33	346.40
556.50	304.27
556.66	301.93
556.83	355.76
556.99	327.68
557.16	381.51
557.32	423.64
557.49	360.44
557.65	425.98
557.82	332.36
557.98	320.65
558.15	332.36
558.32	353.42
558.48	332.36
558.65	332.36
558.81	320.65
558.98	315.97
559.14	327.68
559.31	257.46
559.47	362.78
559.64	313.63
559.80	257.46
559.97	397.89
560.13	351.08
560.30	334.70
560.46	376.83
560.63	337.04
560.79	383.85
560.96	304.27
561.12	369.80
561.29	266.82
561.45	337.04
561.61	353.42
561.78	341.72
561.94	346.40
562.11	315.97
562.27	311.29
562.44	297.25
562.60	339.38
562.77	297.25
562.93	327.68
563.10	308.95
563.26	337.04
563.42	369.80
563.59	376.83
563.75	376.83
563.92	388.53
564.08	337.04
564.24	355.76
564.41	386.19
564.57	353.42
564.74	348.74
564.90	423.64
565.07	301.93
565.23	283.20
565.39	330.02
565.56	351.08
565.72	348.74
565.88	320.65
566.05	297.25
566.21	341.72
566.38	313.63
566.54	332.36
566.70	374.49
566.87	339.38
567.03	332.36
567.19	341.72
567.36	325.33
567.52	308.95
567.68	276.18
567.85	264.48
568.01	269.16
568.17	355.76
568.34	348.74
568.50	346.40
568.66	320.65
568.83	299.59
568.99	344.06
569.15	351.08
569.32	285.55
569.48	330.02
569.64	301.93
569.81	327.68
569.97	332.36
570.13	325.33
570.30	287.89
570.46	262.14
570.62	437.68
570.78	203.63
570.95	294.91
571.11	365.12
571.27	330.02
571.43	271.50
571.60	304.27
571.76	337.04
571.92	332.36
572.09	440.02
572.25	294.91
572.41	360.44
572.57	386.19
572.74	311.29
572.90	341.72
573.06	337.04
573.22	358.10
573.38	351.08
573.55	292.57
573.71	337.04
573.87	257.46
574.03	311.29
574.20	327.68
574.36	337.04
574.52	369.80
574.68	248.10
574.84	327.68
575.01	266.82
575.17	259.80
575.33	304.27
575.49	325.33
575.65	353.42
575.82	355.76
575.98	308.95
576.14	330.02
576.30	269.16
576.46	301.93
576.62	304.27
576.79	369.80
576.95	308.95
577.11	360.44
577.27	348.74
577.43	294.91
577.59	257.46
577.75	259.80
577.92	266.82
578.08	304.27
578.24	318.31
578.40	407.25
578.56	322.99
578.72	327.68
578.88	304.27
579.04	320.65
579.21	294.91
579.37	290.23
579.53	259.80
579.69	299.59
579.85	318.31
580.01	346.40
580.17	238.73
580.33	266.82
580.49	327.68
580.65	313.63
580.82	344.06
580.98	346.40
581.14	341.72
581.30	224.69
581.46	379.17
581.62	374.49
581.78	330.02
581.94	313.63
582.10	252.78
582.26	332.36
582.42	407.25
582.58	372.15
582.74	313.63
582.90	294.91
583.06	299.59
583.22	315.97
583.38	203.63
583.54	353.42
583.70	386.19
583.86	308.95
584.02	306.61
584.18	330.02
584.34	292.57
584.50	315.97
584.66	362.78
584.82	215.33
584.98	273.84
585.14	259.80
585.30	271.50
585.46	320.65
585.62	266.82
585.78	299.59
585.94	283.20
586.10	325.33
586.26	252.78
586.42	255.12
586.58	266.82
586.74	351.08
586.90	243.42
587.06	348.74
587.22	243.42
587.38	255.12
587.54	292.57
587.70	334.70
587.86	304.27
588.02	341.72
588.18	208.31
588.34	318.31
588.49	264.48
588.65	259.80
588.81	273.84
588.97	255.12
589.13	308.95
589.29	208.31
589.45	255.12
589.61	236.39
589.77	245.76
589.93	280.86
590.08	243.42
590.24	222.35
590.40	212.99
590.56	187.24
590.72	292.57
590.88	271.50
591.04	229.37
591.20	245.76
591.35	292.57
591.51	252.78
591.67	222.35
591.83	278.52
591.99	198.95
592.15	205.97
592.31	311.29
592.46	198.95
592.62	287.89
592.78	280.86
592.94	262.14
593.10	229.37
593.26	315.97
593.41	341.72
593.57	250.44
593.73	304.27
593.89	257.46
594.05	217.67
594.20	159.16
594.36	245.76
594.52	224.69
594.68	262.14
594.84	262.14
594.99	297.25
595.15	201.29
595.31	325.33
595.47	259.80
595.62	292.57
595.78	311.29
595.94	269.16
596.10	266.82
596.25	257.46
596.41	325.33
596.57	271.50
596.73	353.42
596.88	222.35
597.04	313.63
597.20	278.52
597.36	271.50
597.51	257.46
597.67	285.55
597.83	334.70
597.99	294.91
598.14	250.44
598.30	264.48
598.46	245.76
598.61	294.91
598.77	269.16
598.93	189.58
599.09	234.05
599.24	245.76
599.40	234.05
599.56	262.14
599.71	348.74
599.87	327.68
600.03	334.70
600.18	273.84
600.34	217.67
600.50	212.99
600.65	313.63
600.81	283.20
600.97	266.82
601.12	252.78
601.28	292.57
601.44	266.82
601.59	229.37
601.75	227.03
601.91	292.57
602.06	264.48
602.22	224.69
602.37	287.89
602.53	306.61
602.69	292.57
602.84	285.55
603.00	203.63
603.16	271.50
603.31	283.20
603.47	287.89
603.62	191.92
603.78	271.50
603.94	292.57
604.09	283.20
604.25	318.31
604.40	255.12
604.56	264.48
604.71	252.78
604.87	266.82
605.03	344.06
605.18	266.82
605.34	262.14
605.49	287.89
605.65	313.63
605.80	346.40
605.96	285.55
606.12	262.14
606.27	290.23
606.43	248.10
606.58	198.95
606.74	318.31
606.89	227.03
607.05	299.59
607.20	266.82
607.36	224.69
607.51	234.05
607.67	304.27
607.82	238.73
607.98	212.99
608.13	203.63
608.29	280.86
608.44	203.63
608.60	208.31
608.75	194.26
608.91	290.23
609.06	262.14
609.22	273.84
609.37	236.39
609.53	191.92
609.68	297.25
609.84	231.71
609.99	287.89
610.15	290.23
610.30	255.12
610.46	266.82
610.61	234.05
610.76	234.05
610.92	229.37
611.07	212.99
611.23	266.82
611.38	234.05
611.54	215.33
611.69	264.48
611.84	252.78
612.00	248.10
612.15	269.16
612.31	252.78
612.46	264.48
612.62	306.61
612.77	220.01
612.92	217.67
