SpectraSuite Data File
++++++++++++++++++++++++++++++++++++
Date: Fri Oct 04 11:33:58 GMT-05:00 2013
User: price-jones
Dark Spectrum Present: No
Reference Spectrum Present: No
Number of Sampled Component Spectra: 1
Spectrometers: USB2+H05261
Integration Time (usec): 100000 (USB2+H05261)
Spectra Averaged: 1 (USB2+H05261)
Boxcar Smoothing: 0 (USB2+H05261)
Correct for Electrical Dark: No (USB2+H05261)
Strobe/Lamp Enabled: No (USB2+H05261)
Correct for Detector Non-linearity: No (USB2+H05261)
Correct for Stray Light: No (USB2+H05261)
Number of Pixels in Processed Spectrum: 2048
>>>>>Begin Processed Spectral Data<<<<<
365.73	126.39
365.92	126.39
366.12	126.39
366.32	9.36
366.52	16.38
366.72	32.77
366.91	0.00
367.11	0.00
367.31	0.00
367.51	0.00
367.70	0.00
367.90	4.68
368.10	4.68
368.30	0.00
368.49	0.00
368.69	9.36
368.89	0.00
369.09	23.41
369.28	53.83
369.48	0.00
369.68	11.70
369.87	53.83
370.07	23.41
370.27	23.41
370.47	0.00
370.66	30.43
370.86	32.77
371.06	168.52
371.25	180.22
371.45	53.83
371.65	93.62
371.84	46.81
372.04	86.60
372.24	79.58
372.44	98.30
372.63	147.45
372.83	161.50
373.03	175.54
373.22	124.05
373.42	161.50
373.62	128.73
373.81	142.77
374.01	168.52
374.21	170.86
374.40	180.22
374.60	203.63
374.79	135.75
374.99	114.69
375.19	191.92
375.38	128.73
375.58	119.37
375.78	175.54
375.97	124.05
376.17	180.22
376.37	147.45
376.56	105.32
376.76	100.64
376.95	147.45
377.15	189.58
377.35	110.01
377.54	147.45
377.74	168.52
377.93	173.20
378.13	175.54
378.33	168.52
378.52	145.11
378.72	128.73
378.91	227.03
379.11	119.37
379.31	121.71
379.50	149.79
379.70	234.05
379.89	180.22
380.09	100.64
380.28	60.85
380.48	81.92
380.68	189.58
380.87	126.39
381.07	138.09
381.26	236.39
381.46	187.24
381.65	156.82
381.85	124.05
382.04	91.28
382.24	88.94
382.43	145.11
382.63	147.45
382.83	135.75
383.02	140.43
383.22	145.11
383.41	84.26
383.61	138.09
383.80	124.05
384.00	91.28
384.19	102.98
384.39	110.01
384.58	217.67
384.78	154.48
384.97	161.50
385.17	81.92
385.36	121.71
385.56	100.64
385.75	126.39
385.95	159.16
386.14	110.01
386.34	159.16
386.53	117.03
386.72	201.29
386.92	124.05
387.11	182.56
387.31	117.03
387.50	93.62
387.70	131.07
387.89	133.41
388.09	49.15
388.28	93.62
388.48	175.54
388.67	145.11
388.86	135.75
389.06	135.75
389.25	156.82
389.45	194.26
389.64	163.84
389.84	149.79
390.03	220.01
390.22	163.84
390.42	84.26
390.61	107.66
390.81	60.85
391.00	189.58
391.19	173.20
391.39	245.76
391.58	154.48
391.78	184.90
391.97	173.20
392.16	114.69
392.36	145.11
392.55	198.95
392.75	128.73
392.94	184.90
393.13	145.11
393.33	58.51
393.52	114.69
393.71	135.75
393.91	79.58
394.10	194.26
394.29	159.16
394.49	60.85
394.68	145.11
394.88	159.16
395.07	154.48
395.26	133.41
395.46	166.18
395.65	198.95
395.84	170.86
396.04	224.69
396.23	142.77
396.42	147.45
396.62	170.86
396.81	177.88
397.00	74.90
397.19	128.73
397.39	117.03
397.58	189.58
397.77	194.26
397.97	231.71
398.16	156.82
398.35	173.20
398.55	117.03
398.74	168.52
398.93	220.01
399.12	187.24
399.32	191.92
399.51	145.11
399.70	152.13
399.90	208.31
400.09	159.16
400.28	166.18
400.47	117.03
400.67	124.05
400.86	119.37
401.05	196.60
401.24	124.05
401.44	147.45
401.63	140.43
401.82	189.58
402.01	159.16
402.21	154.48
402.40	149.79
402.59	117.03
402.78	187.24
402.97	194.26
403.17	154.48
403.36	177.88
403.55	95.96
403.74	159.16
403.93	170.86
404.13	191.92
404.32	231.71
404.51	208.31
404.70	152.13
404.89	212.99
405.09	215.33
405.28	198.95
405.47	217.67
405.66	154.48
405.85	255.12
406.05	140.43
406.24	81.92
406.43	102.98
406.62	182.56
406.81	236.39
407.00	124.05
407.20	107.66
407.39	114.69
407.58	117.03
407.77	163.84
407.96	166.18
408.15	224.69
408.34	175.54
408.54	182.56
408.73	135.75
408.92	198.95
409.11	194.26
409.30	182.56
409.49	124.05
409.68	145.11
409.87	112.35
410.07	173.20
410.26	201.29
410.45	119.37
410.64	220.01
410.83	98.30
411.02	191.92
411.21	220.01
411.40	156.82
411.59	168.52
411.78	177.88
411.98	173.20
412.17	252.78
412.36	163.84
412.55	156.82
412.74	196.60
412.93	194.26
413.12	161.50
413.31	212.99
413.50	203.63
413.69	145.11
413.88	131.07
414.07	112.35
414.26	119.37
414.45	142.77
414.64	145.11
414.83	170.86
415.02	173.20
415.22	170.86
415.41	170.86
415.60	152.13
415.79	245.76
415.98	138.09
416.17	105.32
416.36	184.90
416.55	93.62
416.74	189.58
416.93	142.77
417.12	117.03
417.31	208.31
417.50	138.09
417.69	231.71
417.88	191.92
418.07	112.35
418.26	220.01
418.45	231.71
418.64	245.76
418.83	168.52
419.02	191.92
419.21	124.05
419.39	170.86
419.58	147.45
419.77	180.22
419.96	238.73
420.15	198.95
420.34	145.11
420.53	173.20
420.72	224.69
420.91	135.75
421.10	184.90
421.29	126.39
421.48	177.88
421.67	170.86
421.86	182.56
422.05	170.86
422.24	126.39
422.43	182.56
422.61	145.11
422.80	262.14
422.99	173.20
423.18	220.01
423.37	156.82
423.56	112.35
423.75	77.24
423.94	156.82
424.13	168.52
424.32	163.84
424.50	177.88
424.69	161.50
424.88	201.29
425.07	208.31
425.26	212.99
425.45	236.39
425.64	177.88
425.83	283.20
426.01	229.37
426.20	145.11
426.39	156.82
426.58	168.52
426.77	147.45
426.96	208.31
427.15	217.67
427.33	170.86
427.52	117.03
427.71	203.63
427.90	177.88
428.09	227.03
428.28	163.84
428.46	159.16
428.65	131.07
428.84	154.48
429.03	187.24
429.22	189.58
429.40	163.84
429.59	124.05
429.78	201.29
429.97	114.69
430.16	182.56
430.34	180.22
430.53	187.24
430.72	243.42
430.91	107.66
431.10	154.48
431.28	128.73
431.47	215.33
431.66	156.82
431.85	77.24
432.03	175.54
432.22	184.90
432.41	163.84
432.60	194.26
432.79	217.67
432.97	243.42
433.16	215.33
433.35	250.44
433.54	210.65
433.72	217.67
433.91	173.20
434.10	241.08
434.28	140.43
434.47	201.29
434.66	191.92
434.85	177.88
435.03	182.56
435.22	402.57
435.41	355.76
435.59	447.04
435.78	334.70
435.97	191.92
436.16	156.82
436.34	217.67
436.53	184.90
436.72	208.31
436.90	175.54
437.09	208.31
437.28	212.99
437.46	184.90
437.65	152.13
437.84	205.97
438.02	154.48
438.21	149.79
438.40	65.54
438.58	161.50
438.77	135.75
438.96	149.79
439.14	198.95
439.33	227.03
439.52	124.05
439.70	147.45
439.89	224.69
440.08	191.92
440.26	126.39
440.45	163.84
440.63	173.20
440.82	102.98
441.01	210.65
441.19	149.79
441.38	210.65
441.57	189.58
441.75	191.92
441.94	149.79
442.12	245.76
442.31	191.92
442.50	159.16
442.68	105.32
442.87	203.63
443.05	245.76
443.24	194.26
443.43	227.03
443.61	177.88
443.80	208.31
443.98	163.84
444.17	227.03
444.35	175.54
444.54	140.43
444.73	205.97
444.91	220.01
445.10	245.76
445.28	133.41
445.47	234.05
445.65	124.05
445.84	159.16
446.02	140.43
446.21	152.13
446.39	166.18
446.58	147.45
446.77	177.88
446.95	72.56
447.14	210.65
447.32	168.52
447.51	152.13
447.69	196.60
447.88	177.88
448.06	229.37
448.25	212.99
448.43	182.56
448.62	212.99
448.80	105.32
448.99	250.44
449.17	163.84
449.36	166.18
449.54	142.77
449.73	196.60
449.91	182.56
450.10	191.92
450.28	184.90
450.46	187.24
450.65	177.88
450.83	173.20
451.02	170.86
451.20	163.84
451.39	191.92
451.57	149.79
451.76	135.75
451.94	215.33
452.13	205.97
452.31	191.92
452.49	205.97
452.68	140.43
452.86	140.43
453.05	250.44
453.23	175.54
453.42	191.92
453.60	121.71
453.78	170.86
453.97	140.43
454.15	161.50
454.34	189.58
454.52	182.56
454.70	294.91
454.89	147.45
455.07	187.24
455.26	177.88
455.44	147.45
455.62	102.98
455.81	149.79
455.99	196.60
456.17	187.24
456.36	205.97
456.54	196.60
456.73	220.01
456.91	236.39
457.09	163.84
457.28	201.29
457.46	198.95
457.64	198.95
457.83	173.20
458.01	142.77
458.19	212.99
458.38	72.56
458.56	248.10
458.74	208.31
458.93	220.01
459.11	220.01
459.29	191.92
459.48	191.92
459.66	224.69
459.84	145.11
460.03	276.18
460.21	224.69
460.39	187.24
460.57	194.26
460.76	238.73
460.94	117.03
461.12	229.37
461.31	301.93
461.49	168.52
461.67	205.97
461.85	159.16
462.04	114.69
462.22	610.88
462.40	276.18
462.59	215.33
462.77	145.11
462.95	210.65
463.13	177.88
463.32	147.45
463.50	163.84
463.68	184.90
463.86	194.26
464.05	222.35
464.23	205.97
464.41	217.67
464.59	147.45
464.78	142.77
464.96	180.22
465.14	177.88
465.32	259.80
465.50	255.12
465.69	177.88
465.87	269.16
466.05	285.55
466.23	161.50
466.41	177.88
466.60	201.29
466.78	173.20
466.96	205.97
467.14	194.26
467.32	215.33
467.51	220.01
467.69	168.52
467.87	168.52
468.05	156.82
468.23	126.39
468.41	236.39
468.60	220.01
468.78	182.56
468.96	224.69
469.14	245.76
469.32	210.65
469.50	194.26
469.69	238.73
469.87	210.65
470.05	203.63
470.23	208.31
470.41	278.52
470.59	161.50
470.77	220.01
470.95	154.48
471.14	238.73
471.32	215.33
471.50	259.80
471.68	177.88
471.86	220.01
472.04	149.79
472.22	280.86
472.40	198.95
472.58	173.20
472.77	208.31
472.95	222.35
473.13	276.18
473.31	252.78
473.49	154.48
473.67	124.05
473.85	173.20
474.03	234.05
474.21	278.52
474.39	243.42
474.57	280.86
474.75	149.79
474.93	168.52
475.12	131.07
475.30	117.03
475.48	266.82
475.66	273.84
475.84	278.52
476.02	212.99
476.20	208.31
476.38	266.82
476.56	194.26
476.74	159.16
476.92	224.69
477.10	248.10
477.28	168.52
477.46	191.92
477.64	224.69
477.82	163.84
478.00	198.95
478.18	278.52
478.36	231.71
478.54	147.45
478.72	135.75
478.90	229.37
479.08	278.52
479.26	227.03
479.44	229.37
479.62	135.75
479.80	217.67
479.98	182.56
480.16	189.58
480.34	250.44
480.52	210.65
480.70	173.20
480.88	187.24
481.06	224.69
481.24	107.66
481.41	194.26
481.59	236.39
481.77	194.26
481.95	217.67
482.13	231.71
482.31	168.52
482.49	220.01
482.67	236.39
482.85	145.11
483.03	173.20
483.21	243.42
483.39	236.39
483.57	177.88
483.74	224.69
483.92	203.63
484.10	208.31
484.28	269.16
484.46	304.27
484.64	250.44
484.82	212.99
485.00	220.01
485.18	170.86
485.35	229.37
485.53	142.77
485.71	287.89
485.89	161.50
486.07	189.58
486.25	287.89
486.43	278.52
486.61	297.25
486.78	264.48
486.96	250.44
487.14	271.50
487.32	201.29
487.50	257.46
487.68	266.82
487.85	257.46
488.03	203.63
488.21	273.84
488.39	222.35
488.57	234.05
488.75	210.65
488.92	500.87
489.10	299.59
489.28	301.93
489.46	250.44
489.64	250.44
489.81	220.01
489.99	297.25
490.17	278.52
490.35	299.59
490.53	297.25
490.70	194.26
490.88	337.04
491.06	215.33
491.24	245.76
491.41	290.23
491.59	285.55
491.77	285.55
491.95	217.67
492.13	142.77
492.30	276.18
492.48	255.12
492.66	212.99
492.84	177.88
493.01	259.80
493.19	229.37
493.37	313.63
493.54	276.18
493.72	257.46
493.90	271.50
494.08	203.63
494.25	276.18
494.43	255.12
494.61	205.97
494.79	201.29
494.96	278.52
495.14	217.67
495.32	238.73
495.49	290.23
495.67	248.10
495.85	250.44
496.02	238.73
496.20	313.63
496.38	205.97
496.55	262.14
496.73	243.42
496.91	306.61
497.09	255.12
497.26	227.03
497.44	290.23
497.62	222.35
497.79	245.76
497.97	259.80
498.14	271.50
498.32	287.89
498.50	234.05
498.67	250.44
498.85	252.78
499.03	180.22
499.20	245.76
499.38	304.27
499.56	198.95
499.73	227.03
499.91	271.50
500.08	217.67
500.26	243.42
500.44	229.37
500.61	276.18
500.79	217.67
500.97	278.52
501.14	252.78
501.32	236.39
501.49	306.61
501.67	313.63
501.84	294.91
502.02	266.82
502.20	220.01
502.37	252.78
502.55	290.23
502.72	236.39
502.90	283.20
503.07	245.76
503.25	189.58
503.43	276.18
503.60	325.33
503.78	210.65
503.95	231.71
504.13	198.95
504.30	297.25
504.48	301.93
504.65	241.08
504.83	290.23
505.01	205.97
505.18	245.76
505.36	255.12
505.53	252.78
505.71	285.55
505.88	290.23
506.06	290.23
506.23	248.10
506.41	248.10
506.58	287.89
506.76	243.42
506.93	229.37
507.11	241.08
507.28	243.42
507.46	224.69
507.63	241.08
507.81	236.39
507.98	257.46
508.16	135.75
508.33	308.95
508.50	245.76
508.68	341.72
508.85	252.78
509.03	245.76
509.20	205.97
509.38	285.55
509.55	315.97
509.73	301.93
509.90	276.18
510.08	227.03
510.25	250.44
510.42	285.55
510.60	250.44
510.77	315.97
510.95	262.14
511.12	212.99
511.30	269.16
511.47	241.08
511.64	266.82
511.82	273.84
511.99	217.67
512.17	184.90
512.34	299.59
512.51	224.69
512.69	320.65
512.86	285.55
513.04	184.90
513.21	280.86
513.38	243.42
513.56	231.71
513.73	215.33
513.90	187.24
514.08	215.33
514.25	320.65
514.43	304.27
514.60	273.84
514.77	348.74
514.95	255.12
515.12	196.60
515.29	344.06
515.47	266.82
515.64	248.10
515.81	154.48
515.99	250.44
516.16	271.50
516.33	304.27
516.51	252.78
516.68	285.55
516.85	236.39
517.03	215.33
517.20	252.78
517.37	222.35
517.54	273.84
517.72	212.99
517.89	107.66
518.06	278.52
518.24	334.70
518.41	283.20
518.58	304.27
518.75	252.78
518.93	255.12
519.10	236.39
519.27	325.33
519.45	262.14
519.62	292.57
519.79	205.97
519.96	276.18
520.14	182.56
520.31	294.91
520.48	245.76
520.65	241.08
520.83	210.65
521.00	341.72
521.17	257.46
521.34	222.35
521.52	245.76
521.69	269.16
521.86	217.67
522.03	280.86
522.20	327.68
522.38	229.37
522.55	327.68
522.72	266.82
522.89	332.36
523.07	306.61
523.24	215.33
523.41	248.10
523.58	262.14
523.75	292.57
523.92	252.78
524.10	297.25
524.27	299.59
524.44	255.12
524.61	266.82
524.78	156.82
524.96	248.10
525.13	276.18
525.30	297.25
525.47	304.27
525.64	205.97
525.81	231.71
525.98	243.42
526.16	259.80
526.33	201.29
526.50	266.82
526.67	175.54
526.84	227.03
527.01	360.44
527.18	327.68
527.36	262.14
527.53	210.65
527.70	229.37
527.87	306.61
528.04	285.55
528.21	311.29
528.38	320.65
528.55	266.82
528.72	292.57
528.89	334.70
529.07	306.61
529.24	170.86
529.41	287.89
529.58	175.54
529.75	266.82
529.92	301.93
530.09	236.39
530.26	327.68
530.43	273.84
530.60	362.78
530.77	304.27
530.94	264.48
531.11	262.14
531.28	339.38
531.46	276.18
531.63	322.99
531.80	311.29
531.97	322.99
532.14	255.12
532.31	287.89
532.48	348.74
532.65	276.18
532.82	299.59
532.99	311.29
533.16	330.02
533.33	290.23
533.50	311.29
533.67	304.27
533.84	360.44
534.01	344.06
534.18	341.72
534.35	327.68
534.52	259.80
534.69	337.04
534.86	271.50
535.03	189.58
535.20	351.08
535.37	299.59
535.54	294.91
535.71	292.57
535.88	325.33
536.05	280.86
536.22	311.29
536.38	297.25
536.55	278.52
536.72	315.97
536.89	252.78
537.06	318.31
537.23	283.20
537.40	276.18
537.57	318.31
537.74	271.50
537.91	313.63
538.08	236.39
538.25	327.68
538.42	332.36
538.59	358.10
538.75	278.52
538.92	297.25
539.09	369.80
539.26	327.68
539.43	465.77
539.60	704.50
539.77	856.64
539.94	758.33
540.11	613.22
540.28	601.52
540.44	472.79
540.61	447.04
540.78	491.51
540.95	386.19
541.12	521.94
541.29	479.81
541.46	587.47
541.62	550.03
541.79	510.24
541.96	505.56
542.13	500.87
542.30	512.58
542.47	442.36
542.63	472.79
542.80	543.00
542.97	458.74
543.14	418.96
543.31	514.92
543.48	482.15
543.64	463.43
543.81	512.58
543.98	477.47
544.15	416.62
544.32	535.98
544.48	528.96
544.65	444.70
544.82	498.53
544.99	454.06
545.16	519.60
545.32	444.70
545.49	741.95
545.66	933.87
545.83	908.13
546.00	929.19
546.16	713.86
546.33	575.77
546.50	519.60
546.67	395.55
546.83	489.17
547.00	376.83
547.17	372.15
547.34	381.51
547.50	367.46
547.67	402.57
547.84	367.46
548.00	407.25
548.17	369.80
548.34	360.44
548.51	430.66
548.67	463.43
548.84	325.33
549.01	320.65
549.18	351.08
549.34	414.27
549.51	369.80
549.68	351.08
549.84	325.33
550.01	280.86
550.18	379.17
550.34	433.00
550.51	346.40
550.68	351.08
550.84	311.29
551.01	339.38
551.18	257.46
551.34	308.95
551.51	301.93
551.68	241.08
551.84	271.50
552.01	231.71
552.18	229.37
552.34	325.33
552.51	348.74
552.68	330.02
552.84	299.59
553.01	313.63
553.18	390.87
553.34	264.48
553.51	299.59
553.67	264.48
553.84	294.91
554.01	320.65
554.17	273.84
554.34	273.84
554.51	301.93
554.67	276.18
554.84	271.50
555.00	330.02
555.17	318.31
555.33	297.25
555.50	304.27
555.67	299.59
555.83	212.99
556.00	304.27
556.16	447.04
556.33	287.89
556.50	203.63
556.66	278.52
556.83	229.37
556.99	285.55
557.16	259.80
557.32	259.80
557.49	215.33
557.65	283.20
557.82	245.76
557.98	273.84
558.15	252.78
558.32	227.03
558.48	231.71
558.65	278.52
558.81	297.25
558.98	231.71
559.14	262.14
559.31	273.84
559.47	250.44
559.64	287.89
559.80	264.48
559.97	330.02
560.13	222.35
560.30	264.48
560.46	259.80
560.63	285.55
560.79	238.73
560.96	271.50
561.12	212.99
561.29	259.80
561.45	252.78
561.61	264.48
561.78	315.97
561.94	248.10
562.11	306.61
562.27	248.10
562.44	215.33
562.60	222.35
562.77	243.42
562.93	318.31
563.10	224.69
563.26	287.89
563.42	194.26
563.59	227.03
563.75	222.35
563.92	313.63
564.08	252.78
564.24	262.14
564.41	332.36
564.57	315.97
564.74	266.82
564.90	238.73
565.07	262.14
565.23	271.50
565.39	224.69
565.56	423.64
565.72	227.03
565.88	243.42
566.05	198.95
566.21	208.31
566.38	304.27
566.54	245.76
566.70	276.18
566.87	231.71
567.03	243.42
567.19	276.18
567.36	238.73
567.52	262.14
567.68	276.18
567.85	198.95
568.01	243.42
568.17	269.16
568.34	229.37
568.50	250.44
568.66	248.10
568.83	320.65
568.99	276.18
569.15	238.73
569.32	264.48
569.48	191.92
569.64	259.80
569.81	248.10
569.97	248.10
570.13	271.50
570.30	259.80
570.46	278.52
570.62	262.14
570.78	196.60
570.95	248.10
571.11	238.73
571.27	313.63
571.43	236.39
571.60	311.29
571.76	187.24
571.92	290.23
572.09	252.78
572.25	243.42
572.41	264.48
572.57	198.95
572.74	346.40
572.90	301.93
573.06	311.29
573.22	320.65
573.38	252.78
573.55	285.55
573.71	259.80
573.87	238.73
574.03	229.37
574.20	173.20
574.36	229.37
574.52	245.76
574.68	301.93
574.84	287.89
575.01	250.44
575.17	231.71
575.33	248.10
575.49	271.50
575.65	266.82
575.82	266.82
575.98	409.59
576.14	428.32
576.30	465.77
576.46	440.02
576.62	393.21
576.79	425.98
576.95	418.96
577.11	290.23
577.27	297.25
577.43	222.35
577.59	344.06
577.75	229.37
577.92	290.23
578.08	259.80
578.24	297.25
578.40	318.31
578.56	339.38
578.72	414.27
578.88	404.91
579.04	351.08
579.21	374.49
579.37	372.15
579.53	290.23
579.69	362.78
579.85	344.06
580.01	353.42
580.17	358.10
580.33	346.40
580.49	327.68
580.65	283.20
580.82	306.61
580.98	301.93
581.14	341.72
581.30	273.84
581.46	409.59
581.62	451.72
581.78	421.30
581.94	465.77
582.10	388.53
582.26	369.80
582.42	294.91
582.58	346.40
582.74	376.83
582.90	414.27
583.06	337.04
583.22	407.25
583.38	353.42
583.54	416.62
583.70	425.98
583.86	514.92
584.02	451.72
584.18	634.29
584.34	676.41
584.50	1502.62
584.66	9776.42
584.82	23426.42
584.98	31346.79
585.14	26700.83
585.30	16662.27
585.46	10076.01
585.62	6345.19
585.78	3138.66
585.94	1315.38
586.10	765.36
586.26	559.39
586.42	512.58
586.58	489.17
586.74	500.87
586.90	433.00
587.06	458.74
587.22	489.17
587.38	388.53
587.54	657.69
587.70	1584.54
587.86	2265.64
588.02	2368.62
588.18	1617.31
588.34	1266.23
588.49	884.72
588.65	580.45
588.81	472.79
588.97	339.38
589.13	290.23
589.29	257.46
589.45	322.99
589.61	301.93
589.77	264.48
589.93	339.38
590.08	327.68
590.24	386.19
590.40	362.78
590.56	327.68
590.72	306.61
590.88	269.16
591.04	337.04
591.20	276.18
591.35	325.33
591.51	325.33
591.67	337.04
591.83	266.82
591.99	351.08
592.15	327.68
592.31	346.40
592.46	341.72
592.62	388.53
592.78	304.27
592.94	318.31
593.10	379.17
593.26	313.63
593.41	315.97
593.57	409.59
593.73	423.64
593.89	1439.43
594.05	3059.08
594.20	4002.32
594.36	3712.09
594.52	2523.10
594.68	1589.22
594.84	1200.69
594.99	723.23
595.15	423.64
595.31	397.89
595.47	367.46
595.62	301.93
595.78	266.82
595.94	287.89
596.10	353.42
596.25	353.42
596.41	341.72
596.57	294.91
596.73	292.57
596.88	348.74
597.04	770.04
597.20	1015.79
597.36	1078.99
597.51	938.55
597.67	667.05
597.83	566.41
597.99	440.02
598.14	442.36
598.30	264.48
598.46	306.61
598.61	259.80
598.77	278.52
598.93	360.44
599.09	238.73
599.24	339.38
599.40	386.19
599.56	280.86
599.71	304.27
599.87	334.70
600.03	264.48
600.18	304.27
600.34	259.80
600.50	278.52
600.65	229.37
600.81	266.82
600.97	278.52
601.12	318.31
601.28	292.57
601.44	257.46
601.59	280.86
601.75	325.33
601.91	236.39
602.06	266.82
602.22	299.59
602.37	514.92
602.53	889.40
602.69	1062.60
602.84	1118.78
603.00	880.04
603.16	706.84
603.31	571.09
603.47	409.59
603.62	280.86
603.78	308.95
603.94	280.86
604.09	341.72
604.25	297.25
604.40	283.20
604.56	266.82
604.71	276.18
604.87	330.02
605.03	301.93
605.18	297.25
605.34	292.57
605.49	292.57
605.65	273.84
605.80	276.18
605.96	241.08
606.12	341.72
606.27	344.06
606.43	353.42
606.58	299.59
606.74	519.60
606.89	1659.44
607.05	2944.39
607.20	3323.56
607.36	2848.43
607.51	1856.04
607.67	1275.59
607.82	987.71
607.98	669.39
608.13	477.47
608.29	447.04
608.44	351.08
608.60	372.15
608.75	447.04
608.91	732.59
609.06	2448.20
609.22	4620.22
609.37	5476.85
609.53	4861.29
609.68	3529.53
609.84	2406.07
609.99	1767.10
610.15	1149.20
610.30	788.76
610.46	814.51
