SpectraSuite Data File
++++++++++++++++++++++++++++++++++++
Date: Fri Oct 04 11:34:10 GMT-05:00 2013
User: price-jones
Dark Spectrum Present: No
Reference Spectrum Present: No
Number of Sampled Component Spectra: 1
Spectrometers: USB2+H05261
Integration Time (usec): 100000 (USB2+H05261)
Spectra Averaged: 1 (USB2+H05261)
Boxcar Smoothing: 0 (USB2+H05261)
Correct for Electrical Dark: No (USB2+H05261)
Strobe/Lamp Enabled: No (USB2+H05261)
Correct for Detector Non-linearity: No (USB2+H05261)
Correct for Stray Light: No (USB2+H05261)
Number of Pixels in Processed Spectrum: 2048
>>>>>Begin Processed Spectral Data<<<<<
365.73	121.71
365.92	121.71
366.12	121.71
366.32	0.00
366.52	0.00
366.72	28.09
366.91	0.00
367.11	2.34
367.31	0.00
367.51	0.00
367.70	16.38
367.90	0.00
368.10	0.00
368.30	0.00
368.49	0.00
368.69	14.04
368.89	0.00
369.09	0.00
369.28	14.04
369.48	0.00
369.68	21.06
369.87	23.41
370.07	0.00
370.27	11.70
370.47	0.00
370.66	58.51
370.86	49.15
371.06	65.54
371.25	72.56
371.45	79.58
371.65	114.69
371.84	149.79
372.04	74.90
372.24	135.75
372.44	63.19
372.63	142.77
372.83	229.37
373.03	184.90
373.22	189.58
373.42	56.17
373.62	117.03
373.81	175.54
374.01	163.84
374.21	114.69
374.40	145.11
374.60	140.43
374.79	74.90
374.99	121.71
375.19	161.50
375.38	224.69
375.58	175.54
375.78	170.86
375.97	149.79
376.17	208.31
376.37	124.05
376.56	119.37
376.76	159.16
376.95	180.22
377.15	175.54
377.35	95.96
377.54	133.41
377.74	191.92
377.93	198.95
378.13	224.69
378.33	156.82
378.52	217.67
378.72	140.43
378.91	198.95
379.11	112.35
379.31	131.07
379.50	159.16
379.70	138.09
379.89	173.20
380.09	46.81
380.28	159.16
380.48	180.22
380.68	114.69
380.87	110.01
381.07	88.94
381.26	210.65
381.46	163.84
381.65	128.73
381.85	149.79
382.04	149.79
382.24	159.16
382.43	53.83
382.63	156.82
382.83	163.84
383.02	140.43
383.22	212.99
383.41	110.01
383.61	112.35
383.80	126.39
384.00	79.58
384.19	86.60
384.39	93.62
384.58	159.16
384.78	147.45
384.97	131.07
385.17	170.86
385.36	88.94
385.56	159.16
385.75	128.73
385.95	117.03
386.14	161.50
386.34	98.30
386.53	138.09
386.72	102.98
386.92	170.86
387.11	128.73
387.31	198.95
387.50	152.13
387.70	105.32
387.89	170.86
388.09	182.56
388.28	107.66
388.48	170.86
388.67	159.16
388.86	110.01
389.06	203.63
389.25	140.43
389.45	124.05
389.64	161.50
389.84	196.60
390.03	227.03
390.22	102.98
390.42	70.22
390.61	95.96
390.81	126.39
391.00	175.54
391.19	180.22
391.39	159.16
391.58	98.30
391.78	156.82
391.97	180.22
392.16	117.03
392.36	238.73
392.55	124.05
392.75	100.64
392.94	72.56
393.13	212.99
393.33	95.96
393.52	77.24
393.71	152.13
393.91	163.84
394.10	138.09
394.29	100.64
394.49	173.20
394.68	205.97
394.88	201.29
395.07	142.77
395.26	189.58
395.46	124.05
395.65	135.75
395.84	152.13
396.04	161.50
396.23	154.48
396.42	112.35
396.62	156.82
396.81	170.86
397.00	184.90
397.19	152.13
397.39	142.77
397.58	224.69
397.77	131.07
397.97	156.82
398.16	196.60
398.35	173.20
398.55	128.73
398.74	126.39
398.93	168.52
399.12	131.07
399.32	102.98
399.51	114.69
399.70	114.69
399.90	215.33
400.09	154.48
400.28	198.95
400.47	220.01
400.67	205.97
400.86	67.88
401.05	138.09
401.24	107.66
401.44	203.63
401.63	184.90
401.82	159.16
402.01	39.79
402.21	107.66
402.40	131.07
402.59	91.28
402.78	138.09
402.97	105.32
403.17	196.60
403.36	182.56
403.55	126.39
403.74	217.67
403.93	205.97
404.13	187.24
404.32	131.07
404.51	201.29
404.70	175.54
404.89	154.48
405.09	114.69
405.28	145.11
405.47	145.11
405.66	86.60
405.85	196.60
406.05	114.69
406.24	177.88
406.43	147.45
406.62	145.11
406.81	187.24
407.00	168.52
407.20	114.69
407.39	182.56
407.58	170.86
407.77	135.75
407.96	175.54
408.15	133.41
408.34	88.94
408.54	86.60
408.73	196.60
408.92	138.09
409.11	147.45
409.30	217.67
409.49	168.52
409.68	102.98
409.87	191.92
410.07	107.66
410.26	142.77
410.45	95.96
410.64	163.84
410.83	124.05
411.02	168.52
411.21	191.92
411.40	145.11
411.59	189.58
411.78	166.18
411.98	159.16
412.17	124.05
412.36	154.48
412.55	220.01
412.74	203.63
412.93	112.35
413.12	198.95
413.31	201.29
413.50	184.90
413.69	124.05
413.88	201.29
414.07	203.63
414.26	81.92
414.45	156.82
414.64	110.01
414.83	149.79
415.02	203.63
415.22	128.73
415.41	191.92
415.60	142.77
415.79	84.26
415.98	152.13
416.17	93.62
416.36	229.37
416.55	168.52
416.74	191.92
416.93	196.60
417.12	110.01
417.31	224.69
417.50	191.92
417.69	229.37
417.88	140.43
418.07	100.64
418.26	152.13
418.45	147.45
418.64	168.52
418.83	194.26
419.02	138.09
419.21	248.10
419.39	203.63
419.58	163.84
419.77	154.48
419.96	189.58
420.15	112.35
420.34	187.24
420.53	175.54
420.72	191.92
420.91	154.48
421.10	133.41
421.29	196.60
421.48	212.99
421.67	184.90
421.86	126.39
422.05	194.26
422.24	138.09
422.43	177.88
422.61	166.18
422.80	182.56
422.99	163.84
423.18	170.86
423.37	140.43
423.56	198.95
423.75	163.84
423.94	110.01
424.13	79.58
424.32	131.07
424.50	198.95
424.69	98.30
424.88	173.20
425.07	147.45
425.26	168.52
425.45	170.86
425.64	234.05
425.83	182.56
426.01	159.16
426.20	187.24
426.39	149.79
426.58	203.63
426.77	128.73
426.96	191.92
427.15	126.39
427.33	128.73
427.52	210.65
427.71	238.73
427.90	184.90
428.09	173.20
428.28	91.28
428.46	187.24
428.65	98.30
428.84	191.92
429.03	191.92
429.22	112.35
429.40	142.77
429.59	224.69
429.78	177.88
429.97	121.71
430.16	100.64
430.34	81.92
430.53	133.41
430.72	173.20
430.91	154.48
431.10	86.60
431.28	121.71
431.47	191.92
431.66	135.75
431.85	119.37
432.03	196.60
432.22	245.76
432.41	147.45
432.60	198.95
432.79	175.54
432.97	210.65
433.16	224.69
433.35	154.48
433.54	147.45
433.72	156.82
433.91	152.13
434.10	159.16
434.28	168.52
434.47	173.20
434.66	212.99
434.85	156.82
435.03	175.54
435.22	355.76
435.41	379.17
435.59	337.04
435.78	402.57
435.97	252.78
436.16	262.14
436.34	231.71
436.53	203.63
436.72	198.95
436.90	215.33
437.09	163.84
437.28	168.52
437.46	194.26
437.65	138.09
437.84	170.86
438.02	184.90
438.21	191.92
438.40	229.37
438.58	187.24
438.77	121.71
438.96	212.99
439.14	121.71
439.33	138.09
439.52	152.13
439.70	145.11
439.89	203.63
440.08	161.50
440.26	205.97
440.45	205.97
440.63	168.52
440.82	159.16
441.01	189.58
441.19	152.13
441.38	163.84
441.57	173.20
441.75	163.84
441.94	154.48
442.12	196.60
442.31	203.63
442.50	131.07
442.68	135.75
442.87	159.16
443.05	203.63
443.24	161.50
443.43	215.33
443.61	196.60
443.80	229.37
443.98	133.41
444.17	236.39
444.35	201.29
444.54	173.20
444.73	187.24
444.91	280.86
445.10	170.86
445.28	112.35
445.47	227.03
445.65	163.84
445.84	229.37
446.02	238.73
446.21	203.63
446.39	189.58
446.58	152.13
446.77	147.45
446.95	212.99
447.14	114.69
447.32	217.67
447.51	152.13
447.69	168.52
447.88	308.95
448.06	194.26
448.25	189.58
448.43	126.39
448.62	131.07
448.80	140.43
448.99	203.63
449.17	177.88
449.36	255.12
449.54	79.58
449.73	182.56
449.91	220.01
450.10	168.52
450.28	184.90
450.46	222.35
450.65	259.80
450.83	140.43
451.02	131.07
451.20	133.41
451.39	147.45
451.57	166.18
451.76	168.52
451.94	147.45
452.13	205.97
452.31	191.92
452.49	241.08
452.68	131.07
452.86	238.73
453.05	196.60
453.23	105.32
453.42	93.62
453.60	175.54
453.78	173.20
453.97	126.39
454.15	163.84
454.34	203.63
454.52	147.45
454.70	201.29
454.89	220.01
455.07	220.01
455.26	159.16
455.44	180.22
455.62	142.77
455.81	168.52
455.99	133.41
456.17	227.03
456.36	163.84
456.54	222.35
456.73	170.86
456.91	175.54
457.09	156.82
457.28	241.08
457.46	236.39
457.64	187.24
457.83	201.29
458.01	196.60
458.19	191.92
458.38	203.63
458.56	182.56
458.74	220.01
458.93	182.56
459.11	234.05
459.29	210.65
459.48	147.45
459.66	126.39
459.84	187.24
460.03	189.58
460.21	205.97
460.39	198.95
460.57	231.71
460.76	212.99
460.94	173.20
461.12	234.05
461.31	203.63
461.49	205.97
461.67	149.79
461.85	175.54
462.04	166.18
462.22	308.95
462.40	156.82
462.59	210.65
462.77	175.54
462.95	236.39
463.13	255.12
463.32	248.10
463.50	180.22
463.68	147.45
463.86	173.20
464.05	131.07
464.23	210.65
464.41	241.08
464.59	212.99
464.78	229.37
464.96	142.77
465.14	201.29
465.32	220.01
465.50	191.92
465.69	238.73
465.87	168.52
466.05	184.90
466.23	224.69
466.41	161.50
466.60	231.71
466.78	231.71
466.96	292.57
467.14	215.33
467.32	201.29
467.51	177.88
467.69	201.29
467.87	234.05
468.05	191.92
468.23	259.80
468.41	248.10
468.60	203.63
468.78	205.97
468.96	208.31
469.14	227.03
469.32	147.45
469.50	189.58
469.69	210.65
469.87	243.42
470.05	177.88
470.23	238.73
470.41	187.24
470.59	224.69
470.77	262.14
470.95	170.86
471.14	229.37
471.32	138.09
471.50	264.48
471.68	189.58
471.86	227.03
472.04	229.37
472.22	173.20
472.40	191.92
472.58	145.11
472.77	166.18
472.95	224.69
473.13	252.78
473.31	236.39
473.49	175.54
473.67	203.63
473.85	325.33
474.03	194.26
474.21	208.31
474.39	264.48
474.57	175.54
474.75	198.95
474.93	220.01
475.12	173.20
475.30	175.54
475.48	257.46
475.66	138.09
475.84	152.13
476.02	145.11
476.20	135.75
476.38	203.63
476.56	231.71
476.74	203.63
476.92	201.29
477.10	191.92
477.28	269.16
477.46	133.41
477.64	271.50
477.82	224.69
478.00	210.65
478.18	243.42
478.36	175.54
478.54	227.03
478.72	236.39
478.90	255.12
479.08	201.29
479.26	220.01
479.44	163.84
479.62	245.76
479.80	170.86
479.98	173.20
480.16	222.35
480.34	250.44
480.52	105.32
480.70	266.82
480.88	154.48
481.06	280.86
481.24	208.31
481.41	255.12
481.59	215.33
481.77	234.05
481.95	114.69
482.13	227.03
482.31	149.79
482.49	117.03
482.67	220.01
482.85	264.48
483.03	203.63
483.21	184.90
483.39	154.48
483.57	236.39
483.74	264.48
483.92	210.65
484.10	198.95
484.28	224.69
484.46	273.84
484.64	145.11
484.82	250.44
485.00	182.56
485.18	236.39
485.35	187.24
485.53	220.01
485.71	194.26
485.89	140.43
486.07	161.50
486.25	243.42
486.43	217.67
486.61	222.35
486.78	285.55
486.96	238.73
487.14	241.08
487.32	210.65
487.50	238.73
487.68	208.31
487.85	229.37
488.03	229.37
488.21	266.82
488.39	177.88
488.57	259.80
488.75	243.42
488.92	477.47
489.10	292.57
489.28	285.55
489.46	184.90
489.64	285.55
489.81	212.99
489.99	367.46
490.17	208.31
490.35	287.89
490.53	236.39
490.70	212.99
490.88	264.48
491.06	311.29
491.24	236.39
491.41	262.14
491.59	266.82
491.77	182.56
491.95	301.93
492.13	196.60
492.30	290.23
492.48	278.52
492.66	245.76
492.84	262.14
493.01	196.60
493.19	119.37
493.37	243.42
493.54	173.20
493.72	238.73
493.90	203.63
494.08	194.26
494.25	257.46
494.43	264.48
494.61	231.71
494.79	313.63
494.96	304.27
495.14	287.89
495.32	297.25
495.49	248.10
495.67	229.37
495.85	266.82
496.02	212.99
496.20	259.80
496.38	224.69
496.55	292.57
496.73	203.63
496.91	257.46
497.09	210.65
497.26	344.06
497.44	198.95
497.62	236.39
497.79	290.23
497.97	313.63
498.14	278.52
498.32	280.86
498.50	262.14
498.67	194.26
498.85	252.78
499.03	294.91
499.20	290.23
499.38	208.31
499.56	182.56
499.73	290.23
499.91	222.35
500.08	271.50
500.26	229.37
500.44	245.76
500.61	250.44
500.79	250.44
500.97	184.90
501.14	269.16
501.32	208.31
501.49	280.86
501.67	184.90
501.84	266.82
502.02	243.42
502.20	248.10
502.37	222.35
502.55	236.39
502.72	180.22
502.90	299.59
503.07	154.48
503.25	255.12
503.43	285.55
503.60	243.42
503.78	257.46
503.95	220.01
504.13	266.82
504.30	339.38
504.48	308.95
504.65	299.59
504.83	245.76
505.01	245.76
505.18	212.99
505.36	294.91
505.53	341.72
505.71	250.44
505.88	241.08
506.06	166.18
506.23	196.60
506.41	273.84
506.58	278.52
506.76	271.50
506.93	271.50
507.11	147.45
507.28	212.99
507.46	224.69
507.63	308.95
507.81	245.76
507.98	163.84
508.16	266.82
508.33	276.18
508.50	196.60
508.68	241.08
508.85	250.44
509.03	215.33
509.20	257.46
509.38	250.44
509.55	191.92
509.73	280.86
509.90	243.42
510.08	191.92
510.25	241.08
510.42	266.82
510.60	285.55
510.77	245.76
510.95	290.23
511.12	273.84
511.30	194.26
511.47	276.18
511.64	231.71
511.82	173.20
511.99	257.46
512.17	262.14
512.34	189.58
512.51	189.58
512.69	266.82
512.86	248.10
513.04	290.23
513.21	236.39
513.38	177.88
513.56	266.82
513.73	257.46
513.90	290.23
514.08	217.67
514.25	231.71
514.43	266.82
514.60	234.05
514.77	205.97
514.95	264.48
515.12	271.50
515.29	231.71
515.47	236.39
515.64	196.60
515.81	269.16
515.99	287.89
516.16	224.69
516.33	224.69
516.51	292.57
516.68	196.60
516.85	304.27
517.03	245.76
517.20	245.76
517.37	308.95
517.54	243.42
517.72	308.95
517.89	264.48
518.06	241.08
518.24	290.23
518.41	257.46
518.58	227.03
518.75	168.52
518.93	231.71
519.10	325.33
519.27	262.14
519.45	217.67
519.62	217.67
519.79	224.69
519.96	187.24
520.14	250.44
520.31	203.63
520.48	259.80
520.65	264.48
520.83	290.23
521.00	264.48
521.17	255.12
521.34	238.73
521.52	189.58
521.69	262.14
521.86	191.92
522.03	271.50
522.20	278.52
522.38	229.37
522.55	229.37
522.72	285.55
522.89	276.18
523.07	231.71
523.24	224.69
523.41	255.12
523.58	229.37
523.75	220.01
523.92	285.55
524.10	177.88
524.27	271.50
524.44	294.91
524.61	287.89
524.78	245.76
524.96	330.02
525.13	294.91
525.30	334.70
525.47	322.99
525.64	285.55
525.81	238.73
525.98	234.05
526.16	264.48
526.33	234.05
526.50	360.44
526.67	222.35
526.84	238.73
527.01	224.69
527.18	245.76
527.36	243.42
527.53	285.55
527.70	248.10
527.87	259.80
528.04	292.57
528.21	238.73
528.38	285.55
528.55	290.23
528.72	322.99
528.89	299.59
529.07	278.52
529.24	217.67
529.41	369.80
529.58	220.01
529.75	241.08
529.92	313.63
530.09	334.70
530.26	243.42
530.43	341.72
530.60	262.14
530.77	313.63
530.94	278.52
531.11	311.29
531.28	322.99
531.46	234.05
531.63	241.08
531.80	266.82
531.97	227.03
532.14	292.57
532.31	269.16
532.48	255.12
532.65	210.65
532.82	241.08
532.99	259.80
533.16	262.14
533.33	241.08
533.50	383.85
533.67	330.02
533.84	313.63
534.01	290.23
534.18	290.23
534.35	245.76
534.52	283.20
534.69	308.95
534.86	278.52
535.03	250.44
535.20	217.67
535.37	327.68
535.54	208.31
535.71	299.59
535.88	320.65
536.05	313.63
536.22	229.37
536.38	344.06
536.55	318.31
536.72	276.18
536.89	369.80
537.06	217.67
537.23	217.67
537.40	344.06
537.57	276.18
537.74	332.36
537.91	344.06
538.08	308.95
538.25	442.36
538.42	222.35
538.59	278.52
538.75	290.23
538.92	276.18
539.09	287.89
539.26	273.84
539.43	402.57
539.60	367.46
539.77	388.53
539.94	484.49
540.11	379.17
540.28	400.23
540.44	376.83
540.61	372.15
540.78	416.62
540.95	397.89
541.12	486.83
541.29	433.00
541.46	512.58
541.62	451.72
541.79	461.09
541.96	505.56
542.13	505.56
542.30	447.04
542.47	416.62
542.63	440.02
542.80	484.49
542.97	444.70
543.14	416.62
543.31	461.09
543.48	393.21
543.64	482.15
543.81	418.96
543.98	379.17
544.15	381.51
544.32	400.23
544.48	447.04
544.65	468.11
544.82	463.43
544.99	425.98
545.16	407.25
545.32	451.72
545.49	603.86
545.66	805.14
545.83	847.27
546.00	676.41
546.16	615.56
546.33	524.28
546.50	447.04
546.67	447.04
546.83	393.21
547.00	325.33
547.17	358.10
547.34	306.61
547.50	353.42
547.67	447.04
547.84	425.98
548.00	411.93
548.17	320.65
548.34	327.68
548.51	346.40
548.67	423.64
548.84	320.65
549.01	315.97
549.18	325.33
549.34	390.87
549.51	369.80
549.68	372.15
549.84	337.04
550.01	334.70
550.18	447.04
550.34	330.02
550.51	301.93
550.68	393.21
550.84	234.05
551.01	320.65
551.18	287.89
551.34	255.12
551.51	318.31
551.68	337.04
551.84	374.49
552.01	348.74
552.18	196.60
552.34	273.84
552.51	217.67
552.68	292.57
552.84	325.33
553.01	339.38
553.18	287.89
553.34	306.61
553.51	304.27
553.67	285.55
553.84	292.57
554.01	215.33
554.17	287.89
554.34	262.14
554.51	241.08
554.67	292.57
554.84	372.15
555.00	320.65
555.17	264.48
555.33	325.33
555.50	252.78
555.67	252.78
555.83	276.18
556.00	271.50
556.16	418.96
556.33	304.27
556.50	224.69
556.66	273.84
556.83	273.84
556.99	255.12
557.16	266.82
557.32	262.14
557.49	297.25
557.65	285.55
557.82	238.73
557.98	271.50
558.15	283.20
558.32	184.90
558.48	194.26
558.65	330.02
558.81	255.12
558.98	142.77
559.14	297.25
559.31	280.86
559.47	273.84
559.64	222.35
559.80	257.46
559.97	159.16
560.13	271.50
560.30	234.05
560.46	266.82
560.63	278.52
560.79	205.97
560.96	252.78
561.12	276.18
561.29	287.89
561.45	241.08
561.61	227.03
561.78	306.61
561.94	191.92
562.11	194.26
562.27	203.63
562.44	229.37
562.60	252.78
562.77	252.78
562.93	259.80
563.10	320.65
563.26	236.39
563.42	278.52
563.59	205.97
563.75	224.69
563.92	294.91
564.08	243.42
564.24	311.29
564.41	257.46
564.57	297.25
564.74	292.57
564.90	318.31
565.07	285.55
565.23	313.63
565.39	241.08
565.56	304.27
565.72	229.37
565.88	229.37
566.05	297.25
566.21	238.73
566.38	318.31
566.54	252.78
566.70	198.95
566.87	217.67
567.03	259.80
567.19	276.18
567.36	208.31
567.52	198.95
567.68	259.80
567.85	320.65
568.01	236.39
568.17	245.76
568.34	304.27
568.50	285.55
568.66	212.99
568.83	276.18
568.99	140.43
569.15	292.57
569.32	238.73
569.48	266.82
569.64	297.25
569.81	304.27
569.97	234.05
570.13	229.37
570.30	273.84
570.46	252.78
570.62	266.82
570.78	250.44
570.95	196.60
571.11	346.40
571.27	292.57
571.43	262.14
571.60	201.29
571.76	259.80
571.92	250.44
572.09	257.46
572.25	170.86
572.41	236.39
572.57	259.80
572.74	252.78
572.90	255.12
573.06	273.84
573.22	208.31
573.38	297.25
573.55	294.91
573.71	287.89
573.87	255.12
574.03	231.71
574.20	276.18
574.36	297.25
574.52	220.01
574.68	276.18
574.84	273.84
575.01	248.10
575.17	203.63
575.33	210.65
575.49	301.93
575.65	285.55
575.82	273.84
575.98	315.97
576.14	248.10
576.30	222.35
576.46	315.97
576.62	320.65
576.79	372.15
576.95	353.42
577.11	313.63
577.27	222.35
577.43	304.27
577.59	276.18
577.75	257.46
577.92	238.73
578.08	205.97
578.24	271.50
578.40	308.95
578.56	355.76
578.72	367.46
578.88	402.57
579.04	276.18
579.21	320.65
579.37	306.61
579.53	243.42
579.69	250.44
579.85	311.29
580.01	346.40
580.17	318.31
580.33	322.99
580.49	341.72
580.65	229.37
580.82	292.57
580.98	245.76
581.14	229.37
581.30	367.46
581.46	341.72
581.62	376.83
581.78	276.18
581.94	283.20
582.10	259.80
582.26	266.82
582.42	294.91
582.58	346.40
582.74	348.74
582.90	259.80
583.06	318.31
583.22	290.23
583.38	334.70
583.54	276.18
583.70	374.49
583.86	318.31
584.02	234.05
584.18	372.15
584.34	414.27
584.50	573.43
584.66	2218.83
584.82	4489.15
584.98	5902.83
585.14	5177.26
585.30	3400.80
585.46	2148.61
585.62	1451.13
585.78	819.19
585.94	514.92
586.10	337.04
586.26	290.23
586.42	358.10
586.58	341.72
586.74	344.06
586.90	313.63
587.06	383.85
587.22	388.53
587.38	353.42
587.54	400.23
587.70	545.34
587.86	683.44
588.02	660.03
588.18	561.73
588.34	454.06
588.49	339.38
588.65	358.10
588.81	245.76
588.97	285.55
589.13	220.01
589.29	245.76
589.45	266.82
589.61	189.58
589.77	313.63
589.93	273.84
590.08	222.35
590.24	351.08
590.40	285.55
590.56	304.27
590.72	273.84
590.88	248.10
591.04	308.95
591.20	245.76
591.35	241.08
591.51	306.61
591.67	257.46
591.83	255.12
591.99	308.95
592.15	194.26
592.31	283.20
592.46	334.70
592.62	290.23
592.78	227.03
592.94	252.78
593.10	315.97
593.26	273.84
593.41	287.89
593.57	255.12
593.73	290.23
593.89	557.05
594.05	809.83
594.20	936.21
594.36	894.08
594.52	627.26
594.68	587.47
594.84	451.72
594.99	376.83
595.15	315.97
595.31	255.12
595.47	339.38
595.62	238.73
595.78	224.69
595.94	290.23
596.10	278.52
596.25	196.60
596.41	334.70
596.57	236.39
596.73	262.14
596.88	306.61
597.04	339.38
597.20	411.93
597.36	463.43
597.51	353.42
597.67	334.70
597.83	257.46
597.99	290.23
598.14	308.95
598.30	278.52
598.46	210.65
598.61	271.50
598.77	299.59
598.93	299.59
599.09	308.95
599.24	297.25
599.40	245.76
599.56	285.55
599.71	196.60
599.87	250.44
600.03	262.14
600.18	287.89
600.34	238.73
600.50	297.25
600.65	196.60
600.81	210.65
600.97	257.46
601.12	210.65
601.28	337.04
601.44	161.50
601.59	210.65
601.75	208.31
601.91	283.20
602.06	201.29
602.22	355.76
602.37	381.51
602.53	311.29
602.69	458.74
602.84	440.02
603.00	358.10
603.16	444.70
603.31	322.99
603.47	292.57
603.62	201.29
603.78	299.59
603.94	250.44
604.09	205.97
604.25	248.10
604.40	306.61
604.56	168.52
604.71	290.23
604.87	245.76
605.03	198.95
605.18	245.76
605.34	346.40
605.49	210.65
605.65	290.23
605.80	234.05
605.96	210.65
606.12	313.63
606.27	236.39
606.43	236.39
606.58	292.57
606.74	245.76
606.89	627.26
607.05	683.44
607.20	875.36
607.36	840.25
607.51	559.39
607.67	430.66
607.82	423.64
607.98	346.40
608.13	292.57
608.29	297.25
608.44	294.91
608.60	334.70
608.75	332.36
608.91	334.70
609.06	816.85
609.22	1196.01
609.37	1331.76
609.53	1151.54
609.68	1008.77
609.84	744.29
609.99	606.20
610.15	512.58
610.30	524.28
610.46	608.54
610.61	608.54
610.76	741.95
610.92	746.63
